##NAMES=Glauconite
##RRUFFID=R070295
##IDEAL CHEMISTRY=(K,Na)(Fe^3+^,Al,Mg)_2_(Si,Al)_4_O_10_(OH)_2_
##LOCALITY=Hope Green Point, Coringa island, Queensland, Australia
##OWNER=RRUFF
##SOURCE=Michael Scott
##DESCRIPTION=Loose aggregate of dark green grains associated with quartz
##STATUS=The identification of this mineral is not yet confirmed.
##URL=rruff.info/R070295
173.2856, 21684.55
173.7677, 21754.53
174.2498, 21784.49
174.7319, 21800.26
175.2140, 21803.54
175.6961, 21805.77
176.1783, 21828.73
176.6604, 21886.38
177.1425, 21947.34
177.6246, 21968.63
178.1067, 21954.80
178.5888, 21936.75
179.0710, 21930.54
179.5531, 21936.61
180.0352, 21958.93
180.5173, 22007.10
180.9994, 22062.87
181.4815, 22098.40
181.9637, 22114.11
182.4458, 22113.25
182.9279, 22077.32
183.4100, 22021.38
183.8921, 22003.49
184.3742, 22056.77
184.8564, 22151.45
185.3385, 22216.55
185.8206, 22251.03
186.3027, 22275.45
186.7848, 22311.92
187.2669, 22358.37
187.7491, 22400.20
188.2312, 22431.61
188.7133, 22454.30
189.1954, 22472.46
189.6775, 22484.33
190.1596, 22499.04
190.6418, 22528.75
191.1239, 22573.16
191.6060, 22623.01
192.0881, 22685.48
192.5702, 22756.00
193.0524, 22786.45
193.5345, 22766.84
194.0166, 22733.07
194.4987, 22741.77
194.9808, 22795.09
195.4629, 22858.24
195.9451, 22924.09
196.4272, 22992.95
196.9093, 23027.54
197.3914, 23018.53
197.8735, 22988.10
198.3556, 22977.54
198.8378, 22989.04
199.3199, 23006.29
199.8020, 23015.63
200.2841, 23014.84
200.7662, 23044.30
201.2483, 23121.83
201.7305, 23216.70
202.2126, 23244.02
202.6947, 23187.46
203.1768, 23124.29
203.6589, 23101.88
204.1410, 23125.62
204.6232, 23154.69
205.1053, 23189.08
205.5874, 23224.99
206.0695, 23245.73
206.5516, 23243.54
207.0337, 23246.59
207.5159, 23280.82
207.9980, 23356.07
208.4801, 23412.04
208.9622, 23437.39
209.4443, 23437.88
209.9264, 23445.30
210.4086, 23469.15
210.8907, 23480.74
211.3728, 23446.15
211.8549, 23339.23
212.3370, 23277.59
212.8191, 23293.71
213.3013, 23375.28
213.7834, 23415.37
214.2655, 23395.29
214.7476, 23363.76
215.2297, 23364.12
215.7118, 23407.30
216.1940, 23452.56
216.6761, 23494.36
217.1582, 23532.77
217.6403, 23567.20
218.1224, 23603.56
218.6045, 23627.61
219.0867, 23620.14
219.5688, 23562.25
220.0509, 23518.38
220.5330, 23508.36
221.0151, 23533.12
221.4972, 23535.00
221.9794, 23492.63
222.4615, 23451.22
222.9436, 23466.80
223.4257, 23580.04
223.9078, 23665.96
224.3899, 23685.98
224.8721, 23633.23
225.3542, 23610.09
225.8363, 23630.02
226.3184, 23666.55
226.8005, 23686.38
227.2827, 23673.70
227.7648, 23674.89
228.2469, 23707.29
228.7290, 23777.29
229.2111, 23827.58
229.6932, 23852.49
230.1754, 23861.71
230.6575, 23866.09
231.1396, 23858.87
231.6217, 23858.85
232.1038, 23872.23
232.5859, 23901.40
233.0681, 23931.00
233.5502, 23959.03
234.0323, 23988.78
234.5144, 24026.83
234.9965, 24080.55
235.4786, 24129.60
235.9608, 24166.24
236.4429, 24186.04
236.9250, 24212.30
237.4071, 24247.18
237.8892, 24287.02
238.3713, 24326.87
238.8535, 24370.01
239.3356, 24407.23
239.8177, 24429.41
240.2998, 24423.22
240.7819, 24457.48
241.2640, 24558.88
241.7462, 24685.75
242.2283, 24764.57
242.7104, 24769.72
243.1925, 24768.87
243.6746, 24783.71
244.1567, 24818.50
244.6389, 24854.55
245.1210, 24888.39
245.6031, 24925.38
246.0852, 24974.90
246.5673, 25039.20
247.0494, 25112.47
247.5316, 25197.04
248.0137, 25303.15
248.4958, 25383.83
248.9779, 25424.21
249.4600, 25447.10
249.9421, 25497.13
250.4243, 25595.14
250.9064, 25683.45
251.3885, 25737.21
251.8706, 25742.01
252.3527, 25760.73
252.8348, 25795.23
253.3170, 25842.31
253.7991, 25899.20
254.2812, 25976.14
254.7633, 26042.03
255.2454, 26081.51
255.7275, 26083.72
256.2097, 26099.56
256.6918, 26135.36
257.1739, 26180.27
257.6560, 26214.31
258.1381, 26233.70
258.6202, 26250.06
259.1024, 26267.02
259.5845, 26283.45
260.0666, 26306.70
260.5487, 26346.12
261.0308, 26385.14
261.5129, 26388.25
261.9951, 26336.13
262.4772, 26294.35
262.9593, 26293.91
263.4414, 26347.06
263.9235, 26383.39
264.4056, 26401.21
264.8878, 26404.09
265.3699, 26397.36
265.8520, 26378.70
266.3341, 26356.65
266.8162, 26329.04
267.2983, 26291.19
267.7805, 26284.12
268.2626, 26322.23
268.7447, 26375.21
269.2268, 26384.60
269.7089, 26336.17
270.1910, 26295.48
270.6732, 26296.14
271.1553, 26345.64
271.6374, 26359.16
272.1195, 26326.50
272.6016, 26272.78
273.0837, 26236.91
273.5659, 26219.46
274.0480, 26215.90
274.5301, 26231.58
275.0122, 26267.72
275.4943, 26282.54
275.9764, 26271.19
276.4586, 26247.66
276.9407, 26232.33
277.4228, 26226.26
277.9049, 26220.53
278.3870, 26207.00
278.8691, 26186.87
279.3513, 26193.44
279.8334, 26235.19
280.3155, 26281.78
280.7976, 26286.86
281.2798, 26248.55
281.7619, 26212.88
282.2440, 26205.29
282.7261, 26219.06
283.2082, 26192.82
283.6903, 26115.98
284.1725, 26038.07
284.6546, 26029.69
285.1367, 26088.23
285.6188, 26143.31
286.1009, 26167.02
286.5830, 26166.83
287.0652, 26179.77
287.5473, 26209.26
288.0294, 26230.67
288.5115, 26198.57
288.9936, 26122.12
289.4757, 26078.85
289.9579, 26111.89
290.4400, 26192.16
290.9221, 26241.54
291.4042, 26258.90
291.8863, 26259.51
292.3684, 26249.81
292.8506, 26233.58
293.3327, 26227.89
293.8148, 26245.70
294.2969, 26272.90
294.7790, 26277.25
295.2611, 26258.70
295.7433, 26243.13
296.2254, 26258.09
296.7075, 26294.58
297.1896, 26325.98
297.6717, 26340.46
298.1538, 26350.27
298.6360, 26379.60
299.1181, 26426.51
299.6002, 26464.79
300.0823, 26464.59
300.5644, 26442.91
301.0465, 26432.63
301.5287, 26447.23
302.0108, 26470.56
302.4929, 26489.38
302.9750, 26502.95
303.4571, 26506.03
303.9392, 26477.25
304.4214, 26441.27
304.9035, 26432.65
305.3856, 26468.42
305.8677, 26519.84
306.3498, 26566.53
306.8319, 26608.74
307.3141, 26648.35
307.7962, 26688.66
308.2783, 26725.28
308.7604, 26755.83
309.2425, 26782.66
309.7246, 26795.60
310.2068, 26773.54
310.6889, 26730.63
311.1710, 26703.42
311.6531, 26719.04
312.1352, 26751.23
312.6173, 26780.97
313.0995, 26803.40
313.5816, 26827.62
314.0637, 26863.24
314.5458, 26903.45
315.0279, 26935.70
315.5100, 26958.03
315.9922, 26968.99
316.4743, 26960.17
316.9564, 26920.59
317.4385, 26902.94
317.9206, 26946.20
318.4027, 27016.91
318.8849, 27068.29
319.3670, 27083.74
319.8491, 27081.33
320.3312, 27057.98
320.8133, 27006.06
321.2954, 26979.32
321.7776, 27006.38
322.2597, 27056.42
322.7418, 27096.62
323.2239, 27111.19
323.7060, 27126.55
324.1881, 27155.89
324.6703, 27202.54
325.1524, 27223.93
325.6345, 27194.29
326.1166, 27150.10
326.5987, 27120.29
327.0808, 27102.77
327.5630, 27102.57
328.0451, 27130.92
328.5272, 27185.65
329.0093, 27218.32
329.4914, 27209.04
329.9735, 27195.07
330.4557, 27201.16
330.9378, 27241.24
331.4199, 27277.42
331.9020, 27307.19
332.3841, 27330.99
332.8662, 27350.29
333.3484, 27361.19
333.8305, 27373.21
334.3126, 27394.16
334.7947, 27431.33
335.2768, 27452.08
335.7589, 27445.22
336.2411, 27426.33
336.7232, 27439.09
337.2053, 27494.75
337.6874, 27548.94
338.1695, 27576.75
338.6516, 27573.21
339.1338, 27585.67
339.6159, 27617.86
340.0980, 27661.42
340.5801, 27704.05
341.0622, 27746.73
341.5443, 27783.80
342.0265, 27814.37
342.5086, 27838.04
342.9907, 27851.73
343.4728, 27853.63
343.9549, 27852.13
344.4370, 27855.50
344.9192, 27863.79
345.4013, 27878.53
345.8834, 27903.31
346.3655, 27933.94
346.8476, 27953.54
347.3297, 27961.29
347.8119, 27977.87
348.2940, 28036.90
348.7761, 28122.34
349.2582, 28183.38
349.7403, 28195.87
350.2225, 28189.04
350.7046, 28204.40
351.1867, 28239.85
351.6688, 28277.99
352.1509, 28318.45
352.6331, 28350.60
353.1152, 28353.46
353.5973, 28306.41
354.0794, 28259.12
354.5615, 28257.94
355.0436, 28293.41
355.5258, 28336.74
356.0079, 28387.88
356.4900, 28431.21
356.9721, 28447.33
357.4542, 28423.17
357.9363, 28406.04
358.4185, 28435.01
358.9006, 28487.65
359.3827, 28525.18
359.8648, 28518.89
360.3469, 28504.36
360.8290, 28500.88
361.3112, 28512.01
361.7933, 28520.12
362.2754, 28512.27
362.7575, 28501.29
363.2396, 28501.11
363.7217, 28526.18
364.2039, 28551.07
364.6860, 28563.78
365.1681, 28564.06
365.6502, 28581.43
366.1323, 28647.98
366.6144, 28715.43
367.0966, 28750.37
367.5787, 28714.97
368.0608, 28691.69
368.5429, 28687.26
369.0250, 28699.53
369.5071, 28718.00
369.9893, 28749.30
370.4714, 28779.00
370.9535, 28799.31
371.4356, 28803.54
371.9177, 28812.90
372.3998, 28827.37
372.8820, 28847.35
373.3641, 28876.21
373.8462, 28920.31
374.3283, 28956.27
374.8104, 28966.19
375.2925, 28945.04
375.7747, 28965.99
376.2568, 29044.13
376.7389, 29134.85
377.2210, 29175.00
377.7031, 29161.69
378.1852, 29138.92
378.6674, 29114.30
379.1495, 29091.29
379.6316, 29081.43
380.1137, 29084.22
380.5958, 29105.60
381.0779, 29173.91
381.5601, 29274.38
382.0422, 29323.00
382.5243, 29279.16
383.0064, 29204.38
383.4885, 29208.47
383.9706, 29282.37
384.4528, 29358.87
384.9349, 29390.93
385.4170, 29396.46
385.8991, 29406.20
386.3812, 29426.28
386.8633, 29446.10
387.3455, 29451.27
387.8276, 29448.36
388.3097, 29452.52
388.7918, 29480.23
389.2739, 29512.39
389.7560, 29534.54
390.2382, 29545.30
390.7203, 29548.88
391.2024, 29540.02
391.6845, 29527.75
392.1666, 29522.43
392.6487, 29515.54
393.1309, 29527.61
393.6130, 29585.11
394.0951, 29681.81
394.5772, 29745.61
395.0593, 29726.68
395.5414, 29689.06
396.0236, 29672.90
396.5057, 29696.21
396.9878, 29726.41
397.4699, 29771.48
397.9520, 29822.75
398.4341, 29852.75
398.9163, 29848.81
399.3984, 29836.60
399.8805, 29823.89
400.3626, 29808.84
400.8447, 29796.67
401.3268, 29773.77
401.8090, 29763.90
402.2911, 29810.41
402.7732, 29943.93
403.2553, 30052.01
403.7374, 30099.17
404.2195, 30088.90
404.7017, 30086.69
405.1838, 30097.39
405.6659, 30102.85
406.1480, 30073.18
406.6301, 30007.12
407.1122, 29984.49
407.5944, 30034.30
408.0765, 30120.75
408.5586, 30150.03
409.0407, 30123.49
409.5228, 30102.30
410.0049, 30139.10
410.4871, 30212.78
410.9692, 30258.52
411.4513, 30262.83
411.9334, 30267.76
412.4155, 30342.05
412.8976, 30460.11
413.3798, 30545.65
413.8619, 30534.87
414.3440, 30492.64
414.8261, 30490.38
415.3082, 30529.55
415.7903, 30566.64
416.2725, 30568.28
416.7546, 30554.08
417.2367, 30545.69
417.7188, 30541.05
418.2009, 30553.57
418.6830, 30603.18
419.1652, 30679.02
419.6473, 30739.29
420.1294, 30762.15
420.6115, 30772.13
421.0937, 30782.25
421.5758, 30794.32
422.0579, 30805.84
422.5400, 30807.57
423.0221, 30810.38
423.5042, 30832.67
423.9864, 30903.84
424.4685, 30961.75
424.9506, 30989.89
425.4327, 30985.39
425.9148, 30980.51
426.3969, 30959.73
426.8791, 30956.17
427.3612, 31009.79
427.8433, 31152.08
428.3254, 31249.90
428.8075, 31273.36
429.2896, 31243.79
429.7718, 31231.12
430.2539, 31236.59
430.7360, 31251.42
431.2181, 31268.84
431.7002, 31289.59
432.1823, 31330.86
432.6645, 31400.10
433.1466, 31467.99
433.6287, 31479.15
434.1108, 31446.52
434.5929, 31435.74
435.0750, 31495.04
435.5572, 31583.96
436.0393, 31631.01
436.5214, 31637.46
437.0035, 31630.76
437.4856, 31616.32
437.9677, 31606.76
438.4499, 31624.87
438.9320, 31699.42
439.4141, 31763.73
439.8962, 31744.85
440.3783, 31676.23
440.8604, 31643.55
441.3426, 31721.13
441.8247, 31818.15
442.3068, 31885.42
442.7889, 31914.55
443.2710, 31928.28
443.7531, 31900.31
444.2353, 31872.63
444.7174, 31891.27
445.1995, 32065.15
445.6816, 32173.19
446.1637, 32137.36
446.6458, 31976.60
447.1280, 31891.81
447.6101, 31925.38
448.0922, 31988.38
448.5743, 32032.88
449.0564, 32051.30
449.5385, 32072.38
450.0207, 32097.44
450.5028, 32124.85
450.9849, 32153.27
451.4670, 32184.11
451.9491, 32207.57
452.4312, 32218.60
452.9134, 32218.35
453.3955, 32217.34
453.8776, 32216.10
454.3597, 32210.47
454.8418, 32183.38
455.3239, 32144.81
455.8061, 32142.59
456.2882, 32204.60
456.7703, 32280.88
457.2524, 32294.83
457.7345, 32258.54
458.2166, 32221.51
458.6988, 32211.77
459.1809, 32217.55
459.6630, 32226.51
460.1451, 32237.03
460.6272, 32253.84
461.1093, 32291.61
461.5915, 32333.80
462.0736, 32359.06
462.5557, 32364.70
463.0378, 32348.02
463.5199, 32276.95
464.0020, 32166.12
464.4842, 32120.03
464.9663, 32219.72
465.4484, 32346.60
465.9305, 32440.09
466.4126, 32494.44
466.8947, 32522.44
467.3769, 32513.73
467.8590, 32483.27
468.3411, 32452.54
468.8232, 32414.35
469.3053, 32390.48
469.7874, 32385.03
470.2696, 32398.16
470.7517, 32442.99
471.2338, 32533.73
471.7159, 32612.22
472.1980, 32608.22
472.6801, 32524.54
473.1623, 32491.11
473.6444, 32539.64
474.1265, 32619.25
474.6086, 32635.71
475.0907, 32598.80
475.5728, 32571.93
476.0550, 32594.81
476.5371, 32647.07
477.0192, 32702.63
477.5013, 32761.13
477.9834, 32805.75
478.4655, 32806.11
478.9477, 32790.28
479.4298, 32796.54
479.9119, 32861.16
480.3940, 32919.11
480.8761, 32935.96
481.3582, 32919.23
481.8404, 32889.89
482.3225, 32816.45
482.8046, 32763.57
483.2867, 32765.34
483.7688, 32840.06
484.2509, 32915.86
484.7331, 33005.85
485.2152, 33084.00
485.6973, 33123.83
486.1794, 33087.59
486.6615, 33079.23
487.1436, 33125.92
487.6258, 33212.16
488.1079, 33260.06
488.5900, 33255.33
489.0721, 33250.97
489.5542, 33284.36
490.0363, 33356.20
490.5185, 33390.80
491.0006, 33376.15
491.4827, 33356.93
491.9648, 33410.58
492.4470, 33520.03
492.9291, 33588.21
493.4112, 33559.46
493.8933, 33489.82
494.3754, 33460.78
494.8575, 33468.53
495.3397, 33490.79
495.8218, 33527.82
496.3039, 33564.70
496.7860, 33578.18
497.2681, 33554.88
497.7502, 33548.86
498.2324, 33614.71
498.7145, 33707.87
499.1966, 33768.96
499.6787, 33737.71
500.1608, 33714.23
500.6429, 33736.00
501.1251, 33800.25
501.6072, 33852.12
502.0893, 33900.56
502.5714, 33925.20
503.0535, 33909.39
503.5356, 33814.36
504.0178, 33773.68
504.4999, 33803.77
504.9820, 33873.91
505.4641, 33949.98
505.9462, 34041.02
506.4283, 34086.66
506.9105, 34050.05
507.3926, 33958.74
507.8747, 33923.94
508.3568, 33947.58
508.8389, 33992.52
509.3210, 34040.15
509.8032, 34088.05
510.2853, 34130.58
510.7674, 34167.32
511.2495, 34197.46
511.7316, 34216.32
512.2137, 34228.23
512.6959, 34241.83
513.1780, 34262.31
513.6601, 34284.50
514.1422, 34306.56
514.6243, 34328.02
515.1064, 34346.09
515.5886, 34360.95
516.0707, 34371.19
516.5528, 34376.13
517.0349, 34376.94
517.5170, 34369.90
517.9991, 34341.23
518.4813, 34309.80
518.9634, 34297.59
519.4455, 34294.23
519.9276, 34331.64
520.4097, 34442.39
520.8918, 34604.64
521.3740, 34673.41
521.8561, 34623.21
522.3382, 34563.90
522.8203, 34578.33
523.3024, 34660.21
523.7845, 34696.41
524.2667, 34672.61
524.7488, 34634.39
525.2309, 34636.34
525.7130, 34670.66
526.1951, 34711.28
526.6772, 34761.67
527.1594, 34802.41
527.6415, 34799.23
528.1236, 34761.85
528.6057, 34732.72
529.0878, 34726.30
529.5699, 34744.11
530.0521, 34797.91
530.5342, 34902.95
531.0163, 34982.71
531.4984, 35006.60
531.9805, 34996.24
532.4626, 34974.94
532.9448, 34912.89
533.4269, 34879.89
533.9090, 34893.77
534.3911, 34943.46
534.8732, 34984.55
535.3553, 35010.47
535.8375, 35041.22
536.3196, 35088.04
536.8017, 35152.79
537.2838, 35207.69
537.7659, 35253.91
538.2480, 35287.98
538.7302, 35292.37
539.2123, 35274.70
539.6944, 35294.32
540.1765, 35382.20
540.6586, 35479.55
541.1407, 35489.06
541.6229, 35434.01
542.1050, 35398.36
542.5871, 35454.34
543.0692, 35532.13
543.5513, 35565.08
544.0334, 35549.75
544.5156, 35535.47
544.9977, 35551.50
545.4798, 35574.50
545.9619, 35583.58
546.4440, 35534.75
546.9261, 35531.63
547.4083, 35638.24
547.8904, 35789.81
548.3725, 35864.23
548.8546, 35800.97
549.3367, 35762.06
549.8188, 35798.03
550.3010, 35900.00
550.7831, 35960.90
551.2652, 35971.74
551.7473, 35971.45
552.2294, 35989.79
552.7115, 36024.02
553.1937, 36042.11
553.6758, 36037.82
554.1579, 36032.82
554.6400, 36054.96
555.1221, 36098.42
555.6042, 36147.53
556.0864, 36217.20
556.5685, 36270.01
557.0506, 36239.75
557.5327, 36153.29
558.0148, 36111.31
558.4969, 36225.50
558.9791, 36352.30
559.4612, 36391.60
559.9433, 36310.59
560.4254, 36259.54
560.9075, 36274.07
561.3896, 36326.15
561.8718, 36392.30
562.3539, 36497.50
562.8360, 36574.25
563.3181, 36614.09
563.8002, 36623.55
564.2823, 36608.76
564.7645, 36559.11
565.2466, 36534.16
565.7287, 36566.43
566.2108, 36643.40
566.6929, 36711.45
567.1750, 36770.77
567.6572, 36804.60
568.1393, 36770.51
568.6214, 36704.85
569.1035, 36686.50
569.5856, 36736.07
570.0677, 36798.82
570.5499, 36830.06
571.0320, 36844.78
571.5141, 36866.95
571.9962, 36899.54
572.4783, 36946.99
572.9604, 37018.89
573.4426, 37109.74
573.9247, 37193.48
574.4068, 37273.32
574.8889, 37337.21
575.3710, 37376.27
575.8531, 37383.42
576.3353, 37400.80
576.8174, 37431.23
577.2995, 37467.45
577.7816, 37507.95
578.2637, 37554.73
578.7458, 37575.84
579.2280, 37554.68
579.7101, 37527.80
580.1922, 37579.86
580.6743, 37694.54
581.1564, 37779.69
581.6385, 37761.11
582.1207, 37705.86
582.6028, 37705.59
583.0849, 37753.90
583.5670, 37800.24
584.0491, 37803.48
584.5313, 37800.06
585.0134, 37823.95
585.4955, 37895.23
585.9776, 37944.27
586.4597, 37929.71
586.9418, 37893.53
587.4240, 37884.56
587.9061, 37935.93
588.3882, 37963.74
588.8703, 37946.02
589.3524, 37902.56
589.8345, 37900.59
590.3167, 37957.20
590.7988, 37988.47
591.2809, 37942.63
591.7630, 37839.09
592.2451, 37782.28
592.7272, 37773.59
593.2094, 37778.10
593.6915, 37772.05
594.1736, 37757.48
594.6557, 37735.20
595.1378, 37702.61
595.6199, 37675.97
596.1021, 37689.63
596.5842, 37711.24
597.0663, 37694.58
597.5485, 37553.31
598.0306, 37446.53
598.5127, 37446.30
598.9948, 37528.55
599.4769, 37586.78
599.9590, 37609.94
600.4412, 37614.42
600.9233, 37601.90
601.4054, 37571.12
601.8875, 37544.52
602.3696, 37526.80
602.8517, 37502.03
603.3339, 37439.63
603.8160, 37345.51
604.2981, 37322.18
604.7802, 37398.74
605.2623, 37485.84
605.7444, 37443.19
606.2266, 37316.04
606.7087, 37228.90
607.1908, 37259.66
607.6729, 37312.75
608.1550, 37305.15
608.6371, 37255.57
609.1193, 37224.58
609.6014, 37254.91
610.0835, 37293.88
610.5656, 37316.88
611.0477, 37320.43
611.5298, 37322.10
612.0120, 37319.54
612.4941, 37318.30
612.9762, 37322.94
613.4583, 37336.19
613.9404, 37344.64
614.4225, 37345.75
614.9047, 37345.43
615.3868, 37353.05
615.8689, 37368.08
616.3510, 37382.61
616.8331, 37394.45
617.3152, 37404.40
617.7974, 37407.51
618.2795, 37408.11
618.7616, 37422.89
619.2437, 37482.41
619.7258, 37543.55
620.2079, 37572.01
620.6901, 37565.95
621.1722, 37555.50
621.6543, 37544.56
622.1364, 37537.14
622.6185, 37534.63
623.1006, 37528.92
623.5828, 37548.82
624.0649, 37617.52
624.5470, 37690.55
625.0291, 37704.37
625.5112, 37642.05
625.9933, 37614.31
626.4755, 37650.19
626.9576, 37719.16
627.4397, 37764.27
627.9218, 37786.42
628.4039, 37792.68
628.8860, 37764.17
629.3682, 37733.47
629.8503, 37755.94
630.3324, 37824.42
630.8145, 37884.09
631.2966, 37901.95
631.7787, 37899.73
632.2609, 37889.83
632.7430, 37871.11
633.2251, 37855.78
633.7072, 37834.73
634.1893, 37825.53
634.6714, 37843.67
635.1536, 37900.00
635.6357, 37963.67
636.1178, 38044.20
636.5999, 38118.08
637.0820, 38135.19
637.5641, 38093.36
638.0463, 38041.05
638.5284, 37978.59
639.0105, 37928.32
639.4926, 37945.92
639.9747, 38022.05
640.4568, 38101.46
640.9390, 38162.03
641.4211, 38203.86
641.9032, 38223.02
642.3853, 38219.28
642.8674, 38211.57
643.3495, 38189.91
643.8317, 38178.69
644.3138, 38198.08
644.7959, 38284.57
645.2780, 38334.20
645.7601, 38330.71
646.2422, 38304.66
646.7244, 38289.78
647.2065, 38286.88
647.6886, 38292.55
648.1707, 38308.77
648.6528, 38329.64
649.1349, 38337.59
649.6171, 38336.16
650.0992, 38350.48
650.5813, 38414.88
651.0634, 38487.36
651.5455, 38503.38
652.0276, 38474.83
652.5098, 38464.98
652.9919, 38535.09
653.4740, 38613.09
653.9561, 38652.98
654.4382, 38644.86
654.9203, 38631.50
655.4025, 38615.36
655.8846, 38597.89
656.3667, 38577.09
656.8488, 38542.93
657.3309, 38540.10
657.8130, 38581.27
658.2952, 38633.66
658.7773, 38643.78
659.2594, 38616.27
659.7415, 38606.41
660.2236, 38632.05
660.7057, 38676.32
661.1879, 38727.27
661.6700, 38778.19
662.1521, 38809.52
662.6342, 38797.59
663.1163, 38775.31
663.5984, 38759.93
664.0806, 38751.71
664.5627, 38747.74
665.0448, 38747.66
665.5269, 38751.46
666.0090, 38755.86
666.4911, 38757.80
666.9733, 38787.38
667.4554, 38859.74
667.9375, 38929.70
668.4196, 38950.98
668.9017, 38925.86
669.3839, 38929.96
669.8660, 38975.76
670.3481, 39023.83
670.8302, 39011.91
671.3123, 38968.86
671.7944, 38960.60
672.2766, 39032.16
672.7587, 39103.62
673.2408, 39100.76
673.7229, 39062.99
674.2050, 39067.39
674.6871, 39208.66
675.1693, 39314.82
675.6514, 39318.13
676.1335, 39242.04
676.6156, 39207.91
677.0977, 39228.24
677.5798, 39262.33
678.0620, 39294.07
678.5441, 39324.26
679.0262, 39357.32
679.5083, 39393.45
679.9904, 39434.02
680.4725, 39485.71
680.9547, 39540.91
681.4368, 39579.83
681.9189, 39596.28
682.4010, 39631.14
682.8831, 39738.09
683.3652, 39864.38
683.8474, 39956.20
684.3295, 39996.59
684.8116, 40009.86
685.2937, 39975.79
685.7758, 39927.12
686.2579, 39906.44
686.7401, 39920.38
687.2222, 39944.95
687.7043, 39978.59
688.1864, 40017.80
688.6685, 40052.84
689.1506, 40084.22
689.6328, 40120.79
690.1149, 40175.63
690.5970, 40232.44
691.0791, 40265.36
691.5612, 40277.58
692.0433, 40284.59
692.5255, 40289.34
693.0076, 40296.21
693.4897, 40312.81
693.9718, 40341.69
694.4539, 40353.12
694.9360, 40330.43
695.4182, 40301.12
695.9003, 40276.41
696.3824, 40253.24
696.8645, 40257.09
697.3466, 40301.46
697.8287, 40337.38
698.3109, 40296.43
698.7930, 40194.95
699.2751, 40120.82
699.7572, 40093.10
700.2393, 40083.90
700.7214, 40073.07
701.2036, 40059.23
701.6857, 40040.11
702.1678, 40017.56
702.6499, 39986.45
703.1320, 39928.51
703.6141, 39860.92
704.0963, 39828.30
704.5784, 39857.80
705.0605, 39882.84
705.5426, 39890.77
706.0247, 39883.31
706.5068, 39863.24
706.9890, 39827.73
707.4711, 39802.38
707.9532, 39807.88
708.4353, 39831.73
708.9174, 39846.40
709.3995, 39851.38
709.8817, 39840.37
710.3638, 39792.82
710.8459, 39737.86
711.3280, 39702.23
711.8101, 39690.07
712.2922, 39682.41
712.7744, 39674.41
713.2565, 39668.77
713.7386, 39667.39
714.2207, 39672.83
714.7028, 39674.38
715.1849, 39666.95
715.6671, 39664.47
716.1492, 39693.58
716.6313, 39749.39
717.1134, 39769.32
717.5955, 39732.70
718.0776, 39689.29
718.5598, 39708.90
719.0419, 39765.11
719.5240, 39806.68
720.0061, 39810.92
720.4882, 39802.32
720.9703, 39783.01
721.4525, 39759.66
721.9346, 39747.32
722.4167, 39753.02
722.8988, 39764.00
723.3809, 39784.25
723.8630, 39807.44
724.3452, 39798.16
724.8273, 39748.43
725.3094, 39724.60
725.7915, 39783.18
726.2736, 39881.09
726.7557, 39898.80
727.2379, 39844.70
727.7200, 39784.98
728.2021, 39751.63
728.6842, 39738.61
729.1663, 39743.92
729.6484, 39767.73
730.1306, 39797.74
730.6127, 39836.92
731.0948, 39876.09
731.5769, 39912.29
732.0590, 39949.10
732.5411, 39967.90
733.0233, 39964.95
733.5054, 39952.43
733.9875, 39932.34
734.4696, 39908.79
734.9517, 39916.05
735.4338, 39960.84
735.9160, 40018.57
736.3981, 40081.23
736.8802, 40135.39
737.3623, 40159.68
737.8444, 40138.43
738.3266, 40106.01
738.8087, 40049.25
739.2908, 39997.78
739.7729, 39998.42
740.2551, 40092.46
740.7372, 40166.57
741.2193, 40214.70
741.7014, 40230.46
742.1835, 40183.40
742.6656, 40072.84
743.1478, 39982.82
743.6299, 39933.84
744.1120, 39927.16
744.5941, 39994.63
745.0762, 40110.40
745.5583, 40196.32
746.0405, 40193.41
746.5226, 40167.96
747.0047, 40144.53
747.4868, 40126.51
747.9689, 40128.39
748.4510, 40167.09
748.9332, 40205.71
749.4153, 40231.00
749.8974, 40244.76
750.3795, 40274.11
750.8616, 40322.02
751.3438, 40361.72
751.8259, 40358.15
752.3080, 40337.52
752.7901, 40378.12
753.2722, 40477.37
753.7543, 40556.68
754.2365, 40551.30
754.7186, 40512.89
755.2007, 40475.41
755.6828, 40439.08
756.1649, 40426.24
756.6470, 40459.55
757.1292, 40500.57
757.6113, 40531.17
758.0934, 40556.44
758.5755, 40539.83
759.0576, 40468.92
759.5397, 40397.12
760.0219, 40378.16
760.5040, 40403.72
760.9861, 40457.15
761.4682, 40542.36
761.9503, 40616.15
762.4324, 40621.02
762.9146, 40605.50
763.3967, 40631.20
763.8788, 40778.43
764.3609, 40860.02
764.8430, 40781.89
765.3251, 40658.56
765.8073, 40624.50
766.2894, 40708.09
766.7715, 40769.62
767.2536, 40788.63
767.7357, 40779.71
768.2178, 40753.34
768.7000, 40717.00
769.1821, 40705.94
769.6642, 40752.42
770.1463, 40793.93
770.6284, 40738.43
771.1105, 40644.11
771.5927, 40623.52
772.0748, 40820.52
772.5569, 40967.83
773.0390, 40980.45
773.5211, 40904.95
774.0032, 40849.74
774.4854, 40812.45
774.9675, 40807.35
775.4496, 40851.12
775.9317, 40918.98
776.4138, 40952.38
776.8959, 40953.75
777.3781, 40937.78
777.8602, 40879.46
778.3423, 40833.39
778.8244, 40867.99
779.3065, 40960.92
779.7886, 41016.52
780.2708, 40960.70
780.7529, 40910.36
781.2350, 40910.61
781.7171, 40954.07
782.1992, 40964.54
782.6813, 40929.00
783.1635, 40912.28
783.6456, 40964.93
784.1277, 41059.19
784.6098, 41103.06
785.0919, 41099.95
785.5740, 41086.18
786.0562, 41083.69
786.5383, 41081.69
787.0204, 41064.01
787.5025, 41030.11
787.9846, 41018.94
788.4667, 41059.46
788.9489, 41106.30
789.4310, 41142.88
789.9131, 41168.80
790.3952, 41187.02
790.8773, 41197.28
791.3594, 41200.46
791.8416, 41184.27
792.3237, 41163.08
792.8058, 41185.89
793.2879, 41254.29
793.7700, 41311.93
794.2521, 41320.48
794.7343, 41301.35
795.2164, 41261.83
795.6985, 41189.93
796.1806, 41159.91
796.6627, 41199.43
797.1448, 41258.21
797.6270, 41305.83
798.1091, 41340.87
798.5912, 41383.20
799.0733, 41439.04
799.5554, 41470.98
800.0375, 41409.93
800.5197, 41307.81
801.0018, 41276.39
801.4839, 41340.30
801.9660, 41394.16
802.4481, 41346.50
802.9302, 41277.91
803.4124, 41260.76
803.8945, 41347.75
804.3766, 41387.24
804.8587, 41353.70
805.3408, 41306.30
805.8229, 41301.40
806.3051, 41338.71
806.7872, 41374.24
807.2693, 41406.04
807.7514, 41425.33
808.2335, 41406.29
808.7156, 41375.01
809.1978, 41375.46
809.6799, 41427.99
810.1620, 41474.38
810.6441, 41485.47
811.1262, 41481.73
811.6083, 41483.31
812.0905, 41495.11
812.5726, 41503.46
813.0547, 41509.73
813.5368, 41509.25
814.0189, 41480.60
814.5010, 41434.52
814.9832, 41442.48
815.4653, 41524.97
815.9474, 41618.21
816.4295, 41685.89
816.9116, 41720.78
817.3937, 41706.86
817.8759, 41594.29
818.3580, 41523.81
818.8401, 41550.80
819.3222, 41615.58
819.8043, 41669.62
820.2864, 41716.20
820.7686, 41731.41
821.2507, 41705.10
821.7328, 41671.02
822.2149, 41675.79
822.6970, 41707.25
823.1791, 41735.16
823.6613, 41752.01
824.1434, 41766.09
824.6255, 41790.91
825.1076, 41812.12
825.5897, 41813.36
826.0718, 41761.85
826.5540, 41734.45
827.0361, 41741.58
827.5182, 41760.66
828.0003, 41759.87
828.4824, 41739.69
828.9645, 41747.30
829.4467, 41797.13
829.9288, 41844.38
830.4109, 41817.98
830.8930, 41761.64
831.3751, 41745.63
831.8572, 41805.90
832.3394, 41867.14
832.8215, 41921.04
833.3036, 41952.64
833.7857, 41942.44
834.2678, 41863.00
834.7499, 41826.30
835.2321, 41849.71
835.7142, 41892.79
836.1963, 41899.70
836.6784, 41882.62
837.1605, 41887.29
837.6426, 41924.97
838.1248, 41973.23
838.6069, 42041.86
839.0890, 42098.60
839.5711, 42102.79
840.0532, 41993.95
840.5353, 41929.16
841.0175, 41932.43
841.4996, 41966.67
841.9817, 41997.98
842.4638, 42026.53
842.9459, 42046.86
843.4280, 42054.83
843.9102, 42073.67
844.3923, 42162.77
844.8744, 42268.98
845.3565, 42296.41
845.8386, 42204.53
846.3207, 42116.71
846.8029, 42064.69
847.2850, 42051.12
847.7671, 42080.12
848.2492, 42171.03
848.7313, 42256.25
849.2134, 42344.43
849.6956, 42403.11
850.1777, 42372.43
850.6598, 42283.75
851.1419, 42255.58
851.6240, 42307.23
852.1061, 42363.96
852.5883, 42376.07
853.0704, 42362.64
853.5525, 42337.54
854.0346, 42294.84
854.5167, 42267.14
854.9988, 42258.01
855.4810, 42261.30
855.9631, 42277.83
856.4452, 42308.07
856.9273, 42314.23
857.4094, 42292.42
857.8915, 42287.39
858.3737, 42367.56
858.8558, 42472.92
859.3379, 42516.32
859.8200, 42482.06
860.3021, 42467.70
860.7842, 42553.58
861.2664, 42630.61
861.7485, 42630.68
862.2306, 42543.24
862.7127, 42486.50
863.1948, 42464.05
863.6769, 42454.63
864.1591, 42425.36
864.6412, 42401.82
865.1233, 42468.07
865.6054, 42618.29
866.0875, 42739.36
866.5696, 42741.65
867.0518, 42713.03
867.5339, 42704.04
868.0160, 42719.41
868.4981, 42747.75
868.9802, 42809.28
869.4623, 42839.80
869.9445, 42791.37
870.4266, 42688.02
870.9087, 42640.95
871.3908, 42646.72
871.8729, 42673.86
872.3550, 42706.84
872.8372, 42749.76
873.3193, 42822.16
873.8014, 42914.09
874.2835, 42967.95
874.7656, 42944.94
875.2477, 42910.59
875.7299, 42871.29
876.2120, 42834.87
876.6941, 42836.87
877.1762, 42877.13
877.6583, 42918.24
878.1404, 42946.04
878.6226, 42963.55
879.1047, 42975.41
879.5869, 42980.18
880.0690, 42974.45
880.5511, 42930.60
881.0332, 42906.88
881.5153, 42941.41
881.9974, 43000.21
882.4796, 43006.66
882.9617, 42946.31
883.4438, 42917.56
883.9259, 42949.76
884.4080, 43011.55
884.8901, 43059.44
885.3723, 43097.55
885.8544, 43136.85
886.3365, 43191.40
886.8186, 43230.25
887.3007, 43225.43
887.7828, 43202.17
888.2650, 43196.66
888.7471, 43218.24
889.2292, 43234.01
889.7113, 43240.82
890.1934, 43242.35
890.6755, 43237.45
891.1577, 43231.19
891.6398, 43244.40
892.1219, 43286.29
892.6040, 43319.23
893.0861, 43289.56
893.5682, 43254.36
894.0504, 43272.18
894.5325, 43382.77
895.0146, 43468.96
895.4967, 43537.69
895.9788, 43569.23
896.4609, 43528.39
896.9431, 43429.24
897.4252, 43351.81
897.9073, 43300.31
898.3894, 43285.74
898.8715, 43350.57
899.3536, 43430.54
899.8358, 43464.26
900.3179, 43440.46
900.8000, 43442.80
901.2821, 43496.48
901.7642, 43551.63
902.2463, 43581.91
902.7285, 43592.66
903.2106, 43642.02
903.6927, 43727.27
904.1748, 43783.52
904.6569, 43748.71
905.1390, 43682.69
905.6212, 43619.05
906.1033, 43571.49
906.5854, 43588.37
907.0675, 43790.00
907.5496, 43927.71
908.0317, 43924.02
908.5139, 43824.32
908.9960, 43755.89
909.4781, 43719.17
909.9602, 43717.02
910.4423, 43767.97
910.9244, 43825.79
911.4066, 43825.48
911.8887, 43793.07
912.3708, 43776.43
912.8529, 43784.96
913.3350, 43822.13
913.8171, 43919.27
914.2993, 44021.89
914.7814, 44039.75
915.2635, 43962.11
915.7456, 43956.45
916.2277, 44062.73
916.7098, 44174.13
917.1920, 44148.68
917.6741, 44054.62
918.1562, 43989.86
918.6383, 43978.13
919.1204, 43984.84
919.6025, 43997.52
920.0847, 44028.26
920.5668, 44093.81
921.0489, 44205.11
921.5310, 44272.17
922.0131, 44292.34
922.4952, 44289.68
922.9774, 44270.78
923.4595, 44247.51
923.9416, 44236.55
924.4237, 44238.88
924.9058, 44250.14
925.3879, 44281.38
925.8701, 44308.24
926.3522, 44323.16
926.8343, 44325.87
927.3164, 44304.94
927.7985, 44254.86
928.2806, 44231.47
928.7628, 44271.89
929.2449, 44342.97
929.7270, 44406.59
930.2091, 44458.39
930.6912, 44488.36
931.1733, 44467.11
931.6555, 44452.48
932.1376, 44475.74
932.6197, 44510.19
933.1018, 44504.02
933.5839, 44448.46
934.0660, 44418.63
934.5482, 44429.73
935.0303, 44464.81
935.5124, 44512.80
935.9945, 44566.66
936.4766, 44616.83
936.9587, 44670.85
937.4409, 44696.03
937.9230, 44655.62
938.4051, 44602.04
938.8872, 44572.74
939.3693, 44568.36
939.8514, 44585.04
940.3336, 44623.53
940.8157, 44675.85
941.2978, 44760.94
941.7799, 44843.32
942.2620, 44860.93
942.7441, 44814.06
943.2263, 44772.10
943.7084, 44769.93
944.1905, 44769.86
944.6726, 44751.30
945.1547, 44720.71
945.6368, 44724.37
946.1190, 44764.58
946.6011, 44799.05
947.0832, 44795.68
947.5653, 44791.00
948.0474, 44857.57
948.5295, 44960.07
949.0117, 45016.32
949.4938, 44949.35
949.9759, 44893.94
950.4580, 44867.89
950.9401, 44871.62
951.4222, 44919.29
951.9044, 45012.34
952.3865, 45070.88
952.8686, 45078.83
953.3507, 45066.26
953.8328, 45058.70
954.3149, 45052.79
954.7971, 45040.18
955.2792, 45011.08
955.7613, 45009.95
956.2434, 45067.54
956.7255, 45124.94
957.2076, 45144.91
957.6898, 45128.59
958.1719, 45112.77
958.6540, 45097.45
959.1361, 45090.76
959.6182, 45113.23
960.1003, 45135.08
960.5825, 45119.13
961.0646, 45073.43
961.5467, 45050.21
962.0288, 45057.44
962.5109, 45094.82
962.9930, 45182.22
963.4752, 45282.29
963.9573, 45280.74
964.4394, 45195.72
964.9215, 45141.95
965.4036, 45171.28
965.8857, 45215.20
966.3679, 45215.99
966.8500, 45199.22
967.3321, 45199.38
967.8142, 45243.92
968.2963, 45262.65
968.7784, 45248.67
969.2606, 45221.83
969.7427, 45196.01
970.2248, 45173.98
970.7069, 45163.96
971.1890, 45166.59
971.6711, 45186.69
972.1533, 45259.59
972.6354, 45324.15
973.1175, 45324.43
973.5996, 45261.62
974.0817, 45242.08
974.5638, 45276.58
975.0460, 45317.17
975.5281, 45349.19
976.0102, 45370.22
976.4923, 45365.32
976.9744, 45344.69
977.4565, 45338.34
977.9387, 45376.93
978.4208, 45411.44
978.9029, 45431.06
979.3850, 45433.32
979.8671, 45401.38
980.3492, 45318.31
980.8314, 45314.04
981.3135, 45416.70
981.7956, 45536.63
982.2777, 45587.96
982.7598, 45588.96
983.2419, 45548.02
983.7241, 45456.04
984.2062, 45413.76
984.6883, 45510.06
985.1704, 45604.03
985.6525, 45635.99
986.1346, 45609.76
986.6168, 45541.88
987.0989, 45435.28
987.5810, 45380.95
988.0631, 45480.51
988.5452, 45615.14
989.0273, 45675.34
989.5095, 45680.97
989.9916, 45682.36
990.4737, 45686.56
990.9558, 45691.01
991.4379, 45694.28
991.9200, 45699.27
992.4022, 45709.37
992.8843, 45724.93
993.3664, 45748.59
993.8485, 45781.28
994.3306, 45817.75
994.8127, 45894.71
995.2949, 45946.24
995.7770, 45887.80
996.2591, 45689.54
996.7412, 45604.12
997.2233, 45657.79
997.7054, 45731.16
998.1876, 45753.76
998.6697, 45744.56
999.1518, 45743.42
999.6339, 45748.31
1000.116, 45751.14
1000.598, 45737.25
1001.080, 45733.33
1001.562, 45742.56
1002.044, 45770.00
1002.527, 45843.05
1003.009, 45968.25
1003.491, 46028.96
1003.973, 45992.91
1004.455, 45931.00
1004.937, 45907.47
1005.419, 45911.58
1005.901, 45934.61
1006.384, 45981.60
1006.866, 46019.39
1007.348, 46050.01
1007.830, 46062.23
1008.312, 46042.45
1008.794, 45997.90
1009.276, 45971.86
1009.758, 45962.61
1010.240, 45954.75
1010.723, 45917.08
1011.205, 45899.89
1011.687, 45958.46
1012.169, 46060.10
1012.651, 46114.79
1013.133, 46106.28
1013.615, 46089.95
1014.097, 46066.36
1014.580, 46058.00
1015.062, 46123.38
1015.544, 46218.86
1016.026, 46253.92
1016.508, 46201.27
1016.990, 46149.99
1017.472, 46129.31
1017.954, 46127.38
1018.436, 46139.47
1018.919, 46164.93
1019.401, 46193.63
1019.883, 46225.57
1020.365, 46252.10
1020.847, 46260.90
1021.329, 46267.93
1021.811, 46299.63
1022.293, 46341.29
1022.776, 46356.61
1023.258, 46322.62
1023.740, 46285.41
1024.222, 46240.40
1024.704, 46208.72
1025.186, 46232.50
1025.668, 46294.64
1026.150, 46330.73
1026.632, 46329.39
1027.115, 46338.23
1027.597, 46421.46
1028.079, 46494.02
1028.561, 46480.39
1029.043, 46386.52
1029.525, 46361.92
1030.007, 46414.34
1030.489, 46476.29
1030.972, 46528.21
1031.454, 46559.67
1031.936, 46545.46
1032.418, 46501.50
1032.900, 46462.22
1033.382, 46411.94
1033.864, 46408.09
1034.346, 46470.29
1034.828, 46558.30
1035.311, 46639.24
1035.793, 46709.09
1036.275, 46724.76
1036.757, 46682.70
1037.239, 46645.18
1037.721, 46679.69
1038.203, 46714.51
1038.685, 46676.21
1039.167, 46577.88
1039.650, 46572.00
1040.132, 46686.04
1040.614, 46770.39
1041.096, 46762.24
1041.578, 46717.78
1042.060, 46731.48
1042.542, 46773.18
1043.024, 46782.55
1043.507, 46704.54
1043.989, 46668.89
1044.471, 46714.47
1044.953, 46789.82
1045.435, 46874.14
1045.917, 46962.08
1046.399, 46959.65
1046.881, 46870.59
1047.364, 46806.87
1047.846, 46884.60
1048.328, 46976.21
1048.810, 46992.39
1049.292, 46944.95
1049.774, 46901.93
1050.256, 46855.73
1050.738, 46847.48
1051.220, 46894.23
1051.703, 46957.81
1052.185, 46989.14
1052.667, 46996.04
1053.149, 46984.53
1053.631, 46946.89
1054.113, 46934.45
1054.595, 46981.11
1055.077, 47033.51
1055.559, 47068.24
1056.042, 47085.77
1056.524, 47078.85
1057.006, 47052.81
1057.488, 47051.44
1057.970, 47117.36
1058.452, 47196.10
1058.934, 47268.76
1059.416, 47326.35
1059.899, 47352.07
1060.381, 47338.59
1060.863, 47317.89
1061.345, 47289.02
1061.827, 47268.11
1062.309, 47274.48
1062.791, 47298.01
1063.273, 47330.46
1063.755, 47370.32
1064.238, 47391.70
1064.720, 47365.39
1065.202, 47348.37
1065.684, 47357.39
1066.166, 47386.85
1066.648, 47433.90
1067.130, 47490.00
1067.612, 47513.39
1068.094, 47468.90
1068.577, 47441.59
1069.059, 47519.13
1069.541, 47613.57
1070.023, 47633.76
1070.505, 47559.69
1070.987, 47530.27
1071.469, 47550.21
1071.951, 47564.78
1072.434, 47509.88
1072.916, 47447.73
1073.398, 47457.61
1073.880, 47524.38
1074.362, 47590.78
1074.844, 47643.99
1075.326, 47702.27
1075.808, 47779.22
1076.291, 47842.84
1076.773, 47830.11
1077.255, 47769.54
1077.737, 47750.66
1078.219, 47789.09
1078.701, 47810.95
1079.183, 47747.14
1079.665, 47689.93
1080.147, 47692.04
1080.630, 47740.58
1081.112, 47751.86
1081.594, 47727.68
1082.076, 47726.44
1082.558, 47783.09
1083.040, 47845.88
1083.522, 47869.08
1084.004, 47869.99
1084.486, 47870.77
1084.969, 47873.33
1085.451, 47878.69
1085.933, 47888.39
1086.415, 47894.98
1086.897, 47874.19
1087.379, 47855.80
1087.861, 47914.41
1088.343, 48028.51
1088.826, 48103.78
1089.308, 48051.63
1089.790, 48032.68
1090.272, 48093.91
1090.754, 48178.38
1091.236, 48184.23
1091.718, 48132.00
1092.200, 48122.88
1092.682, 48175.15
1093.165, 48222.60
1093.647, 48208.64
1094.129, 48190.67
1094.611, 48213.51
1095.093, 48267.93
1095.575, 48274.94
1096.057, 48231.56
1096.539, 48219.82
1097.022, 48289.48
1097.504, 48364.32
1097.986, 48356.09
1098.468, 48308.01
1098.950, 48278.91
1099.432, 48281.68
1099.914, 48297.82
1100.396, 48335.63
1100.879, 48359.15
1101.361, 48320.55
1101.843, 48259.65
1102.325, 48267.16
1102.807, 48323.88
1103.289, 48355.53
1103.771, 48294.55
1104.253, 48261.11
1104.735, 48280.27
1105.218, 48327.99
1105.700, 48382.70
1106.182, 48438.42
1106.664, 48449.65
1107.146, 48410.62
1107.628, 48402.09
1108.110, 48536.64
1108.592, 48651.64
1109.074, 48629.55
1109.557, 48513.60
1110.039, 48485.95
1110.521, 48547.80
1111.003, 48579.47
1111.485, 48526.68
1111.967, 48491.18
1112.449, 48637.66
1112.931, 48814.57
1113.414, 48832.66
1113.896, 48623.89
1114.378, 48532.40
1114.860, 48578.82
1115.342, 48653.30
1115.824, 48705.26
1116.306, 48738.28
1116.788, 48743.87
1117.271, 48736.62
1117.753, 48749.29
1118.235, 48853.99
1118.717, 48874.60
1119.199, 48760.00
1119.681, 48637.79
1120.163, 48664.11
1120.645, 48779.94
1121.127, 48793.79
1121.609, 48710.19
1122.092, 48657.02
1122.574, 48733.16
1123.056, 48809.12
1123.538, 48843.45
1124.020, 48850.52
1124.502, 48858.71
1124.984, 48866.51
1125.466, 48858.87
1125.949, 48831.86
1126.431, 48801.67
1126.913, 48775.29
1127.395, 48753.52
1127.877, 48724.68
1128.359, 48695.44
1128.841, 48748.56
1129.323, 48891.14
1129.806, 48987.81
1130.288, 48973.27
1130.770, 48928.06
1131.252, 48933.69
1131.734, 48957.79
1132.216, 48952.39
1132.698, 48891.06
1133.180, 48892.05
1133.662, 48977.54
1134.145, 49031.17
1134.627, 48924.22
1135.109, 48776.19
1135.591, 48800.42
1136.073, 48936.42
1136.555, 49030.35
1137.037, 48978.18
1137.519, 48980.93
1138.001, 49076.93
1138.484, 49173.27
1138.966, 49149.97
1139.448, 49057.77
1139.930, 49016.05
1140.412, 49028.79
1140.894, 49065.50
1141.376, 49158.86
1141.858, 49214.02
1142.341, 49194.52
1142.823, 49139.02
1143.305, 49114.54
1143.787, 49116.46
1144.269, 49127.44
1144.751, 49146.21
1145.233, 49155.34
1145.715, 49128.94
1146.198, 49106.41
1146.680, 49108.48
1147.162, 49131.84
1147.644, 49167.12
1148.126, 49212.70
1148.608, 49242.68
1149.090, 49241.78
1149.572, 49243.58
1150.054, 49282.46
1150.536, 49329.64
1151.019, 49354.08
1151.501, 49352.08
1151.983, 49383.63
1152.465, 49451.55
1152.947, 49487.14
1153.429, 49430.89
1153.911, 49351.08
1154.393, 49296.75
1154.876, 49269.36
1155.358, 49275.93
1155.840, 49324.51
1156.322, 49376.09
1156.804, 49430.60
1157.286, 49484.47
1157.768, 49543.74
1158.250, 49594.42
1158.733, 49614.48
1159.215, 49609.68
1159.697, 49605.27
1160.179, 49623.00
1160.661, 49595.91
1161.143, 49500.32
1161.625, 49403.41
1162.107, 49389.26
1162.589, 49422.71
1163.072, 49442.00
1163.554, 49444.37
1164.036, 49474.12
1164.518, 49575.35
1165.000, 49646.42
1165.482, 49655.50
1165.964, 49635.00
1166.446, 49639.56
1166.928, 49660.95
1167.411, 49683.48
1167.893, 49705.88
1168.375, 49716.94
1168.857, 49696.88
1169.339, 49685.76
1169.821, 49701.89
1170.303, 49735.43
1170.785, 49763.98
1171.268, 49785.51
1171.750, 49792.31
1172.232, 49774.77
1172.714, 49760.83
1173.196, 49745.84
1173.678, 49756.36
1174.160, 49830.57
1174.642, 49948.13
1175.125, 49942.78
1175.607, 49838.96
1176.089, 49771.77
1176.571, 49840.39
1177.053, 49912.04
1177.535, 49936.67
1178.017, 49930.25
1178.499, 49896.79
1178.981, 49836.70
1179.464, 49810.14
1179.946, 49816.23
1180.428, 49831.24
1180.910, 49835.36
1181.392, 49849.57
1181.874, 49892.72
1182.356, 49950.01
1182.838, 50000.46
1183.320, 50044.43
1183.803, 50086.11
1184.285, 50126.36
1184.767, 50148.23
1185.249, 50094.18
1185.731, 50060.39
1186.213, 50158.59
1186.695, 50323.59
1187.177, 50362.06
1187.660, 50264.61
1188.142, 50178.27
1188.624, 50124.42
1189.106, 50108.49
1189.588, 50174.08
1190.070, 50247.88
1190.552, 50259.29
1191.034, 50217.79
1191.516, 50217.37
1191.999, 50265.55
1192.481, 50269.68
1192.963, 50186.13
1193.445, 50128.64
1193.927, 50277.71
1194.409, 50464.95
1194.891, 50502.98
1195.373, 50376.84
1195.855, 50287.70
1196.338, 50235.14
1196.820, 50221.03
1197.302, 50256.41
1197.784, 50309.30
1198.266, 50353.61
1198.748, 50389.96
1199.230, 50420.18
1199.712, 50446.01
1200.195, 50447.78
1200.677, 50419.54
1201.159, 50410.28
1201.641, 50463.52
1202.123, 50527.05
1202.605, 50525.00
1203.087, 50497.66
1203.569, 50520.13
1204.052, 50647.93
1204.534, 50665.09
1205.016, 50553.09
1205.498, 50442.16
1205.980, 50439.42
1206.462, 50471.47
1206.944, 50436.04
1207.426, 50372.09
1207.908, 50380.15
1208.391, 50516.01
1208.873, 50574.41
1209.355, 50534.52
1209.837, 50486.23
1210.319, 50507.72
1210.801, 50561.10
1211.283, 50617.53
1211.765, 50669.28
1212.247, 50690.81
1212.730, 50671.12
1213.212, 50654.85
1213.694, 50646.00
1214.176, 50643.91
1214.658, 50648.55
1215.140, 50658.93
1215.622, 50683.44
1216.104, 50715.38
1216.587, 50711.83
1217.069, 50650.23
1217.551, 50630.31
1218.033, 50675.95
1218.515, 50733.15
1218.997, 50718.96
1219.479, 50698.63
1219.961, 50768.84
1220.443, 50925.01
1220.926, 51000.87
1221.408, 50965.94
1221.890, 50952.54
1222.372, 51000.76
1222.854, 51047.16
1223.336, 50996.36
1223.818, 50913.54
1224.300, 50866.99
1224.782, 50867.79
1225.265, 50911.70
1225.747, 51013.27
1226.229, 51085.32
1226.711, 51097.61
1227.193, 51079.54
1227.675, 51048.34
1228.157, 51017.94
1228.639, 51004.02
1229.122, 51008.75
1229.604, 51037.24
1230.086, 51095.31
1230.568, 51139.13
1231.050, 51150.36
1231.532, 51143.12
1232.014, 51127.77
1232.496, 51106.64
1232.979, 51075.87
1233.461, 51030.54
1233.943, 51025.27
1234.425, 51062.05
1234.907, 51122.33
1235.389, 51218.92
1235.871, 51300.47
1236.353, 51304.32
1236.835, 51270.73
1237.318, 51253.22
1237.800, 51258.27
1238.282, 51245.73
1238.764, 51214.27
1239.246, 51194.36
1239.728, 51196.27
1240.210, 51225.37
1240.692, 51322.85
1241.175, 51430.35
1241.657, 51458.69
1242.139, 51385.56
1242.621, 51391.16
1243.103, 51476.38
1243.585, 51541.81
1244.067, 51507.77
1244.549, 51454.34
1245.031, 51438.04
1245.514, 51433.46
1245.996, 51398.96
1246.478, 51328.52
1246.960, 51296.71
1247.442, 51304.20
1247.924, 51343.59
1248.406, 51444.61
1248.888, 51537.65
1249.370, 51576.19
1249.853, 51588.47
1250.335, 51614.93
1250.817, 51654.11
1251.299, 51659.10
1251.781, 51630.70
1252.263, 51611.43
1252.745, 51646.80
1253.227, 51674.25
1253.710, 51661.39
1254.192, 51629.26
1254.674, 51588.99
1255.156, 51548.12
1255.638, 51575.30
1256.120, 51668.14
1256.602, 51750.96
1257.084, 51746.56
1257.567, 51776.01
1258.049, 51909.59
1258.531, 52053.72
1259.013, 52059.26
1259.495, 51964.65
1259.977, 51905.39
1260.459, 51890.59
1260.941, 51891.12
1261.423, 51919.67
1261.906, 51921.27
1262.388, 51861.31
1262.870, 51807.09
1263.352, 51890.28
1263.834, 52043.71
1264.316, 52105.02
1264.798, 52065.90
1265.280, 52026.24
1265.762, 52008.56
1266.245, 52006.87
1266.727, 52025.16
1267.209, 52047.44
1267.691, 52048.52
1268.173, 52040.21
1268.655, 52035.57
1269.137, 52037.43
1269.619, 52074.91
1270.102, 52180.99
1270.584, 52231.43
1271.066, 52188.07
1271.548, 52122.50
1272.030, 52113.99
1272.512, 52142.31
1272.994, 52197.54
1273.476, 52273.62
1273.958, 52317.05
1274.441, 52318.56
1274.923, 52322.41
1275.405, 52334.58
1275.887, 52368.30
1276.369, 52474.29
1276.851, 52579.72
1277.333, 52613.79
1277.815, 52579.11
1278.297, 52502.14
1278.780, 52379.43
1279.262, 52301.46
1279.744, 52291.85
1280.226, 52317.31
1280.708, 52370.52
1281.190, 52431.45
1281.672, 52489.53
1282.154, 52542.81
1282.637, 52587.26
1283.119, 52621.22
1283.601, 52625.48
1284.083, 52593.64
1284.565, 52550.80
1285.047, 52493.74
1285.529, 52450.54
1286.011, 52432.77
1286.494, 52438.01
1286.976, 52469.26
1287.458, 52517.96
1287.940, 52553.95
1288.422, 52569.59
1288.904, 52585.17
1289.386, 52620.75
1289.868, 52636.88
1290.350, 52608.47
1290.833, 52570.38
1291.315, 52602.81
1291.797, 52674.66
1292.279, 52727.81
1292.761, 52751.83
1293.243, 52751.36
1293.725, 52713.00
1294.207, 52696.11
1294.689, 52729.90
1295.172, 52770.67
1295.654, 52720.13
1296.136, 52656.46
1296.618, 52710.53
1297.100, 52915.74
1297.582, 52982.10
1298.064, 52887.20
1298.546, 52797.93
1299.029, 52764.27
1299.511, 52760.45
1299.993, 52754.69
1300.475, 52769.25
1300.957, 52855.88
1301.439, 52992.42
1301.921, 53027.30
1302.403, 52963.48
1302.885, 52886.80
1303.368, 52816.50
1303.850, 52756.16
1304.332, 52662.50
1304.814, 52636.20
1305.296, 52769.60
1305.778, 52992.54
1306.260, 53034.52
1306.742, 52942.82
##END=



