##NAMES=Glaucophane
##RRUFFID=R050333
##IDEAL CHEMISTRY=[box]Na_2_(Mg_3_Al_2_)Si_8_O_22_(OH)_2_
##LOCALITY=Cazadero, Sonoma County, California, USA
##OWNER=RRUFF
##SOURCE=California Institute of Technology
##DESCRIPTION=Blackish-blue fibrous aggregate
##STATUS=The identification of this mineral has been confirmed by X-ray diffraction and chemical analysis
##URL=rruff.info/R050333
##MEASURED CHEMISTRY=[box](Na_1.96_Ca_0.02_[box]_0.02_)_Σ=2_(Mg_1.89_Fe^2+^_1.08_Mn_0.03_)_Σ=3_(Al_1.52_Fe^3+^_0.48_)_Σ=2_Si_8.00_O_22_(OH)_2_
92.35352, 13.30567
92.83563, 12.05690
93.31775, 11.52514
93.79987, 12.14608
94.28198, 13.54177
94.76410, 14.58433
95.24622, 14.90804
95.72833, 14.90880
96.21045, 15.39792
96.69257, 16.39133
97.17468, 17.63370
97.65680, 18.78586
98.13892, 19.86157
98.62103, 21.43815
99.10315, 23.77543
99.58527, 26.75999
100.0674, 29.47327
100.5495, 31.79889
101.0316, 34.05761
101.5137, 36.54004
101.9958, 39.22469
102.4780, 42.26625
102.9601, 45.71830
103.4422, 49.60866
103.9243, 53.72504
104.4064, 58.17053
104.8885, 62.79826
105.3707, 67.46378
105.8528, 72.16222
106.3349, 76.84991
106.8170, 81.50623
107.2991, 86.32475
107.7813, 90.74273
108.2634, 94.65780
108.7455, 98.17722
109.2276, 101.5216
109.7097, 104.4563
110.1918, 107.4174
110.6740, 110.5907
111.1561, 113.2789
111.6382, 116.9674
112.1203, 122.0947
112.6024, 128.5080
113.0845, 134.9983
113.5667, 141.3773
114.0488, 147.7439
114.5309, 154.2393
115.0130, 160.5821
115.4951, 167.2861
115.9772, 174.6936
116.4594, 182.8487
116.9415, 190.9310
117.4236, 198.9966
117.9057, 206.7265
118.3878, 213.7493
118.8699, 219.8027
119.3521, 225.2850
119.8342, 230.4773
120.3163, 235.3985
120.7984, 239.9942
121.2805, 244.7842
121.7626, 249.1919
122.2448, 252.2319
122.7269, 253.0620
123.2090, 252.4845
123.6911, 250.7881
124.1732, 247.5961
124.6553, 244.9906
125.1375, 245.2588
125.6196, 247.8112
126.1017, 250.7817
126.5838, 252.6768
127.0659, 254.3162
127.5480, 257.3107
128.0302, 262.1949
128.5123, 267.8939
128.9944, 273.0694
129.4765, 277.7511
129.9586, 282.2187
130.4407, 286.5479
130.9229, 290.7944
131.4050, 295.2244
131.8871, 299.8144
132.3692, 304.5664
132.8513, 309.4799
133.3334, 314.0835
133.8156, 317.1709
134.2977, 318.6559
134.7798, 319.6751
135.2619, 321.1655
135.7440, 323.5405
136.2261, 326.5253
136.7083, 328.9953
137.1904, 330.9054
137.6725, 332.5424
138.1546, 334.3628
138.6367, 336.5387
139.1188, 338.0422
139.6010, 338.4866
140.0831, 337.8747
140.5652, 337.3004
141.0473, 336.4374
141.5294, 336.0160
142.0115, 337.3138
142.4937, 341.4296
142.9758, 344.6568
143.4579, 345.5327
143.9400, 343.2213
144.4221, 342.6448
144.9042, 344.4073
145.3864, 347.5026
145.8685, 350.2399
146.3506, 352.7562
146.8327, 354.7613
147.3148, 356.0865
147.7969, 356.2267
148.2791, 356.8177
148.7612, 358.1498
149.2433, 359.8995
149.7254, 361.3429
150.2075, 362.1885
150.6896, 362.9860
151.1718, 363.9350
151.6539, 365.2311
152.1360, 366.4054
152.6181, 367.1342
153.1002, 367.6872
153.5823, 368.8663
154.0645, 371.6573
154.5466, 374.4181
155.0287, 376.3710
155.5108, 376.5606
155.9929, 377.0217
156.4750, 377.9559
156.9572, 379.3577
157.4393, 381.2188
157.9214, 383.4504
158.4035, 386.1982
158.8856, 389.5551
159.3677, 394.8457
159.8499, 399.4599
160.3320, 402.3178
160.8141, 403.6773
161.2962, 405.0531
161.7783, 407.2896
162.2604, 409.6151
162.7426, 411.3937
163.2247, 412.3134
163.7068, 412.7658
164.1889, 412.3192
164.6710, 411.1157
165.1531, 411.0482
165.6353, 414.1514
166.1174, 418.4986
166.5995, 422.0150
167.0816, 422.9786
167.5637, 423.5961
168.0458, 425.3184
168.5280, 428.1489
169.0101, 431.2227
169.4922, 433.8813
169.9743, 436.4299
170.4564, 439.2819
170.9385, 442.8196
171.4207, 446.6029
171.9028, 449.9987
172.3849, 452.9234
172.8670, 456.4977
173.3491, 461.7255
173.8312, 468.2330
174.3134, 475.3377
174.7955, 482.9938
175.2776, 490.8949
175.7597, 498.9330
176.2418, 507.2810
176.7239, 514.7944
177.2061, 521.3382
177.6882, 526.5217
178.1703, 529.1837
178.6524, 529.5931
179.1345, 526.9742
179.6166, 519.2711
180.0988, 505.7590
180.5809, 490.0893
181.0630, 475.3356
181.5451, 461.5157
182.0272, 449.3454
182.5093, 438.9738
182.9915, 430.3752
183.4736, 423.8065
183.9557, 419.3532
184.4378, 416.4005
184.9199, 414.3715
185.4020, 413.2232
185.8842, 412.4034
186.3663, 411.6885
186.8484, 411.0772
187.3305, 410.5577
187.8126, 410.0843
188.2947, 409.8093
188.7769, 410.0437
189.2590, 410.7711
189.7411, 411.6239
190.2232, 412.1329
190.7053, 412.4681
191.1874, 413.9024
191.6696, 416.8504
192.1517, 420.3738
192.6338, 422.6002
193.1159, 423.4832
193.5980, 424.3661
194.0801, 426.1676
194.5623, 428.8024
195.0444, 431.2447
195.5265, 433.4430
196.0086, 435.3184
196.4907, 436.6039
196.9728, 437.2437
197.4550, 437.7406
197.9371, 438.2920
198.4192, 438.8923
198.9013, 439.8590
199.3834, 441.3194
199.8655, 443.0499
200.3477, 444.3716
200.8298, 445.1063
201.3119, 446.2444
201.7940, 448.4894
202.2761, 451.9237
202.7582, 455.5553
203.2404, 459.3044
203.7225, 463.1989
204.2046, 467.4036
204.6867, 472.0410
205.1688, 476.6024
205.6509, 480.5960
206.1331, 483.8957
206.6152, 487.5933
207.0973, 491.7825
207.5794, 496.4282
208.0615, 501.6654
208.5436, 507.9131
209.0258, 513.6728
209.5079, 518.2478
209.9900, 521.8543
210.4721, 523.2047
210.9542, 521.9999
211.4363, 518.5323
211.9185, 513.5816
212.4006, 506.7509
212.8827, 499.2217
213.3648, 491.7330
213.8469, 484.0780
214.3290, 476.8911
214.8112, 470.1833
215.2933, 464.0026
215.7754, 458.1779
216.2575, 452.3615
216.7396, 447.5331
217.2217, 444.5529
217.7038, 444.1572
218.1860, 443.4327
218.6681, 442.4215
219.1502, 440.9221
219.6323, 437.9743
220.1144, 432.8433
220.5965, 427.5770
221.0787, 423.2309
221.5608, 419.6332
222.0429, 417.5624
222.5250, 417.7156
223.0071, 419.3773
223.4892, 419.8472
223.9714, 418.5879
224.4535, 417.0064
224.9356, 415.8478
225.4177, 415.3086
225.8998, 414.7395
226.3819, 414.0761
226.8641, 413.3622
227.3462, 412.7905
227.8283, 412.4620
228.3104, 412.1157
228.7925, 411.5682
229.2746, 410.5334
229.7568, 409.9440
230.2389, 409.9908
230.7210, 410.4685
231.2031, 410.7173
231.6852, 410.5961
232.1673, 410.4500
232.6495, 410.4518
233.1316, 410.6752
233.6137, 410.8667
234.0958, 410.9265
234.5779, 410.9693
235.0600, 411.3875
235.5422, 412.6194
236.0243, 413.6022
236.5064, 413.7893
236.9885, 412.6480
237.4706, 411.8890
237.9527, 411.5702
238.4349, 411.6299
238.9170, 411.9300
239.3991, 412.4905
239.8812, 413.2604
240.3633, 414.2697
240.8454, 415.7166
241.3276, 416.8947
241.8097, 417.6643
242.2918, 418.2016
242.7739, 418.9742
243.2560, 420.5240
243.7381, 421.4622
244.2203, 420.9489
244.7024, 417.8017
245.1845, 416.6298
245.6666, 418.2173
246.1487, 421.4065
246.6308, 424.0698
247.1130, 426.1605
247.5951, 427.8044
248.0772, 428.9921
248.5593, 429.6525
249.0414, 430.1172
249.5235, 430.2617
250.0057, 430.2841
250.4878, 430.4745
250.9699, 430.7072
251.4520, 431.3347
251.9341, 432.5280
252.4162, 434.4142
252.8984, 436.2930
253.3805, 438.3254
253.8626, 440.2372
254.3447, 441.6158
254.8268, 442.5340
255.3089, 442.8096
255.7911, 442.2399
256.2732, 440.6958
256.7553, 439.4073
257.2374, 438.4703
257.7195, 437.6927
258.2017, 436.8637
258.6838, 436.0236
259.1659, 435.0302
259.6480, 433.8453
260.1301, 432.4810
260.6122, 430.9023
261.0944, 429.0182
261.5765, 427.0252
262.0586, 425.0370
262.5407, 422.8759
263.0228, 421.2171
263.5049, 420.1838
263.9871, 419.7725
264.4692, 420.2173
264.9513, 422.0057
265.4334, 423.8801
265.9155, 424.7034
266.3976, 424.2919
266.8798, 423.3217
267.3619, 421.5353
267.8440, 419.1608
268.3261, 418.4061
268.8082, 419.8820
269.2903, 421.6886
269.7725, 422.1724
270.2546, 420.9823
270.7367, 420.0607
271.2188, 419.6987
271.7009, 419.8041
272.1830, 420.0013
272.6652, 420.2741
273.1473, 420.6740
273.6294, 421.4404
274.1115, 422.7553
274.5936, 423.1259
275.0757, 422.0032
275.5579, 420.1222
276.0400, 419.8121
276.5221, 421.4136
277.0042, 423.1945
277.4863, 423.9953
277.9684, 423.7084
278.4506, 424.0116
278.9327, 425.2684
279.4148, 426.8561
279.8969, 427.2916
280.3790, 426.4091
280.8611, 425.5600
281.3433, 425.4295
281.8254, 426.0181
282.3075, 426.9533
282.7896, 428.3897
283.2717, 429.8228
283.7538, 430.3659
284.2360, 429.9942
284.7181, 429.4456
285.2002, 428.9186
285.6823, 428.4415
286.1644, 428.3232
286.6465, 428.6169
287.1287, 429.0702
287.6108, 429.3673
288.0929, 429.5137
288.5750, 429.6433
289.0571, 429.6168
289.5392, 429.6063
290.0214, 430.5145
290.5035, 432.4437
290.9856, 434.4105
291.4677, 435.3621
291.9498, 435.4117
292.4319, 435.1846
292.9141, 434.5677
293.3962, 433.9655
293.8783, 434.6548
294.3604, 436.6572
294.8425, 438.5330
295.3246, 438.7461
295.8068, 437.7794
296.2889, 437.2885
296.7710, 437.8930
297.2531, 438.8965
297.7352, 438.9139
298.2173, 438.0771
298.6995, 437.5196
299.1816, 438.4541
299.6637, 440.2300
300.1458, 441.3486
300.6279, 441.2890
301.1100, 441.0537
301.5922, 442.2004
302.0743, 444.3686
302.5564, 446.1121
303.0385, 446.4941
303.5206, 445.9513
304.0027, 444.8124
304.4849, 442.8549
304.9670, 441.4158
305.4491, 442.4275
305.9312, 445.0204
306.4133, 447.1100
306.8954, 447.5201
307.3776, 447.0079
307.8597, 446.2806
308.3418, 445.3913
308.8239, 444.2478
309.3060, 442.4751
309.7881, 440.4456
310.2703, 438.7996
310.7524, 437.9762
311.2345, 437.4774
311.7166, 437.0373
312.1987, 436.6433
312.6808, 436.2042
313.1630, 435.1886
313.6451, 434.2705
314.1272, 434.1784
314.6093, 436.4038
315.0914, 438.3170
315.5735, 438.1529
316.0557, 436.3179
316.5378, 434.9839
317.0199, 435.4183
317.5020, 436.5055
317.9841, 437.4514
318.4662, 437.9800
318.9484, 438.4708
319.4305, 439.1058
319.9126, 439.8047
320.3947, 440.3536
320.8768, 440.5189
321.3589, 440.6523
321.8411, 440.8862
322.3232, 441.1356
322.8053, 441.7335
323.2874, 443.3017
323.7695, 445.1551
324.2516, 446.2098
324.7338, 445.3040
325.2159, 444.4891
325.6980, 444.3412
326.1801, 444.9251
326.6622, 446.0201
327.1443, 448.2690
327.6265, 450.7432
328.1086, 452.5085
328.5907, 452.5822
329.0728, 453.0224
329.5549, 454.3616
330.0370, 456.6207
330.5192, 458.3174
331.0013, 459.0472
331.4834, 459.5747
331.9655, 460.4370
332.4476, 461.8373
332.9297, 463.2526
333.4119, 464.8039
333.8940, 466.3495
334.3761, 467.2218
334.8582, 467.2603
335.3403, 466.8495
335.8224, 466.0259
336.3046, 464.3922
336.7867, 463.6362
337.2688, 464.2987
337.7509, 465.4572
338.2330, 465.0591
338.7151, 462.5963
339.1973, 460.1876
339.6794, 458.8053
340.1615, 458.5421
340.6436, 457.3798
341.1257, 454.9235
341.6078, 452.4736
342.0899, 452.2378
342.5721, 454.4712
343.0542, 455.5296
343.5363, 453.7927
344.0184, 450.0804
344.5005, 447.9815
344.9826, 447.6453
345.4648, 447.9675
345.9469, 448.1614
346.4290, 448.2110
346.9111, 447.9513
347.3932, 447.2303
347.8753, 446.3302
348.3575, 445.9707
348.8396, 446.0818
349.3217, 445.9113
349.8038, 444.3040
350.2859, 442.0576
350.7680, 441.4067
351.2502, 442.9331
351.7323, 444.8109
352.2144, 444.8021
352.6965, 443.3849
353.1786, 442.0042
353.6607, 441.1853
354.1429, 440.9057
354.6250, 441.3381
355.1071, 442.5160
355.5892, 443.6948
356.0713, 444.6618
356.5534, 445.1944
357.0356, 444.9406
357.5177, 442.6646
357.9998, 440.4926
358.4819, 440.2017
358.9640, 441.5197
359.4461, 442.9571
359.9283, 443.9361
360.4104, 444.5873
360.8925, 444.9770
361.3746, 444.9078
361.8567, 444.9345
362.3388, 445.3077
362.8210, 445.9355
363.3031, 446.6212
363.7852, 446.9872
364.2673, 447.6444
364.7494, 449.0273
365.2315, 451.4739
365.7137, 453.5643
366.1958, 454.6807
366.6779, 455.3954
367.1600, 456.3911
367.6421, 457.8842
368.1242, 459.5205
368.6064, 461.2119
369.0885, 462.9607
369.5706, 464.9287
370.0527, 467.7318
370.5348, 470.2965
371.0169, 471.8432
371.4991, 471.0058
371.9812, 471.5093
372.4633, 474.2744
372.9454, 478.5442
373.4275, 481.4824
373.9096, 482.3267
374.3918, 483.2311
374.8739, 485.2428
375.3560, 488.7003
375.8381, 491.8042
376.3202, 494.3984
376.8023, 496.7927
377.2845, 499.1924
377.7666, 501.3650
378.2487, 504.7662
378.7308, 510.2433
379.2129, 517.4495
379.6950, 523.5129
380.1772, 528.3651
380.6593, 532.6741
381.1414, 537.0535
381.6235, 541.4564
382.1056, 545.8957
382.5877, 550.4996
383.0699, 554.9098
383.5520, 558.6376
384.0341, 561.6806
384.5162, 563.6645
384.9983, 564.5549
385.4804, 564.2101
385.9626, 562.1201
386.4447, 558.0668
386.9268, 553.1729
387.4089, 548.4855
387.8910, 543.8078
388.3731, 538.8072
388.8553, 532.3409
389.3374, 526.0860
389.8195, 522.1223
390.3016, 520.3802
390.7837, 518.6432
391.2658, 515.4358
391.7480, 511.6011
392.2301, 508.0006
392.7122, 504.8588
393.1943, 502.0237
393.6764, 499.4705
394.1585, 497.1928
394.6407, 495.2106
395.1228, 494.1813
395.6049, 492.9312
396.0870, 490.6159
396.5691, 486.5708
397.0512, 483.3886
397.5334, 481.6500
398.0155, 481.0046
398.4976, 481.0281
398.9797, 482.8349
399.4618, 484.0514
399.9439, 483.9649
400.4261, 482.5789
400.9082, 481.6445
401.3903, 481.5096
401.8724, 481.4810
402.3545, 481.0164
402.8366, 479.4747
403.3188, 478.9620
403.8009, 480.0124
404.2830, 481.9778
404.7651, 483.1634
405.2472, 483.3004
405.7293, 483.3990
406.2115, 483.8743
406.6936, 484.7337
407.1757, 485.7013
407.6578, 486.8856
408.1399, 487.8980
408.6220, 488.2531
409.1042, 487.9626
409.5863, 487.4562
410.0684, 486.7154
410.5505, 485.9347
411.0326, 485.7949
411.5147, 486.2613
411.9969, 486.3238
412.4790, 485.0518
412.9611, 482.8482
413.4432, 480.7017
413.9253, 478.7477
414.4074, 476.7689
414.8896, 474.3755
415.3717, 471.7612
415.8538, 469.3948
416.3359, 467.6159
416.8180, 466.1280
417.3001, 464.7818
417.7823, 463.5429
418.2644, 462.2238
418.7465, 460.4651
419.2286, 458.6485
419.7107, 457.1688
420.1928, 456.2525
420.6750, 455.4806
421.1571, 454.9072
421.6392, 454.3659
422.1213, 453.4418
422.6034, 451.3633
423.0855, 449.4508
423.5677, 448.3829
424.0498, 448.5955
424.5319, 448.3050
425.0140, 446.5035
425.4961, 444.5600
425.9782, 443.8921
426.4604, 445.6618
426.9425, 447.0207
427.4246, 447.4619
427.9067, 447.1255
428.3888, 446.9392
428.8709, 446.9469
429.3531, 447.0292
429.8352, 447.0801
430.3173, 447.0359
430.7994, 447.3434
431.2815, 448.1713
431.7636, 449.0860
432.2458, 449.3237
432.7279, 448.8455
433.2100, 448.2349
433.6921, 447.6003
434.1742, 446.9957
434.6563, 446.6410
435.1385, 446.5301
435.6206, 446.6106
436.1027, 447.0234
436.5848, 447.5998
437.0669, 447.8405
437.5490, 447.5745
438.0312, 447.1545
438.5133, 446.8480
438.9954, 446.6996
439.4775, 446.8248
439.9596, 447.4576
440.4417, 448.2905
440.9239, 449.0530
441.4060, 449.7329
441.8881, 450.4538
442.3702, 451.4284
442.8523, 452.4061
443.3344, 453.1548
443.8166, 453.6520
444.2987, 453.8576
444.7808, 453.6953
445.2629, 453.2165
445.7450, 452.5739
446.2271, 451.6126
446.7093, 450.6596
447.1914, 449.7941
447.6735, 448.9442
448.1556, 448.4420
448.6377, 448.6440
449.1198, 448.9561
449.6020, 448.6920
450.0841, 447.2947
450.5662, 446.5467
451.0483, 446.9891
451.5304, 448.2776
452.0125, 448.8288
452.4947, 448.4995
452.9768, 447.8897
453.4589, 447.2017
453.9410, 446.4204
454.4231, 445.9787
454.9052, 445.8710
455.3874, 446.1118
455.8695, 447.0518
456.3516, 448.5352
456.8337, 449.3799
457.3158, 448.9901
457.7979, 447.9294
458.2801, 447.1538
458.7622, 446.6368
459.2443, 446.1551
459.7264, 445.6226
460.2085, 445.0232
460.6906, 444.2968
461.1728, 443.3964
461.6549, 442.5886
462.1370, 442.0013
462.6191, 441.6584
463.1012, 441.6103
463.5833, 441.9987
464.0655, 442.5670
464.5476, 443.3010
465.0297, 444.1581
465.5118, 444.8712
465.9939, 445.2063
466.4760, 445.4718
466.9582, 445.8076
467.4403, 446.0650
467.9224, 446.7056
468.4045, 448.4452
468.8866, 450.2648
469.3687, 450.5700
469.8509, 448.1544
470.3330, 446.4384
470.8151, 446.4293
471.2972, 447.9272
471.7793, 448.7642
472.2614, 448.7776
472.7436, 448.6089
473.2257, 448.7050
473.7078, 449.0728
474.1899, 449.3705
474.6720, 449.5388
475.1541, 449.7237
475.6363, 450.0829
476.1184, 450.6259
476.6005, 451.4433
477.0826, 452.8517
477.5647, 454.3841
478.0468, 455.2044
478.5290, 455.3727
479.0111, 455.4320
479.4932, 455.7978
479.9753, 456.2568
480.4574, 456.4916
480.9395, 456.3253
481.4217, 456.3427
481.9038, 456.8989
482.3859, 457.8634
482.8680, 459.0441
483.3501, 460.7587
483.8322, 462.3018
484.3144, 463.2612
484.7965, 463.6759
485.2786, 464.3629
485.7607, 466.1927
486.2428, 467.7060
486.7249, 468.0906
487.2071, 466.4928
487.6892, 465.6088
488.1713, 465.7837
488.6534, 466.4387
489.1355, 466.7535
489.6176, 466.6704
490.0998, 466.4555
490.5819, 466.2166
491.0640, 465.9055
491.5461, 465.1396
492.0282, 463.8438
492.5103, 462.6726
492.9925, 462.2032
493.4746, 462.2914
493.9567, 462.1613
494.4388, 461.6998
494.9209, 461.2913
495.4030, 461.6882
495.8852, 462.4843
496.3673, 462.6287
496.8494, 460.9994
497.3315, 459.2287
497.8136, 459.0460
498.2957, 460.1332
498.7779, 461.2091
499.2600, 461.7177
499.7421, 461.9001
500.2242, 461.8376
500.7063, 461.4473
501.1884, 461.2642
501.6706, 461.5600
502.1527, 462.1041
502.6348, 462.6613
503.1169, 463.5018
503.5990, 464.0113
504.0811, 464.1378
504.5633, 463.8966
505.0454, 463.2076
505.5275, 461.5140
506.0096, 460.3654
506.4917, 460.5845
506.9738, 462.3324
507.4560, 463.4139
507.9381, 463.6553
508.4202, 463.6922
508.9023, 464.1760
509.3844, 465.0841
509.8665, 466.0659
510.3487, 467.1132
510.8308, 468.1041
511.3129, 468.8578
511.7950, 469.3832
512.2772, 469.7141
512.7593, 469.4983
513.2414, 469.2961
513.7235, 469.9967
514.2056, 471.5654
514.6877, 472.9523
515.1699, 473.0424
515.6520, 472.8687
516.1341, 473.4776
516.6162, 475.6713
517.0983, 477.5219
517.5804, 478.2965
518.0626, 478.3498
518.5447, 478.2656
519.0268, 477.6796
519.5089, 477.4516
519.9910, 477.8293
520.4731, 478.7797
520.9553, 479.8825
521.4374, 481.4555
521.9195, 482.6966
522.4016, 483.0887
522.8837, 482.4787
523.3658, 481.6822
523.8480, 480.4483
524.3301, 479.5952
524.8122, 480.7251
525.2943, 483.6764
525.7764, 485.8179
526.2585, 486.3455
526.7407, 485.7786
527.2228, 484.6302
527.7049, 483.0552
528.1870, 481.9791
528.6691, 482.3622
529.1512, 483.3276
529.6334, 483.7543
530.1155, 483.5406
530.5976, 483.5155
531.0797, 484.6205
531.5618, 485.9391
532.0439, 486.5063
532.5261, 485.2109
533.0082, 484.3954
533.4903, 485.0211
533.9724, 486.4869
534.4545, 487.5289
534.9366, 488.0273
535.4188, 488.0809
535.9009, 487.4669
536.3830, 486.2193
536.8651, 485.7798
537.3472, 486.5370
537.8293, 487.3578
538.3115, 487.4152
538.7936, 486.6461
539.2757, 486.0479
539.7578, 485.6085
540.2399, 485.5380
540.7220, 486.4699
541.2042, 488.1668
541.6863, 489.3187
542.1684, 489.3896
542.6505, 488.8784
543.1326, 488.1232
543.6147, 487.2975
544.0969, 487.0711
544.5790, 488.6490
545.0611, 490.4466
545.5432, 490.9538
546.0253, 489.9787
546.5074, 489.1985
546.9896, 489.3497
547.4717, 489.9780
547.9538, 490.7346
548.4359, 492.1125
548.9180, 492.8572
549.4001, 492.3141
549.8823, 491.2672
550.3644, 491.0829
550.8465, 492.2406
551.3286, 493.3883
551.8107, 494.3029
552.2928, 494.9539
552.7750, 494.8780
553.2571, 493.8660
553.7392, 493.1563
554.2213, 494.1313
554.7034, 496.3107
555.1855, 496.6358
555.6677, 494.7597
556.1498, 492.5214
556.6319, 492.0337
557.1140, 492.6141
557.5961, 492.8643
558.0782, 492.2780
558.5604, 491.4095
559.0425, 490.5633
559.5246, 489.7780
560.0067, 489.1478
560.4888, 488.8665
560.9709, 488.6143
561.4531, 488.4418
561.9352, 488.3389
562.4173, 487.5627
562.8994, 485.3305
563.3815, 482.9561
563.8636, 481.0545
564.3458, 479.7225
564.8279, 478.6401
565.3100, 477.7543
565.7921, 477.1757
566.2742, 477.3196
566.7563, 478.3463
567.2385, 478.4713
567.7206, 477.0321
568.2027, 474.8317
568.6848, 473.6212
569.1669, 473.3027
569.6490, 473.2840
570.1312, 473.5174
570.6133, 473.7299
571.0954, 473.3355
571.5775, 472.3724
572.0596, 471.6774
572.5417, 471.8805
573.0239, 472.5229
573.5060, 473.3906
573.9881, 474.9031
574.4702, 475.3888
574.9523, 473.1375
575.4344, 470.0317
575.9166, 468.4883
576.3987, 470.3130
576.8808, 471.4646
577.3629, 471.0907
577.8450, 469.7876
578.3271, 469.6495
578.8093, 471.1124
579.2914, 472.4102
579.7735, 472.5643
580.2556, 471.8093
580.7377, 472.2580
581.2198, 474.0153
581.7020, 475.7494
582.1841, 476.2619
582.6662, 475.9152
583.1483, 475.4599
583.6304, 474.9232
584.1125, 474.7095
584.5947, 475.8105
585.0768, 477.3079
585.5589, 477.8393
586.0410, 475.9551
586.5231, 474.1457
587.0052, 473.4844
587.4873, 473.7089
587.9694, 474.1071
588.4515, 474.9312
588.9337, 475.5243
589.4158, 475.5908
589.8979, 475.1278
590.3800, 474.9953
590.8621, 475.3076
591.3442, 475.7376
591.8264, 475.9784
592.3085, 475.9780
592.7906, 476.6278
593.2727, 478.1235
593.7548, 479.6196
594.2369, 479.9550
594.7191, 479.4116
595.2012, 479.1014
595.6833, 479.3605
596.1654, 479.8228
596.6475, 480.0714
597.1296, 480.2117
597.6118, 480.4931
598.0939, 481.4427
598.5760, 482.2092
599.0581, 482.0864
599.5402, 481.2060
600.0223, 480.7658
600.5045, 481.1737
600.9866, 481.9897
601.4687, 483.1416
601.9508, 484.8400
602.4329, 485.9145
602.9150, 486.0619
603.3972, 485.9951
603.8793, 486.4925
604.3614, 487.6676
604.8435, 488.0398
605.3256, 487.1936
605.8077, 486.0305
606.2899, 486.2344
606.7720, 487.4780
607.2541, 488.2170
607.7362, 487.5952
608.2183, 486.4792
608.7004, 485.8815
609.1826, 485.6619
609.6647, 485.3563
610.1468, 484.6296
610.6289, 483.8230
611.1110, 483.2709
611.5931, 483.0057
612.0753, 482.3320
612.5574, 480.4375
613.0395, 478.6272
613.5216, 477.7476
614.0037, 478.5171
614.4858, 478.2826
614.9680, 476.6796
615.4501, 474.5591
615.9322, 472.7974
616.4143, 471.3849
616.8964, 470.5170
617.3785, 470.2804
617.8607, 470.5195
618.3428, 471.4320
618.8249, 472.7270
619.3070, 473.1884
619.7891, 471.6058
620.2712, 469.3817
620.7534, 467.7315
621.2355, 466.6235
621.7176, 465.9698
622.1997, 466.0864
622.6818, 466.3640
623.1639, 466.4185
623.6461, 466.1593
624.1282, 466.1324
624.6103, 466.6163
625.0924, 467.1531
625.5745, 467.4067
626.0566, 467.1317
626.5388, 467.2953
627.0209, 468.0094
627.5030, 468.9851
627.9851, 469.9903
628.4672, 470.9887
628.9493, 471.4193
629.4315, 470.9191
629.9136, 470.1979
630.3957, 470.5845
630.8778, 471.7046
631.3599, 472.4348
631.8420, 471.7775
632.3242, 470.8970
632.8063, 470.6913
633.2884, 471.0726
633.7705, 471.4507
634.2526, 471.8163
634.7347, 471.9697
635.2169, 471.6497
635.6990, 470.6733
636.1811, 470.4033
636.6632, 471.2337
637.1453, 472.2714
637.6274, 472.8463
638.1096, 472.8737
638.5917, 473.0458
639.0738, 473.4252
639.5559, 473.8533
640.0380, 474.2861
640.5201, 474.6365
641.0023, 474.4122
641.4844, 473.1501
641.9665, 471.9577
642.4486, 472.0664
642.9307, 473.1299
643.4128, 474.3828
643.8950, 475.7700
644.3771, 477.0287
644.8592, 478.0829
645.3413, 478.9232
645.8234, 479.5569
646.3055, 479.9081
646.7877, 480.1066
647.2698, 480.0471
647.7519, 479.7001
648.2340, 479.9544
648.7161, 480.7884
649.1982, 482.2599
649.6804, 484.8282
650.1625, 488.2915
650.6446, 490.6079
651.1267, 491.5658
651.6088, 492.1679
652.0909, 492.8711
652.5731, 494.0452
653.0552, 496.5126
653.5373, 500.8942
654.0194, 505.5441
654.5015, 509.9142
654.9836, 513.8530
655.4658, 517.1674
655.9479, 518.7549
656.4300, 520.9321
656.9121, 524.5219
657.3942, 529.0482
657.8763, 533.1497
658.3585, 536.4989
658.8406, 540.2393
659.3227, 544.7706
659.8048, 549.9876
660.2869, 555.1732
660.7690, 560.3105
661.2512, 565.5670
661.7333, 570.8293
662.2154, 576.2842
662.6975, 582.4912
663.1796, 589.4287
663.6617, 596.1059
664.1439, 601.7946
664.6260, 606.9402
665.1081, 612.0685
665.5902, 617.4744
666.0723, 621.9856
666.5544, 624.7217
667.0366, 626.7918
667.5187, 629.3875
668.0008, 633.8174
668.4829, 636.0277
668.9650, 635.3562
669.4471, 632.9046
669.9293, 630.3929
670.4114, 627.8334
670.8935, 624.3319
671.3756, 619.4172
671.8577, 613.7822
672.3398, 608.0530
672.8220, 602.3965
673.3041, 597.4919
673.7862, 594.3561
674.2683, 591.5004
674.7504, 587.4333
675.2325, 582.5208
675.7147, 578.7655
676.1968, 577.6473
676.6789, 576.9567
677.1610, 575.7989
677.6431, 574.1281
678.1252, 572.5253
678.6074, 570.8533
679.0895, 569.5355
679.5716, 569.1508
680.0537, 569.6970
680.5358, 569.0986
681.0179, 567.1945
681.5001, 565.1335
681.9822, 564.4158
682.4643, 564.3205
682.9464, 563.3336
683.4285, 561.0393
683.9106, 558.4094
684.3928, 556.2521
684.8749, 554.0852
685.3570, 551.2976
685.8391, 546.7557
686.3212, 542.7624
686.8033, 540.1385
687.2855, 538.0978
687.7676, 535.3411
688.2497, 531.3980
688.7318, 527.8839
689.2139, 525.2418
689.6960, 523.1075
690.1782, 520.5777
690.6603, 517.6712
691.1424, 514.7036
691.6245, 511.6020
692.1066, 508.6223
692.5887, 506.2394
693.0709, 504.3690
693.5530, 502.6455
694.0351, 500.9881
694.5172, 499.3329
694.9993, 497.3951
695.4814, 495.1369
695.9636, 493.7987
696.4457, 494.5661
696.9278, 495.2979
697.4099, 494.8855
697.8920, 493.0556
698.3741, 491.9874
698.8563, 491.8812
699.3384, 491.9185
699.8205, 491.3893
700.3026, 490.3792
700.7847, 489.1069
701.2668, 487.5165
701.7490, 486.2757
702.2311, 486.4354
702.7132, 487.2000
703.1953, 487.4673
703.6774, 486.8605
704.1595, 485.9365
704.6417, 484.5421
705.1238, 483.0757
705.6059, 482.1173
706.0880, 481.7808
706.5701, 481.8094
707.0522, 482.3976
707.5344, 483.1815
708.0165, 483.2333
708.4986, 482.4759
708.9807, 482.2422
709.4628, 483.2421
709.9449, 484.6034
710.4271, 484.3734
710.9092, 482.9905
711.3913, 482.0731
711.8734, 483.1900
712.3555, 484.4629
712.8376, 484.4388
713.3198, 483.3443
713.8019, 482.4120
714.2840, 482.2438
714.7661, 482.0209
715.2482, 481.2891
715.7303, 480.0858
716.2125, 479.6099
716.6946, 480.0628
717.1767, 480.6823
717.6588, 481.0684
718.1409, 481.2428
718.6230, 481.2438
719.1052, 481.0637
719.5873, 481.0889
720.0694, 481.9586
720.5515, 483.0599
721.0336, 483.5406
721.5157, 483.2295
721.9979, 482.9041
722.4800, 482.8110
722.9621, 482.9227
723.4442, 483.2586
723.9263, 484.0853
724.4084, 484.4845
724.8906, 484.0636
725.3727, 483.6792
725.8548, 484.5050
726.3369, 486.6975
726.8190, 487.5944
727.3011, 486.6441
727.7833, 485.1933
728.2654, 484.8988
728.7475, 485.4734
729.2296, 486.3198
729.7117, 487.5269
730.1938, 488.4166
730.6760, 487.8712
731.1581, 486.8751
731.6402, 486.9342
732.1223, 490.0528
732.6044, 492.1913
733.0865, 492.4594
733.5687, 491.5425
734.0508, 490.6979
734.5329, 489.7621
735.0150, 489.6738
735.4971, 490.9226
735.9792, 492.8915
736.4614, 494.3228
736.9435, 495.2494
737.4256, 495.8351
737.9077, 495.9470
738.3898, 495.9193
738.8719, 496.0236
739.3541, 496.2389
739.8362, 496.4937
740.3183, 496.7674
740.8004, 497.0629
741.2825, 497.3997
741.7646, 497.7651
742.2468, 498.1064
742.7289, 498.5222
743.2110, 498.6472
743.6931, 498.1755
744.1752, 497.2500
744.6573, 496.6520
745.1395, 496.3857
745.6216, 496.3971
746.1037, 497.0537
746.5858, 497.7502
747.0679, 497.6114
747.5500, 496.6331
748.0322, 495.6852
748.5143, 494.9817
748.9964, 494.5797
749.4785, 494.7103
749.9606, 495.6521
750.4427, 495.5628
750.9249, 493.8780
751.4070, 492.1121
751.8891, 491.3141
752.3712, 491.4675
752.8533, 492.1019
753.3354, 493.2907
753.8176, 494.1885
754.2997, 493.6918
754.7818, 492.5061
755.2639, 491.5953
755.7460, 491.0661
756.2281, 491.1622
756.7103, 492.7481
757.1924, 494.5905
757.6745, 495.6080
758.1566, 495.3820
758.6387, 494.7993
759.1208, 493.3916
759.6030, 492.1812
760.0851, 492.3887
760.5672, 494.0630
761.0493, 495.6794
761.5314, 497.1657
762.0135, 498.1310
762.4957, 497.4883
762.9778, 496.1107
763.4599, 495.6721
763.9420, 496.7841
764.4241, 498.4471
764.9063, 500.9667
765.3884, 503.3837
765.8705, 504.4988
766.3526, 502.7232
766.8347, 501.7237
767.3168, 501.8649
767.7990, 502.6552
768.2811, 503.3357
768.7632, 503.8868
769.2453, 504.8090
769.7274, 506.2720
770.2095, 507.9417
770.6917, 509.3894
771.1738, 510.6649
771.6559, 511.8960
772.1380, 513.0549
772.6201, 514.2646
773.1022, 515.9764
773.5844, 517.6944
774.0665, 518.5002
774.5486, 517.6929
775.0307, 516.8019
775.5128, 515.8384
775.9949, 515.0198
776.4771, 515.1721
776.9592, 516.3661
777.4413, 516.4759
777.9234, 514.4181
778.4055, 511.7175
778.8876, 510.9669
779.3698, 511.4833
779.8519, 511.5065
780.3340, 509.7383
780.8161, 507.8208
781.2982, 506.3807
781.7803, 505.3601
782.2625, 504.6196
782.7446, 504.3514
783.2267, 503.9641
783.7088, 503.1523
784.1909, 502.2433
784.6730, 502.4511
785.1552, 503.7601
785.6373, 504.4680
786.1194, 503.4217
786.6015, 501.9513
787.0836, 502.3828
787.5657, 504.0383
788.0479, 505.0383
788.5300, 503.8696
789.0121, 502.4903
789.4942, 501.7283
789.9763, 501.4589
790.4584, 501.1095
790.9406, 500.6208
791.4227, 500.1291
791.9048, 499.6096
792.3869, 499.1485
792.8690, 499.1616
793.3511, 499.6081
793.8333, 499.8513
794.3154, 499.6886
794.7975, 499.0894
795.2796, 497.5586
795.7617, 495.4859
796.2438, 494.1810
796.7260, 494.7590
797.2081, 495.5828
797.6902, 496.3442
798.1723, 496.8895
798.6544, 496.4640
799.1365, 494.4853
799.6187, 493.1314
800.1008, 493.3021
800.5829, 494.4749
801.0650, 495.1393
801.5471, 495.3517
802.0292, 495.5031
802.5114, 495.6559
802.9935, 495.9474
803.4756, 496.6664
803.9577, 497.6495
804.4398, 498.3504
804.9219, 498.2181
805.4041, 498.2236
805.8862, 498.9292
806.3683, 500.0010
806.8504, 499.8805
807.3325, 498.2802
807.8146, 496.8700
808.2968, 496.2083
808.7789, 496.1869
809.2610, 497.0236
809.7431, 498.4138
810.2252, 499.1094
810.7073, 497.5236
811.1895, 495.9079
811.6716, 495.7836
812.1537, 496.8379
812.6358, 497.8524
813.1179, 499.0891
813.6000, 499.6272
814.0822, 498.9647
814.5643, 497.5356
815.0464, 496.9457
815.5285, 497.2081
816.0106, 497.6369
816.4927, 497.9253
816.9749, 498.2526
817.4570, 499.1639
817.9391, 500.3610
818.4212, 501.0126
818.9033, 500.3844
819.3854, 499.4886
819.8676, 498.3003
820.3497, 497.1549
820.8318, 497.1565
821.3139, 498.8463
821.7960, 500.4489
822.2781, 501.7139
822.7603, 502.4375
823.2424, 501.7325
823.7245, 499.8662
824.2066, 498.6103
824.6887, 498.9768
825.1708, 499.8705
825.6530, 500.4942
826.1351, 500.8716
826.6172, 501.0375
827.0993, 501.0122
827.5814, 500.7577
828.0635, 499.8680
828.5457, 498.9381
829.0278, 499.4577
829.5099, 501.7340
829.9920, 503.3613
830.4741, 503.5807
830.9562, 503.2209
831.4384, 503.7599
831.9205, 504.7921
832.4026, 505.2345
832.8847, 503.9948
833.3668, 503.0775
833.8489, 504.2848
834.3311, 506.2773
834.8132, 506.6089
835.2953, 503.6066
835.7774, 502.0234
836.2595, 502.7623
836.7416, 504.5713
837.2238, 505.6024
837.7059, 505.8931
838.1880, 505.5636
838.6701, 504.3893
839.1522, 503.4107
839.6343, 503.8226
840.1165, 505.0630
840.5986, 506.3569
841.0807, 507.7095
841.5628, 508.7472
842.0449, 509.5253
842.5270, 509.8609
843.0092, 509.3162
843.4913, 507.5708
843.9734, 506.8908
844.4555, 507.6549
844.9376, 508.8412
845.4197, 509.3483
845.9019, 509.3496
846.3840, 509.1754
846.8661, 508.8532
847.3482, 508.5407
847.8303, 508.2676
848.3124, 508.0850
848.7946, 508.0547
849.2767, 508.2469
849.7588, 508.3833
850.2409, 508.3570
850.7230, 508.4725
851.2051, 509.1770
851.6873, 510.3216
852.1694, 510.8820
852.6515, 510.7672
853.1336, 510.6432
853.6157, 511.1307
854.0978, 511.8227
854.5800, 512.3933
855.0621, 512.8193
855.5442, 512.9240
856.0263, 512.1371
856.5084, 511.6011
856.9905, 512.0834
857.4727, 513.5892
857.9548, 514.0842
858.4369, 513.5015
858.9190, 512.7133
859.4011, 512.0994
859.8832, 511.7849
860.3654, 512.1751
860.8475, 513.1778
861.3296, 513.9779
861.8117, 513.7281
862.2938, 513.6403
862.7759, 514.5609
863.2581, 516.2952
863.7402, 517.4864
864.2223, 518.1588
864.7044, 518.0901
865.1865, 516.7761
865.6686, 514.9312
866.1508, 514.4855
866.6329, 515.2153
867.1150, 516.1832
867.5971, 517.0750
868.0792, 517.8759
868.5613, 518.7252
869.0435, 519.4860
869.5256, 519.6437
870.0077, 518.5312
870.4898, 518.0568
870.9719, 518.8694
871.4540, 520.2175
871.9362, 520.3686
872.4183, 519.4558
872.9004, 518.4399
873.3825, 517.4294
873.8646, 516.8342
874.3467, 517.5060
874.8289, 518.7220
875.3110, 519.3779
875.7931, 518.3928
876.2752, 517.8765
876.7573, 518.1069
877.2394, 518.7634
877.7216, 519.5696
878.2037, 520.5433
878.6858, 521.2844
879.1679, 521.7444
879.6500, 521.9840
880.1321, 521.8030
880.6143, 521.5596
881.0964, 521.8324
881.5785, 522.8307
882.0606, 523.8704
882.5427, 525.0159
883.0248, 525.8694
883.5070, 526.0992
883.9891, 525.5678
884.4712, 525.2177
884.9533, 525.0295
885.4354, 525.1171
885.9175, 525.9171
886.3997, 526.9443
886.8818, 526.8956
887.3639, 525.8430
887.8460, 525.3175
888.3281, 526.9278
888.8102, 528.5937
889.2924, 528.8722
889.7745, 527.8772
890.2566, 528.0076
890.7387, 529.9129
891.2208, 530.9265
891.7029, 529.5108
892.1851, 526.7415
892.6672, 525.2218
893.1493, 524.8225
893.6314, 524.9922
894.1135, 525.7583
894.5956, 526.7037
895.0778, 527.8953
895.5599, 529.0726
896.0420, 529.5243
896.5241, 529.0001
897.0062, 528.2356
897.4883, 527.2639
897.9705, 526.2341
898.4526, 525.3989
898.9347, 524.7562
899.4168, 524.2854
899.8989, 523.9645
900.3810, 523.8569
900.8632, 524.2545
901.3453, 524.7740
901.8274, 524.9700
902.3095, 524.5222
902.7916, 524.1321
903.2737, 523.7281
903.7559, 523.4845
904.2380, 523.7094
904.7201, 524.3160
905.2022, 524.4111
905.6843, 523.9308
906.1664, 523.3529
906.6486, 523.4234
907.1307, 523.3368
907.6128, 521.8827
908.0949, 518.8323
908.5770, 517.3943
909.0591, 519.2313
909.5413, 520.9821
910.0234, 521.1166
910.5055, 519.9908
910.9876, 520.0569
911.4697, 521.2296
911.9518, 521.8461
912.4340, 520.2841
912.9161, 518.2621
913.3982, 517.6783
913.8803, 518.0706
914.3624, 518.1581
914.8445, 516.6229
915.3267, 516.0485
915.8088, 517.2161
916.2909, 519.3040
916.7730, 520.8157
917.2551, 521.7531
917.7372, 522.0861
918.2194, 521.6730
918.7015, 521.1149
919.1836, 520.8958
919.6657, 521.0110
920.1478, 521.5287
920.6299, 522.8981
921.1121, 523.7027
921.5942, 523.5641
922.0763, 523.0509
922.5584, 522.4653
923.0405, 521.7894
923.5226, 521.8361
924.0048, 522.6825
924.4869, 523.3273
924.9690, 522.4397
925.4511, 521.2267
925.9332, 521.2716
926.4153, 522.5898
926.8975, 523.5113
927.3796, 523.2788
927.8617, 522.8374
928.3438, 522.1945
928.8259, 521.5974
929.3080, 522.7595
929.7902, 525.6408
930.2723, 527.8096
930.7544, 527.8380
931.2365, 527.0191
931.7186, 526.8885
932.2007, 527.0328
932.6829, 526.6011
933.1650, 524.7254
933.6471, 523.0264
934.1292, 521.3326
934.6113, 520.2704
935.0934, 521.2599
935.5756, 524.2775
936.0577, 525.7631
936.5398, 525.0488
937.0219, 523.8949
937.5040, 524.2152
937.9861, 524.9708
938.4683, 524.6866
938.9504, 522.7006
939.4325, 522.0375
939.9146, 524.2064
940.3967, 526.4584
940.8788, 527.3657
941.3610, 527.0164
941.8431, 526.5138
942.3252, 525.8647
942.8073, 525.4105
943.2894, 525.3225
943.7715, 525.5676
944.2537, 526.4716
944.7358, 527.7438
945.2179, 528.3350
945.7000, 527.0936
946.1821, 526.4854
946.6642, 527.2103
947.1464, 528.5383
947.6285, 528.8516
948.1106, 528.2876
948.5927, 527.7863
949.0748, 527.4758
949.5569, 527.6440
950.0391, 529.4009
950.5212, 531.3544
951.0033, 531.7188
951.4854, 528.8160
951.9675, 527.6642
952.4496, 528.9240
952.9318, 530.8809
953.4139, 532.3699
953.8960, 533.4244
954.3781, 534.2107
954.8602, 534.7327
955.3423, 535.1208
955.8245, 535.4271
956.3066, 535.6564
956.7887, 535.6476
957.2708, 535.4972
957.7529, 535.9244
958.2350, 537.3187
958.7172, 538.4210
959.1993, 538.8831
959.6814, 538.8888
960.1635, 538.5128
960.6456, 537.9909
961.1277, 538.1879
961.6099, 539.9435
962.0920, 541.3425
962.5741, 540.7323
963.0562, 539.4952
963.5383, 539.2509
964.0204, 540.4471
964.5026, 541.4146
964.9847, 542.0612
965.4668, 542.7375
965.9489, 543.8009
966.4310, 545.1089
966.9131, 546.5278
967.3953, 548.0051
967.8774, 549.1840
968.3595, 549.3918
968.8416, 549.7448
969.3237, 551.0682
969.8058, 553.0151
970.2880, 553.6769
970.7701, 552.7928
971.2522, 552.9837
971.7343, 555.6292
972.2164, 558.9336
972.6985, 560.2130
973.1807, 560.2897
973.6628, 560.7590
974.1449, 562.5035
974.6270, 564.0360
975.1091, 565.1253
975.5912, 565.8674
976.0734, 566.1471
976.5555, 565.9414
977.0376, 566.6415
977.5197, 568.3522
978.0018, 570.1083
978.4839, 571.0309
978.9661, 571.6964
979.4482, 572.8548
979.9303, 574.4945
980.4124, 575.4699
980.8945, 575.0754
981.3766, 574.8995
981.8588, 575.4583
982.3409, 576.4971
982.8230, 577.3848
983.3051, 578.1190
983.7872, 578.7520
984.2693, 579.5232
984.7515, 579.7502
985.2336, 578.1660
985.7157, 576.0944
986.1978, 575.3804
986.6799, 577.0477
987.1620, 577.8719
987.6442, 577.7000
988.1263, 577.0923
988.6084, 576.5892
989.0905, 576.0319
989.5726, 574.7626
990.0547, 572.8683
990.5369, 571.5924
991.0190, 572.4421
991.5011, 573.1949
991.9832, 572.6138
992.4653, 571.0894
992.9474, 569.8713
993.4296, 568.9756
993.9117, 568.3505
994.3938, 567.9821
994.8759, 567.8828
995.3580, 568.2682
995.8401, 568.8698
996.3223, 569.2595
996.8044, 569.2454
997.2865, 569.1937
997.7686, 569.2402
998.2507, 569.1705
998.7328, 568.8409
999.2150, 568.2538
999.6971, 567.2400
1000.179, 565.8389
1000.661, 564.6903
1001.143, 564.7761
1001.626, 564.8331
1002.108, 563.5671
1002.590, 561.3145
1003.072, 559.8596
1003.554, 559.5917
1004.036, 559.4135
1004.518, 558.9965
1005.000, 558.7759
1005.482, 560.1761
1005.965, 562.3297
1006.447, 562.6175
1006.929, 559.8716
1007.411, 557.5262
1007.893, 557.7396
1008.375, 558.6056
1008.857, 558.7087
1009.339, 557.9921
1009.822, 557.0847
1010.304, 555.9349
1010.786, 555.1780
1011.268, 555.7621
1011.750, 556.6015
1012.232, 556.0502
1012.714, 554.5832
1013.196, 553.5824
1013.678, 554.1260
1014.161, 554.2412
1014.643, 553.4645
1015.125, 552.3615
1015.607, 551.6728
1016.089, 551.3849
1016.571, 551.5240
1017.053, 552.1425
1017.535, 552.6674
1018.018, 552.8937
1018.500, 552.6800
1018.982, 551.5566
1019.464, 549.4918
1019.946, 548.8621
1020.428, 550.1110
1020.910, 551.1680
1021.392, 550.9916
1021.874, 550.2547
1022.357, 550.1700
1022.839, 550.5690
1023.321, 551.0713
1023.803, 551.6904
1024.285, 552.1593
1024.767, 552.3558
1025.249, 552.4099
1025.731, 552.4620
1026.214, 552.5133
1026.696, 552.0342
1027.178, 550.9634
1027.660, 550.7309
1028.142, 553.5959
1028.624, 556.8829
1029.106, 557.9723
1029.588, 557.0694
1030.070, 556.9754
1030.553, 558.3977
1031.035, 559.3397
1031.517, 559.1380
1031.999, 558.5272
1032.481, 558.8043
1032.963, 559.7394
1033.445, 560.7358
1033.927, 561.6102
1034.410, 562.6795
1034.892, 564.3041
1035.374, 565.9573
1035.856, 567.0364
1036.338, 567.5023
1036.820, 569.7648
1037.302, 573.8311
1037.784, 577.5067
1038.266, 579.2346
1038.749, 580.0738
1039.231, 580.5916
1039.713, 581.0787
1040.195, 582.2282
1040.677, 584.4365
1041.159, 586.8629
1041.641, 589.5612
1042.123, 592.2646
1042.605, 594.5553
1043.088, 597.1176
1043.570, 599.0598
1044.052, 601.9473
1044.534, 604.4061
1045.016, 606.9172
1045.498, 607.8326
1045.980, 605.4661
1046.462, 600.8333
1046.945, 598.8799
1047.427, 599.7147
1047.909, 599.6672
1048.391, 597.3443
1048.873, 594.1469
1049.355, 591.1365
1049.837, 588.3430
1050.319, 585.7526
1050.802, 583.1699
1051.284, 581.4489
1051.766, 581.0422
1052.248, 580.5239
1052.730, 578.5124
1053.212, 575.6539
1053.694, 573.9505
1054.176, 573.2770
1054.658, 573.0336
1055.141, 573.5421
1055.623, 573.6932
1056.105, 572.8468
1056.587, 571.5411
1057.069, 570.5602
1057.551, 569.9150
1058.033, 569.0595
1058.515, 567.8746
1058.997, 566.9200
1059.480, 566.9499
1059.962, 567.2586
1060.444, 567.0690
1060.926, 566.3266
1061.408, 566.2126
1061.890, 567.0613
1062.372, 567.7529
1062.854, 567.9535
1063.337, 567.7191
1063.819, 567.0391
1064.301, 566.0235
1064.783, 564.8701
1065.265, 563.4667
1065.747, 562.3466
1066.229, 561.4490
1066.711, 561.1133
1067.193, 561.8957
1067.676, 563.6797
1068.158, 564.0505
1068.640, 563.1025
1069.122, 562.2621
1069.604, 562.4355
1070.086, 562.9678
1070.568, 563.9642
1071.050, 564.8630
1071.532, 564.3214
1072.015, 561.5676
1072.497, 560.1309
1072.979, 560.4947
1073.461, 561.5611
1073.943, 562.4953
1074.425, 563.2157
1074.907, 563.6115
1075.389, 563.6736
1075.872, 563.4733
1076.354, 562.9012
1076.836, 562.1719
1077.318, 561.0283
1077.800, 560.0866
1078.282, 561.1602
1078.764, 563.6814
1079.246, 565.6304
1079.729, 566.5355
1080.211, 566.6465
1080.693, 565.1691
1081.175, 563.7331
1081.657, 563.7883
1082.139, 565.3320
1082.621, 565.5148
1083.103, 564.3136
1083.585, 563.2481
1084.068, 562.9960
1084.550, 563.4146
1085.032, 565.3812
1085.514, 567.6558
1085.996, 567.7487
1086.478, 563.6824
1086.960, 561.3895
1087.442, 561.3482
1087.924, 562.1650
1088.406, 562.7693
1088.889, 563.2258
1089.371, 563.6551
1089.853, 564.0625
1090.335, 564.4286
1090.817, 564.5174
1091.299, 564.9227
1091.781, 566.0294
1092.263, 567.2620
1092.746, 567.4662
1093.228, 566.8254
1093.710, 566.1276
1094.192, 565.4789
1094.674, 565.0576
1095.156, 564.9009
1095.638, 565.0883
1096.120, 565.9109
1096.603, 567.1829
1097.085, 567.4132
1097.567, 566.5353
1098.049, 566.2543
1098.531, 567.4786
1099.013, 568.9328
1099.495, 569.3033
1099.977, 569.0950
1100.459, 568.9542
1100.942, 569.0244
1101.424, 568.9549
1101.906, 568.5961
1102.388, 568.6063
1102.870, 569.8219
1103.352, 571.4802
1103.834, 571.8848
1104.316, 571.4876
1104.798, 571.5419
1105.281, 573.4642
1105.763, 574.4310
1106.245, 573.7979
1106.727, 572.5586
1107.209, 571.9664
1107.691, 571.7419
1108.173, 570.4561
1108.655, 568.1250
1109.138, 566.2714
1109.620, 566.1688
1110.102, 566.2825
1110.584, 565.9104
1111.066, 565.2435
1111.548, 564.6790
1112.030, 564.2071
1112.512, 563.6241
1112.995, 562.8249
1113.477, 562.3189
1113.959, 562.9521
1114.441, 563.7551
1114.923, 563.9370
1115.405, 563.4493
1115.887, 562.3892
1116.369, 560.5126
1116.851, 559.5134
1117.333, 560.4230
1117.816, 561.5794
1118.298, 560.0172
1118.780, 557.5830
1119.262, 557.1783
1119.744, 560.5527
1120.226, 562.3906
1120.708, 562.1278
1121.190, 561.3005
1121.673, 560.7010
1122.155, 560.2455
1122.637, 559.6578
1123.119, 559.0248
1123.601, 558.5842
1124.083, 558.2366
1124.565, 558.4302
1125.047, 559.6615
1125.530, 560.8388
1126.012, 560.7985
1126.494, 559.7811
1126.976, 559.0282
1127.458, 558.5793
1127.940, 558.3972
1128.422, 558.2081
1128.904, 558.5848
1129.386, 560.4106
1129.869, 562.5820
1130.351, 563.3113
1130.833, 562.6183
1131.315, 561.6293
1131.797, 560.4199
1132.279, 559.7865
1132.761, 560.7376
1133.243, 562.1562
1133.725, 563.8019
1134.208, 565.2548
1134.690, 564.2942
1135.172, 560.3484
1135.654, 558.5901
1136.136, 560.7539
1136.618, 563.4760
1137.100, 562.4795
1137.582, 560.3659
1138.065, 560.3056
1138.547, 563.1343
1139.029, 563.9865
1139.511, 562.1756
1139.993, 560.5782
1140.475, 560.3847
1140.957, 560.9266
1141.439, 561.5228
1141.922, 561.9720
1142.404, 561.8551
1142.886, 560.6506
1143.368, 560.0231
1143.850, 560.1756
1144.332, 560.7263
1144.814, 561.8698
1145.296, 563.0119
1145.778, 562.0850
1146.260, 559.8279
1146.743, 558.3729
1147.225, 558.9737
1147.707, 560.0100
1148.189, 561.6396
1148.671, 563.0241
1149.153, 563.5006
1149.635, 563.1038
1150.117, 561.3010
1150.600, 558.4493
1151.082, 556.9684
1151.564, 559.5927
1152.046, 562.0058
1152.528, 562.6520
1153.010, 562.2800
1153.492, 561.6227
1153.974, 560.7400
1154.457, 560.4423
1154.939, 560.7930
1155.421, 560.8725
1155.903, 559.4999
1156.385, 558.2267
1156.867, 558.0859
1157.349, 558.6933
1157.831, 559.1501
1158.313, 559.4432
1158.796, 560.8627
1159.278, 563.8733
1159.760, 565.9332
1160.242, 563.6841
1160.724, 560.5772
1161.206, 559.4965
1161.688, 560.2729
1162.170, 560.7791
1162.652, 560.9864
1163.135, 561.2560
1163.617, 561.6727
1164.099, 562.2472
1164.581, 563.1136
1165.063, 564.0711
1165.545, 564.9913
1166.027, 565.8781
1166.509, 566.0822
1166.992, 565.4057
1167.474, 565.2170
1167.956, 566.4314
1168.438, 567.7418
1168.920, 567.0837
1169.402, 565.5896
1169.884, 564.9139
1170.366, 565.6954
1170.849, 566.2341
1171.331, 566.4335
1171.813, 566.7734
1172.295, 567.7780
1172.777, 568.8603
1173.259, 568.9747
1173.741, 568.4669
1174.223, 568.0106
1174.705, 567.7971
1175.188, 567.6903
1175.670, 567.8782
1176.152, 567.6670
1176.634, 565.8522
1177.116, 563.6030
1177.598, 563.5510
1178.080, 565.0389
1178.562, 566.0229
1179.044, 564.5703
1179.527, 564.7931
1180.009, 567.9633
1180.491, 570.8605
1180.973, 569.5217
1181.455, 565.9148
1181.937, 564.5420
1182.419, 565.2584
1182.901, 566.3930
1183.384, 568.0348
1183.866, 569.0218
1184.348, 569.0767
1184.830, 568.6302
1185.312, 567.8730
1185.794, 567.1177
1186.276, 567.5018
1186.758, 568.9589
1187.240, 569.8604
1187.723, 568.5566
1188.205, 567.8890
1188.687, 568.7377
1189.169, 570.2324
1189.651, 571.2847
1190.133, 571.7635
1190.615, 570.4788
1191.097, 567.2696
1191.579, 566.2496
1192.062, 572.6157
1192.544, 577.1965
1193.026, 576.4136
1193.508, 572.7067
1193.990, 571.0361
1194.472, 571.0300
1194.954, 571.5995
1195.436, 572.6533
1195.919, 573.2853
1196.401, 572.5096
1196.883, 571.9586
1197.365, 572.5961
1197.847, 571.7255
1198.329, 573.0405
1198.811, 571.0287
1199.293, 569.6473
1199.776, 569.4197
1200.258, 569.6066
1200.740, 570.1224
1201.222, 570.7036
1201.704, 571.2537
1202.186, 571.7379
1202.668, 571.9604
1203.150, 571.9786
1203.632, 572.0351
1204.115, 572.2141
1204.597, 572.4219
1205.079, 572.5947
1205.561, 572.8253
1206.043, 573.2620
1206.525, 573.7922
1207.007, 573.7129
1207.489, 573.1446
1207.971, 572.6208
1208.454, 572.3729
1208.936, 572.1559
1209.418, 571.5868
1209.900, 571.3005
1210.382, 571.8634
1210.864, 573.1057
1211.346, 573.8784
1211.828, 574.2343
1212.311, 574.4095
1212.793, 574.5739
1213.275, 574.4783
1213.757, 573.8061
1214.239, 573.0550
1214.721, 572.4206
1215.203, 571.9913
1215.685, 572.8882
1216.167, 574.7860
1216.650, 575.9641
1217.132, 574.4540
1217.614, 573.5845
1218.096, 575.2543
1218.578, 577.0651
1219.060, 576.3770
1219.542, 573.7822
1220.024, 573.7523
1220.506, 575.8718
1220.989, 577.3859
1221.471, 576.7222
1221.953, 575.4611
1222.435, 573.3021
1222.917, 571.6423
1223.399, 572.3990
1223.881, 574.9874
1224.363, 576.5873
1224.846, 577.1758
1225.328, 577.2112
1225.810, 576.6352
1226.292, 575.8654
1226.774, 574.8934
1227.256, 573.9462
1227.738, 573.2288
1228.220, 572.7649
1228.703, 572.6089
1229.185, 572.7656
1229.667, 573.2542
1230.149, 574.4856
1230.631, 575.5112
1231.113, 576.1729
1231.595, 576.4838
1232.077, 576.2754
1232.559, 575.7682
1233.042, 575.7165
1233.524, 576.0784
1234.006, 576.1081
1234.488, 575.0027
1234.970, 574.2277
1235.452, 574.1046
1235.934, 574.3395
1236.416, 574.7205
1236.898, 575.1107
1237.381, 575.1963
1237.863, 574.9681
1238.345, 574.5687
1238.827, 573.7839
1239.309, 573.3049
1239.791, 573.3884
1240.273, 573.5254
1240.755, 572.7644
1241.238, 571.6835
1241.720, 571.3635
1242.202, 571.8652
1242.684, 572.6910
1243.166, 574.4792
1243.648, 574.8271
1244.130, 572.7678
1244.612, 570.5007
1245.094, 571.2626
1245.577, 573.4942
1246.059, 575.0190
1246.541, 575.6514
1247.023, 575.6895
1247.505, 574.8369
1247.987, 574.4679
1248.469, 574.9211
1248.951, 575.7401
1249.433, 576.4481
1249.916, 577.1202
1250.398, 577.9060
1250.880, 578.7897
1251.362, 579.5038
1251.844, 580.1397
1252.326, 580.1055
1252.808, 579.1163
1253.290, 578.0946
1253.773, 578.0958
1254.255, 578.5168
1254.737, 578.9763
1255.219, 579.3403
1255.701, 578.8270
1256.183, 577.2650
1256.665, 576.3641
1257.147, 576.5712
1257.630, 577.2045
1258.112, 578.1582
1258.594, 578.8339
1259.076, 578.3133
1259.558, 578.8210
1260.040, 578.8926
1260.522, 578.3516
1261.004, 578.8180
1261.486, 577.8304
1261.969, 576.9876
1262.451, 577.6430
1262.933, 578.7421
1263.415, 579.8333
1263.897, 580.7211
1264.379, 580.3629
1264.861, 579.0324
1265.343, 579.0540
1265.825, 581.1425
1266.308, 582.7973
1266.790, 582.0607
1267.272, 581.0573
1267.754, 580.9158
1268.236, 581.2055
1268.718, 580.3709
1269.200, 578.9656
1269.682, 579.2826
1270.165, 581.9695
1270.647, 584.2249
1271.129, 584.7157
1271.611, 584.7143
1272.093, 584.5576
1272.575, 584.2426
1273.057, 583.3191
1273.539, 582.3430
1274.021, 582.8758
1274.504, 585.3621
1274.986, 586.9373
1275.468, 586.7868
1275.950, 586.3558
1276.432, 585.9753
1276.914, 585.7273
1277.396, 585.7346
1277.878, 585.9598
1278.360, 586.2969
1278.843, 586.7360
1279.325, 587.7933
1279.807, 589.9033
1280.289, 590.8758
1280.771, 589.7891
1281.253, 588.4123
1281.735, 589.1589
1282.217, 590.5712
1282.700, 591.0230
1283.182, 590.4395
1283.664, 589.8781
1284.146, 589.3100
1284.628, 589.0064
1285.110, 589.0027
1285.592, 589.3914
1286.074, 590.8945
1286.557, 592.2308
1287.039, 592.0242
1287.521, 590.8267
1288.003, 590.7776
1288.485, 591.7773
1288.967, 592.7388
1289.449, 593.4537
1289.931, 593.8587
1290.413, 593.9592
1290.896, 593.6349
1291.378, 592.6148
1291.860, 591.3914
1292.342, 591.1575
1292.824, 591.7853
1293.306, 593.1696
1293.788, 595.4023
1294.270, 596.4914
1294.752, 594.0172
1295.235, 592.5154
1295.717, 593.5416
1296.199, 595.5197
1296.681, 595.5535
1297.163, 594.6506
1297.645, 594.8748
1298.127, 596.4832
1298.609, 596.9532
1299.092, 595.2214
1299.574, 594.5687
1300.056, 595.9958
1300.538, 597.9710
1301.020, 599.4023
1301.502, 599.8465
1301.984, 597.8477
1302.466, 593.8782
1302.948, 593.2127
1303.431, 596.4435
1303.913, 598.9285
1304.395, 599.9863
1304.877, 599.2524
##END=



