##NAMES=Gmelinite-Na
##RRUFFID=R060168
##IDEAL CHEMISTRY=Na_4_(Si_8_Al_4_)O_24_&#183;11H_2_O
##LOCALITY=Five Islands, Nova Scotia, Canada
##OWNER=RRUFF
##SOURCE=Guy Ouellet
##DESCRIPTION=Salmon-red interpenetrating prismatic rhombohedral crystals
##STATUS=The identification of this mineral has been confirmed by X-ray diffraction and chemical analysis
##URL=rruff.info/R060168
##MEASURED CHEMISTRY=(Na_3.90_Ca_0.10_)(Si_7.90_Al_4.10_)O_24_Â·8.98H_2_O
8.975323e+001, 0.000000e+000
9.023535e+001, 1.840092e+002
9.071747e+001, 1.837446e+002
9.119958e+001, 1.829476e+002
9.168170e+001, 1.844411e+002
9.216382e+001, 1.850040e+002
9.264594e+001, 1.843763e+002
9.312805e+001, 1.832340e+002
9.361017e+001, 1.821226e+002
9.409229e+001, 1.808486e+002
9.457440e+001, 1.793127e+002
9.505651e+001, 1.777486e+002
9.553863e+001, 1.763952e+002
9.602074e+001, 1.750782e+002
9.650286e+001, 1.735841e+002
9.698498e+001, 1.717030e+002
9.746709e+001, 1.692825e+002
9.794921e+001, 1.673139e+002
9.843133e+001, 1.659641e+002
9.891344e+001, 1.647634e+002
9.939556e+001, 1.636692e+002
9.987768e+001, 1.626037e+002
1.003598e+002, 1.613669e+002
1.008419e+002, 1.597055e+002
1.013240e+002, 1.578007e+002
1.018061e+002, 1.563659e+002
1.022883e+002, 1.555456e+002
1.027704e+002, 1.550545e+002
1.032525e+002, 1.547137e+002
1.037346e+002, 1.545526e+002
1.042167e+002, 1.543376e+002
1.046988e+002, 1.538997e+002
1.051810e+002, 1.532702e+002
1.056631e+002, 1.524575e+002
1.061452e+002, 1.513748e+002
1.066273e+002, 1.500900e+002
1.071094e+002, 1.488595e+002
1.075915e+002, 1.475113e+002
1.080737e+002, 1.464541e+002
1.085558e+002, 1.460080e+002
1.090379e+002, 1.459865e+002
1.095200e+002, 1.459454e+002
1.100021e+002, 1.453956e+002
1.104842e+002, 1.441425e+002
1.109664e+002, 1.434260e+002
1.114485e+002, 1.435920e+002
1.119306e+002, 1.439573e+002
1.124127e+002, 1.442136e+002
1.128948e+002, 1.443166e+002
1.133769e+002, 1.444278e+002
1.138591e+002, 1.448092e+002
1.143412e+002, 1.459411e+002
1.148233e+002, 1.464224e+002
1.153054e+002, 1.457828e+002
1.157875e+002, 1.447410e+002
1.162696e+002, 1.439431e+002
1.167517e+002, 1.436114e+002
1.172339e+002, 1.436545e+002
1.177160e+002, 1.439320e+002
1.181981e+002, 1.445249e+002
1.186802e+002, 1.451130e+002
1.191623e+002, 1.455895e+002
1.196444e+002, 1.459851e+002
1.201266e+002, 1.463767e+002
1.206087e+002, 1.467487e+002
1.210908e+002, 1.471838e+002
1.215729e+002, 1.478457e+002
1.220550e+002, 1.489025e+002
1.225371e+002, 1.498963e+002
1.230193e+002, 1.502697e+002
1.235014e+002, 1.499249e+002
1.239835e+002, 1.497974e+002
1.244656e+002, 1.505834e+002
1.249477e+002, 1.517337e+002
1.254298e+002, 1.528126e+002
1.259120e+002, 1.536790e+002
1.263941e+002, 1.543712e+002
1.268762e+002, 1.549447e+002
1.273583e+002, 1.553219e+002
1.278404e+002, 1.557108e+002
1.283225e+002, 1.562248e+002
1.288047e+002, 1.567809e+002
1.292868e+002, 1.572831e+002
1.297689e+002, 1.576893e+002
1.302510e+002, 1.579914e+002
1.307331e+002, 1.580577e+002
1.312152e+002, 1.576217e+002
1.316974e+002, 1.571921e+002
1.321795e+002, 1.569890e+002
1.326616e+002, 1.569115e+002
1.331437e+002, 1.567076e+002
1.336258e+002, 1.561549e+002
1.341079e+002, 1.552065e+002
1.345901e+002, 1.541253e+002
1.350722e+002, 1.528572e+002
1.355543e+002, 1.515281e+002
1.360364e+002, 1.502448e+002
1.365185e+002, 1.490063e+002
1.370006e+002, 1.476967e+002
1.374828e+002, 1.461885e+002
1.379649e+002, 1.444295e+002
1.384470e+002, 1.426602e+002
1.389291e+002, 1.409403e+002
1.394112e+002, 1.391938e+002
1.398933e+002, 1.372172e+002
1.403755e+002, 1.348888e+002
1.408576e+002, 1.326710e+002
1.413397e+002, 1.313359e+002
1.418218e+002, 1.307978e+002
1.423039e+002, 1.302299e+002
1.427860e+002, 1.293024e+002
1.432681e+002, 1.280764e+002
1.437503e+002, 1.267470e+002
1.442324e+002, 1.252570e+002
1.447145e+002, 1.237912e+002
1.451966e+002, 1.224861e+002
1.456787e+002, 1.213466e+002
1.461608e+002, 1.203124e+002
1.466430e+002, 1.193964e+002
1.471251e+002, 1.186227e+002
1.476072e+002, 1.177128e+002
1.480893e+002, 1.163215e+002
1.485714e+002, 1.149520e+002
1.490535e+002, 1.139213e+002
1.495357e+002, 1.132904e+002
1.500178e+002, 1.128268e+002
1.504999e+002, 1.121804e+002
1.509820e+002, 1.112056e+002
1.514641e+002, 1.103552e+002
1.519462e+002, 1.097334e+002
1.524284e+002, 1.091902e+002
1.529105e+002, 1.086283e+002
1.533926e+002, 1.080107e+002
1.538747e+002, 1.073246e+002
1.543568e+002, 1.065376e+002
1.548389e+002, 1.055500e+002
1.553211e+002, 1.045727e+002
1.558032e+002, 1.035698e+002
1.562853e+002, 1.025943e+002
1.567674e+002, 1.017245e+002
1.572495e+002, 1.010022e+002
1.577316e+002, 1.003946e+002
1.582138e+002, 9.976706e+001
1.586959e+002, 9.921369e+001
1.591780e+002, 9.854217e+001
1.596601e+002, 9.761327e+001
1.601422e+002, 9.652379e+001
1.606243e+002, 9.548717e+001
1.611065e+002, 9.462502e+001
1.615886e+002, 9.392332e+001
1.620707e+002, 9.328832e+001
1.625528e+002, 9.280643e+001
1.630349e+002, 9.230729e+001
1.635170e+002, 9.165441e+001
1.639991e+002, 9.086533e+001
1.644813e+002, 9.013709e+001
1.649634e+002, 8.968271e+001
1.654455e+002, 8.934885e+001
1.659276e+002, 8.878508e+001
1.664097e+002, 8.785119e+001
1.668918e+002, 8.675066e+001
1.673740e+002, 8.566517e+001
1.678561e+002, 8.457294e+001
1.683382e+002, 8.360841e+001
1.688203e+002, 8.289925e+001
1.693024e+002, 8.235656e+001
1.697845e+002, 8.190128e+001
1.702667e+002, 8.154796e+001
1.707488e+002, 8.124138e+001
1.712309e+002, 8.086272e+001
1.717130e+002, 8.042178e+001
1.721951e+002, 7.987660e+001
1.726772e+002, 7.911240e+001
1.731594e+002, 7.826768e+001
1.736415e+002, 7.753852e+001
1.741236e+002, 7.705508e+001
1.746057e+002, 7.678175e+001
1.750878e+002, 7.651575e+001
1.755699e+002, 7.633939e+001
1.760521e+002, 7.606846e+001
1.765342e+002, 7.562971e+001
1.770163e+002, 7.506673e+001
1.774984e+002, 7.443506e+001
1.779805e+002, 7.373681e+001
1.784626e+002, 7.296809e+001
1.789448e+002, 7.255751e+001
1.794269e+002, 7.299589e+001
1.799090e+002, 7.330828e+001
1.803911e+002, 7.311320e+001
1.808732e+002, 7.252562e+001
1.813553e+002, 7.190847e+001
1.818375e+002, 7.158653e+001
1.823196e+002, 7.161348e+001
1.828017e+002, 7.139116e+001
1.832838e+002, 7.068810e+001
1.837659e+002, 6.999824e+001
1.842480e+002, 6.957342e+001
1.847301e+002, 6.940759e+001
1.852123e+002, 6.934355e+001
1.856944e+002, 6.925134e+001
1.861765e+002, 6.912737e+001
1.866586e+002, 6.896964e+001
1.871407e+002, 6.871855e+001
1.876228e+002, 6.847787e+001
1.881050e+002, 6.833337e+001
1.885871e+002, 6.829276e+001
1.890692e+002, 6.829032e+001
1.895513e+002, 6.827544e+001
1.900334e+002, 6.824689e+001
1.905155e+002, 6.819249e+001
1.909977e+002, 6.809245e+001
1.914798e+002, 6.797491e+001
1.919619e+002, 6.787993e+001
1.924440e+002, 6.781893e+001
1.929261e+002, 6.774390e+001
1.934082e+002, 6.758292e+001
1.938904e+002, 6.736306e+001
1.943725e+002, 6.716662e+001
1.948546e+002, 6.694494e+001
1.953367e+002, 6.677444e+001
1.958188e+002, 6.686977e+001
1.963009e+002, 6.739565e+001
1.967831e+002, 6.785845e+001
1.972652e+002, 6.781477e+001
1.977473e+002, 6.741923e+001
1.982294e+002, 6.705157e+001
1.987115e+002, 6.693101e+001
1.991936e+002, 6.700404e+001
1.996758e+002, 6.705463e+001
2.001579e+002, 6.712399e+001
2.006400e+002, 6.709318e+001
2.011221e+002, 6.688567e+001
2.016042e+002, 6.654119e+001
2.020863e+002, 6.615657e+001
2.025685e+002, 6.575375e+001
2.030506e+002, 6.534081e+001
2.035327e+002, 6.508286e+001
2.040148e+002, 6.510046e+001
2.044969e+002, 6.516483e+001
2.049790e+002, 6.525316e+001
2.054612e+002, 6.532376e+001
2.059433e+002, 6.530182e+001
2.064254e+002, 6.512043e+001
2.069075e+002, 6.477451e+001
2.073896e+002, 6.436572e+001
2.078717e+002, 6.378205e+001
2.083539e+002, 6.323457e+001
2.088360e+002, 6.288016e+001
2.093181e+002, 6.263822e+001
2.098002e+002, 6.228090e+001
2.102823e+002, 6.156190e+001
2.107644e+002, 6.040985e+001
2.112466e+002, 5.958034e+001
2.117287e+002, 5.922051e+001
2.122108e+002, 5.900993e+001
2.126929e+002, 5.893500e+001
2.131750e+002, 5.892204e+001
2.136571e+002, 5.881682e+001
2.141393e+002, 5.846243e+001
2.146214e+002, 5.780797e+001
2.151035e+002, 5.725402e+001
2.155856e+002, 5.684726e+001
2.160677e+002, 5.647343e+001
2.165498e+002, 5.606294e+001
2.170320e+002, 5.562494e+001
2.175141e+002, 5.521557e+001
2.179962e+002, 5.488853e+001
2.184783e+002, 5.465400e+001
2.189604e+002, 5.445048e+001
2.194425e+002, 5.429212e+001
2.199247e+002, 5.414791e+001
2.204068e+002, 5.402744e+001
2.208889e+002, 5.391840e+001
2.213710e+002, 5.374840e+001
2.218531e+002, 5.342225e+001
2.223352e+002, 5.293226e+001
2.228174e+002, 5.261716e+001
2.232995e+002, 5.267635e+001
2.237816e+002, 5.276237e+001
2.242637e+002, 5.260304e+001
2.247458e+002, 5.218910e+001
2.252279e+002, 5.169969e+001
2.257100e+002, 5.125990e+001
2.261922e+002, 5.086889e+001
2.266743e+002, 5.048407e+001
2.271564e+002, 5.009262e+001
2.276385e+002, 4.971379e+001
2.281206e+002, 4.933787e+001
2.286027e+002, 4.896162e+001
2.290849e+002, 4.869637e+001
2.295670e+002, 4.873886e+001
2.300491e+002, 4.895860e+001
2.305312e+002, 4.898871e+001
2.310133e+002, 4.853566e+001
2.314954e+002, 4.799607e+001
2.319776e+002, 4.788816e+001
2.324597e+002, 4.827706e+001
2.329418e+002, 4.864000e+001
2.334239e+002, 4.857184e+001
2.339060e+002, 4.827329e+001
2.343881e+002, 4.804020e+001
2.348703e+002, 4.798260e+001
2.353524e+002, 4.799113e+001
2.358345e+002, 4.789087e+001
2.363166e+002, 4.763963e+001
2.367987e+002, 4.745359e+001
2.372808e+002, 4.749462e+001
2.377630e+002, 4.764734e+001
2.382451e+002, 4.781407e+001
2.387272e+002, 4.800599e+001
2.392093e+002, 4.813911e+001
2.396914e+002, 4.805041e+001
2.401735e+002, 4.767437e+001
2.406557e+002, 4.728264e+001
2.411378e+002, 4.689644e+001
2.416199e+002, 4.658062e+001
2.421020e+002, 4.640638e+001
2.425841e+002, 4.639999e+001
2.430662e+002, 4.654151e+001
2.435484e+002, 4.684599e+001
2.440305e+002, 4.741988e+001
2.445126e+002, 4.786007e+001
2.449947e+002, 4.806573e+001
2.454768e+002, 4.809992e+001
2.459589e+002, 4.796905e+001
2.464410e+002, 4.766703e+001
2.469232e+002, 4.729496e+001
2.474053e+002, 4.702739e+001
2.478874e+002, 4.691158e+001
2.483695e+002, 4.679219e+001
2.488516e+002, 4.662934e+001
2.493337e+002, 4.645984e+001
2.498159e+002, 4.632766e+001
2.502980e+002, 4.624323e+001
2.507801e+002, 4.615478e+001
2.512622e+002, 4.594282e+001
2.517443e+002, 4.546747e+001
2.522264e+002, 4.519937e+001
2.527086e+002, 4.545575e+001
2.531907e+002, 4.572342e+001
2.536728e+002, 4.554090e+001
2.541549e+002, 4.483031e+001
2.546370e+002, 4.398078e+001
2.551191e+002, 4.361776e+001
2.556013e+002, 4.405832e+001
2.560834e+002, 4.431527e+001
2.565655e+002, 4.432123e+001
2.570476e+002, 4.421095e+001
2.575297e+002, 4.401542e+001
2.580118e+002, 4.376823e+001
2.584940e+002, 4.355524e+001
2.589761e+002, 4.350581e+001
2.594582e+002, 4.371525e+001
2.599403e+002, 4.385063e+001
2.604224e+002, 4.391107e+001
2.609045e+002, 4.391740e+001
2.613867e+002, 4.388659e+001
2.618688e+002, 4.381792e+001
2.623509e+002, 4.369214e+001
2.628330e+002, 4.347619e+001
2.633151e+002, 4.312667e+001
2.637972e+002, 4.284664e+001
2.642794e+002, 4.260443e+001
2.647615e+002, 4.244181e+001
2.652436e+002, 4.245524e+001
2.657257e+002, 4.260120e+001
2.662078e+002, 4.270071e+001
2.666899e+002, 4.256213e+001
2.671721e+002, 4.212859e+001
2.676542e+002, 4.182344e+001
2.681363e+002, 4.168659e+001
2.686184e+002, 4.161175e+001
2.691005e+002, 4.159394e+001
2.695826e+002, 4.160341e+001
2.700648e+002, 4.155846e+001
2.705469e+002, 4.137229e+001
2.710290e+002, 4.103545e+001
2.715111e+002, 4.088804e+001
2.719932e+002, 4.103336e+001
2.724753e+002, 4.122186e+001
2.729575e+002, 4.141956e+001
2.734396e+002, 4.158267e+001
2.739217e+002, 4.159673e+001
2.744038e+002, 4.135047e+001
2.748859e+002, 4.088268e+001
2.753680e+002, 4.069144e+001
2.758501e+002, 4.093584e+001
2.763322e+002, 4.121056e+001
2.768144e+002, 4.141126e+001
2.772965e+002, 4.154076e+001
2.777786e+002, 4.160997e+001
2.782607e+002, 4.161676e+001
2.787428e+002, 4.157979e+001
2.792249e+002, 4.158060e+001
2.797071e+002, 4.166819e+001
2.801892e+002, 4.172865e+001
2.806713e+002, 4.169193e+001
2.811534e+002, 4.161385e+001
2.816355e+002, 4.159027e+001
2.821176e+002, 4.166135e+001
2.825998e+002, 4.181277e+001
2.830819e+002, 4.201557e+001
2.835640e+002, 4.228511e+001
2.840461e+002, 4.256781e+001
2.845282e+002, 4.288300e+001
2.850103e+002, 4.319752e+001
2.854925e+002, 4.347053e+001
2.859746e+002, 4.369180e+001
2.864567e+002, 4.384932e+001
2.869388e+002, 4.389242e+001
2.874209e+002, 4.375362e+001
2.879030e+002, 4.373583e+001
2.883852e+002, 4.391687e+001
2.888673e+002, 4.423196e+001
2.893494e+002, 4.464738e+001
2.898315e+002, 4.516161e+001
2.903136e+002, 4.564930e+001
2.907957e+002, 4.591544e+001
2.912779e+002, 4.591034e+001
2.917600e+002, 4.608033e+001
2.922421e+002, 4.663411e+001
2.927242e+002, 4.728911e+001
2.932063e+002, 4.776861e+001
2.936884e+002, 4.803940e+001
2.941706e+002, 4.823171e+001
2.946527e+002, 4.846613e+001
2.951348e+002, 4.873993e+001
2.956169e+002, 4.893979e+001
2.960990e+002, 4.906255e+001
2.965811e+002, 4.910948e+001
2.970633e+002, 4.908433e+001
2.975454e+002, 4.898641e+001
2.980275e+002, 4.879240e+001
2.985096e+002, 4.843332e+001
2.989917e+002, 4.795950e+001
2.994738e+002, 4.766860e+001
2.999560e+002, 4.762874e+001
3.004381e+002, 4.770573e+001
3.009202e+002, 4.786488e+001
3.014023e+002, 4.808910e+001
3.018844e+002, 4.832269e+001
3.023665e+002, 4.857402e+001
3.028487e+002, 4.878236e+001
3.033308e+002, 4.876937e+001
3.038129e+002, 4.833877e+001
3.042950e+002, 4.802236e+001
3.047771e+002, 4.810817e+001
3.052592e+002, 4.849226e+001
3.057414e+002, 4.892072e+001
3.062235e+002, 4.931461e+001
3.067056e+002, 4.967842e+001
3.071877e+002, 5.000779e+001
3.076698e+002, 5.029025e+001
3.081519e+002, 5.059315e+001
3.086341e+002, 5.089854e+001
3.091162e+002, 5.124573e+001
3.095983e+002, 5.170874e+001
3.100804e+002, 5.231179e+001
3.105625e+002, 5.300240e+001
3.110446e+002, 5.373690e+001
3.115268e+002, 5.452212e+001
3.120089e+002, 5.525507e+001
3.124910e+002, 5.590205e+001
3.129731e+002, 5.649159e+001
3.134552e+002, 5.704616e+001
3.139373e+002, 5.756536e+001
3.144195e+002, 5.809484e+001
3.149016e+002, 5.869523e+001
3.153837e+002, 5.936026e+001
3.158658e+002, 5.997108e+001
3.163479e+002, 6.056600e+001
3.168300e+002, 6.106911e+001
3.173121e+002, 6.130667e+001
3.177943e+002, 6.130964e+001
3.182764e+002, 6.148350e+001
3.187585e+002, 6.220150e+001
3.192406e+002, 6.330486e+001
3.197227e+002, 6.402093e+001
3.202048e+002, 6.413078e+001
3.206870e+002, 6.409115e+001
3.211691e+002, 6.417134e+001
3.216512e+002, 6.431610e+001
3.221333e+002, 6.432337e+001
3.226154e+002, 6.408540e+001
3.230975e+002, 6.366601e+001
3.235797e+002, 6.324165e+001
3.240618e+002, 6.284982e+001
3.245439e+002, 6.237878e+001
3.250260e+002, 6.171916e+001
3.255081e+002, 6.096252e+001
3.259902e+002, 6.027253e+001
3.264724e+002, 5.969972e+001
3.269545e+002, 5.920831e+001
3.274366e+002, 5.877642e+001
3.279187e+002, 5.843441e+001
3.284008e+002, 5.798256e+001
3.288829e+002, 5.735590e+001
3.293651e+002, 5.661419e+001
3.298472e+002, 5.577688e+001
3.303293e+002, 5.484709e+001
3.308114e+002, 5.396731e+001
3.312935e+002, 5.329987e+001
3.317756e+002, 5.286663e+001
3.322578e+002, 5.236634e+001
3.327399e+002, 5.167627e+001
3.332220e+002, 5.100566e+001
3.337041e+002, 5.049866e+001
3.341862e+002, 5.015944e+001
3.346683e+002, 4.995641e+001
3.351505e+002, 4.996326e+001
3.356326e+002, 5.008144e+001
3.361147e+002, 4.967878e+001
3.365968e+002, 4.823125e+001
3.370789e+002, 4.687309e+001
3.375610e+002, 4.614772e+001
3.380432e+002, 4.587506e+001
3.385253e+002, 4.563045e+001
3.390074e+002, 4.522007e+001
3.394895e+002, 4.471323e+001
3.399716e+002, 4.429634e+001
3.404537e+002, 4.397249e+001
3.409359e+002, 4.371458e+001
3.414180e+002, 4.360398e+001
3.419001e+002, 4.352564e+001
3.423822e+002, 4.331092e+001
3.428643e+002, 4.291241e+001
3.433464e+002, 4.244384e+001
3.438286e+002, 4.205336e+001
3.443107e+002, 4.174904e+001
3.447928e+002, 4.153346e+001
3.452749e+002, 4.143227e+001
3.457570e+002, 4.140415e+001
3.462391e+002, 4.152142e+001
3.467213e+002, 4.173661e+001
3.472034e+002, 4.176399e+001
3.476855e+002, 4.127864e+001
3.481676e+002, 4.023632e+001
3.486497e+002, 3.971592e+001
3.491318e+002, 4.007415e+001
3.496140e+002, 4.049929e+001
3.500961e+002, 4.065882e+001
3.505782e+002, 4.061177e+001
3.510603e+002, 4.054849e+001
3.515424e+002, 4.058118e+001
3.520245e+002, 4.067839e+001
3.525067e+002, 4.070361e+001
3.529888e+002, 4.065274e+001
3.534709e+002, 4.053579e+001
3.539530e+002, 4.027449e+001
3.544351e+002, 3.997849e+001
3.549172e+002, 3.977711e+001
3.553994e+002, 3.971510e+001
3.558815e+002, 3.973957e+001
3.563636e+002, 3.976838e+001
3.568457e+002, 3.984800e+001
3.573278e+002, 3.982529e+001
3.578099e+002, 3.965368e+001
3.582920e+002, 3.942487e+001
3.587741e+002, 3.912658e+001
3.592563e+002, 3.880365e+001
3.597384e+002, 3.861740e+001
3.602205e+002, 3.875904e+001
3.607026e+002, 3.928623e+001
3.611847e+002, 3.957872e+001
3.616668e+002, 3.952726e+001
3.621490e+002, 3.937279e+001
3.626311e+002, 3.906505e+001
3.631132e+002, 3.872178e+001
3.635953e+002, 3.858368e+001
3.640774e+002, 3.882179e+001
3.645595e+002, 3.929851e+001
3.650417e+002, 3.940892e+001
3.655238e+002, 3.870241e+001
3.660059e+002, 3.824381e+001
3.664880e+002, 3.833130e+001
3.669701e+002, 3.862408e+001
3.674522e+002, 3.877964e+001
3.679344e+002, 3.869118e+001
3.684165e+002, 3.850949e+001
3.688986e+002, 3.848008e+001
3.693807e+002, 3.868499e+001
3.698628e+002, 3.881907e+001
3.703449e+002, 3.886987e+001
3.708271e+002, 3.885582e+001
3.713092e+002, 3.871757e+001
3.717913e+002, 3.850123e+001
3.722734e+002, 3.835940e+001
3.727555e+002, 3.844929e+001
3.732376e+002, 3.876255e+001
3.737198e+002, 3.903072e+001
3.742019e+002, 3.924646e+001
3.746840e+002, 3.942057e+001
3.751661e+002, 3.956774e+001
3.756482e+002, 3.967749e+001
3.761303e+002, 3.970749e+001
3.766125e+002, 3.960814e+001
3.770946e+002, 3.948788e+001
3.775767e+002, 3.961289e+001
3.780588e+002, 4.007304e+001
3.785409e+002, 4.052516e+001
3.790230e+002, 4.093188e+001
3.795052e+002, 4.126011e+001
3.799873e+002, 4.145412e+001
3.804694e+002, 4.150467e+001
3.809515e+002, 4.151062e+001
3.814336e+002, 4.154359e+001
3.819157e+002, 4.160442e+001
3.823979e+002, 4.175637e+001
3.828800e+002, 4.207680e+001
3.833621e+002, 4.241033e+001
3.838442e+002, 4.263422e+001
3.843263e+002, 4.277640e+001
3.848084e+002, 4.294744e+001
3.852906e+002, 4.321308e+001
3.857727e+002, 4.354537e+001
3.862548e+002, 4.390698e+001
3.867369e+002, 4.432387e+001
3.872190e+002, 4.467157e+001
3.877011e+002, 4.483400e+001
3.881833e+002, 4.489332e+001
3.886654e+002, 4.493466e+001
3.891475e+002, 4.489872e+001
3.896296e+002, 4.498585e+001
3.901117e+002, 4.547924e+001
3.905938e+002, 4.631950e+001
3.910760e+002, 4.702601e+001
3.915581e+002, 4.743714e+001
3.920402e+002, 4.764715e+001
3.925223e+002, 4.773429e+001
3.930044e+002, 4.767580e+001
3.934865e+002, 4.776253e+001
3.939687e+002, 4.811837e+001
3.944508e+002, 4.868655e+001
3.949329e+002, 4.941622e+001
3.954150e+002, 5.031976e+001
3.958971e+002, 5.124232e+001
3.963792e+002, 5.203718e+001
3.968614e+002, 5.271991e+001
3.973435e+002, 5.348854e+001
3.978256e+002, 5.446248e+001
3.983077e+002, 5.543539e+001
3.987898e+002, 5.613680e+001
3.992719e+002, 5.668968e+001
3.997540e+002, 5.756206e+001
4.002361e+002, 5.902525e+001
4.007183e+002, 6.089682e+001
4.012004e+002, 6.265227e+001
4.016825e+002, 6.433713e+001
4.021646e+002, 6.585593e+001
4.026467e+002, 6.699712e+001
4.031288e+002, 6.805379e+001
4.036110e+002, 6.938068e+001
4.040931e+002, 7.104577e+001
4.045752e+002, 7.285243e+001
4.050573e+002, 7.458509e+001
4.055394e+002, 7.623009e+001
4.060215e+002, 7.779868e+001
4.065037e+002, 7.953283e+001
4.069858e+002, 8.097156e+001
4.074679e+002, 8.170015e+001
4.079500e+002, 8.194057e+001
4.084321e+002, 8.228259e+001
4.089142e+002, 8.312327e+001
4.093964e+002, 8.430000e+001
4.098785e+002, 8.507764e+001
4.103606e+002, 8.524788e+001
4.108427e+002, 8.524308e+001
4.113248e+002, 8.515202e+001
4.118069e+002, 8.487899e+001
4.122891e+002, 8.429411e+001
4.127712e+002, 8.337986e+001
4.132533e+002, 8.227578e+001
4.137354e+002, 8.115880e+001
4.142175e+002, 8.003114e+001
4.146996e+002, 7.885938e+001
4.151818e+002, 7.765193e+001
4.156639e+002, 7.639577e+001
4.161460e+002, 7.510135e+001
4.166281e+002, 7.374873e+001
4.171102e+002, 7.231316e+001
4.175923e+002, 7.075314e+001
4.180745e+002, 6.910996e+001
4.185566e+002, 6.751279e+001
4.190387e+002, 6.603289e+001
4.195208e+002, 6.445574e+001
4.200029e+002, 6.251294e+001
4.204850e+002, 6.056634e+001
4.209672e+002, 5.899795e+001
4.214493e+002, 5.790677e+001
4.219314e+002, 5.699315e+001
4.224135e+002, 5.595011e+001
4.228956e+002, 5.479034e+001
4.233777e+002, 5.373404e+001
4.238599e+002, 5.281797e+001
4.243420e+002, 5.201693e+001
4.248241e+002, 5.134144e+001
4.253062e+002, 5.075918e+001
4.257883e+002, 5.014664e+001
4.262704e+002, 4.941133e+001
4.267526e+002, 4.863351e+001
4.272347e+002, 4.793187e+001
4.277168e+002, 4.730415e+001
4.281989e+002, 4.672481e+001
4.286810e+002, 4.615950e+001
4.291631e+002, 4.565564e+001
4.296453e+002, 4.530508e+001
4.301274e+002, 4.517676e+001
4.306095e+002, 4.504485e+001
4.310916e+002, 4.478854e+001
4.315737e+002, 4.445220e+001
4.320558e+002, 4.410750e+001
4.325380e+002, 4.376760e+001
4.330201e+002, 4.346568e+001
4.335022e+002, 4.325726e+001
4.339843e+002, 4.316015e+001
4.344664e+002, 4.301008e+001
4.349485e+002, 4.273199e+001
4.354307e+002, 4.245811e+001
4.359128e+002, 4.223391e+001
4.363949e+002, 4.208394e+001
4.368770e+002, 4.207830e+001
4.373591e+002, 4.227271e+001
4.378412e+002, 4.261153e+001
4.383234e+002, 4.288000e+001
4.388055e+002, 4.310620e+001
4.392876e+002, 4.322284e+001
4.397697e+002, 4.313536e+001
4.402518e+002, 4.298700e+001
4.407339e+002, 4.290029e+001
4.412160e+002, 4.290538e+001
4.416982e+002, 4.297604e+001
4.421803e+002, 4.309440e+001
4.426624e+002, 4.327608e+001
4.431445e+002, 4.339392e+001
4.436266e+002, 4.338586e+001
4.441087e+002, 4.337730e+001
4.445909e+002, 4.336843e+001
4.450730e+002, 4.339209e+001
4.455551e+002, 4.348829e+001
4.460372e+002, 4.367494e+001
4.465193e+002, 4.395766e+001
4.470014e+002, 4.440886e+001
4.474836e+002, 4.517488e+001
4.479657e+002, 4.566882e+001
4.484478e+002, 4.552970e+001
4.489299e+002, 4.526945e+001
4.494120e+002, 4.516384e+001
4.498941e+002, 4.524506e+001
4.503763e+002, 4.544785e+001
4.508584e+002, 4.573121e+001
4.513405e+002, 4.609654e+001
4.518226e+002, 4.656408e+001
4.523047e+002, 4.717503e+001
4.527868e+002, 4.777977e+001
4.532690e+002, 4.827039e+001
4.537511e+002, 4.870321e+001
4.542332e+002, 4.916438e+001
4.547153e+002, 4.970275e+001
4.551974e+002, 5.020812e+001
4.556795e+002, 5.052772e+001
4.561617e+002, 5.071819e+001
4.566438e+002, 5.105023e+001
4.571259e+002, 5.163440e+001
4.576080e+002, 5.231444e+001
4.580901e+002, 5.288715e+001
4.585722e+002, 5.335392e+001
4.590544e+002, 5.384092e+001
4.595365e+002, 5.435850e+001
4.600186e+002, 5.491246e+001
4.605007e+002, 5.550336e+001
4.609828e+002, 5.613392e+001
4.614649e+002, 5.682042e+001
4.619471e+002, 5.758781e+001
4.624292e+002, 5.840949e+001
4.629113e+002, 5.919286e+001
4.633934e+002, 5.992381e+001
4.638755e+002, 6.063836e+001
4.643576e+002, 6.131285e+001
4.648398e+002, 6.199428e+001
4.653219e+002, 6.271545e+001
4.658040e+002, 6.349165e+001
4.662861e+002, 6.433588e+001
4.667682e+002, 6.526843e+001
4.672503e+002, 6.630721e+001
4.677325e+002, 6.733015e+001
4.682146e+002, 6.842217e+001
4.686967e+002, 6.940472e+001
4.691788e+002, 7.010744e+001
4.696609e+002, 7.069983e+001
4.701430e+002, 7.142603e+001
4.706252e+002, 7.239573e+001
4.711073e+002, 7.351159e+001
4.715894e+002, 7.458017e+001
4.720715e+002, 7.554876e+001
4.725536e+002, 7.670028e+001
4.730357e+002, 7.834441e+001
4.735179e+002, 7.994808e+001
4.740000e+002, 8.104597e+001
4.744821e+002, 8.177499e+001
4.749642e+002, 8.276577e+001
4.754463e+002, 8.448891e+001
4.759284e+002, 8.668359e+001
4.764106e+002, 8.886185e+001
4.768927e+002, 9.103502e+001
4.773748e+002, 9.305693e+001
4.778569e+002, 9.474680e+001
4.783390e+002, 9.630238e+001
4.788211e+002, 9.802035e+001
4.793033e+002, 9.992823e+001
4.797854e+002, 1.019263e+002
4.802675e+002, 1.038926e+002
4.807496e+002, 1.059331e+002
4.812317e+002, 1.083414e+002
4.817138e+002, 1.111860e+002
4.821959e+002, 1.139965e+002
4.826780e+002, 1.162876e+002
4.831602e+002, 1.180747e+002
4.836423e+002, 1.203208e+002
4.841244e+002, 1.233267e+002
4.846065e+002, 1.264259e+002
4.850886e+002, 1.294327e+002
4.855707e+002, 1.323458e+002
4.860529e+002, 1.352038e+002
4.865350e+002, 1.380292e+002
4.870171e+002, 1.407208e+002
4.874992e+002, 1.430555e+002
4.879813e+002, 1.448178e+002
4.884634e+002, 1.468659e+002
4.889456e+002, 1.495590e+002
4.894277e+002, 1.521429e+002
4.899098e+002, 1.541289e+002
4.903919e+002, 1.557044e+002
4.908740e+002, 1.573679e+002
4.913561e+002, 1.594429e+002
4.918383e+002, 1.617141e+002
4.923204e+002, 1.636408e+002
4.928025e+002, 1.652878e+002
4.932846e+002, 1.663976e+002
4.937667e+002, 1.663971e+002
4.942488e+002, 1.662021e+002
4.947310e+002, 1.665535e+002
4.952131e+002, 1.674161e+002
4.956952e+002, 1.680081e+002
4.961773e+002, 1.677525e+002
4.966594e+002, 1.668170e+002
4.971415e+002, 1.655985e+002
4.976237e+002, 1.640634e+002
4.981058e+002, 1.624389e+002
4.985879e+002, 1.608946e+002
4.990700e+002, 1.592928e+002
4.995521e+002, 1.574259e+002
5.000342e+002, 1.553164e+002
5.005164e+002, 1.528471e+002
5.009985e+002, 1.496614e+002
5.014806e+002, 1.461403e+002
5.019627e+002, 1.430107e+002
5.024448e+002, 1.404348e+002
5.029269e+002, 1.378281e+002
5.034091e+002, 1.346223e+002
5.038912e+002, 1.307665e+002
5.043733e+002, 1.270189e+002
5.048554e+002, 1.233387e+002
5.053375e+002, 1.197997e+002
5.058196e+002, 1.165256e+002
5.063018e+002, 1.133759e+002
5.067839e+002, 1.101662e+002
5.072660e+002, 1.068287e+002
5.077481e+002, 1.034253e+002
5.082302e+002, 1.000647e+002
5.087123e+002, 9.673755e+001
5.091945e+002, 9.347506e+001
5.096766e+002, 9.021336e+001
5.101587e+002, 8.708939e+001
5.106408e+002, 8.420287e+001
5.111229e+002, 8.147698e+001
5.116050e+002, 7.874660e+001
5.120872e+002, 7.590176e+001
5.125693e+002, 7.308974e+001
5.130514e+002, 7.058826e+001
5.135335e+002, 6.841659e+001
5.140156e+002, 6.633489e+001
5.144977e+002, 6.427462e+001
5.149799e+002, 6.230176e+001
5.154620e+002, 6.050887e+001
5.159441e+002, 5.886974e+001
5.164262e+002, 5.721478e+001
5.169083e+002, 5.537871e+001
5.173904e+002, 5.353368e+001
5.178726e+002, 5.190041e+001
5.183547e+002, 5.047388e+001
5.188368e+002, 4.913836e+001
5.193189e+002, 4.784330e+001
5.198010e+002, 4.660006e+001
5.202831e+002, 4.547059e+001
5.207653e+002, 4.446768e+001
5.212474e+002, 4.349697e+001
5.217295e+002, 4.248766e+001
5.222116e+002, 4.154660e+001
5.226937e+002, 4.084574e+001
5.231758e+002, 4.034184e+001
5.236580e+002, 3.976442e+001
5.241401e+002, 3.889682e+001
5.246222e+002, 3.783410e+001
5.251043e+002, 3.705618e+001
5.255864e+002, 3.680994e+001
5.260685e+002, 3.651809e+001
5.265507e+002, 3.616389e+001
5.270328e+002, 3.572254e+001
5.275149e+002, 3.510805e+001
5.279970e+002, 3.435493e+001
5.284791e+002, 3.366729e+001
5.289612e+002, 3.328960e+001
5.294434e+002, 3.314485e+001
5.299255e+002, 3.271027e+001
5.304076e+002, 3.182231e+001
5.308897e+002, 3.102814e+001
5.313718e+002, 3.066935e+001
5.318539e+002, 3.047573e+001
5.323361e+002, 3.015738e+001
5.328182e+002, 2.965171e+001
5.333003e+002, 2.916809e+001
5.337824e+002, 2.885619e+001
5.342645e+002, 2.866009e+001
5.347466e+002, 2.846823e+001
5.352288e+002, 2.826841e+001
5.357109e+002, 2.804920e+001
5.361930e+002, 2.780444e+001
5.366751e+002, 2.753205e+001
5.371572e+002, 2.723367e+001
5.376393e+002, 2.679391e+001
5.381215e+002, 2.646914e+001
5.386036e+002, 2.641334e+001
5.390857e+002, 2.647357e+001
5.395678e+002, 2.646711e+001
5.400499e+002, 2.635362e+001
5.405320e+002, 2.619394e+001
5.410142e+002, 2.605700e+001
5.414963e+002, 2.594571e+001
5.419784e+002, 2.575135e+001
5.424604e+002, 2.533491e+001
5.429426e+002, 2.500283e+001
5.434247e+002, 2.488867e+001
5.439068e+002, 2.485598e+001
5.443889e+002, 2.474022e+001
5.448710e+002, 2.450038e+001
5.453531e+002, 2.424287e+001
5.458353e+002, 2.409905e+001
5.463174e+002, 2.405670e+001
5.467995e+002, 2.395571e+001
5.472816e+002, 2.371957e+001
5.477637e+002, 2.356938e+001
5.482458e+002, 2.381545e+001
5.487280e+002, 2.420270e+001
5.492101e+002, 2.428486e+001
5.496922e+002, 2.385816e+001
5.501743e+002, 2.339715e+001
5.506564e+002, 2.320057e+001
5.511385e+002, 2.318277e+001
5.516207e+002, 2.318530e+001
5.521028e+002, 2.317681e+001
5.525849e+002, 2.313012e+001
5.530670e+002, 2.300323e+001
5.535491e+002, 2.279554e+001
5.540313e+002, 2.268324e+001
5.545134e+002, 2.274100e+001
5.549955e+002, 2.278968e+001
5.554776e+002, 2.277915e+001
5.559597e+002, 2.273292e+001
5.564418e+002, 2.267087e+001
5.569240e+002, 2.260303e+001
5.574061e+002, 2.255373e+001
5.578882e+002, 2.257607e+001
5.583703e+002, 2.267798e+001
5.588524e+002, 2.261267e+001
5.593345e+002, 2.219501e+001
5.598167e+002, 2.187799e+001
5.602988e+002, 2.192875e+001
5.607809e+002, 2.210062e+001
5.612630e+002, 2.206788e+001
5.617451e+002, 2.173321e+001
5.622272e+002, 2.136520e+001
5.627094e+002, 2.119080e+001
5.631915e+002, 2.117151e+001
5.636736e+002, 2.119919e+001
5.641557e+002, 2.127657e+001
5.646378e+002, 2.132141e+001
5.651199e+002, 2.126020e+001
5.656021e+002, 2.111599e+001
5.660842e+002, 2.100275e+001
5.665663e+002, 2.092669e+001
5.670484e+002, 2.087250e+001
5.675305e+002, 2.086634e+001
5.680126e+002, 2.086456e+001
5.684948e+002, 2.083685e+001
5.689769e+002, 2.076646e+001
5.694590e+002, 2.058772e+001
5.699411e+002, 2.021321e+001
5.704232e+002, 1.966108e+001
5.709053e+002, 1.930654e+001
5.713875e+002, 1.926818e+001
5.718696e+002, 1.927895e+001
5.723517e+002, 1.929490e+001
5.728338e+002, 1.934026e+001
5.733159e+002, 1.947884e+001
5.737980e+002, 1.970057e+001
5.742802e+002, 1.986769e+001
5.747623e+002, 1.983836e+001
5.752444e+002, 1.965219e+001
5.757265e+002, 1.945387e+001
5.762086e+002, 1.922494e+001
5.766907e+002, 1.906443e+001
5.771729e+002, 1.905427e+001
5.776550e+002, 1.912463e+001
5.781371e+002, 1.916382e+001
5.786192e+002, 1.916865e+001
5.791013e+002, 1.914853e+001
5.795834e+002, 1.908996e+001
5.800656e+002, 1.901837e+001
5.805477e+002, 1.892416e+001
5.810298e+002, 1.882908e+001
5.815119e+002, 1.886683e+001
5.819940e+002, 1.915572e+001
5.824761e+002, 1.957470e+001
5.829583e+002, 1.970621e+001
5.834404e+002, 1.925333e+001
5.839225e+002, 1.895796e+001
5.844046e+002, 1.889077e+001
5.848867e+002, 1.892483e+001
5.853688e+002, 1.897483e+001
5.858510e+002, 1.904849e+001
5.863331e+002, 1.922475e+001
5.868152e+002, 1.959677e+001
5.872973e+002, 2.001912e+001
5.877794e+002, 2.010253e+001
5.882615e+002, 1.978274e+001
5.887437e+002, 1.957448e+001
5.892258e+002, 1.970081e+001
5.897079e+002, 1.986771e+001
5.901900e+002, 1.974414e+001
5.906721e+002, 1.938633e+001
5.911542e+002, 1.916430e+001
5.916364e+002, 1.930956e+001
5.921185e+002, 1.953429e+001
5.926006e+002, 1.957917e+001
5.930827e+002, 1.949972e+001
5.935648e+002, 1.948046e+001
5.940469e+002, 1.959189e+001
5.945291e+002, 1.974367e+001
5.950112e+002, 1.980573e+001
5.954933e+002, 1.974852e+001
5.959754e+002, 1.973689e+001
5.964575e+002, 1.977037e+001
5.969396e+002, 1.984256e+001
5.974218e+002, 2.000372e+001
5.979039e+002, 2.018346e+001
5.983860e+002, 2.025653e+001
5.988681e+002, 2.018590e+001
5.993502e+002, 2.011695e+001
5.998323e+002, 2.026101e+001
6.003145e+002, 2.060812e+001
6.007966e+002, 2.087176e+001
6.012787e+002, 2.104575e+001
6.017608e+002, 2.112142e+001
6.022429e+002, 2.102624e+001
6.027250e+002, 2.084725e+001
6.032072e+002, 2.070120e+001
6.036893e+002, 2.057886e+001
6.041714e+002, 2.055575e+001
6.046535e+002, 2.077279e+001
6.051356e+002, 2.106707e+001
6.056177e+002, 2.117543e+001
6.060999e+002, 2.108157e+001
6.065820e+002, 2.097164e+001
6.070641e+002, 2.098310e+001
6.075462e+002, 2.108180e+001
6.080283e+002, 2.111151e+001
6.085104e+002, 2.097939e+001
6.089926e+002, 2.091090e+001
6.094747e+002, 2.098645e+001
6.099568e+002, 2.106791e+001
6.104389e+002, 2.106313e+001
6.109210e+002, 2.097345e+001
6.114031e+002, 2.083319e+001
6.118853e+002, 2.063540e+001
6.123674e+002, 2.044770e+001
6.128495e+002, 2.046336e+001
6.133316e+002, 2.071134e+001
6.138137e+002, 2.080388e+001
6.142958e+002, 2.055908e+001
6.147780e+002, 2.024391e+001
6.152601e+002, 2.015720e+001
6.157422e+002, 2.025499e+001
6.162243e+002, 2.027243e+001
6.167064e+002, 2.006215e+001
6.171885e+002, 1.984857e+001
6.176707e+002, 1.977097e+001
6.181528e+002, 1.979518e+001
6.186349e+002, 1.984357e+001
6.191170e+002, 1.989359e+001
6.195991e+002, 1.999306e+001
6.200812e+002, 2.022859e+001
6.205634e+002, 2.062635e+001
6.210455e+002, 2.076971e+001
6.215276e+002, 2.040842e+001
6.220097e+002, 2.009114e+001
6.224918e+002, 2.001961e+001
6.229739e+002, 1.999678e+001
6.234561e+002, 1.975967e+001
6.239382e+002, 1.928229e+001
6.244203e+002, 1.887411e+001
6.249023e+002, 1.887346e+001
6.253845e+002, 1.912248e+001
6.258666e+002, 1.916630e+001
6.263487e+002, 1.897453e+001
6.268308e+002, 1.885544e+001
6.273129e+002, 1.902620e+001
6.277950e+002, 1.927756e+001
6.282772e+002, 1.914795e+001
6.287593e+002, 1.853394e+001
6.292414e+002, 1.810967e+001
6.297235e+002, 1.810466e+001
6.302056e+002, 1.820172e+001
6.306877e+002, 1.820472e+001
6.311699e+002, 1.812680e+001
6.316520e+002, 1.804042e+001
6.321341e+002, 1.797909e+001
6.326162e+002, 1.793164e+001
6.330983e+002, 1.787728e+001
6.335804e+002, 1.781066e+001
6.340626e+002, 1.776426e+001
6.345447e+002, 1.774940e+001
6.350268e+002, 1.774170e+001
6.355089e+002, 1.777833e+001
6.359910e+002, 1.779932e+001
6.364731e+002, 1.767517e+001
6.369553e+002, 1.732780e+001
6.374374e+002, 1.705506e+001
6.379195e+002, 1.712032e+001
6.384016e+002, 1.739125e+001
6.388837e+002, 1.767005e+001
6.393658e+002, 1.792483e+001
6.398480e+002, 1.803861e+001
6.403301e+002, 1.790323e+001
6.408122e+002, 1.760681e+001
6.412943e+002, 1.744388e+001
6.417764e+002, 1.751461e+001
6.422585e+002, 1.757951e+001
6.427407e+002, 1.766709e+001
6.432228e+002, 1.772351e+001
6.437049e+002, 1.770303e+001
6.441870e+002, 1.762291e+001
6.446691e+002, 1.751989e+001
6.451512e+002, 1.740442e+001
6.456334e+002, 1.731864e+001
6.461155e+002, 1.736643e+001
6.465976e+002, 1.754609e+001
6.470797e+002, 1.761180e+001
6.475618e+002, 1.744352e+001
6.480439e+002, 1.733743e+001
6.485261e+002, 1.764981e+001
6.490082e+002, 1.820784e+001
6.494903e+002, 1.844986e+001
6.499724e+002, 1.811709e+001
6.504545e+002, 1.779975e+001
6.509366e+002, 1.776780e+001
6.514188e+002, 1.785473e+001
6.519009e+002, 1.787693e+001
6.523830e+002, 1.780811e+001
6.528651e+002, 1.769222e+001
6.533472e+002, 1.755416e+001
6.538293e+002, 1.741080e+001
6.543115e+002, 1.733420e+001
6.547936e+002, 1.737217e+001
6.552757e+002, 1.736082e+001
6.557578e+002, 1.720029e+001
6.562399e+002, 1.705157e+001
6.567220e+002, 1.703920e+001
6.572042e+002, 1.711554e+001
6.576863e+002, 1.712480e+001
6.581684e+002, 1.698172e+001
6.586505e+002, 1.679314e+001
6.591326e+002, 1.665081e+001
6.596147e+002, 1.654408e+001
6.600969e+002, 1.645194e+001
6.605790e+002, 1.637143e+001
6.610611e+002, 1.625525e+001
6.615432e+002, 1.603006e+001
6.620253e+002, 1.572374e+001
6.625074e+002, 1.563994e+001
6.629896e+002, 1.606471e+001
6.634717e+002, 1.633455e+001
6.639538e+002, 1.634111e+001
6.644359e+002, 1.621301e+001
6.649180e+002, 1.598898e+001
6.654001e+002, 1.571986e+001
6.658823e+002, 1.552342e+001
6.663644e+002, 1.549599e+001
6.668465e+002, 1.554066e+001
6.673286e+002, 1.547275e+001
6.678107e+002, 1.529580e+001
6.682928e+002, 1.512428e+001
6.687750e+002, 1.496706e+001
6.692571e+002, 1.486314e+001
6.697392e+002, 1.487107e+001
6.702213e+002, 1.497996e+001
6.707034e+002, 1.505901e+001
6.711855e+002, 1.512860e+001
6.716677e+002, 1.514046e+001
6.721498e+002, 1.506428e+001
6.726319e+002, 1.493100e+001
6.731140e+002, 1.474456e+001
6.735961e+002, 1.452665e+001
6.740782e+002, 1.434681e+001
6.745604e+002, 1.426346e+001
6.750425e+002, 1.424670e+001
6.755246e+002, 1.419555e+001
6.760067e+002, 1.409900e+001
6.764888e+002, 1.401549e+001
6.769709e+002, 1.394031e+001
6.774531e+002, 1.390085e+001
6.779352e+002, 1.391782e+001
6.784173e+002, 1.398534e+001
6.788994e+002, 1.408878e+001
6.793815e+002, 1.431109e+001
6.798636e+002, 1.445806e+001
6.803458e+002, 1.435471e+001
6.808279e+002, 1.412561e+001
6.813100e+002, 1.396370e+001
6.817921e+002, 1.390168e+001
6.822742e+002, 1.386470e+001
6.827563e+002, 1.379205e+001
6.832385e+002, 1.369326e+001
6.837206e+002, 1.360317e+001
6.842027e+002, 1.346405e+001
6.846848e+002, 1.346025e+001
6.851669e+002, 1.384507e+001
6.856490e+002, 1.416957e+001
6.861312e+002, 1.400580e+001
6.866133e+002, 1.355538e+001
6.870954e+002, 1.348066e+001
6.875775e+002, 1.429941e+001
6.880596e+002, 1.508993e+001
6.885417e+002, 1.484722e+001
6.890239e+002, 1.398122e+001
6.895060e+002, 1.344661e+001
6.899881e+002, 1.341230e+001
6.904702e+002, 1.354903e+001
6.909523e+002, 1.361552e+001
6.914344e+002, 1.362404e+001
6.919166e+002, 1.363954e+001
6.923987e+002, 1.371385e+001
6.928808e+002, 1.370893e+001
6.933629e+002, 1.354768e+001
6.938450e+002, 1.337579e+001
6.943271e+002, 1.327431e+001
6.948093e+002, 1.323557e+001
6.952914e+002, 1.322635e+001
6.957735e+002, 1.324179e+001
6.962556e+002, 1.325088e+001
6.967377e+002, 1.319223e+001
6.972198e+002, 1.309636e+001
6.977020e+002, 1.307847e+001
6.981841e+002, 1.315908e+001
6.986662e+002, 1.327749e+001
6.991483e+002, 1.341360e+001
6.996304e+002, 1.354118e+001
7.001125e+002, 1.355689e+001
7.005947e+002, 1.337093e+001
7.010768e+002, 1.320812e+001
7.015589e+002, 1.306317e+001
7.020410e+002, 1.294964e+001
7.025231e+002, 1.283694e+001
7.030052e+002, 1.276864e+001
7.034874e+002, 1.286523e+001
7.039695e+002, 1.319568e+001
7.044516e+002, 1.354005e+001
7.049337e+002, 1.360311e+001
7.054158e+002, 1.343578e+001
7.058979e+002, 1.326644e+001
7.063801e+002, 1.310678e+001
7.068622e+002, 1.301760e+001
7.073442e+002, 1.305807e+001
7.078264e+002, 1.317501e+001
7.083085e+002, 1.323418e+001
7.087906e+002, 1.322132e+001
7.092727e+002, 1.319066e+001
7.097548e+002, 1.309610e+001
7.102369e+002, 1.303266e+001
7.107191e+002, 1.309445e+001
7.112012e+002, 1.321725e+001
7.116833e+002, 1.326521e+001
7.121654e+002, 1.319206e+001
7.126475e+002, 1.312220e+001
7.131296e+002, 1.325325e+001
7.136118e+002, 1.352861e+001
7.140939e+002, 1.362192e+001
7.145760e+002, 1.350368e+001
7.150581e+002, 1.331653e+001
7.155402e+002, 1.305458e+001
7.160223e+002, 1.283251e+001
7.165045e+002, 1.290202e+001
7.169866e+002, 1.333644e+001
7.174687e+002, 1.359005e+001
7.179508e+002, 1.350134e+001
7.184329e+002, 1.334525e+001
7.189150e+002, 1.322838e+001
7.193972e+002, 1.314314e+001
7.198793e+002, 1.304155e+001
7.203614e+002, 1.292352e+001
7.208435e+002, 1.288361e+001
7.213256e+002, 1.306961e+001
7.218077e+002, 1.339684e+001
7.222899e+002, 1.350071e+001
7.227720e+002, 1.335091e+001
7.232541e+002, 1.323645e+001
7.237362e+002, 1.326375e+001
7.242183e+002, 1.333978e+001
7.247004e+002, 1.334977e+001
7.251826e+002, 1.329587e+001
7.256647e+002, 1.328560e+001
7.261468e+002, 1.339719e+001
7.266289e+002, 1.346649e+001
7.271110e+002, 1.337852e+001
7.275931e+002, 1.325023e+001
7.280753e+002, 1.323296e+001
7.285574e+002, 1.332755e+001
7.290395e+002, 1.341677e+001
7.295216e+002, 1.342590e+001
7.300037e+002, 1.335402e+001
7.304858e+002, 1.315395e+001
7.309680e+002, 1.281787e+001
7.314501e+002, 1.260315e+001
7.319322e+002, 1.258496e+001
7.324143e+002, 1.263879e+001
7.328964e+002, 1.268112e+001
7.333785e+002, 1.271199e+001
7.338607e+002, 1.273388e+001
7.343428e+002, 1.271967e+001
7.348249e+002, 1.273793e+001
7.353070e+002, 1.285238e+001
7.357891e+002, 1.296462e+001
7.362712e+002, 1.298203e+001
7.367534e+002, 1.292510e+001
7.372355e+002, 1.285966e+001
7.377176e+002, 1.281349e+001
7.381997e+002, 1.281626e+001
7.386818e+002, 1.297169e+001
7.391639e+002, 1.324863e+001
7.396461e+002, 1.330997e+001
7.401282e+002, 1.307827e+001
7.406103e+002, 1.286434e+001
7.410924e+002, 1.284783e+001
7.415745e+002, 1.295440e+001
7.420566e+002, 1.302752e+001
7.425388e+002, 1.306811e+001
7.430209e+002, 1.307764e+001
7.435030e+002, 1.304887e+001
7.439851e+002, 1.299669e+001
7.444672e+002, 1.291860e+001
7.449493e+002, 1.282626e+001
7.454315e+002, 1.270879e+001
7.459136e+002, 1.257431e+001
7.463957e+002, 1.251268e+001
7.468778e+002, 1.268400e+001
7.473599e+002, 1.298384e+001
7.478420e+002, 1.305945e+001
7.483242e+002, 1.290474e+001
7.488063e+002, 1.277139e+001
7.492884e+002, 1.273282e+001
7.497705e+002, 1.277553e+001
7.502526e+002, 1.291666e+001
7.507347e+002, 1.316699e+001
7.512169e+002, 1.327765e+001
7.516990e+002, 1.310560e+001
7.521811e+002, 1.299169e+001
7.526632e+002, 1.307910e+001
7.531453e+002, 1.320627e+001
7.536274e+002, 1.318983e+001
7.541096e+002, 1.305941e+001
7.545917e+002, 1.300215e+001
7.550738e+002, 1.312845e+001
7.555559e+002, 1.336844e+001
7.560380e+002, 1.371131e+001
7.565201e+002, 1.409825e+001
7.570023e+002, 1.421309e+001
7.574844e+002, 1.398812e+001
7.579665e+002, 1.376068e+001
7.584486e+002, 1.376778e+001
7.589307e+002, 1.395331e+001
7.594128e+002, 1.413069e+001
7.598950e+002, 1.431059e+001
7.603771e+002, 1.446279e+001
7.608592e+002, 1.460524e+001
7.613413e+002, 1.470268e+001
7.618234e+002, 1.474921e+001
7.623055e+002, 1.473581e+001
7.627877e+002, 1.460795e+001
7.632698e+002, 1.434266e+001
7.637519e+002, 1.416275e+001
7.642340e+002, 1.431359e+001
7.647161e+002, 1.461212e+001
7.651982e+002, 1.476389e+001
7.656804e+002, 1.478297e+001
7.661625e+002, 1.481889e+001
7.666446e+002, 1.493112e+001
7.671267e+002, 1.506313e+001
7.676088e+002, 1.515183e+001
7.680909e+002, 1.520059e+001
7.685731e+002, 1.512025e+001
7.690552e+002, 1.480522e+001
7.695373e+002, 1.453251e+001
7.700194e+002, 1.432990e+001
7.705015e+002, 1.421492e+001
7.709836e+002, 1.427833e+001
7.714658e+002, 1.446701e+001
7.719479e+002, 1.452533e+001
7.724300e+002, 1.426914e+001
7.729121e+002, 1.398514e+001
7.733942e+002, 1.388517e+001
7.738763e+002, 1.388143e+001
7.743585e+002, 1.383586e+001
7.748406e+002, 1.373555e+001
7.753227e+002, 1.365103e+001
7.758048e+002, 1.363175e+001
7.762869e+002, 1.364190e+001
7.767690e+002, 1.357027e+001
7.772512e+002, 1.338242e+001
7.777333e+002, 1.336567e+001
7.782154e+002, 1.366670e+001
7.786975e+002, 1.390246e+001
7.791796e+002, 1.382170e+001
7.796617e+002, 1.356218e+001
7.801439e+002, 1.334271e+001
7.806260e+002, 1.316572e+001
7.811081e+002, 1.303909e+001
7.815902e+002, 1.299440e+001
7.820723e+002, 1.297067e+001
7.825544e+002, 1.292775e+001
7.830366e+002, 1.287858e+001
7.835187e+002, 1.286594e+001
7.840008e+002, 1.289133e+001
7.844829e+002, 1.287675e+001
7.849650e+002, 1.270696e+001
7.854471e+002, 1.246914e+001
7.859293e+002, 1.245883e+001
7.864114e+002, 1.267984e+001
7.868935e+002, 1.288415e+001
7.873756e+002, 1.303782e+001
7.878577e+002, 1.306833e+001
7.883398e+002, 1.285277e+001
7.888220e+002, 1.243675e+001
7.893040e+002, 1.221579e+001
7.897861e+002, 1.231043e+001
7.902682e+002, 1.241620e+001
7.907504e+002, 1.254868e+001
7.912325e+002, 1.265103e+001
7.917146e+002, 1.266748e+001
7.921967e+002, 1.262936e+001
7.926788e+002, 1.261398e+001
7.931609e+002, 1.265442e+001
7.936431e+002, 1.267243e+001
7.941252e+002, 1.260078e+001
7.946073e+002, 1.245940e+001
7.950894e+002, 1.222815e+001
7.955715e+002, 1.193865e+001
7.960536e+002, 1.180985e+001
7.965358e+002, 1.194033e+001
7.970179e+002, 1.217537e+001
7.975000e+002, 1.230387e+001
7.979821e+002, 1.232146e+001
7.984642e+002, 1.235688e+001
7.989464e+002, 1.246712e+001
7.994285e+002, 1.249212e+001
7.999106e+002, 1.230087e+001
8.003927e+002, 1.208178e+001
8.008748e+002, 1.200678e+001
8.013569e+002, 1.203960e+001
8.018391e+002, 1.198102e+001
8.023212e+002, 1.166565e+001
8.028033e+002, 1.141464e+001
8.032854e+002, 1.146128e+001
8.037675e+002, 1.162315e+001
8.042496e+002, 1.171871e+001
8.047318e+002, 1.171936e+001
8.052139e+002, 1.162089e+001
8.056960e+002, 1.141546e+001
8.061781e+002, 1.118685e+001
8.066602e+002, 1.108107e+001
8.071423e+002, 1.108785e+001
8.076245e+002, 1.106073e+001
8.081066e+002, 1.098082e+001
8.085887e+002, 1.094223e+001
8.090708e+002, 1.102204e+001
8.095529e+002, 1.111527e+001
8.100350e+002, 1.104033e+001
8.105172e+002, 1.075200e+001
8.109993e+002, 1.059842e+001
8.114814e+002, 1.069969e+001
8.119635e+002, 1.078119e+001
8.124456e+002, 1.076556e+001
8.129277e+002, 1.069921e+001
8.134099e+002, 1.060051e+001
8.138920e+002, 1.049185e+001
8.143741e+002, 1.043360e+001
8.148562e+002, 1.047676e+001
8.153383e+002, 1.053702e+001
8.158204e+002, 1.052279e+001
8.163026e+002, 1.046021e+001
8.167847e+002, 1.040977e+001
8.172668e+002, 1.037603e+001
8.177489e+002, 1.033114e+001
8.182310e+002, 1.026174e+001
8.187131e+002, 1.015603e+001
8.191953e+002, 9.968876e+000
8.196774e+002, 9.665923e+000
8.201595e+002, 9.500894e+000
8.206416e+002, 9.509083e+000
8.211237e+002, 9.588401e+000
8.216058e+002, 9.763503e+000
8.220880e+002, 9.947639e+000
8.225701e+002, 1.004388e+001
8.230522e+002, 1.005330e+001
8.235343e+002, 1.003694e+001
8.240164e+002, 1.001306e+001
8.244985e+002, 9.958090e+000
8.249807e+002, 9.806569e+000
8.254628e+002, 9.654236e+000
8.259449e+002, 9.621770e+000
8.264270e+002, 9.698232e+000
8.269091e+002, 9.796948e+000
8.273912e+002, 9.880923e+000
8.278734e+002, 9.912454e+000
8.283555e+002, 9.796311e+000
8.288376e+002, 9.577534e+000
8.293197e+002, 9.446484e+000
8.298018e+002, 9.420575e+000
8.302839e+002, 9.441663e+000
8.307661e+002, 9.491610e+000
8.312482e+002, 9.543679e+000
8.317303e+002, 9.554538e+000
8.322124e+002, 9.521401e+000
8.326945e+002, 9.466290e+000
8.331766e+002, 9.357822e+000
8.336588e+002, 9.273583e+000
8.341409e+002, 9.238372e+000
8.346230e+002, 9.226895e+000
8.351051e+002, 9.228055e+000
8.355872e+002, 9.235935e+000
8.360693e+002, 9.228700e+000
8.365515e+002, 9.174337e+000
8.370336e+002, 9.144160e+000
8.375157e+002, 9.178556e+000
8.379978e+002, 9.256971e+000
8.384799e+002, 9.401415e+000
8.389620e+002, 9.568731e+000
8.394442e+002, 9.631224e+000
8.399263e+002, 9.528234e+000
8.404084e+002, 9.357163e+000
8.408905e+002, 9.231883e+000
8.413726e+002, 9.152766e+000
8.418547e+002, 9.134254e+000
8.423369e+002, 9.179956e+000
8.428190e+002, 9.239469e+000
8.433011e+002, 9.310498e+000
8.437832e+002, 9.338542e+000
8.442653e+002, 9.232001e+000
8.447474e+002, 8.997129e+000
8.452296e+002, 8.919213e+000
8.457117e+002, 9.157075e+000
8.461938e+002, 9.320459e+000
8.466759e+002, 9.356344e+000
8.471580e+002, 9.328568e+000
8.476401e+002, 9.218472e+000
8.481223e+002, 9.086557e+000
8.486044e+002, 9.083001e+000
8.490865e+002, 9.291899e+000
8.495686e+002, 9.422577e+000
8.500507e+002, 9.183999e+000
8.505328e+002, 8.898407e+000
8.510150e+002, 8.947927e+000
8.514971e+002, 9.212487e+000
8.519792e+002, 9.376508e+000
8.524613e+002, 9.343868e+000
8.529434e+002, 9.226574e+000
8.534255e+002, 9.114840e+000
8.539077e+002, 9.019450e+000
8.543898e+002, 9.005887e+000
8.548719e+002, 9.074056e+000
8.553540e+002, 9.019390e+000
8.558361e+002, 8.767196e+000
8.563182e+002, 8.538904e+000
8.568004e+002, 8.509216e+000
8.572825e+002, 8.623064e+000
8.577646e+002, 8.708787e+000
8.582467e+002, 8.792065e+000
8.587288e+002, 8.788888e+000
8.592109e+002, 8.590656e+000
8.596931e+002, 8.435249e+000
8.601752e+002, 8.416063e+000
8.606573e+002, 8.479336e+000
8.611394e+002, 8.586323e+000
8.616215e+002, 8.724380e+000
8.621036e+002, 8.802273e+000
8.625858e+002, 8.689910e+000
8.630679e+002, 8.607017e+000
8.635500e+002, 8.792588e+000
8.640321e+002, 9.053805e+000
8.645142e+002, 9.100269e+000
8.649963e+002, 8.930511e+000
8.654785e+002, 8.725156e+000
8.659606e+002, 8.584283e+000
8.664427e+002, 8.497700e+000
8.669248e+002, 8.455368e+000
8.674069e+002, 8.455273e+000
8.678890e+002, 8.499293e+000
8.683712e+002, 8.589231e+000
8.688533e+002, 8.661408e+000
8.693354e+002, 8.688643e+000
8.698175e+002, 8.692004e+000
8.702996e+002, 8.706006e+000
8.707817e+002, 8.731441e+000
8.712639e+002, 8.671462e+000
8.717459e+002, 8.403504e+000
8.722280e+002, 8.266184e+000
8.727101e+002, 8.440660e+000
8.731923e+002, 8.645788e+000
8.736744e+002, 8.768127e+000
8.741565e+002, 8.784683e+000
8.746386e+002, 8.609328e+000
8.751207e+002, 8.097989e+000
8.756028e+002, 7.799813e+000
8.760850e+002, 8.123673e+000
8.765671e+002, 8.520941e+000
8.770492e+002, 8.606902e+000
8.775313e+002, 8.469707e+000
8.780134e+002, 8.234269e+000
8.784955e+002, 7.970719e+000
8.789777e+002, 7.855337e+000
8.794598e+002, 8.107820e+000
8.799419e+002, 8.490442e+000
8.804240e+002, 8.597400e+000
8.809061e+002, 8.495650e+000
8.813882e+002, 8.426143e+000
8.818704e+002, 8.427052e+000
8.823525e+002, 8.430689e+000
8.828346e+002, 8.392275e+000
8.833167e+002, 8.339760e+000
8.837988e+002, 8.323490e+000
8.842809e+002, 8.337911e+000
8.847631e+002, 8.450245e+000
8.852452e+002, 8.743106e+000
8.857273e+002, 8.924091e+000
8.862094e+002, 8.830124e+000
8.866915e+002, 8.644932e+000
8.871736e+002, 8.566422e+000
8.876558e+002, 8.588884e+000
8.881379e+002, 8.615192e+000
8.886200e+002, 8.690750e+000
8.891021e+002, 8.702221e+000
8.895842e+002, 8.558494e+000
8.900663e+002, 8.412051e+000
8.905485e+002, 8.386914e+000
8.910306e+002, 8.433674e+000
8.915127e+002, 8.437931e+000
8.919948e+002, 8.366467e+000
8.924769e+002, 8.297216e+000
8.929590e+002, 8.274848e+000
8.934412e+002, 8.283698e+000
8.939233e+002, 8.332097e+000
8.944054e+002, 8.391920e+000
8.948875e+002, 8.375893e+000
8.953696e+002, 8.287208e+000
8.958517e+002, 8.276587e+000
8.963339e+002, 8.478743e+000
8.968160e+002, 8.747741e+000
8.972981e+002, 8.757020e+000
8.977802e+002, 8.536774e+000
8.982623e+002, 8.378008e+000
8.987444e+002, 8.304728e+000
8.992266e+002, 8.342287e+000
8.997087e+002, 8.536953e+000
9.001908e+002, 8.751196e+000
9.006729e+002, 8.770867e+000
9.011550e+002, 8.585303e+000
9.016371e+002, 8.447573e+000
9.021193e+002, 8.401769e+000
9.026014e+002, 8.318525e+000
9.030835e+002, 8.055744e+000
9.035656e+002, 7.865844e+000
9.040477e+002, 7.988393e+000
9.045298e+002, 8.306241e+000
9.050120e+002, 8.517701e+000
9.054941e+002, 8.568225e+000
9.059762e+002, 8.576591e+000
9.064583e+002, 8.501490e+000
9.069404e+002, 8.466084e+000
9.074225e+002, 8.625620e+000
9.079047e+002, 8.828086e+000
9.083868e+002, 8.830577e+000
9.088689e+002, 8.624301e+000
9.093510e+002, 8.448129e+000
9.098331e+002, 8.477201e+000
9.103152e+002, 8.540690e+000
9.107974e+002, 8.452569e+000
9.112795e+002, 8.278970e+000
9.117616e+002, 8.118029e+000
9.122437e+002, 7.992951e+000
9.127258e+002, 7.927573e+000
9.132079e+002, 7.933331e+000
9.136901e+002, 8.000669e+000
9.141722e+002, 8.151277e+000
9.146543e+002, 8.354544e+000
9.151364e+002, 8.415087e+000
9.156185e+002, 8.326870e+000
9.161006e+002, 8.270896e+000
9.165828e+002, 8.293780e+000
9.170649e+002, 8.358189e+000
9.175470e+002, 8.451792e+000
9.180291e+002, 8.546795e+000
9.185112e+002, 8.528802e+000
9.189933e+002, 8.301038e+000
9.194755e+002, 8.211109e+000
9.199576e+002, 8.348686e+000
9.204397e+002, 8.496572e+000
9.209218e+002, 8.572742e+000
9.214039e+002, 8.614846e+000
9.218860e+002, 8.673473e+000
9.223682e+002, 8.745955e+000
9.228503e+002, 8.756746e+000
9.233324e+002, 8.625649e+000
9.238145e+002, 8.526264e+000
9.242966e+002, 8.507940e+000
9.247787e+002, 8.538792e+000
9.252609e+002, 8.637781e+000
9.257430e+002, 8.754044e+000
9.262251e+002, 8.786978e+000
9.267072e+002, 8.705486e+000
9.271893e+002, 8.600379e+000
9.276714e+002, 8.505143e+000
9.281536e+002, 8.438794e+000
9.286357e+002, 8.448401e+000
9.291178e+002, 8.491050e+000
9.295999e+002, 8.463112e+000
9.300820e+002, 8.367050e+000
9.305641e+002, 8.325388e+000
9.310463e+002, 8.425006e+000
9.315284e+002, 8.566504e+000
9.320105e+002, 8.602421e+000
9.324926e+002, 8.544986e+000
9.329747e+002, 8.418330e+000
9.334568e+002, 8.231042e+000
9.339390e+002, 8.090239e+000
9.344211e+002, 8.037126e+000
9.349032e+002, 8.036010e+000
9.353853e+002, 8.047627e+000
9.358674e+002, 8.077852e+000
9.363495e+002, 8.172590e+000
9.368317e+002, 8.356874e+000
9.373138e+002, 8.501477e+000
9.377959e+002, 8.606732e+000
9.382780e+002, 8.633257e+000
9.387601e+002, 8.512092e+000
9.392422e+002, 8.337137e+000
9.397244e+002, 8.283071e+000
9.402065e+002, 8.376055e+000
9.406886e+002, 8.435462e+000
9.411707e+002, 8.425139e+000
9.416528e+002, 8.431957e+000
9.421349e+002, 8.510254e+000
9.426171e+002, 8.576844e+000
9.430992e+002, 8.571338e+000
9.435813e+002, 8.504838e+000
9.440634e+002, 8.393906e+000
9.445455e+002, 8.201468e+000
9.450276e+002, 8.120162e+000
9.455098e+002, 8.376067e+000
9.459919e+002, 8.597626e+000
9.464740e+002, 8.433175e+000
9.469561e+002, 8.140469e+000
9.474382e+002, 8.103498e+000
9.479203e+002, 8.335684e+000
9.484025e+002, 8.557902e+000
9.488846e+002, 8.617192e+000
9.493667e+002, 8.626367e+000
9.498488e+002, 8.700352e+000
9.503309e+002, 8.790432e+000
9.508130e+002, 8.799539e+000
9.512952e+002, 8.754225e+000
9.517773e+002, 8.777744e+000
9.522594e+002, 8.903687e+000
9.527415e+002, 9.009594e+000
9.532236e+002, 8.968639e+000
9.537057e+002, 8.836413e+000
9.541878e+002, 8.767739e+000
9.546699e+002, 8.740869e+000
9.551520e+002, 8.552486e+000
9.556342e+002, 8.174949e+000
9.561163e+002, 7.981246e+000
9.565984e+002, 8.195048e+000
9.570805e+002, 8.563275e+000
9.575626e+002, 8.667894e+000
9.580447e+002, 8.516145e+000
9.585269e+002, 8.486302e+000
9.590090e+002, 8.608729e+000
9.594911e+002, 8.725513e+000
9.599732e+002, 8.808280e+000
9.604553e+002, 8.862869e+000
9.609374e+002, 8.875766e+000
9.614196e+002, 8.874188e+000
9.619017e+002, 8.949142e+000
9.623838e+002, 9.181466e+000
9.628659e+002, 9.237242e+000
9.633480e+002, 8.911080e+000
9.638301e+002, 8.686633e+000
9.643123e+002, 8.747084e+000
9.647944e+002, 8.913520e+000
9.652765e+002, 9.102156e+000
9.657586e+002, 9.273541e+000
9.662407e+002, 9.260753e+000
9.667228e+002, 8.870745e+000
9.672050e+002, 8.648061e+000
9.676871e+002, 8.837343e+000
9.681692e+002, 9.085076e+000
9.686513e+002, 9.217597e+000
9.691334e+002, 9.269755e+000
9.696155e+002, 9.280957e+000
9.700977e+002, 9.269470e+000
9.705798e+002, 9.292108e+000
9.710619e+002, 9.422125e+000
9.715440e+002, 9.513897e+000
9.720261e+002, 9.426953e+000
9.725082e+002, 9.293654e+000
9.729904e+002, 9.226999e+000
9.734725e+002, 9.240552e+000
9.739546e+002, 9.347409e+000
9.744367e+002, 9.542603e+000
9.749188e+002, 9.750806e+000
9.754009e+002, 9.927833e+000
9.758831e+002, 1.006687e+001
9.763652e+002, 1.018335e+001
9.768473e+002, 1.024651e+001
9.773294e+002, 1.012857e+001
9.778115e+002, 9.870234e+000
9.782936e+002, 9.728129e+000
9.787758e+002, 9.823149e+000
9.792579e+002, 1.002400e+001
9.797400e+002, 1.019510e+001
9.802221e+002, 1.033108e+001
9.807042e+002, 1.040422e+001
9.811863e+002, 1.041839e+001
9.816685e+002, 1.039724e+001
9.821506e+002, 1.034572e+001
9.826327e+002, 1.028780e+001
9.831148e+002, 1.023580e+001
9.835969e+002, 1.020305e+001
9.840790e+002, 1.021250e+001
9.845612e+002, 1.026401e+001
9.850433e+002, 1.037492e+001
9.855254e+002, 1.056082e+001
9.860075e+002, 1.071674e+001
9.864896e+002, 1.082141e+001
9.869717e+002, 1.086481e+001
9.874539e+002, 1.081372e+001
9.879360e+002, 1.071819e+001
9.884181e+002, 1.074675e+001
9.889002e+002, 1.095660e+001
9.893823e+002, 1.108333e+001
9.898644e+002, 1.108162e+001
9.903466e+002, 1.108640e+001
9.908287e+002, 1.117370e+001
9.913108e+002, 1.124514e+001
9.917929e+002, 1.116513e+001
9.922750e+002, 1.097527e+001
9.927571e+002, 1.092790e+001
9.932393e+002, 1.114068e+001
9.937214e+002, 1.128361e+001
9.942035e+002, 1.130258e+001
9.946856e+002, 1.131126e+001
9.951677e+002, 1.138107e+001
9.956498e+002, 1.144300e+001
9.961320e+002, 1.137528e+001
9.966141e+002, 1.120710e+001
9.970962e+002, 1.117730e+001
9.975783e+002, 1.147769e+001
9.980604e+002, 1.167378e+001
9.985425e+002, 1.152591e+001
9.990247e+002, 1.137723e+001
9.995068e+002, 1.146771e+001
9.999889e+002, 1.168088e+001
1.000471e+003, 1.185988e+001
1.000953e+003, 1.197381e+001
1.001435e+003, 1.201779e+001
1.001917e+003, 1.196857e+001
1.002399e+003, 1.188049e+001
1.002882e+003, 1.170693e+001
1.003364e+003, 1.157421e+001
1.003846e+003, 1.165219e+001
1.004328e+003, 1.184620e+001
1.004810e+003, 1.194985e+001
1.005292e+003, 1.192056e+001
1.005774e+003, 1.189717e+001
1.006256e+003, 1.196663e+001
1.006739e+003, 1.207954e+001
1.007221e+003, 1.224959e+001
1.007703e+003, 1.239637e+001
1.008185e+003, 1.235405e+001
1.008667e+003, 1.218618e+001
1.009149e+003, 1.212125e+001
1.009631e+003, 1.222994e+001
1.010113e+003, 1.232722e+001
1.010595e+003, 1.219552e+001
1.011078e+003, 1.201904e+001
1.011560e+003, 1.214755e+001
1.012042e+003, 1.242815e+001
1.012524e+003, 1.249055e+001
1.013006e+003, 1.232647e+001
1.013488e+003, 1.210904e+001
1.013970e+003, 1.191771e+001
1.014452e+003, 1.182328e+001
1.014935e+003, 1.193479e+001
1.015417e+003, 1.217794e+001
1.015899e+003, 1.238928e+001
1.016381e+003, 1.256622e+001
1.016863e+003, 1.270570e+001
1.017345e+003, 1.280171e+001
1.017827e+003, 1.278028e+001
1.018309e+003, 1.259694e+001
1.018791e+003, 1.239170e+001
1.019274e+003, 1.236745e+001
1.019756e+003, 1.248534e+001
1.020238e+003, 1.256829e+001
1.020720e+003, 1.261561e+001
1.021202e+003, 1.261499e+001
1.021684e+003, 1.256422e+001
1.022166e+003, 1.244907e+001
1.022648e+003, 1.224745e+001
1.023130e+003, 1.204608e+001
1.023613e+003, 1.200087e+001
1.024095e+003, 1.209796e+001
1.024577e+003, 1.209204e+001
1.025059e+003, 1.196558e+001
1.025541e+003, 1.188197e+001
1.026023e+003, 1.187109e+001
1.026505e+003, 1.190898e+001
1.026987e+003, 1.198938e+001
1.027469e+003, 1.209129e+001
1.027952e+003, 1.217864e+001
1.028434e+003, 1.225257e+001
1.028916e+003, 1.229803e+001
1.029398e+003, 1.231921e+001
1.029880e+003, 1.229489e+001
1.030362e+003, 1.221085e+001
1.030844e+003, 1.210293e+001
1.031326e+003, 1.198507e+001
1.031809e+003, 1.186792e+001
1.032291e+003, 1.176649e+001
1.032773e+003, 1.167398e+001
1.033255e+003, 1.166056e+001
1.033737e+003, 1.176909e+001
1.034219e+003, 1.186354e+001
1.034701e+003, 1.191474e+001
1.035183e+003, 1.195330e+001
1.035666e+003, 1.200917e+001
1.036148e+003, 1.205969e+001
1.036630e+003, 1.205412e+001
1.037112e+003, 1.198330e+001
1.037594e+003, 1.190771e+001
1.038076e+003, 1.183625e+001
1.038558e+003, 1.174584e+001
1.039040e+003, 1.162131e+001
1.039522e+003, 1.148904e+001
1.040005e+003, 1.133902e+001
1.040487e+003, 1.120128e+001
1.040969e+003, 1.114079e+001
1.041451e+003, 1.116455e+001
1.041933e+003, 1.122640e+001
1.042415e+003, 1.138684e+001
1.042897e+003, 1.149928e+001
1.043379e+003, 1.153635e+001
1.043861e+003, 1.151825e+001
1.044344e+003, 1.142765e+001
1.044826e+003, 1.130120e+001
1.045308e+003, 1.120187e+001
1.045790e+003, 1.113143e+001
1.046272e+003, 1.110739e+001
1.046754e+003, 1.119675e+001
1.047236e+003, 1.124287e+001
1.047718e+003, 1.115666e+001
1.048201e+003, 1.106477e+001
1.048683e+003, 1.107562e+001
1.049165e+003, 1.113554e+001
1.049647e+003, 1.112136e+001
1.050129e+003, 1.100776e+001
1.050611e+003, 1.096582e+001
1.051093e+003, 1.110362e+001
1.051575e+003, 1.121461e+001
1.052057e+003, 1.121824e+001
1.052540e+003, 1.119237e+001
1.053022e+003, 1.121101e+001
1.053504e+003, 1.123501e+001
1.053986e+003, 1.115226e+001
1.054468e+003, 1.094174e+001
1.054950e+003, 1.086201e+001
1.055432e+003, 1.116151e+001
1.055914e+003, 1.135802e+001
1.056396e+003, 1.119898e+001
1.056879e+003, 1.096262e+001
1.057361e+003, 1.082640e+001
1.057843e+003, 1.077651e+001
1.058325e+003, 1.076486e+001
1.058807e+003, 1.078311e+001
1.059289e+003, 1.082546e+001
1.059771e+003, 1.088864e+001
1.060253e+003, 1.097762e+001
1.060736e+003, 1.111443e+001
1.061218e+003, 1.125848e+001
1.061700e+003, 1.139918e+001
1.062182e+003, 1.151703e+001
1.062664e+003, 1.157686e+001
1.063146e+003, 1.157720e+001
1.063628e+003, 1.157147e+001
1.064110e+003, 1.156313e+001
1.064593e+003, 1.157489e+001
1.065075e+003, 1.154524e+001
1.065557e+003, 1.160919e+001
1.066039e+003, 1.200502e+001
1.066521e+003, 1.249649e+001
1.067003e+003, 1.270677e+001
1.067485e+003, 1.259876e+001
1.067967e+003, 1.241983e+001
1.068449e+003, 1.215517e+001
1.068932e+003, 1.202273e+001
1.069414e+003, 1.220538e+001
1.069896e+003, 1.247036e+001
1.070378e+003, 1.269459e+001
1.070860e+003, 1.285918e+001
1.071342e+003, 1.293036e+001
1.071824e+003, 1.292698e+001
1.072306e+003, 1.296721e+001
1.072788e+003, 1.310760e+001
1.073271e+003, 1.326633e+001
1.073753e+003, 1.346056e+001
1.074235e+003, 1.360163e+001
1.074717e+003, 1.359501e+001
1.075199e+003, 1.351517e+001
1.075681e+003, 1.341670e+001
1.076163e+003, 1.334039e+001
1.076645e+003, 1.340081e+001
1.077127e+003, 1.368320e+001
1.077610e+003, 1.395531e+001
1.078092e+003, 1.413234e+001
1.078574e+003, 1.423835e+001
1.079056e+003, 1.423938e+001
1.079538e+003, 1.421530e+001
1.080020e+003, 1.425005e+001
1.080502e+003, 1.434828e+001
1.080984e+003, 1.448382e+001
1.081467e+003, 1.465099e+001
1.081949e+003, 1.484194e+001
1.082431e+003, 1.511816e+001
1.082913e+003, 1.534276e+001
1.083395e+003, 1.537188e+001
1.083877e+003, 1.535147e+001
1.084359e+003, 1.546670e+001
1.084841e+003, 1.566753e+001
1.085323e+003, 1.575215e+001
1.085806e+003, 1.564620e+001
1.086288e+003, 1.564631e+001
1.086770e+003, 1.601707e+001
1.087252e+003, 1.635204e+001
1.087734e+003, 1.641212e+001
1.088216e+003, 1.636603e+001
1.088698e+003, 1.629043e+001
1.089180e+003, 1.626568e+001
1.089662e+003, 1.645218e+001
1.090145e+003, 1.688464e+001
1.090627e+003, 1.727285e+001
1.091109e+003, 1.755932e+001
1.091591e+003, 1.771423e+001
1.092073e+003, 1.765465e+001
1.092555e+003, 1.752716e+001
1.093037e+003, 1.738956e+001
1.093519e+003, 1.729217e+001
1.094002e+003, 1.729952e+001
1.094484e+003, 1.741888e+001
1.094966e+003, 1.760883e+001
1.095448e+003, 1.794855e+001
1.095930e+003, 1.821988e+001
1.096412e+003, 1.834765e+001
1.096894e+003, 1.838895e+001
1.097376e+003, 1.836903e+001
1.097859e+003, 1.829301e+001
1.098341e+003, 1.808125e+001
1.098823e+003, 1.778732e+001
1.099305e+003, 1.775241e+001
1.099787e+003, 1.819687e+001
1.100269e+003, 1.860636e+001
1.100751e+003, 1.893038e+001
1.101233e+003, 1.909118e+001
1.101715e+003, 1.889598e+001
1.102198e+003, 1.863736e+001
1.102680e+003, 1.862084e+001
1.103162e+003, 1.881713e+001
1.103644e+003, 1.904954e+001
1.104126e+003, 1.934145e+001
1.104608e+003, 1.951309e+001
1.105090e+003, 1.942527e+001
1.105572e+003, 1.935169e+001
1.106054e+003, 1.938601e+001
1.106537e+003, 1.947266e+001
1.107019e+003, 1.958460e+001
1.107501e+003, 1.970807e+001
1.107983e+003, 1.984869e+001
1.108465e+003, 2.004962e+001
1.108947e+003, 2.001984e+001
1.109429e+003, 1.943932e+001
1.109911e+003, 1.904548e+001
1.110394e+003, 1.910196e+001
1.110876e+003, 1.926346e+001
1.111358e+003, 1.935645e+001
1.111840e+003, 1.940454e+001
1.112322e+003, 1.944060e+001
1.112804e+003, 1.946291e+001
1.113286e+003, 1.951816e+001
1.113768e+003, 1.966819e+001
1.114250e+003, 1.974728e+001
1.114733e+003, 1.970807e+001
1.115215e+003, 1.964568e+001
1.115697e+003, 1.960048e+001
1.116179e+003, 1.955105e+001
1.116661e+003, 1.945742e+001
1.117143e+003, 1.933287e+001
1.117625e+003, 1.928075e+001
1.118107e+003, 1.936440e+001
1.118589e+003, 1.936219e+001
1.119072e+003, 1.919107e+001
1.119554e+003, 1.910485e+001
1.120036e+003, 1.923440e+001
1.120518e+003, 1.939264e+001
1.121000e+003, 1.942992e+001
1.121482e+003, 1.936508e+001
1.121964e+003, 1.923947e+001
1.122446e+003, 1.902658e+001
1.122929e+003, 1.893456e+001
1.123411e+003, 1.903445e+001
1.123893e+003, 1.899120e+001
1.124375e+003, 1.867551e+001
1.124857e+003, 1.837950e+001
1.125339e+003, 1.828800e+001
1.125821e+003, 1.832828e+001
1.126303e+003, 1.838328e+001
1.126786e+003, 1.845295e+001
1.127268e+003, 1.856350e+001
1.127750e+003, 1.873685e+001
1.128232e+003, 1.872833e+001
1.128714e+003, 1.848487e+001
1.129196e+003, 1.821217e+001
1.129678e+003, 1.799512e+001
1.130160e+003, 1.783629e+001
1.130642e+003, 1.773418e+001
1.131125e+003, 1.770090e+001
1.131607e+003, 1.784200e+001
1.132089e+003, 1.813546e+001
1.132571e+003, 1.815422e+001
1.133053e+003, 1.788067e+001
1.133535e+003, 1.758237e+001
1.134017e+003, 1.734137e+001
1.134499e+003, 1.718481e+001
1.134981e+003, 1.714287e+001
1.135464e+003, 1.714985e+001
1.135946e+003, 1.706291e+001
1.136428e+003, 1.692551e+001
1.136910e+003, 1.693958e+001
1.137392e+003, 1.706633e+001
1.137874e+003, 1.710734e+001
1.138356e+003, 1.703140e+001
1.138838e+003, 1.689053e+001
1.139321e+003, 1.671021e+001
1.139803e+003, 1.660510e+001
1.140285e+003, 1.681958e+001
1.140767e+003, 1.708364e+001
1.141249e+003, 1.679053e+001
1.141731e+003, 1.620727e+001
1.142213e+003, 1.590589e+001
1.142695e+003, 1.589240e+001
1.143177e+003, 1.598850e+001
1.143660e+003, 1.611002e+001
1.144142e+003, 1.611036e+001
1.144624e+003, 1.583477e+001
1.145106e+003, 1.551878e+001
1.145588e+003, 1.539513e+001
1.146070e+003, 1.538445e+001
1.146552e+003, 1.547748e+001
1.147034e+003, 1.556484e+001
1.147516e+003, 1.537720e+001
1.147999e+003, 1.497610e+001
1.148481e+003, 1.482046e+001
1.148963e+003, 1.515790e+001
1.149445e+003, 1.541646e+001
1.149927e+003, 1.513675e+001
1.150409e+003, 1.476090e+001
1.150891e+003, 1.458806e+001
1.151373e+003, 1.450499e+001
1.151856e+003, 1.439456e+001
1.152338e+003, 1.425721e+001
1.152820e+003, 1.412742e+001
1.153302e+003, 1.401245e+001
1.153784e+003, 1.390368e+001
1.154266e+003, 1.382167e+001
1.154748e+003, 1.371116e+001
1.155230e+003, 1.349448e+001
1.155713e+003, 1.330929e+001
1.156195e+003, 1.327083e+001
1.156677e+003, 1.329448e+001
1.157159e+003, 1.327594e+001
1.157641e+003, 1.321096e+001
1.158123e+003, 1.312386e+001
1.158605e+003, 1.297729e+001
1.159087e+003, 1.289296e+001
1.159569e+003, 1.294718e+001
1.160052e+003, 1.297000e+001
1.160534e+003, 1.292248e+001
1.161016e+003, 1.281941e+001
1.161498e+003, 1.261819e+001
1.161980e+003, 1.239997e+001
1.162462e+003, 1.235940e+001
1.162944e+003, 1.252077e+001
1.163426e+003, 1.259716e+001
1.163908e+003, 1.257522e+001
1.164391e+003, 1.250770e+001
1.164873e+003, 1.240841e+001
1.165355e+003, 1.222563e+001
1.165837e+003, 1.188516e+001
1.166319e+003, 1.158603e+001
1.166801e+003, 1.159288e+001
1.167283e+003, 1.180681e+001
1.167765e+003, 1.180392e+001
1.168247e+003, 1.157558e+001
1.168730e+003, 1.141517e+001
1.169212e+003, 1.133977e+001
1.169694e+003, 1.113529e+001
1.170176e+003, 1.073968e+001
1.170658e+003, 1.041828e+001
1.171140e+003, 1.035944e+001
1.171622e+003, 1.043826e+001
1.172104e+003, 1.045897e+001
1.172587e+003, 1.045088e+001
1.173069e+003, 1.056085e+001
1.173551e+003, 1.072818e+001
1.174033e+003, 1.070003e+001
1.174515e+003, 1.047796e+001
1.174997e+003, 1.020160e+001
1.175479e+003, 9.939976e+000
1.175961e+003, 9.866068e+000
1.176443e+003, 1.022817e+001
1.176926e+003, 1.060379e+001
1.177408e+003, 1.039322e+001
1.177890e+003, 9.916281e+000
1.178372e+003, 9.523355e+000
1.178854e+003, 9.282883e+000
1.179336e+003, 9.340212e+000
1.179818e+003, 9.623892e+000
1.180300e+003, 9.785134e+000
1.180782e+003, 9.667581e+000
1.181265e+003, 9.520647e+000
1.181747e+003, 9.490577e+000
1.182229e+003, 9.487391e+000
1.182711e+003, 9.517955e+000
1.183193e+003, 9.489192e+000
1.183675e+003, 9.231211e+000
1.184157e+003, 8.884332e+000
1.184639e+003, 8.712214e+000
1.185122e+003, 8.748075e+000
1.185604e+003, 8.834975e+000
1.186086e+003, 9.088447e+000
1.186568e+003, 9.146201e+000
1.187050e+003, 8.748952e+000
1.187532e+003, 8.392379e+000
1.188014e+003, 8.263667e+000
1.188496e+003, 8.291078e+000
1.188979e+003, 8.513820e+000
1.189461e+003, 8.806398e+000
1.189943e+003, 8.769566e+000
1.190425e+003, 8.313443e+000
1.190907e+003, 8.060778e+000
1.191389e+003, 8.057040e+000
1.191871e+003, 8.154291e+000
1.192353e+003, 8.399289e+000
1.192835e+003, 8.524250e+000
1.193318e+003, 8.363324e+000
1.193800e+003, 8.109277e+000
1.194282e+003, 7.988728e+000
1.194764e+003, 7.982986e+000
1.195246e+003, 8.046381e+000
1.195728e+003, 8.173365e+000
1.196210e+003, 8.187130e+000
1.196692e+003, 8.087530e+000
1.197174e+003, 8.053275e+000
1.197657e+003, 8.125012e+000
1.198139e+003, 8.177110e+000
1.198621e+003, 8.127625e+000
1.199103e+003, 8.081399e+000
1.199585e+003, 8.227970e+000
1.200067e+003, 8.436422e+000
1.200549e+003, 8.419320e+000
1.201031e+003, 8.269334e+000
1.201514e+003, 8.218441e+000
1.201996e+003, 8.227482e+000
1.202478e+003, 8.038713e+000
1.202960e+003, 7.634131e+000
1.203442e+003, 7.424821e+000
1.203924e+003, 7.731070e+000
1.204406e+003, 8.052892e+000
1.204888e+003, 7.953638e+000
1.205370e+003, 7.775618e+000
1.205853e+003, 7.816901e+000
1.206335e+003, 7.935053e+000
1.206817e+003, 7.979739e+000
1.207299e+003, 7.929458e+000
1.207781e+003, 7.737413e+000
1.208263e+003, 7.375958e+000
1.208745e+003, 7.216440e+000
1.209227e+003, 7.511980e+000
1.209709e+003, 7.771790e+000
1.210192e+003, 7.926673e+000
1.210674e+003, 7.985072e+000
1.211156e+003, 7.876430e+000
1.211638e+003, 7.738091e+000
1.212120e+003, 7.717705e+000
1.212602e+003, 7.778848e+000
1.213084e+003, 7.778001e+000
1.213566e+003, 7.691293e+000
1.214049e+003, 7.662738e+000
1.214531e+003, 7.698642e+000
1.215013e+003, 7.777611e+000
1.215495e+003, 7.910566e+000
1.215977e+003, 8.021995e+000
1.216459e+003, 8.079368e+000
1.216941e+003, 8.044950e+000
1.217423e+003, 7.836671e+000
1.217906e+003, 7.559333e+000
1.218388e+003, 7.587907e+000
1.218870e+003, 7.847229e+000
1.219352e+003, 7.965528e+000
1.219834e+003, 7.939040e+000
1.220316e+003, 7.863450e+000
1.220798e+003, 7.764423e+000
1.221280e+003, 7.618498e+000
1.221762e+003, 7.408254e+000
1.222245e+003, 7.257003e+000
1.222727e+003, 7.340328e+000
1.223209e+003, 7.495452e+000
1.223691e+003, 7.515409e+000
1.224173e+003, 7.509683e+000
1.224655e+003, 7.657549e+000
1.225137e+003, 7.879596e+000
1.225619e+003, 8.012301e+000
1.226101e+003, 8.026280e+000
1.226584e+003, 7.959871e+000
1.227066e+003, 7.786696e+000
1.227548e+003, 7.651846e+000
1.228030e+003, 7.619936e+000
1.228512e+003, 7.617269e+000
1.228994e+003, 7.579259e+000
1.229476e+003, 7.592080e+000
1.229958e+003, 7.825972e+000
1.230441e+003, 8.105208e+000
1.230923e+003, 8.103347e+000
1.231405e+003, 7.828917e+000
1.231887e+003, 7.572217e+000
1.232369e+003, 7.288757e+000
1.232851e+003, 7.176602e+000
1.233333e+003, 7.298972e+000
1.233815e+003, 7.392034e+000
1.234297e+003, 7.367376e+000
1.234780e+003, 7.334706e+000
1.235262e+003, 7.371161e+000
1.235744e+003, 7.458873e+000
1.236226e+003, 7.597791e+000
1.236708e+003, 7.746049e+000
1.237190e+003, 7.700708e+000
1.237672e+003, 7.505308e+000
1.238154e+003, 7.313947e+000
1.238636e+003, 7.165722e+000
1.239119e+003, 7.150803e+000
1.239601e+003, 7.282350e+000
1.240083e+003, 7.472966e+000
1.240565e+003, 7.690799e+000
1.241047e+003, 7.825237e+000
1.241529e+003, 7.656777e+000
1.242011e+003, 7.472638e+000
1.242493e+003, 7.645860e+000
1.242975e+003, 7.898696e+000
1.243458e+003, 7.826322e+000
1.243940e+003, 7.568427e+000
1.244422e+003, 7.505050e+000
1.244904e+003, 7.683530e+000
1.245386e+003, 7.813250e+000
1.245868e+003, 7.784208e+000
1.246350e+003, 7.766172e+000
1.246832e+003, 7.839894e+000
1.247315e+003, 7.857060e+000
1.247797e+003, 7.729451e+000
1.248279e+003, 7.573868e+000
1.248761e+003, 7.453750e+000
1.249243e+003, 7.375140e+000
1.249725e+003, 7.346984e+000
1.250207e+003, 7.370002e+000
1.250689e+003, 7.486009e+000
1.251172e+003, 7.719024e+000
1.251654e+003, 7.746213e+000
1.252136e+003, 7.533913e+000
1.252618e+003, 7.396965e+000
1.253100e+003, 7.429416e+000
1.253582e+003, 7.455234e+000
1.254064e+003, 7.346033e+000
1.254546e+003, 7.249006e+000
1.255028e+003, 7.420450e+000
1.255510e+003, 7.706100e+000
1.255993e+003, 7.819967e+000
1.256475e+003, 7.829004e+000
1.256957e+003, 7.849698e+000
1.257439e+003, 7.876898e+000
1.257921e+003, 7.854258e+000
1.258403e+003, 7.780364e+000
1.258885e+003, 7.721679e+000
1.259367e+003, 7.714807e+000
1.259850e+003, 7.694005e+000
1.260332e+003, 7.586259e+000
1.260814e+003, 7.513422e+000
1.261296e+003, 7.575031e+000
1.261778e+003, 7.650851e+000
1.262260e+003, 7.652114e+000
1.262742e+003, 7.603316e+000
1.263224e+003, 7.512985e+000
1.263707e+003, 7.402448e+000
1.264189e+003, 7.463542e+000
1.264671e+003, 7.777296e+000
1.265153e+003, 7.988928e+000
1.265635e+003, 8.086378e+000
1.266117e+003, 8.120271e+000
1.266599e+003, 8.097670e+000
1.267081e+003, 8.027530e+000
1.267563e+003, 7.906995e+000
1.268046e+003, 7.812394e+000
1.268528e+003, 7.840904e+000
1.269010e+003, 7.948586e+000
1.269492e+003, 8.089210e+000
1.269974e+003, 8.203935e+000
1.270456e+003, 8.052878e+000
1.270938e+003, 7.768544e+000
1.271420e+003, 7.791169e+000
1.271902e+003, 8.085700e+000
1.272385e+003, 8.195044e+000
1.272867e+003, 7.943889e+000
1.273349e+003, 7.673067e+000
1.273831e+003, 7.553130e+000
1.274313e+003, 7.509479e+000
1.274795e+003, 7.521629e+000
1.275277e+003, 7.577003e+000
1.275759e+003, 7.657697e+000
1.276242e+003, 7.784755e+000
1.276724e+003, 8.063101e+000
1.277206e+003, 8.396298e+000
1.277688e+003, 8.464366e+000
1.278170e+003, 8.233585e+000
1.278652e+003, 8.037054e+000
1.279134e+003, 7.852499e+000
1.279616e+003, 7.802669e+000
1.280099e+003, 7.932250e+000
1.280581e+003, 8.021312e+000
1.281063e+003, 7.984826e+000
1.281545e+003, 7.936888e+000
1.282027e+003, 7.965966e+000
1.282509e+003, 8.047279e+000
1.282991e+003, 8.197489e+000
1.283473e+003, 8.336402e+000
1.283955e+003, 8.293276e+000
##END=



