##NAMES=Gmelinite-Na
##RRUFFID=R110191
##IDEAL CHEMISTRY=Na_4_(Si_8_Al_4_)O_24_&#183;11H_2_O
##LOCALITY=Mont St-Hilaire, Quebec, Canada
##OWNER=RRUFF
##SOURCE=Donald Doell
##DESCRIPTION=Spherical aggregate of pale brownish-yellow hexagonal plates
##STATUS=The identification of this mineral has been confirmed only by single crystal X-ray diffraction.
##URL=rruff.info/R110191
9.112140e+001, 0.000000e+000
9.160352e+001, 2.311850e+002
9.208563e+001, 2.262991e+002
9.256775e+001, 2.257571e+002
9.304987e+001, 2.321236e+002
9.353198e+001, 2.393709e+002
9.401410e+001, 2.428092e+002
9.449622e+001, 2.429315e+002
9.497833e+001, 2.414531e+002
9.546045e+001, 2.396536e+002
9.594257e+001, 2.375024e+002
9.642468e+001, 2.354980e+002
9.690680e+001, 2.339090e+002
9.738892e+001, 2.324589e+002
9.787103e+001, 2.312200e+002
9.835315e+001, 2.298289e+002
9.883527e+001, 2.279067e+002
9.931738e+001, 2.256638e+002
9.979950e+001, 2.229719e+002
1.002816e+002, 2.207058e+002
1.007637e+002, 2.188465e+002
1.012458e+002, 2.172647e+002
1.017280e+002, 2.158874e+002
1.022101e+002, 2.146748e+002
1.026922e+002, 2.135894e+002
1.031743e+002, 2.124748e+002
1.036564e+002, 2.112206e+002
1.041385e+002, 2.103628e+002
1.046207e+002, 2.102733e+002
1.051028e+002, 2.107546e+002
1.055849e+002, 2.111826e+002
1.060670e+002, 2.114490e+002
1.065491e+002, 2.113803e+002
1.070313e+002, 2.107716e+002
1.075134e+002, 2.095282e+002
1.079955e+002, 2.081860e+002
1.084776e+002, 2.073586e+002
1.089597e+002, 2.071874e+002
1.094418e+002, 2.068647e+002
1.099240e+002, 2.058409e+002
1.104061e+002, 2.047388e+002
1.108882e+002, 2.040904e+002
1.113703e+002, 2.041203e+002
1.118524e+002, 2.045518e+002
1.123345e+002, 2.046186e+002
1.128167e+002, 2.037726e+002
1.132988e+002, 2.032956e+002
1.137809e+002, 2.035620e+002
1.142630e+002, 2.042411e+002
1.147451e+002, 2.049368e+002
1.152272e+002, 2.054056e+002
1.157094e+002, 2.056542e+002
1.161915e+002, 2.057262e+002
1.166736e+002, 2.056081e+002
1.171557e+002, 2.053594e+002
1.176378e+002, 2.047922e+002
1.181199e+002, 2.040418e+002
1.186021e+002, 2.035469e+002
1.190842e+002, 2.037367e+002
1.195663e+002, 2.046786e+002
1.200484e+002, 2.053733e+002
1.205305e+002, 2.056765e+002
1.210126e+002, 2.058268e+002
1.214948e+002, 2.060860e+002
1.219769e+002, 2.065108e+002
1.224590e+002, 2.068066e+002
1.229411e+002, 2.065197e+002
1.234232e+002, 2.058055e+002
1.239053e+002, 2.051293e+002
1.243875e+002, 2.046516e+002
1.248696e+002, 2.043282e+002
1.253517e+002, 2.040253e+002
1.258338e+002, 2.036505e+002
1.263159e+002, 2.034239e+002
1.267980e+002, 2.034913e+002
1.272802e+002, 2.038207e+002
1.277623e+002, 2.042566e+002
1.282444e+002, 2.047649e+002
1.287265e+002, 2.053747e+002
1.292086e+002, 2.057297e+002
1.296907e+002, 2.056237e+002
1.301729e+002, 2.053722e+002
1.306550e+002, 2.051438e+002
1.311371e+002, 2.049422e+002
1.316192e+002, 2.046220e+002
1.321013e+002, 2.039148e+002
1.325834e+002, 2.023774e+002
1.330656e+002, 2.013419e+002
1.335477e+002, 2.010713e+002
1.340298e+002, 2.010709e+002
1.345119e+002, 2.010291e+002
1.349940e+002, 2.008278e+002
1.354761e+002, 2.004703e+002
1.359583e+002, 1.999572e+002
1.364404e+002, 1.989664e+002
1.369225e+002, 1.982245e+002
1.374046e+002, 1.980444e+002
1.378867e+002, 1.980811e+002
1.383688e+002, 1.978256e+002
1.388510e+002, 1.970134e+002
1.393331e+002, 1.958167e+002
1.398152e+002, 1.948011e+002
1.402973e+002, 1.940243e+002
1.407794e+002, 1.932902e+002
1.412615e+002, 1.925069e+002
1.417437e+002, 1.916937e+002
1.422258e+002, 1.909212e+002
1.427079e+002, 1.902293e+002
1.431900e+002, 1.896126e+002
1.436721e+002, 1.890368e+002
1.441542e+002, 1.885090e+002
1.446364e+002, 1.880093e+002
1.451185e+002, 1.875011e+002
1.456006e+002, 1.869716e+002
1.460827e+002, 1.865123e+002
1.465648e+002, 1.863197e+002
1.470469e+002, 1.861757e+002
1.475291e+002, 1.858448e+002
1.480112e+002, 1.852255e+002
1.484933e+002, 1.843928e+002
1.489754e+002, 1.834606e+002
1.494575e+002, 1.822080e+002
1.499396e+002, 1.812626e+002
1.504218e+002, 1.810416e+002
1.509039e+002, 1.811392e+002
1.513860e+002, 1.809902e+002
1.518681e+002, 1.802051e+002
1.523502e+002, 1.788857e+002
1.528323e+002, 1.779675e+002
1.533145e+002, 1.781075e+002
1.537966e+002, 1.780277e+002
1.542787e+002, 1.773468e+002
1.547608e+002, 1.762392e+002
1.552429e+002, 1.750952e+002
1.557250e+002, 1.742321e+002
1.562072e+002, 1.736888e+002
1.566893e+002, 1.728437e+002
1.571714e+002, 1.713420e+002
1.576535e+002, 1.699191e+002
1.581356e+002, 1.689541e+002
1.586177e+002, 1.683938e+002
1.590999e+002, 1.678798e+002
1.595820e+002, 1.670658e+002
1.600641e+002, 1.658796e+002
1.605462e+002, 1.648955e+002
1.610283e+002, 1.642444e+002
1.615104e+002, 1.636989e+002
1.619926e+002, 1.630945e+002
1.624747e+002, 1.624106e+002
1.629568e+002, 1.617143e+002
1.634389e+002, 1.611153e+002
1.639210e+002, 1.606035e+002
1.644031e+002, 1.599788e+002
1.648853e+002, 1.590360e+002
1.653674e+002, 1.580108e+002
1.658495e+002, 1.573190e+002
1.663316e+002, 1.571114e+002
1.668137e+002, 1.569739e+002
1.672958e+002, 1.564721e+002
1.677780e+002, 1.556916e+002
1.682601e+002, 1.549339e+002
1.687422e+002, 1.544149e+002
1.692243e+002, 1.540537e+002
1.697064e+002, 1.535119e+002
1.701885e+002, 1.526181e+002
1.706707e+002, 1.517088e+002
1.711528e+002, 1.509667e+002
1.716349e+002, 1.503869e+002
1.721170e+002, 1.499244e+002
1.725991e+002, 1.496051e+002
1.730812e+002, 1.494415e+002
1.735634e+002, 1.491590e+002
1.740455e+002, 1.486561e+002
1.745276e+002, 1.480868e+002
1.750097e+002, 1.474850e+002
1.754918e+002, 1.468658e+002
1.759739e+002, 1.462544e+002
1.764561e+002, 1.456732e+002
1.769382e+002, 1.451033e+002
1.774203e+002, 1.446190e+002
1.779024e+002, 1.443465e+002
1.783845e+002, 1.440526e+002
1.788666e+002, 1.435823e+002
1.793488e+002, 1.429364e+002
1.798309e+002, 1.422375e+002
1.803130e+002, 1.416543e+002
1.807951e+002, 1.412014e+002
1.812772e+002, 1.408604e+002
1.817593e+002, 1.406732e+002
1.822415e+002, 1.405547e+002
1.827236e+002, 1.404763e+002
1.832057e+002, 1.404212e+002
1.836878e+002, 1.403407e+002
1.841699e+002, 1.401547e+002
1.846520e+002, 1.397832e+002
1.851342e+002, 1.394618e+002
1.856163e+002, 1.392535e+002
1.860984e+002, 1.390740e+002
1.865805e+002, 1.388076e+002
1.870626e+002, 1.384140e+002
1.875447e+002, 1.380031e+002
1.880269e+002, 1.377878e+002
1.885090e+002, 1.378193e+002
1.889911e+002, 1.377975e+002
1.894732e+002, 1.375657e+002
1.899553e+002, 1.372513e+002
1.904374e+002, 1.371147e+002
1.909196e+002, 1.372883e+002
1.914017e+002, 1.375284e+002
1.918838e+002, 1.374434e+002
1.923659e+002, 1.370170e+002
1.928480e+002, 1.366196e+002
1.933301e+002, 1.365578e+002
1.938123e+002, 1.366953e+002
1.942944e+002, 1.364418e+002
1.947765e+002, 1.352753e+002
1.952586e+002, 1.341494e+002
1.957407e+002, 1.342029e+002
1.962228e+002, 1.354576e+002
1.967050e+002, 1.366143e+002
1.971871e+002, 1.366299e+002
1.976692e+002, 1.355553e+002
1.981513e+002, 1.345213e+002
1.986334e+002, 1.336528e+002
1.991155e+002, 1.329881e+002
1.995977e+002, 1.325720e+002
2.000798e+002, 1.323998e+002
2.005619e+002, 1.323704e+002
2.010440e+002, 1.324377e+002
2.015261e+002, 1.326335e+002
2.020082e+002, 1.327184e+002
2.024904e+002, 1.325549e+002
2.029725e+002, 1.323475e+002
2.034546e+002, 1.321632e+002
2.039367e+002, 1.320238e+002
2.044188e+002, 1.319509e+002
2.049009e+002, 1.320411e+002
2.053831e+002, 1.324631e+002
2.058652e+002, 1.325099e+002
2.063473e+002, 1.318069e+002
2.068294e+002, 1.310205e+002
2.073115e+002, 1.305086e+002
2.077936e+002, 1.303391e+002
2.082758e+002, 1.303748e+002
2.087579e+002, 1.304436e+002
2.092400e+002, 1.305829e+002
2.097221e+002, 1.306694e+002
2.102042e+002, 1.306997e+002
2.106863e+002, 1.306901e+002
2.111685e+002, 1.306218e+002
2.116506e+002, 1.305041e+002
2.121327e+002, 1.304024e+002
2.126148e+002, 1.304276e+002
2.130969e+002, 1.307467e+002
2.135790e+002, 1.308176e+002
2.140612e+002, 1.304001e+002
2.145433e+002, 1.299017e+002
2.150254e+002, 1.296440e+002
2.155075e+002, 1.297022e+002
2.159896e+002, 1.299350e+002
2.164717e+002, 1.301689e+002
2.169539e+002, 1.304884e+002
2.174360e+002, 1.305572e+002
2.179181e+002, 1.301152e+002
2.184002e+002, 1.295466e+002
2.188823e+002, 1.292523e+002
2.193644e+002, 1.293315e+002
2.198466e+002, 1.295515e+002
2.203287e+002, 1.296161e+002
2.208108e+002, 1.295142e+002
2.212929e+002, 1.293277e+002
2.217750e+002, 1.291159e+002
2.222571e+002, 1.288062e+002
2.227393e+002, 1.282614e+002
2.232214e+002, 1.274294e+002
2.237035e+002, 1.265120e+002
2.241856e+002, 1.257275e+002
2.246677e+002, 1.250628e+002
2.251498e+002, 1.245410e+002
2.256320e+002, 1.242532e+002
2.261141e+002, 1.240923e+002
2.265962e+002, 1.238862e+002
2.270783e+002, 1.236028e+002
2.275604e+002, 1.232866e+002
2.280425e+002, 1.229551e+002
2.285247e+002, 1.226183e+002
2.290068e+002, 1.223220e+002
2.294889e+002, 1.219849e+002
2.299710e+002, 1.217112e+002
2.304531e+002, 1.218102e+002
2.309352e+002, 1.224963e+002
2.314174e+002, 1.231657e+002
2.318995e+002, 1.232994e+002
2.323816e+002, 1.230467e+002
2.328637e+002, 1.227925e+002
2.333458e+002, 1.227199e+002
2.338279e+002, 1.227884e+002
2.343101e+002, 1.228775e+002
2.347922e+002, 1.230113e+002
2.352743e+002, 1.231164e+002
2.357564e+002, 1.231696e+002
2.362385e+002, 1.231696e+002
2.367206e+002, 1.231069e+002
2.372028e+002, 1.229361e+002
2.376849e+002, 1.226956e+002
2.381670e+002, 1.225513e+002
2.386491e+002, 1.225481e+002
2.391312e+002, 1.225836e+002
2.396133e+002, 1.226774e+002
2.400955e+002, 1.227688e+002
2.405776e+002, 1.227563e+002
2.410597e+002, 1.225714e+002
2.415418e+002, 1.222375e+002
2.420239e+002, 1.218533e+002
2.425060e+002, 1.212658e+002
2.429882e+002, 1.208516e+002
2.434703e+002, 1.207730e+002
2.439524e+002, 1.209055e+002
2.444345e+002, 1.210815e+002
2.449166e+002, 1.212157e+002
2.453987e+002, 1.213062e+002
2.458809e+002, 1.213407e+002
2.463630e+002, 1.212946e+002
2.468451e+002, 1.212156e+002
2.473272e+002, 1.210908e+002
2.478093e+002, 1.209473e+002
2.482914e+002, 1.208441e+002
2.487736e+002, 1.208231e+002
2.492557e+002, 1.208248e+002
2.497378e+002, 1.205924e+002
2.502199e+002, 1.196559e+002
2.507020e+002, 1.190807e+002
2.511841e+002, 1.193558e+002
2.516663e+002, 1.199439e+002
2.521484e+002, 1.201400e+002
2.526305e+002, 1.195955e+002
2.531126e+002, 1.186173e+002
2.535947e+002, 1.181719e+002
2.540768e+002, 1.190492e+002
2.545590e+002, 1.195331e+002
2.550411e+002, 1.192381e+002
2.555232e+002, 1.186115e+002
2.560053e+002, 1.181473e+002
2.564874e+002, 1.180555e+002
2.569695e+002, 1.181961e+002
2.574517e+002, 1.182303e+002
2.579338e+002, 1.180014e+002
2.584159e+002, 1.178487e+002
2.588980e+002, 1.177873e+002
2.593801e+002, 1.177965e+002
2.598622e+002, 1.179017e+002
2.603444e+002, 1.181058e+002
2.608265e+002, 1.182964e+002
2.613086e+002, 1.182519e+002
2.617907e+002, 1.176810e+002
2.622728e+002, 1.173328e+002
2.627549e+002, 1.173582e+002
2.632371e+002, 1.175394e+002
2.637192e+002, 1.176504e+002
2.642013e+002, 1.176324e+002
2.646834e+002, 1.176040e+002
2.651655e+002, 1.177660e+002
2.656476e+002, 1.182999e+002
2.661298e+002, 1.185568e+002
2.666119e+002, 1.183727e+002
2.670940e+002, 1.179917e+002
2.675761e+002, 1.175864e+002
2.680582e+002, 1.171988e+002
2.685403e+002, 1.168904e+002
2.690225e+002, 1.167563e+002
2.695046e+002, 1.168573e+002
2.699867e+002, 1.168619e+002
2.704688e+002, 1.166773e+002
2.709509e+002, 1.164480e+002
2.714330e+002, 1.163205e+002
2.719152e+002, 1.163066e+002
2.723973e+002, 1.162673e+002
2.728794e+002, 1.160213e+002
2.733615e+002, 1.155548e+002
2.738436e+002, 1.153574e+002
2.743257e+002, 1.156090e+002
2.748079e+002, 1.160092e+002
2.752900e+002, 1.163953e+002
2.757721e+002, 1.167423e+002
2.762542e+002, 1.169366e+002
2.767363e+002, 1.168397e+002
2.772184e+002, 1.164851e+002
2.777006e+002, 1.162614e+002
2.781827e+002, 1.161472e+002
2.786648e+002, 1.161834e+002
2.791469e+002, 1.165117e+002
2.796290e+002, 1.170848e+002
2.801111e+002, 1.175538e+002
2.805933e+002, 1.177090e+002
2.810754e+002, 1.175842e+002
2.815575e+002, 1.173978e+002
2.820396e+002, 1.171279e+002
2.825217e+002, 1.168261e+002
2.830038e+002, 1.164503e+002
2.834860e+002, 1.160381e+002
2.839681e+002, 1.157866e+002
2.844502e+002, 1.158056e+002
2.849323e+002, 1.160365e+002
2.854144e+002, 1.163322e+002
2.858965e+002, 1.167248e+002
2.863787e+002, 1.171015e+002
2.868608e+002, 1.174546e+002
2.873429e+002, 1.177534e+002
2.878250e+002, 1.178766e+002
2.883071e+002, 1.177448e+002
2.887892e+002, 1.174656e+002
2.892714e+002, 1.170952e+002
2.897535e+002, 1.165671e+002
2.902356e+002, 1.163957e+002
2.907177e+002, 1.171992e+002
2.911998e+002, 1.185551e+002
2.916819e+002, 1.192835e+002
2.921641e+002, 1.189556e+002
2.926462e+002, 1.182704e+002
2.931283e+002, 1.179911e+002
2.936104e+002, 1.180679e+002
2.940925e+002, 1.181586e+002
2.945746e+002, 1.181048e+002
2.950568e+002, 1.179781e+002
2.955389e+002, 1.179275e+002
2.960210e+002, 1.179864e+002
2.965031e+002, 1.180726e+002
2.969852e+002, 1.180834e+002
2.974673e+002, 1.180573e+002
2.979495e+002, 1.181169e+002
2.984316e+002, 1.183857e+002
2.989137e+002, 1.187302e+002
2.993958e+002, 1.189376e+002
2.998779e+002, 1.189794e+002
3.003600e+002, 1.190009e+002
3.008422e+002, 1.191386e+002
3.013243e+002, 1.193148e+002
3.018064e+002, 1.193814e+002
3.022885e+002, 1.192280e+002
3.027706e+002, 1.190280e+002
3.032527e+002, 1.189911e+002
3.037349e+002, 1.191274e+002
3.042170e+002, 1.192765e+002
3.046991e+002, 1.193054e+002
3.051812e+002, 1.193375e+002
3.056633e+002, 1.195761e+002
3.061454e+002, 1.201399e+002
3.066276e+002, 1.206772e+002
3.071097e+002, 1.208168e+002
3.075918e+002, 1.205840e+002
3.080739e+002, 1.204254e+002
3.085560e+002, 1.205103e+002
3.090381e+002, 1.207175e+002
3.095203e+002, 1.208903e+002
3.100024e+002, 1.210186e+002
3.104845e+002, 1.211850e+002
3.109666e+002, 1.214970e+002
3.114487e+002, 1.219130e+002
3.119308e+002, 1.222053e+002
3.124130e+002, 1.222474e+002
3.128951e+002, 1.222725e+002
3.133772e+002, 1.225088e+002
3.138593e+002, 1.229280e+002
3.143414e+002, 1.233505e+002
3.148235e+002, 1.236491e+002
3.153057e+002, 1.238865e+002
3.157878e+002, 1.242731e+002
3.162699e+002, 1.249192e+002
3.167520e+002, 1.254823e+002
3.172341e+002, 1.256034e+002
3.177162e+002, 1.254519e+002
3.181984e+002, 1.253910e+002
3.186805e+002, 1.257129e+002
3.191626e+002, 1.261259e+002
3.196447e+002, 1.261040e+002
3.201268e+002, 1.255594e+002
3.206089e+002, 1.250259e+002
3.210911e+002, 1.248874e+002
3.215732e+002, 1.249237e+002
3.220553e+002, 1.248186e+002
3.225374e+002, 1.244297e+002
3.230195e+002, 1.240126e+002
3.235016e+002, 1.238705e+002
3.239838e+002, 1.240050e+002
3.244659e+002, 1.241028e+002
3.249480e+002, 1.240610e+002
3.254301e+002, 1.239032e+002
3.259122e+002, 1.236627e+002
3.263943e+002, 1.233310e+002
3.268765e+002, 1.229596e+002
3.273586e+002, 1.225316e+002
3.278407e+002, 1.220727e+002
3.283228e+002, 1.217543e+002
3.288049e+002, 1.216876e+002
3.292870e+002, 1.216748e+002
3.297692e+002, 1.215333e+002
3.302513e+002, 1.212706e+002
3.307334e+002, 1.209245e+002
3.312155e+002, 1.204593e+002
3.316976e+002, 1.199292e+002
3.321797e+002, 1.194696e+002
3.326619e+002, 1.191151e+002
3.331440e+002, 1.187733e+002
3.336261e+002, 1.183262e+002
3.341082e+002, 1.178287e+002
3.345903e+002, 1.174186e+002
3.350724e+002, 1.171810e+002
3.355546e+002, 1.170344e+002
3.360367e+002, 1.168497e+002
3.365188e+002, 1.166143e+002
3.370009e+002, 1.164904e+002
3.374830e+002, 1.167025e+002
3.379651e+002, 1.170479e+002
3.384473e+002, 1.171519e+002
3.389294e+002, 1.169442e+002
3.394115e+002, 1.165375e+002
3.398936e+002, 1.159032e+002
3.403757e+002, 1.150847e+002
3.408578e+002, 1.144276e+002
3.413400e+002, 1.140690e+002
3.418221e+002, 1.139349e+002
3.423042e+002, 1.139202e+002
3.427863e+002, 1.140566e+002
3.432684e+002, 1.141315e+002
3.437505e+002, 1.140854e+002
3.442327e+002, 1.138998e+002
3.447148e+002, 1.134549e+002
3.451969e+002, 1.126249e+002
3.456790e+002, 1.118031e+002
3.461611e+002, 1.115603e+002
3.466432e+002, 1.117976e+002
3.471254e+002, 1.119252e+002
3.476075e+002, 1.116951e+002
3.480896e+002, 1.113198e+002
3.485717e+002, 1.110414e+002
3.490538e+002, 1.108789e+002
3.495359e+002, 1.108134e+002
3.500181e+002, 1.109140e+002
3.505002e+002, 1.111058e+002
3.509823e+002, 1.110751e+002
3.514644e+002, 1.105501e+002
3.519465e+002, 1.100166e+002
3.524286e+002, 1.098666e+002
3.529108e+002, 1.100219e+002
3.533929e+002, 1.100901e+002
3.538750e+002, 1.098479e+002
3.543571e+002, 1.094358e+002
3.548392e+002, 1.092050e+002
3.553214e+002, 1.091927e+002
3.558035e+002, 1.092399e+002
3.562856e+002, 1.093848e+002
3.567677e+002, 1.095347e+002
3.572498e+002, 1.095041e+002
3.577319e+002, 1.092266e+002
3.582141e+002, 1.088313e+002
3.586962e+002, 1.084721e+002
3.591783e+002, 1.081465e+002
3.596604e+002, 1.078702e+002
3.601425e+002, 1.075484e+002
3.606246e+002, 1.073354e+002
3.611068e+002, 1.074627e+002
3.615889e+002, 1.079232e+002
3.620710e+002, 1.083926e+002
3.625531e+002, 1.086274e+002
3.630352e+002, 1.086136e+002
3.635173e+002, 1.084136e+002
3.639995e+002, 1.077952e+002
3.644816e+002, 1.072371e+002
3.649637e+002, 1.070060e+002
3.654458e+002, 1.070209e+002
3.659279e+002, 1.070642e+002
3.664100e+002, 1.070268e+002
3.668922e+002, 1.069315e+002
3.673743e+002, 1.068502e+002
3.678564e+002, 1.066896e+002
3.683385e+002, 1.066697e+002
3.688206e+002, 1.069647e+002
3.693027e+002, 1.073528e+002
3.697849e+002, 1.075498e+002
3.702670e+002, 1.074820e+002
3.707491e+002, 1.073330e+002
3.712312e+002, 1.073749e+002
3.717133e+002, 1.077517e+002
3.721954e+002, 1.078598e+002
3.726776e+002, 1.075033e+002
3.731597e+002, 1.070657e+002
3.736418e+002, 1.067054e+002
3.741239e+002, 1.064699e+002
3.746060e+002, 1.064390e+002
3.750881e+002, 1.067322e+002
3.755703e+002, 1.073252e+002
3.760524e+002, 1.074055e+002
3.765345e+002, 1.062344e+002
3.770166e+002, 1.054069e+002
3.774987e+002, 1.054448e+002
3.779808e+002, 1.060071e+002
3.784630e+002, 1.066484e+002
3.789451e+002, 1.071660e+002
3.794272e+002, 1.075121e+002
3.799093e+002, 1.075346e+002
3.803914e+002, 1.068104e+002
3.808735e+002, 1.064816e+002
3.813557e+002, 1.069334e+002
3.818378e+002, 1.075076e+002
3.823199e+002, 1.076891e+002
3.828020e+002, 1.074278e+002
3.832841e+002, 1.070451e+002
3.837662e+002, 1.068985e+002
3.842484e+002, 1.070226e+002
3.847305e+002, 1.071357e+002
3.852126e+002, 1.072597e+002
3.856947e+002, 1.073490e+002
3.861768e+002, 1.073521e+002
3.866589e+002, 1.073102e+002
3.871411e+002, 1.073012e+002
3.876232e+002, 1.073711e+002
3.881053e+002, 1.075085e+002
3.885874e+002, 1.077022e+002
3.890695e+002, 1.081022e+002
3.895516e+002, 1.082587e+002
3.900338e+002, 1.077629e+002
3.905159e+002, 1.071790e+002
3.909980e+002, 1.071002e+002
3.914801e+002, 1.076844e+002
3.919622e+002, 1.084492e+002
3.924443e+002, 1.087610e+002
3.929265e+002, 1.085586e+002
3.934086e+002, 1.085037e+002
3.938907e+002, 1.088299e+002
3.943728e+002, 1.091814e+002
3.948549e+002, 1.093490e+002
3.953370e+002, 1.093584e+002
3.958192e+002, 1.093426e+002
3.963013e+002, 1.093799e+002
3.967834e+002, 1.094572e+002
3.972655e+002, 1.094823e+002
3.977476e+002, 1.093487e+002
3.982297e+002, 1.094419e+002
3.987119e+002, 1.101972e+002
3.991940e+002, 1.112290e+002
3.996761e+002, 1.120615e+002
4.001582e+002, 1.125785e+002
4.006403e+002, 1.128604e+002
4.011224e+002, 1.129529e+002
4.016046e+002, 1.128616e+002
4.020867e+002, 1.126494e+002
4.025688e+002, 1.121982e+002
4.030509e+002, 1.117924e+002
4.035330e+002, 1.116841e+002
4.040151e+002, 1.118612e+002
4.044973e+002, 1.124210e+002
4.049794e+002, 1.138154e+002
4.054615e+002, 1.155053e+002
4.059436e+002, 1.165165e+002
4.064257e+002, 1.166925e+002
4.069078e+002, 1.165094e+002
4.073900e+002, 1.161708e+002
4.078721e+002, 1.157615e+002
4.083542e+002, 1.156788e+002
4.088363e+002, 1.162397e+002
4.093184e+002, 1.168763e+002
4.098005e+002, 1.172232e+002
4.102827e+002, 1.173377e+002
4.107648e+002, 1.174309e+002
4.112469e+002, 1.176102e+002
4.117290e+002, 1.177934e+002
4.122111e+002, 1.177774e+002
4.126932e+002, 1.175205e+002
4.131754e+002, 1.172103e+002
4.136575e+002, 1.168031e+002
4.141396e+002, 1.163979e+002
4.146217e+002, 1.161192e+002
4.151038e+002, 1.159799e+002
4.155859e+002, 1.158753e+002
4.160681e+002, 1.157194e+002
4.165502e+002, 1.155189e+002
4.170323e+002, 1.151452e+002
4.175144e+002, 1.144699e+002
4.179965e+002, 1.137854e+002
4.184786e+002, 1.132368e+002
4.189608e+002, 1.127641e+002
4.194429e+002, 1.121864e+002
4.199250e+002, 1.113991e+002
4.204071e+002, 1.105592e+002
4.208892e+002, 1.101201e+002
4.213713e+002, 1.105305e+002
4.218535e+002, 1.106731e+002
4.223356e+002, 1.103404e+002
4.228177e+002, 1.098704e+002
4.232998e+002, 1.095297e+002
4.237819e+002, 1.093457e+002
4.242640e+002, 1.091738e+002
4.247462e+002, 1.088782e+002
4.252283e+002, 1.084576e+002
4.257104e+002, 1.079032e+002
4.261925e+002, 1.067520e+002
4.266746e+002, 1.059884e+002
4.271567e+002, 1.061995e+002
4.276389e+002, 1.069081e+002
4.281210e+002, 1.073524e+002
4.286031e+002, 1.071415e+002
4.290852e+002, 1.065984e+002
4.295673e+002, 1.064143e+002
4.300494e+002, 1.067324e+002
4.305316e+002, 1.068907e+002
4.310137e+002, 1.065789e+002
4.314958e+002, 1.061595e+002
4.319779e+002, 1.057768e+002
4.324600e+002, 1.054700e+002
4.329421e+002, 1.053628e+002
4.334243e+002, 1.056996e+002
4.339064e+002, 1.063469e+002
4.343885e+002, 1.067126e+002
4.348706e+002, 1.067102e+002
4.353527e+002, 1.065651e+002
4.358348e+002, 1.062483e+002
4.363170e+002, 1.059135e+002
4.367991e+002, 1.058585e+002
4.372812e+002, 1.062851e+002
4.377633e+002, 1.068312e+002
4.382454e+002, 1.071808e+002
4.387275e+002, 1.073521e+002
4.392097e+002, 1.074448e+002
4.396918e+002, 1.074468e+002
4.401739e+002, 1.074511e+002
4.406560e+002, 1.076149e+002
4.411381e+002, 1.079438e+002
4.416202e+002, 1.082757e+002
4.421024e+002, 1.086512e+002
4.425845e+002, 1.089596e+002
4.430666e+002, 1.090280e+002
4.435487e+002, 1.088561e+002
4.440308e+002, 1.086350e+002
4.445129e+002, 1.084760e+002
4.449951e+002, 1.083934e+002
4.454772e+002, 1.084915e+002
4.459593e+002, 1.088570e+002
4.464414e+002, 1.092714e+002
4.469235e+002, 1.097114e+002
4.474056e+002, 1.101471e+002
4.478878e+002, 1.105170e+002
4.483699e+002, 1.108027e+002
4.488520e+002, 1.110835e+002
4.493341e+002, 1.114985e+002
4.498162e+002, 1.121517e+002
4.502983e+002, 1.126328e+002
4.507805e+002, 1.127863e+002
4.512626e+002, 1.129372e+002
4.517447e+002, 1.132575e+002
4.522268e+002, 1.137220e+002
4.527089e+002, 1.142280e+002
4.531910e+002, 1.147099e+002
4.536732e+002, 1.151689e+002
4.541553e+002, 1.156262e+002
4.546374e+002, 1.162366e+002
4.551195e+002, 1.165598e+002
4.556016e+002, 1.161922e+002
4.560837e+002, 1.157616e+002
4.565659e+002, 1.158307e+002
4.570480e+002, 1.164859e+002
4.575301e+002, 1.173543e+002
4.580122e+002, 1.181004e+002
4.584943e+002, 1.187276e+002
4.589764e+002, 1.192505e+002
4.594586e+002, 1.195697e+002
4.599407e+002, 1.199350e+002
4.604228e+002, 1.205145e+002
4.609049e+002, 1.212154e+002
4.613870e+002, 1.218728e+002
4.618691e+002, 1.224205e+002
4.623513e+002, 1.229160e+002
4.628334e+002, 1.233641e+002
4.633155e+002, 1.237732e+002
4.637976e+002, 1.243902e+002
4.642797e+002, 1.254221e+002
4.647618e+002, 1.265396e+002
4.652440e+002, 1.272661e+002
4.657261e+002, 1.275948e+002
4.662082e+002, 1.280559e+002
4.666903e+002, 1.289389e+002
4.671724e+002, 1.299920e+002
4.676545e+002, 1.309053e+002
4.681367e+002, 1.316574e+002
4.686188e+002, 1.324204e+002
4.691009e+002, 1.333331e+002
4.695830e+002, 1.343351e+002
4.700651e+002, 1.351428e+002
4.705472e+002, 1.353640e+002
4.710294e+002, 1.359022e+002
4.715115e+002, 1.373509e+002
4.719936e+002, 1.390888e+002
4.724757e+002, 1.402830e+002
4.729578e+002, 1.407368e+002
4.734399e+002, 1.409200e+002
4.739221e+002, 1.413752e+002
4.744042e+002, 1.421271e+002
4.748863e+002, 1.430184e+002
4.753684e+002, 1.441612e+002
4.758505e+002, 1.453138e+002
4.763326e+002, 1.464719e+002
4.768148e+002, 1.475588e+002
4.772969e+002, 1.484362e+002
4.777790e+002, 1.490268e+002
4.782611e+002, 1.494575e+002
4.787432e+002, 1.499675e+002
4.792253e+002, 1.505314e+002
4.797075e+002, 1.512449e+002
4.801896e+002, 1.522837e+002
4.806717e+002, 1.533364e+002
4.811538e+002, 1.542076e+002
4.816359e+002, 1.549241e+002
4.821180e+002, 1.556687e+002
4.826002e+002, 1.566403e+002
4.830823e+002, 1.577034e+002
4.835644e+002, 1.584784e+002
4.840465e+002, 1.589230e+002
4.845286e+002, 1.592137e+002
4.850107e+002, 1.593273e+002
4.854929e+002, 1.593743e+002
4.859750e+002, 1.594692e+002
4.864571e+002, 1.596145e+002
4.869392e+002, 1.598498e+002
4.874213e+002, 1.602978e+002
4.879034e+002, 1.608397e+002
4.883856e+002, 1.612295e+002
4.888677e+002, 1.614361e+002
4.893498e+002, 1.614373e+002
4.898319e+002, 1.611249e+002
4.903140e+002, 1.605365e+002
4.907961e+002, 1.601942e+002
4.912783e+002, 1.603845e+002
4.917604e+002, 1.605129e+002
4.922425e+002, 1.602501e+002
4.927246e+002, 1.597459e+002
4.932067e+002, 1.593260e+002
4.936888e+002, 1.591073e+002
4.941710e+002, 1.588616e+002
4.946531e+002, 1.582304e+002
4.951352e+002, 1.570850e+002
4.956173e+002, 1.559391e+002
4.960994e+002, 1.548764e+002
4.965815e+002, 1.537341e+002
4.970637e+002, 1.523019e+002
4.975458e+002, 1.507409e+002
4.980279e+002, 1.494618e+002
4.985100e+002, 1.487350e+002
4.989921e+002, 1.482163e+002
4.994742e+002, 1.469135e+002
4.999564e+002, 1.443590e+002
5.004385e+002, 1.422134e+002
5.009206e+002, 1.410556e+002
5.014027e+002, 1.400859e+002
5.018848e+002, 1.388938e+002
5.023669e+002, 1.374452e+002
5.028491e+002, 1.358743e+002
5.033312e+002, 1.342537e+002
5.038133e+002, 1.325823e+002
5.042954e+002, 1.308120e+002
5.047775e+002, 1.288970e+002
5.052596e+002, 1.271510e+002
5.057418e+002, 1.259577e+002
5.062239e+002, 1.248947e+002
5.067060e+002, 1.232570e+002
5.071881e+002, 1.208271e+002
5.076702e+002, 1.186165e+002
5.081523e+002, 1.173166e+002
5.086345e+002, 1.165036e+002
5.091166e+002, 1.154836e+002
5.095987e+002, 1.141487e+002
5.100808e+002, 1.127180e+002
5.105629e+002, 1.113352e+002
5.110450e+002, 1.100120e+002
5.115272e+002, 1.087972e+002
5.120093e+002, 1.077898e+002
5.124914e+002, 1.067505e+002
5.129735e+002, 1.054106e+002
5.134556e+002, 1.040755e+002
5.139377e+002, 1.032636e+002
5.144199e+002, 1.030701e+002
5.149020e+002, 1.029408e+002
5.153841e+002, 1.021414e+002
5.158662e+002, 1.005331e+002
5.163483e+002, 9.922346e+001
5.168304e+002, 9.834523e+001
5.173126e+002, 9.764413e+001
5.177947e+002, 9.720716e+001
5.182768e+002, 9.686256e+001
5.187589e+002, 9.633849e+001
5.192410e+002, 9.551701e+001
5.197231e+002, 9.464427e+001
5.202053e+002, 9.417545e+001
5.206874e+002, 9.416418e+001
5.211695e+002, 9.370021e+001
5.216516e+002, 9.207050e+001
5.221337e+002, 9.074487e+001
5.226158e+002, 9.114764e+001
5.230980e+002, 9.264751e+001
5.235801e+002, 9.340369e+001
5.240622e+002, 9.231887e+001
5.245443e+002, 9.065885e+001
5.250264e+002, 8.969174e+001
5.255085e+002, 8.932734e+001
5.259907e+002, 8.912305e+001
5.264728e+002, 8.898666e+001
5.269549e+002, 8.880183e+001
5.274370e+002, 8.834487e+001
5.279191e+002, 8.754681e+001
5.284012e+002, 8.691345e+001
5.288834e+002, 8.649830e+001
5.293655e+002, 8.625998e+001
5.298476e+002, 8.631158e+001
5.303297e+002, 8.652513e+001
5.308118e+002, 8.654269e+001
5.312939e+002, 8.615752e+001
5.317761e+002, 8.555064e+001
5.322582e+002, 8.518826e+001
5.327403e+002, 8.522521e+001
5.332224e+002, 8.522854e+001
5.337045e+002, 8.520770e+001
5.341866e+002, 8.514016e+001
5.346688e+002, 8.500754e+001
5.351509e+002, 8.481509e+001
5.356330e+002, 8.457485e+001
5.361151e+002, 8.427879e+001
5.365972e+002, 8.396120e+001
5.370793e+002, 8.370541e+001
5.375615e+002, 8.351245e+001
5.380436e+002, 8.338649e+001
5.385257e+002, 8.340254e+001
5.390078e+002, 8.343285e+001
5.394899e+002, 8.334994e+001
5.399720e+002, 8.315713e+001
5.404542e+002, 8.298428e+001
5.409363e+002, 8.285806e+001
5.414184e+002, 8.280823e+001
5.419005e+002, 8.304393e+001
5.423826e+002, 8.353207e+001
5.428647e+002, 8.356416e+001
5.433469e+002, 8.261543e+001
5.438290e+002, 8.113155e+001
5.443111e+002, 8.027621e+001
5.447932e+002, 8.024041e+001
5.452753e+002, 8.027342e+001
5.457574e+002, 8.034639e+001
5.462396e+002, 8.039238e+001
5.467217e+002, 8.031541e+001
5.472038e+002, 8.014303e+001
5.476859e+002, 8.000921e+001
5.481680e+002, 8.001089e+001
5.486501e+002, 8.011935e+001
5.491323e+002, 8.022999e+001
5.496144e+002, 8.052569e+001
5.500965e+002, 8.048542e+001
5.505786e+002, 7.966072e+001
5.510607e+002, 7.882597e+001
5.515428e+002, 7.861169e+001
5.520250e+002, 7.899181e+001
5.525071e+002, 7.944718e+001
5.529892e+002, 7.958491e+001
5.534713e+002, 7.952420e+001
5.539534e+002, 7.967507e+001
5.544355e+002, 8.011958e+001
5.549177e+002, 8.034537e+001
5.553998e+002, 8.002116e+001
5.558819e+002, 7.945798e+001
5.563640e+002, 7.905730e+001
5.568461e+002, 7.882768e+001
5.573282e+002, 7.873573e+001
5.578104e+002, 7.885100e+001
5.582925e+002, 7.904789e+001
5.587746e+002, 7.926547e+001
5.592567e+002, 7.946064e+001
5.597388e+002, 7.936767e+001
5.602209e+002, 7.875674e+001
5.607031e+002, 7.785361e+001
5.611852e+002, 7.737830e+001
5.616673e+002, 7.776305e+001
5.621494e+002, 7.797518e+001
5.626315e+002, 7.784596e+001
5.631136e+002, 7.766207e+001
5.635958e+002, 7.761442e+001
5.640779e+002, 7.771000e+001
5.645600e+002, 7.789596e+001
5.650421e+002, 7.816930e+001
5.655242e+002, 7.844535e+001
5.660063e+002, 7.837546e+001
5.664885e+002, 7.776535e+001
5.669706e+002, 7.737801e+001
5.674527e+002, 7.761894e+001
5.679348e+002, 7.797919e+001
5.684169e+002, 7.815627e+001
5.688990e+002, 7.813290e+001
5.693812e+002, 7.797672e+001
5.698633e+002, 7.758866e+001
5.703454e+002, 7.715909e+001
5.708275e+002, 7.702692e+001
5.713096e+002, 7.716927e+001
5.717917e+002, 7.720039e+001
5.722739e+002, 7.690562e+001
5.727560e+002, 7.649894e+001
5.732381e+002, 7.640377e+001
5.737202e+002, 7.674657e+001
5.742023e+002, 7.688238e+001
5.746844e+002, 7.652393e+001
5.751666e+002, 7.613879e+001
5.756487e+002, 7.606697e+001
5.761308e+002, 7.623994e+001
5.766129e+002, 7.643710e+001
5.770950e+002, 7.654790e+001
5.775771e+002, 7.657235e+001
5.780593e+002, 7.649718e+001
5.785414e+002, 7.627242e+001
5.790235e+002, 7.608377e+001
5.795056e+002, 7.591234e+001
5.799877e+002, 7.580547e+001
5.804698e+002, 7.584169e+001
5.809520e+002, 7.595747e+001
5.814341e+002, 7.600688e+001
5.819162e+002, 7.590756e+001
5.823983e+002, 7.574966e+001
5.828804e+002, 7.559786e+001
5.833625e+002, 7.546671e+001
5.838447e+002, 7.556497e+001
5.843268e+002, 7.603761e+001
5.848089e+002, 7.653124e+001
5.852910e+002, 7.665426e+001
5.857731e+002, 7.644016e+001
5.862552e+002, 7.622841e+001
5.867374e+002, 7.607411e+001
5.872195e+002, 7.590218e+001
5.877016e+002, 7.562430e+001
5.881837e+002, 7.531622e+001
5.886658e+002, 7.510065e+001
5.891479e+002, 7.501620e+001
5.896301e+002, 7.504020e+001
5.901122e+002, 7.515260e+001
5.905943e+002, 7.536032e+001
5.910764e+002, 7.559495e+001
5.915585e+002, 7.607732e+001
5.920406e+002, 7.631641e+001
5.925228e+002, 7.602896e+001
5.930049e+002, 7.551641e+001
5.934870e+002, 7.512768e+001
5.939691e+002, 7.495110e+001
5.944512e+002, 7.484449e+001
5.949333e+002, 7.464191e+001
5.954155e+002, 7.438832e+001
5.958976e+002, 7.429573e+001
5.963797e+002, 7.439802e+001
5.968618e+002, 7.457320e+001
5.973439e+002, 7.485707e+001
5.978260e+002, 7.511890e+001
5.983082e+002, 7.501470e+001
5.987903e+002, 7.428453e+001
5.992724e+002, 7.384663e+001
5.997545e+002, 7.434615e+001
6.002366e+002, 7.506751e+001
6.007188e+002, 7.513721e+001
6.012009e+002, 7.458872e+001
6.016830e+002, 7.413966e+001
6.021651e+002, 7.429969e+001
6.026472e+002, 7.486401e+001
6.031293e+002, 7.505581e+001
6.036115e+002, 7.457334e+001
6.040936e+002, 7.427093e+001
6.045757e+002, 7.438915e+001
6.050578e+002, 7.452477e+001
6.055399e+002, 7.436532e+001
6.060220e+002, 7.399549e+001
6.065042e+002, 7.374944e+001
6.069863e+002, 7.386658e+001
6.074684e+002, 7.412645e+001
6.079505e+002, 7.415173e+001
6.084326e+002, 7.394913e+001
6.089147e+002, 7.380228e+001
6.093969e+002, 7.382261e+001
6.098790e+002, 7.385173e+001
6.103611e+002, 7.367856e+001
6.108432e+002, 7.332445e+001
6.113253e+002, 7.307014e+001
6.118074e+002, 7.292198e+001
6.122896e+002, 7.290431e+001
6.127717e+002, 7.319209e+001
6.132538e+002, 7.357317e+001
6.137359e+002, 7.362752e+001
6.142180e+002, 7.325291e+001
6.147001e+002, 7.281356e+001
6.151823e+002, 7.276822e+001
6.156644e+002, 7.314642e+001
6.161465e+002, 7.329511e+001
6.166286e+002, 7.305383e+001
6.171107e+002, 7.279436e+001
6.175928e+002, 7.254861e+001
6.180750e+002, 7.236854e+001
6.185571e+002, 7.233887e+001
6.190392e+002, 7.246835e+001
6.195213e+002, 7.260346e+001
6.200034e+002, 7.266071e+001
6.204855e+002, 7.263350e+001
6.209677e+002, 7.244776e+001
6.214498e+002, 7.209318e+001
6.219319e+002, 7.184989e+001
6.224140e+002, 7.187267e+001
6.228961e+002, 7.207292e+001
6.233782e+002, 7.229599e+001
6.238604e+002, 7.260207e+001
6.243425e+002, 7.274342e+001
6.248246e+002, 7.262460e+001
6.253067e+002, 7.239213e+001
6.257888e+002, 7.205944e+001
6.262709e+002, 7.170031e+001
6.267531e+002, 7.145813e+001
6.272352e+002, 7.140607e+001
6.277173e+002, 7.146072e+001
6.281994e+002, 7.146300e+001
6.286815e+002, 7.138785e+001
6.291636e+002, 7.140384e+001
6.296458e+002, 7.161130e+001
6.301279e+002, 7.179124e+001
6.306100e+002, 7.182462e+001
6.310921e+002, 7.176256e+001
6.315742e+002, 7.169160e+001
6.320563e+002, 7.163010e+001
6.325385e+002, 7.157213e+001
6.330206e+002, 7.152133e+001
6.335027e+002, 7.146947e+001
6.339848e+002, 7.137177e+001
6.344669e+002, 7.122571e+001
6.349490e+002, 7.115726e+001
6.354312e+002, 7.127828e+001
6.359133e+002, 7.153864e+001
6.363954e+002, 7.170083e+001
6.368775e+002, 7.188245e+001
6.373596e+002, 7.178985e+001
6.378417e+002, 7.100394e+001
6.383239e+002, 7.027510e+001
6.388060e+002, 7.021188e+001
6.392881e+002, 7.070687e+001
6.397702e+002, 7.127476e+001
6.402523e+002, 7.165651e+001
6.407344e+002, 7.186738e+001
6.412166e+002, 7.189527e+001
6.416987e+002, 7.173185e+001
6.421808e+002, 7.156119e+001
6.426629e+002, 7.137423e+001
6.431450e+002, 7.126018e+001
6.436271e+002, 7.138595e+001
6.441093e+002, 7.167023e+001
6.445914e+002, 7.180341e+001
6.450735e+002, 7.151067e+001
6.455556e+002, 7.132504e+001
6.460377e+002, 7.169492e+001
6.465198e+002, 7.224128e+001
6.470020e+002, 7.237173e+001
6.474841e+002, 7.200558e+001
6.479662e+002, 7.151857e+001
6.484483e+002, 7.123299e+001
6.489304e+002, 7.112872e+001
6.494125e+002, 7.106001e+001
6.498947e+002, 7.106038e+001
6.503768e+002, 7.103368e+001
6.508589e+002, 7.096689e+001
6.513410e+002, 7.086626e+001
6.518231e+002, 7.064597e+001
6.523052e+002, 7.036745e+001
6.527874e+002, 7.030968e+001
6.532695e+002, 7.083104e+001
6.537516e+002, 7.143227e+001
6.542337e+002, 7.143549e+001
6.547158e+002, 7.095377e+001
6.551979e+002, 7.048514e+001
6.556801e+002, 7.015872e+001
6.561622e+002, 6.995600e+001
6.566443e+002, 6.986844e+001
6.571264e+002, 6.990137e+001
6.576085e+002, 6.995747e+001
6.580906e+002, 7.003706e+001
6.585728e+002, 7.013591e+001
6.590549e+002, 7.039364e+001
6.595370e+002, 7.058692e+001
6.600191e+002, 7.038023e+001
6.605012e+002, 6.979970e+001
6.609833e+002, 6.929977e+001
6.614655e+002, 6.931644e+001
6.619476e+002, 6.965969e+001
6.624297e+002, 6.971072e+001
6.629118e+002, 6.942766e+001
6.633939e+002, 6.918380e+001
6.638760e+002, 6.909834e+001
6.643582e+002, 6.909435e+001
6.648403e+002, 6.910392e+001
6.653224e+002, 6.912486e+001
6.658045e+002, 6.911132e+001
6.662866e+002, 6.902206e+001
6.667687e+002, 6.893210e+001
6.672509e+002, 6.891197e+001
6.677330e+002, 6.890993e+001
6.682151e+002, 6.879093e+001
6.686972e+002, 6.854195e+001
6.691793e+002, 6.837573e+001
6.696614e+002, 6.856340e+001
6.701436e+002, 6.906089e+001
6.706257e+002, 6.923402e+001
6.711078e+002, 6.900574e+001
6.715899e+002, 6.861291e+001
6.720720e+002, 6.763508e+001
6.725541e+002, 6.685863e+001
6.730363e+002, 6.720879e+001
6.735184e+002, 6.857755e+001
6.740005e+002, 6.950045e+001
6.744826e+002, 6.889145e+001
6.749647e+002, 6.792986e+001
6.754468e+002, 6.786576e+001
6.759290e+002, 6.843544e+001
6.764111e+002, 6.882825e+001
6.768932e+002, 6.879270e+001
6.773753e+002, 6.850878e+001
6.778574e+002, 6.814773e+001
6.783395e+002, 6.769904e+001
6.788217e+002, 6.744939e+001
6.793038e+002, 6.754404e+001
6.797859e+002, 6.766182e+001
6.802680e+002, 6.785190e+001
6.807501e+002, 6.797347e+001
6.812322e+002, 6.784151e+001
6.817144e+002, 6.747987e+001
6.821965e+002, 6.714755e+001
6.826786e+002, 6.701132e+001
6.831607e+002, 6.701079e+001
6.836428e+002, 6.709640e+001
6.841249e+002, 6.725148e+001
6.846071e+002, 6.730255e+001
6.850892e+002, 6.716457e+001
6.855713e+002, 6.703571e+001
6.860534e+002, 6.719401e+001
6.865355e+002, 6.767169e+001
6.870176e+002, 6.781282e+001
6.874998e+002, 6.714794e+001
6.879819e+002, 6.676563e+001
6.884640e+002, 6.728274e+001
6.889461e+002, 6.799680e+001
6.894282e+002, 6.813669e+001
6.899103e+002, 6.766305e+001
6.903925e+002, 6.712743e+001
6.908746e+002, 6.694312e+001
6.913567e+002, 6.699214e+001
6.918388e+002, 6.701376e+001
6.923209e+002, 6.700807e+001
6.928030e+002, 6.698597e+001
6.932852e+002, 6.696358e+001
6.937673e+002, 6.690003e+001
6.942494e+002, 6.671374e+001
6.947315e+002, 6.641933e+001
6.952136e+002, 6.624342e+001
6.956957e+002, 6.625621e+001
6.961779e+002, 6.631297e+001
6.966600e+002, 6.634309e+001
6.971421e+002, 6.640323e+001
6.976242e+002, 6.663873e+001
6.981063e+002, 6.700524e+001
6.985884e+002, 6.721939e+001
6.990706e+002, 6.703299e+001
6.995527e+002, 6.659667e+001
7.000348e+002, 6.633916e+001
7.005169e+002, 6.628324e+001
7.009990e+002, 6.626042e+001
7.014811e+002, 6.621947e+001
7.019633e+002, 6.622856e+001
7.024454e+002, 6.644747e+001
7.029275e+002, 6.677876e+001
7.034096e+002, 6.687650e+001
7.038917e+002, 6.650490e+001
7.043738e+002, 6.615496e+001
7.048560e+002, 6.598308e+001
7.053381e+002, 6.596920e+001
7.058202e+002, 6.617081e+001
7.063023e+002, 6.653103e+001
7.067844e+002, 6.682039e+001
7.072665e+002, 6.688081e+001
7.077487e+002, 6.676469e+001
7.082308e+002, 6.658482e+001
7.087129e+002, 6.630752e+001
7.091950e+002, 6.612649e+001
7.096771e+002, 6.609645e+001
7.101592e+002, 6.612637e+001
7.106414e+002, 6.620706e+001
7.111235e+002, 6.629626e+001
7.116056e+002, 6.629131e+001
7.120877e+002, 6.613001e+001
7.125698e+002, 6.598192e+001
7.130519e+002, 6.592245e+001
7.135341e+002, 6.592621e+001
7.140162e+002, 6.602741e+001
7.144983e+002, 6.617802e+001
7.149804e+002, 6.616074e+001
7.154625e+002, 6.583064e+001
7.159446e+002, 6.541502e+001
7.164268e+002, 6.546584e+001
7.169089e+002, 6.616314e+001
7.173910e+002, 6.650003e+001
7.178731e+002, 6.617024e+001
7.183552e+002, 6.586071e+001
7.188373e+002, 6.600553e+001
7.193195e+002, 6.632174e+001
7.198016e+002, 6.638667e+001
7.202837e+002, 6.610482e+001
7.207658e+002, 6.578260e+001
7.212479e+002, 6.550974e+001
7.217300e+002, 6.531007e+001
7.222122e+002, 6.522193e+001
7.226943e+002, 6.523161e+001
7.231764e+002, 6.531423e+001
7.236585e+002, 6.546088e+001
7.241406e+002, 6.558593e+001
7.246227e+002, 6.554372e+001
7.251049e+002, 6.531091e+001
7.255870e+002, 6.512554e+001
7.260691e+002, 6.496693e+001
7.265512e+002, 6.489269e+001
7.270333e+002, 6.497804e+001
7.275154e+002, 6.512003e+001
7.279976e+002, 6.523312e+001
7.284797e+002, 6.530754e+001
7.289618e+002, 6.532755e+001
7.294439e+002, 6.519444e+001
7.299260e+002, 6.508253e+001
7.304081e+002, 6.526606e+001
7.308903e+002, 6.558242e+001
7.313724e+002, 6.557746e+001
7.318545e+002, 6.513827e+001
7.323366e+002, 6.465877e+001
7.328187e+002, 6.457966e+001
7.333008e+002, 6.485410e+001
7.337830e+002, 6.489006e+001
7.342651e+002, 6.452856e+001
7.347472e+002, 6.427296e+001
7.352293e+002, 6.428654e+001
7.357114e+002, 6.440352e+001
7.361935e+002, 6.455875e+001
7.366757e+002, 6.472672e+001
7.371578e+002, 6.481929e+001
7.376399e+002, 6.473632e+001
7.381220e+002, 6.466628e+001
7.386041e+002, 6.482075e+001
7.390862e+002, 6.503543e+001
7.395684e+002, 6.497695e+001
7.400505e+002, 6.464597e+001
7.405326e+002, 6.440217e+001
7.410147e+002, 6.452391e+001
7.414968e+002, 6.486994e+001
7.419789e+002, 6.499298e+001
7.424611e+002, 6.481050e+001
7.429432e+002, 6.471039e+001
7.434253e+002, 6.477500e+001
7.439074e+002, 6.487023e+001
7.443895e+002, 6.493355e+001
7.448716e+002, 6.496987e+001
7.453538e+002, 6.499056e+001
7.458359e+002, 6.500396e+001
7.463180e+002, 6.498026e+001
7.468001e+002, 6.485112e+001
7.472822e+002, 6.471864e+001
7.477643e+002, 6.469187e+001
7.482465e+002, 6.475923e+001
7.487286e+002, 6.485936e+001
7.492107e+002, 6.496436e+001
7.496928e+002, 6.507475e+001
7.501749e+002, 6.518845e+001
7.506570e+002, 6.530475e+001
7.511392e+002, 6.546430e+001
7.516213e+002, 6.573264e+001
7.521034e+002, 6.589029e+001
7.525855e+002, 6.574759e+001
7.530676e+002, 6.551952e+001
7.535497e+002, 6.552490e+001
7.540319e+002, 6.577788e+001
7.545140e+002, 6.583134e+001
7.549961e+002, 6.531544e+001
7.554782e+002, 6.484435e+001
7.559603e+002, 6.488457e+001
7.564424e+002, 6.517376e+001
7.569246e+002, 6.529620e+001
7.574067e+002, 6.516882e+001
7.578888e+002, 6.496937e+001
7.583709e+002, 6.483076e+001
7.588530e+002, 6.475849e+001
7.593351e+002, 6.478888e+001
7.598173e+002, 6.493570e+001
7.602994e+002, 6.507747e+001
7.607815e+002, 6.522821e+001
7.612636e+002, 6.529374e+001
7.617457e+002, 6.512016e+001
7.622278e+002, 6.477951e+001
7.627100e+002, 6.462065e+001
7.631921e+002, 6.474033e+001
7.636742e+002, 6.490450e+001
7.641563e+002, 6.515878e+001
7.646384e+002, 6.535643e+001
7.651205e+002, 6.529829e+001
7.656027e+002, 6.508281e+001
7.660848e+002, 6.500766e+001
7.665669e+002, 6.521866e+001
7.670490e+002, 6.548792e+001
7.675311e+002, 6.552119e+001
7.680132e+002, 6.534695e+001
7.684954e+002, 6.507592e+001
7.689775e+002, 6.468832e+001
7.694596e+002, 6.444699e+001
7.699417e+002, 6.452807e+001
7.704238e+002, 6.475065e+001
7.709059e+002, 6.478036e+001
7.713881e+002, 6.452272e+001
7.718702e+002, 6.445745e+001
7.723523e+002, 6.476620e+001
7.728344e+002, 6.504340e+001
7.733165e+002, 6.516763e+001
7.737986e+002, 6.517583e+001
7.742808e+002, 6.506725e+001
7.747629e+002, 6.487339e+001
7.752450e+002, 6.473943e+001
7.757271e+002, 6.480440e+001
7.762092e+002, 6.494406e+001
7.766913e+002, 6.497490e+001
7.771735e+002, 6.491817e+001
7.776556e+002, 6.484629e+001
7.781377e+002, 6.477354e+001
7.786198e+002, 6.475605e+001
7.791019e+002, 6.487358e+001
7.795840e+002, 6.506458e+001
7.800662e+002, 6.499571e+001
7.805483e+002, 6.445212e+001
7.810304e+002, 6.405614e+001
7.815125e+002, 6.375161e+001
7.819946e+002, 6.369533e+001
7.824767e+002, 6.425771e+001
7.829589e+002, 6.505147e+001
7.834410e+002, 6.531934e+001
7.839231e+002, 6.480418e+001
7.844052e+002, 6.413994e+001
7.848873e+002, 6.350702e+001
7.853694e+002, 6.306661e+001
7.858516e+002, 6.318666e+001
7.863337e+002, 6.369858e+001
7.868158e+002, 6.398785e+001
7.872979e+002, 6.381128e+001
7.877800e+002, 6.348627e+001
7.882621e+002, 6.344904e+001
7.887443e+002, 6.368568e+001
7.892264e+002, 6.371376e+001
7.897085e+002, 6.343850e+001
7.901906e+002, 6.321249e+001
7.906727e+002, 6.307518e+001
7.911548e+002, 6.308966e+001
7.916370e+002, 6.345964e+001
7.921191e+002, 6.410130e+001
7.926012e+002, 6.439233e+001
7.930833e+002, 6.386438e+001
7.935654e+002, 6.344276e+001
7.940475e+002, 6.364463e+001
7.945297e+002, 6.400505e+001
7.950118e+002, 6.403512e+001
7.954939e+002, 6.375063e+001
7.959760e+002, 6.343305e+001
7.964581e+002, 6.323142e+001
7.969402e+002, 6.310638e+001
7.974224e+002, 6.302147e+001
7.979045e+002, 6.296691e+001
7.983866e+002, 6.284486e+001
7.988687e+002, 6.262616e+001
7.993508e+002, 6.254673e+001
7.998329e+002, 6.276091e+001
8.003151e+002, 6.313462e+001
8.007972e+002, 6.343923e+001
8.012793e+002, 6.370587e+001
8.017614e+002, 6.377657e+001
8.022435e+002, 6.350993e+001
8.027256e+002, 6.324122e+001
8.032078e+002, 6.304381e+001
8.036899e+002, 6.290799e+001
8.041720e+002, 6.284435e+001
8.046541e+002, 6.283714e+001
8.051362e+002, 6.280046e+001
8.056183e+002, 6.263709e+001
8.061005e+002, 6.248540e+001
8.065826e+002, 6.252660e+001
8.070647e+002, 6.268260e+001
8.075468e+002, 6.279935e+001
8.080289e+002, 6.284294e+001
8.085110e+002, 6.277888e+001
8.089932e+002, 6.256503e+001
8.094753e+002, 6.228598e+001
8.099574e+002, 6.217103e+001
8.104395e+002, 6.225167e+001
8.109216e+002, 6.236256e+001
8.114037e+002, 6.255192e+001
8.118859e+002, 6.267730e+001
8.123680e+002, 6.267592e+001
8.128501e+002, 6.256118e+001
8.133322e+002, 6.229726e+001
8.138143e+002, 6.183923e+001
8.142964e+002, 6.155739e+001
8.147786e+002, 6.167632e+001
8.152607e+002, 6.184383e+001
8.157428e+002, 6.178168e+001
8.162249e+002, 6.167437e+001
8.167070e+002, 6.189510e+001
8.171891e+002, 6.243299e+001
8.176713e+002, 6.280147e+001
8.181534e+002, 6.255236e+001
8.186355e+002, 6.202174e+001
8.191176e+002, 6.186084e+001
8.195997e+002, 6.203053e+001
8.200818e+002, 6.227729e+001
8.205640e+002, 6.258272e+001
8.210461e+002, 6.270521e+001
8.215282e+002, 6.241488e+001
8.220103e+002, 6.188267e+001
8.224924e+002, 6.164229e+001
8.229745e+002, 6.188869e+001
8.234567e+002, 6.198845e+001
8.239388e+002, 6.182832e+001
8.244209e+002, 6.165331e+001
8.249030e+002, 6.154294e+001
8.253851e+002, 6.147050e+001
8.258672e+002, 6.137828e+001
8.263494e+002, 6.126115e+001
8.268315e+002, 6.123513e+001
8.273136e+002, 6.144799e+001
8.277957e+002, 6.168612e+001
8.282778e+002, 6.182101e+001
8.287599e+002, 6.183338e+001
8.292421e+002, 6.161776e+001
8.297242e+002, 6.120551e+001
8.302063e+002, 6.088739e+001
8.306884e+002, 6.090299e+001
8.311705e+002, 6.110946e+001
8.316526e+002, 6.114272e+001
8.321348e+002, 6.099571e+001
8.326169e+002, 6.086838e+001
8.330990e+002, 6.075900e+001
8.335811e+002, 6.076283e+001
8.340632e+002, 6.101198e+001
8.345453e+002, 6.135406e+001
8.350275e+002, 6.144892e+001
8.355096e+002, 6.120929e+001
8.359917e+002, 6.096826e+001
8.364738e+002, 6.069063e+001
8.369559e+002, 6.045398e+001
8.374380e+002, 6.014432e+001
8.379202e+002, 5.997705e+001
8.384023e+002, 6.033334e+001
8.388844e+002, 6.115442e+001
8.393665e+002, 6.178990e+001
8.398486e+002, 6.185284e+001
8.403307e+002, 6.162893e+001
8.408129e+002, 6.124424e+001
8.412950e+002, 6.083754e+001
8.417771e+002, 6.077349e+001
8.422592e+002, 6.104307e+001
8.427413e+002, 6.121900e+001
8.432234e+002, 6.102213e+001
8.437056e+002, 6.063615e+001
8.441877e+002, 6.040969e+001
8.446698e+002, 6.034497e+001
8.451519e+002, 6.046001e+001
8.456340e+002, 6.086733e+001
8.461161e+002, 6.112702e+001
8.465983e+002, 6.097890e+001
8.470804e+002, 6.065918e+001
8.475625e+002, 6.046992e+001
8.480446e+002, 6.041040e+001
8.485267e+002, 6.047117e+001
8.490089e+002, 6.088116e+001
8.494910e+002, 6.111539e+001
8.499731e+002, 6.082470e+001
8.504552e+002, 6.045356e+001
8.509373e+002, 6.041105e+001
8.514194e+002, 6.066062e+001
8.519016e+002, 6.096554e+001
8.523837e+002, 6.127054e+001
8.528658e+002, 6.143294e+001
8.533479e+002, 6.122245e+001
8.538300e+002, 6.082874e+001
8.543121e+002, 6.052314e+001
8.547943e+002, 6.035089e+001
8.552764e+002, 6.044839e+001
8.557585e+002, 6.087860e+001
8.562406e+002, 6.129544e+001
8.567227e+002, 6.118636e+001
8.572048e+002, 6.061214e+001
8.576870e+002, 6.040205e+001
8.581691e+002, 6.065409e+001
8.586512e+002, 6.090357e+001
8.591333e+002, 6.110596e+001
8.596154e+002, 6.115755e+001
8.600975e+002, 6.087647e+001
8.605797e+002, 6.034451e+001
8.610618e+002, 6.002757e+001
8.615439e+002, 6.007579e+001
8.620260e+002, 6.008290e+001
8.625081e+002, 5.996772e+001
8.629902e+002, 5.983922e+001
8.634724e+002, 5.972819e+001
8.639545e+002, 5.966180e+001
8.644366e+002, 5.968188e+001
8.649187e+002, 5.979732e+001
8.654008e+002, 5.994555e+001
8.658829e+002, 6.023180e+001
8.663651e+002, 6.041298e+001
8.668472e+002, 6.003551e+001
8.673293e+002, 5.936051e+001
8.678114e+002, 5.904279e+001
8.682935e+002, 5.919886e+001
8.687756e+002, 5.948333e+001
8.692578e+002, 5.965039e+001
8.697399e+002, 5.970761e+001
8.702220e+002, 5.964835e+001
8.707041e+002, 5.946560e+001
8.711862e+002, 5.929894e+001
8.716683e+002, 5.914220e+001
8.721505e+002, 5.907808e+001
8.726326e+002, 5.920774e+001
8.731147e+002, 5.938742e+001
8.735968e+002, 5.936280e+001
8.740789e+002, 5.908575e+001
8.745610e+002, 5.886229e+001
8.750432e+002, 5.864341e+001
8.755253e+002, 5.854081e+001
8.760074e+002, 5.873475e+001
8.764895e+002, 5.893141e+001
8.769716e+002, 5.884228e+001
8.774537e+002, 5.852589e+001
8.779359e+002, 5.826574e+001
8.784180e+002, 5.816574e+001
8.789001e+002, 5.811390e+001
8.793822e+002, 5.805163e+001
8.798643e+002, 5.799321e+001
8.803464e+002, 5.799479e+001
8.808286e+002, 5.801091e+001
8.813107e+002, 5.789029e+001
8.817928e+002, 5.758963e+001
8.822749e+002, 5.728910e+001
8.827570e+002, 5.718501e+001
8.832391e+002, 5.723351e+001
8.837213e+002, 5.729338e+001
8.842034e+002, 5.736798e+001
8.846855e+002, 5.755200e+001
8.851676e+002, 5.789079e+001
8.856497e+002, 5.817874e+001
8.861318e+002, 5.827229e+001
8.866140e+002, 5.817403e+001
8.870961e+002, 5.784981e+001
8.875782e+002, 5.705867e+001
8.880603e+002, 5.667400e+001
8.885424e+002, 5.699811e+001
8.890245e+002, 5.731808e+001
8.895067e+002, 5.735626e+001
8.899888e+002, 5.723547e+001
8.904709e+002, 5.706032e+001
8.909530e+002, 5.683731e+001
8.914351e+002, 5.666638e+001
8.919172e+002, 5.663603e+001
8.923994e+002, 5.657532e+001
8.928815e+002, 5.628460e+001
8.933636e+002, 5.602927e+001
8.938457e+002, 5.617698e+001
8.943278e+002, 5.659491e+001
8.948099e+002, 5.683734e+001
8.952921e+002, 5.670826e+001
8.957742e+002, 5.642228e+001
8.962563e+002, 5.604049e+001
8.967384e+002, 5.571068e+001
8.972205e+002, 5.580403e+001
8.977026e+002, 5.620650e+001
8.981848e+002, 5.642821e+001
8.986669e+002, 5.631942e+001
8.991490e+002, 5.606641e+001
8.996311e+002, 5.582125e+001
9.001132e+002, 5.561497e+001
9.005953e+002, 5.559459e+001
9.010775e+002, 5.577999e+001
9.015596e+002, 5.593827e+001
9.020417e+002, 5.606511e+001
9.025238e+002, 5.605894e+001
9.030059e+002, 5.580184e+001
9.034880e+002, 5.543025e+001
9.039702e+002, 5.522058e+001
9.044523e+002, 5.519904e+001
9.049344e+002, 5.523600e+001
9.054165e+002, 5.540668e+001
9.058986e+002, 5.553737e+001
9.063807e+002, 5.562636e+001
9.068629e+002, 5.563143e+001
9.073450e+002, 5.547282e+001
9.078271e+002, 5.519148e+001
9.083092e+002, 5.496195e+001
9.087913e+002, 5.488514e+001
9.092734e+002, 5.474499e+001
9.097556e+002, 5.429497e+001
9.102377e+002, 5.386922e+001
9.107198e+002, 5.371362e+001
9.112019e+002, 5.383086e+001
9.116840e+002, 5.431021e+001
9.121661e+002, 5.511651e+001
9.126483e+002, 5.571606e+001
9.131304e+002, 5.556936e+001
9.136125e+002, 5.503102e+001
9.140946e+002, 5.457081e+001
9.145767e+002, 5.421261e+001
9.150588e+002, 5.406316e+001
9.155410e+002, 5.412646e+001
9.160231e+002, 5.427881e+001
9.165052e+002, 5.445287e+001
9.169873e+002, 5.461052e+001
9.174694e+002, 5.467727e+001
9.179515e+002, 5.465100e+001
9.184337e+002, 5.457414e+001
9.189158e+002, 5.442369e+001
9.193979e+002, 5.432289e+001
9.198800e+002, 5.429762e+001
9.203621e+002, 5.438225e+001
9.208442e+002, 5.470061e+001
9.213264e+002, 5.519665e+001
9.218085e+002, 5.525737e+001
9.222906e+002, 5.442423e+001
9.227727e+002, 5.390667e+001
9.232548e+002, 5.405635e+001
9.237369e+002, 5.419255e+001
9.242191e+002, 5.390477e+001
9.247012e+002, 5.344446e+001
9.251833e+002, 5.318813e+001
9.256654e+002, 5.318133e+001
9.261475e+002, 5.329366e+001
9.266296e+002, 5.372793e+001
9.271118e+002, 5.398783e+001
9.275939e+002, 5.360247e+001
9.280760e+002, 5.306721e+001
9.285581e+002, 5.296582e+001
9.290402e+002, 5.323992e+001
9.295223e+002, 5.346204e+001
9.300045e+002, 5.343919e+001
9.304866e+002, 5.335886e+001
9.309687e+002, 5.339349e+001
9.314508e+002, 5.347857e+001
9.319329e+002, 5.356151e+001
9.324150e+002, 5.360290e+001
9.328972e+002, 5.342888e+001
9.333793e+002, 5.302633e+001
9.338614e+002, 5.273921e+001
9.343435e+002, 5.289838e+001
9.348256e+002, 5.331088e+001
9.353077e+002, 5.352000e+001
9.357899e+002, 5.353413e+001
9.362720e+002, 5.343915e+001
9.367541e+002, 5.322906e+001
9.372362e+002, 5.311262e+001
9.377183e+002, 5.322330e+001
9.382004e+002, 5.337941e+001
9.386826e+002, 5.328090e+001
9.391647e+002, 5.291778e+001
9.396468e+002, 5.278169e+001
9.401289e+002, 5.297730e+001
9.406110e+002, 5.314418e+001
9.410931e+002, 5.318673e+001
9.415753e+002, 5.322285e+001
9.420574e+002, 5.342095e+001
9.425395e+002, 5.365888e+001
9.430216e+002, 5.358314e+001
9.435037e+002, 5.304736e+001
9.439858e+002, 5.264648e+001
9.444680e+002, 5.245461e+001
9.449501e+002, 5.237254e+001
9.454322e+002, 5.243180e+001
9.459143e+002, 5.253331e+001
9.463964e+002, 5.250092e+001
9.468785e+002, 5.239939e+001
9.473607e+002, 5.259569e+001
9.478428e+002, 5.348594e+001
9.483249e+002, 5.409986e+001
9.488070e+002, 5.363203e+001
9.492891e+002, 5.289044e+001
9.497712e+002, 5.261229e+001
9.502534e+002, 5.266858e+001
9.507355e+002, 5.268932e+001
9.512176e+002, 5.257976e+001
9.516997e+002, 5.250519e+001
9.521818e+002, 5.261256e+001
9.526639e+002, 5.279306e+001
9.531461e+002, 5.300455e+001
9.536282e+002, 5.314521e+001
9.541103e+002, 5.281827e+001
9.545924e+002, 5.210382e+001
9.550745e+002, 5.172713e+001
9.555566e+002, 5.205283e+001
9.560388e+002, 5.256139e+001
9.565209e+002, 5.251068e+001
9.570030e+002, 5.202975e+001
9.574851e+002, 5.176812e+001
9.579672e+002, 5.172411e+001
9.584493e+002, 5.174862e+001
9.589315e+002, 5.180709e+001
9.594136e+002, 5.195868e+001
9.598957e+002, 5.228399e+001
9.603778e+002, 5.266062e+001
9.608599e+002, 5.274524e+001
9.613420e+002, 5.245520e+001
9.618242e+002, 5.230294e+001
9.623063e+002, 5.235217e+001
9.627884e+002, 5.238967e+001
9.632705e+002, 5.238873e+001
9.637526e+002, 5.228556e+001
9.642347e+002, 5.188602e+001
9.647169e+002, 5.128482e+001
9.651990e+002, 5.118029e+001
9.656811e+002, 5.213573e+001
9.661632e+002, 5.272527e+001
9.666453e+002, 5.276324e+001
9.671274e+002, 5.264609e+001
9.676096e+002, 5.246584e+001
9.680917e+002, 5.226723e+001
9.685738e+002, 5.202071e+001
9.690559e+002, 5.174847e+001
9.695380e+002, 5.178454e+001
9.700201e+002, 5.266652e+001
9.705023e+002, 5.325964e+001
9.709844e+002, 5.292242e+001
9.714665e+002, 5.235923e+001
9.719486e+002, 5.202373e+001
9.724307e+002, 5.194586e+001
9.729128e+002, 5.210321e+001
9.733950e+002, 5.248375e+001
9.738771e+002, 5.289128e+001
9.743592e+002, 5.342321e+001
9.748413e+002, 5.372081e+001
9.753234e+002, 5.320931e+001
9.758055e+002, 5.240603e+001
9.762877e+002, 5.210075e+001
9.767698e+002, 5.228294e+001
9.772519e+002, 5.249720e+001
9.777340e+002, 5.253232e+001
9.782161e+002, 5.251072e+001
9.786982e+002, 5.257251e+001
9.791804e+002, 5.266355e+001
9.796625e+002, 5.262499e+001
9.801446e+002, 5.252374e+001
9.806267e+002, 5.261956e+001
9.811088e+002, 5.294893e+001
9.815909e+002, 5.334430e+001
9.820731e+002, 5.371746e+001
9.825552e+002, 5.393013e+001
9.830373e+002, 5.357957e+001
9.835194e+002, 5.278791e+001
9.840015e+002, 5.250631e+001
9.844836e+002, 5.276012e+001
9.849658e+002, 5.294438e+001
9.854479e+002, 5.285755e+001
9.859300e+002, 5.276707e+001
9.864121e+002, 5.293694e+001
9.868942e+002, 5.327153e+001
9.873763e+002, 5.339748e+001
9.878585e+002, 5.326284e+001
9.883406e+002, 5.329598e+001
9.888227e+002, 5.360845e+001
9.893048e+002, 5.377044e+001
9.897869e+002, 5.356633e+001
9.902690e+002, 5.319414e+001
9.907512e+002, 5.281763e+001
9.912333e+002, 5.246595e+001
9.917154e+002, 5.255864e+001
9.921975e+002, 5.351458e+001
9.926796e+002, 5.401097e+001
9.931617e+002, 5.360052e+001
9.936439e+002, 5.321861e+001
9.941260e+002, 5.341922e+001
9.946081e+002, 5.383561e+001
9.950902e+002, 5.392355e+001
9.955723e+002, 5.367034e+001
9.960544e+002, 5.348856e+001
9.965366e+002, 5.340879e+001
9.970187e+002, 5.337905e+001
9.975008e+002, 5.341839e+001
9.979829e+002, 5.347797e+001
9.984650e+002, 5.350444e+001
9.989471e+002, 5.354080e+001
9.994293e+002, 5.369979e+001
9.999114e+002, 5.400730e+001
1.000393e+003, 5.417828e+001
1.000876e+003, 5.405672e+001
1.001358e+003, 5.388145e+001
1.001840e+003, 5.370530e+001
1.002322e+003, 5.355804e+001
1.002804e+003, 5.347536e+001
1.003286e+003, 5.343831e+001
1.003768e+003, 5.342251e+001
1.004250e+003, 5.342748e+001
1.004733e+003, 5.334004e+001
1.005215e+003, 5.297617e+001
1.005697e+003, 5.263066e+001
1.006179e+003, 5.248396e+001
1.006661e+003, 5.251476e+001
1.007143e+003, 5.280052e+001
1.007625e+003, 5.322658e+001
1.008107e+003, 5.346633e+001
1.008589e+003, 5.337334e+001
1.009072e+003, 5.319898e+001
1.009554e+003, 5.312624e+001
1.010036e+003, 5.311015e+001
1.010518e+003, 5.308253e+001
1.011000e+003, 5.307509e+001
1.011482e+003, 5.320282e+001
1.011964e+003, 5.343605e+001
1.012446e+003, 5.356466e+001
1.012929e+003, 5.346859e+001
1.013411e+003, 5.328446e+001
1.013893e+003, 5.317889e+001
1.014375e+003, 5.310288e+001
1.014857e+003, 5.294638e+001
1.015339e+003, 5.272922e+001
1.015821e+003, 5.245948e+001
1.016303e+003, 5.217658e+001
1.016785e+003, 5.216923e+001
1.017268e+003, 5.267306e+001
1.017750e+003, 5.331197e+001
1.018232e+003, 5.338284e+001
1.018714e+003, 5.305987e+001
1.019196e+003, 5.316512e+001
1.019678e+003, 5.364787e+001
1.020160e+003, 5.377650e+001
1.020642e+003, 5.335260e+001
1.021125e+003, 5.289857e+001
1.021607e+003, 5.283376e+001
1.022089e+003, 5.301118e+001
1.022571e+003, 5.313885e+001
1.023053e+003, 5.321270e+001
1.023535e+003, 5.311213e+001
1.024017e+003, 5.282592e+001
1.024499e+003, 5.253159e+001
1.024981e+003, 5.227629e+001
1.025464e+003, 5.208134e+001
1.025946e+003, 5.196081e+001
1.026428e+003, 5.192707e+001
1.026910e+003, 5.205580e+001
1.027392e+003, 5.237885e+001
1.027874e+003, 5.254180e+001
1.028356e+003, 5.249957e+001
1.028838e+003, 5.245856e+001
1.029321e+003, 5.249009e+001
1.029803e+003, 5.254911e+001
1.030285e+003, 5.260431e+001
1.030767e+003, 5.264183e+001
1.031249e+003, 5.259072e+001
1.031731e+003, 5.241418e+001
1.032213e+003, 5.229913e+001
1.032695e+003, 5.230065e+001
1.033177e+003, 5.221438e+001
1.033660e+003, 5.186924e+001
1.034142e+003, 5.157214e+001
1.034624e+003, 5.169453e+001
1.035106e+003, 5.214821e+001
1.035588e+003, 5.236907e+001
1.036070e+003, 5.221189e+001
1.036552e+003, 5.217694e+001
1.037034e+003, 5.236379e+001
1.037516e+003, 5.252079e+001
1.037999e+003, 5.259102e+001
1.038481e+003, 5.254747e+001
1.038963e+003, 5.228206e+001
1.039445e+003, 5.184886e+001
1.039927e+003, 5.167311e+001
1.040409e+003, 5.203151e+001
1.040891e+003, 5.215647e+001
1.041373e+003, 5.179932e+001
1.041855e+003, 5.152242e+001
1.042338e+003, 5.159216e+001
1.042820e+003, 5.179710e+001
1.043302e+003, 5.192017e+001
1.043784e+003, 5.197755e+001
1.044266e+003, 5.210673e+001
1.044748e+003, 5.249916e+001
1.045230e+003, 5.264667e+001
1.045712e+003, 5.232673e+001
1.046195e+003, 5.199390e+001
1.046677e+003, 5.178438e+001
1.047159e+003, 5.168187e+001
1.047641e+003, 5.169981e+001
1.048123e+003, 5.181576e+001
1.048605e+003, 5.189603e+001
1.049087e+003, 5.195156e+001
1.049569e+003, 5.192486e+001
1.050052e+003, 5.179020e+001
1.050534e+003, 5.159201e+001
1.051016e+003, 5.110409e+001
1.051498e+003, 5.073500e+001
1.051980e+003, 5.114958e+001
1.052462e+003, 5.217854e+001
1.052944e+003, 5.267399e+001
1.053426e+003, 5.206091e+001
1.053908e+003, 5.166816e+001
1.054391e+003, 5.211760e+001
1.054873e+003, 5.248228e+001
1.055355e+003, 5.207050e+001
1.055837e+003, 5.147692e+001
1.056319e+003, 5.152051e+001
1.056801e+003, 5.208519e+001
1.057283e+003, 5.225863e+001
1.057765e+003, 5.162590e+001
1.058248e+003, 5.107370e+001
1.058730e+003, 5.084056e+001
1.059212e+003, 5.077665e+001
1.059694e+003, 5.079249e+001
1.060176e+003, 5.093609e+001
1.060658e+003, 5.139738e+001
1.061140e+003, 5.206163e+001
1.061622e+003, 5.243766e+001
1.062104e+003, 5.231887e+001
1.062587e+003, 5.211543e+001
1.063069e+003, 5.180419e+001
1.063551e+003, 5.164299e+001
1.064033e+003, 5.197670e+001
1.064515e+003, 5.240620e+001
1.064997e+003, 5.243990e+001
1.065479e+003, 5.212910e+001
1.065961e+003, 5.184454e+001
1.066443e+003, 5.167454e+001
1.066926e+003, 5.160278e+001
1.067408e+003, 5.168449e+001
1.067890e+003, 5.179150e+001
1.068372e+003, 5.182891e+001
1.068854e+003, 5.186327e+001
1.069336e+003, 5.198086e+001
1.069818e+003, 5.216866e+001
1.070300e+003, 5.236547e+001
1.070782e+003, 5.256625e+001
1.071265e+003, 5.271663e+001
1.071747e+003, 5.280286e+001
1.072229e+003, 5.282118e+001
1.072711e+003, 5.266103e+001
1.073193e+003, 5.251429e+001
1.073675e+003, 5.270214e+001
1.074157e+003, 5.307564e+001
1.074639e+003, 5.313353e+001
1.075122e+003, 5.268603e+001
1.075604e+003, 5.232000e+001
1.076086e+003, 5.237124e+001
1.076568e+003, 5.250116e+001
1.077050e+003, 5.244017e+001
1.077532e+003, 5.241466e+001
1.078014e+003, 5.275700e+001
1.078496e+003, 5.332241e+001
1.078979e+003, 5.372425e+001
1.079461e+003, 5.386417e+001
1.079943e+003, 5.384135e+001
1.080425e+003, 5.353234e+001
1.080907e+003, 5.327764e+001
1.081389e+003, 5.336615e+001
1.081871e+003, 5.351163e+001
1.082353e+003, 5.337054e+001
1.082835e+003, 5.308572e+001
1.083318e+003, 5.301252e+001
1.083800e+003, 5.322949e+001
1.084282e+003, 5.349965e+001
1.084764e+003, 5.380566e+001
1.085246e+003, 5.403240e+001
1.085728e+003, 5.412610e+001
1.086210e+003, 5.411308e+001
1.086692e+003, 5.389510e+001
1.087175e+003, 5.363838e+001
1.087657e+003, 5.366428e+001
1.088139e+003, 5.400920e+001
1.088621e+003, 5.431285e+001
1.089103e+003, 5.438005e+001
1.089585e+003, 5.445060e+001
1.090067e+003, 5.468256e+001
1.090549e+003, 5.490241e+001
1.091031e+003, 5.501052e+001
1.091514e+003, 5.499829e+001
1.091996e+003, 5.477909e+001
1.092478e+003, 5.439901e+001
1.092960e+003, 5.423948e+001
1.093442e+003, 5.456252e+001
1.093924e+003, 5.487024e+001
1.094406e+003, 5.496883e+001
1.094888e+003, 5.500353e+001
1.095370e+003, 5.514661e+001
1.095853e+003, 5.523331e+001
1.096335e+003, 5.488855e+001
1.096817e+003, 5.423905e+001
1.097299e+003, 5.406196e+001
1.097781e+003, 5.483918e+001
1.098263e+003, 5.538493e+001
1.098745e+003, 5.504276e+001
1.099227e+003, 5.470895e+001
1.099709e+003, 5.496242e+001
1.100192e+003, 5.538143e+001
1.100674e+003, 5.555859e+001
1.101156e+003, 5.548046e+001
1.101638e+003, 5.521985e+001
1.102120e+003, 5.471427e+001
1.102602e+003, 5.431724e+001
1.103084e+003, 5.416082e+001
1.103566e+003, 5.406575e+001
1.104049e+003, 5.386074e+001
1.104531e+003, 5.377513e+001
1.105013e+003, 5.418617e+001
1.105495e+003, 5.482777e+001
1.105977e+003, 5.500211e+001
1.106459e+003, 5.452475e+001
1.106941e+003, 5.428617e+001
1.107423e+003, 5.470647e+001
1.107906e+003, 5.500205e+001
1.108388e+003, 5.491442e+001
1.108870e+003, 5.469155e+001
1.109352e+003, 5.440057e+001
1.109834e+003, 5.412883e+001
1.110316e+003, 5.402066e+001
1.110798e+003, 5.408839e+001
1.111280e+003, 5.420303e+001
1.111762e+003, 5.456972e+001
1.112245e+003, 5.465937e+001
1.112727e+003, 5.407278e+001
1.113209e+003, 5.358077e+001
1.113691e+003, 5.361588e+001
1.114173e+003, 5.391573e+001
1.114655e+003, 5.421107e+001
1.115137e+003, 5.448973e+001
1.115619e+003, 5.461719e+001
1.116102e+003, 5.458070e+001
1.116584e+003, 5.440581e+001
1.117066e+003, 5.389886e+001
1.117548e+003, 5.354364e+001
1.118030e+003, 5.358943e+001
1.118512e+003, 5.376136e+001
1.118994e+003, 5.375428e+001
1.119476e+003, 5.366199e+001
1.119958e+003, 5.391508e+001
1.120441e+003, 5.482460e+001
1.120923e+003, 5.503783e+001
1.121405e+003, 5.413655e+001
1.121887e+003, 5.346326e+001
1.122369e+003, 5.342576e+001
1.122851e+003, 5.359393e+001
1.123333e+003, 5.371820e+001
1.123815e+003, 5.375924e+001
1.124297e+003, 5.359700e+001
1.124780e+003, 5.319967e+001
1.125262e+003, 5.303959e+001
1.125744e+003, 5.320299e+001
1.126226e+003, 5.326640e+001
1.126708e+003, 5.310089e+001
1.127190e+003, 5.303445e+001
1.127672e+003, 5.328557e+001
1.128154e+003, 5.364079e+001
1.128636e+003, 5.380027e+001
1.129119e+003, 5.377347e+001
1.129601e+003, 5.361407e+001
1.130083e+003, 5.330268e+001
1.130565e+003, 5.304557e+001
1.131047e+003, 5.285626e+001
1.131529e+003, 5.281042e+001
1.132011e+003, 5.295599e+001
1.132493e+003, 5.313869e+001
1.132976e+003, 5.321318e+001
1.133458e+003, 5.318251e+001
1.133940e+003, 5.300950e+001
1.134422e+003, 5.271502e+001
1.134904e+003, 5.260527e+001
1.135386e+003, 5.268125e+001
1.135868e+003, 5.260456e+001
1.136350e+003, 5.229194e+001
1.136833e+003, 5.224343e+001
1.137315e+003, 5.285804e+001
1.137797e+003, 5.364126e+001
1.138279e+003, 5.374988e+001
1.138761e+003, 5.333912e+001
1.139243e+003, 5.284019e+001
1.139725e+003, 5.230659e+001
1.140207e+003, 5.194801e+001
1.140689e+003, 5.178740e+001
1.141172e+003, 5.174483e+001
1.141654e+003, 5.177958e+001
1.142136e+003, 5.179242e+001
1.142618e+003, 5.162543e+001
1.143100e+003, 5.142797e+001
1.143582e+003, 5.150122e+001
1.144064e+003, 5.171557e+001
1.144546e+003, 5.183235e+001
1.145029e+003, 5.182853e+001
1.145511e+003, 5.168606e+001
1.145993e+003, 5.142906e+001
1.146475e+003, 5.126062e+001
1.146957e+003, 5.134424e+001
1.147439e+003, 5.150377e+001
1.147921e+003, 5.169837e+001
1.148403e+003, 5.175994e+001
1.148885e+003, 5.129015e+001
1.149368e+003, 5.062992e+001
1.149850e+003, 5.047646e+001
1.150332e+003, 5.078273e+001
1.150814e+003, 5.081631e+001
1.151296e+003, 5.019190e+001
1.151778e+003, 4.979809e+001
1.152260e+003, 5.058717e+001
1.152742e+003, 5.130315e+001
1.153224e+003, 5.080529e+001
1.153707e+003, 5.002636e+001
1.154189e+003, 5.001363e+001
1.154671e+003, 5.055783e+001
1.155153e+003, 5.101625e+001
1.155635e+003, 5.126184e+001
1.156117e+003, 5.130814e+001
1.156599e+003, 5.114726e+001
1.157081e+003, 5.080587e+001
1.157563e+003, 4.993066e+001
1.158046e+003, 4.927247e+001
1.158528e+003, 4.957970e+001
1.159010e+003, 5.020429e+001
1.159492e+003, 5.020858e+001
1.159974e+003, 4.964003e+001
1.160456e+003, 4.933442e+001
1.160938e+003, 4.948165e+001
1.161420e+003, 4.965244e+001
1.161903e+003, 4.987463e+001
1.162385e+003, 5.005593e+001
1.162867e+003, 5.019790e+001
1.163349e+003, 5.025906e+001
1.163831e+003, 5.020867e+001
1.164313e+003, 5.004946e+001
1.164795e+003, 4.974508e+001
1.165277e+003, 4.923497e+001
1.165760e+003, 4.911518e+001
1.166242e+003, 4.953785e+001
1.166724e+003, 4.987512e+001
1.167206e+003, 5.004439e+001
1.167688e+003, 5.005692e+001
1.168170e+003, 4.987275e+001
1.168652e+003, 4.966359e+001
1.169134e+003, 4.966532e+001
1.169616e+003, 4.981953e+001
1.170099e+003, 4.982483e+001
1.170581e+003, 4.967810e+001
1.171063e+003, 4.969458e+001
1.171545e+003, 4.989513e+001
1.172027e+003, 4.998454e+001
1.172509e+003, 4.987154e+001
1.172991e+003, 4.974884e+001
1.173473e+003, 4.976452e+001
1.173956e+003, 4.984729e+001
1.174438e+003, 4.991091e+001
1.174920e+003, 4.993133e+001
1.175402e+003, 4.981441e+001
1.175884e+003, 4.958457e+001
1.176366e+003, 4.927461e+001
1.176848e+003, 4.893402e+001
1.177330e+003, 4.876194e+001
1.177813e+003, 4.883893e+001
1.178295e+003, 4.901416e+001
1.178777e+003, 4.923704e+001
1.179259e+003, 4.936497e+001
1.179741e+003, 4.909098e+001
1.180223e+003, 4.870170e+001
1.180705e+003, 4.861143e+001
1.181187e+003, 4.874491e+001
1.181669e+003, 4.896091e+001
1.182151e+003, 4.916730e+001
1.182634e+003, 4.910797e+001
1.183116e+003, 4.855244e+001
1.183598e+003, 4.815142e+001
1.184080e+003, 4.844227e+001
1.184562e+003, 4.883539e+001
1.185044e+003, 4.899906e+001
1.185526e+003, 4.901117e+001
1.186008e+003, 4.884900e+001
1.186490e+003, 4.865045e+001
1.186973e+003, 4.877446e+001
1.187455e+003, 4.931067e+001
1.187937e+003, 4.956126e+001
1.188419e+003, 4.914336e+001
1.188901e+003, 4.879752e+001
1.189383e+003, 4.864397e+001
1.189865e+003, 4.862006e+001
1.190347e+003, 4.872011e+001
1.190830e+003, 4.891843e+001
1.191312e+003, 4.927827e+001
1.191794e+003, 4.971871e+001
1.192276e+003, 4.981697e+001
1.192758e+003, 4.940991e+001
1.193240e+003, 4.923910e+001
1.193722e+003, 4.943111e+001
1.194204e+003, 4.946034e+001
1.194687e+003, 4.914146e+001
1.195169e+003, 4.884797e+001
1.195651e+003, 4.881745e+001
1.196133e+003, 4.894083e+001
1.196615e+003, 4.904492e+001
1.197097e+003, 4.914437e+001
1.197579e+003, 4.935340e+001
1.198061e+003, 4.966459e+001
1.198543e+003, 4.994415e+001
1.199026e+003, 5.016973e+001
1.199508e+003, 5.016286e+001
1.199990e+003, 4.987677e+001
1.200472e+003, 4.962398e+001
1.200954e+003, 4.967347e+001
1.201436e+003, 4.979223e+001
1.201918e+003, 4.949901e+001
1.202400e+003, 4.909489e+001
1.202883e+003, 4.928596e+001
1.203365e+003, 4.982980e+001
1.203847e+003, 5.018078e+001
1.204329e+003, 5.027328e+001
1.204811e+003, 5.020689e+001
1.205293e+003, 5.002815e+001
1.205775e+003, 4.991983e+001
1.206257e+003, 5.004341e+001
1.206740e+003, 5.023116e+001
1.207222e+003, 5.042367e+001
1.207704e+003, 5.056550e+001
1.208186e+003, 5.053180e+001
1.208668e+003, 5.045849e+001
1.209150e+003, 5.056403e+001
1.209632e+003, 5.083467e+001
1.210114e+003, 5.110217e+001
1.210596e+003, 5.139931e+001
1.211078e+003, 5.145687e+001
1.211561e+003, 5.084417e+001
1.212043e+003, 5.050670e+001
1.212525e+003, 5.102495e+001
1.213007e+003, 5.158580e+001
1.213489e+003, 5.158925e+001
1.213971e+003, 5.137407e+001
1.214453e+003, 5.150290e+001
1.214935e+003, 5.194335e+001
1.215417e+003, 5.208195e+001
1.215900e+003, 5.180387e+001
1.216382e+003, 5.165245e+001
1.216864e+003, 5.165987e+001
1.217346e+003, 5.182016e+001
1.217828e+003, 5.218412e+001
1.218310e+003, 5.238792e+001
1.218792e+003, 5.210810e+001
1.219274e+003, 5.168843e+001
1.219757e+003, 5.182909e+001
1.220239e+003, 5.237628e+001
1.220721e+003, 5.255753e+001
1.221203e+003, 5.245568e+001
1.221685e+003, 5.252070e+001
1.222167e+003, 5.275352e+001
1.222649e+003, 5.277793e+001
1.223131e+003, 5.248687e+001
1.223614e+003, 5.223520e+001
1.224096e+003, 5.228994e+001
1.224578e+003, 5.250301e+001
1.225060e+003, 5.276384e+001
1.225542e+003, 5.304431e+001
1.226024e+003, 5.340856e+001
1.226506e+003, 5.370684e+001
1.226988e+003, 5.367308e+001
1.227470e+003, 5.336757e+001
1.227953e+003, 5.299775e+001
1.228435e+003, 5.261341e+001
1.228917e+003, 5.242888e+001
1.229399e+003, 5.273357e+001
1.229881e+003, 5.295347e+001
1.230363e+003, 5.287392e+001
1.230845e+003, 5.268721e+001
1.231327e+003, 5.243109e+001
1.231810e+003, 5.218538e+001
1.232292e+003, 5.199466e+001
1.232774e+003, 5.189037e+001
1.233256e+003, 5.204664e+001
1.233738e+003, 5.262716e+001
1.234220e+003, 5.272630e+001
1.234702e+003, 5.216221e+001
1.235184e+003, 5.168803e+001
1.235667e+003, 5.141221e+001
1.236149e+003, 5.139298e+001
1.236631e+003, 5.171928e+001
1.237113e+003, 5.203747e+001
1.237595e+003, 5.188411e+001
1.238077e+003, 5.146566e+001
1.238559e+003, 5.141345e+001
1.239041e+003, 5.165908e+001
1.239523e+003, 5.192841e+001
1.240005e+003, 5.216089e+001
1.240488e+003, 5.207762e+001
1.240970e+003, 5.168949e+001
1.241452e+003, 5.141298e+001
1.241934e+003, 5.145315e+001
1.242416e+003, 5.155556e+001
1.242898e+003, 5.152452e+001
1.243380e+003, 5.139756e+001
1.243862e+003, 5.112855e+001
1.244344e+003, 5.085571e+001
1.244827e+003, 5.069511e+001
1.245309e+003, 5.066576e+001
1.245791e+003, 5.078928e+001
1.246273e+003, 5.105324e+001
1.246755e+003, 5.142964e+001
1.247237e+003, 5.201905e+001
1.247719e+003, 5.234480e+001
1.248201e+003, 5.208755e+001
1.248684e+003, 5.185359e+001
1.249166e+003, 5.196952e+001
1.249648e+003, 5.197325e+001
1.250130e+003, 5.144261e+001
1.250612e+003, 5.081815e+001
1.251094e+003, 5.070770e+001
1.251576e+003, 5.103525e+001
1.252058e+003, 5.133720e+001
1.252541e+003, 5.163602e+001
1.253023e+003, 5.171345e+001
1.253505e+003, 5.154180e+001
1.253987e+003, 5.142511e+001
1.254469e+003, 5.143494e+001
1.254951e+003, 5.145015e+001
1.255433e+003, 5.140090e+001
1.255915e+003, 5.132189e+001
1.256397e+003, 5.122076e+001
1.256880e+003, 5.116673e+001
1.257362e+003, 5.136100e+001
1.257844e+003, 5.166731e+001
1.258326e+003, 5.189714e+001
1.258808e+003, 5.197637e+001
1.259290e+003, 5.168267e+001
1.259772e+003, 5.109874e+001
1.260254e+003, 5.070135e+001
1.260737e+003, 5.069044e+001
1.261219e+003, 5.083117e+001
1.261701e+003, 5.109131e+001
1.262183e+003, 5.134985e+001
1.262665e+003, 5.158967e+001
1.263147e+003, 5.176405e+001
1.263629e+003, 5.185416e+001
1.264111e+003, 5.184991e+001
1.264594e+003, 5.172925e+001
1.265076e+003, 5.149931e+001
1.265558e+003, 5.117346e+001
1.266040e+003, 5.061622e+001
1.266522e+003, 5.050665e+001
1.267004e+003, 5.104565e+001
1.267486e+003, 5.127428e+001
1.267968e+003, 5.092072e+001
1.268450e+003, 5.071519e+001
1.268932e+003, 5.106318e+001
1.269415e+003, 5.148769e+001
1.269897e+003, 5.143468e+001
1.270379e+003, 5.111046e+001
1.270861e+003, 5.097041e+001
1.271343e+003, 5.098753e+001
1.271825e+003, 5.121504e+001
1.272307e+003, 5.149762e+001
1.272789e+003, 5.122899e+001
1.273271e+003, 5.052301e+001
1.273754e+003, 5.030117e+001
1.274236e+003, 5.088839e+001
1.274718e+003, 5.136171e+001
1.275200e+003, 5.093227e+001
1.275682e+003, 5.049996e+001
1.276164e+003, 5.061388e+001
1.276646e+003, 5.089746e+001
1.277128e+003, 5.123238e+001
1.277611e+003, 5.146819e+001
1.278093e+003, 5.137930e+001
1.278575e+003, 5.106823e+001
1.279057e+003, 5.085558e+001
1.279539e+003, 5.073689e+001
1.280021e+003, 5.087959e+001
1.280503e+003, 5.143901e+001
1.280985e+003, 5.177320e+001
1.281468e+003, 5.177995e+001
1.281950e+003, 5.177708e+001
1.282432e+003, 5.189575e+001
1.282914e+003, 5.191537e+001
1.283396e+003, 5.161469e+001
1.283878e+003, 5.126994e+001
1.284360e+003, 5.145132e+001
1.284842e+003, 5.195183e+001
1.285324e+003, 5.219488e+001
##END=



