##NAMES=Gmelinite-Na
##RRUFFID=R110191
##IDEAL CHEMISTRY=Na_4_(Si_8_Al_4_)O_24_&#183;11H_2_O
##LOCALITY=Mont St-Hilaire, Quebec, Canada
##OWNER=RRUFF
##SOURCE=Donald Doell
##DESCRIPTION=Spherical aggregate of pale brownish-yellow hexagonal plates
##STATUS=The identification of this mineral has been confirmed only by single crystal X-ray diffraction.
##URL=rruff.info/R110191
9.001007e+001, 0.000000e+000
9.049219e+001, 2.027314e+001
9.097430e+001, 2.028430e+001
9.145642e+001, 2.033201e+001
9.193854e+001, 2.040101e+001
9.242065e+001, 2.036474e+001
9.290277e+001, 2.001336e+001
9.338489e+001, 1.947355e+001
9.386700e+001, 1.904550e+001
9.434912e+001, 1.890698e+001
9.483124e+001, 1.892746e+001
9.531335e+001, 1.881247e+001
9.579547e+001, 1.854238e+001
9.627759e+001, 1.827556e+001
9.675970e+001, 1.827656e+001
9.724182e+001, 1.851750e+001
9.772394e+001, 1.861689e+001
9.820605e+001, 1.831795e+001
9.868817e+001, 1.766053e+001
9.917029e+001, 1.715460e+001
9.965240e+001, 1.680907e+001
1.001345e+002, 1.660468e+001
1.006166e+002, 1.654726e+001
1.010988e+002, 1.667113e+001
1.015809e+002, 1.678959e+001
1.020630e+002, 1.679237e+001
1.025451e+002, 1.665277e+001
1.030272e+002, 1.653807e+001
1.035093e+002, 1.648760e+001
1.039915e+002, 1.646697e+001
1.044736e+002, 1.631269e+001
1.049557e+002, 1.595520e+001
1.054378e+002, 1.556587e+001
1.059199e+002, 1.527441e+001
1.064020e+002, 1.517770e+001
1.068842e+002, 1.498916e+001
1.073663e+002, 1.460662e+001
1.078484e+002, 1.402832e+001
1.083305e+002, 1.364246e+001
1.088126e+002, 1.354235e+001
1.092947e+002, 1.358531e+001
1.097769e+002, 1.364073e+001
1.102590e+002, 1.367743e+001
1.107411e+002, 1.375853e+001
1.112232e+002, 1.398451e+001
1.117053e+002, 1.447359e+001
1.121874e+002, 1.458931e+001
1.126696e+002, 1.382898e+001
1.131517e+002, 1.278546e+001
1.136338e+002, 1.222702e+001
1.141159e+002, 1.283042e+001
1.145980e+002, 1.347595e+001
1.150801e+002, 1.375485e+001
1.155623e+002, 1.349327e+001
1.160444e+002, 1.316112e+001
1.165265e+002, 1.281655e+001
1.170086e+002, 1.248350e+001
1.174907e+002, 1.222493e+001
1.179728e+002, 1.204127e+001
1.184550e+002, 1.194849e+001
1.189371e+002, 1.199201e+001
1.194192e+002, 1.237004e+001
1.199013e+002, 1.259386e+001
1.203834e+002, 1.227195e+001
1.208655e+002, 1.153170e+001
1.213477e+002, 1.086899e+001
1.218298e+002, 1.059010e+001
1.223119e+002, 1.052472e+001
1.227940e+002, 1.049910e+001
1.232761e+002, 1.048315e+001
1.237582e+002, 1.046747e+001
1.242404e+002, 1.045095e+001
1.247225e+002, 1.043224e+001
1.252046e+002, 1.039468e+001
1.256867e+002, 1.030381e+001
1.261688e+002, 1.018648e+001
1.266509e+002, 1.009221e+001
1.271331e+002, 1.007545e+001
1.276152e+002, 1.008072e+001
1.280973e+002, 9.999378e+000
1.285794e+002, 9.822702e+000
1.290615e+002, 9.665070e+000
1.295436e+002, 9.716056e+000
1.300258e+002, 9.917993e+000
1.305079e+002, 1.001838e+001
1.309900e+002, 9.778924e+000
1.314721e+002, 9.338290e+000
1.319542e+002, 9.143283e+000
1.324363e+002, 9.245358e+000
1.329185e+002, 9.478040e+000
1.334006e+002, 9.600788e+000
1.338827e+002, 9.614484e+000
1.343648e+002, 9.620119e+000
1.348469e+002, 9.700230e+000
1.353290e+002, 9.844339e+000
1.358112e+002, 9.885253e+000
1.362933e+002, 9.781398e+000
1.367754e+002, 9.604124e+000
1.372575e+002, 9.562840e+000
1.377396e+002, 9.707750e+000
1.382217e+002, 9.756539e+000
1.387039e+002, 9.440237e+000
1.391860e+002, 8.672283e+000
1.396681e+002, 8.154038e+000
1.401502e+002, 8.000396e+000
1.406323e+002, 8.145266e+000
1.411144e+002, 8.320397e+000
1.415966e+002, 8.561727e+000
1.420787e+002, 8.765318e+000
1.425608e+002, 8.848179e+000
1.430429e+002, 8.783925e+000
1.435250e+002, 8.667014e+000
1.440071e+002, 8.468304e+000
1.444893e+002, 8.197835e+000
1.449714e+002, 8.095073e+000
1.454535e+002, 8.293948e+000
1.459356e+002, 8.530719e+000
1.464177e+002, 8.534912e+000
1.468998e+002, 8.075688e+000
1.473820e+002, 7.748571e+000
1.478641e+002, 7.688430e+000
1.483462e+002, 7.936624e+000
1.488283e+002, 8.175163e+000
1.493104e+002, 8.525162e+000
1.497925e+002, 8.810440e+000
1.502747e+002, 8.820420e+000
1.507568e+002, 8.092907e+000
1.512389e+002, 7.566689e+000
1.517210e+002, 7.537426e+000
1.522031e+002, 8.263883e+000
1.526852e+002, 8.663633e+000
1.531674e+002, 8.476956e+000
1.536495e+002, 8.010348e+000
1.541316e+002, 7.707525e+000
1.546137e+002, 7.814758e+000
1.550958e+002, 7.907175e+000
1.555779e+002, 7.814978e+000
1.560601e+002, 7.368274e+000
1.565422e+002, 7.107995e+000
1.570243e+002, 7.161904e+000
1.575064e+002, 7.452528e+000
1.579885e+002, 7.829816e+000
1.584706e+002, 8.355653e+000
1.589528e+002, 8.892091e+000
1.594349e+002, 9.360575e+000
1.599170e+002, 9.657338e+000
1.603991e+002, 1.004900e+001
1.608812e+002, 1.062314e+001
1.613633e+002, 1.134926e+001
1.618455e+002, 1.214719e+001
1.623276e+002, 1.318736e+001
1.628097e+002, 1.416472e+001
1.632918e+002, 1.487692e+001
1.637739e+002, 1.499156e+001
1.642560e+002, 1.521670e+001
1.647382e+002, 1.583045e+001
1.652203e+002, 1.680049e+001
1.657024e+002, 1.800295e+001
1.661845e+002, 1.956412e+001
1.666666e+002, 2.125537e+001
1.671487e+002, 2.284138e+001
1.676309e+002, 2.405157e+001
1.681130e+002, 2.537963e+001
1.685951e+002, 2.718812e+001
1.690772e+002, 2.942036e+001
1.695593e+002, 3.169287e+001
1.700414e+002, 3.385717e+001
1.705236e+002, 3.591927e+001
1.710057e+002, 3.785395e+001
1.714878e+002, 3.954108e+001
1.719699e+002, 4.121438e+001
1.724520e+002, 4.307564e+001
1.729341e+002, 4.511849e+001
1.734163e+002, 4.716513e+001
1.738984e+002, 4.919127e+001
1.743805e+002, 5.113904e+001
1.748626e+002, 5.285447e+001
1.753447e+002, 5.424372e+001
1.758268e+002, 5.542958e+001
1.763090e+002, 5.640132e+001
1.767911e+002, 5.714655e+001
1.772732e+002, 5.812150e+001
1.777553e+002, 5.980156e+001
1.782374e+002, 6.174712e+001
1.787195e+002, 6.323439e+001
1.792017e+002, 6.372777e+001
1.796838e+002, 6.371623e+001
1.801659e+002, 6.383703e+001
1.806480e+002, 6.408809e+001
1.811301e+002, 6.456828e+001
1.816122e+002, 6.544904e+001
1.820944e+002, 6.666165e+001
1.825765e+002, 6.795958e+001
1.830586e+002, 6.930132e+001
1.835407e+002, 7.064509e+001
1.840228e+002, 7.197462e+001
1.845049e+002, 7.328297e+001
1.849871e+002, 7.455585e+001
1.854692e+002, 7.565512e+001
1.859513e+002, 7.664272e+001
1.864334e+002, 7.780006e+001
1.869155e+002, 7.945231e+001
1.873976e+002, 8.140458e+001
1.878798e+002, 8.298360e+001
1.883619e+002, 8.410583e+001
1.888440e+002, 8.507522e+001
1.893261e+002, 8.629415e+001
1.898082e+002, 8.775434e+001
1.902903e+002, 8.921817e+001
1.907725e+002, 9.063182e+001
1.912546e+002, 9.198735e+001
1.917367e+002, 9.308147e+001
1.922188e+002, 9.386992e+001
1.927009e+002, 9.451115e+001
1.931830e+002, 9.527316e+001
1.936652e+002, 9.615456e+001
1.941473e+002, 9.695500e+001
1.946294e+002, 9.746858e+001
1.951115e+002, 9.773000e+001
1.955936e+002, 9.824787e+001
1.960757e+002, 9.914293e+001
1.965579e+002, 1.001453e+002
1.970400e+002, 1.006905e+002
1.975221e+002, 1.007428e+002
1.980042e+002, 1.007355e+002
1.984863e+002, 1.008975e+002
1.989684e+002, 1.012297e+002
1.994506e+002, 1.015904e+002
1.999327e+002, 1.019345e+002
2.004148e+002, 1.023405e+002
2.008969e+002, 1.030627e+002
2.013790e+002, 1.041859e+002
2.018611e+002, 1.052128e+002
2.023433e+002, 1.058421e+002
2.028254e+002, 1.060512e+002
2.033075e+002, 1.060977e+002
2.037896e+002, 1.058509e+002
2.042717e+002, 1.055778e+002
2.047538e+002, 1.061255e+002
2.052360e+002, 1.077300e+002
2.057181e+002, 1.092735e+002
2.062002e+002, 1.099691e+002
2.066823e+002, 1.096384e+002
2.071644e+002, 1.096391e+002
2.076465e+002, 1.101690e+002
2.081287e+002, 1.110433e+002
2.086108e+002, 1.117313e+002
2.090929e+002, 1.121944e+002
2.095750e+002, 1.125785e+002
2.100571e+002, 1.129286e+002
2.105392e+002, 1.132049e+002
2.110214e+002, 1.136507e+002
2.115035e+002, 1.143403e+002
2.119856e+002, 1.151957e+002
2.124677e+002, 1.160120e+002
2.129498e+002, 1.168733e+002
2.134319e+002, 1.175219e+002
2.139140e+002, 1.177252e+002
2.143962e+002, 1.172972e+002
2.148783e+002, 1.171227e+002
2.153604e+002, 1.173860e+002
2.158425e+002, 1.179443e+002
2.163246e+002, 1.181564e+002
2.168067e+002, 1.178131e+002
2.172889e+002, 1.175278e+002
2.177710e+002, 1.177496e+002
2.182531e+002, 1.187470e+002
2.187352e+002, 1.194268e+002
2.192173e+002, 1.195616e+002
2.196994e+002, 1.193087e+002
2.201816e+002, 1.194978e+002
2.206637e+002, 1.205101e+002
2.211458e+002, 1.213092e+002
2.216279e+002, 1.211081e+002
2.221100e+002, 1.193365e+002
2.225921e+002, 1.180887e+002
2.230743e+002, 1.176780e+002
2.235564e+002, 1.179232e+002
2.240385e+002, 1.179274e+002
2.245206e+002, 1.174915e+002
2.250027e+002, 1.171321e+002
2.254848e+002, 1.172349e+002
2.259670e+002, 1.181271e+002
2.264491e+002, 1.186808e+002
2.269312e+002, 1.186993e+002
2.274133e+002, 1.183073e+002
2.278954e+002, 1.181055e+002
2.283775e+002, 1.181857e+002
2.288597e+002, 1.183289e+002
2.293418e+002, 1.183706e+002
2.298239e+002, 1.181477e+002
2.303060e+002, 1.182285e+002
2.307881e+002, 1.188596e+002
2.312702e+002, 1.198497e+002
2.317524e+002, 1.202045e+002
2.322345e+002, 1.195007e+002
2.327166e+002, 1.187513e+002
2.331987e+002, 1.185739e+002
2.336808e+002, 1.192434e+002
2.341629e+002, 1.198855e+002
2.346451e+002, 1.205469e+002
2.351272e+002, 1.211482e+002
2.356093e+002, 1.213282e+002
2.360914e+002, 1.208825e+002
2.365735e+002, 1.202979e+002
2.370556e+002, 1.198148e+002
2.375378e+002, 1.193714e+002
2.380199e+002, 1.191776e+002
2.385020e+002, 1.193196e+002
2.389841e+002, 1.197242e+002
2.394662e+002, 1.201104e+002
2.399483e+002, 1.205837e+002
2.404305e+002, 1.209038e+002
2.409126e+002, 1.208921e+002
2.413947e+002, 1.202468e+002
2.418768e+002, 1.199550e+002
2.423589e+002, 1.201935e+002
2.428410e+002, 1.208070e+002
2.433232e+002, 1.212581e+002
2.438053e+002, 1.215088e+002
2.442874e+002, 1.216438e+002
2.447695e+002, 1.216978e+002
2.452516e+002, 1.216533e+002
2.457337e+002, 1.215473e+002
2.462159e+002, 1.212943e+002
2.466980e+002, 1.209868e+002
2.471801e+002, 1.209381e+002
2.476622e+002, 1.212355e+002
2.481443e+002, 1.216530e+002
2.486264e+002, 1.221159e+002
2.491086e+002, 1.227473e+002
2.495907e+002, 1.231241e+002
2.500728e+002, 1.231534e+002
2.505549e+002, 1.229501e+002
2.510370e+002, 1.228193e+002
2.515191e+002, 1.228014e+002
2.520013e+002, 1.227962e+002
2.524834e+002, 1.227693e+002
2.529655e+002, 1.227437e+002
2.534476e+002, 1.226393e+002
2.539297e+002, 1.224243e+002
2.544118e+002, 1.221474e+002
2.548940e+002, 1.219131e+002
2.553761e+002, 1.217398e+002
2.558582e+002, 1.215738e+002
2.563403e+002, 1.213782e+002
2.568224e+002, 1.211098e+002
2.573046e+002, 1.209584e+002
2.577867e+002, 1.209765e+002
2.582688e+002, 1.210750e+002
2.587509e+002, 1.210612e+002
2.592330e+002, 1.208424e+002
2.597151e+002, 1.206976e+002
2.601973e+002, 1.207712e+002
2.606794e+002, 1.211439e+002
2.611615e+002, 1.213638e+002
2.616436e+002, 1.214014e+002
2.621257e+002, 1.213119e+002
2.626078e+002, 1.211730e+002
2.630900e+002, 1.209680e+002
2.635721e+002, 1.207620e+002
2.640542e+002, 1.205498e+002
2.645363e+002, 1.203020e+002
2.650184e+002, 1.202834e+002
2.655005e+002, 1.206093e+002
2.659827e+002, 1.210334e+002
2.664648e+002, 1.211745e+002
2.669469e+002, 1.209243e+002
2.674290e+002, 1.207017e+002
2.679111e+002, 1.206137e+002
2.683932e+002, 1.206600e+002
2.688754e+002, 1.208892e+002
2.693575e+002, 1.214064e+002
2.698396e+002, 1.219393e+002
2.703217e+002, 1.220809e+002
2.708038e+002, 1.217083e+002
2.712859e+002, 1.214098e+002
2.717681e+002, 1.213628e+002
2.722502e+002, 1.215566e+002
2.727323e+002, 1.217381e+002
2.732144e+002, 1.219106e+002
2.736965e+002, 1.220556e+002
2.741786e+002, 1.221295e+002
2.746608e+002, 1.221095e+002
2.751429e+002, 1.221610e+002
2.756250e+002, 1.223859e+002
2.761071e+002, 1.227348e+002
2.765892e+002, 1.227516e+002
2.770714e+002, 1.223122e+002
2.775535e+002, 1.218959e+002
2.780356e+002, 1.220774e+002
2.785177e+002, 1.229414e+002
2.789998e+002, 1.234994e+002
2.794819e+002, 1.234725e+002
2.799641e+002, 1.230015e+002
2.804462e+002, 1.226644e+002
2.809283e+002, 1.224575e+002
2.814104e+002, 1.223946e+002
2.818925e+002, 1.225126e+002
2.823746e+002, 1.228136e+002
2.828568e+002, 1.231880e+002
2.833389e+002, 1.236846e+002
2.838210e+002, 1.241960e+002
2.843031e+002, 1.243607e+002
2.847852e+002, 1.241450e+002
2.852673e+002, 1.238999e+002
2.857495e+002, 1.239355e+002
2.862316e+002, 1.242220e+002
2.867137e+002, 1.243290e+002
2.871958e+002, 1.241790e+002
2.876779e+002, 1.238626e+002
2.881600e+002, 1.234527e+002
2.886422e+002, 1.229430e+002
2.891243e+002, 1.226662e+002
2.896064e+002, 1.230172e+002
2.900885e+002, 1.238484e+002
2.905706e+002, 1.243694e+002
2.910527e+002, 1.244678e+002
2.915349e+002, 1.243277e+002
2.920170e+002, 1.241220e+002
2.924991e+002, 1.238720e+002
2.929812e+002, 1.238199e+002
2.934633e+002, 1.243040e+002
2.939454e+002, 1.251082e+002
2.944276e+002, 1.254858e+002
2.949097e+002, 1.253345e+002
2.953918e+002, 1.250222e+002
2.958739e+002, 1.249690e+002
2.963560e+002, 1.251479e+002
2.968381e+002, 1.254281e+002
2.973203e+002, 1.257676e+002
2.978024e+002, 1.261603e+002
2.982845e+002, 1.266889e+002
2.987666e+002, 1.273871e+002
2.992487e+002, 1.279125e+002
2.997308e+002, 1.277105e+002
3.002130e+002, 1.270281e+002
3.006951e+002, 1.265795e+002
3.011772e+002, 1.267853e+002
3.016593e+002, 1.273193e+002
3.021414e+002, 1.277056e+002
3.026235e+002, 1.279453e+002
3.031057e+002, 1.282439e+002
3.035878e+002, 1.289227e+002
3.040699e+002, 1.297654e+002
3.045520e+002, 1.303441e+002
3.050341e+002, 1.303269e+002
3.055162e+002, 1.301657e+002
3.059984e+002, 1.303594e+002
3.064805e+002, 1.308642e+002
3.069626e+002, 1.313930e+002
3.074447e+002, 1.317706e+002
3.079268e+002, 1.320461e+002
3.084089e+002, 1.322716e+002
3.088911e+002, 1.324446e+002
3.093732e+002, 1.325977e+002
3.098553e+002, 1.327387e+002
3.103374e+002, 1.328762e+002
3.108195e+002, 1.330425e+002
3.113016e+002, 1.332398e+002
3.117838e+002, 1.334793e+002
3.122659e+002, 1.337902e+002
3.127480e+002, 1.342192e+002
3.132301e+002, 1.346158e+002
3.137122e+002, 1.348095e+002
3.141943e+002, 1.349082e+002
3.146765e+002, 1.351347e+002
3.151586e+002, 1.357240e+002
3.156407e+002, 1.363771e+002
3.161228e+002, 1.369330e+002
3.166049e+002, 1.373745e+002
3.170870e+002, 1.376907e+002
3.175692e+002, 1.377785e+002
3.180513e+002, 1.377582e+002
3.185334e+002, 1.377968e+002
3.190155e+002, 1.379949e+002
3.194976e+002, 1.382238e+002
3.199797e+002, 1.384305e+002
3.204619e+002, 1.386095e+002
3.209440e+002, 1.387866e+002
3.214261e+002, 1.390009e+002
3.219082e+002, 1.392000e+002
3.223903e+002, 1.393329e+002
3.228724e+002, 1.394470e+002
3.233546e+002, 1.394320e+002
3.238367e+002, 1.391246e+002
3.243188e+002, 1.385456e+002
3.248009e+002, 1.382509e+002
3.252830e+002, 1.388124e+002
3.257651e+002, 1.393934e+002
3.262473e+002, 1.394519e+002
3.267294e+002, 1.382168e+002
3.272115e+002, 1.372966e+002
3.276936e+002, 1.369583e+002
3.281757e+002, 1.371037e+002
3.286578e+002, 1.372121e+002
3.291400e+002, 1.373165e+002
3.296221e+002, 1.373552e+002
3.301042e+002, 1.373147e+002
3.305863e+002, 1.373198e+002
3.310684e+002, 1.370282e+002
3.315505e+002, 1.362536e+002
3.320327e+002, 1.352158e+002
3.325148e+002, 1.343980e+002
3.329969e+002, 1.337849e+002
3.334790e+002, 1.334071e+002
3.339611e+002, 1.333187e+002
3.344432e+002, 1.336261e+002
3.349254e+002, 1.337643e+002
3.354075e+002, 1.336355e+002
3.358896e+002, 1.334114e+002
3.363717e+002, 1.333722e+002
3.368538e+002, 1.336803e+002
3.373359e+002, 1.337644e+002
3.378180e+002, 1.333742e+002
3.383001e+002, 1.325237e+002
3.387823e+002, 1.319890e+002
3.392644e+002, 1.318436e+002
3.397465e+002, 1.318848e+002
3.402286e+002, 1.319640e+002
3.407107e+002, 1.321069e+002
3.411928e+002, 1.321441e+002
3.416750e+002, 1.320283e+002
3.421571e+002, 1.317913e+002
3.426392e+002, 1.315882e+002
3.431213e+002, 1.314464e+002
3.436034e+002, 1.311925e+002
3.440855e+002, 1.305166e+002
3.445677e+002, 1.294588e+002
3.450498e+002, 1.289595e+002
3.455319e+002, 1.292851e+002
3.460140e+002, 1.299706e+002
3.464961e+002, 1.300991e+002
3.469782e+002, 1.296906e+002
3.474604e+002, 1.292309e+002
3.479425e+002, 1.289848e+002
3.484246e+002, 1.289093e+002
3.489067e+002, 1.288836e+002
3.493888e+002, 1.289159e+002
3.498709e+002, 1.289254e+002
3.503531e+002, 1.287253e+002
3.508352e+002, 1.283929e+002
3.513173e+002, 1.282168e+002
3.517994e+002, 1.284693e+002
3.522815e+002, 1.289039e+002
3.527636e+002, 1.291183e+002
3.532458e+002, 1.291109e+002
3.537279e+002, 1.289841e+002
3.542100e+002, 1.287110e+002
3.546921e+002, 1.283923e+002
3.551742e+002, 1.282097e+002
3.556563e+002, 1.282805e+002
3.561385e+002, 1.284398e+002
3.566206e+002, 1.285929e+002
3.571027e+002, 1.287211e+002
3.575848e+002, 1.287319e+002
3.580669e+002, 1.285029e+002
3.585490e+002, 1.281657e+002
3.590312e+002, 1.278257e+002
3.595133e+002, 1.274552e+002
3.599954e+002, 1.271923e+002
3.604775e+002, 1.271268e+002
3.609596e+002, 1.272284e+002
3.614417e+002, 1.274303e+002
3.619239e+002, 1.278688e+002
3.624060e+002, 1.282783e+002
3.628881e+002, 1.284956e+002
3.633702e+002, 1.284741e+002
3.638523e+002, 1.284257e+002
3.643344e+002, 1.284618e+002
3.648166e+002, 1.284931e+002
3.652987e+002, 1.284165e+002
3.657808e+002, 1.279800e+002
3.662629e+002, 1.276641e+002
3.667450e+002, 1.276375e+002
3.672271e+002, 1.279009e+002
3.677093e+002, 1.281646e+002
3.681914e+002, 1.285031e+002
3.686735e+002, 1.287620e+002
3.691556e+002, 1.288390e+002
3.696377e+002, 1.285653e+002
3.701198e+002, 1.283086e+002
3.706020e+002, 1.280043e+002
3.710841e+002, 1.277134e+002
3.715662e+002, 1.276755e+002
3.720483e+002, 1.280786e+002
3.725304e+002, 1.285032e+002
3.730125e+002, 1.287803e+002
3.734947e+002, 1.288714e+002
3.739768e+002, 1.289003e+002
3.744589e+002, 1.287941e+002
3.749410e+002, 1.286844e+002
3.754231e+002, 1.288420e+002
3.759052e+002, 1.294376e+002
3.763874e+002, 1.298217e+002
3.768695e+002, 1.297104e+002
3.773516e+002, 1.291221e+002
3.778337e+002, 1.288524e+002
3.783158e+002, 1.289681e+002
3.787979e+002, 1.292120e+002
3.792801e+002, 1.292823e+002
3.797622e+002, 1.291637e+002
3.802443e+002, 1.292958e+002
3.807264e+002, 1.299077e+002
3.812085e+002, 1.307074e+002
3.816906e+002, 1.307915e+002
3.821728e+002, 1.301447e+002
3.826549e+002, 1.295190e+002
3.831370e+002, 1.295257e+002
3.836191e+002, 1.299989e+002
3.841012e+002, 1.302923e+002
3.845833e+002, 1.303271e+002
3.850655e+002, 1.302142e+002
3.855476e+002, 1.299446e+002
3.860297e+002, 1.296067e+002
3.865118e+002, 1.295443e+002
3.869939e+002, 1.301737e+002
3.874760e+002, 1.310757e+002
3.879582e+002, 1.316392e+002
3.884403e+002, 1.318550e+002
3.889224e+002, 1.319495e+002
3.894045e+002, 1.320116e+002
3.898866e+002, 1.320934e+002
3.903687e+002, 1.322820e+002
3.908509e+002, 1.327739e+002
3.913330e+002, 1.332006e+002
3.918151e+002, 1.332863e+002
3.922972e+002, 1.330800e+002
3.927793e+002, 1.327832e+002
3.932614e+002, 1.321628e+002
3.937436e+002, 1.317012e+002
3.942257e+002, 1.318047e+002
3.947078e+002, 1.327991e+002
3.951899e+002, 1.337321e+002
3.956720e+002, 1.341763e+002
3.961541e+002, 1.343597e+002
3.966363e+002, 1.346491e+002
3.971184e+002, 1.353540e+002
3.976005e+002, 1.359721e+002
3.980826e+002, 1.362834e+002
3.985647e+002, 1.362327e+002
3.990468e+002, 1.362642e+002
3.995290e+002, 1.364107e+002
4.000111e+002, 1.366617e+002
4.004932e+002, 1.370133e+002
4.009753e+002, 1.376321e+002
4.014574e+002, 1.381264e+002
4.019395e+002, 1.384007e+002
4.024217e+002, 1.385111e+002
4.029038e+002, 1.386964e+002
4.033859e+002, 1.388828e+002
4.038680e+002, 1.392537e+002
4.043501e+002, 1.399557e+002
4.048322e+002, 1.411321e+002
4.053144e+002, 1.421369e+002
4.057965e+002, 1.429900e+002
4.062786e+002, 1.436350e+002
4.067607e+002, 1.438720e+002
4.072428e+002, 1.435974e+002
4.077249e+002, 1.434903e+002
4.082071e+002, 1.438654e+002
4.086892e+002, 1.446188e+002
4.091713e+002, 1.450088e+002
4.096534e+002, 1.449687e+002
4.101355e+002, 1.449583e+002
4.106176e+002, 1.455393e+002
4.110998e+002, 1.465855e+002
4.115819e+002, 1.473283e+002
4.120640e+002, 1.475568e+002
4.125461e+002, 1.475199e+002
4.130282e+002, 1.477331e+002
4.135103e+002, 1.481108e+002
4.139925e+002, 1.481610e+002
4.144746e+002, 1.472127e+002
4.149567e+002, 1.458784e+002
4.154388e+002, 1.452073e+002
4.159209e+002, 1.453354e+002
4.164030e+002, 1.455706e+002
4.168852e+002, 1.453896e+002
4.173673e+002, 1.449170e+002
4.178494e+002, 1.443582e+002
4.183315e+002, 1.437650e+002
4.188136e+002, 1.431338e+002
4.192957e+002, 1.423017e+002
4.197779e+002, 1.413501e+002
4.202600e+002, 1.407488e+002
4.207421e+002, 1.411698e+002
4.212242e+002, 1.417531e+002
4.217063e+002, 1.418220e+002
4.221884e+002, 1.408811e+002
4.226706e+002, 1.401423e+002
4.231527e+002, 1.401924e+002
4.236348e+002, 1.406064e+002
4.241169e+002, 1.405850e+002
4.245990e+002, 1.395000e+002
4.250811e+002, 1.384506e+002
4.255633e+002, 1.377579e+002
4.260454e+002, 1.374558e+002
4.265275e+002, 1.372775e+002
4.270096e+002, 1.373594e+002
4.274917e+002, 1.374503e+002
4.279738e+002, 1.373018e+002
4.284560e+002, 1.366379e+002
4.289381e+002, 1.363325e+002
4.294202e+002, 1.366489e+002
4.299023e+002, 1.373552e+002
4.303844e+002, 1.376789e+002
4.308665e+002, 1.375689e+002
4.313487e+002, 1.372114e+002
4.318308e+002, 1.365018e+002
4.323129e+002, 1.353918e+002
4.327950e+002, 1.350568e+002
4.332771e+002, 1.356672e+002
4.337592e+002, 1.366412e+002
4.342414e+002, 1.373018e+002
4.347235e+002, 1.376630e+002
4.352056e+002, 1.378709e+002
4.356877e+002, 1.379303e+002
4.361698e+002, 1.378967e+002
4.366519e+002, 1.378293e+002
4.371341e+002, 1.377382e+002
4.376162e+002, 1.377722e+002
4.380983e+002, 1.381116e+002
4.385804e+002, 1.386343e+002
4.390625e+002, 1.391890e+002
4.395446e+002, 1.398232e+002
4.400268e+002, 1.402407e+002
4.405089e+002, 1.398844e+002
4.409910e+002, 1.391234e+002
4.414731e+002, 1.387171e+002
4.419552e+002, 1.392551e+002
4.424373e+002, 1.400553e+002
4.429195e+002, 1.408064e+002
4.434016e+002, 1.414829e+002
4.438837e+002, 1.418761e+002
4.443658e+002, 1.415025e+002
4.448479e+002, 1.410291e+002
4.453300e+002, 1.409860e+002
4.458122e+002, 1.417884e+002
4.462943e+002, 1.426136e+002
4.467764e+002, 1.434699e+002
4.472585e+002, 1.442578e+002
4.477406e+002, 1.447217e+002
4.482227e+002, 1.444547e+002
4.487049e+002, 1.442496e+002
4.491870e+002, 1.443389e+002
4.496691e+002, 1.447629e+002
4.501512e+002, 1.452533e+002
4.506333e+002, 1.458661e+002
4.511154e+002, 1.464818e+002
4.515976e+002, 1.469502e+002
4.520797e+002, 1.471708e+002
4.525618e+002, 1.476034e+002
4.530439e+002, 1.484401e+002
4.535260e+002, 1.494719e+002
4.540081e+002, 1.500487e+002
4.544903e+002, 1.501153e+002
4.549724e+002, 1.501023e+002
4.554545e+002, 1.502188e+002
4.559366e+002, 1.504561e+002
4.564187e+002, 1.507781e+002
4.569008e+002, 1.511879e+002
4.573830e+002, 1.516383e+002
4.578651e+002, 1.520210e+002
4.583472e+002, 1.523829e+002
4.588293e+002, 1.528512e+002
4.593114e+002, 1.534122e+002
4.597935e+002, 1.541570e+002
4.602757e+002, 1.554408e+002
4.607578e+002, 1.571181e+002
4.612399e+002, 1.584897e+002
4.617220e+002, 1.587849e+002
4.622041e+002, 1.587566e+002
4.626862e+002, 1.591499e+002
4.631684e+002, 1.601583e+002
4.636505e+002, 1.611951e+002
4.641326e+002, 1.619800e+002
4.646147e+002, 1.626033e+002
4.650968e+002, 1.631935e+002
4.655789e+002, 1.636504e+002
4.660611e+002, 1.642071e+002
4.665432e+002, 1.649651e+002
4.670253e+002, 1.659114e+002
4.675074e+002, 1.668933e+002
4.679895e+002, 1.679924e+002
4.684716e+002, 1.690472e+002
4.689538e+002, 1.699576e+002
4.694359e+002, 1.705776e+002
4.699180e+002, 1.713467e+002
4.704001e+002, 1.722856e+002
4.708822e+002, 1.733643e+002
4.713643e+002, 1.745724e+002
4.718465e+002, 1.759741e+002
4.723286e+002, 1.773129e+002
4.728107e+002, 1.785303e+002
4.732928e+002, 1.796191e+002
4.737749e+002, 1.805986e+002
4.742570e+002, 1.814344e+002
4.747392e+002, 1.823106e+002
4.752213e+002, 1.834679e+002
4.757034e+002, 1.848360e+002
4.761855e+002, 1.858529e+002
4.766676e+002, 1.863685e+002
4.771497e+002, 1.868493e+002
4.776319e+002, 1.880365e+002
4.781140e+002, 1.897346e+002
4.785961e+002, 1.912899e+002
4.790782e+002, 1.924096e+002
4.795603e+002, 1.932458e+002
4.800424e+002, 1.938181e+002
4.805246e+002, 1.941802e+002
4.810067e+002, 1.947442e+002
4.814888e+002, 1.959735e+002
4.819709e+002, 1.974029e+002
4.824530e+002, 1.985885e+002
4.829352e+002, 1.993175e+002
4.834173e+002, 2.001143e+002
4.838994e+002, 2.013087e+002
4.843815e+002, 2.026756e+002
4.848636e+002, 2.038613e+002
4.853457e+002, 2.047484e+002
4.858279e+002, 2.054805e+002
4.863100e+002, 2.059682e+002
4.867921e+002, 2.062200e+002
4.872742e+002, 2.068151e+002
4.877563e+002, 2.083321e+002
4.882384e+002, 2.096193e+002
4.887206e+002, 2.099228e+002
4.892027e+002, 2.086566e+002
4.896848e+002, 2.080541e+002
4.901669e+002, 2.084163e+002
4.906490e+002, 2.091569e+002
4.911311e+002, 2.092716e+002
4.916133e+002, 2.086467e+002
4.920954e+002, 2.081864e+002
4.925775e+002, 2.082421e+002
4.930596e+002, 2.086526e+002
4.935417e+002, 2.089104e+002
4.940238e+002, 2.090168e+002
4.945060e+002, 2.087932e+002
4.949881e+002, 2.079394e+002
4.954702e+002, 2.066588e+002
4.959523e+002, 2.054516e+002
4.964344e+002, 2.044091e+002
4.969165e+002, 2.033338e+002
4.973987e+002, 2.020133e+002
4.978808e+002, 2.005155e+002
4.983629e+002, 1.989946e+002
4.988450e+002, 1.974344e+002
4.993271e+002, 1.959391e+002
4.998092e+002, 1.946885e+002
5.002914e+002, 1.936096e+002
5.007735e+002, 1.924007e+002
5.012556e+002, 1.908603e+002
5.017377e+002, 1.891933e+002
5.022198e+002, 1.875083e+002
5.027019e+002, 1.857753e+002
5.031841e+002, 1.841005e+002
5.036662e+002, 1.825051e+002
5.041483e+002, 1.809698e+002
5.046304e+002, 1.795090e+002
5.051125e+002, 1.783528e+002
5.055946e+002, 1.769090e+002
5.060768e+002, 1.748869e+002
5.065589e+002, 1.724792e+002
5.070410e+002, 1.707195e+002
5.075231e+002, 1.698704e+002
5.080052e+002, 1.689307e+002
5.084873e+002, 1.671664e+002
5.089695e+002, 1.645869e+002
5.094516e+002, 1.627179e+002
5.099337e+002, 1.616791e+002
5.104158e+002, 1.608824e+002
5.108979e+002, 1.596149e+002
5.113800e+002, 1.579808e+002
5.118622e+002, 1.565256e+002
5.123443e+002, 1.554838e+002
5.128264e+002, 1.545497e+002
5.133085e+002, 1.531555e+002
5.137906e+002, 1.514627e+002
5.142728e+002, 1.500491e+002
5.147549e+002, 1.495896e+002
5.152370e+002, 1.493246e+002
5.157191e+002, 1.485251e+002
5.162012e+002, 1.471038e+002
5.166833e+002, 1.457851e+002
5.171655e+002, 1.448004e+002
5.176476e+002, 1.441116e+002
5.181297e+002, 1.436929e+002
5.186118e+002, 1.439483e+002
5.190939e+002, 1.439644e+002
5.195760e+002, 1.434630e+002
5.200582e+002, 1.426334e+002
5.205403e+002, 1.419268e+002
5.210224e+002, 1.414822e+002
5.215045e+002, 1.409694e+002
5.219866e+002, 1.402258e+002
5.224688e+002, 1.392490e+002
5.229509e+002, 1.386553e+002
5.234330e+002, 1.385922e+002
5.239151e+002, 1.385564e+002
5.243972e+002, 1.380208e+002
5.248793e+002, 1.369672e+002
5.253615e+002, 1.364606e+002
5.258436e+002, 1.366888e+002
5.263257e+002, 1.372143e+002
5.268078e+002, 1.374487e+002
5.272899e+002, 1.374222e+002
5.277720e+002, 1.372697e+002
5.282542e+002, 1.370361e+002
5.287363e+002, 1.367126e+002
5.292184e+002, 1.362153e+002
5.297005e+002, 1.355856e+002
5.301826e+002, 1.350259e+002
5.306647e+002, 1.347203e+002
5.311469e+002, 1.345060e+002
5.316290e+002, 1.342202e+002
5.321111e+002, 1.338138e+002
5.325932e+002, 1.334872e+002
5.330753e+002, 1.333850e+002
5.335574e+002, 1.333756e+002
5.340396e+002, 1.333244e+002
5.345217e+002, 1.332269e+002
5.350038e+002, 1.330653e+002
5.354859e+002, 1.327376e+002
5.359680e+002, 1.323385e+002
5.364501e+002, 1.321929e+002
5.369323e+002, 1.325134e+002
5.374144e+002, 1.327258e+002
5.378965e+002, 1.325883e+002
5.383786e+002, 1.320921e+002
5.388607e+002, 1.316466e+002
5.393428e+002, 1.312541e+002
5.398250e+002, 1.309111e+002
5.403071e+002, 1.305807e+002
5.407892e+002, 1.302804e+002
5.412713e+002, 1.301446e+002
5.417534e+002, 1.301823e+002
5.422355e+002, 1.304251e+002
5.427177e+002, 1.311831e+002
5.431998e+002, 1.322364e+002
5.436819e+002, 1.328618e+002
5.441640e+002, 1.324886e+002
5.446461e+002, 1.317014e+002
5.451282e+002, 1.308378e+002
5.456104e+002, 1.299613e+002
5.460925e+002, 1.294241e+002
5.465746e+002, 1.296942e+002
5.470567e+002, 1.301660e+002
5.475388e+002, 1.304275e+002
5.480209e+002, 1.303499e+002
5.485031e+002, 1.303017e+002
5.489852e+002, 1.304305e+002
5.494673e+002, 1.305911e+002
5.499494e+002, 1.306277e+002
5.504315e+002, 1.304558e+002
5.509136e+002, 1.302766e+002
5.513958e+002, 1.300380e+002
5.518779e+002, 1.298212e+002
5.523600e+002, 1.299521e+002
5.528421e+002, 1.305856e+002
5.533242e+002, 1.310188e+002
5.538063e+002, 1.308586e+002
5.542885e+002, 1.302009e+002
5.547706e+002, 1.297892e+002
5.552527e+002, 1.296293e+002
5.557348e+002, 1.296537e+002
5.562169e+002, 1.299962e+002
5.566990e+002, 1.304717e+002
5.571812e+002, 1.305753e+002
5.576633e+002, 1.301788e+002
5.581454e+002, 1.295980e+002
5.586275e+002, 1.289094e+002
5.591096e+002, 1.282854e+002
5.595917e+002, 1.280148e+002
5.600739e+002, 1.284502e+002
5.605560e+002, 1.290490e+002
5.610381e+002, 1.297166e+002
5.615202e+002, 1.303680e+002
5.620023e+002, 1.306748e+002
5.624844e+002, 1.301911e+002
5.629666e+002, 1.296540e+002
5.634487e+002, 1.294070e+002
5.639308e+002, 1.295208e+002
5.644129e+002, 1.295930e+002
5.648950e+002, 1.296344e+002
5.653771e+002, 1.296199e+002
5.658593e+002, 1.294828e+002
5.663414e+002, 1.291434e+002
5.668235e+002, 1.290360e+002
5.673056e+002, 1.292457e+002
5.677877e+002, 1.296371e+002
5.682698e+002, 1.300453e+002
5.687520e+002, 1.304622e+002
5.692341e+002, 1.306672e+002
5.697162e+002, 1.304613e+002
5.701983e+002, 1.300756e+002
5.706804e+002, 1.300320e+002
5.711625e+002, 1.302628e+002
5.716447e+002, 1.302882e+002
5.721268e+002, 1.294730e+002
5.726089e+002, 1.284886e+002
5.730910e+002, 1.280388e+002
5.735731e+002, 1.282538e+002
5.740552e+002, 1.285628e+002
5.745374e+002, 1.287736e+002
5.750195e+002, 1.289218e+002
5.755016e+002, 1.290411e+002
5.759837e+002, 1.290469e+002
5.764658e+002, 1.291339e+002
5.769479e+002, 1.294460e+002
5.774301e+002, 1.298173e+002
5.779122e+002, 1.299018e+002
5.783943e+002, 1.295257e+002
5.788764e+002, 1.292009e+002
5.793585e+002, 1.290766e+002
5.798406e+002, 1.291217e+002
5.803228e+002, 1.291132e+002
5.808049e+002, 1.290357e+002
5.812870e+002, 1.290027e+002
5.817691e+002, 1.291095e+002
5.822512e+002, 1.293298e+002
5.827333e+002, 1.296097e+002
5.832155e+002, 1.299688e+002
5.836975e+002, 1.301873e+002
5.841796e+002, 1.298387e+002
5.846617e+002, 1.292669e+002
5.851439e+002, 1.290755e+002
5.856260e+002, 1.296415e+002
5.861081e+002, 1.302422e+002
5.865902e+002, 1.304112e+002
5.870723e+002, 1.303059e+002
5.875544e+002, 1.302282e+002
5.880366e+002, 1.303171e+002
5.885187e+002, 1.303912e+002
5.890008e+002, 1.303770e+002
5.894829e+002, 1.302765e+002
5.899650e+002, 1.301852e+002
5.904471e+002, 1.299622e+002
5.909293e+002, 1.299304e+002
5.914114e+002, 1.303798e+002
5.918935e+002, 1.314732e+002
5.923756e+002, 1.317731e+002
5.928577e+002, 1.310582e+002
5.933398e+002, 1.301437e+002
5.938220e+002, 1.299661e+002
5.943041e+002, 1.304175e+002
5.947862e+002, 1.306145e+002
5.952683e+002, 1.303291e+002
5.957504e+002, 1.299248e+002
5.962325e+002, 1.298960e+002
5.967147e+002, 1.301290e+002
5.971968e+002, 1.303250e+002
5.976789e+002, 1.302509e+002
5.981610e+002, 1.301805e+002
5.986431e+002, 1.303858e+002
5.991252e+002, 1.307946e+002
5.996074e+002, 1.310701e+002
6.000895e+002, 1.309906e+002
6.005716e+002, 1.308381e+002
6.010537e+002, 1.307242e+002
6.015358e+002, 1.306481e+002
6.020179e+002, 1.306785e+002
6.025001e+002, 1.309365e+002
6.029822e+002, 1.311811e+002
6.034643e+002, 1.312230e+002
6.039464e+002, 1.310099e+002
6.044285e+002, 1.307749e+002
6.049106e+002, 1.304779e+002
6.053928e+002, 1.302574e+002
6.058749e+002, 1.304015e+002
6.063570e+002, 1.308785e+002
6.068391e+002, 1.312740e+002
6.073212e+002, 1.314895e+002
6.078033e+002, 1.315218e+002
6.082855e+002, 1.312513e+002
6.087676e+002, 1.307630e+002
6.092497e+002, 1.303632e+002
6.097318e+002, 1.303294e+002
6.102139e+002, 1.303730e+002
6.106960e+002, 1.301347e+002
6.111782e+002, 1.296241e+002
6.116603e+002, 1.295224e+002
6.121424e+002, 1.303445e+002
6.126245e+002, 1.314497e+002
6.131066e+002, 1.325156e+002
6.135887e+002, 1.338161e+002
6.140709e+002, 1.343660e+002
6.145530e+002, 1.338376e+002
6.150351e+002, 1.328606e+002
6.155172e+002, 1.320203e+002
6.159993e+002, 1.312752e+002
6.164814e+002, 1.308531e+002
6.169636e+002, 1.308482e+002
6.174457e+002, 1.310869e+002
6.179278e+002, 1.313168e+002
6.184099e+002, 1.315227e+002
6.188920e+002, 1.315546e+002
6.193741e+002, 1.311619e+002
6.198563e+002, 1.306948e+002
6.203384e+002, 1.307233e+002
6.208205e+002, 1.311717e+002
6.213026e+002, 1.316660e+002
6.217847e+002, 1.322686e+002
6.222668e+002, 1.326350e+002
6.227490e+002, 1.323431e+002
6.232311e+002, 1.312840e+002
6.237132e+002, 1.304887e+002
6.241953e+002, 1.303339e+002
6.246774e+002, 1.304728e+002
6.251595e+002, 1.306656e+002
6.256417e+002, 1.308798e+002
6.261238e+002, 1.312392e+002
6.266059e+002, 1.319117e+002
6.270880e+002, 1.325474e+002
6.275701e+002, 1.325786e+002
6.280522e+002, 1.319262e+002
6.285344e+002, 1.314632e+002
6.290165e+002, 1.314223e+002
6.294986e+002, 1.315931e+002
6.299807e+002, 1.315113e+002
6.304628e+002, 1.312422e+002
6.309449e+002, 1.311422e+002
6.314271e+002, 1.316505e+002
6.319092e+002, 1.322430e+002
6.323913e+002, 1.322148e+002
6.328734e+002, 1.316727e+002
6.333555e+002, 1.313157e+002
6.338376e+002, 1.316640e+002
6.343198e+002, 1.321644e+002
6.348019e+002, 1.325026e+002
6.352840e+002, 1.326313e+002
6.357661e+002, 1.326774e+002
6.362482e+002, 1.325849e+002
6.367303e+002, 1.324749e+002
6.372125e+002, 1.324289e+002
6.376946e+002, 1.324637e+002
6.381767e+002, 1.325421e+002
6.386588e+002, 1.327175e+002
6.391409e+002, 1.328451e+002
6.396230e+002, 1.325759e+002
6.401052e+002, 1.319551e+002
6.405873e+002, 1.317423e+002
6.410694e+002, 1.322957e+002
6.415515e+002, 1.330641e+002
6.420336e+002, 1.331302e+002
6.425157e+002, 1.327045e+002
6.429979e+002, 1.324016e+002
6.434800e+002, 1.326006e+002
6.439621e+002, 1.329677e+002
6.444442e+002, 1.333672e+002
6.449263e+002, 1.337645e+002
6.454084e+002, 1.339863e+002
6.458906e+002, 1.337852e+002
6.463727e+002, 1.335604e+002
6.468548e+002, 1.334898e+002
6.473369e+002, 1.335820e+002
6.478190e+002, 1.337822e+002
6.483011e+002, 1.341898e+002
6.487833e+002, 1.345544e+002
6.492654e+002, 1.346939e+002
6.497475e+002, 1.346016e+002
6.502296e+002, 1.342746e+002
6.507117e+002, 1.336184e+002
6.511938e+002, 1.330891e+002
6.516760e+002, 1.334960e+002
6.521581e+002, 1.345245e+002
6.526402e+002, 1.351565e+002
6.531223e+002, 1.349931e+002
6.536044e+002, 1.346352e+002
6.540865e+002, 1.346489e+002
6.545687e+002, 1.348553e+002
6.550508e+002, 1.349101e+002
6.555329e+002, 1.344091e+002
6.560150e+002, 1.340176e+002
6.564971e+002, 1.341125e+002
6.569792e+002, 1.345739e+002
6.574614e+002, 1.347543e+002
6.579435e+002, 1.344744e+002
6.584256e+002, 1.341204e+002
6.589077e+002, 1.337311e+002
6.593898e+002, 1.333227e+002
6.598719e+002, 1.334140e+002
6.603541e+002, 1.341212e+002
6.608362e+002, 1.347793e+002
6.613183e+002, 1.348716e+002
6.618004e+002, 1.345206e+002
6.622825e+002, 1.342147e+002
6.627646e+002, 1.339840e+002
6.632468e+002, 1.337415e+002
6.637289e+002, 1.333056e+002
6.642110e+002, 1.328540e+002
6.646931e+002, 1.326281e+002
6.651752e+002, 1.327268e+002
6.656573e+002, 1.329359e+002
6.661395e+002, 1.332532e+002
6.666216e+002, 1.335956e+002
6.671037e+002, 1.338603e+002
6.675858e+002, 1.340012e+002
6.680679e+002, 1.341033e+002
6.685500e+002, 1.341799e+002
6.690322e+002, 1.342170e+002
6.695143e+002, 1.341791e+002
6.699964e+002, 1.340591e+002
6.704785e+002, 1.338888e+002
6.709606e+002, 1.336440e+002
6.714427e+002, 1.333766e+002
6.719249e+002, 1.332455e+002
6.724070e+002, 1.332380e+002
6.728891e+002, 1.332619e+002
6.733712e+002, 1.333800e+002
6.738533e+002, 1.334305e+002
6.743354e+002, 1.330617e+002
6.748176e+002, 1.323331e+002
6.752997e+002, 1.319133e+002
6.757818e+002, 1.324254e+002
6.762639e+002, 1.331377e+002
6.767460e+002, 1.335805e+002
6.772281e+002, 1.335873e+002
6.777103e+002, 1.337719e+002
6.781924e+002, 1.343877e+002
6.786745e+002, 1.349527e+002
6.791566e+002, 1.350423e+002
6.796387e+002, 1.344893e+002
6.801208e+002, 1.343190e+002
6.806030e+002, 1.346895e+002
6.810851e+002, 1.351626e+002
6.815672e+002, 1.351309e+002
6.820493e+002, 1.347086e+002
6.825314e+002, 1.343604e+002
6.830135e+002, 1.341549e+002
6.834957e+002, 1.341687e+002
6.839778e+002, 1.348049e+002
6.844599e+002, 1.356831e+002
6.849420e+002, 1.360684e+002
6.854241e+002, 1.350264e+002
6.859063e+002, 1.341530e+002
6.863884e+002, 1.342058e+002
6.868705e+002, 1.349261e+002
6.873526e+002, 1.353850e+002
6.878347e+002, 1.353636e+002
6.883168e+002, 1.353387e+002
6.887990e+002, 1.354871e+002
6.892811e+002, 1.357522e+002
6.897632e+002, 1.356777e+002
6.902453e+002, 1.352111e+002
6.907274e+002, 1.347773e+002
6.912095e+002, 1.345712e+002
6.916917e+002, 1.345936e+002
6.921738e+002, 1.350305e+002
6.926559e+002, 1.358482e+002
6.931380e+002, 1.363920e+002
6.936201e+002, 1.358624e+002
6.941022e+002, 1.350129e+002
6.945844e+002, 1.345704e+002
6.950665e+002, 1.346736e+002
6.955486e+002, 1.348955e+002
6.960307e+002, 1.351266e+002
6.965128e+002, 1.353932e+002
6.969949e+002, 1.357465e+002
6.974771e+002, 1.364307e+002
6.979592e+002, 1.366516e+002
6.984413e+002, 1.361964e+002
6.989234e+002, 1.355527e+002
6.994055e+002, 1.353803e+002
6.998876e+002, 1.356936e+002
7.003698e+002, 1.357487e+002
7.008519e+002, 1.353329e+002
7.013340e+002, 1.348547e+002
7.018161e+002, 1.350295e+002
7.022982e+002, 1.356016e+002
7.027803e+002, 1.359121e+002
7.032625e+002, 1.354476e+002
7.037446e+002, 1.349731e+002
7.042267e+002, 1.351403e+002
7.047088e+002, 1.356676e+002
7.051909e+002, 1.359356e+002
7.056730e+002, 1.354151e+002
7.061552e+002, 1.350216e+002
7.066373e+002, 1.349738e+002
7.071194e+002, 1.352232e+002
7.076015e+002, 1.356046e+002
7.080836e+002, 1.362055e+002
7.085657e+002, 1.366515e+002
7.090479e+002, 1.367663e+002
7.095300e+002, 1.366055e+002
7.100121e+002, 1.363106e+002
7.104942e+002, 1.358925e+002
7.109763e+002, 1.356626e+002
7.114584e+002, 1.359917e+002
7.119406e+002, 1.365398e+002
7.124227e+002, 1.369613e+002
7.129048e+002, 1.372308e+002
7.133869e+002, 1.372255e+002
7.138690e+002, 1.365245e+002
7.143511e+002, 1.357981e+002
7.148333e+002, 1.355173e+002
7.153154e+002, 1.359151e+002
7.157975e+002, 1.361972e+002
7.162796e+002, 1.363612e+002
7.167617e+002, 1.364160e+002
7.172438e+002, 1.363343e+002
7.177260e+002, 1.360983e+002
7.182081e+002, 1.359802e+002
7.186902e+002, 1.360329e+002
7.191723e+002, 1.360614e+002
7.196544e+002, 1.356907e+002
7.201365e+002, 1.351236e+002
7.206187e+002, 1.348899e+002
7.211008e+002, 1.351590e+002
7.215829e+002, 1.356111e+002
7.220650e+002, 1.361968e+002
7.225471e+002, 1.367527e+002
7.230292e+002, 1.370715e+002
7.235114e+002, 1.367470e+002
7.239935e+002, 1.365921e+002
7.244756e+002, 1.368420e+002
7.249577e+002, 1.372901e+002
7.254398e+002, 1.376052e+002
7.259219e+002, 1.377611e+002
7.264041e+002, 1.378439e+002
7.268862e+002, 1.378477e+002
7.273683e+002, 1.378139e+002
7.278504e+002, 1.379035e+002
7.283325e+002, 1.380804e+002
7.288146e+002, 1.380866e+002
7.292968e+002, 1.376387e+002
7.297789e+002, 1.371042e+002
7.302610e+002, 1.369029e+002
7.307431e+002, 1.369695e+002
7.312252e+002, 1.370872e+002
7.317073e+002, 1.372318e+002
7.321895e+002, 1.373414e+002
7.326716e+002, 1.373222e+002
7.331537e+002, 1.371994e+002
7.336358e+002, 1.373120e+002
7.341179e+002, 1.378639e+002
7.346000e+002, 1.383053e+002
7.350822e+002, 1.383510e+002
7.355643e+002, 1.380562e+002
7.360464e+002, 1.380222e+002
7.365285e+002, 1.382692e+002
7.370106e+002, 1.383933e+002
7.374927e+002, 1.378924e+002
7.379749e+002, 1.371588e+002
7.384570e+002, 1.369054e+002
7.389391e+002, 1.371594e+002
7.394212e+002, 1.374791e+002
7.399033e+002, 1.377534e+002
7.403854e+002, 1.378886e+002
7.408676e+002, 1.377460e+002
7.413497e+002, 1.371720e+002
7.418318e+002, 1.368955e+002
7.423139e+002, 1.371402e+002
7.427960e+002, 1.374779e+002
7.432781e+002, 1.376048e+002
7.437603e+002, 1.374763e+002
7.442424e+002, 1.374495e+002
7.447245e+002, 1.375362e+002
7.452066e+002, 1.377178e+002
7.456887e+002, 1.380079e+002
7.461708e+002, 1.383793e+002
7.466530e+002, 1.388157e+002
7.471351e+002, 1.393680e+002
7.476172e+002, 1.396992e+002
7.480993e+002, 1.392262e+002
7.485814e+002, 1.385447e+002
7.490635e+002, 1.383421e+002
7.495457e+002, 1.391835e+002
7.500278e+002, 1.398533e+002
7.505099e+002, 1.401710e+002
7.509920e+002, 1.402517e+002
7.514741e+002, 1.401783e+002
7.519562e+002, 1.398974e+002
7.524384e+002, 1.396658e+002
7.529205e+002, 1.394983e+002
7.534026e+002, 1.394293e+002
7.538847e+002, 1.395630e+002
7.543668e+002, 1.398547e+002
7.548489e+002, 1.401382e+002
7.553311e+002, 1.403764e+002
7.558132e+002, 1.405612e+002
7.562953e+002, 1.406463e+002
7.567774e+002, 1.406787e+002
7.572595e+002, 1.407391e+002
7.577416e+002, 1.411281e+002
7.582238e+002, 1.412241e+002
7.587059e+002, 1.405035e+002
7.591880e+002, 1.394921e+002
7.596701e+002, 1.394028e+002
7.601522e+002, 1.406416e+002
7.606343e+002, 1.414493e+002
7.611165e+002, 1.412027e+002
7.615986e+002, 1.404460e+002
7.620807e+002, 1.406258e+002
7.625628e+002, 1.415818e+002
7.630449e+002, 1.423755e+002
7.635270e+002, 1.425734e+002
7.640092e+002, 1.424129e+002
7.644913e+002, 1.418329e+002
7.649734e+002, 1.410417e+002
7.654555e+002, 1.406776e+002
7.659376e+002, 1.415039e+002
7.664197e+002, 1.422362e+002
7.669019e+002, 1.423166e+002
7.673840e+002, 1.419031e+002
7.678661e+002, 1.417274e+002
7.683482e+002, 1.418346e+002
7.688303e+002, 1.420612e+002
7.693124e+002, 1.424669e+002
7.697946e+002, 1.428986e+002
7.702767e+002, 1.426823e+002
7.707588e+002, 1.418913e+002
7.712409e+002, 1.412086e+002
7.717230e+002, 1.410557e+002
7.722051e+002, 1.412071e+002
7.726873e+002, 1.415819e+002
7.731694e+002, 1.421216e+002
7.736515e+002, 1.424576e+002
7.741336e+002, 1.423053e+002
7.746157e+002, 1.420760e+002
7.750978e+002, 1.419536e+002
7.755800e+002, 1.419349e+002
7.760621e+002, 1.418124e+002
7.765442e+002, 1.415183e+002
7.770263e+002, 1.413165e+002
7.775084e+002, 1.414040e+002
7.779905e+002, 1.417099e+002
7.784727e+002, 1.419150e+002
7.789548e+002, 1.420204e+002
7.794369e+002, 1.420581e+002
7.799190e+002, 1.420207e+002
7.804011e+002, 1.419441e+002
7.808832e+002, 1.418240e+002
7.813654e+002, 1.416642e+002
7.818475e+002, 1.416169e+002
7.823296e+002, 1.418515e+002
7.828117e+002, 1.421023e+002
7.832938e+002, 1.422413e+002
7.837759e+002, 1.422611e+002
7.842581e+002, 1.422667e+002
7.847402e+002, 1.422731e+002
7.852223e+002, 1.422252e+002
7.857044e+002, 1.420061e+002
7.861865e+002, 1.416972e+002
7.866686e+002, 1.416741e+002
7.871508e+002, 1.419443e+002
7.876329e+002, 1.421651e+002
7.881150e+002, 1.420289e+002
7.885971e+002, 1.417539e+002
7.890792e+002, 1.415154e+002
7.895613e+002, 1.413199e+002
7.900435e+002, 1.412557e+002
7.905256e+002, 1.415445e+002
7.910077e+002, 1.417838e+002
7.914898e+002, 1.416832e+002
7.919719e+002, 1.411276e+002
7.924540e+002, 1.411377e+002
7.929362e+002, 1.418553e+002
7.934183e+002, 1.425421e+002
7.939004e+002, 1.424385e+002
7.943825e+002, 1.418238e+002
7.948646e+002, 1.414662e+002
7.953467e+002, 1.414190e+002
7.958289e+002, 1.415347e+002
7.963110e+002, 1.418984e+002
7.967931e+002, 1.422520e+002
7.972752e+002, 1.423260e+002
7.977573e+002, 1.419903e+002
7.982394e+002, 1.418439e+002
7.987216e+002, 1.421909e+002
7.992037e+002, 1.424900e+002
7.996858e+002, 1.423498e+002
8.001679e+002, 1.416872e+002
8.006500e+002, 1.412462e+002
8.011321e+002, 1.410403e+002
8.016143e+002, 1.409352e+002
8.020964e+002, 1.407847e+002
8.025785e+002, 1.406530e+002
8.030606e+002, 1.406795e+002
8.035427e+002, 1.408865e+002
8.040248e+002, 1.411421e+002
8.045070e+002, 1.413829e+002
8.049891e+002, 1.416303e+002
8.054712e+002, 1.419130e+002
8.059533e+002, 1.422744e+002
8.064354e+002, 1.425262e+002
8.069175e+002, 1.425982e+002
8.073997e+002, 1.426593e+002
8.078818e+002, 1.429168e+002
8.083639e+002, 1.433567e+002
8.088460e+002, 1.433621e+002
8.093281e+002, 1.428818e+002
8.098102e+002, 1.423447e+002
8.102924e+002, 1.421959e+002
8.107745e+002, 1.422020e+002
8.112566e+002, 1.420047e+002
8.117387e+002, 1.415309e+002
8.122208e+002, 1.411587e+002
8.127029e+002, 1.410792e+002
8.131851e+002, 1.411346e+002
8.136672e+002, 1.412167e+002
8.141493e+002, 1.413095e+002
8.146314e+002, 1.415023e+002
8.151135e+002, 1.418432e+002
8.155956e+002, 1.421597e+002
8.160778e+002, 1.423026e+002
8.165599e+002, 1.422970e+002
8.170420e+002, 1.422506e+002
8.175241e+002, 1.421671e+002
8.180062e+002, 1.420444e+002
8.184883e+002, 1.417012e+002
8.189705e+002, 1.414249e+002
8.194526e+002, 1.415759e+002
8.199347e+002, 1.422694e+002
8.204168e+002, 1.428043e+002
8.208989e+002, 1.429748e+002
8.213810e+002, 1.429986e+002
8.218632e+002, 1.429523e+002
8.223453e+002, 1.428204e+002
8.228274e+002, 1.428352e+002
8.233095e+002, 1.430427e+002
8.237916e+002, 1.431319e+002
8.242737e+002, 1.426560e+002
8.247559e+002, 1.419455e+002
8.252380e+002, 1.416956e+002
8.257201e+002, 1.419428e+002
8.262022e+002, 1.423335e+002
8.266843e+002, 1.428694e+002
8.271664e+002, 1.433080e+002
8.276486e+002, 1.434109e+002
8.281307e+002, 1.430814e+002
8.286128e+002, 1.430432e+002
8.290949e+002, 1.435498e+002
8.295770e+002, 1.439044e+002
8.300591e+002, 1.435555e+002
8.305413e+002, 1.426113e+002
8.310234e+002, 1.423814e+002
8.315055e+002, 1.428563e+002
8.319876e+002, 1.434080e+002
8.324697e+002, 1.437272e+002
8.329518e+002, 1.438001e+002
8.334340e+002, 1.434260e+002
8.339161e+002, 1.426548e+002
8.343982e+002, 1.422463e+002
8.348803e+002, 1.429856e+002
8.353624e+002, 1.436272e+002
8.358445e+002, 1.435344e+002
8.363267e+002, 1.427534e+002
8.368088e+002, 1.423851e+002
8.372909e+002, 1.425045e+002
8.377730e+002, 1.427064e+002
8.382551e+002, 1.427359e+002
8.387372e+002, 1.426955e+002
8.392194e+002, 1.428784e+002
8.397015e+002, 1.432496e+002
8.401836e+002, 1.436038e+002
8.406657e+002, 1.438903e+002
8.411478e+002, 1.440622e+002
8.416299e+002, 1.440762e+002
8.421121e+002, 1.439361e+002
8.425942e+002, 1.436826e+002
8.430763e+002, 1.431291e+002
8.435584e+002, 1.428025e+002
8.440405e+002, 1.429225e+002
8.445226e+002, 1.433763e+002
8.450048e+002, 1.437734e+002
8.454869e+002, 1.441089e+002
8.459690e+002, 1.443236e+002
8.464511e+002, 1.443909e+002
8.469332e+002, 1.443176e+002
8.474153e+002, 1.439964e+002
8.478975e+002, 1.435330e+002
8.483796e+002, 1.432247e+002
8.488617e+002, 1.432908e+002
8.493438e+002, 1.434028e+002
8.498259e+002, 1.435270e+002
8.503080e+002, 1.436191e+002
8.507902e+002, 1.435090e+002
8.512723e+002, 1.431407e+002
8.517544e+002, 1.429286e+002
8.522365e+002, 1.430242e+002
8.527186e+002, 1.432862e+002
8.532007e+002, 1.435213e+002
8.536829e+002, 1.437177e+002
8.541650e+002, 1.438405e+002
8.546471e+002, 1.437512e+002
8.551292e+002, 1.437447e+002
8.556113e+002, 1.441511e+002
8.560934e+002, 1.446857e+002
8.565756e+002, 1.447942e+002
8.570577e+002, 1.440685e+002
8.575398e+002, 1.437749e+002
8.580219e+002, 1.442321e+002
8.585040e+002, 1.448870e+002
8.589861e+002, 1.447112e+002
8.594683e+002, 1.438780e+002
8.599504e+002, 1.433512e+002
8.604325e+002, 1.434220e+002
8.609146e+002, 1.436469e+002
8.613967e+002, 1.435678e+002
8.618788e+002, 1.434302e+002
8.623610e+002, 1.435588e+002
8.628431e+002, 1.443340e+002
8.633252e+002, 1.448222e+002
8.638073e+002, 1.448508e+002
8.642894e+002, 1.446773e+002
8.647715e+002, 1.445466e+002
8.652537e+002, 1.444659e+002
8.657358e+002, 1.442873e+002
8.662179e+002, 1.439801e+002
8.667000e+002, 1.437166e+002
8.671821e+002, 1.437012e+002
8.676642e+002, 1.438297e+002
8.681464e+002, 1.439721e+002
8.686285e+002, 1.441217e+002
8.691106e+002, 1.442119e+002
8.695927e+002, 1.441525e+002
8.700748e+002, 1.440779e+002
8.705569e+002, 1.440519e+002
8.710391e+002, 1.440542e+002
8.715212e+002, 1.442980e+002
8.720033e+002, 1.448787e+002
8.724854e+002, 1.452921e+002
8.729675e+002, 1.449203e+002
8.734496e+002, 1.441436e+002
8.739318e+002, 1.439921e+002
8.744139e+002, 1.444361e+002
8.748960e+002, 1.447606e+002
8.753781e+002, 1.442857e+002
8.758602e+002, 1.437808e+002
8.763423e+002, 1.437802e+002
8.768245e+002, 1.443110e+002
8.773066e+002, 1.447133e+002
8.777887e+002, 1.450724e+002
8.782708e+002, 1.451052e+002
8.787529e+002, 1.445659e+002
8.792350e+002, 1.436835e+002
8.797172e+002, 1.432100e+002
8.801993e+002, 1.431141e+002
8.806814e+002, 1.431267e+002
8.811635e+002, 1.431502e+002
8.816456e+002, 1.431880e+002
8.821277e+002, 1.432118e+002
8.826099e+002, 1.432481e+002
8.830920e+002, 1.433785e+002
8.835741e+002, 1.436641e+002
8.840562e+002, 1.439887e+002
8.845383e+002, 1.444042e+002
8.850204e+002, 1.447861e+002
8.855026e+002, 1.447918e+002
8.859847e+002, 1.444475e+002
8.864668e+002, 1.442006e+002
8.869489e+002, 1.442103e+002
8.874310e+002, 1.442873e+002
8.879131e+002, 1.441912e+002
8.883953e+002, 1.440363e+002
8.888774e+002, 1.440030e+002
8.893595e+002, 1.443871e+002
8.898416e+002, 1.445143e+002
8.903237e+002, 1.440491e+002
8.908058e+002, 1.435044e+002
8.912880e+002, 1.434846e+002
8.917701e+002, 1.440518e+002
8.922522e+002, 1.443301e+002
8.927343e+002, 1.442184e+002
8.932164e+002, 1.439983e+002
8.936985e+002, 1.439096e+002
8.941807e+002, 1.439222e+002
8.946628e+002, 1.440507e+002
8.951449e+002, 1.443375e+002
8.956270e+002, 1.444214e+002
8.961091e+002, 1.437728e+002
8.965912e+002, 1.432413e+002
8.970734e+002, 1.434730e+002
8.975555e+002, 1.445910e+002
8.980376e+002, 1.448081e+002
8.985197e+002, 1.439836e+002
8.990018e+002, 1.431180e+002
8.994839e+002, 1.429215e+002
8.999661e+002, 1.431645e+002
9.004482e+002, 1.435386e+002
9.009303e+002, 1.439971e+002
9.014124e+002, 1.442982e+002
9.018945e+002, 1.442470e+002
9.023766e+002, 1.440891e+002
9.028588e+002, 1.438541e+002
9.033409e+002, 1.435941e+002
9.038230e+002, 1.435857e+002
9.043051e+002, 1.439409e+002
9.047872e+002, 1.440570e+002
9.052693e+002, 1.435758e+002
9.057515e+002, 1.429312e+002
9.062336e+002, 1.431373e+002
9.067157e+002, 1.439289e+002
9.071978e+002, 1.445411e+002
9.076799e+002, 1.445880e+002
9.081620e+002, 1.444737e+002
9.086442e+002, 1.441970e+002
9.091263e+002, 1.439409e+002
9.096084e+002, 1.440325e+002
9.100905e+002, 1.446984e+002
9.105726e+002, 1.451005e+002
9.110547e+002, 1.451263e+002
9.115369e+002, 1.449789e+002
9.120190e+002, 1.449723e+002
9.125011e+002, 1.450103e+002
9.129832e+002, 1.447614e+002
9.134653e+002, 1.441198e+002
9.139474e+002, 1.435265e+002
9.144296e+002, 1.431617e+002
9.149117e+002, 1.430314e+002
9.153938e+002, 1.432354e+002
9.158759e+002, 1.439418e+002
9.163580e+002, 1.441401e+002
9.168401e+002, 1.435909e+002
9.173223e+002, 1.431196e+002
9.178044e+002, 1.435478e+002
9.182865e+002, 1.445184e+002
9.187686e+002, 1.445454e+002
9.192507e+002, 1.437243e+002
9.197328e+002, 1.430393e+002
9.202150e+002, 1.432876e+002
9.206971e+002, 1.437047e+002
9.211792e+002, 1.438125e+002
9.216613e+002, 1.436362e+002
9.221434e+002, 1.435338e+002
9.226255e+002, 1.435184e+002
9.231077e+002, 1.435776e+002
9.235898e+002, 1.437374e+002
9.240719e+002, 1.439380e+002
9.245540e+002, 1.440063e+002
9.250361e+002, 1.439843e+002
9.255182e+002, 1.440488e+002
9.260004e+002, 1.443129e+002
9.264825e+002, 1.445979e+002
9.269646e+002, 1.448535e+002
9.274467e+002, 1.450364e+002
9.279288e+002, 1.450634e+002
9.284109e+002, 1.448132e+002
9.288931e+002, 1.446602e+002
9.293752e+002, 1.446335e+002
9.298573e+002, 1.446845e+002
9.303394e+002, 1.447935e+002
9.308215e+002, 1.449372e+002
9.313036e+002, 1.449671e+002
9.317858e+002, 1.448493e+002
9.322679e+002, 1.449312e+002
9.327500e+002, 1.460935e+002
9.332321e+002, 1.470795e+002
9.337142e+002, 1.467141e+002
9.341964e+002, 1.446593e+002
9.346785e+002, 1.433734e+002
9.351606e+002, 1.430979e+002
9.356427e+002, 1.430260e+002
9.361248e+002, 1.427030e+002
9.366069e+002, 1.422735e+002
9.370891e+002, 1.422808e+002
9.375712e+002, 1.426623e+002
9.380533e+002, 1.431116e+002
9.385354e+002, 1.436406e+002
9.390175e+002, 1.440062e+002
9.394996e+002, 1.439115e+002
9.399818e+002, 1.435413e+002
9.404639e+002, 1.434510e+002
9.409460e+002, 1.438005e+002
9.414281e+002, 1.440358e+002
9.419102e+002, 1.440450e+002
9.423923e+002, 1.439207e+002
9.428745e+002, 1.437511e+002
9.433566e+002, 1.435729e+002
9.438387e+002, 1.434865e+002
9.443208e+002, 1.435021e+002
9.448029e+002, 1.436695e+002
9.452850e+002, 1.443076e+002
9.457672e+002, 1.449304e+002
9.462493e+002, 1.450159e+002
9.467314e+002, 1.443614e+002
9.472135e+002, 1.440311e+002
9.476956e+002, 1.441095e+002
9.481777e+002, 1.442299e+002
9.486599e+002, 1.440437e+002
9.491420e+002, 1.437047e+002
9.496241e+002, 1.435673e+002
9.501062e+002, 1.436334e+002
9.505883e+002, 1.438315e+002
9.510704e+002, 1.443198e+002
9.515526e+002, 1.447372e+002
9.520347e+002, 1.448899e+002
9.525168e+002, 1.448146e+002
9.529989e+002, 1.445868e+002
9.534810e+002, 1.441456e+002
9.539631e+002, 1.438358e+002
9.544453e+002, 1.437555e+002
9.549274e+002, 1.438571e+002
9.554095e+002, 1.441858e+002
9.558916e+002, 1.446189e+002
9.563737e+002, 1.448829e+002
9.568558e+002, 1.447610e+002
9.573380e+002, 1.447107e+002
9.578201e+002, 1.450445e+002
9.583022e+002, 1.454172e+002
9.587843e+002, 1.454631e+002
9.592664e+002, 1.450805e+002
9.597485e+002, 1.449992e+002
9.602307e+002, 1.452783e+002
9.607128e+002, 1.455786e+002
9.611949e+002, 1.456003e+002
9.616770e+002, 1.454542e+002
9.621591e+002, 1.451938e+002
9.626412e+002, 1.448470e+002
9.631234e+002, 1.447798e+002
9.636055e+002, 1.455334e+002
9.640876e+002, 1.461183e+002
9.645697e+002, 1.461194e+002
9.650518e+002, 1.456833e+002
9.655339e+002, 1.454449e+002
9.660161e+002, 1.454028e+002
9.664982e+002, 1.454378e+002
9.669803e+002, 1.454753e+002
9.674624e+002, 1.456137e+002
9.679445e+002, 1.461119e+002
9.684266e+002, 1.467492e+002
9.689088e+002, 1.471515e+002
9.693909e+002, 1.470897e+002
9.698730e+002, 1.469553e+002
9.703551e+002, 1.467026e+002
9.708372e+002, 1.464873e+002
9.713193e+002, 1.465457e+002
9.718015e+002, 1.468305e+002
9.722836e+002, 1.467780e+002
9.727657e+002, 1.463330e+002
9.732478e+002, 1.460653e+002
9.737299e+002, 1.466609e+002
9.742120e+002, 1.474422e+002
9.746942e+002, 1.478625e+002
9.751763e+002, 1.478691e+002
9.756584e+002, 1.477696e+002
9.761405e+002, 1.475769e+002
9.766226e+002, 1.472603e+002
9.771047e+002, 1.466586e+002
9.775869e+002, 1.460438e+002
9.780690e+002, 1.463695e+002
9.785511e+002, 1.473918e+002
9.790332e+002, 1.482081e+002
9.795153e+002, 1.484095e+002
9.799974e+002, 1.483898e+002
9.804796e+002, 1.482662e+002
9.809617e+002, 1.480857e+002
9.814438e+002, 1.478970e+002
9.819259e+002, 1.476274e+002
9.824080e+002, 1.476101e+002
9.828901e+002, 1.479133e+002
9.833723e+002, 1.482708e+002
9.838544e+002, 1.485304e+002
9.843365e+002, 1.486159e+002
9.848186e+002, 1.481428e+002
9.853007e+002, 1.471174e+002
9.857828e+002, 1.466696e+002
9.862650e+002, 1.479969e+002
9.867471e+002, 1.492698e+002
9.872292e+002, 1.496033e+002
9.877113e+002, 1.491989e+002
9.881934e+002, 1.491320e+002
9.886755e+002, 1.494155e+002
9.891577e+002, 1.497039e+002
9.896398e+002, 1.498627e+002
9.901219e+002, 1.499613e+002
9.906040e+002, 1.502011e+002
9.910861e+002, 1.504056e+002
9.915682e+002, 1.502665e+002
9.920504e+002, 1.490855e+002
9.925325e+002, 1.485342e+002
9.930146e+002, 1.490058e+002
9.934967e+002, 1.497581e+002
9.939788e+002, 1.501118e+002
9.944609e+002, 1.501105e+002
9.949431e+002, 1.501204e+002
9.954252e+002, 1.501618e+002
9.959073e+002, 1.501922e+002
9.963894e+002, 1.502135e+002
9.968715e+002, 1.501861e+002
9.973536e+002, 1.500443e+002
9.978358e+002, 1.498031e+002
9.983179e+002, 1.496339e+002
9.988000e+002, 1.495054e+002
9.992821e+002, 1.495678e+002
9.997642e+002, 1.499587e+002
1.000246e+003, 1.504306e+002
1.000728e+003, 1.503712e+002
1.001211e+003, 1.499866e+002
1.001693e+003, 1.498237e+002
1.002175e+003, 1.501721e+002
1.002657e+003, 1.504951e+002
1.003139e+003, 1.505489e+002
1.003621e+003, 1.504776e+002
1.004103e+003, 1.503863e+002
1.004585e+003, 1.502425e+002
1.005068e+003, 1.503432e+002
1.005550e+003, 1.507278e+002
1.006032e+003, 1.509635e+002
1.006514e+003, 1.504413e+002
1.006996e+003, 1.497611e+002
1.007478e+003, 1.497058e+002
1.007960e+003, 1.502106e+002
1.008442e+003, 1.507405e+002
1.008924e+003, 1.513281e+002
1.009407e+003, 1.516810e+002
1.009889e+003, 1.517012e+002
1.010371e+003, 1.514927e+002
1.010853e+003, 1.512059e+002
1.011335e+003, 1.508655e+002
1.011817e+003, 1.506600e+002
1.012299e+003, 1.506475e+002
1.012781e+003, 1.507149e+002
1.013263e+003, 1.508830e+002
1.013746e+003, 1.510286e+002
1.014228e+003, 1.509941e+002
1.014710e+003, 1.507104e+002
1.015192e+003, 1.506563e+002
1.015674e+003, 1.509410e+002
1.016156e+003, 1.510991e+002
1.016638e+003, 1.506291e+002
1.017120e+003, 1.499385e+002
1.017603e+003, 1.499938e+002
1.018085e+003, 1.506250e+002
1.018567e+003, 1.512349e+002
1.019049e+003, 1.516983e+002
1.019531e+003, 1.519074e+002
1.020013e+003, 1.515743e+002
1.020495e+003, 1.511389e+002
1.020977e+003, 1.513825e+002
1.021459e+003, 1.523293e+002
1.021942e+003, 1.527084e+002
1.022424e+003, 1.523031e+002
1.022906e+003, 1.517675e+002
1.023388e+003, 1.517599e+002
1.023870e+003, 1.518962e+002
1.024352e+003, 1.516892e+002
1.024834e+003, 1.510468e+002
1.025316e+003, 1.509253e+002
1.025799e+003, 1.516568e+002
1.026281e+003, 1.523395e+002
1.026763e+003, 1.526373e+002
1.027245e+003, 1.526341e+002
1.027727e+003, 1.524053e+002
1.028209e+003, 1.520601e+002
1.028691e+003, 1.519816e+002
1.029173e+003, 1.525942e+002
1.029656e+003, 1.530629e+002
1.030138e+003, 1.528455e+002
1.030620e+003, 1.523777e+002
1.031102e+003, 1.521039e+002
1.031584e+003, 1.520343e+002
1.032066e+003, 1.521507e+002
1.032548e+003, 1.524796e+002
1.033030e+003, 1.527181e+002
1.033512e+003, 1.524167e+002
1.033995e+003, 1.520122e+002
1.034477e+003, 1.521367e+002
1.034959e+003, 1.527041e+002
1.035441e+003, 1.530156e+002
1.035923e+003, 1.527438e+002
1.036405e+003, 1.524405e+002
1.036887e+003, 1.521496e+002
1.037369e+003, 1.519609e+002
1.037851e+003, 1.522479e+002
1.038334e+003, 1.528113e+002
1.038816e+003, 1.527801e+002
1.039298e+003, 1.517825e+002
1.039780e+003, 1.510001e+002
1.040262e+003, 1.513806e+002
1.040744e+003, 1.521058e+002
1.041226e+003, 1.525670e+002
1.041708e+003, 1.527549e+002
1.042191e+003, 1.526325e+002
1.042673e+003, 1.521440e+002
1.043155e+003, 1.518230e+002
1.043637e+003, 1.521133e+002
1.044119e+003, 1.525984e+002
1.044601e+003, 1.526911e+002
1.045083e+003, 1.525266e+002
1.045565e+003, 1.524116e+002
1.046047e+003, 1.525380e+002
1.046530e+003, 1.525605e+002
1.047012e+003, 1.523999e+002
1.047494e+003, 1.522030e+002
1.047976e+003, 1.521431e+002
1.048458e+003, 1.521926e+002
1.048940e+003, 1.522012e+002
1.049422e+003, 1.521602e+002
1.049904e+003, 1.521997e+002
1.050386e+003, 1.524002e+002
1.050869e+003, 1.527070e+002
1.051351e+003, 1.532026e+002
1.051833e+003, 1.537881e+002
1.052315e+003, 1.540433e+002
1.052797e+003, 1.539285e+002
1.053279e+003, 1.537642e+002
1.053761e+003, 1.536189e+002
1.054243e+003, 1.534993e+002
1.054726e+003, 1.533570e+002
1.055208e+003, 1.532692e+002
1.055690e+003, 1.533764e+002
1.056172e+003, 1.538150e+002
1.056654e+003, 1.540924e+002
1.057136e+003, 1.541299e+002
1.057618e+003, 1.540842e+002
1.058100e+003, 1.540428e+002
1.058583e+003, 1.539951e+002
1.059065e+003, 1.538452e+002
1.059547e+003, 1.536330e+002
1.060029e+003, 1.535417e+002
1.060511e+003, 1.538313e+002
1.060993e+003, 1.540737e+002
1.061475e+003, 1.539781e+002
1.061957e+003, 1.537893e+002
1.062439e+003, 1.538824e+002
1.062922e+003, 1.543115e+002
1.063404e+003, 1.544944e+002
1.063886e+003, 1.543569e+002
1.064368e+003, 1.542534e+002
1.064850e+003, 1.546187e+002
1.065332e+003, 1.550905e+002
1.065814e+003, 1.552580e+002
1.066296e+003, 1.551238e+002
1.066778e+003, 1.551546e+002
1.067261e+003, 1.555567e+002
1.067743e+003, 1.557347e+002
1.068225e+003, 1.554775e+002
1.068707e+003, 1.550156e+002
1.069189e+003, 1.546877e+002
1.069671e+003, 1.545067e+002
1.070153e+003, 1.545516e+002
1.070635e+003, 1.549224e+002
1.071118e+003, 1.552086e+002
1.071600e+003, 1.551244e+002
1.072082e+003, 1.550175e+002
1.072564e+003, 1.551047e+002
1.073046e+003, 1.553649e+002
1.073528e+003, 1.555044e+002
1.074010e+003, 1.555346e+002
1.074492e+003, 1.556103e+002
1.074974e+003, 1.560358e+002
1.075457e+003, 1.562867e+002
1.075939e+003, 1.556908e+002
1.076421e+003, 1.547542e+002
1.076903e+003, 1.543411e+002
1.077385e+003, 1.545891e+002
1.077867e+003, 1.550904e+002
1.078349e+003, 1.558942e+002
1.078831e+003, 1.566496e+002
1.079313e+003, 1.569440e+002
1.079796e+003, 1.570279e+002
1.080278e+003, 1.573321e+002
1.080760e+003, 1.578236e+002
1.081242e+003, 1.581203e+002
1.081724e+003, 1.578958e+002
1.082206e+003, 1.577252e+002
1.082688e+003, 1.577066e+002
1.083170e+003, 1.578197e+002
1.083652e+003, 1.581499e+002
1.084135e+003, 1.585943e+002
1.084617e+003, 1.586867e+002
1.085099e+003, 1.582897e+002
1.085581e+003, 1.579437e+002
1.086063e+003, 1.580442e+002
1.086545e+003, 1.582261e+002
1.087027e+003, 1.581941e+002
1.087509e+003, 1.579975e+002
1.087992e+003, 1.582577e+002
1.088474e+003, 1.589818e+002
1.088956e+003, 1.595565e+002
1.089438e+003, 1.596612e+002
1.089920e+003, 1.596406e+002
1.090402e+003, 1.598374e+002
1.090884e+003, 1.601213e+002
1.091366e+003, 1.603109e+002
1.091849e+003, 1.603489e+002
1.092331e+003, 1.603644e+002
1.092813e+003, 1.603228e+002
1.093295e+003, 1.603756e+002
1.093777e+003, 1.608056e+002
1.094259e+003, 1.613205e+002
1.094741e+003, 1.612652e+002
1.095223e+003, 1.607963e+002
1.095705e+003, 1.604821e+002
1.096188e+003, 1.607138e+002
1.096670e+003, 1.608619e+002
1.097152e+003, 1.607602e+002
1.097634e+003, 1.606135e+002
1.098116e+003, 1.607392e+002
1.098598e+003, 1.610618e+002
1.099080e+003, 1.611989e+002
1.099562e+003, 1.611188e+002
1.100044e+003, 1.610662e+002
1.100527e+003, 1.612910e+002
1.101009e+003, 1.614845e+002
1.101491e+003, 1.614157e+002
1.101973e+003, 1.611991e+002
1.102455e+003, 1.612439e+002
1.102937e+003, 1.615567e+002
1.103419e+003, 1.616676e+002
1.103901e+003, 1.614057e+002
1.104384e+003, 1.611414e+002
1.104866e+003, 1.612079e+002
1.105348e+003, 1.614712e+002
1.105830e+003, 1.619082e+002
1.106312e+003, 1.625767e+002
1.106794e+003, 1.626160e+002
1.107276e+003, 1.618187e+002
1.107758e+003, 1.612071e+002
1.108240e+003, 1.612593e+002
1.108723e+003, 1.617413e+002
1.109205e+003, 1.625902e+002
1.109687e+003, 1.635171e+002
1.110169e+003, 1.639599e+002
1.110651e+003, 1.634662e+002
1.111133e+003, 1.629921e+002
1.111615e+003, 1.625275e+002
1.112097e+003, 1.622359e+002
1.112579e+003, 1.623740e+002
1.113062e+003, 1.627731e+002
1.113544e+003, 1.628023e+002
1.114026e+003, 1.625245e+002
1.114508e+003, 1.622685e+002
1.114990e+003, 1.621989e+002
1.115472e+003, 1.621714e+002
1.115954e+003, 1.621292e+002
1.116436e+003, 1.621175e+002
1.116919e+003, 1.622332e+002
1.117401e+003, 1.624631e+002
1.117883e+003, 1.625759e+002
1.118365e+003, 1.625531e+002
1.118847e+003, 1.625044e+002
1.119329e+003, 1.626237e+002
1.119811e+003, 1.626382e+002
1.120293e+003, 1.621207e+002
1.120776e+003, 1.613526e+002
1.121258e+003, 1.614229e+002
1.121740e+003, 1.624564e+002
1.122222e+003, 1.630371e+002
1.122704e+003, 1.627921e+002
1.123186e+003, 1.623500e+002
1.123668e+003, 1.622978e+002
1.124150e+003, 1.624254e+002
1.124632e+003, 1.625285e+002
1.125115e+003, 1.625791e+002
1.125597e+003, 1.626052e+002
1.126079e+003, 1.626171e+002
1.126561e+003, 1.625659e+002
1.127043e+003, 1.624115e+002
1.127525e+003, 1.622229e+002
1.128007e+003, 1.622032e+002
1.128489e+003, 1.622050e+002
1.128971e+003, 1.619208e+002
1.129454e+003, 1.610280e+002
1.129936e+003, 1.605880e+002
1.130418e+003, 1.609255e+002
1.130900e+003, 1.612677e+002
1.131382e+003, 1.610182e+002
1.131864e+003, 1.604707e+002
1.132346e+003, 1.605976e+002
1.132828e+003, 1.612161e+002
1.133311e+003, 1.617236e+002
1.133793e+003, 1.618497e+002
1.134275e+003, 1.618291e+002
1.134757e+003, 1.616479e+002
1.135239e+003, 1.614189e+002
1.135721e+003, 1.612173e+002
1.136203e+003, 1.610498e+002
1.136685e+003, 1.610108e+002
1.137167e+003, 1.610894e+002
1.137650e+003, 1.611678e+002
1.138132e+003, 1.612194e+002
1.138614e+003, 1.612029e+002
1.139096e+003, 1.610553e+002
1.139578e+003, 1.608459e+002
1.140060e+003, 1.606653e+002
1.140542e+003, 1.605134e+002
1.141024e+003, 1.604815e+002
1.141506e+003, 1.605896e+002
1.141989e+003, 1.606653e+002
1.142471e+003, 1.604914e+002
1.142953e+003, 1.603067e+002
1.143435e+003, 1.602903e+002
1.143917e+003, 1.604319e+002
1.144399e+003, 1.606700e+002
1.144881e+003, 1.610538e+002
1.145363e+003, 1.611534e+002
1.145846e+003, 1.608222e+002
1.146328e+003, 1.603978e+002
1.146810e+003, 1.602371e+002
1.147292e+003, 1.601904e+002
1.147774e+003, 1.600796e+002
1.148256e+003, 1.598748e+002
1.148738e+003, 1.598184e+002
1.149220e+003, 1.599575e+002
1.149703e+003, 1.600833e+002
1.150185e+003, 1.601318e+002
1.150667e+003, 1.601124e+002
1.151149e+003, 1.599504e+002
1.151631e+003, 1.597637e+002
1.152113e+003, 1.597600e+002
1.152595e+003, 1.600603e+002
1.153077e+003, 1.602887e+002
1.153559e+003, 1.604775e+002
1.154042e+003, 1.604589e+002
1.154524e+003, 1.600366e+002
1.155006e+003, 1.594424e+002
1.155488e+003, 1.591801e+002
1.155970e+003, 1.591664e+002
1.156452e+003, 1.592070e+002
1.156934e+003, 1.592015e+002
1.157416e+003, 1.593423e+002
1.157898e+003, 1.597913e+002
1.158381e+003, 1.601552e+002
1.158863e+003, 1.600901e+002
1.159345e+003, 1.596967e+002
1.159827e+003, 1.592923e+002
1.160309e+003, 1.589120e+002
1.160791e+003, 1.587076e+002
1.161273e+003, 1.589910e+002
1.161755e+003, 1.591268e+002
1.162238e+003, 1.588524e+002
1.162720e+003, 1.584823e+002
1.163202e+003, 1.583222e+002
1.163684e+003, 1.583598e+002
1.164166e+003, 1.585703e+002
1.164648e+003, 1.589288e+002
1.165130e+003, 1.592285e+002
1.165612e+003, 1.593458e+002
1.166094e+003, 1.593833e+002
1.166577e+003, 1.593830e+002
1.167059e+003, 1.593334e+002
1.167541e+003, 1.591649e+002
1.168023e+003, 1.588978e+002
1.168505e+003, 1.588341e+002
1.168987e+003, 1.590071e+002
1.169469e+003, 1.591363e+002
1.169951e+003, 1.589859e+002
1.170433e+003, 1.587738e+002
1.170916e+003, 1.586289e+002
1.171398e+003, 1.585213e+002
1.171880e+003, 1.583534e+002
1.172362e+003, 1.581252e+002
1.172844e+003, 1.579396e+002
1.173326e+003, 1.578053e+002
1.173808e+003, 1.577955e+002
1.174290e+003, 1.581965e+002
1.174773e+003, 1.585567e+002
1.175255e+003, 1.583800e+002
1.175737e+003, 1.578077e+002
1.176219e+003, 1.576273e+002
1.176701e+003, 1.578562e+002
1.177183e+003, 1.581223e+002
1.177665e+003, 1.583811e+002
1.178147e+003, 1.584526e+002
1.178630e+003, 1.579942e+002
1.179112e+003, 1.573880e+002
1.179594e+003, 1.569429e+002
1.180076e+003, 1.566808e+002
1.180558e+003, 1.568959e+002
1.181040e+003, 1.576717e+002
1.181522e+003, 1.580985e+002
1.182004e+003, 1.576714e+002
1.182486e+003, 1.570967e+002
1.182969e+003, 1.572193e+002
1.183451e+003, 1.575881e+002
1.183933e+003, 1.576359e+002
1.184415e+003, 1.572518e+002
1.184897e+003, 1.568719e+002
1.185379e+003, 1.564624e+002
1.185861e+003, 1.562456e+002
1.186343e+003, 1.563787e+002
1.186825e+003, 1.567017e+002
1.187308e+003, 1.571881e+002
1.187790e+003, 1.576754e+002
1.188272e+003, 1.578632e+002
1.188754e+003, 1.575313e+002
1.189236e+003, 1.575143e+002
1.189718e+003, 1.578916e+002
1.190200e+003, 1.581804e+002
1.190682e+003, 1.579328e+002
1.191165e+003, 1.575369e+002
1.191647e+003, 1.575172e+002
1.192129e+003, 1.577265e+002
1.192611e+003, 1.578699e+002
1.193093e+003, 1.578969e+002
1.193575e+003, 1.578417e+002
1.194057e+003, 1.576809e+002
1.194539e+003, 1.575383e+002
1.195021e+003, 1.575815e+002
1.195504e+003, 1.576491e+002
1.195986e+003, 1.573652e+002
1.196468e+003, 1.569200e+002
1.196950e+003, 1.569225e+002
1.197432e+003, 1.579456e+002
1.197914e+003, 1.582354e+002
1.198396e+003, 1.574744e+002
1.198878e+003, 1.567389e+002
1.199360e+003, 1.573427e+002
1.199843e+003, 1.584281e+002
1.200325e+003, 1.587561e+002
1.200807e+003, 1.584365e+002
1.201289e+003, 1.580923e+002
1.201771e+003, 1.577940e+002
1.202253e+003, 1.575680e+002
1.202735e+003, 1.574018e+002
1.203217e+003, 1.573721e+002
1.203700e+003, 1.576950e+002
1.204182e+003, 1.581315e+002
1.204664e+003, 1.582987e+002
1.205146e+003, 1.582196e+002
1.205628e+003, 1.582383e+002
1.206110e+003, 1.584838e+002
1.206592e+003, 1.586209e+002
1.207074e+003, 1.585437e+002
1.207557e+003, 1.584888e+002
1.208039e+003, 1.587507e+002
1.208521e+003, 1.592220e+002
1.209003e+003, 1.599950e+002
1.209485e+003, 1.609991e+002
1.209967e+003, 1.610448e+002
1.210449e+003, 1.594978e+002
1.210931e+003, 1.582510e+002
1.211413e+003, 1.576699e+002
1.211896e+003, 1.575859e+002
1.212378e+003, 1.579929e+002
1.212860e+003, 1.586170e+002
1.213342e+003, 1.591338e+002
1.213824e+003, 1.595070e+002
1.214306e+003, 1.594367e+002
1.214788e+003, 1.586459e+002
1.215270e+003, 1.581900e+002
1.215752e+003, 1.584479e+002
1.216235e+003, 1.589046e+002
1.216717e+003, 1.588049e+002
1.217199e+003, 1.584364e+002
1.217681e+003, 1.581696e+002
1.218163e+003, 1.580539e+002
1.218645e+003, 1.582201e+002
1.219127e+003, 1.588496e+002
1.219609e+003, 1.591639e+002
1.220092e+003, 1.587857e+002
1.220574e+003, 1.582808e+002
1.221056e+003, 1.585938e+002
1.221538e+003, 1.592742e+002
1.222020e+003, 1.596812e+002
1.222502e+003, 1.596704e+002
1.222984e+003, 1.596063e+002
1.223466e+003, 1.594531e+002
1.223948e+003, 1.594462e+002
1.224431e+003, 1.597684e+002
1.224913e+003, 1.600739e+002
1.225395e+003, 1.596644e+002
1.225877e+003, 1.590115e+002
1.226359e+003, 1.587930e+002
1.226841e+003, 1.592317e+002
1.227323e+003, 1.595931e+002
1.227805e+003, 1.598756e+002
1.228287e+003, 1.600689e+002
1.228770e+003, 1.601905e+002
1.229252e+003, 1.601802e+002
1.229734e+003, 1.597701e+002
1.230216e+003, 1.592690e+002
1.230698e+003, 1.591452e+002
1.231180e+003, 1.595739e+002
1.231662e+003, 1.598029e+002
1.232144e+003, 1.598087e+002
1.232627e+003, 1.597692e+002
1.233109e+003, 1.597952e+002
1.233591e+003, 1.597678e+002
1.234073e+003, 1.594629e+002
1.234555e+003, 1.590606e+002
1.235037e+003, 1.588289e+002
1.235519e+003, 1.588428e+002
1.236001e+003, 1.586488e+002
1.236484e+003, 1.582012e+002
1.236966e+003, 1.580011e+002
1.237448e+003, 1.584497e+002
1.237930e+003, 1.590266e+002
1.238412e+003, 1.591439e+002
1.238894e+003, 1.591001e+002
1.239376e+003, 1.593560e+002
1.239858e+003, 1.600149e+002
1.240340e+003, 1.602048e+002
1.240823e+003, 1.598912e+002
1.241305e+003, 1.597623e+002
1.241787e+003, 1.604074e+002
1.242269e+003, 1.610545e+002
1.242751e+003, 1.608891e+002
1.243233e+003, 1.604260e+002
1.243715e+003, 1.603493e+002
1.244197e+003, 1.607314e+002
1.244679e+003, 1.608279e+002
1.245162e+003, 1.606456e+002
1.245644e+003, 1.604631e+002
1.246126e+003, 1.603805e+002
1.246608e+003, 1.604181e+002
1.247090e+003, 1.607080e+002
1.247572e+003, 1.610554e+002
1.248054e+003, 1.612579e+002
1.248536e+003, 1.613226e+002
1.249019e+003, 1.611357e+002
1.249501e+003, 1.607359e+002
1.249983e+003, 1.605157e+002
1.250465e+003, 1.609997e+002
1.250947e+003, 1.613348e+002
1.251429e+003, 1.606336e+002
1.251911e+003, 1.599365e+002
1.252393e+003, 1.604647e+002
1.252875e+003, 1.620950e+002
1.253358e+003, 1.623185e+002
1.253840e+003, 1.613178e+002
1.254322e+003, 1.603538e+002
1.254804e+003, 1.598727e+002
1.255286e+003, 1.598210e+002
1.255768e+003, 1.604016e+002
1.256250e+003, 1.611650e+002
1.256732e+003, 1.618440e+002
1.257214e+003, 1.623976e+002
1.257697e+003, 1.624366e+002
1.258179e+003, 1.620781e+002
1.258661e+003, 1.618529e+002
1.259143e+003, 1.621499e+002
1.259625e+003, 1.624130e+002
1.260107e+003, 1.626333e+002
1.260589e+003, 1.626551e+002
1.261071e+003, 1.621265e+002
1.261554e+003, 1.613377e+002
1.262036e+003, 1.613210e+002
1.262518e+003, 1.618791e+002
1.263000e+003, 1.623188e+002
1.263482e+003, 1.622780e+002
1.263964e+003, 1.622354e+002
1.264446e+003, 1.621893e+002
1.264928e+003, 1.622437e+002
1.265411e+003, 1.627158e+002
1.265893e+003, 1.632230e+002
1.266375e+003, 1.628111e+002
1.266857e+003, 1.618261e+002
1.267339e+003, 1.612185e+002
1.267821e+003, 1.613853e+002
1.268303e+003, 1.617449e+002
1.268785e+003, 1.623637e+002
1.269267e+003, 1.628908e+002
1.269750e+003, 1.630009e+002
1.270232e+003, 1.628929e+002
1.270714e+003, 1.627491e+002
1.271196e+003, 1.626042e+002
1.271678e+003, 1.625337e+002
1.272160e+003, 1.625388e+002
1.272642e+003, 1.626395e+002
1.273124e+003, 1.628531e+002
1.273606e+003, 1.629934e+002
1.274089e+003, 1.627260e+002
1.274571e+003, 1.625128e+002
1.275053e+003, 1.629358e+002
1.275535e+003, 1.636340e+002
1.276017e+003, 1.639353e+002
1.276499e+003, 1.637282e+002
1.276981e+003, 1.638711e+002
1.277463e+003, 1.643731e+002
1.277946e+003, 1.646670e+002
1.278428e+003, 1.642457e+002
1.278910e+003, 1.636552e+002
1.279392e+003, 1.630089e+002
1.279874e+003, 1.625477e+002
1.280356e+003, 1.625977e+002
1.280838e+003, 1.631459e+002
1.281320e+003, 1.637232e+002
1.281802e+003, 1.642754e+002
1.282285e+003, 1.644493e+002
1.282767e+003, 1.633314e+002
1.283249e+003, 1.627596e+002
1.283731e+003, 1.639743e+002
1.284213e+003, 1.653632e+002
1.284695e+003, 1.652301e+002
1.285177e+003, 1.640376e+002
1.285659e+003, 1.642790e+002
1.286141e+003, 1.655787e+002
1.286624e+003, 1.663226e+002
1.287106e+003, 1.652021e+002
1.287588e+003, 1.643707e+002
1.288070e+003, 1.641133e+002
1.288552e+003, 1.641877e+002
1.289034e+003, 1.646214e+002
1.289516e+003, 1.651467e+002
1.289998e+003, 1.649925e+002
1.290481e+003, 1.644365e+002
1.290963e+003, 1.641969e+002
1.291445e+003, 1.647247e+002
1.291927e+003, 1.651728e+002
1.292409e+003, 1.655464e+002
1.292891e+003, 1.658082e+002
1.293373e+003, 1.659177e+002
1.293855e+003, 1.659123e+002
1.294338e+003, 1.657108e+002
1.294820e+003, 1.654675e+002
1.295302e+003, 1.655110e+002
1.295784e+003, 1.659431e+002
1.296266e+003, 1.663085e+002
1.296748e+003, 1.666137e+002
1.297230e+003, 1.667207e+002
1.297712e+003, 1.662740e+002
1.298194e+003, 1.659101e+002
1.298677e+003, 1.663220e+002
1.299159e+003, 1.669779e+002
1.299641e+003, 1.671849e+002
1.300123e+003, 1.669259e+002
1.300605e+003, 1.668685e+002
1.301087e+003, 1.669816e+002
1.301569e+003, 1.669947e+002
1.302051e+003, 1.667393e+002
1.302533e+003, 1.663697e+002
1.303016e+003, 1.659201e+002
##END=



