##NAMES=Gmelinite-Na
##RRUFFID=R070354
##IDEAL CHEMISTRY=Na_4_(Si_8_Al_4_)O_24_&#183;11H_2_O
##LOCALITY=Island of Finders, Australia
##OWNER=RRUFF
##SOURCE=Michael Scott
##DESCRIPTION=Salmon-pink, striated vitreous crystals associated with colorless trapezohedral analcime and colorless tetragonal prisms of natrolite
##STATUS=The identification of this mineral has been made only by X-ray diffraction.
##URL=rruff.info/R070354
136.6447, 4014.333
137.1268, 4120.004
137.6089, 4241.970
138.0910, 4355.507
138.5731, 4445.349
139.0553, 4510.290
139.5374, 4562.828
140.0195, 4603.450
140.5016, 4632.014
140.9837, 4645.502
141.4658, 4640.413
141.9480, 4625.965
142.4301, 4606.291
142.9122, 4574.178
143.3943, 4553.056
143.8764, 4552.455
144.3585, 4571.598
144.8407, 4569.425
145.3228, 4532.900
145.8049, 4484.938
146.2870, 4446.771
146.7691, 4422.316
147.2512, 4403.099
147.7334, 4388.480
148.2155, 4378.943
148.6976, 4371.194
149.1797, 4359.654
149.6618, 4351.538
150.1439, 4356.340
150.6261, 4394.853
151.1082, 4427.571
151.5903, 4440.973
152.0724, 4419.039
152.5545, 4413.174
153.0366, 4436.653
153.5188, 4478.356
154.0009, 4516.261
154.4830, 4552.489
154.9651, 4580.788
155.4472, 4598.163
155.9293, 4597.154
156.4115, 4595.657
156.8936, 4598.155
157.3757, 4603.164
157.8578, 4605.594
158.3399, 4607.640
158.8221, 4604.524
159.3042, 4593.137
159.7863, 4564.661
160.2684, 4535.702
160.7505, 4510.325
161.2326, 4488.402
161.7148, 4470.844
162.1969, 4464.410
162.6790, 4459.993
163.1611, 4448.917
163.6432, 4422.803
164.1253, 4393.618
164.6075, 4367.233
165.0896, 4343.844
165.5717, 4321.232
166.0538, 4290.611
166.5359, 4261.333
167.0180, 4246.537
167.5002, 4268.955
167.9823, 4296.923
168.4644, 4304.894
168.9465, 4288.963
169.4286, 4267.208
169.9107, 4249.231
170.3929, 4235.081
170.8750, 4224.393
171.3571, 4221.471
171.8392, 4220.128
172.3213, 4213.034
172.8034, 4198.141
173.2856, 4181.481
173.7677, 4168.396
174.2498, 4158.148
174.7319, 4148.440
175.2140, 4138.811
175.6961, 4128.621
176.1783, 4116.724
176.6604, 4102.583
177.1425, 4087.522
177.6246, 4072.517
178.1067, 4057.838
178.5888, 4044.233
179.0710, 4033.276
179.5531, 4023.996
180.0352, 4014.325
180.5173, 4003.386
180.9994, 3992.326
181.4815, 3981.471
181.9637, 3970.881
182.4458, 3965.331
182.9279, 3976.323
183.4100, 3997.761
183.8921, 4006.074
184.3742, 3987.714
184.8564, 3954.910
185.3385, 3938.052
185.8206, 3938.021
186.3027, 3941.503
186.7848, 3934.114
187.2669, 3917.277
187.7491, 3901.485
188.2312, 3888.036
188.7133, 3878.385
189.1954, 3880.468
189.6775, 3896.305
190.1596, 3914.813
190.6418, 3919.906
191.1239, 3911.997
191.6060, 3908.851
192.0881, 3923.495
192.5702, 3952.583
193.0524, 3965.753
193.5345, 3961.020
194.0166, 3945.579
194.4987, 3927.335
194.9808, 3905.838
195.4629, 3888.313
195.9451, 3878.726
196.4272, 3876.844
196.9093, 3877.449
197.3914, 3879.426
197.8735, 3885.389
198.3556, 3906.901
198.8378, 3948.421
199.3199, 3977.003
199.8020, 3967.080
200.2841, 3915.274
200.7662, 3877.239
201.2483, 3858.000
201.7305, 3852.567
202.2126, 3851.135
202.6947, 3855.558
203.1768, 3857.058
203.6589, 3849.353
204.1410, 3831.280
204.6232, 3812.454
205.1053, 3792.827
205.5874, 3773.375
206.0695, 3757.767
206.5516, 3746.953
207.0337, 3737.496
207.5159, 3728.669
207.9980, 3722.422
208.4801, 3707.747
208.9622, 3680.496
209.4443, 3643.849
209.9264, 3612.604
210.4086, 3586.133
210.8907, 3566.280
211.3728, 3557.684
211.8549, 3566.166
212.3370, 3565.118
212.8191, 3547.352
213.3013, 3515.582
213.7834, 3491.341
214.2655, 3476.017
214.7476, 3465.957
215.2297, 3458.645
215.7118, 3454.710
216.1940, 3451.613
216.6761, 3449.022
217.1582, 3446.919
217.6403, 3445.257
218.1224, 3444.449
218.6045, 3443.558
219.0867, 3441.259
219.5688, 3436.116
220.0509, 3433.087
220.5330, 3433.790
221.0151, 3438.328
221.4972, 3442.354
221.9794, 3447.375
222.4615, 3450.253
222.9436, 3446.809
223.4257, 3432.997
223.9078, 3421.513
224.3899, 3418.675
224.8721, 3426.353
225.3542, 3416.408
225.8363, 3380.377
226.3184, 3334.692
226.8005, 3297.688
227.2827, 3271.191
227.7648, 3250.661
228.2469, 3236.833
228.7290, 3231.245
229.2111, 3220.009
229.6932, 3198.092
230.1754, 3174.738
230.6575, 3163.381
231.1396, 3173.875
231.6217, 3178.764
232.1038, 3167.003
232.5859, 3132.494
233.0681, 3115.713
233.5502, 3127.520
234.0323, 3149.259
234.5144, 3152.577
234.9965, 3125.035
235.4786, 3099.943
235.9608, 3087.093
236.4429, 3088.307
236.9250, 3094.458
237.4071, 3109.481
237.8892, 3126.954
238.3713, 3136.064
238.8535, 3131.604
239.3356, 3127.562
239.8177, 3129.561
240.2998, 3141.076
240.7819, 3144.548
241.2640, 3134.954
241.7462, 3120.293
242.2283, 3115.444
242.7104, 3128.857
243.1925, 3138.044
243.6746, 3133.040
244.1567, 3105.727
244.6389, 3092.613
245.1210, 3099.182
245.6031, 3116.626
246.0852, 3130.039
246.5673, 3139.541
247.0494, 3144.749
247.5316, 3144.572
248.0137, 3136.622
248.4958, 3131.833
248.9779, 3133.235
249.4600, 3136.111
249.9421, 3130.697
250.4243, 3111.244
250.9064, 3093.750
251.3885, 3084.709
251.8706, 3087.170
252.3527, 3087.623
252.8348, 3084.271
253.3170, 3080.021
253.7991, 3080.632
254.2812, 3087.635
254.7633, 3096.598
255.2454, 3107.329
255.7275, 3122.392
256.2097, 3128.422
256.6918, 3120.817
257.1739, 3107.278
257.6560, 3103.275
258.1381, 3114.778
258.6202, 3123.432
259.1024, 3120.400
259.5845, 3100.896
260.0666, 3090.539
260.5487, 3093.633
261.0308, 3102.630
261.5129, 3102.321
261.9951, 3087.499
262.4772, 3075.816
262.9593, 3074.544
263.4414, 3085.360
263.9235, 3099.619
264.4056, 3120.550
264.8878, 3142.062
265.3699, 3153.675
265.8520, 3153.736
266.3341, 3148.828
266.8162, 3139.713
267.2983, 3125.031
267.7805, 3114.846
268.2626, 3108.270
268.7447, 3107.347
269.2268, 3119.233
269.7089, 3149.436
270.1910, 3172.578
270.6732, 3176.061
271.1553, 3157.169
271.6374, 3144.469
272.1195, 3138.045
272.6016, 3137.691
273.0837, 3145.913
273.5659, 3165.295
274.0480, 3180.299
274.5301, 3184.966
275.0122, 3179.041
275.4943, 3165.326
275.9764, 3138.860
276.4586, 3113.940
276.9407, 3117.460
277.4228, 3153.286
277.9049, 3183.443
278.3870, 3189.370
278.8691, 3172.459
279.3513, 3166.437
279.8334, 3174.249
280.3155, 3185.370
280.7976, 3181.377
281.2798, 3161.238
281.7619, 3151.290
282.2440, 3169.869
282.7261, 3210.954
283.2082, 3224.757
283.6903, 3206.388
284.1725, 3178.724
284.6546, 3169.516
285.1367, 3178.292
285.6188, 3190.766
286.1009, 3202.245
286.5830, 3213.380
287.0652, 3227.953
287.5473, 3246.429
288.0294, 3264.766
288.5115, 3280.227
288.9936, 3292.438
289.4757, 3297.646
289.9579, 3290.395
290.4400, 3276.325
290.9221, 3270.830
291.4042, 3274.204
291.8863, 3282.492
292.3684, 3293.934
292.8506, 3307.600
293.3327, 3319.446
293.8148, 3326.582
294.2969, 3332.117
294.7790, 3341.344
295.2611, 3354.330
295.7433, 3372.008
296.2254, 3403.577
296.7075, 3441.758
297.1896, 3464.245
297.6717, 3457.585
298.1538, 3438.732
298.6360, 3432.564
299.1181, 3438.310
299.6002, 3447.507
300.0823, 3456.728
300.5644, 3464.508
301.0465, 3467.019
301.5287, 3457.708
302.0108, 3449.697
302.4929, 3462.210
302.9750, 3491.942
303.4571, 3519.213
303.9392, 3529.371
304.4214, 3529.667
304.9035, 3529.528
305.3856, 3529.838
305.8677, 3532.455
306.3498, 3537.245
306.8319, 3545.141
307.3141, 3559.700
307.7962, 3590.478
308.2783, 3625.272
308.7604, 3651.915
309.2425, 3664.833
309.7246, 3674.948
310.2068, 3688.002
310.6889, 3703.592
311.1710, 3720.772
311.6531, 3735.128
312.1352, 3753.336
312.6173, 3782.181
313.0995, 3826.667
313.5816, 3869.274
314.0637, 3904.935
314.5458, 3933.000
315.0279, 3952.642
315.5100, 3944.570
315.9922, 3942.287
316.4743, 3970.667
316.9564, 4043.747
317.4385, 4100.979
317.9206, 4111.780
318.4027, 4097.188
318.8849, 4086.604
319.3670, 4088.058
319.8491, 4094.722
320.3312, 4107.083
320.8133, 4127.419
321.2954, 4139.548
321.7776, 4136.027
322.2597, 4124.552
322.7418, 4113.327
323.2239, 4102.535
323.7060, 4093.088
324.1881, 4086.727
324.6703, 4084.058
325.1524, 4076.920
325.6345, 4059.376
326.1166, 4040.078
326.5987, 4025.908
327.0808, 4025.676
327.5630, 4020.285
328.0451, 4007.433
328.5272, 3987.255
329.0093, 3962.003
329.4914, 3926.052
329.9735, 3890.725
330.4557, 3864.140
330.9378, 3853.737
331.4199, 3838.797
331.9020, 3814.949
332.3841, 3784.801
332.8662, 3761.674
333.3484, 3749.943
333.8305, 3738.938
334.3126, 3722.262
334.7947, 3697.800
335.2768, 3673.874
335.7589, 3647.891
336.2411, 3624.381
336.7232, 3617.620
337.2053, 3634.758
337.6874, 3647.890
338.1695, 3640.171
338.6516, 3608.055
339.1338, 3588.780
339.6159, 3588.031
340.0980, 3592.466
340.5801, 3575.743
341.0622, 3534.703
341.5443, 3499.837
342.0265, 3483.870
342.5086, 3485.465
342.9907, 3494.177
343.4728, 3512.409
343.9549, 3528.040
344.4370, 3521.178
344.9192, 3494.460
345.4013, 3472.861
345.8834, 3468.866
346.3655, 3475.462
346.8476, 3474.056
347.3297, 3464.465
347.8119, 3452.857
348.2940, 3442.847
348.7761, 3435.211
349.2582, 3433.024
349.7403, 3440.619
350.2225, 3450.407
350.7046, 3449.666
351.1867, 3439.735
351.6688, 3430.999
352.1509, 3434.086
352.6331, 3442.331
353.1152, 3444.558
353.5973, 3434.264
354.0794, 3424.983
354.5615, 3433.163
355.0436, 3453.238
355.5258, 3468.268
356.0079, 3464.366
356.4900, 3453.885
356.9721, 3447.199
357.4542, 3446.204
357.9363, 3447.978
358.4185, 3452.162
358.9006, 3457.872
359.3827, 3463.585
359.8648, 3471.013
360.3469, 3476.459
360.8290, 3476.334
361.3112, 3469.132
361.7933, 3465.416
362.2754, 3474.369
362.7575, 3486.329
363.2396, 3490.807
363.7217, 3474.113
364.2039, 3460.969
364.6860, 3460.589
365.1681, 3473.267
365.6502, 3480.885
366.1323, 3474.657
366.6144, 3466.846
367.0966, 3465.933
367.5787, 3479.139
368.0608, 3490.747
368.5429, 3499.748
369.0250, 3506.401
369.5071, 3511.735
369.9893, 3514.620
370.4714, 3517.478
370.9535, 3521.724
371.4356, 3528.854
371.9177, 3533.884
372.3998, 3536.610
372.8820, 3537.274
373.3641, 3535.889
373.8462, 3531.330
374.3283, 3527.517
374.8104, 3523.652
375.2925, 3518.555
375.7747, 3530.997
376.2568, 3568.338
376.7389, 3608.847
377.2210, 3618.375
377.7031, 3594.434
378.1852, 3575.688
378.6674, 3576.266
379.1495, 3591.356
379.6316, 3597.486
380.1137, 3593.034
380.5958, 3593.862
381.0779, 3622.367
381.5601, 3672.049
382.0422, 3707.543
382.5243, 3717.143
383.0064, 3714.728
383.4885, 3724.290
383.9706, 3744.222
384.4528, 3762.012
384.9349, 3759.435
385.4170, 3751.719
385.8991, 3768.337
386.3812, 3820.814
386.8633, 3875.080
387.3455, 3896.785
387.8276, 3895.835
388.3097, 3895.179
388.7918, 3908.081
389.2739, 3924.753
389.7560, 3934.103
390.2382, 3933.892
390.7203, 3943.309
391.2024, 3981.898
391.6845, 4032.563
392.1666, 4076.126
392.6487, 4094.751
393.1309, 4115.594
393.6130, 4150.662
394.0951, 4199.066
394.5772, 4247.060
395.0593, 4287.767
395.5414, 4329.164
396.0236, 4375.869
396.5057, 4432.549
396.9878, 4490.025
397.4699, 4546.848
397.9520, 4603.593
398.4341, 4661.498
398.9163, 4721.995
399.3984, 4782.104
399.8805, 4840.649
400.3626, 4897.000
400.8447, 4953.560
401.3268, 5010.024
401.8090, 5066.861
402.2911, 5126.443
402.7732, 5189.972
403.2553, 5251.346
403.7374, 5307.389
404.2195, 5358.682
404.7017, 5417.368
405.1838, 5486.482
405.6659, 5555.454
406.1480, 5616.496
406.6301, 5669.951
407.1122, 5712.493
407.5944, 5741.940
408.0765, 5761.852
408.5586, 5778.422
409.0407, 5791.791
409.5228, 5805.474
410.0049, 5829.076
410.4871, 5854.832
410.9692, 5859.426
411.4513, 5838.324
411.9334, 5804.585
412.4155, 5772.024
412.8976, 5738.320
413.3798, 5698.363
413.8619, 5650.168
414.3440, 5593.703
414.8261, 5523.519
415.3082, 5439.441
415.7903, 5360.027
416.2725, 5304.022
416.7546, 5256.289
417.2367, 5198.299
417.7188, 5118.410
418.2009, 5035.134
418.6830, 4954.014
419.1652, 4875.701
419.6473, 4805.768
420.1294, 4752.351
420.6115, 4702.490
421.0937, 4646.937
421.5758, 4578.145
422.0579, 4519.850
422.5400, 4479.188
423.0221, 4449.863
423.5042, 4420.822
423.9864, 4393.480
424.4685, 4364.641
424.9506, 4331.786
425.4327, 4294.641
425.9148, 4262.597
426.3969, 4236.119
426.8791, 4214.209
427.3612, 4197.509
427.8433, 4188.839
428.3254, 4175.993
428.8075, 4154.669
429.2896, 4129.080
429.7718, 4116.341
430.2539, 4119.201
430.7360, 4120.192
431.2181, 4104.114
431.7002, 4072.977
432.1823, 4057.546
432.6645, 4061.223
433.1466, 4074.364
433.6287, 4086.610
434.1108, 4097.626
434.5929, 4105.691
435.0750, 4110.178
435.5572, 4111.125
436.0393, 4103.822
436.5214, 4089.018
437.0035, 4082.573
437.4856, 4101.390
437.9677, 4134.966
438.4499, 4169.797
438.9320, 4206.154
439.4141, 4236.659
439.8962, 4252.207
440.3783, 4257.335
440.8604, 4264.208
441.3426, 4276.684
441.8247, 4293.447
442.3068, 4313.695
442.7889, 4337.202
443.2710, 4364.864
443.7531, 4402.705
444.2353, 4442.495
444.7174, 4475.792
445.1995, 4489.776
445.6816, 4509.442
446.1637, 4542.761
446.6458, 4587.703
447.1280, 4625.639
447.6101, 4652.598
448.0922, 4677.037
448.5743, 4702.241
449.0564, 4725.638
449.5385, 4758.221
450.0207, 4803.381
450.5028, 4854.833
450.9849, 4901.001
451.4670, 4941.031
451.9491, 4977.571
452.4312, 5006.844
452.9134, 5031.679
453.3955, 5079.437
453.8776, 5152.735
454.3597, 5228.890
454.8418, 5282.504
455.3239, 5318.910
455.8061, 5358.070
456.2882, 5405.852
456.7703, 5457.130
457.2524, 5504.113
457.7345, 5547.917
458.2166, 5594.336
458.6988, 5646.651
459.1809, 5703.053
459.6630, 5761.800
460.1451, 5823.800
460.6272, 5884.427
461.1093, 5932.172
461.5915, 5979.221
462.0736, 6039.883
462.5557, 6143.052
463.0378, 6237.035
463.5199, 6297.310
464.0020, 6327.532
464.4842, 6359.132
464.9663, 6392.916
465.4484, 6433.529
465.9305, 6483.884
466.4126, 6549.161
466.8947, 6616.778
467.3769, 6694.050
467.8590, 6770.225
468.3411, 6826.038
468.8232, 6846.694
469.3053, 6875.874
469.7874, 6925.477
470.2696, 6994.810
470.7517, 7074.044
471.2338, 7166.568
471.7159, 7257.898
472.1980, 7329.247
472.6801, 7381.690
473.1623, 7449.292
473.6444, 7540.023
474.1265, 7642.647
474.6086, 7736.847
475.0907, 7824.552
475.5728, 7918.228
476.0550, 8032.826
476.5371, 8155.136
477.0192, 8256.323
477.5013, 8335.504
477.9834, 8422.667
478.4655, 8546.005
478.9477, 8690.186
479.4298, 8834.092
479.9119, 8978.732
480.3940, 9114.838
480.8761, 9225.291
481.3582, 9321.068
481.8404, 9432.500
482.3225, 9582.206
482.8046, 9739.236
483.2867, 9891.223
483.7688, 10035.96
484.2509, 10179.45
484.7331, 10330.71
485.2152, 10475.88
485.6973, 10604.42
486.1794, 10707.61
486.6615, 10809.24
487.1436, 10913.02
487.6258, 11018.30
488.1079, 11121.29
488.5900, 11219.18
489.0721, 11321.04
489.5542, 11438.57
490.0363, 11572.64
490.5185, 11679.39
491.0006, 11753.99
491.4827, 11810.62
491.9648, 11865.96
492.4470, 11918.70
492.9291, 11960.16
493.4112, 11983.99
493.8933, 11996.96
494.3754, 12012.19
494.8575, 12027.52
495.3397, 12028.54
495.8218, 12006.52
496.3039, 11964.70
496.7860, 11904.88
497.2681, 11823.48
497.7502, 11736.63
498.2324, 11658.87
498.7145, 11578.74
499.1966, 11479.04
499.6787, 11337.76
500.1608, 11194.20
500.6429, 11067.88
501.1251, 10956.44
501.6072, 10819.67
502.0893, 10639.60
502.5714, 10445.38
503.0535, 10249.58
503.5356, 10054.26
504.0178, 9853.095
504.4999, 9643.240
504.9820, 9431.811
505.4641, 9228.100
505.9462, 9035.709
506.4283, 8834.952
506.9105, 8616.521
507.3926, 8387.739
507.8747, 8177.902
508.3568, 7986.672
508.8389, 7807.646
509.3210, 7643.527
509.8032, 7485.023
510.2853, 7298.459
510.7674, 7072.971
511.2495, 6848.039
511.7316, 6665.519
512.2137, 6512.720
512.6959, 6366.619
513.1780, 6215.489
513.6601, 6067.678
514.1422, 5926.641
514.6243, 5792.909
515.1064, 5669.479
515.5886, 5564.347
516.0707, 5464.661
516.5528, 5363.887
517.0349, 5259.708
517.5170, 5155.618
517.9991, 5042.807
518.4813, 4934.532
518.9634, 4850.162
519.4455, 4807.421
519.9276, 4757.584
520.4097, 4685.566
520.8918, 4597.718
521.3740, 4530.757
521.8561, 4490.886
522.3382, 4451.358
522.8203, 4391.359
523.3024, 4312.992
523.7845, 4242.314
524.2667, 4179.348
524.7488, 4128.285
525.2309, 4100.797
525.7130, 4089.587
526.1951, 4069.691
526.6772, 4028.191
527.1594, 3977.461
527.6415, 3925.083
528.1236, 3874.167
528.6057, 3837.325
529.0878, 3833.704
529.5699, 3839.564
530.0521, 3839.615
530.5342, 3833.199
531.0163, 3814.837
531.4984, 3769.728
531.9805, 3717.199
532.4626, 3677.613
532.9448, 3668.409
533.4269, 3654.430
533.9090, 3626.094
534.3911, 3589.518
534.8732, 3571.217
535.3553, 3581.115
535.8375, 3590.396
536.3196, 3585.945
536.8017, 3567.016
537.2838, 3549.323
537.7659, 3533.124
538.2480, 3516.743
538.7302, 3498.034
539.2123, 3477.182
539.6944, 3456.140
540.1765, 3434.145
540.6586, 3414.289
541.1407, 3399.590
541.6229, 3390.129
542.1050, 3385.860
542.5871, 3392.321
543.0692, 3400.315
543.5513, 3400.611
544.0334, 3392.786
544.5156, 3385.112
544.9977, 3387.643
545.4798, 3388.357
545.9619, 3377.054
546.4440, 3338.891
546.9261, 3307.909
547.4083, 3290.406
547.8904, 3282.671
548.3725, 3278.882
548.8546, 3284.291
549.3367, 3284.833
549.8188, 3275.713
550.3010, 3257.896
550.7831, 3241.138
551.2652, 3223.711
551.7473, 3213.102
552.2294, 3221.706
552.7115, 3246.263
553.1937, 3251.365
553.6758, 3231.716
554.1579, 3202.964
554.6400, 3178.038
555.1221, 3159.013
555.6042, 3152.826
556.0864, 3171.698
556.5685, 3194.425
557.0506, 3198.565
557.5327, 3188.551
558.0148, 3180.737
558.4969, 3184.723
558.9791, 3192.150
559.4612, 3199.389
559.9433, 3207.126
560.4254, 3208.876
560.9075, 3196.578
561.3896, 3181.637
561.8718, 3174.422
562.3539, 3183.939
562.8360, 3185.181
563.3181, 3171.538
563.8002, 3150.809
564.2823, 3143.533
564.7645, 3153.352
565.2466, 3160.264
565.7287, 3153.473
566.2108, 3137.075
566.6929, 3134.275
567.1750, 3145.770
567.6572, 3155.553
568.1393, 3144.959
568.6214, 3123.794
569.1035, 3112.853
569.5856, 3116.971
570.0677, 3124.536
570.5499, 3128.241
571.0320, 3128.563
571.5141, 3126.317
571.9962, 3117.462
572.4783, 3110.409
572.9604, 3108.500
573.4426, 3111.338
573.9247, 3116.623
574.4068, 3126.012
574.8889, 3136.023
575.3710, 3146.889
575.8531, 3160.604
576.3353, 3163.366
576.8174, 3150.958
577.2995, 3133.811
577.7816, 3120.957
578.2637, 3112.606
578.7458, 3107.025
579.2280, 3103.777
579.7101, 3103.536
580.1922, 3111.815
580.6743, 3126.145
581.1564, 3132.582
581.6385, 3112.000
582.1207, 3086.649
582.6028, 3092.472
583.0849, 3125.114
583.5670, 3150.829
584.0491, 3142.913
584.5313, 3124.434
585.0134, 3112.410
585.4955, 3109.767
585.9776, 3112.537
586.4597, 3125.478
586.9418, 3140.969
587.4240, 3150.235
587.9061, 3151.188
588.3882, 3148.645
588.8703, 3140.217
589.3524, 3129.407
589.8345, 3127.698
590.3167, 3137.504
590.7988, 3147.127
591.2809, 3150.556
591.7630, 3149.408
592.2451, 3153.238
592.7272, 3162.334
593.2094, 3169.377
593.6915, 3164.942
594.1736, 3154.798
594.6557, 3149.830
595.1378, 3152.158
595.6199, 3158.572
596.1021, 3172.495
596.5842, 3187.479
597.0663, 3194.348
597.5485, 3180.586
598.0306, 3168.116
598.5127, 3165.175
598.9948, 3169.649
599.4769, 3171.975
599.9590, 3170.435
600.4412, 3167.972
600.9233, 3164.512
601.4054, 3159.635
601.8875, 3161.601
602.3696, 3173.895
602.8517, 3184.421
603.3339, 3179.336
603.8160, 3160.274
604.2981, 3150.002
604.7802, 3152.311
605.2623, 3159.684
605.7444, 3162.064
606.2266, 3161.729
606.7087, 3164.914
607.1908, 3179.557
607.6729, 3192.797
608.1550, 3192.286
608.6371, 3181.572
609.1193, 3172.175
609.6014, 3164.449
610.0835, 3162.864
610.5656, 3174.422
611.0477, 3203.075
611.5298, 3215.348
612.0120, 3201.369
612.4941, 3179.659
612.9762, 3159.052
613.4583, 3133.616
613.9404, 3135.044
614.4225, 3175.104
614.9047, 3223.867
615.3868, 3234.350
615.8689, 3209.655
616.3510, 3190.403
616.8331, 3192.223
617.3152, 3200.644
617.7974, 3192.500
618.2795, 3171.163
618.7616, 3149.437
619.2437, 3127.394
619.7258, 3112.911
620.2079, 3117.140
620.6901, 3140.262
621.1722, 3155.902
621.6543, 3149.391
622.1364, 3136.274
622.6185, 3126.188
623.1006, 3119.313
623.5828, 3116.591
624.0649, 3120.715
624.5470, 3126.521
625.0291, 3127.810
625.5112, 3124.001
625.9933, 3118.020
626.4755, 3108.638
626.9576, 3099.827
627.4397, 3101.691
627.9218, 3112.978
628.4039, 3124.124
628.8860, 3129.055
629.3682, 3131.878
629.8503, 3138.101
630.3324, 3147.441
630.8145, 3157.476
631.2966, 3173.591
631.7787, 3185.047
632.2609, 3179.776
632.7430, 3148.186
633.2251, 3132.065
633.7072, 3158.605
634.1893, 3192.251
634.6714, 3202.396
635.1536, 3173.577
635.6357, 3155.630
636.1178, 3154.635
636.5999, 3163.618
637.0820, 3172.092
637.5641, 3180.183
638.0463, 3182.316
638.5284, 3172.007
639.0105, 3158.735
639.4926, 3164.325
639.9747, 3185.883
640.4568, 3206.360
640.9390, 3213.723
641.4211, 3216.559
641.9032, 3222.422
642.3853, 3231.827
642.8674, 3242.508
643.3495, 3259.742
643.8317, 3273.766
644.3138, 3276.654
644.7959, 3254.096
645.2780, 3247.231
645.7601, 3265.941
646.2422, 3291.647
646.7244, 3302.424
647.2065, 3295.869
647.6886, 3285.631
648.1707, 3272.505
648.6528, 3259.191
649.1349, 3248.642
649.6171, 3241.673
650.0992, 3243.474
650.5813, 3262.139
651.0634, 3287.373
651.5455, 3310.647
652.0276, 3330.867
652.5098, 3340.963
652.9919, 3328.050
653.4740, 3310.966
653.9561, 3301.946
654.4382, 3303.809
654.9203, 3303.754
655.4025, 3297.691
655.8846, 3291.278
656.3667, 3288.719
656.8488, 3292.167
657.3309, 3292.641
657.8130, 3288.884
658.2952, 3283.816
658.7773, 3282.216
659.2594, 3283.660
659.7415, 3283.335
660.2236, 3280.106
660.7057, 3274.294
661.1879, 3263.369
661.6700, 3249.933
662.1521, 3241.412
662.6342, 3249.049
663.1163, 3256.146
663.5984, 3249.189
664.0806, 3230.198
664.5627, 3217.325
665.0448, 3229.131
665.5269, 3234.913
666.0090, 3217.756
666.4911, 3172.450
666.9733, 3145.024
667.4554, 3140.291
667.9375, 3143.895
668.4196, 3145.560
668.9017, 3145.297
669.3839, 3143.701
669.8660, 3140.963
670.3481, 3136.333
670.8302, 3126.425
671.3123, 3114.175
671.7944, 3106.175
672.2766, 3106.471
672.7587, 3108.410
673.2408, 3107.262
673.7229, 3104.671
674.2050, 3103.825
674.6871, 3112.644
675.1693, 3115.603
675.6514, 3104.673
676.1335, 3083.302
676.6156, 3069.382
677.0977, 3064.319
677.5798, 3063.775
678.0620, 3068.839
678.5441, 3078.067
679.0262, 3074.481
679.5083, 3057.256
679.9904, 3040.263
680.4725, 3035.558
680.9547, 3038.345
681.4368, 3040.716
681.9189, 3041.822
682.4010, 3041.818
682.8831, 3042.108
683.3652, 3040.684
683.8474, 3035.074
684.3295, 3018.472
684.8116, 3007.625
685.2937, 3008.603
685.7758, 3014.991
686.2579, 3019.232
686.7401, 3022.003
687.2222, 3020.057
687.7043, 3010.419
688.1864, 2997.999
688.6685, 2996.303
689.1506, 3004.628
689.6328, 3011.632
690.1149, 3010.898
690.5970, 3006.806
691.0791, 3007.188
691.5612, 3010.728
692.0433, 3010.801
692.5255, 2998.110
693.0076, 2985.405
693.4897, 2980.757
693.9718, 2985.234
694.4539, 2992.547
694.9360, 3006.102
695.4182, 3018.274
695.9003, 3025.184
696.3824, 3026.181
696.8645, 3023.655
697.3466, 3016.728
697.8287, 3008.574
698.3109, 3002.360
698.7930, 2997.874
699.2751, 2993.444
699.7572, 2988.150
700.2393, 2985.361
700.7214, 2992.283
701.2036, 3003.385
701.6857, 3009.418
702.1678, 3004.605
702.6499, 2997.071
703.1320, 2988.066
703.6141, 2978.584
704.0963, 2970.664
704.5784, 2957.252
705.0605, 2956.665
705.5426, 2979.030
706.0247, 3016.825
706.5068, 3035.423
706.9890, 3033.527
707.4711, 3024.327
707.9532, 3010.157
708.4353, 2994.648
708.9174, 2989.500
709.3995, 2993.696
709.8817, 2997.554
710.3638, 2992.182
710.8459, 2984.972
711.3280, 2983.567
711.8101, 2989.686
712.2922, 2992.908
712.7744, 2986.320
713.2565, 2978.803
713.7386, 2976.610
714.2207, 2982.974
714.7028, 2986.221
715.1849, 2985.697
715.6671, 2983.237
716.1492, 2979.349
716.6313, 2974.505
717.1134, 2975.808
717.5955, 2986.942
718.0776, 2996.499
718.5598, 2984.228
719.0419, 2960.953
719.5240, 2947.844
720.0061, 2958.996
720.4882, 2973.831
720.9703, 2984.071
721.4525, 2991.092
721.9346, 2998.247
722.4167, 3015.669
722.8988, 3019.856
723.3809, 2999.451
723.8630, 2963.226
724.3452, 2948.950
724.8273, 2959.713
725.3094, 2970.416
725.7915, 2968.475
726.2736, 2958.332
726.7557, 2947.721
727.2379, 2937.699
727.7200, 2936.569
728.2021, 2957.303
728.6842, 2983.755
729.1663, 3006.521
729.6484, 3024.854
730.1306, 3029.132
730.6127, 2999.573
731.0948, 2969.297
731.5769, 2957.649
732.0590, 2970.746
732.5411, 2976.299
733.0233, 2972.736
733.5054, 2965.157
733.9875, 2955.499
734.4696, 2944.871
734.9517, 2943.523
735.4338, 2953.938
735.9160, 2965.324
736.3981, 2965.022
736.8802, 2959.147
737.3623, 2956.997
737.8444, 2963.324
738.3266, 2969.246
738.8087, 2975.375
739.2908, 2977.745
739.7729, 2969.218
740.2551, 2934.182
740.7372, 2917.574
741.2193, 2931.365
741.7014, 2960.523
742.1835, 2972.057
742.6656, 2965.695
743.1478, 2961.660
743.6299, 2967.315
744.1120, 2977.704
744.5941, 2988.224
745.0762, 2997.307
745.5583, 3000.413
746.0405, 2980.716
746.5226, 2967.944
747.0047, 2985.370
747.4868, 3027.170
747.9689, 3058.343
748.4510, 3076.767
748.9332, 3080.419
749.4153, 3059.890
749.8974, 3019.564
750.3795, 3016.521
750.8616, 3055.875
751.3438, 3092.666
751.8259, 3093.062
752.3080, 3071.094
752.7901, 3060.067
753.2722, 3060.323
753.7543, 3061.440
754.2365, 3054.157
754.7186, 3046.444
755.2007, 3044.750
755.6828, 3050.356
756.1649, 3058.697
756.6470, 3076.273
757.1292, 3090.036
757.6113, 3090.118
758.0934, 3071.367
758.5755, 3062.959
759.0576, 3066.659
759.5397, 3074.613
760.0219, 3080.375
760.5040, 3083.744
760.9861, 3082.232
761.4682, 3074.037
761.9503, 3068.954
762.4324, 3082.308
762.9146, 3099.917
763.3967, 3104.581
763.8788, 3082.229
764.3609, 3062.900
764.8430, 3050.433
765.3251, 3044.125
765.8073, 3045.304
766.2894, 3057.860
766.7715, 3061.351
767.2536, 3049.970
767.7357, 3033.984
768.2178, 3031.707
768.7000, 3040.240
769.1821, 3047.440
769.6642, 3048.622
770.1463, 3048.353
770.6284, 3050.061
771.1105, 3053.222
771.5927, 3056.816
772.0748, 3067.583
772.5569, 3070.253
773.0390, 3055.190
773.5211, 3030.858
774.0032, 3019.122
774.4854, 3022.683
774.9675, 3028.781
775.4496, 3033.672
775.9317, 3038.606
776.4138, 3049.856
776.8959, 3065.302
777.3781, 3073.982
777.8602, 3059.046
778.3423, 3043.823
778.8244, 3053.303
779.3065, 3081.090
779.7886, 3099.386
780.2708, 3088.879
780.7529, 3079.006
781.2350, 3081.800
781.7171, 3095.101
782.1992, 3096.917
782.6813, 3083.977
783.1635, 3072.467
783.6456, 3070.559
784.1277, 3076.453
784.6098, 3084.931
785.0919, 3095.906
785.5740, 3108.657
786.0562, 3128.396
786.5383, 3145.745
787.0204, 3148.882
787.5025, 3137.432
787.9846, 3133.939
788.4667, 3153.730
788.9489, 3173.087
789.4310, 3182.290
789.9131, 3180.823
790.3952, 3176.531
790.8773, 3168.489
791.3594, 3162.113
791.8416, 3161.994
792.3237, 3166.646
792.8058, 3174.097
793.2879, 3184.169
793.7700, 3189.966
794.2521, 3178.072
794.7343, 3165.713
795.2164, 3169.910
795.6985, 3198.361
796.1806, 3216.955
796.6627, 3220.032
797.1448, 3215.193
797.6270, 3204.119
798.1091, 3184.539
798.5912, 3180.376
799.0733, 3194.713
799.5554, 3208.428
800.0375, 3199.408
800.5197, 3177.484
801.0018, 3161.735
801.4839, 3155.491
801.9660, 3149.621
802.4481, 3140.221
802.9302, 3127.762
803.4124, 3112.060
803.8945, 3089.548
804.3766, 3072.071
804.8587, 3061.701
805.3408, 3053.648
805.8229, 3042.660
806.3051, 3028.786
806.7872, 3020.029
807.2693, 3017.444
807.7514, 3017.612
808.2335, 3023.879
808.7156, 3028.153
809.1978, 3014.349
809.6799, 2970.760
810.1620, 2937.417
810.6441, 2940.563
811.1262, 2956.484
811.6083, 2961.861
812.0905, 2951.488
812.5726, 2940.181
813.0547, 2926.013
813.5368, 2915.400
814.0189, 2920.956
814.5010, 2938.720
814.9832, 2943.037
815.4653, 2927.109
815.9474, 2910.488
816.4295, 2914.550
816.9116, 2927.079
817.3937, 2932.762
817.8759, 2925.042
818.3580, 2915.781
818.8401, 2902.690
819.3222, 2892.289
819.8043, 2893.672
820.2864, 2912.474
820.7686, 2914.072
821.2507, 2890.740
821.7328, 2863.802
822.2149, 2865.092
822.6970, 2884.500
823.1791, 2895.965
823.6613, 2891.587
824.1434, 2885.090
824.6255, 2886.987
825.1076, 2891.074
825.5897, 2890.427
826.0718, 2875.597
826.5540, 2868.156
827.0361, 2870.823
827.5182, 2877.688
828.0003, 2884.426
828.4824, 2890.879
828.9645, 2885.087
829.4467, 2862.993
829.9288, 2838.007
830.4109, 2820.478
830.8930, 2811.763
831.3751, 2816.015
831.8572, 2843.105
832.3394, 2862.927
832.8215, 2856.863
833.3036, 2842.731
833.7857, 2841.572
834.2678, 2861.208
834.7499, 2870.341
835.2321, 2865.057
835.7142, 2853.570
836.1963, 2845.453
836.6784, 2839.758
837.1605, 2833.439
837.6426, 2826.103
838.1248, 2817.497
838.6069, 2799.492
839.0890, 2783.899
839.5711, 2785.416
840.0532, 2824.907
840.5353, 2848.159
841.0175, 2844.941
841.4996, 2832.041
841.9817, 2826.436
842.4638, 2828.465
842.9459, 2827.855
843.4280, 2823.126
843.9102, 2818.390
844.3923, 2819.692
844.8744, 2823.518
845.3565, 2823.019
845.8386, 2814.444
846.3207, 2810.587
846.8029, 2825.814
847.2850, 2842.020
847.7671, 2842.414
848.2492, 2817.807
848.7313, 2802.049
849.2134, 2796.496
849.6956, 2796.658
850.1777, 2800.244
850.6598, 2805.925
851.1419, 2807.605
851.6240, 2803.888
852.1061, 2803.379
852.5883, 2821.396
853.0704, 2840.303
853.5525, 2841.617
854.0346, 2813.078
854.5167, 2797.322
854.9988, 2804.060
855.4810, 2814.343
855.9631, 2813.598
856.4452, 2801.572
856.9273, 2793.879
857.4094, 2790.660
857.8915, 2794.830
858.3737, 2819.392
858.8558, 2847.557
859.3379, 2854.831
859.8200, 2836.825
860.3021, 2821.063
860.7842, 2823.194
861.2664, 2825.861
861.7485, 2816.269
862.2306, 2791.244
862.7127, 2789.608
863.1948, 2816.874
863.6769, 2843.199
864.1591, 2843.151
864.6412, 2827.477
865.1233, 2823.711
865.6054, 2831.576
866.0875, 2835.736
866.5696, 2819.920
867.0518, 2803.410
867.5339, 2798.684
868.0160, 2807.257
868.4981, 2818.896
868.9802, 2840.499
869.4623, 2850.023
869.9445, 2829.257
870.4266, 2788.305
870.9087, 2777.176
871.3908, 2793.381
871.8729, 2811.612
872.3550, 2816.582
872.8372, 2817.005
873.3193, 2819.093
873.8014, 2822.955
874.2835, 2827.726
874.7656, 2833.660
875.2477, 2840.390
875.7299, 2850.661
876.2120, 2861.044
876.6941, 2853.238
877.1762, 2827.325
877.6583, 2812.152
878.1404, 2829.862
878.6226, 2855.054
879.1047, 2848.920
879.5869, 2823.031
880.0690, 2807.035
880.5511, 2825.243
881.0332, 2839.768
881.5153, 2836.812
881.9974, 2823.940
882.4796, 2815.339
882.9617, 2811.054
883.4438, 2811.293
883.9259, 2817.229
884.4080, 2825.417
884.8901, 2828.548
885.3723, 2829.763
885.8544, 2837.716
886.3365, 2866.901
886.8186, 2884.310
887.3007, 2862.663
887.7828, 2825.692
888.2650, 2806.740
888.7471, 2812.024
889.2292, 2822.296
889.7113, 2840.044
890.1934, 2853.274
890.6755, 2837.383
891.1577, 2804.031
891.6398, 2791.987
892.1219, 2812.101
892.6040, 2835.497
893.0861, 2846.680
893.5682, 2848.833
894.0504, 2844.456
894.5325, 2832.724
895.0146, 2814.247
895.4967, 2779.401
895.9788, 2755.575
896.4609, 2776.576
896.9431, 2832.801
897.4252, 2863.552
897.9073, 2865.424
898.3894, 2856.219
898.8715, 2838.527
899.3536, 2823.548
899.8358, 2823.288
900.3179, 2840.307
900.8000, 2852.115
901.2821, 2855.200
901.7642, 2854.579
902.2463, 2851.927
902.7285, 2847.439
903.2106, 2839.969
903.6927, 2829.895
904.1748, 2825.821
904.6569, 2838.611
905.1390, 2855.771
905.6212, 2864.404
906.1033, 2866.021
906.5854, 2868.856
907.0675, 2881.866
907.5496, 2887.756
908.0317, 2880.486
908.5139, 2864.197
908.9960, 2847.997
909.4781, 2831.947
909.9602, 2829.401
910.4423, 2854.090
910.9244, 2879.866
911.4066, 2867.597
911.8887, 2834.831
912.3708, 2813.704
912.8529, 2823.016
913.3350, 2835.667
913.8171, 2855.052
914.2993, 2869.349
914.7814, 2855.568
915.2635, 2809.907
915.7456, 2788.993
916.2277, 2803.781
916.7098, 2831.909
917.1920, 2853.912
917.6741, 2869.807
918.1562, 2878.714
918.6383, 2878.896
919.1204, 2877.480
919.6025, 2872.959
920.0847, 2870.599
920.5668, 2875.619
921.0489, 2890.331
921.5310, 2894.334
922.0131, 2886.476
922.4952, 2877.519
922.9774, 2879.490
923.4595, 2884.279
923.9416, 2877.992
924.4237, 2860.663
924.9058, 2845.158
925.3879, 2836.702
925.8701, 2830.994
926.3522, 2824.679
926.8343, 2818.744
927.3164, 2823.097
927.7985, 2839.037
928.2806, 2853.542
928.7628, 2860.988
929.2449, 2863.066
929.7270, 2858.519
930.2091, 2850.708
930.6912, 2848.615
931.1733, 2863.364
931.6555, 2875.704
932.1376, 2878.763
932.6197, 2876.304
933.1018, 2873.706
933.5839, 2870.739
934.0660, 2869.273
934.5482, 2869.774
935.0303, 2871.434
935.5124, 2873.397
935.9945, 2875.750
936.4766, 2878.677
936.9587, 2882.471
937.4409, 2886.249
937.9230, 2887.772
938.4051, 2890.787
938.8872, 2900.557
939.3693, 2921.014
939.8514, 2922.229
940.3336, 2901.743
940.8157, 2879.944
941.2978, 2872.468
941.7799, 2874.921
942.2620, 2883.618
942.7441, 2897.602
943.2263, 2908.470
943.7084, 2909.954
944.1905, 2910.471
944.6726, 2913.428
945.1547, 2918.370
945.6368, 2922.573
946.1190, 2926.071
946.6011, 2928.823
947.0832, 2930.655
947.5653, 2931.913
948.0474, 2933.321
948.5295, 2934.530
949.0117, 2934.722
949.4938, 2931.021
949.9759, 2929.789
950.4580, 2934.250
950.9401, 2940.157
951.4222, 2939.899
951.9044, 2933.306
952.3865, 2931.753
952.8686, 2938.339
953.3507, 2944.056
953.8328, 2933.264
954.3149, 2918.753
954.7971, 2919.002
955.2792, 2943.570
955.7613, 2959.122
956.2434, 2954.277
956.7255, 2946.897
957.2076, 2948.366
957.6898, 2958.333
958.1719, 2962.579
958.6540, 2961.238
959.1361, 2961.236
959.6182, 2968.750
960.1003, 2978.693
960.5825, 2987.595
961.0646, 2995.068
961.5467, 3000.020
962.0288, 3003.821
962.5109, 3001.814
962.9930, 2989.056
963.4752, 2973.103
963.9573, 2976.189
964.4394, 2995.091
964.9215, 3010.127
965.4036, 3014.395
965.8857, 3013.590
966.3679, 3006.577
966.8500, 2999.675
967.3321, 3001.644
967.8142, 3022.678
968.2963, 3036.382
968.7784, 3042.510
969.2606, 3041.360
969.7427, 3026.154
970.2248, 3003.632
970.7069, 3000.535
971.1890, 3018.677
971.6711, 3040.350
972.1533, 3056.081
972.6354, 3069.509
973.1175, 3082.590
973.5996, 3095.455
974.0817, 3108.621
974.5638, 3123.781
975.0460, 3132.588
975.5281, 3127.595
976.0102, 3117.851
976.4923, 3125.520
976.9744, 3144.964
977.4565, 3159.633
977.9387, 3157.358
978.4208, 3154.871
978.9029, 3156.517
979.3850, 3162.055
979.8671, 3173.308
980.3492, 3192.797
980.8314, 3202.039
981.3135, 3198.003
981.7956, 3188.123
982.2777, 3175.868
982.7598, 3165.079
983.2419, 3159.470
983.7241, 3158.652
984.2062, 3171.348
984.6883, 3220.649
985.1704, 3263.092
985.6525, 3277.697
986.1346, 3267.110
986.6168, 3256.602
987.0989, 3246.349
987.5810, 3241.841
988.0631, 3251.709
988.5452, 3264.193
989.0273, 3266.789
989.5095, 3263.177
989.9916, 3262.841
990.4737, 3269.702
990.9558, 3276.872
991.4379, 3283.892
991.9200, 3290.326
992.4022, 3294.204
992.8843, 3296.613
993.3664, 3304.238
993.8485, 3319.788
994.3306, 3330.632
994.8127, 3318.803
995.2949, 3304.696
995.7770, 3310.198
996.2591, 3341.193
996.7412, 3351.132
997.2233, 3333.974
997.7054, 3317.502
998.1876, 3321.111
998.6697, 3336.199
999.1518, 3342.216
999.6339, 3342.172
1000.116, 3348.114
1000.598, 3378.016
1001.080, 3400.321
1001.562, 3403.169
1002.044, 3392.326
1002.527, 3368.988
1003.009, 3330.143
1003.491, 3332.280
1003.973, 3394.689
1004.455, 3461.581
1004.937, 3468.170
1005.419, 3443.389
1005.901, 3420.641
1006.384, 3404.058
1006.866, 3398.355
1007.348, 3410.246
1007.830, 3422.670
1008.312, 3424.740
1008.794, 3418.880
1009.276, 3421.137
1009.758, 3430.327
1010.240, 3436.690
1010.723, 3428.427
1011.205, 3421.564
1011.687, 3428.184
1012.169, 3443.930
1012.651, 3456.222
1013.133, 3463.549
1013.615, 3471.716
1014.097, 3482.560
1014.580, 3491.943
1015.062, 3492.671
1015.544, 3488.116
1016.026, 3483.336
1016.508, 3478.232
1016.990, 3479.455
1017.472, 3496.745
1017.954, 3514.600
1018.436, 3523.465
1018.919, 3523.825
1019.401, 3529.642
1019.883, 3540.944
1020.365, 3547.455
1020.847, 3542.924
1021.329, 3531.047
1021.811, 3510.270
1022.293, 3485.432
1022.776, 3467.896
1023.258, 3457.260
1023.740, 3459.673
1024.222, 3479.960
1024.704, 3506.552
1025.186, 3524.592
1025.668, 3535.497
1026.150, 3543.224
1026.632, 3548.337
1027.115, 3551.094
1027.597, 3556.851
1028.079, 3555.652
1028.561, 3535.734
1029.043, 3498.639
1029.525, 3477.657
1030.007, 3474.029
1030.489, 3479.575
1030.972, 3496.623
1031.454, 3514.034
1031.936, 3513.806
1032.418, 3502.432
1032.900, 3493.871
1033.382, 3491.352
1033.864, 3494.339
1034.346, 3506.287
1034.828, 3518.559
1035.311, 3518.631
1035.793, 3509.161
1036.275, 3510.781
1036.757, 3525.238
1037.239, 3534.022
1037.721, 3518.348
1038.203, 3497.206
1038.685, 3481.228
1039.167, 3471.507
1039.650, 3472.862
1040.132, 3489.259
1040.614, 3498.686
1041.096, 3490.926
1041.578, 3476.973
1042.060, 3473.188
1042.542, 3476.420
1043.024, 3480.933
1043.507, 3485.787
1043.989, 3490.753
1044.471, 3503.201
1044.953, 3507.494
1045.435, 3483.105
1045.917, 3434.071
1046.399, 3417.691
1046.881, 3433.735
1047.364, 3453.048
1047.846, 3455.561
1048.328, 3454.932
1048.810, 3464.984
1049.292, 3480.303
1049.774, 3475.362
1050.256, 3439.808
1050.738, 3421.888
1051.220, 3434.948
1051.703, 3459.106
1052.185, 3470.794
1052.667, 3471.717
1053.149, 3461.617
1053.631, 3436.370
1054.113, 3419.942
1054.595, 3425.672
1055.077, 3433.528
1055.559, 3430.298
1056.042, 3419.861
1056.524, 3436.215
1057.006, 3475.146
1057.488, 3502.196
1057.970, 3482.560
1058.452, 3461.693
1058.934, 3472.105
1059.416, 3499.770
1059.899, 3517.044
1060.381, 3519.914
1060.863, 3524.729
1061.345, 3533.084
1061.827, 3542.369
1062.309, 3546.551
1062.791, 3551.726
1063.273, 3571.689
1063.755, 3606.958
1064.238, 3629.594
1064.720, 3619.578
1065.202, 3612.751
1065.684, 3623.790
1066.166, 3641.945
1066.648, 3629.274
1067.130, 3594.283
1067.612, 3576.417
1068.094, 3593.351
1068.577, 3617.999
1069.059, 3640.994
1069.541, 3659.123
1070.023, 3667.290
1070.505, 3661.056
1070.987, 3676.400
1071.469, 3716.370
1071.951, 3749.971
1072.434, 3744.959
1072.916, 3729.979
1073.398, 3742.550
1073.880, 3774.982
1074.362, 3798.400
1074.844, 3802.460
1075.326, 3804.459
1075.808, 3805.561
1076.291, 3807.027
1076.773, 3809.970
1077.255, 3814.792
1077.737, 3823.273
1078.219, 3835.737
1078.701, 3848.184
1079.183, 3854.754
1079.665, 3864.789
1080.147, 3884.546
1080.630, 3911.721
1081.112, 3935.634
1081.594, 3956.026
1082.076, 3963.481
1082.558, 3947.145
1083.040, 3930.611
1083.522, 3935.667
1084.004, 3953.040
1084.486, 3970.743
1084.969, 3987.656
1085.451, 4005.274
1085.933, 4024.430
1086.415, 4040.607
1086.897, 4046.199
1087.379, 4048.522
1087.861, 4063.919
1088.343, 4088.622
1088.826, 4105.736
1089.308, 4104.502
1089.790, 4099.977
1090.272, 4091.256
1090.754, 4085.083
1091.236, 4096.102
1091.718, 4119.769
1092.200, 4133.487
1092.682, 4133.013
1093.165, 4134.298
1093.647, 4145.970
1094.129, 4164.162
1094.611, 4191.875
1095.093, 4225.432
1095.575, 4234.398
1096.057, 4217.506
1096.539, 4208.677
1097.022, 4225.478
1097.504, 4245.557
1097.986, 4241.985
1098.468, 4229.013
1098.950, 4226.663
1099.432, 4242.499
1099.914, 4257.031
1100.396, 4269.738
1100.879, 4282.007
1101.361, 4299.689
1101.843, 4315.274
1102.325, 4309.245
1102.807, 4287.336
1103.289, 4271.516
1103.771, 4274.486
1104.253, 4277.884
1104.735, 4275.912
1105.218, 4275.929
1105.700, 4294.268
1106.182, 4324.804
1106.664, 4333.971
1107.146, 4317.865
1107.628, 4303.167
1108.110, 4313.814
1108.592, 4322.652
1109.074, 4309.563
1109.557, 4282.245
1110.039, 4274.261
1110.521, 4285.835
1111.003, 4293.020
1111.485, 4285.307
1111.967, 4281.560
1112.449, 4315.811
1112.931, 4354.366
1113.414, 4354.220
1113.896, 4298.872
1114.378, 4274.004
1114.860, 4285.099
1115.342, 4303.067
1115.824, 4316.194
1116.306, 4322.347
1116.788, 4317.434
1117.271, 4303.007
1117.753, 4282.334
1118.235, 4238.285
1118.717, 4217.672
1119.199, 4231.484
1119.681, 4252.932
1120.163, 4255.357
1120.645, 4244.124
1121.127, 4230.201
1121.609, 4215.758
1122.092, 4214.064
1122.574, 4256.669
1123.056, 4281.474
1123.538, 4257.182
1124.020, 4212.706
1124.502, 4212.929
1124.984, 4250.708
1125.466, 4261.848
1125.949, 4231.984
1126.431, 4199.179
1126.913, 4186.588
1127.395, 4183.977
1127.877, 4187.869
1128.359, 4196.191
1128.841, 4194.801
1129.323, 4183.424
1129.806, 4164.367
1130.288, 4131.605
1130.770, 4106.347
1131.252, 4119.207
1131.734, 4148.399
1132.216, 4166.056
1132.698, 4168.630
1133.180, 4158.777
1133.662, 4133.132
1134.145, 4109.485
1134.627, 4098.900
1135.109, 4097.267
1135.591, 4100.985
1136.073, 4108.302
1136.555, 4114.676
1137.037, 4119.491
1137.519, 4122.881
1138.001, 4126.834
1138.484, 4125.202
1138.966, 4108.945
1139.448, 4082.818
1139.930, 4054.169
1140.412, 4024.907
1140.894, 4008.932
1141.376, 4028.334
1141.858, 4040.242
1142.341, 4032.047
1142.823, 4012.158
1143.305, 3993.579
1143.787, 3976.557
1144.269, 3960.046
1144.751, 3943.045
1145.233, 3936.017
1145.715, 3956.430
1146.198, 3976.896
1146.680, 3982.179
1147.162, 3975.193
1147.644, 3969.941
1148.126, 3965.905
1148.608, 3954.640
1149.090, 3927.213
1149.572, 3908.235
1150.054, 3934.533
1150.536, 3965.031
1151.019, 3956.665
1151.501, 3905.361
1151.983, 3866.764
1152.465, 3840.823
1152.947, 3824.004
1153.429, 3816.979
1153.911, 3815.302
1154.393, 3821.090
1154.876, 3827.422
1155.358, 3820.371
1155.840, 3792.280
1156.322, 3773.241
1156.804, 3764.291
1157.286, 3761.693
1157.768, 3769.676
1158.250, 3777.211
1158.733, 3766.008
1159.215, 3741.558
1159.697, 3726.400
1160.179, 3733.417
1160.661, 3726.970
1161.143, 3698.570
1161.625, 3668.272
1162.107, 3663.531
1162.589, 3670.397
1163.072, 3664.772
1163.554, 3645.484
1164.036, 3627.730
1164.518, 3617.701
1165.000, 3605.078
1165.482, 3585.615
1165.964, 3565.258
1166.446, 3558.788
1166.928, 3559.126
1167.411, 3547.986
1167.893, 3519.508
1168.375, 3497.981
1168.857, 3492.806
1169.339, 3494.964
1169.821, 3505.285
1170.303, 3517.755
1170.785, 3510.374
1171.268, 3489.781
1171.750, 3479.381
1172.232, 3494.230
1172.714, 3500.069
1173.196, 3467.250
1173.678, 3437.070
1174.160, 3438.876
1174.642, 3465.912
1175.125, 3473.211
1175.607, 3463.572
1176.089, 3452.036
1176.571, 3446.254
1177.053, 3439.315
1177.535, 3423.793
1178.017, 3409.126
1178.499, 3406.092
1178.981, 3414.452
1179.464, 3413.771
1179.946, 3404.360
1180.428, 3395.513
1180.910, 3390.323
1181.392, 3390.262
1181.874, 3405.246
1182.356, 3421.156
1182.838, 3413.323
1183.320, 3380.547
1183.803, 3357.786
1184.285, 3347.808
1184.767, 3345.478
1185.249, 3355.427
1185.731, 3363.406
1186.213, 3354.027
1186.695, 3335.596
1187.177, 3334.423
1187.660, 3352.358
1188.142, 3357.446
1188.624, 3343.231
1189.106, 3325.909
1189.588, 3320.068
1190.070, 3316.826
1190.552, 3307.853
1191.034, 3294.135
1191.516, 3283.870
1191.999, 3276.643
1192.481, 3278.591
1192.963, 3293.972
1193.445, 3308.473
1193.927, 3304.748
1194.409, 3294.979
1194.891, 3291.629
1195.373, 3295.716
1195.855, 3299.561
1196.338, 3303.745
1196.820, 3302.388
1197.302, 3291.244
1197.784, 3277.768
1198.266, 3269.115
1198.748, 3263.522
1199.230, 3257.840
1199.712, 3250.251
1200.195, 3254.507
1200.677, 3272.655
1201.159, 3288.163
1201.641, 3289.601
1202.123, 3287.064
1202.605, 3294.319
1203.087, 3304.686
1203.569, 3306.549
1204.052, 3294.662
1204.534, 3287.858
1205.016, 3287.156
1205.498, 3285.112
1205.980, 3270.872
1206.462, 3257.066
1206.944, 3262.952
1207.426, 3279.788
1207.908, 3286.467
1208.391, 3276.038
1208.873, 3270.932
1209.355, 3272.713
1209.837, 3276.156
1210.319, 3277.159
1210.801, 3277.125
1211.283, 3278.886
1211.765, 3281.032
1212.247, 3276.940
1212.730, 3259.800
1213.212, 3258.523
1213.694, 3278.605
1214.176, 3302.816
1214.658, 3319.446
1215.140, 3327.817
1215.622, 3325.556
1216.104, 3313.709
1216.587, 3297.478
1217.069, 3271.871
1217.551, 3261.371
1218.033, 3271.108
1218.515, 3291.752
1218.997, 3330.116
1219.479, 3361.993
1219.961, 3349.234
1220.443, 3293.982
1220.926, 3267.606
1221.408, 3278.532
1221.890, 3297.993
1222.372, 3323.471
1222.854, 3340.759
1223.336, 3323.585
1223.818, 3294.574
1224.300, 3277.843
1224.782, 3277.170
1225.265, 3288.401
1225.747, 3316.065
1226.229, 3331.922
1226.711, 3323.861
1227.193, 3310.101
1227.675, 3311.713
1228.157, 3320.842
1228.639, 3330.729
1229.122, 3341.348
1229.604, 3335.968
1230.086, 3311.166
1230.568, 3293.342
1231.050, 3294.495
1231.532, 3303.092
1232.014, 3308.244
1232.496, 3311.745
1232.979, 3316.949
1233.461, 3325.038
1233.943, 3322.871
1234.425, 3308.557
1234.907, 3303.980
1235.389, 3326.544
1235.871, 3351.771
1236.353, 3354.385
1236.835, 3345.916
1237.318, 3342.395
1237.800, 3346.665
1238.282, 3336.809
1238.764, 3311.754
1239.246, 3296.534
1239.728, 3314.276
1240.210, 3336.123
1240.692, 3337.423
1241.175, 3328.066
1241.657, 3321.674
1242.139, 3319.269
1242.621, 3312.646
1243.103, 3301.650
1243.585, 3301.288
1244.067, 3334.781
1244.549, 3366.833
1245.031, 3370.272
1245.514, 3359.293
1245.996, 3354.134
1246.478, 3355.086
1246.960, 3359.591
1247.442, 3367.282
1247.924, 3371.708
1248.406, 3364.243
1248.888, 3357.234
1249.370, 3353.917
1249.853, 3357.690
1250.335, 3379.307
1250.817, 3417.234
1251.299, 3423.540
1251.781, 3398.332
1252.263, 3375.229
1252.745, 3377.202
1253.227, 3383.276
1253.710, 3382.832
1254.192, 3382.476
1254.674, 3393.902
1255.156, 3414.342
1255.638, 3422.826
1256.120, 3418.870
1256.602, 3412.593
1257.084, 3406.582
1257.567, 3402.897
1258.049, 3401.140
1258.531, 3402.838
1259.013, 3412.156
1259.495, 3426.755
1259.977, 3439.027
1260.459, 3448.201
1260.941, 3453.356
1261.423, 3447.121
1261.906, 3446.954
1262.388, 3459.685
1262.870, 3475.020
1263.352, 3478.046
1263.834, 3472.183
1264.316, 3462.520
1264.798, 3450.414
1265.280, 3444.277
1265.762, 3448.303
1266.245, 3457.322
1266.727, 3473.460
1267.209, 3487.377
1267.691, 3484.640
1268.173, 3471.695
1268.655, 3454.910
1269.137, 3435.939
1269.619, 3432.259
1270.102, 3450.950
1270.584, 3469.201
1271.066, 3483.945
1271.548, 3490.889
1272.030, 3476.011
1272.512, 3455.735
1272.994, 3449.000
1273.476, 3457.579
1273.958, 3472.676
1274.441, 3496.489
1274.923, 3512.515
1275.405, 3515.650
1275.887, 3516.469
1276.369, 3524.866
1276.851, 3537.144
1277.333, 3555.667
1277.815, 3576.040
1278.297, 3569.915
1278.780, 3535.653
1279.262, 3511.513
1279.744, 3507.284
1280.226, 3509.121
1280.708, 3501.083
1281.190, 3499.878
1281.672, 3526.292
1282.154, 3567.712
1282.637, 3573.442
1283.119, 3547.792
1283.601, 3531.326
1284.083, 3532.859
1284.565, 3541.727
1285.047, 3562.254
1285.529, 3575.773
1286.011, 3570.927
1286.494, 3555.207
1286.976, 3548.936
1287.458, 3550.106
1287.940, 3551.737
1288.422, 3551.972
1288.904, 3556.386
1289.386, 3568.277
1289.868, 3584.142
1290.350, 3605.603
1290.833, 3626.402
1291.315, 3630.133
1291.797, 3624.883
1292.279, 3628.813
1292.761, 3647.440
1293.243, 3652.661
1293.725, 3633.501
1294.207, 3623.333
1294.689, 3634.781
1295.172, 3656.078
1295.654, 3673.493
1296.136, 3688.271
1296.618, 3705.118
1297.100, 3725.218
1297.582, 3721.243
1298.064, 3687.982
1298.546, 3664.969
1299.029, 3666.691
1299.511, 3675.808
1299.993, 3673.020
1300.475, 3669.521
1300.957, 3676.919
1301.439, 3694.038
1301.921, 3720.835
1302.403, 3756.269
1302.885, 3764.452
1303.368, 3728.803
1303.850, 3694.077
1304.332, 3692.688
1304.814, 3702.398
1305.296, 3709.931
1305.778, 3715.711
1306.260, 3720.591
1306.742, 3725.157
1307.224, 3731.032
1307.707, 3737.520
1308.189, 3751.507
1308.671, 3789.515
1309.153, 3815.945
1309.635, 3814.417
1310.117, 3797.789
1310.599, 3790.811
1311.081, 3790.084
1311.564, 3789.614
1312.046, 3788.560
1312.528, 3784.690
1313.010, 3776.093
1313.492, 3770.237
1313.974, 3769.795
1314.456, 3772.937
1314.938, 3781.452
##END=



