##NAMES=Goedkenite
##RRUFFID=R130091
##IDEAL CHEMISTRY=Sr_2_Al(PO_4_)_2_(OH)
##LOCALITY=Palermo #1 mine, near North Groton, Grafton County, New Hampshire, USA
##OWNER=RRUFF
##SOURCE=Mark N. Feinglos
##DESCRIPTION=Short prismatic pale yellow crystals associated with prismatic palermoite and quartz.
##STATUS=The identification of this mineral has been confirmed only by single crystal X-ray diffraction.
##URL=rruff.info/R130091
8.975323e+001, 0.000000e+000
9.023535e+001, 2.156291e+002
9.071747e+001, 2.175277e+002
9.119958e+001, 2.173822e+002
9.168170e+001, 2.174557e+002
9.216382e+001, 2.157328e+002
9.264594e+001, 2.126950e+002
9.312805e+001, 2.093045e+002
9.361017e+001, 2.059184e+002
9.409229e+001, 2.018527e+002
9.457440e+001, 1.966292e+002
9.505651e+001, 1.915286e+002
9.553863e+001, 1.862006e+002
9.602074e+001, 1.812964e+002
9.650286e+001, 1.776120e+002
9.698498e+001, 1.753791e+002
9.746709e+001, 1.737109e+002
9.794921e+001, 1.711608e+002
9.843133e+001, 1.667629e+002
9.891344e+001, 1.628575e+002
9.939556e+001, 1.601133e+002
9.987768e+001, 1.582651e+002
1.003598e+002, 1.566847e+002
1.008419e+002, 1.550030e+002
1.013240e+002, 1.533028e+002
1.018061e+002, 1.518677e+002
1.022883e+002, 1.506626e+002
1.027704e+002, 1.497026e+002
1.032525e+002, 1.490740e+002
1.037346e+002, 1.488159e+002
1.042167e+002, 1.486203e+002
1.046988e+002, 1.483691e+002
1.051810e+002, 1.479994e+002
1.056631e+002, 1.473708e+002
1.061452e+002, 1.462558e+002
1.066273e+002, 1.447994e+002
1.071094e+002, 1.436009e+002
1.075915e+002, 1.427240e+002
1.080737e+002, 1.420564e+002
1.085558e+002, 1.416167e+002
1.090379e+002, 1.413345e+002
1.095200e+002, 1.410691e+002
1.100021e+002, 1.407072e+002
1.104842e+002, 1.402502e+002
1.109664e+002, 1.396889e+002
1.114485e+002, 1.388237e+002
1.119306e+002, 1.380205e+002
1.124127e+002, 1.374780e+002
1.128948e+002, 1.372110e+002
1.133769e+002, 1.370823e+002
1.138591e+002, 1.369120e+002
1.143412e+002, 1.367729e+002
1.148233e+002, 1.364148e+002
1.153054e+002, 1.357240e+002
1.157875e+002, 1.348758e+002
1.162696e+002, 1.340187e+002
1.167517e+002, 1.331996e+002
1.172339e+002, 1.324157e+002
1.177160e+002, 1.316606e+002
1.181981e+002, 1.308569e+002
1.186802e+002, 1.302038e+002
1.191623e+002, 1.296901e+002
1.196444e+002, 1.293579e+002
1.201266e+002, 1.294167e+002
1.206087e+002, 1.302605e+002
1.210908e+002, 1.312940e+002
1.215729e+002, 1.314170e+002
1.220550e+002, 1.304015e+002
1.225371e+002, 1.288728e+002
1.230193e+002, 1.272861e+002
1.235014e+002, 1.256308e+002
1.239835e+002, 1.239744e+002
1.244656e+002, 1.223817e+002
1.249477e+002, 1.208023e+002
1.254298e+002, 1.191573e+002
1.259120e+002, 1.173893e+002
1.263941e+002, 1.156012e+002
1.268762e+002, 1.140590e+002
1.273583e+002, 1.128773e+002
1.278404e+002, 1.117654e+002
1.283225e+002, 1.106227e+002
1.288047e+002, 1.094792e+002
1.292868e+002, 1.083711e+002
1.297689e+002, 1.073086e+002
1.302510e+002, 1.062986e+002
1.307331e+002, 1.054465e+002
1.312152e+002, 1.046065e+002
1.316974e+002, 1.040772e+002
1.321795e+002, 1.040356e+002
1.326616e+002, 1.043926e+002
1.331437e+002, 1.049294e+002
1.336258e+002, 1.054530e+002
1.341079e+002, 1.059380e+002
1.345901e+002, 1.066382e+002
1.350722e+002, 1.077673e+002
1.355543e+002, 1.088999e+002
1.360364e+002, 1.098735e+002
1.365185e+002, 1.106427e+002
1.370006e+002, 1.111416e+002
1.374828e+002, 1.112771e+002
1.379649e+002, 1.109983e+002
1.384470e+002, 1.104433e+002
1.389291e+002, 1.096414e+002
1.394112e+002, 1.085575e+002
1.398933e+002, 1.070632e+002
1.403755e+002, 1.050732e+002
1.408576e+002, 1.029186e+002
1.413397e+002, 1.009428e+002
1.418218e+002, 9.911754e+001
1.423039e+002, 9.759160e+001
1.427860e+002, 9.652261e+001
1.432681e+002, 9.582722e+001
1.437503e+002, 9.520068e+001
1.442324e+002, 9.459081e+001
1.447145e+002, 9.402818e+001
1.451966e+002, 9.355409e+001
1.456787e+002, 9.316786e+001
1.461608e+002, 9.276502e+001
1.466430e+002, 9.228233e+001
1.471251e+002, 9.172376e+001
1.476072e+002, 9.103242e+001
1.480893e+002, 9.012449e+001
1.485714e+002, 8.910872e+001
1.490535e+002, 8.800526e+001
1.495357e+002, 8.682891e+001
1.500178e+002, 8.561662e+001
1.504999e+002, 8.441434e+001
1.509820e+002, 8.314086e+001
1.514641e+002, 8.205179e+001
1.519462e+002, 8.122366e+001
1.524284e+002, 8.051386e+001
1.529105e+002, 7.977863e+001
1.533926e+002, 7.897272e+001
1.538747e+002, 7.818395e+001
1.543568e+002, 7.764208e+001
1.548389e+002, 7.773999e+001
1.553211e+002, 7.762527e+001
1.558032e+002, 7.711235e+001
1.562853e+002, 7.640999e+001
1.567674e+002, 7.574732e+001
1.572495e+002, 7.523300e+001
1.577316e+002, 7.486178e+001
1.582138e+002, 7.462957e+001
1.586959e+002, 7.460120e+001
1.591780e+002, 7.461393e+001
1.596601e+002, 7.467456e+001
1.601422e+002, 7.475220e+001
1.606243e+002, 7.476746e+001
1.611065e+002, 7.465450e+001
1.615886e+002, 7.445617e+001
1.620707e+002, 7.436607e+001
1.625528e+002, 7.449364e+001
1.630349e+002, 7.461673e+001
1.635170e+002, 7.455472e+001
1.639991e+002, 7.433140e+001
1.644813e+002, 7.419512e+001
1.649634e+002, 7.439577e+001
1.654455e+002, 7.476836e+001
1.659276e+002, 7.493196e+001
1.664097e+002, 7.478732e+001
1.668918e+002, 7.446513e+001
1.673740e+002, 7.403980e+001
1.678561e+002, 7.346175e+001
1.683382e+002, 7.302029e+001
1.688203e+002, 7.301688e+001
1.693024e+002, 7.322204e+001
1.697845e+002, 7.335289e+001
1.702667e+002, 7.321532e+001
1.707488e+002, 7.299081e+001
1.712309e+002, 7.317801e+001
1.717130e+002, 7.414426e+001
1.721951e+002, 7.483302e+001
1.726772e+002, 7.466584e+001
1.731594e+002, 7.404684e+001
1.736415e+002, 7.353262e+001
1.741236e+002, 7.343746e+001
1.746057e+002, 7.371593e+001
1.750878e+002, 7.410796e+001
1.755699e+002, 7.476258e+001
1.760521e+002, 7.536958e+001
1.765342e+002, 7.580569e+001
1.770163e+002, 7.613799e+001
1.774984e+002, 7.646849e+001
1.779805e+002, 7.685474e+001
1.784626e+002, 7.729688e+001
1.789448e+002, 7.796258e+001
1.794269e+002, 7.914526e+001
1.799090e+002, 8.026314e+001
1.803911e+002, 8.105807e+001
1.808732e+002, 8.162449e+001
1.813553e+002, 8.223326e+001
1.818375e+002, 8.313491e+001
1.823196e+002, 8.437915e+001
1.828017e+002, 8.541317e+001
1.832838e+002, 8.594936e+001
1.837659e+002, 8.657364e+001
1.842480e+002, 8.767503e+001
1.847301e+002, 8.919453e+001
1.852123e+002, 9.071325e+001
1.856944e+002, 9.180207e+001
1.861765e+002, 9.237526e+001
1.866586e+002, 9.327847e+001
1.871407e+002, 9.461099e+001
1.876228e+002, 9.617418e+001
1.881050e+002, 9.798106e+001
1.885871e+002, 9.999857e+001
1.890692e+002, 1.018334e+002
1.895513e+002, 1.029249e+002
1.900334e+002, 1.033051e+002
1.905155e+002, 1.041830e+002
1.909977e+002, 1.062140e+002
1.914798e+002, 1.085580e+002
1.919619e+002, 1.102260e+002
1.924440e+002, 1.110337e+002
1.929261e+002, 1.115641e+002
1.934082e+002, 1.123844e+002
1.938904e+002, 1.133933e+002
1.943725e+002, 1.142498e+002
1.948546e+002, 1.148415e+002
1.953367e+002, 1.152155e+002
1.958188e+002, 1.154147e+002
1.963009e+002, 1.153393e+002
1.967831e+002, 1.153182e+002
1.972652e+002, 1.157422e+002
1.977473e+002, 1.164336e+002
1.982294e+002, 1.169141e+002
1.987115e+002, 1.168292e+002
1.991936e+002, 1.163046e+002
1.996758e+002, 1.159312e+002
2.001579e+002, 1.160280e+002
2.006400e+002, 1.158114e+002
2.011221e+002, 1.148672e+002
2.016042e+002, 1.133300e+002
2.020863e+002, 1.115521e+002
2.025685e+002, 1.098274e+002
2.030506e+002, 1.081270e+002
2.035327e+002, 1.059667e+002
2.040148e+002, 1.028065e+002
2.044969e+002, 9.973336e+001
2.049790e+002, 9.720322e+001
2.054612e+002, 9.511351e+001
2.059433e+002, 9.312733e+001
2.064254e+002, 9.093310e+001
2.069075e+002, 8.849905e+001
2.073896e+002, 8.648159e+001
2.078717e+002, 8.526853e+001
2.083539e+002, 8.414291e+001
2.088360e+002, 8.273718e+001
2.093181e+002, 8.120415e+001
2.098002e+002, 7.999478e+001
2.102823e+002, 7.956493e+001
2.107644e+002, 8.002856e+001
2.112466e+002, 8.028171e+001
2.117287e+002, 8.008215e+001
2.122108e+002, 7.991844e+001
2.126929e+002, 7.997392e+001
2.131750e+002, 8.024294e+001
2.136571e+002, 8.063430e+001
2.141393e+002, 8.107455e+001
2.146214e+002, 8.157378e+001
2.151035e+002, 8.205830e+001
2.155856e+002, 8.254548e+001
2.160677e+002, 8.300874e+001
2.165498e+002, 8.337055e+001
2.170320e+002, 8.367026e+001
2.175141e+002, 8.408362e+001
2.179962e+002, 8.480654e+001
2.184783e+002, 8.589873e+001
2.189604e+002, 8.669687e+001
2.194425e+002, 8.698647e+001
2.199247e+002, 8.719770e+001
2.204068e+002, 8.770189e+001
2.208889e+002, 8.845871e+001
2.213710e+002, 8.904680e+001
2.218531e+002, 8.912617e+001
2.223352e+002, 8.862803e+001
2.228174e+002, 8.780433e+001
2.232995e+002, 8.653175e+001
2.237816e+002, 8.503085e+001
2.242637e+002, 8.333472e+001
2.247458e+002, 8.147118e+001
2.252279e+002, 7.977420e+001
2.257100e+002, 7.858702e+001
2.261922e+002, 7.785899e+001
2.266743e+002, 7.701030e+001
2.271564e+002, 7.586320e+001
2.276385e+002, 7.467310e+001
2.281206e+002, 7.367557e+001
2.286027e+002, 7.288480e+001
2.290849e+002, 7.221149e+001
2.295670e+002, 7.158218e+001
2.300491e+002, 7.103438e+001
2.305312e+002, 7.066703e+001
2.310133e+002, 7.060972e+001
2.314954e+002, 7.068089e+001
2.319776e+002, 7.065253e+001
2.324597e+002, 7.049988e+001
2.329418e+002, 7.042287e+001
2.334239e+002, 7.064288e+001
2.339060e+002, 7.100706e+001
2.343881e+002, 7.128277e+001
2.348703e+002, 7.136871e+001
2.353524e+002, 7.137768e+001
2.358345e+002, 7.145125e+001
2.363166e+002, 7.159105e+001
2.367987e+002, 7.179191e+001
2.372808e+002, 7.203146e+001
2.377630e+002, 7.233765e+001
2.382451e+002, 7.277403e+001
2.387272e+002, 7.340292e+001
2.392093e+002, 7.410857e+001
2.396914e+002, 7.469900e+001
2.401735e+002, 7.514677e+001
2.406557e+002, 7.557351e+001
2.411378e+002, 7.600736e+001
2.416199e+002, 7.645255e+001
2.421020e+002, 7.687192e+001
2.425841e+002, 7.721235e+001
2.430662e+002, 7.764601e+001
2.435484e+002, 7.856069e+001
2.440305e+002, 8.021291e+001
2.445126e+002, 8.163734e+001
2.449947e+002, 8.235278e+001
2.454768e+002, 8.285407e+001
2.459589e+002, 8.358279e+001
2.464410e+002, 8.469929e+001
2.469232e+002, 8.596386e+001
2.474053e+002, 8.695369e+001
2.478874e+002, 8.751025e+001
2.483695e+002, 8.816341e+001
2.488516e+002, 8.905405e+001
2.493337e+002, 9.003262e+001
2.498159e+002, 9.098434e+001
2.502980e+002, 9.187637e+001
2.507801e+002, 9.275391e+001
2.512622e+002, 9.370157e+001
2.517443e+002, 9.473024e+001
2.522264e+002, 9.579944e+001
2.527086e+002, 9.692677e+001
2.531907e+002, 9.807117e+001
2.536728e+002, 9.920518e+001
2.541549e+002, 1.003211e+002
2.546370e+002, 1.014428e+002
2.551191e+002, 1.025994e+002
2.556013e+002, 1.037272e+002
2.560834e+002, 1.050394e+002
2.565655e+002, 1.066676e+002
2.570476e+002, 1.083503e+002
2.575297e+002, 1.099197e+002
2.580118e+002, 1.113450e+002
2.584940e+002, 1.127250e+002
2.589761e+002, 1.142245e+002
2.594582e+002, 1.160330e+002
2.599403e+002, 1.174535e+002
2.604224e+002, 1.182977e+002
2.609045e+002, 1.189998e+002
2.613867e+002, 1.199099e+002
2.618688e+002, 1.210164e+002
2.623509e+002, 1.219808e+002
2.628330e+002, 1.224198e+002
2.633151e+002, 1.222475e+002
2.637972e+002, 1.217914e+002
2.642794e+002, 1.211447e+002
2.647615e+002, 1.202075e+002
2.652436e+002, 1.188972e+002
2.657257e+002, 1.172347e+002
2.662078e+002, 1.153121e+002
2.666899e+002, 1.132158e+002
2.671721e+002, 1.109557e+002
2.676542e+002, 1.084377e+002
2.681363e+002, 1.053041e+002
2.686184e+002, 1.022894e+002
2.691005e+002, 9.983059e+001
2.695826e+002, 9.785480e+001
2.700648e+002, 9.598265e+001
2.705469e+002, 9.388155e+001
2.710290e+002, 9.154634e+001
2.715111e+002, 8.955447e+001
2.719932e+002, 8.786902e+001
2.724753e+002, 8.647850e+001
2.729575e+002, 8.546762e+001
2.734396e+002, 8.476327e+001
2.739217e+002, 8.419433e+001
2.744038e+002, 8.364637e+001
2.748859e+002, 8.312810e+001
2.753680e+002, 8.277251e+001
2.758501e+002, 8.261009e+001
2.763322e+002, 8.253043e+001
2.768144e+002, 8.240012e+001
2.772965e+002, 8.232116e+001
2.777786e+002, 8.254511e+001
2.782607e+002, 8.323809e+001
2.787428e+002, 8.429219e+001
2.792249e+002, 8.526265e+001
2.797071e+002, 8.608799e+001
2.801892e+002, 8.692387e+001
2.806713e+002, 8.787209e+001
2.811534e+002, 8.885034e+001
2.816355e+002, 8.966895e+001
2.821176e+002, 9.021502e+001
2.825998e+002, 9.065544e+001
2.830819e+002, 9.143906e+001
2.835640e+002, 9.278883e+001
2.840461e+002, 9.400998e+001
2.845282e+002, 9.487209e+001
2.850103e+002, 9.554558e+001
2.854925e+002, 9.628714e+001
2.859746e+002, 9.718810e+001
2.864567e+002, 9.814677e+001
2.869388e+002, 9.905045e+001
2.874209e+002, 1.000137e+002
2.879030e+002, 1.005549e+002
2.883852e+002, 1.003300e+002
2.888673e+002, 9.974371e+001
2.893494e+002, 9.924953e+001
2.898315e+002, 9.894777e+001
2.903136e+002, 9.876822e+001
2.907957e+002, 9.862197e+001
2.912779e+002, 9.849950e+001
2.917600e+002, 9.851134e+001
2.922421e+002, 9.873521e+001
2.927242e+002, 9.906075e+001
2.932063e+002, 9.939111e+001
2.936884e+002, 9.971415e+001
2.941706e+002, 1.000529e+002
2.946527e+002, 1.004817e+002
2.951348e+002, 1.009875e+002
2.956169e+002, 1.012255e+002
2.960990e+002, 1.010831e+002
2.965811e+002, 1.007415e+002
2.970633e+002, 1.004387e+002
2.975454e+002, 1.001471e+002
2.980275e+002, 9.949099e+001
2.985096e+002, 9.818389e+001
2.989917e+002, 9.623269e+001
2.994738e+002, 9.407136e+001
2.999560e+002, 9.156274e+001
3.004381e+002, 8.899261e+001
3.009202e+002, 8.651284e+001
3.014023e+002, 8.410667e+001
3.018844e+002, 8.162655e+001
3.023665e+002, 7.891661e+001
3.028487e+002, 7.612836e+001
3.033308e+002, 7.367458e+001
3.038129e+002, 7.158430e+001
3.042950e+002, 6.970968e+001
3.047771e+002, 6.799003e+001
3.052592e+002, 6.643467e+001
3.057414e+002, 6.508056e+001
3.062235e+002, 6.396220e+001
3.067056e+002, 6.301920e+001
3.071877e+002, 6.217019e+001
3.076698e+002, 6.143191e+001
3.081519e+002, 6.069228e+001
3.086341e+002, 5.988184e+001
3.091162e+002, 5.905484e+001
3.095983e+002, 5.831561e+001
3.100804e+002, 5.769735e+001
3.105625e+002, 5.715284e+001
3.110446e+002, 5.662316e+001
3.115268e+002, 5.609942e+001
3.120089e+002, 5.566073e+001
3.124910e+002, 5.536912e+001
3.129731e+002, 5.514977e+001
3.134552e+002, 5.492496e+001
3.139373e+002, 5.468526e+001
3.144195e+002, 5.441283e+001
3.149016e+002, 5.402972e+001
3.153837e+002, 5.356078e+001
3.158658e+002, 5.332238e+001
3.163479e+002, 5.358385e+001
3.168300e+002, 5.391281e+001
3.173121e+002, 5.391756e+001
3.177943e+002, 5.360558e+001
3.182764e+002, 5.327190e+001
3.187585e+002, 5.309437e+001
3.192406e+002, 5.306327e+001
3.197227e+002, 5.306660e+001
3.202048e+002, 5.310719e+001
3.206870e+002, 5.317802e+001
3.211691e+002, 5.330530e+001
3.216512e+002, 5.346737e+001
3.221333e+002, 5.358254e+001
3.226154e+002, 5.359946e+001
3.230975e+002, 5.356135e+001
3.235797e+002, 5.359756e+001
3.240618e+002, 5.380562e+001
3.245439e+002, 5.387577e+001
3.250260e+002, 5.356160e+001
3.255081e+002, 5.305426e+001
3.259902e+002, 5.273030e+001
3.264724e+002, 5.272691e+001
3.269545e+002, 5.286654e+001
3.274366e+002, 5.287553e+001
3.279187e+002, 5.273573e+001
3.284008e+002, 5.260585e+001
3.288829e+002, 5.249338e+001
3.293651e+002, 5.241558e+001
3.298472e+002, 5.238999e+001
3.303293e+002, 5.241946e+001
3.308114e+002, 5.251345e+001
3.312935e+002, 5.274041e+001
3.317756e+002, 5.311101e+001
3.322578e+002, 5.320757e+001
3.327399e+002, 5.280218e+001
3.332220e+002, 5.228115e+001
3.337041e+002, 5.189007e+001
3.341862e+002, 5.164391e+001
3.346683e+002, 5.150039e+001
3.351505e+002, 5.148002e+001
3.356326e+002, 5.153617e+001
3.361147e+002, 5.136133e+001
3.365968e+002, 5.068425e+001
3.370789e+002, 5.008660e+001
3.375610e+002, 4.981715e+001
3.380432e+002, 4.981248e+001
3.385253e+002, 4.994021e+001
3.390074e+002, 5.015708e+001
3.394895e+002, 5.042625e+001
3.399716e+002, 5.064559e+001
3.404537e+002, 5.078514e+001
3.409359e+002, 5.093747e+001
3.414180e+002, 5.110496e+001
3.419001e+002, 5.130046e+001
3.423822e+002, 5.156073e+001
3.428643e+002, 5.189548e+001
3.433464e+002, 5.223724e+001
3.438286e+002, 5.249582e+001
3.443107e+002, 5.265516e+001
3.447928e+002, 5.274799e+001
3.452749e+002, 5.261684e+001
3.457570e+002, 5.252735e+001
3.462391e+002, 5.267402e+001
3.467213e+002, 5.307261e+001
3.472034e+002, 5.366253e+001
3.476855e+002, 5.441928e+001
3.481676e+002, 5.535945e+001
3.486497e+002, 5.613412e+001
3.491318e+002, 5.666370e+001
3.496140e+002, 5.713954e+001
3.500961e+002, 5.753955e+001
3.505782e+002, 5.794275e+001
3.510603e+002, 5.854263e+001
3.515424e+002, 5.947297e+001
3.520245e+002, 6.063137e+001
3.525067e+002, 6.158469e+001
3.529888e+002, 6.217656e+001
3.534709e+002, 6.275625e+001
3.539530e+002, 6.323968e+001
3.544351e+002, 6.377998e+001
3.549172e+002, 6.456411e+001
3.553994e+002, 6.565579e+001
3.558815e+002, 6.697295e+001
3.563636e+002, 6.840965e+001
3.568457e+002, 7.014791e+001
3.573278e+002, 7.161306e+001
3.578099e+002, 7.247591e+001
3.582920e+002, 7.333775e+001
3.587741e+002, 7.459809e+001
3.592563e+002, 7.629152e+001
3.597384e+002, 7.820690e+001
3.602205e+002, 8.015292e+001
3.607026e+002, 8.212083e+001
3.611847e+002, 8.421430e+001
3.616668e+002, 8.667294e+001
3.621490e+002, 8.899626e+001
3.626311e+002, 9.089692e+001
3.631132e+002, 9.255454e+001
3.635953e+002, 9.429736e+001
3.640774e+002, 9.633913e+001
3.645595e+002, 9.859057e+001
3.650417e+002, 1.006950e+002
3.655238e+002, 1.029473e+002
3.660059e+002, 1.045790e+002
3.664880e+002, 1.052622e+002
3.669701e+002, 1.054399e+002
3.674522e+002, 1.056289e+002
3.679344e+002, 1.059681e+002
3.684165e+002, 1.060658e+002
3.688986e+002, 1.052362e+002
3.693807e+002, 1.031357e+002
3.698628e+002, 1.010210e+002
3.703449e+002, 9.921705e+001
3.708271e+002, 9.717532e+001
3.713092e+002, 9.445821e+001
3.717913e+002, 9.116290e+001
3.722734e+002, 8.772084e+001
3.727555e+002, 8.448180e+001
3.732376e+002, 8.145024e+001
3.737198e+002, 7.857185e+001
3.742019e+002, 7.573502e+001
3.746840e+002, 7.322294e+001
3.751661e+002, 7.116802e+001
3.756482e+002, 6.945855e+001
3.761303e+002, 6.796015e+001
3.766125e+002, 6.661602e+001
3.770946e+002, 6.539845e+001
3.775767e+002, 6.421123e+001
3.780588e+002, 6.298032e+001
3.785409e+002, 6.199743e+001
3.790230e+002, 6.148620e+001
3.795052e+002, 6.116169e+001
3.799873e+002, 6.084084e+001
3.804694e+002, 6.048527e+001
3.809515e+002, 6.010266e+001
3.814336e+002, 5.967097e+001
3.819157e+002, 5.919184e+001
3.823979e+002, 5.880206e+001
3.828800e+002, 5.850997e+001
3.833621e+002, 5.833482e+001
3.838442e+002, 5.831999e+001
3.843263e+002, 5.842704e+001
3.848084e+002, 5.851841e+001
3.852906e+002, 5.844171e+001
3.857727e+002, 5.831124e+001
3.862548e+002, 5.844076e+001
3.867369e+002, 5.891703e+001
3.872190e+002, 5.933894e+001
3.877011e+002, 5.945848e+001
3.881833e+002, 5.938290e+001
3.886654e+002, 5.923723e+001
3.891475e+002, 5.901827e+001
3.896296e+002, 5.878229e+001
3.901117e+002, 5.853206e+001
3.905938e+002, 5.828379e+001
3.910760e+002, 5.817359e+001
3.915581e+002, 5.825653e+001
3.920402e+002, 5.849230e+001
3.925223e+002, 5.889742e+001
3.930044e+002, 5.950551e+001
3.934865e+002, 5.989933e+001
3.939687e+002, 5.974184e+001
3.944508e+002, 5.932416e+001
3.949329e+002, 5.912615e+001
3.954150e+002, 5.922900e+001
3.958971e+002, 5.939164e+001
3.963792e+002, 5.940883e+001
3.968614e+002, 5.928823e+001
3.973435e+002, 5.918079e+001
3.978256e+002, 5.901584e+001
3.983077e+002, 5.893156e+001
3.987898e+002, 5.905390e+001
3.992719e+002, 5.934249e+001
3.997540e+002, 5.965715e+001
4.002361e+002, 5.993627e+001
4.007183e+002, 6.018207e+001
4.012004e+002, 6.039429e+001
4.016825e+002, 6.057401e+001
4.021646e+002, 6.072546e+001
4.026467e+002, 6.076598e+001
4.031288e+002, 6.081678e+001
4.036110e+002, 6.100701e+001
4.040931e+002, 6.136748e+001
4.045752e+002, 6.187354e+001
4.050573e+002, 6.250589e+001
4.055394e+002, 6.327968e+001
4.060215e+002, 6.410639e+001
4.065037e+002, 6.483782e+001
4.069858e+002, 6.574870e+001
4.074679e+002, 6.712662e+001
4.079500e+002, 6.880647e+001
4.084321e+002, 7.036682e+001
4.089142e+002, 7.154603e+001
4.093964e+002, 7.243755e+001
4.098785e+002, 7.349026e+001
4.103606e+002, 7.464913e+001
4.108427e+002, 7.606873e+001
4.113248e+002, 7.780991e+001
4.118069e+002, 7.978278e+001
4.122891e+002, 8.196687e+001
4.127712e+002, 8.433073e+001
4.132533e+002, 8.674220e+001
4.137354e+002, 8.900153e+001
4.142175e+002, 9.105071e+001
4.146996e+002, 9.322256e+001
4.151818e+002, 9.548318e+001
4.156639e+002, 9.789497e+001
4.161460e+002, 1.004566e+002
4.166281e+002, 1.032025e+002
4.171102e+002, 1.061590e+002
4.175923e+002, 1.093790e+002
4.180745e+002, 1.128139e+002
4.185566e+002, 1.163796e+002
4.190387e+002, 1.201378e+002
4.195208e+002, 1.238500e+002
4.200029e+002, 1.274300e+002
4.204850e+002, 1.309200e+002
4.209672e+002, 1.342264e+002
4.214493e+002, 1.373077e+002
4.219314e+002, 1.405889e+002
4.224135e+002, 1.447120e+002
4.228956e+002, 1.496119e+002
4.233777e+002, 1.541122e+002
4.238599e+002, 1.580462e+002
4.243420e+002, 1.614936e+002
4.248241e+002, 1.645753e+002
4.253062e+002, 1.672988e+002
4.257883e+002, 1.696881e+002
4.262704e+002, 1.716871e+002
4.267526e+002, 1.733923e+002
4.272347e+002, 1.750491e+002
4.277168e+002, 1.766998e+002
4.281989e+002, 1.777605e+002
4.286810e+002, 1.778273e+002
4.291631e+002, 1.770912e+002
4.296453e+002, 1.762292e+002
4.301274e+002, 1.755006e+002
4.306095e+002, 1.740561e+002
4.310916e+002, 1.714452e+002
4.315737e+002, 1.678360e+002
4.320558e+002, 1.635125e+002
4.325380e+002, 1.585572e+002
4.330201e+002, 1.529357e+002
4.335022e+002, 1.464373e+002
4.339843e+002, 1.389149e+002
4.344664e+002, 1.317140e+002
4.349485e+002, 1.248158e+002
4.354307e+002, 1.183020e+002
4.359128e+002, 1.123216e+002
4.363949e+002, 1.068149e+002
4.368770e+002, 1.015318e+002
4.373591e+002, 9.629295e+001
4.378412e+002, 9.124470e+001
4.383234e+002, 8.704783e+001
4.388055e+002, 8.401949e+001
4.392876e+002, 8.145712e+001
4.397697e+002, 7.945351e+001
4.402518e+002, 7.782951e+001
4.407339e+002, 7.650368e+001
4.412160e+002, 7.542921e+001
4.416982e+002, 7.447984e+001
4.421803e+002, 7.349576e+001
4.426624e+002, 7.242518e+001
4.431445e+002, 7.168588e+001
4.436266e+002, 7.171732e+001
4.441087e+002, 7.162965e+001
4.445909e+002, 7.112758e+001
4.450730e+002, 7.032849e+001
4.455551e+002, 6.943653e+001
4.460372e+002, 6.855720e+001
4.465193e+002, 6.766410e+001
4.470014e+002, 6.666259e+001
4.474836e+002, 6.545746e+001
4.479657e+002, 6.443196e+001
4.484478e+002, 6.397971e+001
4.489299e+002, 6.348618e+001
4.494120e+002, 6.250013e+001
4.498941e+002, 6.102983e+001
4.503763e+002, 5.947375e+001
4.508584e+002, 5.807802e+001
4.513405e+002, 5.683682e+001
4.518226e+002, 5.578402e+001
4.523047e+002, 5.497151e+001
4.527868e+002, 5.423052e+001
4.532690e+002, 5.345952e+001
4.537511e+002, 5.269845e+001
4.542332e+002, 5.200360e+001
4.547153e+002, 5.137408e+001
4.551974e+002, 5.084342e+001
4.556795e+002, 5.054815e+001
4.561617e+002, 5.040668e+001
4.566438e+002, 4.998310e+001
4.571259e+002, 4.902048e+001
4.576080e+002, 4.802107e+001
4.580901e+002, 4.778587e+001
4.585722e+002, 4.831015e+001
4.590544e+002, 4.855645e+001
4.595365e+002, 4.801304e+001
4.600186e+002, 4.735403e+001
4.605007e+002, 4.721961e+001
4.609828e+002, 4.756258e+001
4.614649e+002, 4.792930e+001
4.619471e+002, 4.806127e+001
4.624292e+002, 4.798674e+001
4.629113e+002, 4.781767e+001
4.633934e+002, 4.755969e+001
4.638755e+002, 4.720836e+001
4.643576e+002, 4.662811e+001
4.648398e+002, 4.602337e+001
4.653219e+002, 4.563593e+001
4.658040e+002, 4.549363e+001
4.662861e+002, 4.541334e+001
4.667682e+002, 4.518729e+001
4.672503e+002, 4.478927e+001
4.677325e+002, 4.447968e+001
4.682146e+002, 4.434884e+001
4.686967e+002, 4.421077e+001
4.691788e+002, 4.400598e+001
4.696609e+002, 4.376572e+001
4.701430e+002, 4.350199e+001
4.706252e+002, 4.321220e+001
4.711073e+002, 4.301624e+001
4.715894e+002, 4.319998e+001
4.720715e+002, 4.389464e+001
4.725536e+002, 4.439024e+001
4.730357e+002, 4.445534e+001
4.735179e+002, 4.439513e+001
4.740000e+002, 4.429087e+001
4.744821e+002, 4.419268e+001
4.749642e+002, 4.423997e+001
4.754463e+002, 4.462609e+001
4.759284e+002, 4.517470e+001
4.764106e+002, 4.547240e+001
4.768927e+002, 4.547547e+001
4.773748e+002, 4.549259e+001
4.778569e+002, 4.564198e+001
4.783390e+002, 4.591012e+001
4.788211e+002, 4.629881e+001
4.793033e+002, 4.686880e+001
4.797854e+002, 4.733354e+001
4.802675e+002, 4.742110e+001
4.807496e+002, 4.733815e+001
4.812317e+002, 4.746444e+001
4.817138e+002, 4.786937e+001
4.821959e+002, 4.840242e+001
4.826780e+002, 4.893390e+001
4.831602e+002, 4.946955e+001
4.836423e+002, 5.012181e+001
4.841244e+002, 5.103233e+001
4.846065e+002, 5.189652e+001
4.850886e+002, 5.250771e+001
4.855707e+002, 5.300976e+001
4.860529e+002, 5.370111e+001
4.865350e+002, 5.469263e+001
4.870171e+002, 5.574955e+001
4.874992e+002, 5.644286e+001
4.879813e+002, 5.649858e+001
4.884634e+002, 5.696762e+001
4.889456e+002, 5.821825e+001
4.894277e+002, 5.945739e+001
4.899098e+002, 6.031641e+001
4.903919e+002, 6.084764e+001
4.908740e+002, 6.124316e+001
4.913561e+002, 6.161003e+001
4.918383e+002, 6.193477e+001
4.923204e+002, 6.221642e+001
4.928025e+002, 6.255081e+001
4.932846e+002, 6.257486e+001
4.937667e+002, 6.209417e+001
4.942488e+002, 6.135758e+001
4.947310e+002, 6.043439e+001
4.952131e+002, 5.936736e+001
4.956952e+002, 5.831450e+001
4.961773e+002, 5.750695e+001
4.966594e+002, 5.679400e+001
4.971415e+002, 5.569847e+001
4.976237e+002, 5.412036e+001
4.981058e+002, 5.258027e+001
4.985879e+002, 5.134052e+001
4.990700e+002, 5.032274e+001
4.995521e+002, 4.935372e+001
5.000342e+002, 4.838041e+001
5.005164e+002, 4.755639e+001
5.009985e+002, 4.705070e+001
5.014806e+002, 4.671564e+001
5.019627e+002, 4.624694e+001
5.024448e+002, 4.558173e+001
5.029269e+002, 4.494488e+001
5.034091e+002, 4.455128e+001
5.038912e+002, 4.440913e+001
5.043733e+002, 4.431991e+001
5.048554e+002, 4.420606e+001
5.053375e+002, 4.422354e+001
5.058196e+002, 4.459326e+001
5.063018e+002, 4.508069e+001
5.067839e+002, 4.529083e+001
5.072660e+002, 4.509185e+001
5.077481e+002, 4.474012e+001
5.082302e+002, 4.462911e+001
5.087123e+002, 4.481637e+001
5.091945e+002, 4.503638e+001
5.096766e+002, 4.523566e+001
5.101587e+002, 4.552121e+001
5.106408e+002, 4.596331e+001
5.111229e+002, 4.651998e+001
5.116050e+002, 4.711990e+001
5.120872e+002, 4.773854e+001
5.125693e+002, 4.835112e+001
5.130514e+002, 4.887758e+001
5.135335e+002, 4.929124e+001
5.140156e+002, 4.983237e+001
5.144977e+002, 5.049909e+001
5.149799e+002, 5.138668e+001
5.154620e+002, 5.260238e+001
5.159441e+002, 5.410867e+001
5.164262e+002, 5.565638e+001
5.169083e+002, 5.726029e+001
5.173904e+002, 5.878770e+001
5.178726e+002, 5.995023e+001
5.183547e+002, 6.078619e+001
5.188368e+002, 6.185013e+001
5.193189e+002, 6.347345e+001
5.198010e+002, 6.540012e+001
5.202831e+002, 6.699154e+001
5.207653e+002, 6.810760e+001
5.212474e+002, 6.938752e+001
5.217295e+002, 7.113166e+001
5.222116e+002, 7.294120e+001
5.226937e+002, 7.449895e+001
5.231758e+002, 7.576657e+001
5.236580e+002, 7.682475e+001
5.241401e+002, 7.771909e+001
5.246222e+002, 7.845333e+001
5.251043e+002, 7.906595e+001
5.255864e+002, 7.960371e+001
5.260685e+002, 7.992378e+001
5.265507e+002, 7.990309e+001
5.270328e+002, 7.975317e+001
5.275149e+002, 7.962893e+001
5.279970e+002, 7.955622e+001
5.284791e+002, 7.948313e+001
5.289612e+002, 7.932680e+001
5.294434e+002, 7.912447e+001
5.299255e+002, 7.919096e+001
5.304076e+002, 7.980082e+001
5.308897e+002, 8.003821e+001
5.313718e+002, 7.926063e+001
5.318539e+002, 7.802377e+001
5.323361e+002, 7.684987e+001
5.328182e+002, 7.582827e+001
5.333003e+002, 7.478455e+001
5.337824e+002, 7.374537e+001
5.342645e+002, 7.257363e+001
5.347466e+002, 7.084978e+001
5.352288e+002, 6.848237e+001
5.357109e+002, 6.606077e+001
5.361930e+002, 6.397501e+001
5.366751e+002, 6.222352e+001
5.371572e+002, 6.074689e+001
5.376393e+002, 5.963613e+001
5.381215e+002, 5.865453e+001
5.386036e+002, 5.770490e+001
5.390857e+002, 5.685625e+001
5.395678e+002, 5.611697e+001
5.400499e+002, 5.552354e+001
5.405320e+002, 5.527840e+001
5.410142e+002, 5.564970e+001
5.414963e+002, 5.665965e+001
5.419784e+002, 5.751581e+001
5.424604e+002, 5.791336e+001
5.429426e+002, 5.851809e+001
5.434247e+002, 5.953391e+001
5.439068e+002, 6.078840e+001
5.443889e+002, 6.203281e+001
5.448710e+002, 6.321175e+001
5.453531e+002, 6.457401e+001
5.458353e+002, 6.632000e+001
5.463174e+002, 6.846158e+001
5.467995e+002, 7.115427e+001
5.472816e+002, 7.468224e+001
5.477637e+002, 7.816146e+001
5.482458e+002, 8.111520e+001
5.487280e+002, 8.363256e+001
5.492101e+002, 8.586507e+001
5.496922e+002, 8.796935e+001
5.501743e+002, 8.948582e+001
5.506564e+002, 9.027077e+001
5.511385e+002, 9.023986e+001
5.516207e+002, 8.916579e+001
5.521028e+002, 8.699531e+001
5.525849e+002, 8.397700e+001
5.530670e+002, 8.020406e+001
5.535491e+002, 7.565919e+001
5.540313e+002, 7.143693e+001
5.545134e+002, 6.746508e+001
5.549955e+002, 6.384676e+001
5.554776e+002, 6.060683e+001
5.559597e+002, 5.771243e+001
5.564418e+002, 5.520533e+001
5.569240e+002, 5.306205e+001
5.574061e+002, 5.116576e+001
5.578882e+002, 4.934053e+001
5.583703e+002, 4.758455e+001
5.588524e+002, 4.621166e+001
5.593345e+002, 4.541506e+001
5.598167e+002, 4.476041e+001
5.602988e+002, 4.410936e+001
5.607809e+002, 4.349223e+001
5.612630e+002, 4.290949e+001
5.617451e+002, 4.235170e+001
5.622272e+002, 4.195637e+001
5.627094e+002, 4.186878e+001
5.631915e+002, 4.204193e+001
5.636736e+002, 4.235315e+001
5.641557e+002, 4.281640e+001
5.646378e+002, 4.327765e+001
5.651199e+002, 4.360984e+001
5.656021e+002, 4.384935e+001
5.660842e+002, 4.415718e+001
5.665663e+002, 4.442699e+001
5.670484e+002, 4.491326e+001
5.675305e+002, 4.589667e+001
5.680126e+002, 4.705205e+001
5.684948e+002, 4.794801e+001
5.689769e+002, 4.852370e+001
5.694590e+002, 4.905403e+001
5.699411e+002, 4.979038e+001
5.704232e+002, 5.072217e+001
5.709053e+002, 5.158775e+001
5.713875e+002, 5.234481e+001
5.718696e+002, 5.309349e+001
5.723517e+002, 5.381519e+001
5.728338e+002, 5.455993e+001
5.733159e+002, 5.534927e+001
5.737980e+002, 5.620103e+001
5.742802e+002, 5.716184e+001
5.747623e+002, 5.832768e+001
5.752444e+002, 5.964425e+001
5.757265e+002, 6.081218e+001
5.762086e+002, 6.172407e+001
5.766907e+002, 6.294330e+001
5.771729e+002, 6.487017e+001
5.776550e+002, 6.718639e+001
5.781371e+002, 6.933761e+001
5.786192e+002, 7.126431e+001
5.791013e+002, 7.325591e+001
5.795834e+002, 7.542119e+001
5.800656e+002, 7.770705e+001
5.805477e+002, 8.026698e+001
5.810298e+002, 8.298461e+001
5.815119e+002, 8.529028e+001
5.819940e+002, 8.681636e+001
5.824761e+002, 8.767274e+001
5.829583e+002, 8.826373e+001
5.834404e+002, 8.905747e+001
5.839225e+002, 8.879620e+001
5.844046e+002, 8.709998e+001
5.848867e+002, 8.471205e+001
5.853688e+002, 8.182286e+001
5.858510e+002, 7.866254e+001
5.863331e+002, 7.564335e+001
5.868152e+002, 7.302245e+001
5.872973e+002, 7.070885e+001
5.877794e+002, 6.849580e+001
5.882615e+002, 6.634734e+001
5.887437e+002, 6.452722e+001
5.892258e+002, 6.310304e+001
5.897079e+002, 6.203428e+001
5.901900e+002, 6.131124e+001
5.906721e+002, 6.090214e+001
5.911542e+002, 6.062787e+001
5.916364e+002, 6.040667e+001
5.921185e+002, 6.032426e+001
5.926006e+002, 6.053049e+001
5.930827e+002, 6.094277e+001
5.935648e+002, 6.124427e+001
5.940469e+002, 6.129506e+001
5.945291e+002, 6.146819e+001
5.950112e+002, 6.233750e+001
5.954933e+002, 6.411996e+001
5.959754e+002, 6.562902e+001
5.964575e+002, 6.646896e+001
5.969396e+002, 6.751613e+001
5.974218e+002, 6.915285e+001
5.979039e+002, 7.116814e+001
5.983860e+002, 7.324200e+001
5.988681e+002, 7.527010e+001
5.993502e+002, 7.737502e+001
5.998323e+002, 7.982021e+001
6.003145e+002, 8.259187e+001
6.007966e+002, 8.509924e+001
6.012787e+002, 8.743104e+001
6.017608e+002, 8.923803e+001
6.022429e+002, 9.023083e+001
6.027250e+002, 9.057601e+001
6.032072e+002, 9.049606e+001
6.036893e+002, 9.013388e+001
6.041714e+002, 8.900011e+001
6.046535e+002, 8.652770e+001
6.051356e+002, 8.326530e+001
6.056177e+002, 7.991467e+001
6.060999e+002, 7.659988e+001
6.065820e+002, 7.329097e+001
6.070641e+002, 6.992379e+001
6.075462e+002, 6.662519e+001
6.080283e+002, 6.393731e+001
6.085104e+002, 6.201489e+001
6.089926e+002, 6.055811e+001
6.094747e+002, 5.983546e+001
6.099568e+002, 5.932987e+001
6.104389e+002, 5.861180e+001
6.109210e+002, 5.776006e+001
6.114031e+002, 5.716768e+001
6.118853e+002, 5.709801e+001
6.123674e+002, 5.741409e+001
6.128495e+002, 5.787532e+001
6.133316e+002, 5.849637e+001
6.138137e+002, 5.911677e+001
6.142958e+002, 5.966791e+001
6.147780e+002, 6.025016e+001
6.152601e+002, 6.091583e+001
6.157422e+002, 6.167794e+001
6.162243e+002, 6.267575e+001
6.167064e+002, 6.409897e+001
6.171885e+002, 6.560385e+001
6.176707e+002, 6.695591e+001
6.181528e+002, 6.823189e+001
6.186349e+002, 6.961989e+001
6.191170e+002, 7.117178e+001
6.195991e+002, 7.275173e+001
6.200812e+002, 7.419180e+001
6.205634e+002, 7.548567e+001
6.210455e+002, 7.682047e+001
6.215276e+002, 7.847480e+001
6.220097e+002, 7.981393e+001
6.224918e+002, 8.055812e+001
6.229739e+002, 8.100927e+001
6.234561e+002, 8.146560e+001
6.239382e+002, 8.198302e+001
6.244203e+002, 8.243215e+001
6.249023e+002, 8.287473e+001
6.253845e+002, 8.314497e+001
6.258666e+002, 8.277283e+001
6.263487e+002, 8.172962e+001
6.268308e+002, 8.027465e+001
6.273129e+002, 7.860064e+001
6.277950e+002, 7.650642e+001
6.282772e+002, 7.340299e+001
6.287593e+002, 6.911019e+001
6.292414e+002, 6.496852e+001
6.297235e+002, 6.106896e+001
6.302056e+002, 5.745964e+001
6.306877e+002, 5.417054e+001
6.311699e+002, 5.118268e+001
6.316520e+002, 4.839240e+001
6.321341e+002, 4.576398e+001
6.326162e+002, 4.344140e+001
6.330983e+002, 4.175895e+001
6.335804e+002, 4.085018e+001
6.340626e+002, 3.985619e+001
6.345447e+002, 3.865358e+001
6.350268e+002, 3.752229e+001
6.355089e+002, 3.655582e+001
6.359910e+002, 3.574055e+001
6.364731e+002, 3.506050e+001
6.369553e+002, 3.452180e+001
6.374374e+002, 3.408645e+001
6.379195e+002, 3.379810e+001
6.384016e+002, 3.357698e+001
6.388837e+002, 3.324792e+001
6.393658e+002, 3.279685e+001
6.398480e+002, 3.236243e+001
6.403301e+002, 3.203899e+001
6.408122e+002, 3.179413e+001
6.412943e+002, 3.151576e+001
6.417764e+002, 3.111082e+001
6.422585e+002, 3.081498e+001
6.427407e+002, 3.072139e+001
6.432228e+002, 3.065388e+001
6.437049e+002, 3.045954e+001
6.441870e+002, 3.019758e+001
6.446691e+002, 3.004546e+001
6.451512e+002, 3.010834e+001
6.456334e+002, 3.026780e+001
6.461155e+002, 3.038781e+001
6.465976e+002, 3.046708e+001
6.470797e+002, 3.027288e+001
6.475618e+002, 2.960451e+001
6.480439e+002, 2.901463e+001
6.485261e+002, 2.905561e+001
6.490082e+002, 2.951742e+001
6.494903e+002, 2.973470e+001
6.499724e+002, 2.948123e+001
6.504545e+002, 2.925156e+001
6.509366e+002, 2.927178e+001
6.514188e+002, 2.940244e+001
6.519009e+002, 2.951397e+001
6.523830e+002, 2.957032e+001
6.528651e+002, 2.953443e+001
6.533472e+002, 2.936992e+001
6.538293e+002, 2.911136e+001
6.543115e+002, 2.887502e+001
6.547936e+002, 2.863084e+001
6.552757e+002, 2.848356e+001
6.557578e+002, 2.845926e+001
6.562399e+002, 2.853107e+001
6.567220e+002, 2.876862e+001
6.572042e+002, 2.909925e+001
6.576863e+002, 2.931256e+001
6.581684e+002, 2.930242e+001
6.586505e+002, 2.919152e+001
6.591326e+002, 2.907409e+001
6.596147e+002, 2.894927e+001
6.600969e+002, 2.880481e+001
6.605790e+002, 2.863750e+001
6.610611e+002, 2.848483e+001
6.615432e+002, 2.838370e+001
6.620253e+002, 2.832786e+001
6.625074e+002, 2.825113e+001
6.629896e+002, 2.808452e+001
6.634717e+002, 2.798999e+001
6.639538e+002, 2.807993e+001
6.644359e+002, 2.817154e+001
6.649180e+002, 2.812229e+001
6.654001e+002, 2.793469e+001
6.658823e+002, 2.767322e+001
6.663644e+002, 2.732725e+001
6.668465e+002, 2.701324e+001
6.673286e+002, 2.695374e+001
6.678107e+002, 2.714377e+001
6.682928e+002, 2.744859e+001
6.687750e+002, 2.791721e+001
6.692571e+002, 2.830100e+001
6.697392e+002, 2.833197e+001
6.702213e+002, 2.803481e+001
6.707034e+002, 2.775286e+001
6.711855e+002, 2.740502e+001
6.716677e+002, 2.717901e+001
6.721498e+002, 2.717871e+001
6.726319e+002, 2.730607e+001
6.731140e+002, 2.749442e+001
6.735961e+002, 2.770826e+001
6.740782e+002, 2.789075e+001
6.745604e+002, 2.800343e+001
6.750425e+002, 2.804610e+001
6.755246e+002, 2.800772e+001
6.760067e+002, 2.787024e+001
6.764888e+002, 2.773383e+001
6.769709e+002, 2.763419e+001
6.774531e+002, 2.752101e+001
6.779352e+002, 2.730626e+001
6.784173e+002, 2.703790e+001
6.788994e+002, 2.689595e+001
6.793815e+002, 2.700984e+001
6.798636e+002, 2.714619e+001
6.803458e+002, 2.709357e+001
6.808279e+002, 2.700328e+001
6.813100e+002, 2.720256e+001
6.817921e+002, 2.769846e+001
6.822742e+002, 2.808637e+001
6.827563e+002, 2.801196e+001
6.832385e+002, 2.758163e+001
6.837206e+002, 2.731900e+001
6.842027e+002, 2.727752e+001
6.846848e+002, 2.728749e+001
6.851669e+002, 2.745464e+001
6.856490e+002, 2.755383e+001
6.861312e+002, 2.735464e+001
6.866133e+002, 2.697252e+001
6.870954e+002, 2.676776e+001
6.875775e+002, 2.696182e+001
6.880596e+002, 2.722219e+001
6.885417e+002, 2.724628e+001
6.890239e+002, 2.711278e+001
6.895060e+002, 2.698445e+001
6.899881e+002, 2.689254e+001
6.904702e+002, 2.685336e+001
6.909523e+002, 2.688335e+001
6.914344e+002, 2.697319e+001
6.919166e+002, 2.707882e+001
6.923987e+002, 2.724275e+001
6.928808e+002, 2.735291e+001
6.933629e+002, 2.740281e+001
6.938450e+002, 2.740246e+001
6.943271e+002, 2.731756e+001
6.948093e+002, 2.718951e+001
6.952914e+002, 2.711876e+001
6.957735e+002, 2.716179e+001
6.962556e+002, 2.723689e+001
6.967377e+002, 2.724575e+001
6.972198e+002, 2.721000e+001
6.977020e+002, 2.725320e+001
6.981841e+002, 2.740824e+001
6.986662e+002, 2.739474e+001
6.991483e+002, 2.692710e+001
6.996304e+002, 2.619356e+001
7.001125e+002, 2.592220e+001
7.005947e+002, 2.655977e+001
7.010768e+002, 2.698394e+001
7.015589e+002, 2.707932e+001
7.020410e+002, 2.705291e+001
7.025231e+002, 2.700036e+001
7.030052e+002, 2.693124e+001
7.034874e+002, 2.681249e+001
7.039695e+002, 2.662072e+001
7.044516e+002, 2.646738e+001
7.049337e+002, 2.653634e+001
7.054158e+002, 2.677554e+001
7.058979e+002, 2.693875e+001
7.063801e+002, 2.700365e+001
7.068622e+002, 2.697534e+001
7.073442e+002, 2.680926e+001
7.078264e+002, 2.658605e+001
7.083085e+002, 2.651655e+001
7.087906e+002, 2.664832e+001
7.092727e+002, 2.680145e+001
7.097548e+002, 2.705108e+001
7.102369e+002, 2.723482e+001
7.107191e+002, 2.725534e+001
7.112012e+002, 2.714122e+001
7.116833e+002, 2.689915e+001
7.121654e+002, 2.653791e+001
7.126475e+002, 2.625248e+001
7.131296e+002, 2.634194e+001
7.136118e+002, 2.672418e+001
7.140939e+002, 2.692290e+001
7.145760e+002, 2.689354e+001
7.150581e+002, 2.688541e+001
7.155402e+002, 2.705671e+001
7.160223e+002, 2.726411e+001
7.165045e+002, 2.722067e+001
7.169866e+002, 2.686158e+001
7.174687e+002, 2.666827e+001
7.179508e+002, 2.688475e+001
7.184329e+002, 2.705839e+001
7.189150e+002, 2.687294e+001
7.193972e+002, 2.654036e+001
7.198793e+002, 2.641136e+001
7.203614e+002, 2.655621e+001
7.208435e+002, 2.670880e+001
7.213256e+002, 2.657754e+001
7.218077e+002, 2.624992e+001
7.222899e+002, 2.605971e+001
7.227720e+002, 2.600790e+001
7.232541e+002, 2.608728e+001
7.237362e+002, 2.634462e+001
7.242183e+002, 2.666045e+001
7.247004e+002, 2.692064e+001
7.251826e+002, 2.712600e+001
7.256647e+002, 2.721904e+001
7.261468e+002, 2.714367e+001
7.266289e+002, 2.702005e+001
7.271110e+002, 2.684809e+001
7.275931e+002, 2.667637e+001
7.280753e+002, 2.656042e+001
7.285574e+002, 2.650461e+001
7.290395e+002, 2.648078e+001
7.295216e+002, 2.647544e+001
7.300037e+002, 2.647573e+001
7.304858e+002, 2.644224e+001
7.309680e+002, 2.637280e+001
7.314501e+002, 2.633556e+001
7.319322e+002, 2.634675e+001
7.324143e+002, 2.638635e+001
7.328964e+002, 2.645478e+001
7.333785e+002, 2.654003e+001
7.338607e+002, 2.658309e+001
7.343428e+002, 2.657735e+001
7.348249e+002, 2.653987e+001
7.353070e+002, 2.642516e+001
7.357891e+002, 2.631893e+001
7.362712e+002, 2.629029e+001
7.367534e+002, 2.633316e+001
7.372355e+002, 2.641810e+001
7.377176e+002, 2.653510e+001
7.381997e+002, 2.664991e+001
7.386818e+002, 2.674617e+001
7.391639e+002, 2.681128e+001
7.396461e+002, 2.665062e+001
7.401282e+002, 2.616065e+001
7.406103e+002, 2.587248e+001
7.410924e+002, 2.620210e+001
7.415745e+002, 2.683710e+001
7.420566e+002, 2.705907e+001
7.425388e+002, 2.673738e+001
7.430209e+002, 2.649811e+001
7.435030e+002, 2.641745e+001
7.439851e+002, 2.640354e+001
7.444672e+002, 2.642154e+001
7.449493e+002, 2.646918e+001
7.454315e+002, 2.657796e+001
7.459136e+002, 2.674473e+001
7.463957e+002, 2.686446e+001
7.468778e+002, 2.675318e+001
7.473599e+002, 2.652904e+001
7.478420e+002, 2.664197e+001
7.483242e+002, 2.710488e+001
7.488063e+002, 2.734136e+001
7.492884e+002, 2.710789e+001
7.497705e+002, 2.669880e+001
7.502526e+002, 2.642453e+001
7.507347e+002, 2.628955e+001
7.512169e+002, 2.627428e+001
7.516990e+002, 2.645972e+001
7.521811e+002, 2.664870e+001
7.526632e+002, 2.684927e+001
7.531453e+002, 2.699890e+001
7.536274e+002, 2.700649e+001
7.541096e+002, 2.690256e+001
7.545917e+002, 2.683495e+001
7.550738e+002, 2.692083e+001
7.555559e+002, 2.701008e+001
7.560380e+002, 2.682145e+001
7.565201e+002, 2.643921e+001
7.570023e+002, 2.623831e+001
7.574844e+002, 2.628243e+001
7.579665e+002, 2.647556e+001
7.584486e+002, 2.681417e+001
7.589307e+002, 2.718948e+001
7.594128e+002, 2.722970e+001
7.598950e+002, 2.669224e+001
7.603771e+002, 2.625434e+001
7.608592e+002, 2.584291e+001
7.613413e+002, 2.560117e+001
7.618234e+002, 2.564396e+001
7.623055e+002, 2.588417e+001
7.627877e+002, 2.623155e+001
7.632698e+002, 2.666901e+001
7.637519e+002, 2.701564e+001
7.642340e+002, 2.709567e+001
7.647161e+002, 2.702205e+001
7.651982e+002, 2.697966e+001
7.656804e+002, 2.695774e+001
7.661625e+002, 2.682494e+001
7.666446e+002, 2.652096e+001
7.671267e+002, 2.620674e+001
7.676088e+002, 2.609465e+001
7.680909e+002, 2.618998e+001
7.685731e+002, 2.634947e+001
7.690552e+002, 2.669784e+001
7.695373e+002, 2.690481e+001
7.700194e+002, 2.676724e+001
7.705015e+002, 2.657161e+001
7.709836e+002, 2.655033e+001
7.714658e+002, 2.668280e+001
7.719479e+002, 2.679541e+001
7.724300e+002, 2.682471e+001
7.729121e+002, 2.682084e+001
7.733942e+002, 2.679924e+001
7.738763e+002, 2.677534e+001
7.743585e+002, 2.677798e+001
7.748406e+002, 2.680694e+001
7.753227e+002, 2.682707e+001
7.758048e+002, 2.680926e+001
7.762869e+002, 2.679782e+001
7.767690e+002, 2.695580e+001
7.772512e+002, 2.735458e+001
7.777333e+002, 2.740377e+001
7.782154e+002, 2.681383e+001
7.786975e+002, 2.633906e+001
7.791796e+002, 2.648932e+001
7.796617e+002, 2.697080e+001
7.801439e+002, 2.733641e+001
7.806260e+002, 2.760405e+001
7.811081e+002, 2.761565e+001
7.815902e+002, 2.704846e+001
7.820723e+002, 2.649819e+001
7.825544e+002, 2.640733e+001
7.830366e+002, 2.657578e+001
7.835187e+002, 2.660001e+001
7.840008e+002, 2.640095e+001
7.844829e+002, 2.630056e+001
7.849650e+002, 2.668998e+001
7.854471e+002, 2.734577e+001
7.859293e+002, 2.754538e+001
7.864114e+002, 2.728094e+001
7.868935e+002, 2.704001e+001
7.873756e+002, 2.692546e+001
7.878577e+002, 2.692296e+001
7.883398e+002, 2.705701e+001
7.888220e+002, 2.730298e+001
7.893040e+002, 2.744596e+001
7.897861e+002, 2.751648e+001
7.902682e+002, 2.744643e+001
7.907504e+002, 2.705926e+001
7.912325e+002, 2.668876e+001
7.917146e+002, 2.655216e+001
7.921967e+002, 2.660089e+001
7.926788e+002, 2.669814e+001
7.931609e+002, 2.679612e+001
7.936431e+002, 2.692696e+001
7.941252e+002, 2.716061e+001
7.946073e+002, 2.742922e+001
7.950894e+002, 2.760394e+001
7.955715e+002, 2.768492e+001
7.960536e+002, 2.773247e+001
7.965358e+002, 2.777508e+001
7.970179e+002, 2.775723e+001
7.975000e+002, 2.758163e+001
7.979821e+002, 2.723575e+001
7.984642e+002, 2.701395e+001
7.989464e+002, 2.693327e+001
7.994285e+002, 2.694418e+001
7.999106e+002, 2.715042e+001
8.003927e+002, 2.735342e+001
8.008748e+002, 2.735046e+001
8.013569e+002, 2.719478e+001
8.018391e+002, 2.716529e+001
8.023212e+002, 2.745298e+001
8.028033e+002, 2.770858e+001
8.032854e+002, 2.767406e+001
8.037675e+002, 2.755593e+001
8.042496e+002, 2.763971e+001
8.047318e+002, 2.788715e+001
8.052139e+002, 2.803924e+001
8.056960e+002, 2.794956e+001
8.061781e+002, 2.777691e+001
8.066602e+002, 2.776634e+001
8.071423e+002, 2.790972e+001
8.076245e+002, 2.813150e+001
8.081066e+002, 2.846540e+001
8.085887e+002, 2.869056e+001
8.090708e+002, 2.869999e+001
8.095529e+002, 2.856141e+001
8.100350e+002, 2.834989e+001
8.105172e+002, 2.804346e+001
8.109993e+002, 2.781359e+001
8.114814e+002, 2.761238e+001
8.119635e+002, 2.754726e+001
8.124456e+002, 2.772346e+001
8.129277e+002, 2.799486e+001
8.134099e+002, 2.829626e+001
8.138920e+002, 2.856923e+001
8.143741e+002, 2.866236e+001
8.148562e+002, 2.843433e+001
8.153383e+002, 2.813904e+001
8.158204e+002, 2.802946e+001
8.163026e+002, 2.805661e+001
8.167847e+002, 2.812462e+001
8.172668e+002, 2.821800e+001
8.177489e+002, 2.834335e+001
8.182310e+002, 2.851106e+001
8.187131e+002, 2.867273e+001
8.191953e+002, 2.872611e+001
8.196774e+002, 2.865124e+001
8.201595e+002, 2.858434e+001
8.206416e+002, 2.848187e+001
8.211237e+002, 2.847046e+001
8.216058e+002, 2.867574e+001
8.220880e+002, 2.894113e+001
8.225701e+002, 2.908403e+001
8.230522e+002, 2.910734e+001
8.235343e+002, 2.915401e+001
8.240164e+002, 2.927040e+001
8.244985e+002, 2.939317e+001
8.249807e+002, 2.950463e+001
8.254628e+002, 2.960227e+001
8.259449e+002, 2.965042e+001
8.264270e+002, 2.967773e+001
8.269091e+002, 2.980881e+001
8.273912e+002, 3.014348e+001
8.278734e+002, 3.047165e+001
8.283555e+002, 3.043294e+001
8.288376e+002, 3.012468e+001
8.293197e+002, 2.994296e+001
8.298018e+002, 2.992321e+001
8.302839e+002, 3.001358e+001
8.307661e+002, 3.020884e+001
8.312482e+002, 3.044299e+001
8.317303e+002, 3.060904e+001
8.322124e+002, 3.069775e+001
8.326945e+002, 3.078036e+001
8.331766e+002, 3.086587e+001
8.336588e+002, 3.093055e+001
8.341409e+002, 3.093258e+001
8.346230e+002, 3.094137e+001
8.351051e+002, 3.098372e+001
8.355872e+002, 3.107850e+001
8.360693e+002, 3.130198e+001
8.365515e+002, 3.181460e+001
8.370336e+002, 3.224075e+001
8.375157e+002, 3.236074e+001
8.379978e+002, 3.229604e+001
8.384799e+002, 3.213425e+001
8.389620e+002, 3.192220e+001
8.394442e+002, 3.170421e+001
8.399263e+002, 3.150013e+001
8.404084e+002, 3.141699e+001
8.408905e+002, 3.171617e+001
8.413726e+002, 3.229565e+001
8.418547e+002, 3.248307e+001
8.423369e+002, 3.223407e+001
8.428190e+002, 3.216221e+001
8.433011e+002, 3.252497e+001
8.437832e+002, 3.304358e+001
8.442653e+002, 3.342161e+001
8.447474e+002, 3.366021e+001
8.452296e+002, 3.377007e+001
8.457117e+002, 3.365755e+001
8.461938e+002, 3.354990e+001
8.466759e+002, 3.337619e+001
8.471580e+002, 3.329804e+001
8.476401e+002, 3.348401e+001
8.481223e+002, 3.383117e+001
8.486044e+002, 3.410579e+001
8.490865e+002, 3.424099e+001
8.495686e+002, 3.433586e+001
8.500507e+002, 3.441307e+001
8.505328e+002, 3.450158e+001
8.510150e+002, 3.466010e+001
8.514971e+002, 3.484991e+001
8.519792e+002, 3.499828e+001
8.524613e+002, 3.507537e+001
8.529434e+002, 3.503841e+001
8.534255e+002, 3.476892e+001
8.539077e+002, 3.441902e+001
8.543898e+002, 3.456182e+001
8.548719e+002, 3.519696e+001
8.553540e+002, 3.560436e+001
8.558361e+002, 3.559710e+001
8.563182e+002, 3.553658e+001
8.568004e+002, 3.571070e+001
8.572825e+002, 3.602067e+001
8.577646e+002, 3.613859e+001
8.582467e+002, 3.590063e+001
8.587288e+002, 3.582603e+001
8.592109e+002, 3.613195e+001
8.596931e+002, 3.634287e+001
8.601752e+002, 3.623766e+001
8.606573e+002, 3.597739e+001
8.611394e+002, 3.573724e+001
8.616215e+002, 3.554199e+001
8.621036e+002, 3.538646e+001
8.625858e+002, 3.520719e+001
8.630679e+002, 3.513094e+001
8.635500e+002, 3.537017e+001
8.640321e+002, 3.569977e+001
8.645142e+002, 3.578496e+001
8.649963e+002, 3.562209e+001
8.654785e+002, 3.543477e+001
8.659606e+002, 3.535968e+001
8.664427e+002, 3.527327e+001
8.669248e+002, 3.490909e+001
8.674069e+002, 3.434877e+001
8.678890e+002, 3.408997e+001
8.683712e+002, 3.417373e+001
8.688533e+002, 3.409370e+001
8.693354e+002, 3.357846e+001
8.698175e+002, 3.303352e+001
8.702996e+002, 3.306182e+001
8.707817e+002, 3.367165e+001
8.712639e+002, 3.384544e+001
8.717459e+002, 3.332447e+001
8.722280e+002, 3.282279e+001
8.727101e+002, 3.236144e+001
8.731923e+002, 3.204426e+001
8.736744e+002, 3.201768e+001
8.741565e+002, 3.217596e+001
8.746386e+002, 3.227074e+001
8.751207e+002, 3.227298e+001
8.756028e+002, 3.217684e+001
8.760850e+002, 3.184835e+001
8.765671e+002, 3.154781e+001
8.770492e+002, 3.154605e+001
8.775313e+002, 3.167942e+001
8.780134e+002, 3.162488e+001
8.784955e+002, 3.133180e+001
8.789777e+002, 3.106442e+001
8.794598e+002, 3.106836e+001
8.799419e+002, 3.116873e+001
8.804240e+002, 3.101834e+001
8.809061e+002, 3.071207e+001
8.813882e+002, 3.063284e+001
8.818704e+002, 3.082966e+001
8.823525e+002, 3.105052e+001
8.828346e+002, 3.114588e+001
8.833167e+002, 3.112444e+001
8.837988e+002, 3.096981e+001
8.842809e+002, 3.064240e+001
8.847631e+002, 3.048595e+001
8.852452e+002, 3.055301e+001
8.857273e+002, 3.066946e+001
8.862094e+002, 3.084420e+001
8.866915e+002, 3.097010e+001
8.871736e+002, 3.084739e+001
8.876558e+002, 3.050617e+001
8.881379e+002, 3.041276e+001
8.886200e+002, 3.089331e+001
8.891021e+002, 3.117983e+001
8.895842e+002, 3.094337e+001
8.900663e+002, 3.065839e+001
8.905485e+002, 3.070130e+001
8.910306e+002, 3.093065e+001
8.915127e+002, 3.099523e+001
8.919948e+002, 3.079004e+001
8.924769e+002, 3.064065e+001
8.929590e+002, 3.082490e+001
8.934412e+002, 3.110985e+001
8.939233e+002, 3.126317e+001
8.944054e+002, 3.131870e+001
8.948875e+002, 3.131325e+001
8.953696e+002, 3.128517e+001
8.958517e+002, 3.139090e+001
8.963339e+002, 3.177280e+001
8.968160e+002, 3.226567e+001
8.972981e+002, 3.254702e+001
8.977802e+002, 3.262750e+001
8.982623e+002, 3.257538e+001
8.987444e+002, 3.237673e+001
8.992266e+002, 3.231565e+001
8.997087e+002, 3.256624e+001
9.001908e+002, 3.290398e+001
9.006729e+002, 3.296920e+001
9.011550e+002, 3.273997e+001
9.016371e+002, 3.274515e+001
9.021193e+002, 3.316093e+001
9.026014e+002, 3.348279e+001
9.030835e+002, 3.351861e+001
9.035656e+002, 3.352978e+001
9.040477e+002, 3.373265e+001
9.045298e+002, 3.404299e+001
9.050120e+002, 3.422498e+001
9.054941e+002, 3.418266e+001
9.059762e+002, 3.421555e+001
9.064583e+002, 3.449488e+001
9.069404e+002, 3.476497e+001
9.074225e+002, 3.477258e+001
9.079047e+002, 3.472702e+001
9.083868e+002, 3.502026e+001
9.088689e+002, 3.563690e+001
9.093510e+002, 3.605566e+001
9.098331e+002, 3.584037e+001
9.103152e+002, 3.550258e+001
9.107974e+002, 3.559697e+001
9.112795e+002, 3.592762e+001
9.117616e+002, 3.610785e+001
9.122437e+002, 3.614235e+001
9.127258e+002, 3.631557e+001
9.132079e+002, 3.676242e+001
9.136901e+002, 3.723200e+001
9.141722e+002, 3.732236e+001
9.146543e+002, 3.713267e+001
9.151364e+002, 3.729528e+001
9.156185e+002, 3.782583e+001
9.161006e+002, 3.825560e+001
9.165828e+002, 3.845961e+001
9.170649e+002, 3.857686e+001
9.175470e+002, 3.869811e+001
9.180291e+002, 3.884724e+001
9.185112e+002, 3.913002e+001
9.189933e+002, 3.967665e+001
9.194755e+002, 4.002243e+001
9.199576e+002, 3.999774e+001
9.204397e+002, 4.001554e+001
9.209218e+002, 4.026979e+001
9.214039e+002, 4.062789e+001
9.218860e+002, 4.093975e+001
9.223682e+002, 4.120776e+001
9.228503e+002, 4.154625e+001
9.233324e+002, 4.202050e+001
9.238145e+002, 4.249981e+001
9.242966e+002, 4.295583e+001
9.247787e+002, 4.339502e+001
9.252609e+002, 4.377259e+001
9.257430e+002, 4.414876e+001
9.262251e+002, 4.467350e+001
9.267072e+002, 4.539620e+001
9.271893e+002, 4.606162e+001
9.276714e+002, 4.634578e+001
9.281536e+002, 4.662443e+001
9.286357e+002, 4.736143e+001
9.291178e+002, 4.835611e+001
9.295999e+002, 4.921178e+001
9.300820e+002, 4.987740e+001
9.305641e+002, 5.050606e+001
9.310463e+002, 5.117546e+001
9.315284e+002, 5.197077e+001
9.320105e+002, 5.310723e+001
9.324926e+002, 5.448536e+001
9.329747e+002, 5.566156e+001
9.334568e+002, 5.662472e+001
9.339390e+002, 5.761147e+001
9.344211e+002, 5.868656e+001
9.349032e+002, 5.998265e+001
9.353853e+002, 6.168444e+001
9.358674e+002, 6.370692e+001
9.363495e+002, 6.554742e+001
9.368317e+002, 6.717831e+001
9.373138e+002, 6.868875e+001
9.377959e+002, 6.981863e+001
9.382780e+002, 7.146355e+001
9.387601e+002, 7.435503e+001
9.392422e+002, 7.789590e+001
9.397244e+002, 8.101094e+001
9.402065e+002, 8.356557e+001
9.406886e+002, 8.645243e+001
9.411707e+002, 8.956167e+001
9.416528e+002, 9.314663e+001
9.421349e+002, 9.732613e+001
9.426171e+002, 1.019328e+002
9.430992e+002, 1.069264e+002
9.435813e+002, 1.122437e+002
9.440634e+002, 1.176798e+002
9.445455e+002, 1.231502e+002
9.450276e+002, 1.289475e+002
9.455098e+002, 1.351434e+002
9.459919e+002, 1.417725e+002
9.464740e+002, 1.489216e+002
9.469561e+002, 1.564175e+002
9.474382e+002, 1.640514e+002
9.479203e+002, 1.717627e+002
9.484025e+002, 1.796041e+002
9.488846e+002, 1.875273e+002
9.493667e+002, 1.957951e+002
9.498488e+002, 2.048560e+002
9.503309e+002, 2.143589e+002
9.508130e+002, 2.237052e+002
9.512952e+002, 2.330438e+002
9.517773e+002, 2.430663e+002
9.522594e+002, 2.539874e+002
9.527415e+002, 2.653973e+002
9.532236e+002, 2.771065e+002
9.537057e+002, 2.888741e+002
9.541878e+002, 3.001774e+002
9.546699e+002, 3.110439e+002
9.551520e+002, 3.217330e+002
9.556342e+002, 3.323356e+002
9.561163e+002, 3.423091e+002
9.565984e+002, 3.514360e+002
9.570805e+002, 3.597202e+002
9.575626e+002, 3.672706e+002
9.580447e+002, 3.741113e+002
9.585269e+002, 3.787251e+002
9.590090e+002, 3.811995e+002
9.594911e+002, 3.811266e+002
9.599732e+002, 3.783682e+002
9.604553e+002, 3.731697e+002
9.609374e+002, 3.655883e+002
9.614196e+002, 3.558044e+002
9.619017e+002, 3.442614e+002
9.623838e+002, 3.307108e+002
9.628659e+002, 3.161901e+002
9.633480e+002, 3.001097e+002
9.638301e+002, 2.839023e+002
9.643123e+002, 2.675111e+002
9.647944e+002, 2.515431e+002
9.652765e+002, 2.364948e+002
9.657586e+002, 2.222713e+002
9.662407e+002, 2.083792e+002
9.667228e+002, 1.943110e+002
9.672050e+002, 1.813945e+002
9.676871e+002, 1.701292e+002
9.681692e+002, 1.598401e+002
9.686513e+002, 1.501488e+002
9.691334e+002, 1.412351e+002
9.696155e+002, 1.335143e+002
9.700977e+002, 1.269587e+002
9.705798e+002, 1.211136e+002
9.710619e+002, 1.159772e+002
9.715440e+002, 1.112234e+002
9.720261e+002, 1.064314e+002
9.725082e+002, 1.020843e+002
9.729904e+002, 9.892333e+001
9.734725e+002, 9.662052e+001
9.739546e+002, 9.436775e+001
9.744367e+002, 9.193282e+001
9.749188e+002, 8.966508e+001
9.754009e+002, 8.785964e+001
9.758831e+002, 8.636904e+001
9.763652e+002, 8.496538e+001
9.768473e+002, 8.373732e+001
9.773294e+002, 8.281783e+001
9.778115e+002, 8.224758e+001
9.782936e+002, 8.213013e+001
9.787758e+002, 8.251197e+001
9.792579e+002, 8.327219e+001
9.797400e+002, 8.424702e+001
9.802221e+002, 8.548531e+001
9.807042e+002, 8.711116e+001
9.811863e+002, 8.912196e+001
9.816685e+002, 9.156593e+001
9.821506e+002, 9.444242e+001
9.826327e+002, 9.764707e+001
9.831148e+002, 1.011448e+002
9.835969e+002, 1.047113e+002
9.840790e+002, 1.077645e+002
9.845612e+002, 1.102894e+002
9.850433e+002, 1.139504e+002
9.855254e+002, 1.190179e+002
9.860075e+002, 1.234853e+002
9.864896e+002, 1.265696e+002
9.869717e+002, 1.298103e+002
9.874539e+002, 1.345010e+002
9.879360e+002, 1.402591e+002
9.884181e+002, 1.458063e+002
9.889002e+002, 1.506753e+002
9.893823e+002, 1.569643e+002
9.898644e+002, 1.652674e+002
9.903466e+002, 1.738486e+002
9.908287e+002, 1.820553e+002
9.913108e+002, 1.905106e+002
9.917929e+002, 1.998047e+002
9.922750e+002, 2.098872e+002
9.927571e+002, 2.204315e+002
9.932393e+002, 2.324859e+002
9.937214e+002, 2.430667e+002
9.942035e+002, 2.528654e+002
9.946856e+002, 2.603849e+002
9.951677e+002, 2.654648e+002
9.956498e+002, 2.676680e+002
9.961320e+002, 2.666358e+002
9.966141e+002, 2.623157e+002
9.970962e+002, 2.544980e+002
9.975783e+002, 2.420308e+002
9.980604e+002, 2.279405e+002
9.985425e+002, 2.119391e+002
9.990247e+002, 1.956854e+002
9.995068e+002, 1.798393e+002
9.999889e+002, 1.647471e+002
1.000471e+003, 1.509106e+002
1.000953e+003, 1.383403e+002
1.001435e+003, 1.266786e+002
1.001917e+003, 1.155775e+002
1.002399e+003, 1.057346e+002
1.002882e+003, 9.785221e+001
1.003364e+003, 9.114745e+001
1.003846e+003, 8.502366e+001
1.004328e+003, 7.939680e+001
1.004810e+003, 7.415026e+001
1.005292e+003, 6.927061e+001
1.005774e+003, 6.489738e+001
1.006256e+003, 6.113231e+001
1.006739e+003, 5.785122e+001
1.007221e+003, 5.502179e+001
1.007703e+003, 5.256110e+001
1.008185e+003, 5.038084e+001
1.008667e+003, 4.846540e+001
1.009149e+003, 4.685749e+001
1.009631e+003, 4.556025e+001
1.010113e+003, 4.436040e+001
1.010595e+003, 4.304997e+001
1.011078e+003, 4.176543e+001
1.011560e+003, 4.068779e+001
1.012042e+003, 3.980834e+001
1.012524e+003, 3.915424e+001
1.013006e+003, 3.868417e+001
1.013488e+003, 3.822518e+001
1.013970e+003, 3.769968e+001
1.014452e+003, 3.717539e+001
1.014935e+003, 3.669563e+001
1.015417e+003, 3.629734e+001
1.015899e+003, 3.614894e+001
1.016381e+003, 3.617751e+001
1.016863e+003, 3.600799e+001
1.017345e+003, 3.560583e+001
1.017827e+003, 3.523542e+001
1.018309e+003, 3.503156e+001
1.018791e+003, 3.494695e+001
1.019274e+003, 3.494060e+001
1.019756e+003, 3.499047e+001
1.020238e+003, 3.497717e+001
1.020720e+003, 3.490429e+001
1.021202e+003, 3.488333e+001
1.021684e+003, 3.493955e+001
1.022166e+003, 3.490668e+001
1.022648e+003, 3.466425e+001
1.023130e+003, 3.440324e+001
1.023613e+003, 3.445657e+001
1.024095e+003, 3.480003e+001
1.024577e+003, 3.501955e+001
1.025059e+003, 3.510043e+001
1.025541e+003, 3.518213e+001
1.026023e+003, 3.530560e+001
1.026505e+003, 3.535626e+001
1.026987e+003, 3.524723e+001
1.027469e+003, 3.505313e+001
1.027952e+003, 3.490276e+001
1.028434e+003, 3.479348e+001
1.028916e+003, 3.478438e+001
1.029398e+003, 3.492307e+001
1.029880e+003, 3.499359e+001
1.030362e+003, 3.494810e+001
1.030844e+003, 3.483436e+001
1.031326e+003, 3.462602e+001
1.031809e+003, 3.443583e+001
1.032291e+003, 3.452478e+001
1.032773e+003, 3.495055e+001
1.033255e+003, 3.516084e+001
1.033737e+003, 3.505227e+001
1.034219e+003, 3.495643e+001
1.034701e+003, 3.495283e+001
1.035183e+003, 3.494472e+001
1.035666e+003, 3.481643e+001
1.036148e+003, 3.467149e+001
1.036630e+003, 3.473650e+001
1.037112e+003, 3.504439e+001
1.037594e+003, 3.537563e+001
1.038076e+003, 3.573389e+001
1.038558e+003, 3.610802e+001
1.039040e+003, 3.660510e+001
1.039522e+003, 3.699479e+001
1.040005e+003, 3.699268e+001
1.040487e+003, 3.682016e+001
1.040969e+003, 3.694090e+001
1.041451e+003, 3.738911e+001
1.041933e+003, 3.794757e+001
1.042415e+003, 3.865487e+001
1.042897e+003, 3.941511e+001
1.043379e+003, 4.031911e+001
1.043861e+003, 4.116359e+001
1.044344e+003, 4.165782e+001
1.044826e+003, 4.205078e+001
1.045308e+003, 4.286622e+001
1.045790e+003, 4.420494e+001
1.046272e+003, 4.545545e+001
1.046754e+003, 4.651701e+001
1.047236e+003, 4.753370e+001
1.047718e+003, 4.833773e+001
1.048201e+003, 4.930245e+001
1.048683e+003, 5.080655e+001
1.049165e+003, 5.260936e+001
1.049647e+003, 5.423688e+001
1.050129e+003, 5.559634e+001
1.050611e+003, 5.716664e+001
1.051093e+003, 5.912627e+001
1.051575e+003, 6.117754e+001
1.052057e+003, 6.312820e+001
1.052540e+003, 6.524235e+001
1.053022e+003, 6.784126e+001
1.053504e+003, 7.069357e+001
1.053986e+003, 7.330322e+001
1.054468e+003, 7.559822e+001
1.054950e+003, 7.818184e+001
1.055432e+003, 8.122392e+001
1.055914e+003, 8.456572e+001
1.056396e+003, 8.824899e+001
1.056879e+003, 9.211907e+001
1.057361e+003, 9.598447e+001
1.057843e+003, 9.996571e+001
1.058325e+003, 1.043640e+002
1.058807e+003, 1.092149e+002
1.059289e+003, 1.140905e+002
1.059771e+003, 1.189093e+002
1.060253e+003, 1.236561e+002
1.060736e+003, 1.281771e+002
1.061218e+003, 1.327934e+002
1.061700e+003, 1.378144e+002
1.062182e+003, 1.431061e+002
1.062664e+003, 1.483752e+002
1.063146e+003, 1.535918e+002
1.063628e+003, 1.589986e+002
1.064110e+003, 1.645913e+002
1.064593e+003, 1.705631e+002
1.065075e+003, 1.772100e+002
1.065557e+003, 1.840581e+002
1.066039e+003, 1.906493e+002
1.066521e+003, 1.972504e+002
1.067003e+003, 2.045833e+002
1.067485e+003, 2.125255e+002
1.067967e+003, 2.195799e+002
1.068449e+003, 2.253659e+002
1.068932e+003, 2.298471e+002
1.069414e+003, 2.331566e+002
1.069896e+003, 2.350003e+002
1.070378e+003, 2.354629e+002
1.070860e+003, 2.341667e+002
1.071342e+003, 2.305020e+002
1.071824e+003, 2.245009e+002
1.072306e+003, 2.167855e+002
1.072788e+003, 2.072409e+002
1.073271e+003, 1.968403e+002
1.073753e+003, 1.855245e+002
1.074235e+003, 1.740383e+002
1.074717e+003, 1.627270e+002
1.075199e+003, 1.516999e+002
1.075681e+003, 1.408131e+002
1.076163e+003, 1.302137e+002
1.076645e+003, 1.204812e+002
1.077127e+003, 1.117688e+002
1.077610e+003, 1.039805e+002
1.078092e+003, 9.723607e+001
1.078574e+003, 9.116893e+001
1.079056e+003, 8.549752e+001
1.079538e+003, 8.033589e+001
1.080020e+003, 7.588545e+001
1.080502e+003, 7.205888e+001
1.080984e+003, 6.853991e+001
1.081467e+003, 6.526118e+001
1.081949e+003, 6.219231e+001
1.082431e+003, 5.923778e+001
1.082913e+003, 5.656326e+001
1.083395e+003, 5.432291e+001
1.083877e+003, 5.238688e+001
1.084359e+003, 5.064759e+001
1.084841e+003, 4.908403e+001
1.085323e+003, 4.769255e+001
1.085806e+003, 4.648436e+001
1.086288e+003, 4.536895e+001
1.086770e+003, 4.430804e+001
1.087252e+003, 4.333162e+001
1.087734e+003, 4.244307e+001
1.088216e+003, 4.164356e+001
1.088698e+003, 4.095948e+001
1.089180e+003, 4.035770e+001
1.089662e+003, 3.977729e+001
1.090145e+003, 3.920085e+001
1.090627e+003, 3.868627e+001
1.091109e+003, 3.818840e+001
1.091591e+003, 3.784104e+001
1.092073e+003, 3.787090e+001
1.092555e+003, 3.790910e+001
1.093037e+003, 3.765611e+001
1.093519e+003, 3.721133e+001
1.094002e+003, 3.671882e+001
1.094484e+003, 3.621978e+001
1.094966e+003, 3.586945e+001
1.095448e+003, 3.590572e+001
1.095930e+003, 3.582019e+001
1.096412e+003, 3.534710e+001
1.096894e+003, 3.480838e+001
1.097376e+003, 3.423961e+001
1.097859e+003, 3.383019e+001
1.098341e+003, 3.396568e+001
1.098823e+003, 3.454869e+001
1.099305e+003, 3.476980e+001
1.099787e+003, 3.412806e+001
1.100269e+003, 3.377747e+001
1.100751e+003, 3.426984e+001
1.101233e+003, 3.481712e+001
1.101715e+003, 3.507746e+001
1.102198e+003, 3.516425e+001
1.102680e+003, 3.510551e+001
1.103162e+003, 3.499312e+001
1.103644e+003, 3.511909e+001
1.104126e+003, 3.558893e+001
1.104608e+003, 3.609473e+001
1.105090e+003, 3.665794e+001
1.105572e+003, 3.714967e+001
1.106054e+003, 3.746424e+001
1.106537e+003, 3.774769e+001
1.107019e+003, 3.802696e+001
1.107501e+003, 3.838987e+001
1.107983e+003, 3.909022e+001
1.108465e+003, 4.024806e+001
1.108947e+003, 4.115636e+001
1.109429e+003, 4.146648e+001
1.109911e+003, 4.193213e+001
1.110394e+003, 4.276133e+001
1.110876e+003, 4.372215e+001
1.111358e+003, 4.471223e+001
1.111840e+003, 4.573034e+001
1.112322e+003, 4.680235e+001
1.112804e+003, 4.793392e+001
1.113286e+003, 4.893736e+001
1.113768e+003, 4.961670e+001
1.114250e+003, 5.048970e+001
1.114733e+003, 5.170208e+001
1.115215e+003, 5.295184e+001
1.115697e+003, 5.398671e+001
1.116179e+003, 5.511430e+001
1.116661e+003, 5.676390e+001
1.117143e+003, 5.885148e+001
1.117625e+003, 6.075124e+001
1.118107e+003, 6.235767e+001
1.118589e+003, 6.398958e+001
1.119072e+003, 6.552458e+001
1.119554e+003, 6.733978e+001
1.120036e+003, 6.962022e+001
1.120518e+003, 7.213560e+001
1.121000e+003, 7.476146e+001
1.121482e+003, 7.744154e+001
1.121964e+003, 7.999302e+001
1.122446e+003, 8.240543e+001
1.122929e+003, 8.468790e+001
1.123411e+003, 8.666954e+001
1.123893e+003, 8.919929e+001
1.124375e+003, 9.264274e+001
1.124857e+003, 9.609453e+001
1.125339e+003, 9.894454e+001
1.125821e+003, 1.015361e+002
1.126303e+003, 1.044625e+002
1.126786e+003, 1.076922e+002
1.127268e+003, 1.106303e+002
1.127750e+003, 1.132265e+002
1.128232e+003, 1.158971e+002
1.128714e+003, 1.187213e+002
1.129196e+003, 1.213373e+002
1.129678e+003, 1.236063e+002
1.130160e+003, 1.253467e+002
1.130642e+003, 1.262506e+002
1.131125e+003, 1.266031e+002
1.131607e+003, 1.276719e+002
1.132089e+003, 1.293437e+002
1.132571e+003, 1.295083e+002
1.133053e+003, 1.280657e+002
1.133535e+003, 1.260307e+002
1.134017e+003, 1.237136e+002
1.134499e+003, 1.207184e+002
1.134981e+003, 1.166898e+002
1.135464e+003, 1.120497e+002
1.135946e+003, 1.075128e+002
1.136428e+003, 1.030249e+002
1.136910e+003, 9.831367e+001
1.137392e+003, 9.344588e+001
1.137874e+003, 8.877024e+001
1.138356e+003, 8.432619e+001
1.138838e+003, 7.988686e+001
1.139321e+003, 7.531145e+001
1.139803e+003, 7.100747e+001
1.140285e+003, 6.739541e+001
1.140767e+003, 6.431606e+001
1.141249e+003, 6.156342e+001
1.141731e+003, 5.905127e+001
1.142213e+003, 5.653814e+001
1.142695e+003, 5.409251e+001
1.143177e+003, 5.201043e+001
1.143660e+003, 5.037127e+001
1.144142e+003, 4.898045e+001
1.144624e+003, 4.768291e+001
1.145106e+003, 4.660076e+001
1.145588e+003, 4.599263e+001
1.146070e+003, 4.556444e+001
1.146552e+003, 4.496594e+001
1.147034e+003, 4.425271e+001
1.147516e+003, 4.359778e+001
1.147999e+003, 4.299162e+001
1.148481e+003, 4.224682e+001
1.148963e+003, 4.125312e+001
1.149445e+003, 4.029292e+001
1.149927e+003, 3.975202e+001
1.150409e+003, 3.906939e+001
1.150891e+003, 3.766822e+001
1.151373e+003, 3.604947e+001
1.151856e+003, 3.479636e+001
1.152338e+003, 3.378076e+001
1.152820e+003, 3.253600e+001
1.153302e+003, 3.096626e+001
1.153784e+003, 2.954844e+001
1.154266e+003, 2.838958e+001
1.154748e+003, 2.747363e+001
1.155230e+003, 2.693626e+001
1.155713e+003, 2.648546e+001
1.156195e+003, 2.593254e+001
1.156677e+003, 2.536200e+001
1.157159e+003, 2.487341e+001
1.157641e+003, 2.447480e+001
1.158123e+003, 2.417599e+001
1.158605e+003, 2.406973e+001
1.159087e+003, 2.386033e+001
1.159569e+003, 2.334677e+001
1.160052e+003, 2.298219e+001
1.160534e+003, 2.305851e+001
1.161016e+003, 2.312331e+001
1.161498e+003, 2.275634e+001
1.161980e+003, 2.219435e+001
1.162462e+003, 2.197987e+001
1.162944e+003, 2.215931e+001
1.163426e+003, 2.217671e+001
1.163908e+003, 2.198521e+001
1.164391e+003, 2.175649e+001
1.164873e+003, 2.148285e+001
1.165355e+003, 2.127253e+001
1.165837e+003, 2.120171e+001
1.166319e+003, 2.114237e+001
1.166801e+003, 2.091919e+001
1.167283e+003, 2.060495e+001
1.167765e+003, 2.050875e+001
1.168247e+003, 2.063697e+001
1.168730e+003, 2.082926e+001
1.169212e+003, 2.108454e+001
1.169694e+003, 2.113622e+001
1.170176e+003, 2.090689e+001
1.170658e+003, 2.066284e+001
1.171140e+003, 2.058230e+001
1.171622e+003, 2.062803e+001
1.172104e+003, 2.081190e+001
1.172587e+003, 2.104595e+001
1.173069e+003, 2.100312e+001
1.173551e+003, 2.074854e+001
1.174033e+003, 2.047133e+001
1.174515e+003, 2.023298e+001
1.174997e+003, 2.021276e+001
1.175479e+003, 2.045544e+001
1.175961e+003, 2.063657e+001
1.176443e+003, 2.044769e+001
1.176926e+003, 2.015944e+001
1.177408e+003, 2.008267e+001
1.177890e+003, 2.013980e+001
1.178372e+003, 2.029274e+001
1.178854e+003, 2.045813e+001
1.179336e+003, 2.046965e+001
1.179818e+003, 2.033912e+001
1.180300e+003, 2.023869e+001
1.180782e+003, 2.024584e+001
1.181265e+003, 2.023702e+001
1.181747e+003, 2.010850e+001
1.182229e+003, 1.997461e+001
1.182711e+003, 1.991408e+001
1.183193e+003, 1.988076e+001
1.183675e+003, 1.981630e+001
1.184157e+003, 1.974966e+001
1.184639e+003, 1.974323e+001
1.185122e+003, 1.980405e+001
1.185604e+003, 1.988248e+001
1.186086e+003, 2.005165e+001
1.186568e+003, 2.010148e+001
1.187050e+003, 1.984129e+001
1.187532e+003, 1.964911e+001
1.188014e+003, 1.982281e+001
1.188496e+003, 2.001065e+001
1.188979e+003, 1.977920e+001
1.189461e+003, 1.933549e+001
1.189943e+003, 1.932407e+001
1.190425e+003, 1.986963e+001
1.190907e+003, 2.006730e+001
1.191389e+003, 1.964724e+001
1.191871e+003, 1.971631e+001
1.192353e+003, 2.072715e+001
1.192835e+003, 2.138877e+001
1.193318e+003, 2.097469e+001
1.193800e+003, 2.012431e+001
1.194282e+003, 1.955599e+001
1.194764e+003, 1.927974e+001
1.195246e+003, 1.946063e+001
1.195728e+003, 2.006833e+001
1.196210e+003, 2.021795e+001
1.196692e+003, 1.989244e+001
1.197174e+003, 1.954162e+001
1.197657e+003, 1.929821e+001
1.198139e+003, 1.946695e+001
1.198621e+003, 2.027046e+001
1.199103e+003, 2.109160e+001
1.199585e+003, 2.094180e+001
1.200067e+003, 2.036211e+001
1.200549e+003, 2.061827e+001
1.201031e+003, 2.121957e+001
1.201514e+003, 2.091315e+001
1.201996e+003, 1.993988e+001
1.202478e+003, 1.944730e+001
1.202960e+003, 1.968072e+001
1.203442e+003, 1.985967e+001
1.203924e+003, 1.946791e+001
1.204406e+003, 1.907895e+001
1.204888e+003, 1.915640e+001
1.205370e+003, 1.938509e+001
1.205853e+003, 1.955091e+001
1.206335e+003, 1.967995e+001
1.206817e+003, 1.989385e+001
1.207299e+003, 2.009890e+001
1.207781e+003, 1.996288e+001
1.208263e+003, 1.938504e+001
1.208745e+003, 1.912336e+001
1.209227e+003, 1.964974e+001
1.209709e+003, 2.007347e+001
1.210192e+003, 2.013231e+001
1.210674e+003, 2.014078e+001
1.211156e+003, 2.036662e+001
1.211638e+003, 2.051539e+001
1.212120e+003, 2.017019e+001
1.212602e+003, 1.952258e+001
1.213084e+003, 1.934504e+001
1.213566e+003, 1.979338e+001
1.214049e+003, 1.989239e+001
1.214531e+003, 1.951422e+001
1.215013e+003, 1.929813e+001
1.215495e+003, 1.937726e+001
1.215977e+003, 1.958868e+001
1.216459e+003, 1.987629e+001
1.216941e+003, 2.008588e+001
1.217423e+003, 1.999238e+001
1.217906e+003, 1.973057e+001
1.218388e+003, 1.975521e+001
1.218870e+003, 1.999478e+001
1.219352e+003, 2.007894e+001
1.219834e+003, 2.001753e+001
1.220316e+003, 1.997521e+001
1.220798e+003, 1.998729e+001
1.221280e+003, 2.001807e+001
1.221762e+003, 2.005189e+001
1.222245e+003, 2.000219e+001
1.222727e+003, 1.963192e+001
1.223209e+003, 1.928365e+001
1.223691e+003, 1.950515e+001
1.224173e+003, 1.986768e+001
1.224655e+003, 1.974645e+001
1.225137e+003, 1.934011e+001
1.225619e+003, 1.909943e+001
1.226101e+003, 1.910254e+001
1.226584e+003, 1.924340e+001
1.227066e+003, 1.963324e+001
1.227548e+003, 1.971771e+001
1.228030e+003, 1.887748e+001
1.228512e+003, 1.825973e+001
1.228994e+003, 1.854618e+001
1.229476e+003, 1.904401e+001
1.229958e+003, 1.931988e+001
1.230441e+003, 1.937029e+001
1.230923e+003, 1.916102e+001
1.231405e+003, 1.870496e+001
1.231887e+003, 1.848572e+001
1.232369e+003, 1.859162e+001
1.232851e+003, 1.865980e+001
1.233333e+003, 1.865283e+001
1.233815e+003, 1.870757e+001
1.234297e+003, 1.889845e+001
1.234780e+003, 1.898308e+001
1.235262e+003, 1.874853e+001
1.235744e+003, 1.846619e+001
1.236226e+003, 1.867412e+001
1.236708e+003, 1.919634e+001
1.237190e+003, 1.919866e+001
1.237672e+003, 1.883920e+001
1.238154e+003, 1.892567e+001
1.238636e+003, 1.939891e+001
1.239119e+003, 1.949187e+001
1.239601e+003, 1.904806e+001
1.240083e+003, 1.873391e+001
1.240565e+003, 1.900966e+001
1.241047e+003, 1.934984e+001
1.241529e+003, 1.917855e+001
1.242011e+003, 1.890191e+001
1.242493e+003, 1.894238e+001
1.242975e+003, 1.909578e+001
1.243458e+003, 1.913648e+001
1.243940e+003, 1.905777e+001
1.244422e+003, 1.888947e+001
1.244904e+003, 1.864533e+001
1.245386e+003, 1.840739e+001
1.245868e+003, 1.809115e+001
1.246350e+003, 1.797987e+001
1.246832e+003, 1.830233e+001
1.247315e+003, 1.859177e+001
1.247797e+003, 1.869091e+001
1.248279e+003, 1.870107e+001
1.248761e+003, 1.864499e+001
1.249243e+003, 1.859475e+001
1.249725e+003, 1.870658e+001
1.250207e+003, 1.896235e+001
1.250689e+003, 1.904694e+001
1.251172e+003, 1.894970e+001
1.251654e+003, 1.876164e+001
1.252136e+003, 1.848251e+001
1.252618e+003, 1.829086e+001
1.253100e+003, 1.824038e+001
1.253582e+003, 1.834042e+001
1.254064e+003, 1.860876e+001
1.254546e+003, 1.890361e+001
1.255028e+003, 1.904673e+001
1.255510e+003, 1.906317e+001
1.255993e+003, 1.895104e+001
1.256475e+003, 1.877328e+001
1.256957e+003, 1.861750e+001
1.257439e+003, 1.851167e+001
1.257921e+003, 1.851488e+001
1.258403e+003, 1.861343e+001
1.258885e+003, 1.866423e+001
1.259367e+003, 1.858212e+001
1.259850e+003, 1.854093e+001
1.260332e+003, 1.868834e+001
1.260814e+003, 1.880753e+001
1.261296e+003, 1.875349e+001
1.261778e+003, 1.867521e+001
1.262260e+003, 1.869566e+001
1.262742e+003, 1.876345e+001
1.263224e+003, 1.876908e+001
1.263707e+003, 1.873050e+001
1.264189e+003, 1.881510e+001
1.264671e+003, 1.909081e+001
1.265153e+003, 1.925412e+001
1.265635e+003, 1.928159e+001
1.266117e+003, 1.930330e+001
1.266599e+003, 1.935958e+001
1.267081e+003, 1.931585e+001
1.267563e+003, 1.908679e+001
1.268046e+003, 1.881836e+001
1.268528e+003, 1.869077e+001
1.269010e+003, 1.863327e+001
1.269492e+003, 1.842543e+001
1.269974e+003, 1.817883e+001
1.270456e+003, 1.824675e+001
1.270938e+003, 1.850690e+001
1.271420e+003, 1.855976e+001
1.271902e+003, 1.840461e+001
1.272385e+003, 1.833798e+001
1.272867e+003, 1.847348e+001
1.273349e+003, 1.867142e+001
1.273831e+003, 1.897474e+001
1.274313e+003, 1.914449e+001
1.274795e+003, 1.887835e+001
1.275277e+003, 1.864818e+001
1.275759e+003, 1.891644e+001
1.276242e+003, 1.927443e+001
1.276724e+003, 1.920675e+001
1.277206e+003, 1.882846e+001
1.277688e+003, 1.856451e+001
1.278170e+003, 1.841449e+001
1.278652e+003, 1.840464e+001
1.279134e+003, 1.858335e+001
1.279616e+003, 1.873033e+001
1.280099e+003, 1.882445e+001
1.280581e+003, 1.887245e+001
1.281063e+003, 1.887425e+001
1.281545e+003, 1.884442e+001
1.282027e+003, 1.878789e+001
1.282509e+003, 1.874341e+001
1.282991e+003, 1.879584e+001
1.283473e+003, 1.889906e+001
1.283955e+003, 1.895826e+001
##END=



