##NAMES=Goedkenite
##RRUFFID=R130667
##IDEAL CHEMISTRY=Sr_2_Al(PO_4_)_2_(OH)
##LOCALITY=Palermo No. 1 mine, Groton, Grafton County, New Hampshire, USA
##OWNER=RRUFF
##SOURCE=Rock Currier
##DESCRIPTION=Vitreous clusters of tabular colorless-to-white crystals with wedge-shaped form, associated with quartz in a vug.
##STATUS=The identification of this mineral has been confirmed by single-crystal X-ray diffraction.
##URL=rruff.info/R130667
8.813672e+001, 8.738585e+002
8.861884e+001, 8.832885e+002
8.910095e+001, 8.936522e+002
8.958307e+001, 9.100778e+002
9.006519e+001, 9.297194e+002
9.054730e+001, 9.462469e+002
9.102942e+001, 9.596748e+002
9.151154e+001, 9.707465e+002
9.199365e+001, 9.795595e+002
9.247577e+001, 9.867706e+002
9.295789e+001, 9.942631e+002
9.344000e+001, 1.004358e+003
9.392212e+001, 1.015056e+003
9.440424e+001, 1.023033e+003
9.488635e+001, 1.028248e+003
9.536847e+001, 1.032558e+003
9.585059e+001, 1.039355e+003
9.633270e+001, 1.048618e+003
9.681482e+001, 1.059038e+003
9.729694e+001, 1.069125e+003
9.777905e+001, 1.078925e+003
9.826117e+001, 1.089990e+003
9.874329e+001, 1.103057e+003
9.922540e+001, 1.117689e+003
9.970752e+001, 1.131273e+003
1.001896e+002, 1.143326e+003
1.006718e+002, 1.154837e+003
1.011539e+002, 1.166881e+003
1.016360e+002, 1.179561e+003
1.021181e+002, 1.192694e+003
1.026002e+002, 1.206093e+003
1.030823e+002, 1.219695e+003
1.035645e+002, 1.233814e+003
1.040466e+002, 1.248084e+003
1.045287e+002, 1.263225e+003
1.050108e+002, 1.281313e+003
1.054929e+002, 1.304587e+003
1.059750e+002, 1.327550e+003
1.064572e+002, 1.348153e+003
1.069393e+002, 1.366524e+003
1.074214e+002, 1.382727e+003
1.079035e+002, 1.395848e+003
1.083856e+002, 1.406914e+003
1.088677e+002, 1.418812e+003
1.093499e+002, 1.431505e+003
1.098320e+002, 1.445320e+003
1.103141e+002, 1.460378e+003
1.107962e+002, 1.478727e+003
1.112783e+002, 1.496359e+003
1.117604e+002, 1.513023e+003
1.122426e+002, 1.528938e+003
1.127247e+002, 1.544326e+003
1.132068e+002, 1.558945e+003
1.136889e+002, 1.573264e+003
1.141710e+002, 1.587447e+003
1.146531e+002, 1.601368e+003
1.151353e+002, 1.615238e+003
1.156174e+002, 1.629694e+003
1.160995e+002, 1.644640e+003
1.165816e+002, 1.658644e+003
1.170637e+002, 1.670149e+003
1.175458e+002, 1.680629e+003
1.180280e+002, 1.691840e+003
1.185101e+002, 1.704596e+003
1.189922e+002, 1.718025e+003
1.194743e+002, 1.731604e+003
1.199564e+002, 1.745366e+003
1.204385e+002, 1.758936e+003
1.209207e+002, 1.771455e+003
1.214028e+002, 1.783603e+003
1.218849e+002, 1.796550e+003
1.223670e+002, 1.814779e+003
1.228491e+002, 1.832467e+003
1.233312e+002, 1.842938e+003
1.238134e+002, 1.844602e+003
1.242955e+002, 1.842321e+003
1.247776e+002, 1.839421e+003
1.252597e+002, 1.836011e+003
1.257418e+002, 1.832485e+003
1.262239e+002, 1.828047e+003
1.267061e+002, 1.823754e+003
1.271882e+002, 1.821776e+003
1.276703e+002, 1.822647e+003
1.281524e+002, 1.825474e+003
1.286345e+002, 1.828944e+003
1.291166e+002, 1.833133e+003
1.295988e+002, 1.838757e+003
1.300809e+002, 1.846617e+003
1.305630e+002, 1.856448e+003
1.310451e+002, 1.867233e+003
1.315272e+002, 1.878859e+003
1.320093e+002, 1.891051e+003
1.324915e+002, 1.903158e+003
1.329736e+002, 1.915059e+003
1.334557e+002, 1.927696e+003
1.339378e+002, 1.941772e+003
1.344199e+002, 1.957293e+003
1.349020e+002, 1.973500e+003
1.353842e+002, 1.990125e+003
1.358663e+002, 2.007051e+003
1.363484e+002, 2.026286e+003
1.368305e+002, 2.048755e+003
1.373126e+002, 2.070704e+003
1.377947e+002, 2.088351e+003
1.382769e+002, 2.101756e+003
1.387590e+002, 2.110474e+003
1.392411e+002, 2.113861e+003
1.397232e+002, 2.111856e+003
1.402053e+002, 2.106823e+003
1.406874e+002, 2.097721e+003
1.411696e+002, 2.086945e+003
1.416517e+002, 2.077780e+003
1.421338e+002, 2.070667e+003
1.426159e+002, 2.064278e+003
1.430980e+002, 2.058080e+003
1.435801e+002, 2.051908e+003
1.440623e+002, 2.047488e+003
1.445444e+002, 2.045458e+003
1.450265e+002, 2.044976e+003
1.455086e+002, 2.044809e+003
1.459907e+002, 2.046243e+003
1.464728e+002, 2.046420e+003
1.469550e+002, 2.044135e+003
1.474371e+002, 2.037765e+003
1.479192e+002, 2.032775e+003
1.484013e+002, 2.030024e+003
1.488834e+002, 2.028574e+003
1.493655e+002, 2.026316e+003
1.498477e+002, 2.022701e+003
1.503298e+002, 2.018737e+003
1.508119e+002, 2.014757e+003
1.512940e+002, 2.010207e+003
1.517761e+002, 2.006398e+003
1.522583e+002, 2.003824e+003
1.527404e+002, 2.002101e+003
1.532225e+002, 2.000159e+003
1.537046e+002, 1.997099e+003
1.541867e+002, 1.994398e+003
1.546688e+002, 1.992744e+003
1.551510e+002, 1.992648e+003
1.556331e+002, 1.993043e+003
1.561152e+002, 1.994016e+003
1.565973e+002, 1.995443e+003
1.570794e+002, 1.996790e+003
1.575615e+002, 1.998083e+003
1.580437e+002, 1.999211e+003
1.585258e+002, 2.000114e+003
1.590079e+002, 2.000846e+003
1.594900e+002, 2.001291e+003
1.599721e+002, 2.001068e+003
1.604542e+002, 2.000359e+003
1.609364e+002, 2.000218e+003
1.614185e+002, 2.000977e+003
1.619006e+002, 2.002482e+003
1.623827e+002, 2.004605e+003
1.628648e+002, 2.007940e+003
1.633469e+002, 2.011321e+003
1.638291e+002, 2.014418e+003
1.643112e+002, 2.017177e+003
1.647933e+002, 2.019384e+003
1.652754e+002, 2.020628e+003
1.657575e+002, 2.021363e+003
1.662396e+002, 2.022068e+003
1.667218e+002, 2.022679e+003
1.672039e+002, 2.023486e+003
1.676860e+002, 2.024918e+003
1.681681e+002, 2.026940e+003
1.686502e+002, 2.028678e+003
1.691323e+002, 2.029043e+003
1.696145e+002, 2.028885e+003
1.700966e+002, 2.029361e+003
1.705787e+002, 2.031163e+003
1.710608e+002, 2.033667e+003
1.715429e+002, 2.036520e+003
1.720250e+002, 2.039760e+003
1.725072e+002, 2.042904e+003
1.729893e+002, 2.045691e+003
1.734714e+002, 2.048186e+003
1.739535e+002, 2.050496e+003
1.744356e+002, 2.052021e+003
1.749177e+002, 2.053672e+003
1.753999e+002, 2.056512e+003
1.758820e+002, 2.060626e+003
1.763641e+002, 2.065716e+003
1.768462e+002, 2.072559e+003
1.773283e+002, 2.080355e+003
1.778104e+002, 2.087095e+003
1.782926e+002, 2.090687e+003
1.787747e+002, 2.092819e+003
1.792568e+002, 2.096599e+003
1.797389e+002, 2.102367e+003
1.802210e+002, 2.108098e+003
1.807031e+002, 2.109940e+003
1.811853e+002, 2.109217e+003
1.816674e+002, 2.110793e+003
1.821495e+002, 2.119057e+003
1.826316e+002, 2.131314e+003
1.831137e+002, 2.140819e+003
1.835958e+002, 2.147002e+003
1.840780e+002, 2.151754e+003
1.845601e+002, 2.157657e+003
1.850422e+002, 2.164462e+003
1.855243e+002, 2.171062e+003
1.860064e+002, 2.176320e+003
1.864885e+002, 2.180833e+003
1.869707e+002, 2.186212e+003
1.874528e+002, 2.192448e+003
1.879349e+002, 2.200152e+003
1.884170e+002, 2.211258e+003
1.888991e+002, 2.225556e+003
1.893812e+002, 2.239270e+003
1.898634e+002, 2.250194e+003
1.903455e+002, 2.258669e+003
1.908276e+002, 2.267406e+003
1.913097e+002, 2.276944e+003
1.917918e+002, 2.286106e+003
1.922739e+002, 2.292613e+003
1.927561e+002, 2.296433e+003
1.932382e+002, 2.299526e+003
1.937203e+002, 2.303650e+003
1.942024e+002, 2.308531e+003
1.946845e+002, 2.310748e+003
1.951666e+002, 2.309878e+003
1.956488e+002, 2.306466e+003
1.961309e+002, 2.301051e+003
1.966130e+002, 2.293349e+003
1.970951e+002, 2.285437e+003
1.975772e+002, 2.278388e+003
1.980593e+002, 2.272225e+003
1.985415e+002, 2.266159e+003
1.990236e+002, 2.260143e+003
1.995057e+002, 2.254218e+003
1.999878e+002, 2.248517e+003
2.004699e+002, 2.242976e+003
2.009520e+002, 2.237965e+003
2.014342e+002, 2.234131e+003
2.019163e+002, 2.231631e+003
2.023984e+002, 2.228148e+003
2.028805e+002, 2.223489e+003
2.033626e+002, 2.217796e+003
2.038447e+002, 2.210860e+003
2.043269e+002, 2.202015e+003
2.048090e+002, 2.194276e+003
2.052911e+002, 2.189948e+003
2.057732e+002, 2.189626e+003
2.062553e+002, 2.188483e+003
2.067374e+002, 2.186088e+003
2.072196e+002, 2.182794e+003
2.077017e+002, 2.179486e+003
2.081838e+002, 2.176134e+003
2.086659e+002, 2.172852e+003
2.091480e+002, 2.169076e+003
2.096301e+002, 2.163870e+003
2.101123e+002, 2.162736e+003
2.105944e+002, 2.167316e+003
2.110765e+002, 2.175463e+003
2.115586e+002, 2.180929e+003
2.120407e+002, 2.182913e+003
2.125228e+002, 2.184043e+003
2.130050e+002, 2.185531e+003
2.134871e+002, 2.187195e+003
2.139692e+002, 2.189904e+003
2.144513e+002, 2.194000e+003
2.149334e+002, 2.199031e+003
2.154155e+002, 2.203628e+003
2.158977e+002, 2.207207e+003
2.163798e+002, 2.211449e+003
2.168619e+002, 2.217531e+003
2.173440e+002, 2.226357e+003
2.178261e+002, 2.233926e+003
2.183082e+002, 2.239394e+003
2.187904e+002, 2.243604e+003
2.192725e+002, 2.249345e+003
2.197546e+002, 2.257680e+003
2.202367e+002, 2.265547e+003
2.207188e+002, 2.271322e+003
2.212009e+002, 2.274744e+003
2.216831e+002, 2.277063e+003
2.221652e+002, 2.278697e+003
2.226473e+002, 2.279210e+003
2.231294e+002, 2.277060e+003
2.236115e+002, 2.271250e+003
2.240936e+002, 2.264520e+003
2.245758e+002, 2.258217e+003
2.250579e+002, 2.253100e+003
2.255400e+002, 2.246563e+003
2.260221e+002, 2.237668e+003
2.265042e+002, 2.227581e+003
2.269863e+002, 2.219913e+003
2.274685e+002, 2.215826e+003
2.279506e+002, 2.212221e+003
2.284327e+002, 2.207437e+003
2.289148e+002, 2.199841e+003
2.293969e+002, 2.194784e+003
2.298790e+002, 2.193068e+003
2.303612e+002, 2.193643e+003
2.308433e+002, 2.193866e+003
2.313254e+002, 2.193269e+003
2.318075e+002, 2.192959e+003
2.322896e+002, 2.193414e+003
2.327717e+002, 2.194818e+003
2.332539e+002, 2.196452e+003
2.337360e+002, 2.198319e+003
2.342181e+002, 2.200340e+003
2.347002e+002, 2.202430e+003
2.351823e+002, 2.204821e+003
2.356644e+002, 2.206844e+003
2.361466e+002, 2.208256e+003
2.366287e+002, 2.209064e+003
2.371108e+002, 2.209148e+003
2.375929e+002, 2.208254e+003
2.380750e+002, 2.206738e+003
2.385571e+002, 2.205288e+003
2.390393e+002, 2.203772e+003
2.395214e+002, 2.202571e+003
2.400035e+002, 2.201941e+003
2.404856e+002, 2.202239e+003
2.409677e+002, 2.202096e+003
2.414498e+002, 2.201313e+003
2.419320e+002, 2.200265e+003
2.424141e+002, 2.199552e+003
2.428962e+002, 2.199168e+003
2.433783e+002, 2.199257e+003
2.438604e+002, 2.200232e+003
2.443425e+002, 2.202903e+003
2.448247e+002, 2.203430e+003
2.453068e+002, 2.200458e+003
2.457889e+002, 2.196219e+003
2.462710e+002, 2.194245e+003
2.467531e+002, 2.195440e+003
2.472352e+002, 2.197314e+003
2.477174e+002, 2.199103e+003
2.481995e+002, 2.200626e+003
2.486816e+002, 2.202790e+003
2.491637e+002, 2.205799e+003
2.496458e+002, 2.209256e+003
2.501279e+002, 2.212557e+003
2.506101e+002, 2.215584e+003
2.510922e+002, 2.218692e+003
2.515743e+002, 2.222063e+003
2.520564e+002, 2.225827e+003
2.525385e+002, 2.228923e+003
2.530206e+002, 2.231345e+003
2.535028e+002, 2.233114e+003
2.539849e+002, 2.234007e+003
2.544670e+002, 2.233246e+003
2.549491e+002, 2.233311e+003
2.554312e+002, 2.234871e+003
2.559133e+002, 2.237972e+003
2.563955e+002, 2.241612e+003
2.568776e+002, 2.246095e+003
2.573597e+002, 2.250797e+003
2.578418e+002, 2.255070e+003
2.583239e+002, 2.258858e+003
2.588061e+002, 2.262330e+003
2.592882e+002, 2.265182e+003
2.597703e+002, 2.267454e+003
2.602524e+002, 2.271462e+003
2.607345e+002, 2.278169e+003
2.612166e+002, 2.285305e+003
2.616988e+002, 2.291027e+003
2.621809e+002, 2.295106e+003
2.626630e+002, 2.298065e+003
2.631451e+002, 2.299453e+003
2.636272e+002, 2.299584e+003
2.641093e+002, 2.301346e+003
2.645915e+002, 2.305458e+003
2.650736e+002, 2.310005e+003
2.655557e+002, 2.313927e+003
2.660378e+002, 2.317641e+003
2.665199e+002, 2.318936e+003
2.670020e+002, 2.316774e+003
2.674842e+002, 2.311941e+003
2.679663e+002, 2.308272e+003
2.684484e+002, 2.305573e+003
2.689305e+002, 2.304446e+003
2.694126e+002, 2.305777e+003
2.698947e+002, 2.310297e+003
2.703769e+002, 2.314059e+003
2.708590e+002, 2.316567e+003
2.713411e+002, 2.318138e+003
2.718232e+002, 2.319666e+003
2.723053e+002, 2.321116e+003
2.727874e+002, 2.322581e+003
2.732696e+002, 2.324066e+003
2.737517e+002, 2.325518e+003
2.742338e+002, 2.327293e+003
2.747159e+002, 2.329422e+003
2.751980e+002, 2.331897e+003
2.756801e+002, 2.334615e+003
2.761623e+002, 2.337553e+003
2.766444e+002, 2.340915e+003
2.771265e+002, 2.344666e+003
2.776086e+002, 2.348831e+003
2.780907e+002, 2.354298e+003
2.785728e+002, 2.361609e+003
2.790550e+002, 2.369474e+003
2.795371e+002, 2.375034e+003
2.800192e+002, 2.377870e+003
2.805013e+002, 2.381827e+003
2.809834e+002, 2.389179e+003
2.814655e+002, 2.399810e+003
2.819477e+002, 2.409396e+003
2.824298e+002, 2.417621e+003
2.829119e+002, 2.425295e+003
2.833940e+002, 2.433594e+003
2.838761e+002, 2.442512e+003
2.843582e+002, 2.451018e+003
2.848404e+002, 2.459057e+003
2.853225e+002, 2.466402e+003
2.858046e+002, 2.471665e+003
2.862867e+002, 2.474626e+003
2.867688e+002, 2.476240e+003
2.872509e+002, 2.478079e+003
2.877331e+002, 2.479971e+003
2.882152e+002, 2.479348e+003
2.886973e+002, 2.474843e+003
2.891794e+002, 2.467406e+003
2.896615e+002, 2.459859e+003
2.901436e+002, 2.452134e+003
2.906258e+002, 2.444795e+003
2.911079e+002, 2.438122e+003
2.915900e+002, 2.432187e+003
2.920721e+002, 2.427342e+003
2.925542e+002, 2.424156e+003
2.930363e+002, 2.421800e+003
2.935185e+002, 2.418487e+003
2.940006e+002, 2.414213e+003
2.944827e+002, 2.409946e+003
2.949648e+002, 2.406240e+003
2.954469e+002, 2.403022e+003
2.959290e+002, 2.400034e+003
2.964112e+002, 2.396952e+003
2.968933e+002, 2.394435e+003
2.973754e+002, 2.394397e+003
2.978575e+002, 2.396344e+003
2.983396e+002, 2.397323e+003
2.988217e+002, 2.394594e+003
2.993039e+002, 2.389603e+003
2.997860e+002, 2.385481e+003
3.002681e+002, 2.382911e+003
3.007502e+002, 2.380217e+003
3.012323e+002, 2.375138e+003
3.017144e+002, 2.368151e+003
3.021966e+002, 2.361250e+003
3.026787e+002, 2.355118e+003
3.031608e+002, 2.349731e+003
3.036429e+002, 2.344906e+003
3.041250e+002, 2.340657e+003
3.046071e+002, 2.337126e+003
3.050893e+002, 2.334746e+003
3.055714e+002, 2.333206e+003
3.060535e+002, 2.331946e+003
3.065356e+002, 2.330840e+003
3.070177e+002, 2.329797e+003
3.074998e+002, 2.328815e+003
3.079820e+002, 2.327891e+003
3.084641e+002, 2.326832e+003
3.089462e+002, 2.325294e+003
3.094283e+002, 2.323608e+003
3.099104e+002, 2.322234e+003
3.103925e+002, 2.321605e+003
3.108747e+002, 2.321201e+003
3.113568e+002, 2.320228e+003
3.118389e+002, 2.318917e+003
3.123210e+002, 2.318871e+003
3.128031e+002, 2.321680e+003
3.132852e+002, 2.325877e+003
3.137674e+002, 2.330133e+003
3.142495e+002, 2.334430e+003
3.147316e+002, 2.338203e+003
3.152137e+002, 2.341220e+003
3.156958e+002, 2.343455e+003
3.161779e+002, 2.344832e+003
3.166601e+002, 2.344410e+003
3.171422e+002, 2.343665e+003
3.176243e+002, 2.343538e+003
3.181064e+002, 2.344280e+003
3.185885e+002, 2.345402e+003
3.190706e+002, 2.346464e+003
3.195528e+002, 2.347784e+003
3.200349e+002, 2.349995e+003
3.205170e+002, 2.353900e+003
3.209991e+002, 2.358199e+003
3.214812e+002, 2.362679e+003
3.219633e+002, 2.367786e+003
3.224455e+002, 2.371292e+003
3.229276e+002, 2.371073e+003
3.234097e+002, 2.369592e+003
3.238918e+002, 2.369873e+003
3.243739e+002, 2.374700e+003
3.248560e+002, 2.379090e+003
3.253382e+002, 2.381361e+003
3.258203e+002, 2.381160e+003
3.263024e+002, 2.382134e+003
3.267845e+002, 2.386218e+003
3.272666e+002, 2.390708e+003
3.277487e+002, 2.393460e+003
3.282309e+002, 2.393139e+003
3.287130e+002, 2.392611e+003
3.291951e+002, 2.392357e+003
3.296772e+002, 2.392266e+003
3.301593e+002, 2.391174e+003
3.306414e+002, 2.388492e+003
3.311236e+002, 2.385358e+003
3.316057e+002, 2.382102e+003
3.320878e+002, 2.376739e+003
3.325699e+002, 2.374923e+003
3.330520e+002, 2.378501e+003
3.335341e+002, 2.385392e+003
3.340163e+002, 2.389893e+003
3.344984e+002, 2.391391e+003
3.349805e+002, 2.391399e+003
3.354626e+002, 2.389979e+003
3.359447e+002, 2.386072e+003
3.364268e+002, 2.385192e+003
3.369090e+002, 2.388687e+003
3.373911e+002, 2.393855e+003
3.378732e+002, 2.396259e+003
3.383553e+002, 2.395280e+003
3.388374e+002, 2.393728e+003
3.393195e+002, 2.392014e+003
3.398017e+002, 2.390234e+003
3.402838e+002, 2.390703e+003
3.407659e+002, 2.394052e+003
3.412480e+002, 2.398135e+003
3.417301e+002, 2.400648e+003
3.422122e+002, 2.401459e+003
3.426944e+002, 2.402475e+003
3.431765e+002, 2.404107e+003
3.436586e+002, 2.406234e+003
3.441407e+002, 2.408497e+003
3.446228e+002, 2.410890e+003
3.451049e+002, 2.413241e+003
3.455871e+002, 2.414830e+003
3.460692e+002, 2.415977e+003
3.465513e+002, 2.419032e+003
3.470334e+002, 2.424806e+003
3.475155e+002, 2.431550e+003
3.479977e+002, 2.435845e+003
3.484798e+002, 2.438042e+003
3.489619e+002, 2.440742e+003
3.494440e+002, 2.445831e+003
3.499261e+002, 2.452473e+003
3.504082e+002, 2.458769e+003
3.508904e+002, 2.464557e+003
3.513725e+002, 2.470310e+003
3.518546e+002, 2.476184e+003
3.523367e+002, 2.482419e+003
3.528188e+002, 2.489701e+003
3.533009e+002, 2.499916e+003
3.537831e+002, 2.510496e+003
3.542652e+002, 2.517827e+003
3.547473e+002, 2.522048e+003
3.552294e+002, 2.526292e+003
3.557115e+002, 2.533259e+003
3.561936e+002, 2.541490e+003
3.566758e+002, 2.548848e+003
3.571579e+002, 2.553004e+003
3.576400e+002, 2.558420e+003
3.581221e+002, 2.569659e+003
3.586042e+002, 2.585198e+003
3.590863e+002, 2.599896e+003
3.595685e+002, 2.610241e+003
3.600506e+002, 2.619352e+003
3.605327e+002, 2.629489e+003
3.610148e+002, 2.641198e+003
3.614969e+002, 2.653564e+003
3.619790e+002, 2.666309e+003
3.624612e+002, 2.679413e+003
3.629433e+002, 2.693065e+003
3.634254e+002, 2.707320e+003
3.639075e+002, 2.722094e+003
3.643896e+002, 2.737953e+003
3.648717e+002, 2.755285e+003
3.653539e+002, 2.770630e+003
3.658360e+002, 2.783651e+003
3.663181e+002, 2.794102e+003
3.668002e+002, 2.802104e+003
3.672823e+002, 2.807527e+003
3.677644e+002, 2.810593e+003
3.682466e+002, 2.812275e+003
3.687287e+002, 2.812177e+003
3.692108e+002, 2.806652e+003
3.696929e+002, 2.793119e+003
3.701750e+002, 2.776354e+003
3.706571e+002, 2.758832e+003
3.711393e+002, 2.740125e+003
3.716214e+002, 2.721260e+003
3.721035e+002, 2.702606e+003
3.725856e+002, 2.683525e+003
3.730677e+002, 2.662459e+003
3.735498e+002, 2.637304e+003
3.740320e+002, 2.613852e+003
3.745141e+002, 2.594303e+003
3.749962e+002, 2.578907e+003
3.754783e+002, 2.566243e+003
3.759604e+002, 2.557706e+003
3.764425e+002, 2.549850e+003
3.769247e+002, 2.537359e+003
3.774068e+002, 2.519010e+003
3.778889e+002, 2.504500e+003
3.783710e+002, 2.497527e+003
3.788531e+002, 2.496103e+003
3.793352e+002, 2.491258e+003
3.798174e+002, 2.482505e+003
3.802995e+002, 2.473911e+003
3.807816e+002, 2.469103e+003
3.812637e+002, 2.467637e+003
3.817458e+002, 2.466231e+003
3.822279e+002, 2.464500e+003
3.827101e+002, 2.462480e+003
3.831922e+002, 2.459946e+003
3.836743e+002, 2.456990e+003
3.841564e+002, 2.454370e+003
3.846385e+002, 2.451850e+003
3.851206e+002, 2.450067e+003
3.856028e+002, 2.450968e+003
3.860849e+002, 2.454875e+003
3.865670e+002, 2.458650e+003
3.870491e+002, 2.458941e+003
3.875312e+002, 2.457019e+003
3.880133e+002, 2.455450e+003
3.884955e+002, 2.456064e+003
3.889776e+002, 2.456670e+003
3.894597e+002, 2.454126e+003
3.899418e+002, 2.449136e+003
3.904239e+002, 2.445987e+003
3.909060e+002, 2.448472e+003
3.913882e+002, 2.453330e+003
3.918703e+002, 2.457661e+003
3.923524e+002, 2.460888e+003
3.928345e+002, 2.463565e+003
3.933166e+002, 2.465577e+003
3.937987e+002, 2.467258e+003
3.942809e+002, 2.469237e+003
3.947630e+002, 2.472056e+003
3.952451e+002, 2.474929e+003
3.957272e+002, 2.477653e+003
3.962093e+002, 2.480238e+003
3.966914e+002, 2.482274e+003
3.971736e+002, 2.483094e+003
3.976557e+002, 2.483576e+003
3.981378e+002, 2.484535e+003
3.986199e+002, 2.485919e+003
3.991020e+002, 2.487881e+003
3.995841e+002, 2.490614e+003
4.000663e+002, 2.493999e+003
4.005484e+002, 2.497298e+003
4.010305e+002, 2.500174e+003
4.015126e+002, 2.503336e+003
4.019947e+002, 2.507336e+003
4.024768e+002, 2.513144e+003
4.029590e+002, 2.517459e+003
4.034411e+002, 2.520028e+003
4.039232e+002, 2.521366e+003
4.044053e+002, 2.522005e+003
4.048874e+002, 2.521349e+003
4.053695e+002, 2.521949e+003
4.058517e+002, 2.524632e+003
4.063338e+002, 2.529350e+003
4.068159e+002, 2.535559e+003
4.072980e+002, 2.543339e+003
4.077801e+002, 2.552426e+003
4.082622e+002, 2.562802e+003
4.087444e+002, 2.574442e+003
4.092265e+002, 2.585917e+003
4.097086e+002, 2.596733e+003
4.101907e+002, 2.607534e+003
4.106728e+002, 2.620282e+003
4.111549e+002, 2.634776e+003
4.116371e+002, 2.648510e+003
4.121192e+002, 2.658147e+003
4.126013e+002, 2.666031e+003
4.130834e+002, 2.677629e+003
4.135655e+002, 2.693577e+003
4.140476e+002, 2.710871e+003
4.145298e+002, 2.727031e+003
4.150119e+002, 2.742422e+003
4.154940e+002, 2.758195e+003
4.159761e+002, 2.774763e+003
4.164582e+002, 2.791784e+003
4.169403e+002, 2.807971e+003
4.174225e+002, 2.823791e+003
4.179046e+002, 2.841850e+003
4.183867e+002, 2.865287e+003
4.188688e+002, 2.890405e+003
4.193509e+002, 2.913627e+003
4.198330e+002, 2.933738e+003
4.203152e+002, 2.953602e+003
4.207973e+002, 2.974040e+003
4.212794e+002, 2.995203e+003
4.217615e+002, 3.017492e+003
4.222436e+002, 3.043928e+003
4.227257e+002, 3.068747e+003
4.232079e+002, 3.090393e+003
4.236900e+002, 3.108590e+003
4.241721e+002, 3.124168e+003
4.246542e+002, 3.137194e+003
4.251363e+002, 3.147715e+003
4.256184e+002, 3.156058e+003
4.261006e+002, 3.163983e+003
4.265827e+002, 3.166620e+003
4.270648e+002, 3.162585e+003
4.275469e+002, 3.152970e+003
4.280290e+002, 3.141655e+003
4.285111e+002, 3.128545e+003
4.289933e+002, 3.113827e+003
4.294754e+002, 3.097320e+003
4.299575e+002, 3.078616e+003
4.304396e+002, 3.060619e+003
4.309217e+002, 3.043808e+003
4.314038e+002, 3.026479e+003
4.318860e+002, 3.006429e+003
4.323681e+002, 2.983576e+003
4.328502e+002, 2.960651e+003
4.333323e+002, 2.938702e+003
4.338144e+002, 2.917022e+003
4.342965e+002, 2.893111e+003
4.347787e+002, 2.867055e+003
4.352608e+002, 2.841505e+003
4.357429e+002, 2.818085e+003
4.362250e+002, 2.796663e+003
4.367071e+002, 2.777015e+003
4.371892e+002, 2.759272e+003
4.376714e+002, 2.742685e+003
4.381535e+002, 2.725283e+003
4.386356e+002, 2.708534e+003
4.391177e+002, 2.695862e+003
4.395998e+002, 2.691846e+003
4.400819e+002, 2.690362e+003
4.405641e+002, 2.686136e+003
4.410462e+002, 2.679359e+003
4.415283e+002, 2.672971e+003
4.420104e+002, 2.668210e+003
4.424925e+002, 2.664710e+003
4.429746e+002, 2.662246e+003
4.434568e+002, 2.660791e+003
4.439389e+002, 2.660184e+003
4.444210e+002, 2.661469e+003
4.449031e+002, 2.663446e+003
4.453852e+002, 2.663836e+003
4.458673e+002, 2.660292e+003
4.463495e+002, 2.656942e+003
4.468316e+002, 2.655383e+003
4.473137e+002, 2.656092e+003
4.477958e+002, 2.655569e+003
4.482779e+002, 2.653810e+003
4.487600e+002, 2.650908e+003
4.492422e+002, 2.646684e+003
4.497243e+002, 2.639718e+003
4.502064e+002, 2.634571e+003
4.506885e+002, 2.632280e+003
4.511706e+002, 2.631637e+003
4.516527e+002, 2.629062e+003
4.521349e+002, 2.623792e+003
4.526170e+002, 2.619190e+003
4.530991e+002, 2.617094e+003
4.535812e+002, 2.617346e+003
4.540633e+002, 2.616800e+003
4.545454e+002, 2.615345e+003
4.550276e+002, 2.613483e+003
4.555097e+002, 2.611580e+003
4.559918e+002, 2.609664e+003
4.564739e+002, 2.608047e+003
4.569560e+002, 2.606765e+003
4.574381e+002, 2.605827e+003
4.579203e+002, 2.605252e+003
4.584024e+002, 2.605037e+003
4.588845e+002, 2.605138e+003
4.593666e+002, 2.606594e+003
4.598488e+002, 2.607879e+003
4.603309e+002, 2.606680e+003
4.608130e+002, 2.602640e+003
4.612951e+002, 2.598487e+003
4.617772e+002, 2.595414e+003
4.622593e+002, 2.593606e+003
4.627415e+002, 2.593368e+003
4.632236e+002, 2.596434e+003
4.637057e+002, 2.599430e+003
4.641878e+002, 2.601112e+003
4.646699e+002, 2.601671e+003
4.651520e+002, 2.601782e+003
4.656342e+002, 2.600603e+003
4.661163e+002, 2.599878e+003
4.665984e+002, 2.600534e+003
4.670805e+002, 2.603299e+003
4.675626e+002, 2.605552e+003
4.680447e+002, 2.606521e+003
4.685269e+002, 2.607397e+003
4.690090e+002, 2.609471e+003
4.694911e+002, 2.613446e+003
4.699732e+002, 2.617313e+003
4.704553e+002, 2.620946e+003
4.709374e+002, 2.624223e+003
4.714196e+002, 2.626513e+003
4.719017e+002, 2.627417e+003
4.723838e+002, 2.628410e+003
4.728659e+002, 2.630234e+003
4.733480e+002, 2.632876e+003
4.738301e+002, 2.635833e+003
4.743123e+002, 2.639017e+003
4.747944e+002, 2.642769e+003
4.752765e+002, 2.647662e+003
4.757586e+002, 2.653549e+003
4.762407e+002, 2.659841e+003
4.767228e+002, 2.666925e+003
4.772050e+002, 2.673734e+003
4.776871e+002, 2.677811e+003
4.781692e+002, 2.679772e+003
4.786513e+002, 2.682451e+003
4.791334e+002, 2.687917e+003
4.796155e+002, 2.694921e+003
4.800977e+002, 2.702210e+003
4.805798e+002, 2.709664e+003
4.810619e+002, 2.717534e+003
4.815440e+002, 2.725994e+003
4.820261e+002, 2.734891e+003
4.825082e+002, 2.744122e+003
4.829904e+002, 2.753955e+003
4.834725e+002, 2.763806e+003
4.839546e+002, 2.773545e+003
4.844367e+002, 2.783201e+003
4.849188e+002, 2.792670e+003
4.854009e+002, 2.800801e+003
4.858831e+002, 2.809787e+003
4.863652e+002, 2.820832e+003
4.868473e+002, 2.834632e+003
4.873294e+002, 2.847374e+003
4.878115e+002, 2.858865e+003
4.882936e+002, 2.869374e+003
4.887758e+002, 2.879208e+003
4.892579e+002, 2.888170e+003
4.897400e+002, 2.897151e+003
4.902221e+002, 2.906542e+003
4.907042e+002, 2.915884e+003
4.911863e+002, 2.923949e+003
4.916685e+002, 2.930914e+003
4.921506e+002, 2.935394e+003
4.926327e+002, 2.935954e+003
4.931148e+002, 2.933246e+003
4.935969e+002, 2.930475e+003
4.940790e+002, 2.927841e+003
4.945612e+002, 2.923830e+003
4.950433e+002, 2.916266e+003
4.955254e+002, 2.906296e+003
4.960075e+002, 2.896207e+003
4.964896e+002, 2.887072e+003
4.969717e+002, 2.877536e+003
4.974539e+002, 2.866113e+003
4.979360e+002, 2.853349e+003
4.984181e+002, 2.841108e+003
4.989002e+002, 2.830004e+003
4.993823e+002, 2.819689e+003
4.998644e+002, 2.809591e+003
5.003466e+002, 2.799440e+003
5.008287e+002, 2.791134e+003
5.013108e+002, 2.786139e+003
5.017929e+002, 2.782598e+003
5.022750e+002, 2.779111e+003
5.027571e+002, 2.775008e+003
5.032393e+002, 2.771444e+003
5.037214e+002, 2.768290e+003
5.042035e+002, 2.765699e+003
5.046856e+002, 2.764002e+003
5.051677e+002, 2.763367e+003
5.056498e+002, 2.763363e+003
5.061320e+002, 2.763902e+003
5.066141e+002, 2.765005e+003
5.070962e+002, 2.766784e+003
5.075783e+002, 2.769503e+003
5.080604e+002, 2.772170e+003
5.085425e+002, 2.773643e+003
5.090247e+002, 2.774112e+003
5.095068e+002, 2.775573e+003
5.099889e+002, 2.778281e+003
5.104710e+002, 2.782070e+003
5.109531e+002, 2.786792e+003
5.114352e+002, 2.792422e+003
5.119174e+002, 2.798862e+003
5.123995e+002, 2.806772e+003
5.128816e+002, 2.814971e+003
5.133637e+002, 2.821846e+003
5.138458e+002, 2.827643e+003
5.143279e+002, 2.833971e+003
5.148101e+002, 2.841496e+003
5.152922e+002, 2.850040e+003
5.157743e+002, 2.859408e+003
5.162564e+002, 2.869457e+003
5.167385e+002, 2.880619e+003
5.172206e+002, 2.893767e+003
5.177028e+002, 2.907691e+003
5.181849e+002, 2.920966e+003
5.186670e+002, 2.932529e+003
5.191491e+002, 2.944413e+003
5.196312e+002, 2.957175e+003
5.201133e+002, 2.970523e+003
5.205955e+002, 2.983816e+003
5.210776e+002, 2.997403e+003
5.215597e+002, 3.010289e+003
5.220418e+002, 3.022309e+003
5.225239e+002, 3.033674e+003
5.230060e+002, 3.042999e+003
5.234882e+002, 3.050455e+003
5.239703e+002, 3.055777e+003
5.244524e+002, 3.058744e+003
5.249345e+002, 3.059334e+003
5.254166e+002, 3.057747e+003
5.258987e+002, 3.054505e+003
5.263809e+002, 3.048071e+003
5.268630e+002, 3.033404e+003
5.273451e+002, 3.012425e+003
5.278272e+002, 2.993513e+003
5.283093e+002, 2.982835e+003
5.287914e+002, 2.974970e+003
5.292736e+002, 2.963532e+003
5.297557e+002, 2.948552e+003
5.302378e+002, 2.934349e+003
5.307199e+002, 2.923087e+003
5.312020e+002, 2.913585e+003
5.316841e+002, 2.905110e+003
5.321663e+002, 2.897738e+003
5.326484e+002, 2.890651e+003
5.331305e+002, 2.882663e+003
5.336126e+002, 2.875056e+003
5.340947e+002, 2.869546e+003
5.345768e+002, 2.867496e+003
5.350590e+002, 2.866183e+003
5.355411e+002, 2.865090e+003
5.360232e+002, 2.864422e+003
5.365053e+002, 2.865472e+003
5.369874e+002, 2.868815e+003
5.374695e+002, 2.872684e+003
5.379517e+002, 2.875738e+003
5.384338e+002, 2.877862e+003
5.389159e+002, 2.882806e+003
5.393980e+002, 2.890939e+003
5.398801e+002, 2.900335e+003
5.403622e+002, 2.908409e+003
5.408444e+002, 2.915604e+003
5.413265e+002, 2.924280e+003
5.418086e+002, 2.934884e+003
5.422907e+002, 2.947454e+003
5.427728e+002, 2.961678e+003
5.432549e+002, 2.977924e+003
5.437371e+002, 2.996904e+003
5.442192e+002, 3.019723e+003
5.447013e+002, 3.044850e+003
5.451834e+002, 3.071508e+003
5.456655e+002, 3.099851e+003
5.461476e+002, 3.129375e+003
5.466298e+002, 3.159995e+003
5.471119e+002, 3.191734e+003
5.475940e+002, 3.225052e+003
5.480761e+002, 3.262668e+003
5.485582e+002, 3.296584e+003
5.490403e+002, 3.325611e+003
5.495225e+002, 3.351340e+003
5.500046e+002, 3.376155e+003
5.504867e+002, 3.405652e+003
5.509688e+002, 3.422896e+003
5.514509e+002, 3.424763e+003
5.519330e+002, 3.412304e+003
5.524152e+002, 3.388663e+003
5.528973e+002, 3.353077e+003
5.533794e+002, 3.310253e+003
5.538615e+002, 3.259336e+003
5.543436e+002, 3.202300e+003
5.548257e+002, 3.148990e+003
5.553079e+002, 3.099784e+003
5.557900e+002, 3.055078e+003
5.562721e+002, 3.016634e+003
5.567542e+002, 2.983254e+003
5.572363e+002, 2.952935e+003
5.577184e+002, 2.924921e+003
5.582006e+002, 2.900953e+003
5.586827e+002, 2.883770e+003
5.591648e+002, 2.871435e+003
5.596469e+002, 2.860281e+003
5.601290e+002, 2.849958e+003
5.606111e+002, 2.839763e+003
5.610933e+002, 2.828516e+003
5.615754e+002, 2.816738e+003
5.620575e+002, 2.808128e+003
5.625396e+002, 2.806188e+003
5.630217e+002, 2.804765e+003
5.635038e+002, 2.801072e+003
5.639860e+002, 2.793965e+003
5.644681e+002, 2.790189e+003
5.649502e+002, 2.791248e+003
5.654323e+002, 2.793288e+003
5.659144e+002, 2.792112e+003
5.663965e+002, 2.787322e+003
5.668787e+002, 2.784293e+003
5.673608e+002, 2.784256e+003
5.678429e+002, 2.785392e+003
5.683250e+002, 2.783985e+003
5.688071e+002, 2.780634e+003
5.692892e+002, 2.778674e+003
5.697714e+002, 2.781049e+003
5.702535e+002, 2.784695e+003
5.707356e+002, 2.784726e+003
5.712177e+002, 2.781808e+003
5.716998e+002, 2.779864e+003
5.721819e+002, 2.781611e+003
5.726641e+002, 2.784906e+003
5.731462e+002, 2.788604e+003
5.736283e+002, 2.792972e+003
5.741104e+002, 2.795445e+003
5.745925e+002, 2.792738e+003
5.750746e+002, 2.789095e+003
5.755568e+002, 2.788377e+003
5.760389e+002, 2.793281e+003
5.765210e+002, 2.797855e+003
5.770031e+002, 2.802235e+003
5.774852e+002, 2.806039e+003
5.779673e+002, 2.808169e+003
5.784495e+002, 2.807868e+003
5.789316e+002, 2.808519e+003
5.794137e+002, 2.811473e+003
5.798958e+002, 2.816161e+003
5.803779e+002, 2.820921e+003
5.808600e+002, 2.825832e+003
5.813422e+002, 2.828833e+003
5.818243e+002, 2.825886e+003
5.823064e+002, 2.820411e+003
5.827885e+002, 2.821255e+003
5.832706e+002, 2.829408e+003
5.837527e+002, 2.838314e+003
5.842349e+002, 2.844198e+003
5.847170e+002, 2.847145e+003
5.851991e+002, 2.847004e+003
5.856812e+002, 2.842143e+003
5.861633e+002, 2.836871e+003
5.866454e+002, 2.832584e+003
5.871276e+002, 2.829121e+003
5.876097e+002, 2.826272e+003
5.880918e+002, 2.823650e+003
5.885739e+002, 2.821989e+003
5.890560e+002, 2.821760e+003
5.895381e+002, 2.822742e+003
5.900203e+002, 2.823231e+003
5.905024e+002, 2.822813e+003
5.909845e+002, 2.822799e+003
5.914666e+002, 2.824131e+003
5.919487e+002, 2.826870e+003
5.924308e+002, 2.828661e+003
5.929130e+002, 2.829448e+003
5.933951e+002, 2.829826e+003
5.938772e+002, 2.829652e+003
5.943593e+002, 2.829491e+003
5.948414e+002, 2.831292e+003
5.953235e+002, 2.835607e+003
5.958057e+002, 2.841229e+003
5.962878e+002, 2.847753e+003
5.967699e+002, 2.854617e+003
5.972520e+002, 2.860672e+003
5.977341e+002, 2.864391e+003
5.982162e+002, 2.868256e+003
5.986984e+002, 2.873455e+003
5.991805e+002, 2.879719e+003
5.996626e+002, 2.886409e+003
6.001447e+002, 2.895190e+003
6.006268e+002, 2.902560e+003
6.011089e+002, 2.906716e+003
6.015911e+002, 2.907344e+003
6.020732e+002, 2.909108e+003
6.025553e+002, 2.913126e+003
6.030374e+002, 2.916484e+003
6.035195e+002, 2.916827e+003
6.040016e+002, 2.913944e+003
6.044838e+002, 2.911253e+003
6.049659e+002, 2.909258e+003
6.054480e+002, 2.906556e+003
6.059301e+002, 2.900622e+003
6.064122e+002, 2.892259e+003
6.068943e+002, 2.884644e+003
6.073765e+002, 2.878844e+003
6.078586e+002, 2.873820e+003
6.083407e+002, 2.867808e+003
6.088228e+002, 2.861669e+003
6.093049e+002, 2.857686e+003
6.097870e+002, 2.858069e+003
6.102692e+002, 2.859762e+003
6.107513e+002, 2.861585e+003
6.112334e+002, 2.863410e+003
6.117155e+002, 2.864578e+003
6.121976e+002, 2.863959e+003
6.126797e+002, 2.863577e+003
6.131619e+002, 2.864359e+003
6.136440e+002, 2.866533e+003
6.141261e+002, 2.869100e+003
6.146082e+002, 2.872698e+003
6.150903e+002, 2.875766e+003
6.155724e+002, 2.875737e+003
6.160546e+002, 2.872346e+003
6.165367e+002, 2.873835e+003
6.170188e+002, 2.882271e+003
6.175009e+002, 2.892910e+003
6.179830e+002, 2.899156e+003
6.184651e+002, 2.901783e+003
6.189473e+002, 2.903267e+003
6.194294e+002, 2.902958e+003
6.199115e+002, 2.903637e+003
6.203936e+002, 2.908871e+003
6.208757e+002, 2.917443e+003
6.213578e+002, 2.925776e+003
6.218400e+002, 2.932534e+003
6.223221e+002, 2.938449e+003
6.228042e+002, 2.943839e+003
6.232863e+002, 2.948759e+003
6.237684e+002, 2.952854e+003
6.242505e+002, 2.955058e+003
6.247327e+002, 2.957478e+003
6.252148e+002, 2.961341e+003
6.256969e+002, 2.967320e+003
6.261790e+002, 2.972316e+003
6.266611e+002, 2.976699e+003
6.271432e+002, 2.979275e+003
6.276254e+002, 2.979194e+003
6.281075e+002, 2.976384e+003
6.285896e+002, 2.969039e+003
6.290717e+002, 2.956036e+003
6.295538e+002, 2.940957e+003
6.300359e+002, 2.928138e+003
6.305181e+002, 2.917128e+003
6.310002e+002, 2.906469e+003
6.314823e+002, 2.894460e+003
6.319644e+002, 2.883694e+003
6.324465e+002, 2.876543e+003
6.329286e+002, 2.872186e+003
6.334108e+002, 2.868201e+003
6.338929e+002, 2.864113e+003
6.343750e+002, 2.859848e+003
6.348571e+002, 2.855120e+003
6.353392e+002, 2.849867e+003
6.358214e+002, 2.845416e+003
6.363035e+002, 2.841697e+003
6.367856e+002, 2.838892e+003
6.372677e+002, 2.837102e+003
6.377498e+002, 2.836359e+003
6.382319e+002, 2.837448e+003
6.387141e+002, 2.841191e+003
6.391962e+002, 2.843796e+003
6.396783e+002, 2.839274e+003
6.401604e+002, 2.829898e+003
6.406425e+002, 2.824870e+003
6.411246e+002, 2.826590e+003
6.416068e+002, 2.830484e+003
6.420889e+002, 2.832955e+003
6.425710e+002, 2.834129e+003
6.430531e+002, 2.834172e+003
6.435352e+002, 2.830702e+003
6.440173e+002, 2.828628e+003
6.444995e+002, 2.830874e+003
6.449816e+002, 2.836106e+003
6.454637e+002, 2.840577e+003
6.459458e+002, 2.844189e+003
6.464279e+002, 2.846229e+003
6.469100e+002, 2.845991e+003
6.473922e+002, 2.843679e+003
6.478743e+002, 2.841953e+003
6.483564e+002, 2.840641e+003
6.488385e+002, 2.840345e+003
6.493206e+002, 2.842158e+003
6.498027e+002, 2.845682e+003
6.502849e+002, 2.846673e+003
6.507670e+002, 2.844955e+003
6.512491e+002, 2.843404e+003
6.517312e+002, 2.845421e+003
6.522133e+002, 2.849085e+003
6.526954e+002, 2.851330e+003
6.531776e+002, 2.851463e+003
6.536597e+002, 2.850726e+003
6.541418e+002, 2.849166e+003
6.546239e+002, 2.847461e+003
6.551060e+002, 2.846392e+003
6.555881e+002, 2.846722e+003
6.560703e+002, 2.847010e+003
6.565524e+002, 2.846731e+003
6.570345e+002, 2.846385e+003
6.575166e+002, 2.846925e+003
6.579987e+002, 2.848706e+003
6.584808e+002, 2.850548e+003
6.589630e+002, 2.852516e+003
6.594451e+002, 2.854199e+003
6.599272e+002, 2.853821e+003
6.604093e+002, 2.851379e+003
6.608914e+002, 2.849043e+003
6.613735e+002, 2.847562e+003
6.618557e+002, 2.847141e+003
6.623378e+002, 2.849245e+003
6.628199e+002, 2.853453e+003
6.633020e+002, 2.855918e+003
6.637841e+002, 2.852282e+003
6.642662e+002, 2.847229e+003
6.647484e+002, 2.844193e+003
6.652305e+002, 2.843649e+003
6.657126e+002, 2.844967e+003
6.661947e+002, 2.849296e+003
6.666768e+002, 2.854562e+003
6.671589e+002, 2.859524e+003
6.676411e+002, 2.865733e+003
6.681232e+002, 2.867691e+003
6.686053e+002, 2.863371e+003
6.690874e+002, 2.857489e+003
6.695695e+002, 2.856502e+003
6.700516e+002, 2.860323e+003
6.705338e+002, 2.863541e+003
6.710159e+002, 2.865142e+003
6.714980e+002, 2.865555e+003
6.719801e+002, 2.865085e+003
6.724622e+002, 2.863923e+003
6.729443e+002, 2.862598e+003
6.734265e+002, 2.860453e+003
6.739086e+002, 2.859098e+003
6.743907e+002, 2.860454e+003
6.748728e+002, 2.863618e+003
6.753549e+002, 2.865755e+003
6.758370e+002, 2.864708e+003
6.763192e+002, 2.863894e+003
6.768013e+002, 2.864714e+003
6.772834e+002, 2.867034e+003
6.777655e+002, 2.869132e+003
6.782476e+002, 2.871202e+003
6.787297e+002, 2.872616e+003
6.792119e+002, 2.872459e+003
6.796940e+002, 2.870895e+003
6.801761e+002, 2.872150e+003
6.806582e+002, 2.876526e+003
6.811403e+002, 2.880230e+003
6.816224e+002, 2.878274e+003
6.821046e+002, 2.873807e+003
6.825867e+002, 2.873764e+003
6.830688e+002, 2.879620e+003
6.835509e+002, 2.884310e+003
6.840330e+002, 2.880453e+003
6.845151e+002, 2.874247e+003
6.849973e+002, 2.872254e+003
6.854794e+002, 2.879915e+003
6.859615e+002, 2.884969e+003
6.864436e+002, 2.882659e+003
6.869257e+002, 2.878161e+003
6.874078e+002, 2.877727e+003
6.878900e+002, 2.883286e+003
6.883721e+002, 2.887894e+003
6.888542e+002, 2.890598e+003
6.893363e+002, 2.891800e+003
6.898184e+002, 2.891549e+003
6.903005e+002, 2.890035e+003
6.907827e+002, 2.889587e+003
6.912648e+002, 2.891708e+003
6.917469e+002, 2.894747e+003
6.922290e+002, 2.896728e+003
6.927111e+002, 2.897662e+003
6.931932e+002, 2.897497e+003
6.936754e+002, 2.894118e+003
6.941575e+002, 2.891450e+003
6.946396e+002, 2.891895e+003
6.951217e+002, 2.895317e+003
6.956038e+002, 2.899356e+003
6.960859e+002, 2.906172e+003
6.965681e+002, 2.910661e+003
6.970502e+002, 2.909794e+003
6.975323e+002, 2.903205e+003
6.980144e+002, 2.901266e+003
6.984965e+002, 2.905173e+003
6.989786e+002, 2.909518e+003
6.994608e+002, 2.909992e+003
6.999429e+002, 2.907428e+003
7.004250e+002, 2.905120e+003
7.009071e+002, 2.903202e+003
7.013892e+002, 2.902656e+003
7.018713e+002, 2.906481e+003
7.023535e+002, 2.911270e+003
7.028356e+002, 2.912079e+003
7.033177e+002, 2.906162e+003
7.037998e+002, 2.901987e+003
7.042819e+002, 2.904156e+003
7.047640e+002, 2.909036e+003
7.052462e+002, 2.912794e+003
7.057283e+002, 2.915153e+003
7.062104e+002, 2.916212e+003
7.066925e+002, 2.915184e+003
7.071746e+002, 2.913576e+003
7.076567e+002, 2.914228e+003
7.081389e+002, 2.917344e+003
7.086210e+002, 2.919044e+003
7.091031e+002, 2.917896e+003
7.095852e+002, 2.915908e+003
7.100673e+002, 2.916907e+003
7.105494e+002, 2.919931e+003
7.110316e+002, 2.922083e+003
7.115137e+002, 2.921545e+003
7.119958e+002, 2.920129e+003
7.124779e+002, 2.918195e+003
7.129600e+002, 2.916255e+003
7.134421e+002, 2.915878e+003
7.139243e+002, 2.919534e+003
7.144064e+002, 2.922599e+003
7.148885e+002, 2.923129e+003
7.153706e+002, 2.921609e+003
7.158527e+002, 2.921979e+003
7.163348e+002, 2.924634e+003
7.168170e+002, 2.927984e+003
7.172991e+002, 2.931881e+003
7.177812e+002, 2.935881e+003
7.182633e+002, 2.937100e+003
7.187454e+002, 2.935596e+003
7.192275e+002, 2.933727e+003
7.197097e+002, 2.932856e+003
7.201918e+002, 2.932716e+003
7.206739e+002, 2.933150e+003
7.211560e+002, 2.934148e+003
7.216381e+002, 2.935115e+003
7.221202e+002, 2.936337e+003
7.226024e+002, 2.937035e+003
7.230845e+002, 2.936324e+003
7.235666e+002, 2.933020e+003
7.240487e+002, 2.932125e+003
7.245308e+002, 2.934881e+003
7.250129e+002, 2.938425e+003
7.254951e+002, 2.940251e+003
7.259772e+002, 2.940258e+003
7.264593e+002, 2.940841e+003
7.269414e+002, 2.942269e+003
7.274235e+002, 2.943791e+003
7.279056e+002, 2.944405e+003
7.283878e+002, 2.944458e+003
7.288699e+002, 2.944504e+003
7.293520e+002, 2.944235e+003
7.298341e+002, 2.945204e+003
7.303162e+002, 2.950552e+003
7.307983e+002, 2.956954e+003
7.312805e+002, 2.960304e+003
7.317626e+002, 2.956312e+003
7.322447e+002, 2.953548e+003
7.327268e+002, 2.953093e+003
7.332089e+002, 2.954155e+003
7.336910e+002, 2.955744e+003
7.341732e+002, 2.958241e+003
7.346553e+002, 2.959454e+003
7.351374e+002, 2.958354e+003
7.356195e+002, 2.956633e+003
7.361016e+002, 2.957914e+003
7.365837e+002, 2.961594e+003
7.370659e+002, 2.965098e+003
7.375480e+002, 2.967476e+003
7.380301e+002, 2.969063e+003
7.385122e+002, 2.970159e+003
7.389943e+002, 2.970670e+003
7.394764e+002, 2.970369e+003
7.399586e+002, 2.968074e+003
7.404407e+002, 2.966070e+003
7.409228e+002, 2.964901e+003
7.414049e+002, 2.964590e+003
7.418870e+002, 2.965489e+003
7.423691e+002, 2.967868e+003
7.428513e+002, 2.970813e+003
7.433334e+002, 2.974700e+003
7.438155e+002, 2.978782e+003
7.442976e+002, 2.979125e+003
7.447797e+002, 2.975953e+003
7.452618e+002, 2.972967e+003
7.457440e+002, 2.973094e+003
7.462261e+002, 2.974287e+003
7.467082e+002, 2.973418e+003
7.471903e+002, 2.970821e+003
7.476724e+002, 2.970144e+003
7.481545e+002, 2.975208e+003
7.486367e+002, 2.980728e+003
7.491188e+002, 2.983937e+003
7.496009e+002, 2.984529e+003
7.500830e+002, 2.984447e+003
7.505651e+002, 2.983659e+003
7.510472e+002, 2.982194e+003
7.515294e+002, 2.979151e+003
7.520115e+002, 2.974647e+003
7.524936e+002, 2.974812e+003
7.529757e+002, 2.979922e+003
7.534578e+002, 2.985009e+003
7.539399e+002, 2.985174e+003
7.544221e+002, 2.982824e+003
7.549042e+002, 2.981282e+003
7.553863e+002, 2.980941e+003
7.558684e+002, 2.981338e+003
7.563505e+002, 2.983156e+003
7.568326e+002, 2.985042e+003
7.573148e+002, 2.985815e+003
7.577969e+002, 2.984622e+003
7.582790e+002, 2.984363e+003
7.587611e+002, 2.985271e+003
7.592432e+002, 2.986806e+003
7.597253e+002, 2.988702e+003
7.602075e+002, 2.990978e+003
7.606896e+002, 2.992595e+003
7.611717e+002, 2.993423e+003
7.616538e+002, 2.993785e+003
7.621359e+002, 2.993209e+003
7.626180e+002, 2.992617e+003
7.631002e+002, 2.994056e+003
7.635823e+002, 2.998652e+003
7.640644e+002, 3.002804e+003
7.645465e+002, 3.005160e+003
7.650286e+002, 3.005837e+003
7.655107e+002, 3.004933e+003
7.659929e+002, 3.000012e+003
7.664750e+002, 2.997423e+003
7.669571e+002, 2.998227e+003
7.674392e+002, 3.000341e+003
7.679213e+002, 3.000864e+003
7.684034e+002, 2.999703e+003
7.688856e+002, 2.999741e+003
7.693677e+002, 3.001524e+003
7.698498e+002, 3.004288e+003
7.703319e+002, 3.007717e+003
7.708140e+002, 3.011286e+003
7.712961e+002, 3.013847e+003
7.717783e+002, 3.014387e+003
7.722604e+002, 3.014981e+003
7.727425e+002, 3.017355e+003
7.732246e+002, 3.020253e+003
7.737067e+002, 3.021772e+003
7.741888e+002, 3.020348e+003
7.746710e+002, 3.019614e+003
7.751531e+002, 3.020202e+003
7.756352e+002, 3.021393e+003
7.761173e+002, 3.021601e+003
7.765994e+002, 3.020786e+003
7.770815e+002, 3.021336e+003
7.775637e+002, 3.024528e+003
7.780458e+002, 3.027891e+003
7.785279e+002, 3.026392e+003
7.790100e+002, 3.022375e+003
7.794921e+002, 3.021211e+003
7.799742e+002, 3.028820e+003
7.804564e+002, 3.035364e+003
7.809385e+002, 3.035076e+003
7.814206e+002, 3.030813e+003
7.819027e+002, 3.028764e+003
7.823848e+002, 3.030483e+003
7.828669e+002, 3.032553e+003
7.833491e+002, 3.034918e+003
7.838312e+002, 3.036999e+003
7.843133e+002, 3.037035e+003
7.847954e+002, 3.035102e+003
7.852775e+002, 3.033317e+003
7.857596e+002, 3.032581e+003
7.862418e+002, 3.032166e+003
7.867239e+002, 3.030269e+003
7.872060e+002, 3.027898e+003
7.876881e+002, 3.027459e+003
7.881702e+002, 3.032386e+003
7.886523e+002, 3.036917e+003
7.891345e+002, 3.037900e+003
7.896166e+002, 3.036678e+003
7.900987e+002, 3.037518e+003
7.905808e+002, 3.041854e+003
7.910629e+002, 3.045448e+003
7.915450e+002, 3.047289e+003
7.920272e+002, 3.047737e+003
7.925093e+002, 3.047387e+003
7.929914e+002, 3.046325e+003
7.934735e+002, 3.045698e+003
7.939556e+002, 3.045845e+003
7.944377e+002, 3.046799e+003
7.949199e+002, 3.049712e+003
7.954020e+002, 3.053531e+003
7.958841e+002, 3.055360e+003
7.963662e+002, 3.051603e+003
7.968483e+002, 3.048363e+003
7.973304e+002, 3.048490e+003
7.978126e+002, 3.050801e+003
7.982947e+002, 3.051334e+003
7.987768e+002, 3.048953e+003
7.992589e+002, 3.048190e+003
7.997410e+002, 3.051024e+003
8.002231e+002, 3.055731e+003
8.007053e+002, 3.058092e+003
8.011874e+002, 3.058286e+003
8.016695e+002, 3.057275e+003
8.021516e+002, 3.054316e+003
8.026337e+002, 3.051438e+003
8.031158e+002, 3.050417e+003
8.035980e+002, 3.050933e+003
8.040801e+002, 3.052077e+003
8.045622e+002, 3.053385e+003
8.050443e+002, 3.055562e+003
8.055264e+002, 3.059475e+003
8.060085e+002, 3.064234e+003
8.064907e+002, 3.066892e+003
8.069728e+002, 3.067153e+003
8.074549e+002, 3.066648e+003
8.079370e+002, 3.065576e+003
8.084191e+002, 3.064422e+003
8.089012e+002, 3.064337e+003
8.093834e+002, 3.065085e+003
8.098655e+002, 3.065830e+003
8.103476e+002, 3.065656e+003
8.108297e+002, 3.065850e+003
8.113118e+002, 3.067807e+003
8.117939e+002, 3.070821e+003
8.122761e+002, 3.072727e+003
8.127582e+002, 3.072444e+003
8.132403e+002, 3.072092e+003
8.137224e+002, 3.071744e+003
8.142045e+002, 3.071770e+003
8.146866e+002, 3.073778e+003
8.151688e+002, 3.077772e+003
8.156509e+002, 3.080917e+003
8.161330e+002, 3.082215e+003
8.166151e+002, 3.082035e+003
8.170972e+002, 3.079022e+003
8.175793e+002, 3.074910e+003
8.180615e+002, 3.074119e+003
8.185436e+002, 3.082932e+003
8.190257e+002, 3.090733e+003
8.195078e+002, 3.091952e+003
8.199899e+002, 3.089038e+003
8.204720e+002, 3.089121e+003
8.209542e+002, 3.093823e+003
8.214363e+002, 3.097551e+003
8.219184e+002, 3.099004e+003
8.224005e+002, 3.098897e+003
8.228826e+002, 3.098381e+003
8.233647e+002, 3.097638e+003
8.238469e+002, 3.097827e+003
8.243290e+002, 3.100418e+003
8.248111e+002, 3.102659e+003
8.252932e+002, 3.100583e+003
8.257753e+002, 3.096556e+003
8.262574e+002, 3.095276e+003
8.267396e+002, 3.100585e+003
8.272217e+002, 3.105724e+003
8.277038e+002, 3.110258e+003
8.281859e+002, 3.113621e+003
8.286681e+002, 3.114248e+003
8.291502e+002, 3.111581e+003
8.296323e+002, 3.110194e+003
8.301144e+002, 3.111420e+003
8.305966e+002, 3.113702e+003
8.310787e+002, 3.114156e+003
8.315608e+002, 3.113806e+003
8.320429e+002, 3.115314e+003
8.325250e+002, 3.121119e+003
8.330071e+002, 3.126457e+003
8.334893e+002, 3.129082e+003
8.339714e+002, 3.129689e+003
8.344535e+002, 3.129299e+003
8.349356e+002, 3.127210e+003
8.354177e+002, 3.125615e+003
8.358998e+002, 3.124226e+003
8.363820e+002, 3.124055e+003
8.368641e+002, 3.127949e+003
8.373462e+002, 3.135179e+003
8.378283e+002, 3.138983e+003
8.383104e+002, 3.137005e+003
8.387925e+002, 3.134627e+003
8.392747e+002, 3.138841e+003
8.397568e+002, 3.145321e+003
8.402389e+002, 3.147851e+003
8.407210e+002, 3.141463e+003
8.412031e+002, 3.137239e+003
8.416852e+002, 3.139143e+003
8.421674e+002, 3.142914e+003
8.426495e+002, 3.144451e+003
8.431316e+002, 3.143151e+003
8.436137e+002, 3.143703e+003
8.440958e+002, 3.146949e+003
8.445779e+002, 3.150288e+003
8.450601e+002, 3.149854e+003
8.455422e+002, 3.147470e+003
8.460243e+002, 3.146825e+003
8.465064e+002, 3.148581e+003
8.469885e+002, 3.151978e+003
8.474706e+002, 3.159155e+003
8.479528e+002, 3.166123e+003
8.484349e+002, 3.168755e+003
8.489170e+002, 3.163961e+003
8.493991e+002, 3.163782e+003
8.498812e+002, 3.170498e+003
8.503633e+002, 3.177176e+003
8.508455e+002, 3.176837e+003
8.513276e+002, 3.170761e+003
8.518097e+002, 3.167942e+003
8.522918e+002, 3.168861e+003
8.527739e+002, 3.171044e+003
8.532560e+002, 3.173520e+003
8.537382e+002, 3.175716e+003
8.542203e+002, 3.177042e+003
8.547024e+002, 3.177409e+003
8.551845e+002, 3.177677e+003
8.556666e+002, 3.177701e+003
8.561487e+002, 3.178100e+003
8.566309e+002, 3.179424e+003
8.571130e+002, 3.181641e+003
8.575951e+002, 3.182565e+003
8.580772e+002, 3.182054e+003
8.585593e+002, 3.181974e+003
8.590414e+002, 3.184562e+003
8.595236e+002, 3.187867e+003
8.600057e+002, 3.188066e+003
8.604878e+002, 3.185636e+003
8.609699e+002, 3.184469e+003
8.614520e+002, 3.188618e+003
8.619341e+002, 3.192200e+003
8.624163e+002, 3.191353e+003
8.628984e+002, 3.186998e+003
8.633805e+002, 3.186032e+003
8.638626e+002, 3.189844e+003
8.643447e+002, 3.192256e+003
8.648268e+002, 3.190185e+003
8.653090e+002, 3.185618e+003
8.657911e+002, 3.183054e+003
8.662732e+002, 3.182308e+003
8.667553e+002, 3.182771e+003
8.672374e+002, 3.185174e+003
8.677195e+002, 3.187608e+003
8.682017e+002, 3.189401e+003
8.686838e+002, 3.190292e+003
8.691659e+002, 3.189350e+003
8.696480e+002, 3.185187e+003
8.701301e+002, 3.181774e+003
8.706122e+002, 3.180125e+003
8.710944e+002, 3.179354e+003
8.715765e+002, 3.177584e+003
8.720586e+002, 3.174952e+003
8.725407e+002, 3.172318e+003
8.730228e+002, 3.170090e+003
8.735049e+002, 3.167814e+003
8.739871e+002, 3.164089e+003
8.744692e+002, 3.160385e+003
8.749513e+002, 3.158880e+003
8.754334e+002, 3.163812e+003
8.759155e+002, 3.165987e+003
8.763976e+002, 3.163652e+003
8.768798e+002, 3.159377e+003
8.773619e+002, 3.155587e+003
8.778440e+002, 3.152204e+003
8.783261e+002, 3.151176e+003
8.788082e+002, 3.153083e+003
8.792903e+002, 3.155221e+003
8.797725e+002, 3.153575e+003
8.802546e+002, 3.150680e+003
8.807367e+002, 3.150638e+003
8.812188e+002, 3.154856e+003
8.817009e+002, 3.158332e+003
8.821830e+002, 3.158887e+003
8.826652e+002, 3.158311e+003
8.831473e+002, 3.157588e+003
8.836294e+002, 3.156452e+003
8.841115e+002, 3.157444e+003
8.845936e+002, 3.161182e+003
8.850757e+002, 3.164159e+003
8.855579e+002, 3.162724e+003
8.860400e+002, 3.158989e+003
8.865221e+002, 3.157044e+003
8.870042e+002, 3.157060e+003
8.874863e+002, 3.157935e+003
8.879684e+002, 3.160157e+003
8.884506e+002, 3.162188e+003
8.889327e+002, 3.162810e+003
8.894148e+002, 3.162177e+003
8.898969e+002, 3.162724e+003
8.903790e+002, 3.164752e+003
8.908611e+002, 3.166986e+003
8.913433e+002, 3.168864e+003
8.918254e+002, 3.170548e+003
8.923075e+002, 3.172459e+003
8.927896e+002, 3.174585e+003
8.932717e+002, 3.176937e+003
8.937538e+002, 3.180548e+003
8.942360e+002, 3.183331e+003
8.947181e+002, 3.183117e+003
8.952002e+002, 3.181108e+003
8.956823e+002, 3.180560e+003
8.961644e+002, 3.182479e+003
8.966465e+002, 3.183996e+003
8.971287e+002, 3.184363e+003
8.976108e+002, 3.184535e+003
8.980929e+002, 3.186591e+003
8.985750e+002, 3.190119e+003
8.990571e+002, 3.193089e+003
8.995392e+002, 3.194962e+003
9.000214e+002, 3.196378e+003
9.005035e+002, 3.197516e+003
9.009856e+002, 3.198698e+003
9.014677e+002, 3.200396e+003
9.019498e+002, 3.204011e+003
9.024319e+002, 3.205550e+003
9.029141e+002, 3.203992e+003
9.033962e+002, 3.201858e+003
9.038783e+002, 3.201387e+003
9.043604e+002, 3.202463e+003
9.048425e+002, 3.204102e+003
9.053246e+002, 3.206281e+003
9.058068e+002, 3.208322e+003
9.062889e+002, 3.209407e+003
9.067710e+002, 3.210276e+003
9.072531e+002, 3.212034e+003
9.077352e+002, 3.214910e+003
9.082173e+002, 3.215964e+003
9.086995e+002, 3.213078e+003
9.091816e+002, 3.210718e+003
9.096637e+002, 3.210844e+003
9.101458e+002, 3.213180e+003
9.106279e+002, 3.216690e+003
9.111100e+002, 3.221251e+003
9.115922e+002, 3.224147e+003
9.120743e+002, 3.221180e+003
9.125564e+002, 3.217934e+003
9.130385e+002, 3.222127e+003
9.135206e+002, 3.230969e+003
9.140027e+002, 3.235959e+003
9.144849e+002, 3.230513e+003
9.149670e+002, 3.226227e+003
9.154491e+002, 3.224751e+003
9.159312e+002, 3.225951e+003
9.164133e+002, 3.230843e+003
9.168954e+002, 3.239312e+003
9.173776e+002, 3.244616e+003
9.178597e+002, 3.244415e+003
9.183418e+002, 3.242827e+003
9.188239e+002, 3.244604e+003
9.193060e+002, 3.247790e+003
9.197881e+002, 3.249378e+003
9.202703e+002, 3.246527e+003
9.207524e+002, 3.246542e+003
9.212345e+002, 3.252004e+003
9.217166e+002, 3.258919e+003
9.221987e+002, 3.264030e+003
9.226808e+002, 3.267252e+003
9.231630e+002, 3.271116e+003
9.236451e+002, 3.275825e+003
9.241272e+002, 3.279842e+003
9.246093e+002, 3.281919e+003
9.250914e+002, 3.282546e+003
9.255735e+002, 3.281199e+003
9.260557e+002, 3.278000e+003
9.265378e+002, 3.277441e+003
9.270199e+002, 3.284065e+003
9.275020e+002, 3.289874e+003
9.279841e+002, 3.291120e+003
9.284662e+002, 3.289120e+003
9.289484e+002, 3.292792e+003
9.294305e+002, 3.302076e+003
9.299126e+002, 3.310307e+003
9.303947e+002, 3.313534e+003
9.308768e+002, 3.314958e+003
9.313589e+002, 3.318674e+003
9.318411e+002, 3.323434e+003
9.323232e+002, 3.326384e+003
9.328053e+002, 3.323198e+003
9.332874e+002, 3.322862e+003
9.337695e+002, 3.327606e+003
9.342516e+002, 3.334996e+003
9.347338e+002, 3.341157e+003
9.352159e+002, 3.346157e+003
9.356980e+002, 3.352720e+003
9.361801e+002, 3.361453e+003
9.366622e+002, 3.370847e+003
9.371443e+002, 3.379677e+003
9.376265e+002, 3.388108e+003
9.381086e+002, 3.395733e+003
9.385907e+002, 3.401767e+003
9.390728e+002, 3.410412e+003
9.395549e+002, 3.423838e+003
9.400370e+002, 3.437858e+003
9.405192e+002, 3.449281e+003
9.410013e+002, 3.458395e+003
9.414834e+002, 3.471632e+003
9.419655e+002, 3.489037e+003
9.424476e+002, 3.508097e+003
9.429297e+002, 3.527320e+003
9.434119e+002, 3.547301e+003
9.438940e+002, 3.569129e+003
9.443761e+002, 3.592372e+003
9.448582e+002, 3.614976e+003
9.453403e+002, 3.632185e+003
9.458224e+002, 3.654894e+003
9.463046e+002, 3.686434e+003
9.467867e+002, 3.723847e+003
9.472688e+002, 3.760120e+003
9.477509e+002, 3.795529e+003
9.482330e+002, 3.830401e+003
9.487151e+002, 3.863435e+003
9.491973e+002, 3.899870e+003
9.496794e+002, 3.947021e+003
9.501615e+002, 3.999216e+003
9.506436e+002, 4.049635e+003
9.511257e+002, 4.094137e+003
9.516078e+002, 4.141487e+003
9.520900e+002, 4.191501e+003
9.525721e+002, 4.244880e+003
9.530542e+002, 4.302854e+003
9.535363e+002, 4.364921e+003
9.540184e+002, 4.428955e+003
9.545005e+002, 4.494256e+003
9.549827e+002, 4.558740e+003
9.554648e+002, 4.622286e+003
9.559469e+002, 4.683063e+003
9.564290e+002, 4.739982e+003
9.569111e+002, 4.792906e+003
9.573932e+002, 4.841845e+003
9.578754e+002, 4.890120e+003
9.583575e+002, 4.927979e+003
9.588396e+002, 4.952380e+003
9.593217e+002, 4.963917e+003
9.598038e+002, 4.961922e+003
9.602859e+002, 4.947698e+003
9.607681e+002, 4.926036e+003
9.612502e+002, 4.900817e+003
9.617323e+002, 4.864788e+003
9.622144e+002, 4.811881e+003
9.626965e+002, 4.746673e+003
9.631786e+002, 4.674475e+003
9.636608e+002, 4.594100e+003
9.641429e+002, 4.512970e+003
9.646250e+002, 4.431146e+003
9.651071e+002, 4.351931e+003
9.655892e+002, 4.279720e+003
9.660714e+002, 4.213106e+003
9.665535e+002, 4.144841e+003
9.670356e+002, 4.075115e+003
9.675177e+002, 4.009347e+003
9.679998e+002, 3.948987e+003
9.684819e+002, 3.894955e+003
9.689641e+002, 3.847549e+003
9.694462e+002, 3.806385e+003
9.699283e+002, 3.769087e+003
9.704104e+002, 3.735755e+003
9.708925e+002, 3.705289e+003
9.713746e+002, 3.676661e+003
9.718568e+002, 3.650933e+003
9.723389e+002, 3.630189e+003
9.728210e+002, 3.613079e+003
9.733031e+002, 3.596588e+003
9.737852e+002, 3.578204e+003
9.742673e+002, 3.562337e+003
9.747495e+002, 3.550114e+003
9.752316e+002, 3.540222e+003
9.757137e+002, 3.531543e+003
9.761958e+002, 3.524040e+003
9.766779e+002, 3.517692e+003
9.771600e+002, 3.512656e+003
9.776422e+002, 3.507095e+003
9.781243e+002, 3.498443e+003
9.786064e+002, 3.488925e+003
9.790885e+002, 3.479896e+003
9.795706e+002, 3.471552e+003
9.800527e+002, 3.467781e+003
9.805349e+002, 3.472260e+003
9.810170e+002, 3.476610e+003
9.814991e+002, 3.477297e+003
9.819812e+002, 3.476002e+003
9.824633e+002, 3.478713e+003
9.829454e+002, 3.484969e+003
9.834276e+002, 3.492060e+003
9.839097e+002, 3.498903e+003
9.843918e+002, 3.506220e+003
9.848739e+002, 3.514950e+003
9.853560e+002, 3.524426e+003
9.858381e+002, 3.533417e+003
9.863203e+002, 3.539714e+003
9.868024e+002, 3.550468e+003
9.872845e+002, 3.566660e+003
9.877666e+002, 3.585633e+003
9.882487e+002, 3.605761e+003
9.887308e+002, 3.626296e+003
9.892130e+002, 3.644711e+003
9.896951e+002, 3.660831e+003
9.901772e+002, 3.680025e+003
9.906593e+002, 3.704409e+003
9.911414e+002, 3.733405e+003
9.916235e+002, 3.767994e+003
9.921057e+002, 3.806925e+003
9.925878e+002, 3.847113e+003
9.930699e+002, 3.889344e+003
9.935520e+002, 3.927448e+003
9.940341e+002, 3.959306e+003
9.945162e+002, 3.986379e+003
9.949984e+002, 4.013854e+003
9.954805e+002, 4.037431e+003
9.959626e+002, 4.049246e+003
9.964447e+002, 4.045629e+003
9.969268e+002, 4.032030e+003
9.974089e+002, 4.008975e+003
9.978911e+002, 3.977880e+003
9.983732e+002, 3.937960e+003
9.988553e+002, 3.889886e+003
9.993374e+002, 3.842625e+003
9.998195e+002, 3.796773e+003
1.000302e+003, 3.750970e+003
1.000784e+003, 3.699910e+003
1.001266e+003, 3.651397e+003
1.001748e+003, 3.611868e+003
1.002230e+003, 3.580969e+003
1.002712e+003, 3.552681e+003
1.003194e+003, 3.526224e+003
1.003676e+003, 3.502387e+003
1.004159e+003, 3.481106e+003
1.004641e+003, 3.462496e+003
1.005123e+003, 3.446805e+003
1.005605e+003, 3.433667e+003
1.006087e+003, 3.421859e+003
1.006569e+003, 3.410891e+003
1.007051e+003, 3.401253e+003
1.007533e+003, 3.394104e+003
1.008016e+003, 3.387625e+003
1.008498e+003, 3.379722e+003
1.008980e+003, 3.369754e+003
1.009462e+003, 3.362933e+003
1.009944e+003, 3.359589e+003
1.010426e+003, 3.356759e+003
1.010908e+003, 3.351121e+003
1.011390e+003, 3.345421e+003
1.011872e+003, 3.343822e+003
1.012355e+003, 3.345614e+003
1.012837e+003, 3.347306e+003
1.013319e+003, 3.348623e+003
1.013801e+003, 3.348302e+003
1.014283e+003, 3.345045e+003
1.014765e+003, 3.340956e+003
1.015247e+003, 3.340753e+003
1.015729e+003, 3.343730e+003
1.016211e+003, 3.344190e+003
1.016694e+003, 3.340525e+003
1.017176e+003, 3.336849e+003
1.017658e+003, 3.336767e+003
1.018140e+003, 3.338108e+003
1.018622e+003, 3.339153e+003
1.019104e+003, 3.339885e+003
1.019586e+003, 3.339387e+003
1.020068e+003, 3.337250e+003
1.020551e+003, 3.335430e+003
1.021033e+003, 3.335181e+003
1.021515e+003, 3.335862e+003
1.021997e+003, 3.336223e+003
1.022479e+003, 3.336299e+003
1.022961e+003, 3.336184e+003
1.023443e+003, 3.333852e+003
1.023925e+003, 3.333909e+003
1.024407e+003, 3.339639e+003
1.024890e+003, 3.347001e+003
1.025372e+003, 3.351140e+003
1.025854e+003, 3.351937e+003
1.026336e+003, 3.351334e+003
1.026818e+003, 3.349327e+003
1.027300e+003, 3.347665e+003
1.027782e+003, 3.347848e+003
1.028264e+003, 3.349127e+003
1.028746e+003, 3.351300e+003
1.029229e+003, 3.354281e+003
1.029711e+003, 3.355762e+003
1.030193e+003, 3.354984e+003
1.030675e+003, 3.354131e+003
1.031157e+003, 3.353829e+003
1.031639e+003, 3.354011e+003
1.032121e+003, 3.355488e+003
1.032603e+003, 3.357380e+003
1.033086e+003, 3.356607e+003
1.033568e+003, 3.350479e+003
1.034050e+003, 3.345370e+003
1.034532e+003, 3.344625e+003
1.035014e+003, 3.345995e+003
1.035496e+003, 3.347510e+003
1.035978e+003, 3.349134e+003
1.036460e+003, 3.351589e+003
1.036943e+003, 3.354942e+003
1.037425e+003, 3.357689e+003
1.037907e+003, 3.358060e+003
1.038389e+003, 3.357704e+003
1.038871e+003, 3.357841e+003
1.039353e+003, 3.358703e+003
1.039835e+003, 3.361104e+003
1.040317e+003, 3.366201e+003
1.040799e+003, 3.371017e+003
1.041281e+003, 3.375016e+003
1.041764e+003, 3.378685e+003
1.042246e+003, 3.383007e+003
1.042728e+003, 3.387688e+003
1.043210e+003, 3.391457e+003
1.043692e+003, 3.393981e+003
1.044174e+003, 3.396970e+003
1.044656e+003, 3.402722e+003
1.045138e+003, 3.408073e+003
1.045621e+003, 3.409953e+003
1.046103e+003, 3.408855e+003
1.046585e+003, 3.412946e+003
1.047067e+003, 3.422586e+003
1.047549e+003, 3.432264e+003
1.048031e+003, 3.439303e+003
1.048513e+003, 3.445286e+003
1.048995e+003, 3.450948e+003
1.049478e+003, 3.457044e+003
1.049960e+003, 3.464859e+003
1.050442e+003, 3.476604e+003
1.050924e+003, 3.487326e+003
1.051406e+003, 3.497296e+003
1.051888e+003, 3.505852e+003
1.052370e+003, 3.510408e+003
1.052852e+003, 3.513314e+003
1.053334e+003, 3.523620e+003
1.053817e+003, 3.541039e+003
1.054299e+003, 3.559000e+003
1.054781e+003, 3.573327e+003
1.055263e+003, 3.587960e+003
1.055745e+003, 3.604306e+003
1.056227e+003, 3.622521e+003
1.056709e+003, 3.643395e+003
1.057191e+003, 3.667000e+003
1.057673e+003, 3.691574e+003
1.058156e+003, 3.716748e+003
1.058638e+003, 3.743075e+003
1.059120e+003, 3.771041e+003
1.059602e+003, 3.800883e+003
1.060084e+003, 3.832488e+003
1.060566e+003, 3.865708e+003
1.061048e+003, 3.903835e+003
1.061530e+003, 3.949473e+003
1.062013e+003, 3.994005e+003
1.062495e+003, 4.031997e+003
1.062977e+003, 4.067097e+003
1.063459e+003, 4.108607e+003
1.063941e+003, 4.155497e+003
1.064423e+003, 4.205974e+003
1.064905e+003, 4.262502e+003
1.065387e+003, 4.318124e+003
1.065870e+003, 4.367578e+003
1.066352e+003, 4.417097e+003
1.066834e+003, 4.474029e+003
1.067316e+003, 4.538013e+003
1.067798e+003, 4.599323e+003
1.068280e+003, 4.657856e+003
1.068762e+003, 4.711499e+003
1.069244e+003, 4.764307e+003
1.069726e+003, 4.807898e+003
1.070208e+003, 4.835828e+003
1.070691e+003, 4.847661e+003
1.071173e+003, 4.844630e+003
1.071655e+003, 4.827487e+003
1.072137e+003, 4.794118e+003
1.072619e+003, 4.742639e+003
1.073101e+003, 4.678040e+003
1.073583e+003, 4.603736e+003
1.074065e+003, 4.522315e+003
1.074548e+003, 4.434907e+003
1.075030e+003, 4.341341e+003
1.075512e+003, 4.252120e+003
1.075994e+003, 4.169977e+003
1.076476e+003, 4.093853e+003
1.076958e+003, 4.024206e+003
1.077440e+003, 3.960823e+003
1.077922e+003, 3.903327e+003
1.078405e+003, 3.851479e+003
1.078887e+003, 3.804341e+003
1.079369e+003, 3.761831e+003
1.079851e+003, 3.722506e+003
1.080333e+003, 3.684038e+003
1.080815e+003, 3.649362e+003
1.081297e+003, 3.622275e+003
1.081779e+003, 3.603793e+003
1.082261e+003, 3.586528e+003
1.082744e+003, 3.570350e+003
1.083226e+003, 3.555179e+003
1.083708e+003, 3.540305e+003
1.084190e+003, 3.526824e+003
1.084672e+003, 3.516186e+003
1.085154e+003, 3.507942e+003
1.085636e+003, 3.500590e+003
1.086118e+003, 3.493386e+003
1.086601e+003, 3.488234e+003
1.087083e+003, 3.485978e+003
1.087565e+003, 3.484351e+003
1.088047e+003, 3.480306e+003
1.088529e+003, 3.474796e+003
1.089011e+003, 3.469776e+003
1.089493e+003, 3.465480e+003
1.089975e+003, 3.460882e+003
1.090458e+003, 3.454499e+003
1.090940e+003, 3.449050e+003
1.091422e+003, 3.445792e+003
1.091904e+003, 3.444002e+003
1.092386e+003, 3.441703e+003
1.092868e+003, 3.438940e+003
1.093350e+003, 3.436161e+003
1.093832e+003, 3.433577e+003
1.094314e+003, 3.430732e+003
1.094797e+003, 3.426822e+003
1.095279e+003, 3.422902e+003
1.095761e+003, 3.420194e+003
1.096243e+003, 3.418931e+003
1.096725e+003, 3.416040e+003
1.097207e+003, 3.411313e+003
1.097689e+003, 3.407728e+003
1.098171e+003, 3.407941e+003
1.098653e+003, 3.409151e+003
1.099136e+003, 3.408289e+003
1.099618e+003, 3.405981e+003
1.100100e+003, 3.403384e+003
1.100582e+003, 3.400330e+003
1.101064e+003, 3.397590e+003
1.101546e+003, 3.394916e+003
1.102028e+003, 3.393114e+003
1.102510e+003, 3.393403e+003
1.102993e+003, 3.394883e+003
1.103475e+003, 3.395436e+003
1.103957e+003, 3.395202e+003
1.104439e+003, 3.395636e+003
1.104921e+003, 3.399425e+003
1.105403e+003, 3.401094e+003
1.105885e+003, 3.398290e+003
1.106367e+003, 3.393891e+003
1.106849e+003, 3.392845e+003
1.107332e+003, 3.394785e+003
1.107814e+003, 3.397890e+003
1.108296e+003, 3.401996e+003
1.108778e+003, 3.406288e+003
1.109260e+003, 3.411068e+003
1.109742e+003, 3.415120e+003
1.110224e+003, 3.416976e+003
1.110706e+003, 3.417334e+003
1.111188e+003, 3.421085e+003
1.111671e+003, 3.428365e+003
1.112153e+003, 3.431386e+003
1.112635e+003, 3.425471e+003
1.113117e+003, 3.420077e+003
1.113599e+003, 3.426223e+003
1.114081e+003, 3.437280e+003
1.114563e+003, 3.445484e+003
1.115045e+003, 3.449490e+003
1.115528e+003, 3.453325e+003
1.116010e+003, 3.456969e+003
1.116492e+003, 3.460693e+003
1.116974e+003, 3.464968e+003
1.117456e+003, 3.469197e+003
1.117938e+003, 3.472165e+003
1.118420e+003, 3.474409e+003
1.118902e+003, 3.477038e+003
1.119385e+003, 3.478257e+003
1.119867e+003, 3.483844e+003
1.120349e+003, 3.495803e+003
1.120831e+003, 3.508615e+003
1.121313e+003, 3.517558e+003
1.121795e+003, 3.523164e+003
1.122277e+003, 3.525117e+003
1.122759e+003, 3.524617e+003
1.123241e+003, 3.528318e+003
1.123724e+003, 3.541898e+003
1.124206e+003, 3.557013e+003
1.124688e+003, 3.571367e+003
1.125170e+003, 3.585646e+003
1.125652e+003, 3.601236e+003
1.126134e+003, 3.617798e+003
1.126616e+003, 3.632302e+003
1.127098e+003, 3.644328e+003
1.127580e+003, 3.656444e+003
1.128063e+003, 3.670859e+003
1.128545e+003, 3.685582e+003
1.129027e+003, 3.698407e+003
1.129509e+003, 3.710455e+003
1.129991e+003, 3.726348e+003
1.130473e+003, 3.746271e+003
1.130955e+003, 3.762812e+003
1.131437e+003, 3.773586e+003
1.131920e+003, 3.782796e+003
1.132402e+003, 3.796502e+003
1.132884e+003, 3.809397e+003
1.133366e+003, 3.815957e+003
1.133848e+003, 3.815474e+003
1.134330e+003, 3.813697e+003
1.134812e+003, 3.811072e+003
1.135294e+003, 3.804381e+003
1.135776e+003, 3.791454e+003
1.136259e+003, 3.775024e+003
1.136741e+003, 3.757309e+003
1.137223e+003, 3.738964e+003
1.137705e+003, 3.720766e+003
1.138187e+003, 3.703732e+003
1.138669e+003, 3.684584e+003
1.139151e+003, 3.661615e+003
1.139633e+003, 3.640727e+003
1.140115e+003, 3.627662e+003
1.140598e+003, 3.618514e+003
1.141080e+003, 3.604939e+003
1.141562e+003, 3.588240e+003
1.142044e+003, 3.571646e+003
1.142526e+003, 3.554543e+003
1.143008e+003, 3.540744e+003
1.143490e+003, 3.531146e+003
1.143972e+003, 3.524128e+003
1.144455e+003, 3.519614e+003
1.144937e+003, 3.516262e+003
1.145419e+003, 3.507426e+003
1.145901e+003, 3.494173e+003
1.146383e+003, 3.485184e+003
1.146865e+003, 3.489522e+003
1.147347e+003, 3.493078e+003
1.147829e+003, 3.491128e+003
1.148312e+003, 3.486536e+003
1.148794e+003, 3.484089e+003
1.149276e+003, 3.483223e+003
1.149758e+003, 3.480003e+003
1.150240e+003, 3.473934e+003
1.150722e+003, 3.467459e+003
1.151204e+003, 3.462108e+003
1.151686e+003, 3.456786e+003
1.152168e+003, 3.450614e+003
1.152651e+003, 3.444048e+003
1.153133e+003, 3.438238e+003
1.153615e+003, 3.433211e+003
1.154097e+003, 3.429773e+003
1.154579e+003, 3.428528e+003
1.155061e+003, 3.426907e+003
1.155543e+003, 3.421575e+003
1.156025e+003, 3.415956e+003
1.156507e+003, 3.413704e+003
1.156990e+003, 3.414329e+003
1.157472e+003, 3.412189e+003
1.157954e+003, 3.407050e+003
1.158436e+003, 3.402807e+003
1.158918e+003, 3.400664e+003
1.159400e+003, 3.400254e+003
1.159882e+003, 3.402518e+003
1.160364e+003, 3.405586e+003
1.160847e+003, 3.407102e+003
1.161329e+003, 3.406566e+003
1.161811e+003, 3.406807e+003
1.162293e+003, 3.408024e+003
1.162775e+003, 3.408704e+003
1.163257e+003, 3.407926e+003
1.163739e+003, 3.406334e+003
1.164221e+003, 3.404269e+003
1.164703e+003, 3.402073e+003
1.165186e+003, 3.400350e+003
1.165668e+003, 3.399420e+003
1.166150e+003, 3.398295e+003
1.166632e+003, 3.396741e+003
1.167114e+003, 3.395804e+003
1.167596e+003, 3.396252e+003
1.168078e+003, 3.397811e+003
1.168560e+003, 3.401485e+003
1.169042e+003, 3.405855e+003
1.169525e+003, 3.407044e+003
1.170007e+003, 3.400237e+003
1.170489e+003, 3.396723e+003
1.170971e+003, 3.397798e+003
1.171453e+003, 3.400412e+003
1.171935e+003, 3.402369e+003
1.172417e+003, 3.403499e+003
1.172899e+003, 3.402632e+003
1.173382e+003, 3.400386e+003
1.173864e+003, 3.399809e+003
1.174346e+003, 3.404565e+003
1.174828e+003, 3.407113e+003
1.175310e+003, 3.405837e+003
1.175792e+003, 3.403115e+003
1.176274e+003, 3.401599e+003
1.176756e+003, 3.401093e+003
1.177239e+003, 3.401192e+003
1.177721e+003, 3.401815e+003
1.178203e+003, 3.402639e+003
1.178685e+003, 3.402781e+003
1.179167e+003, 3.404328e+003
1.179649e+003, 3.408786e+003
1.180131e+003, 3.413523e+003
1.180613e+003, 3.412962e+003
1.181095e+003, 3.408883e+003
1.181578e+003, 3.406420e+003
1.182060e+003, 3.406361e+003
1.182542e+003, 3.407246e+003
1.183024e+003, 3.409822e+003
1.183506e+003, 3.411540e+003
1.183988e+003, 3.411087e+003
1.184470e+003, 3.409613e+003
1.184952e+003, 3.410092e+003
1.185434e+003, 3.412084e+003
1.185917e+003, 3.414134e+003
1.186399e+003, 3.416011e+003
1.186881e+003, 3.417347e+003
1.187363e+003, 3.417056e+003
1.187845e+003, 3.417215e+003
1.188327e+003, 3.419203e+003
1.188809e+003, 3.422216e+003
1.189291e+003, 3.422625e+003
1.189774e+003, 3.421152e+003
1.190256e+003, 3.421688e+003
1.190738e+003, 3.426818e+003
1.191220e+003, 3.430097e+003
1.191702e+003, 3.424891e+003
1.192184e+003, 3.420258e+003
1.192666e+003, 3.422885e+003
1.193148e+003, 3.431180e+003
1.193630e+003, 3.434402e+003
1.194113e+003, 3.433198e+003
1.194595e+003, 3.431177e+003
1.195077e+003, 3.428984e+003
1.195559e+003, 3.427927e+003
1.196041e+003, 3.429278e+003
1.196523e+003, 3.431659e+003
1.197005e+003, 3.434620e+003
1.197487e+003, 3.437977e+003
1.197969e+003, 3.437594e+003
1.198452e+003, 3.433946e+003
1.198934e+003, 3.430508e+003
1.199416e+003, 3.428974e+003
1.199898e+003, 3.428274e+003
1.200380e+003, 3.427844e+003
1.200862e+003, 3.428124e+003
1.201344e+003, 3.430032e+003
1.201826e+003, 3.433573e+003
1.202309e+003, 3.434473e+003
1.202791e+003, 3.432946e+003
1.203273e+003, 3.431693e+003
1.203755e+003, 3.431980e+003
1.204237e+003, 3.433276e+003
1.204719e+003, 3.436435e+003
1.205201e+003, 3.439714e+003
1.205683e+003, 3.440811e+003
1.206166e+003, 3.439743e+003
1.206648e+003, 3.438841e+003
1.207130e+003, 3.438246e+003
1.207612e+003, 3.438797e+003
1.208094e+003, 3.442981e+003
1.208576e+003, 3.446312e+003
1.209058e+003, 3.445296e+003
1.209540e+003, 3.442484e+003
1.210022e+003, 3.441539e+003
1.210505e+003, 3.442368e+003
1.210987e+003, 3.441951e+003
1.211469e+003, 3.440116e+003
1.211951e+003, 3.438637e+003
1.212433e+003, 3.439141e+003
1.212915e+003, 3.439888e+003
1.213397e+003, 3.439027e+003
1.213879e+003, 3.438302e+003
1.214361e+003, 3.441838e+003
1.214844e+003, 3.449171e+003
1.215326e+003, 3.452580e+003
1.215808e+003, 3.451161e+003
1.216290e+003, 3.448378e+003
1.216772e+003, 3.444800e+003
1.217254e+003, 3.442424e+003
1.217736e+003, 3.442847e+003
1.218218e+003, 3.444882e+003
1.218701e+003, 3.446072e+003
1.219183e+003, 3.446545e+003
1.219665e+003, 3.448459e+003
1.220147e+003, 3.452201e+003
1.220629e+003, 3.455206e+003
1.221111e+003, 3.455577e+003
1.221593e+003, 3.454900e+003
1.222075e+003, 3.453729e+003
1.222557e+003, 3.452345e+003
1.223040e+003, 3.451613e+003
1.223522e+003, 3.451390e+003
1.224004e+003, 3.450302e+003
1.224486e+003, 3.447973e+003
1.224968e+003, 3.446374e+003
1.225450e+003, 3.447149e+003
1.225932e+003, 3.448688e+003
1.226414e+003, 3.450783e+003
1.226896e+003, 3.452670e+003
1.227379e+003, 3.451188e+003
1.227861e+003, 3.447130e+003
1.228343e+003, 3.444481e+003
1.228825e+003, 3.444095e+003
1.229307e+003, 3.445328e+003
1.229789e+003, 3.450305e+003
1.230271e+003, 3.453968e+003
1.230753e+003, 3.453392e+003
1.231236e+003, 3.449893e+003
1.231718e+003, 3.447359e+003
1.232200e+003, 3.445800e+003
1.232682e+003, 3.445602e+003
1.233164e+003, 3.447055e+003
1.233646e+003, 3.448876e+003
1.234128e+003, 3.451606e+003
1.234610e+003, 3.453195e+003
1.235093e+003, 3.452573e+003
1.235575e+003, 3.450245e+003
1.236057e+003, 3.446511e+003
1.236539e+003, 3.442450e+003
1.237021e+003, 3.442372e+003
1.237503e+003, 3.449113e+003
1.237985e+003, 3.453649e+003
1.238467e+003, 3.450197e+003
1.238949e+003, 3.446734e+003
1.239432e+003, 3.446928e+003
1.239914e+003, 3.449434e+003
1.240396e+003, 3.450385e+003
1.240878e+003, 3.450213e+003
1.241360e+003, 3.450064e+003
1.241842e+003, 3.450139e+003
1.242324e+003, 3.450609e+003
1.242806e+003, 3.451614e+003
1.243288e+003, 3.452820e+003
1.243771e+003, 3.454167e+003
1.244253e+003, 3.455543e+003
1.244735e+003, 3.456776e+003
1.245217e+003, 3.457821e+003
1.245699e+003, 3.458631e+003
1.246181e+003, 3.459428e+003
1.246663e+003, 3.459138e+003
1.247145e+003, 3.456912e+003
1.247628e+003, 3.455329e+003
1.248110e+003, 3.455784e+003
1.248592e+003, 3.457772e+003
1.249074e+003, 3.461444e+003
1.249556e+003, 3.465495e+003
1.250038e+003, 3.467370e+003
1.250520e+003, 3.465349e+003
1.251002e+003, 3.463432e+003
1.251484e+003, 3.461388e+003
1.251967e+003, 3.460775e+003
1.252449e+003, 3.463519e+003
1.252931e+003, 3.467101e+003
1.253413e+003, 3.466833e+003
1.253895e+003, 3.464690e+003
1.254377e+003, 3.464171e+003
1.254859e+003, 3.466442e+003
1.255341e+003, 3.469374e+003
1.255823e+003, 3.473345e+003
1.256306e+003, 3.476082e+003
1.256788e+003, 3.475966e+003
1.257270e+003, 3.474220e+003
1.257752e+003, 3.471243e+003
1.258234e+003, 3.468100e+003
1.258716e+003, 3.466637e+003
1.259198e+003, 3.467257e+003
1.259680e+003, 3.469012e+003
1.260163e+003, 3.472304e+003
1.260645e+003, 3.473190e+003
1.261127e+003, 3.467028e+003
1.261609e+003, 3.460563e+003
1.262091e+003, 3.460661e+003
1.262573e+003, 3.463892e+003
1.263055e+003, 3.465500e+003
1.263537e+003, 3.465115e+003
1.264020e+003, 3.464444e+003
1.264502e+003, 3.463468e+003
1.264984e+003, 3.463055e+003
1.265466e+003, 3.464077e+003
1.265948e+003, 3.465272e+003
1.266430e+003, 3.466241e+003
1.266912e+003, 3.466531e+003
1.267394e+003, 3.465192e+003
1.267876e+003, 3.462167e+003
1.268359e+003, 3.462340e+003
1.268841e+003, 3.465404e+003
1.269323e+003, 3.468623e+003
1.269805e+003, 3.470881e+003
1.270287e+003, 3.472505e+003
1.270769e+003, 3.474462e+003
1.271251e+003, 3.475070e+003
1.271733e+003, 3.471725e+003
1.272215e+003, 3.465377e+003
1.272698e+003, 3.464823e+003
1.273180e+003, 3.468851e+003
1.273662e+003, 3.471784e+003
1.274144e+003, 3.470496e+003
1.274626e+003, 3.468486e+003
1.275108e+003, 3.465751e+003
1.275590e+003, 3.463723e+003
1.276072e+003, 3.463644e+003
1.276555e+003, 3.465159e+003
1.277037e+003, 3.467642e+003
1.277519e+003, 3.470672e+003
1.278001e+003, 3.473090e+003
1.278483e+003, 3.474080e+003
1.278965e+003, 3.474732e+003
1.279447e+003, 3.474812e+003
1.279929e+003, 3.475235e+003
1.280411e+003, 3.477424e+003
1.280894e+003, 3.479960e+003
1.281376e+003, 3.479731e+003
1.281858e+003, 3.477863e+003
1.282340e+003, 3.476948e+003
1.282822e+003, 3.478039e+003
1.283304e+003, 3.479224e+003
1.283786e+003, 3.480595e+003
1.284268e+003, 3.481748e+003
1.284750e+003, 3.482263e+003
1.285233e+003, 3.482584e+003
1.285715e+003, 3.483521e+003
1.286197e+003, 3.484511e+003
1.286679e+003, 3.484398e+003
1.287161e+003, 3.482624e+003
1.287643e+003, 3.482012e+003
1.288125e+003, 3.482562e+003
1.288607e+003, 3.483512e+003
1.289090e+003, 3.484761e+003
1.289572e+003, 3.485704e+003
1.290054e+003, 3.485502e+003
1.290536e+003, 3.484941e+003
1.291018e+003, 3.484796e+003
1.291500e+003, 3.485017e+003
1.291982e+003, 3.487314e+003
1.292464e+003, 3.491402e+003
1.292947e+003, 3.494896e+003
1.293429e+003, 3.498429e+003
1.293911e+003, 3.498615e+003
1.294393e+003, 3.490184e+003
1.294875e+003, 3.481429e+003
1.295357e+003, 3.478551e+003
1.295839e+003, 3.480688e+003
1.296321e+003, 3.485305e+003
1.296803e+003, 3.491101e+003
1.297286e+003, 3.492770e+003
1.297768e+003, 3.482897e+003
1.298250e+003, 3.478111e+003
1.298732e+003, 3.482495e+003
1.299214e+003, 3.488755e+003
1.299696e+003, 3.491790e+003
1.300178e+003, 3.492748e+003
1.300660e+003, 3.495191e+003
##END=



