##NAMES=Goedkenite
##RRUFFID=R130091
##IDEAL CHEMISTRY=Sr_2_Al(PO_4_)_2_(OH)
##LOCALITY=Palermo #1 mine, near North Groton, Grafton County, New Hampshire, USA
##OWNER=RRUFF
##SOURCE=Mark N. Feinglos
##DESCRIPTION=Short prismatic pale yellow crystals associated with prismatic palermoite and quartz.
##STATUS=The identification of this mineral has been confirmed only by single crystal X-ray diffraction.
##URL=rruff.info/R130091
8.936163e+001, 0.000000e+000
8.984375e+001, 1.992534e+002
9.032587e+001, 2.016985e+002
9.080798e+001, 2.021538e+002
9.129010e+001, 1.997930e+002
9.177222e+001, 1.964028e+002
9.225433e+001, 1.942656e+002
9.273645e+001, 1.932636e+002
9.321857e+001, 1.922225e+002
9.370068e+001, 1.898799e+002
9.418280e+001, 1.866384e+002
9.466492e+001, 1.838454e+002
9.514703e+001, 1.821289e+002
9.562915e+001, 1.811387e+002
9.611127e+001, 1.798784e+002
9.659338e+001, 1.783448e+002
9.707550e+001, 1.765891e+002
9.755762e+001, 1.744691e+002
9.803973e+001, 1.719640e+002
9.852185e+001, 1.697782e+002
9.900397e+001, 1.683397e+002
9.948608e+001, 1.676650e+002
9.996820e+001, 1.667565e+002
1.004503e+002, 1.656255e+002
1.009324e+002, 1.642275e+002
1.014146e+002, 1.622971e+002
1.018967e+002, 1.595269e+002
1.023788e+002, 1.570535e+002
1.028609e+002, 1.556148e+002
1.033430e+002, 1.557025e+002
1.038251e+002, 1.552668e+002
1.043073e+002, 1.540401e+002
1.047894e+002, 1.521652e+002
1.052715e+002, 1.503723e+002
1.057536e+002, 1.486206e+002
1.062357e+002, 1.469783e+002
1.067178e+002, 1.454704e+002
1.072000e+002, 1.441398e+002
1.076821e+002, 1.429063e+002
1.081642e+002, 1.418779e+002
1.086463e+002, 1.410944e+002
1.091284e+002, 1.399593e+002
1.096105e+002, 1.382464e+002
1.100927e+002, 1.362755e+002
1.105748e+002, 1.343630e+002
1.110569e+002, 1.321852e+002
1.115390e+002, 1.303744e+002
1.120211e+002, 1.291822e+002
1.125032e+002, 1.287971e+002
1.129854e+002, 1.283568e+002
1.134675e+002, 1.279845e+002
1.139496e+002, 1.274503e+002
1.144317e+002, 1.264115e+002
1.149138e+002, 1.238468e+002
1.153959e+002, 1.214636e+002
1.158781e+002, 1.202107e+002
1.163602e+002, 1.209509e+002
1.168423e+002, 1.212768e+002
1.173244e+002, 1.199413e+002
1.178065e+002, 1.174996e+002
1.182886e+002, 1.153649e+002
1.187708e+002, 1.144355e+002
1.192529e+002, 1.138939e+002
1.197350e+002, 1.130864e+002
1.202171e+002, 1.115083e+002
1.206992e+002, 1.100253e+002
1.211813e+002, 1.094234e+002
1.216635e+002, 1.095334e+002
1.221456e+002, 1.094360e+002
1.226277e+002, 1.083094e+002
1.231098e+002, 1.066900e+002
1.235919e+002, 1.052887e+002
1.240740e+002, 1.045636e+002
1.245562e+002, 1.040399e+002
1.250383e+002, 1.031562e+002
1.255204e+002, 1.019115e+002
1.260025e+002, 1.007389e+002
1.264846e+002, 1.002125e+002
1.269667e+002, 1.000754e+002
1.274489e+002, 9.968562e+001
1.279310e+002, 9.845873e+001
1.284131e+002, 9.684122e+001
1.288952e+002, 9.580020e+001
1.293773e+002, 9.544855e+001
1.298594e+002, 9.523508e+001
1.303416e+002, 9.437183e+001
1.308237e+002, 9.295454e+001
1.313058e+002, 9.162304e+001
1.317879e+002, 9.074776e+001
1.322700e+002, 9.025889e+001
1.327521e+002, 8.983968e+001
1.332343e+002, 8.949120e+001
1.337164e+002, 8.915759e+001
1.341985e+002, 8.870879e+001
1.346806e+002, 8.813810e+001
1.351627e+002, 8.753834e+001
1.356448e+002, 8.699451e+001
1.361270e+002, 8.650627e+001
1.366091e+002, 8.593166e+001
1.370912e+002, 8.521892e+001
1.375733e+002, 8.442750e+001
1.380554e+002, 8.368442e+001
1.385375e+002, 8.296335e+001
1.390197e+002, 8.236362e+001
1.395018e+002, 8.204119e+001
1.399839e+002, 8.212044e+001
1.404660e+002, 8.192736e+001
1.409481e+002, 8.124131e+001
1.414302e+002, 8.011941e+001
1.419124e+002, 7.931852e+001
1.423945e+002, 7.900624e+001
1.428766e+002, 7.878711e+001
1.433587e+002, 7.823523e+001
1.438408e+002, 7.713620e+001
1.443229e+002, 7.615566e+001
1.448051e+002, 7.547914e+001
1.452872e+002, 7.515085e+001
1.457693e+002, 7.472163e+001
1.462514e+002, 7.405814e+001
1.467335e+002, 7.337127e+001
1.472156e+002, 7.293117e+001
1.476978e+002, 7.294784e+001
1.481799e+002, 7.296038e+001
1.486620e+002, 7.289887e+001
1.491441e+002, 7.286740e+001
1.496262e+002, 7.246883e+001
1.501083e+002, 7.127870e+001
1.505905e+002, 6.979562e+001
1.510726e+002, 6.889357e+001
1.515547e+002, 6.944680e+001
1.520368e+002, 6.983447e+001
1.525189e+002, 6.951276e+001
1.530010e+002, 6.787531e+001
1.534832e+002, 6.656676e+001
1.539653e+002, 6.578542e+001
1.544474e+002, 6.540845e+001
1.549295e+002, 6.514083e+001
1.554116e+002, 6.515565e+001
1.558937e+002, 6.512013e+001
1.563759e+002, 6.487353e+001
1.568580e+002, 6.419062e+001
1.573401e+002, 6.356960e+001
1.578222e+002, 6.304118e+001
1.583043e+002, 6.263068e+001
1.587864e+002, 6.243122e+001
1.592686e+002, 6.284370e+001
1.597507e+002, 6.325643e+001
1.602328e+002, 6.327577e+001
1.607149e+002, 6.239442e+001
1.611970e+002, 6.152502e+001
1.616791e+002, 6.097394e+001
1.621613e+002, 6.070993e+001
1.626434e+002, 6.047389e+001
1.631255e+002, 6.025470e+001
1.636076e+002, 5.998177e+001
1.640897e+002, 5.959223e+001
1.645718e+002, 5.883921e+001
1.650540e+002, 5.815210e+001
1.655361e+002, 5.784406e+001
1.660182e+002, 5.789622e+001
1.665003e+002, 5.784603e+001
1.669824e+002, 5.729978e+001
1.674645e+002, 5.654292e+001
1.679467e+002, 5.593545e+001
1.684288e+002, 5.562005e+001
1.689109e+002, 5.549146e+001
1.693930e+002, 5.552494e+001
1.698751e+002, 5.572556e+001
1.703572e+002, 5.594159e+001
1.708394e+002, 5.610799e+001
1.713215e+002, 5.621788e+001
1.718036e+002, 5.625814e+001
1.722857e+002, 5.619967e+001
1.727678e+002, 5.608218e+001
1.732499e+002, 5.588438e+001
1.737321e+002, 5.557698e+001
1.742142e+002, 5.539952e+001
1.746963e+002, 5.560668e+001
1.751784e+002, 5.610071e+001
1.756605e+002, 5.665251e+001
1.761426e+002, 5.697367e+001
1.766248e+002, 5.733611e+001
1.771069e+002, 5.813516e+001
1.775890e+002, 5.944739e+001
1.780711e+002, 6.104185e+001
1.785532e+002, 6.284502e+001
1.790353e+002, 6.478707e+001
1.795175e+002, 6.654755e+001
1.799996e+002, 6.764141e+001
1.804817e+002, 6.848183e+001
1.809638e+002, 7.002465e+001
1.814459e+002, 7.258099e+001
1.819280e+002, 7.533004e+001
1.824102e+002, 7.711729e+001
1.828923e+002, 7.804519e+001
1.833744e+002, 7.897758e+001
1.838565e+002, 8.041832e+001
1.843386e+002, 8.227869e+001
1.848207e+002, 8.432706e+001
1.853029e+002, 8.666685e+001
1.857850e+002, 8.896829e+001
1.862671e+002, 9.054288e+001
1.867492e+002, 9.142352e+001
1.872313e+002, 9.244817e+001
1.877134e+002, 9.442939e+001
1.881956e+002, 9.714766e+001
1.886777e+002, 9.936336e+001
1.891598e+002, 1.006614e+002
1.896419e+002, 1.016487e+002
1.901240e+002, 1.038355e+002
1.906061e+002, 1.073072e+002
1.910883e+002, 1.107852e+002
1.915704e+002, 1.130889e+002
1.920525e+002, 1.143901e+002
1.925346e+002, 1.162071e+002
1.930167e+002, 1.188741e+002
1.934988e+002, 1.220932e+002
1.939810e+002, 1.248205e+002
1.944631e+002, 1.269094e+002
1.949452e+002, 1.290496e+002
1.954273e+002, 1.312466e+002
1.959094e+002, 1.334989e+002
1.963915e+002, 1.360422e+002
1.968737e+002, 1.390446e+002
1.973558e+002, 1.423050e+002
1.978379e+002, 1.450979e+002
1.983200e+002, 1.473243e+002
1.988021e+002, 1.495181e+002
1.992842e+002, 1.523049e+002
1.997664e+002, 1.557598e+002
2.002485e+002, 1.586777e+002
2.007306e+002, 1.608398e+002
2.012127e+002, 1.623073e+002
2.016948e+002, 1.634752e+002
2.021769e+002, 1.644514e+002
2.026591e+002, 1.648681e+002
2.031412e+002, 1.643321e+002
2.036233e+002, 1.628028e+002
2.041054e+002, 1.607518e+002
2.045875e+002, 1.581676e+002
2.050696e+002, 1.551144e+002
2.055518e+002, 1.521539e+002
2.060339e+002, 1.492805e+002
2.065160e+002, 1.464928e+002
2.069981e+002, 1.437360e+002
2.074802e+002, 1.409799e+002
2.079623e+002, 1.384776e+002
2.084445e+002, 1.362843e+002
2.089266e+002, 1.343848e+002
2.094087e+002, 1.327527e+002
2.098908e+002, 1.313989e+002
2.103729e+002, 1.302538e+002
2.108550e+002, 1.292147e+002
2.113372e+002, 1.282378e+002
2.118193e+002, 1.275500e+002
2.123014e+002, 1.272865e+002
2.127835e+002, 1.274487e+002
2.132656e+002, 1.274277e+002
2.137477e+002, 1.271134e+002
2.142299e+002, 1.267697e+002
2.147120e+002, 1.266504e+002
2.151941e+002, 1.266653e+002
2.156762e+002, 1.271575e+002
2.161583e+002, 1.284051e+002
2.166404e+002, 1.304652e+002
2.171226e+002, 1.319135e+002
2.176047e+002, 1.325391e+002
2.180868e+002, 1.328093e+002
2.185689e+002, 1.332790e+002
2.190510e+002, 1.339902e+002
2.195331e+002, 1.348263e+002
2.200153e+002, 1.359032e+002
2.204974e+002, 1.373072e+002
2.209795e+002, 1.380043e+002
2.214616e+002, 1.377155e+002
2.219437e+002, 1.370322e+002
2.224258e+002, 1.367441e+002
2.229080e+002, 1.371913e+002
2.233901e+002, 1.373067e+002
2.238722e+002, 1.367371e+002
2.243543e+002, 1.353882e+002
2.248364e+002, 1.341364e+002
2.253185e+002, 1.329420e+002
2.258007e+002, 1.318891e+002
2.262828e+002, 1.311394e+002
2.267649e+002, 1.309879e+002
2.272470e+002, 1.305458e+002
2.277291e+002, 1.294650e+002
2.282112e+002, 1.275873e+002
2.286934e+002, 1.261968e+002
2.291755e+002, 1.255297e+002
2.296576e+002, 1.251375e+002
2.301397e+002, 1.243962e+002
2.306218e+002, 1.229080e+002
2.311039e+002, 1.217914e+002
2.315861e+002, 1.214118e+002
2.320682e+002, 1.218770e+002
2.325503e+002, 1.223146e+002
2.330324e+002, 1.228285e+002
2.335145e+002, 1.232355e+002
2.339966e+002, 1.232477e+002
2.344788e+002, 1.225295e+002
2.349609e+002, 1.220243e+002
2.354430e+002, 1.220214e+002
2.359251e+002, 1.226012e+002
2.364072e+002, 1.231103e+002
2.368893e+002, 1.234786e+002
2.373715e+002, 1.238322e+002
2.378536e+002, 1.243100e+002
2.383357e+002, 1.248710e+002
2.388178e+002, 1.256421e+002
2.392999e+002, 1.267622e+002
2.397820e+002, 1.283165e+002
2.402642e+002, 1.294571e+002
2.407463e+002, 1.299707e+002
2.412284e+002, 1.302455e+002
2.417105e+002, 1.307434e+002
2.421926e+002, 1.315068e+002
2.426747e+002, 1.324070e+002
2.431569e+002, 1.334219e+002
2.436390e+002, 1.345636e+002
2.441211e+002, 1.357659e+002
2.446032e+002, 1.371445e+002
2.450853e+002, 1.384908e+002
2.455674e+002, 1.395243e+002
2.460496e+002, 1.400075e+002
2.465317e+002, 1.406181e+002
2.470138e+002, 1.414802e+002
2.474959e+002, 1.425954e+002
2.479780e+002, 1.440485e+002
2.484601e+002, 1.460165e+002
2.489423e+002, 1.481637e+002
2.494244e+002, 1.501006e+002
2.499065e+002, 1.516578e+002
2.503886e+002, 1.533555e+002
2.508707e+002, 1.553827e+002
2.513528e+002, 1.577467e+002
2.518350e+002, 1.598959e+002
2.523171e+002, 1.617007e+002
2.527992e+002, 1.634049e+002
2.532813e+002, 1.652348e+002
2.537634e+002, 1.671433e+002
2.542455e+002, 1.692453e+002
2.547277e+002, 1.716674e+002
2.552098e+002, 1.744282e+002
2.556919e+002, 1.767469e+002
2.561740e+002, 1.782858e+002
2.566561e+002, 1.797947e+002
2.571382e+002, 1.819643e+002
2.576204e+002, 1.849719e+002
2.581025e+002, 1.882631e+002
2.585846e+002, 1.918279e+002
2.590667e+002, 1.956536e+002
2.595488e+002, 1.991117e+002
2.600309e+002, 2.019282e+002
2.605131e+002, 2.046800e+002
2.609952e+002, 2.078798e+002
2.614773e+002, 2.117964e+002
2.619594e+002, 2.155352e+002
2.624415e+002, 2.191806e+002
2.629236e+002, 2.226428e+002
2.634058e+002, 2.245396e+002
2.638879e+002, 2.245057e+002
2.643700e+002, 2.235681e+002
2.648521e+002, 2.225357e+002
2.653342e+002, 2.215538e+002
2.658163e+002, 2.200312e+002
2.662985e+002, 2.179111e+002
2.667806e+002, 2.152039e+002
2.672627e+002, 2.117534e+002
2.677448e+002, 2.073223e+002
2.682269e+002, 2.026833e+002
2.687090e+002, 1.984296e+002
2.691912e+002, 1.946207e+002
2.696733e+002, 1.907498e+002
2.701554e+002, 1.867293e+002
2.706375e+002, 1.825903e+002
2.711196e+002, 1.785835e+002
2.716017e+002, 1.746887e+002
2.720839e+002, 1.709883e+002
2.725660e+002, 1.675954e+002
2.730481e+002, 1.644840e+002
2.735302e+002, 1.617485e+002
2.740123e+002, 1.594083e+002
2.744944e+002, 1.574174e+002
2.749766e+002, 1.556238e+002
2.754587e+002, 1.540411e+002
2.759408e+002, 1.526191e+002
2.764229e+002, 1.513443e+002
2.769050e+002, 1.502037e+002
2.773871e+002, 1.492696e+002
2.778693e+002, 1.485049e+002
2.783514e+002, 1.479978e+002
2.788335e+002, 1.480443e+002
2.793156e+002, 1.487274e+002
2.797977e+002, 1.494770e+002
2.802798e+002, 1.499206e+002
2.807620e+002, 1.500511e+002
2.812441e+002, 1.504160e+002
2.817262e+002, 1.510362e+002
2.822083e+002, 1.519046e+002
2.826904e+002, 1.531577e+002
2.831725e+002, 1.548354e+002
2.836547e+002, 1.563098e+002
2.841368e+002, 1.570138e+002
2.846189e+002, 1.570527e+002
2.851010e+002, 1.578802e+002
2.855831e+002, 1.596744e+002
2.860652e+002, 1.618436e+002
2.865474e+002, 1.636085e+002
2.870295e+002, 1.649727e+002
2.875116e+002, 1.660848e+002
2.879937e+002, 1.669267e+002
2.884758e+002, 1.675494e+002
2.889579e+002, 1.681566e+002
2.894401e+002, 1.687331e+002
2.899222e+002, 1.694016e+002
2.904043e+002, 1.702184e+002
2.908864e+002, 1.712103e+002
2.913685e+002, 1.726078e+002
2.918506e+002, 1.746048e+002
2.923328e+002, 1.770590e+002
2.928149e+002, 1.794980e+002
2.932970e+002, 1.819270e+002
2.937791e+002, 1.844180e+002
2.942612e+002, 1.869902e+002
2.947433e+002, 1.896603e+002
2.952255e+002, 1.924961e+002
2.957076e+002, 1.957220e+002
2.961897e+002, 1.989959e+002
2.966718e+002, 2.017072e+002
2.971539e+002, 2.038455e+002
2.976360e+002, 2.052628e+002
2.981182e+002, 2.057820e+002
2.986003e+002, 2.054692e+002
2.990824e+002, 2.045028e+002
2.995645e+002, 2.029246e+002
3.000466e+002, 2.007088e+002
3.005287e+002, 1.977420e+002
3.010109e+002, 1.940728e+002
3.014930e+002, 1.898993e+002
3.019751e+002, 1.852117e+002
3.024572e+002, 1.801666e+002
3.029393e+002, 1.750798e+002
3.034214e+002, 1.698348e+002
3.039036e+002, 1.647908e+002
3.043857e+002, 1.602702e+002
3.048678e+002, 1.562654e+002
3.053499e+002, 1.526527e+002
3.058320e+002, 1.495067e+002
3.063141e+002, 1.466879e+002
3.067963e+002, 1.440699e+002
3.072784e+002, 1.415715e+002
3.077605e+002, 1.393589e+002
3.082426e+002, 1.377724e+002
3.087247e+002, 1.365883e+002
3.092068e+002, 1.352716e+002
3.096890e+002, 1.331601e+002
3.101711e+002, 1.310132e+002
3.106532e+002, 1.296135e+002
3.111353e+002, 1.291759e+002
3.116174e+002, 1.288015e+002
3.120995e+002, 1.277583e+002
3.125817e+002, 1.264297e+002
3.130638e+002, 1.254208e+002
3.135459e+002, 1.252566e+002
3.140280e+002, 1.252712e+002
3.145101e+002, 1.251124e+002
3.149922e+002, 1.247605e+002
3.154744e+002, 1.242097e+002
3.159565e+002, 1.230990e+002
3.164386e+002, 1.219102e+002
3.169207e+002, 1.212035e+002
3.174028e+002, 1.217299e+002
3.178849e+002, 1.222379e+002
3.183671e+002, 1.221167e+002
3.188492e+002, 1.213923e+002
3.193313e+002, 1.208200e+002
3.198134e+002, 1.207301e+002
3.202955e+002, 1.208528e+002
3.207776e+002, 1.209726e+002
3.212598e+002, 1.212233e+002
3.217419e+002, 1.212725e+002
3.222240e+002, 1.208831e+002
3.227061e+002, 1.201584e+002
3.231882e+002, 1.196429e+002
3.236703e+002, 1.196060e+002
3.241525e+002, 1.196896e+002
3.246346e+002, 1.196998e+002
3.251167e+002, 1.195634e+002
3.255988e+002, 1.194242e+002
3.260809e+002, 1.192191e+002
3.265630e+002, 1.190138e+002
3.270452e+002, 1.189884e+002
3.275273e+002, 1.195191e+002
3.280094e+002, 1.199176e+002
3.284915e+002, 1.199092e+002
3.289736e+002, 1.192399e+002
3.294557e+002, 1.187309e+002
3.299379e+002, 1.184281e+002
3.304200e+002, 1.182701e+002
3.309021e+002, 1.181642e+002
3.313842e+002, 1.181245e+002
3.318663e+002, 1.181119e+002
3.323484e+002, 1.180896e+002
3.328306e+002, 1.180288e+002
3.333127e+002, 1.181548e+002
3.337948e+002, 1.185865e+002
3.342769e+002, 1.190981e+002
3.347590e+002, 1.194344e+002
3.352411e+002, 1.195437e+002
3.357233e+002, 1.196037e+002
3.362054e+002, 1.196643e+002
3.366875e+002, 1.197199e+002
3.371696e+002, 1.195997e+002
3.376517e+002, 1.191659e+002
3.381339e+002, 1.188254e+002
3.386160e+002, 1.190021e+002
3.390981e+002, 1.198416e+002
3.395802e+002, 1.204678e+002
3.400623e+002, 1.207006e+002
3.405444e+002, 1.206574e+002
3.410266e+002, 1.207387e+002
3.415087e+002, 1.209770e+002
3.419908e+002, 1.211794e+002
3.424729e+002, 1.212069e+002
3.429550e+002, 1.210587e+002
3.434371e+002, 1.208744e+002
3.439193e+002, 1.206130e+002
3.444014e+002, 1.204164e+002
3.448835e+002, 1.205846e+002
3.453656e+002, 1.211154e+002
3.458477e+002, 1.217378e+002
3.463298e+002, 1.223399e+002
3.468120e+002, 1.229308e+002
3.472941e+002, 1.235275e+002
3.477762e+002, 1.241424e+002
3.482583e+002, 1.247376e+002
3.487404e+002, 1.253278e+002
3.492225e+002, 1.258822e+002
3.497047e+002, 1.262508e+002
3.501868e+002, 1.260945e+002
3.506689e+002, 1.258417e+002
3.511510e+002, 1.263529e+002
3.516331e+002, 1.276153e+002
3.521152e+002, 1.290446e+002
3.525974e+002, 1.301800e+002
3.530795e+002, 1.311345e+002
3.535616e+002, 1.321068e+002
3.540437e+002, 1.331015e+002
3.545258e+002, 1.341937e+002
3.550079e+002, 1.355860e+002
3.554901e+002, 1.371973e+002
3.559722e+002, 1.386907e+002
3.564543e+002, 1.397798e+002
3.569364e+002, 1.406819e+002
3.574185e+002, 1.416060e+002
3.579006e+002, 1.425505e+002
3.583828e+002, 1.436259e+002
3.588649e+002, 1.448119e+002
3.593470e+002, 1.461888e+002
3.598291e+002, 1.479246e+002
3.603112e+002, 1.503557e+002
3.607933e+002, 1.529687e+002
3.612755e+002, 1.554982e+002
3.617576e+002, 1.579095e+002
3.622397e+002, 1.602937e+002
3.627218e+002, 1.625116e+002
3.632039e+002, 1.647803e+002
3.636860e+002, 1.673426e+002
3.641682e+002, 1.707081e+002
3.646503e+002, 1.739649e+002
3.651324e+002, 1.767691e+002
3.656145e+002, 1.791500e+002
3.660966e+002, 1.813476e+002
3.665787e+002, 1.836182e+002
3.670609e+002, 1.855835e+002
3.675430e+002, 1.870011e+002
3.680251e+002, 1.875957e+002
3.685072e+002, 1.879495e+002
3.689893e+002, 1.883503e+002
3.694714e+002, 1.885802e+002
3.699536e+002, 1.878530e+002
3.704357e+002, 1.855620e+002
3.709178e+002, 1.829451e+002
3.713999e+002, 1.805242e+002
3.718820e+002, 1.784757e+002
3.723641e+002, 1.761096e+002
3.728463e+002, 1.733161e+002
3.733284e+002, 1.703034e+002
3.738105e+002, 1.672866e+002
3.742926e+002, 1.640435e+002
3.747747e+002, 1.612892e+002
3.752568e+002, 1.592823e+002
3.757390e+002, 1.580225e+002
3.762211e+002, 1.568176e+002
3.767032e+002, 1.556024e+002
3.771853e+002, 1.545487e+002
3.776674e+002, 1.538248e+002
3.781495e+002, 1.534551e+002
3.786317e+002, 1.531572e+002
3.791138e+002, 1.528088e+002
3.795959e+002, 1.525342e+002
3.800780e+002, 1.529026e+002
3.805601e+002, 1.539885e+002
3.810422e+002, 1.548779e+002
3.815244e+002, 1.547471e+002
3.820065e+002, 1.537988e+002
3.824886e+002, 1.531557e+002
3.829707e+002, 1.529508e+002
3.834528e+002, 1.530090e+002
3.839349e+002, 1.531300e+002
3.844171e+002, 1.533105e+002
3.848992e+002, 1.535236e+002
3.853813e+002, 1.536888e+002
3.858634e+002, 1.539005e+002
3.863455e+002, 1.543646e+002
3.868276e+002, 1.550927e+002
3.873098e+002, 1.558814e+002
3.877919e+002, 1.566562e+002
3.882740e+002, 1.573628e+002
3.887561e+002, 1.579057e+002
3.892382e+002, 1.582893e+002
3.897203e+002, 1.584663e+002
3.902025e+002, 1.582205e+002
3.906846e+002, 1.576565e+002
3.911667e+002, 1.572713e+002
3.916488e+002, 1.574814e+002
3.921309e+002, 1.579169e+002
3.926130e+002, 1.582770e+002
3.930952e+002, 1.584888e+002
3.935773e+002, 1.586409e+002
3.940594e+002, 1.586635e+002
3.945415e+002, 1.586605e+002
3.950236e+002, 1.588246e+002
3.955057e+002, 1.594632e+002
3.959879e+002, 1.600651e+002
3.964700e+002, 1.604323e+002
3.969521e+002, 1.605352e+002
3.974342e+002, 1.605118e+002
3.979163e+002, 1.603727e+002
3.983984e+002, 1.601237e+002
3.988806e+002, 1.597702e+002
3.993627e+002, 1.591329e+002
3.998448e+002, 1.585958e+002
4.003269e+002, 1.581820e+002
4.008090e+002, 1.578940e+002
4.012911e+002, 1.577762e+002
4.017733e+002, 1.579697e+002
4.022554e+002, 1.581640e+002
4.027375e+002, 1.581920e+002
4.032196e+002, 1.579846e+002
4.037017e+002, 1.577918e+002
4.041838e+002, 1.576576e+002
4.046660e+002, 1.575094e+002
4.051481e+002, 1.570745e+002
4.056302e+002, 1.561255e+002
4.061123e+002, 1.557362e+002
4.065944e+002, 1.565449e+002
4.070765e+002, 1.584713e+002
4.075587e+002, 1.595751e+002
4.080408e+002, 1.597016e+002
4.085229e+002, 1.596200e+002
4.090050e+002, 1.601272e+002
4.094871e+002, 1.611875e+002
4.099692e+002, 1.623121e+002
4.104514e+002, 1.633922e+002
4.109335e+002, 1.644838e+002
4.114156e+002, 1.656942e+002
4.118977e+002, 1.670125e+002
4.123798e+002, 1.684518e+002
4.128619e+002, 1.699629e+002
4.133441e+002, 1.715923e+002
4.138262e+002, 1.734658e+002
4.143083e+002, 1.756218e+002
4.147904e+002, 1.779392e+002
4.152725e+002, 1.803649e+002
4.157546e+002, 1.828765e+002
4.162368e+002, 1.854891e+002
4.167189e+002, 1.880949e+002
4.172010e+002, 1.908474e+002
4.176831e+002, 1.938962e+002
4.181652e+002, 1.972159e+002
4.186473e+002, 2.007823e+002
4.191295e+002, 2.044649e+002
4.196116e+002, 2.084192e+002
4.200937e+002, 2.127623e+002
4.205758e+002, 2.180072e+002
4.210579e+002, 2.230085e+002
4.215400e+002, 2.271315e+002
4.220222e+002, 2.307648e+002
4.225043e+002, 2.349869e+002
4.229864e+002, 2.401828e+002
4.234685e+002, 2.458324e+002
4.239506e+002, 2.518426e+002
4.244327e+002, 2.582471e+002
4.249149e+002, 2.647794e+002
4.253970e+002, 2.717210e+002
4.258791e+002, 2.786083e+002
4.263612e+002, 2.850210e+002
4.268433e+002, 2.903499e+002
4.273254e+002, 2.961399e+002
4.278076e+002, 3.029094e+002
4.282897e+002, 3.104639e+002
4.287718e+002, 3.170450e+002
4.292539e+002, 3.224810e+002
4.297360e+002, 3.271286e+002
4.302181e+002, 3.312605e+002
4.307003e+002, 3.350108e+002
4.311824e+002, 3.373837e+002
4.316645e+002, 3.384135e+002
4.321466e+002, 3.379312e+002
4.326287e+002, 3.357716e+002
4.331108e+002, 3.319697e+002
4.335930e+002, 3.259942e+002
4.340751e+002, 3.172502e+002
4.345572e+002, 3.062412e+002
4.350393e+002, 2.943452e+002
4.355214e+002, 2.816023e+002
4.360035e+002, 2.684934e+002
4.364857e+002, 2.549158e+002
4.369678e+002, 2.414859e+002
4.374499e+002, 2.293183e+002
4.379320e+002, 2.185952e+002
4.384141e+002, 2.093655e+002
4.388962e+002, 2.019666e+002
4.393784e+002, 1.961535e+002
4.398605e+002, 1.912122e+002
4.403426e+002, 1.867379e+002
4.408247e+002, 1.829907e+002
4.413068e+002, 1.803356e+002
4.417889e+002, 1.789035e+002
4.422711e+002, 1.775904e+002
4.427532e+002, 1.755935e+002
4.432353e+002, 1.735336e+002
4.437174e+002, 1.720561e+002
4.441995e+002, 1.718799e+002
4.446816e+002, 1.717419e+002
4.451638e+002, 1.713298e+002
4.456459e+002, 1.706728e+002
4.461280e+002, 1.699062e+002
4.466101e+002, 1.692738e+002
4.470922e+002, 1.683514e+002
4.475743e+002, 1.668782e+002
4.480565e+002, 1.645581e+002
4.485386e+002, 1.624909e+002
4.490207e+002, 1.609418e+002
4.495028e+002, 1.594904e+002
4.499849e+002, 1.575909e+002
4.504670e+002, 1.549998e+002
4.509492e+002, 1.524649e+002
4.514313e+002, 1.501081e+002
4.519134e+002, 1.479416e+002
4.523955e+002, 1.461983e+002
4.528776e+002, 1.450212e+002
4.533597e+002, 1.438901e+002
4.538419e+002, 1.423604e+002
4.543240e+002, 1.404610e+002
4.548061e+002, 1.388686e+002
4.552882e+002, 1.376915e+002
4.557703e+002, 1.367364e+002
4.562524e+002, 1.357851e+002
4.567346e+002, 1.348221e+002
4.572167e+002, 1.338401e+002
4.576988e+002, 1.327530e+002
4.581809e+002, 1.316627e+002
4.586630e+002, 1.306845e+002
4.591451e+002, 1.298296e+002
4.596273e+002, 1.291578e+002
4.601094e+002, 1.287683e+002
4.605915e+002, 1.285791e+002
4.610736e+002, 1.285310e+002
4.615557e+002, 1.287365e+002
4.620378e+002, 1.287996e+002
4.625200e+002, 1.282907e+002
4.630021e+002, 1.274673e+002
4.634842e+002, 1.268401e+002
4.639663e+002, 1.268928e+002
4.644484e+002, 1.269390e+002
4.649305e+002, 1.265146e+002
4.654127e+002, 1.255528e+002
4.658948e+002, 1.250032e+002
4.663769e+002, 1.255724e+002
4.668590e+002, 1.263206e+002
4.673411e+002, 1.265655e+002
4.678232e+002, 1.256259e+002
4.683054e+002, 1.250384e+002
4.687875e+002, 1.250446e+002
4.692696e+002, 1.254016e+002
4.697517e+002, 1.255108e+002
4.702338e+002, 1.252760e+002
4.707159e+002, 1.249574e+002
4.711981e+002, 1.245701e+002
4.716802e+002, 1.240974e+002
4.721623e+002, 1.240439e+002
4.726444e+002, 1.245254e+002
4.731265e+002, 1.251090e+002
4.736086e+002, 1.252862e+002
4.740908e+002, 1.250667e+002
4.745729e+002, 1.250907e+002
4.750550e+002, 1.255551e+002
4.755371e+002, 1.261889e+002
4.760192e+002, 1.264752e+002
4.765013e+002, 1.264457e+002
4.769835e+002, 1.263523e+002
4.774656e+002, 1.262464e+002
4.779477e+002, 1.261948e+002
4.784298e+002, 1.263450e+002
4.789119e+002, 1.267070e+002
4.793940e+002, 1.270927e+002
4.798762e+002, 1.273851e+002
4.803583e+002, 1.276022e+002
4.808404e+002, 1.277771e+002
4.813225e+002, 1.279998e+002
4.818046e+002, 1.280797e+002
4.822867e+002, 1.276863e+002
4.827689e+002, 1.270598e+002
4.832510e+002, 1.268152e+002
4.837331e+002, 1.274507e+002
4.842152e+002, 1.282636e+002
4.846973e+002, 1.289994e+002
4.851794e+002, 1.296693e+002
4.856616e+002, 1.301359e+002
4.861437e+002, 1.300750e+002
4.866258e+002, 1.299964e+002
4.871079e+002, 1.303242e+002
4.875900e+002, 1.314788e+002
4.880721e+002, 1.322682e+002
4.885543e+002, 1.323662e+002
4.890364e+002, 1.320979e+002
4.895185e+002, 1.324842e+002
4.900006e+002, 1.337434e+002
4.904827e+002, 1.349479e+002
4.909648e+002, 1.356893e+002
4.914470e+002, 1.359861e+002
4.919291e+002, 1.360706e+002
4.924112e+002, 1.358907e+002
4.928933e+002, 1.357498e+002
4.933754e+002, 1.362185e+002
4.938575e+002, 1.370731e+002
4.943397e+002, 1.372617e+002
4.948218e+002, 1.364275e+002
4.953039e+002, 1.350764e+002
4.957860e+002, 1.336346e+002
4.962681e+002, 1.322089e+002
4.967502e+002, 1.311651e+002
4.972324e+002, 1.310656e+002
4.977145e+002, 1.311968e+002
4.981966e+002, 1.308816e+002
4.986787e+002, 1.300781e+002
4.991608e+002, 1.291707e+002
4.996429e+002, 1.282132e+002
5.001251e+002, 1.273151e+002
5.006072e+002, 1.265485e+002
5.010893e+002, 1.259780e+002
5.015714e+002, 1.254843e+002
5.020535e+002, 1.251292e+002
5.025356e+002, 1.248260e+002
5.030178e+002, 1.243753e+002
5.034999e+002, 1.234707e+002
5.039820e+002, 1.227281e+002
5.044641e+002, 1.223446e+002
5.049462e+002, 1.223342e+002
5.054283e+002, 1.222876e+002
5.059105e+002, 1.221560e+002
5.063926e+002, 1.220693e+002
5.068747e+002, 1.221751e+002
5.073568e+002, 1.225275e+002
5.078389e+002, 1.226898e+002
5.083210e+002, 1.225709e+002
5.088032e+002, 1.223333e+002
5.092853e+002, 1.222400e+002
5.097674e+002, 1.222866e+002
5.102495e+002, 1.224102e+002
5.107316e+002, 1.225781e+002
5.112137e+002, 1.228075e+002
5.116959e+002, 1.230848e+002
5.121780e+002, 1.234188e+002
5.126601e+002, 1.239727e+002
5.131422e+002, 1.251191e+002
5.136243e+002, 1.264529e+002
5.141064e+002, 1.273726e+002
5.145886e+002, 1.276260e+002
5.150707e+002, 1.280072e+002
5.155528e+002, 1.293163e+002
5.160349e+002, 1.309860e+002
5.165170e+002, 1.322159e+002
5.169991e+002, 1.319234e+002
5.174813e+002, 1.319945e+002
5.179634e+002, 1.332436e+002
5.184455e+002, 1.355368e+002
5.189276e+002, 1.376822e+002
5.194097e+002, 1.392492e+002
5.198918e+002, 1.408912e+002
5.203740e+002, 1.429050e+002
5.208561e+002, 1.455302e+002
5.213382e+002, 1.477354e+002
5.218203e+002, 1.492898e+002
5.223024e+002, 1.506880e+002
5.227845e+002, 1.525681e+002
5.232667e+002, 1.550248e+002
5.237488e+002, 1.573957e+002
5.242309e+002, 1.594423e+002
5.247130e+002, 1.613896e+002
5.251951e+002, 1.639351e+002
5.256772e+002, 1.670773e+002
5.261594e+002, 1.702046e+002
5.266415e+002, 1.729331e+002
5.271236e+002, 1.754454e+002
5.276057e+002, 1.780811e+002
5.280878e+002, 1.808414e+002
5.285699e+002, 1.837596e+002
5.290521e+002, 1.869572e+002
5.295342e+002, 1.902630e+002
5.300163e+002, 1.934737e+002
5.304984e+002, 1.966105e+002
5.309805e+002, 1.994522e+002
5.314626e+002, 2.019960e+002
5.319448e+002, 2.041215e+002
5.324269e+002, 2.055892e+002
5.329090e+002, 2.062269e+002
5.333911e+002, 2.063111e+002
5.338732e+002, 2.061284e+002
5.343553e+002, 2.056996e+002
5.348375e+002, 2.039604e+002
5.353196e+002, 2.006026e+002
5.358017e+002, 1.962428e+002
5.362838e+002, 1.910696e+002
5.367659e+002, 1.844915e+002
5.372480e+002, 1.785906e+002
5.377302e+002, 1.734129e+002
5.382123e+002, 1.688795e+002
5.386944e+002, 1.650723e+002
5.391765e+002, 1.619942e+002
5.396586e+002, 1.591358e+002
5.401407e+002, 1.563317e+002
5.406229e+002, 1.537157e+002
5.411050e+002, 1.516671e+002
5.415871e+002, 1.501829e+002
5.420692e+002, 1.492224e+002
5.425513e+002, 1.488348e+002
5.430334e+002, 1.489220e+002
5.435156e+002, 1.493271e+002
5.439977e+002, 1.500347e+002
5.444798e+002, 1.511077e+002
5.449619e+002, 1.528788e+002
5.454440e+002, 1.549105e+002
5.459261e+002, 1.566930e+002
5.464083e+002, 1.576383e+002
5.468904e+002, 1.589602e+002
5.473725e+002, 1.613116e+002
5.478546e+002, 1.642900e+002
5.483367e+002, 1.670861e+002
5.488188e+002, 1.694922e+002
5.493010e+002, 1.717955e+002
5.497831e+002, 1.742306e+002
5.502652e+002, 1.767831e+002
5.507473e+002, 1.784880e+002
5.512294e+002, 1.792875e+002
5.517115e+002, 1.793367e+002
5.521937e+002, 1.787347e+002
5.526758e+002, 1.774875e+002
5.531579e+002, 1.755268e+002
5.536400e+002, 1.728050e+002
5.541221e+002, 1.695076e+002
5.546042e+002, 1.656474e+002
5.550864e+002, 1.613310e+002
5.555685e+002, 1.571898e+002
5.560506e+002, 1.534114e+002
5.565327e+002, 1.499676e+002
5.570148e+002, 1.467697e+002
5.574969e+002, 1.438702e+002
5.579791e+002, 1.414621e+002
5.584612e+002, 1.399612e+002
5.589433e+002, 1.388067e+002
5.594254e+002, 1.375311e+002
5.599075e+002, 1.360887e+002
5.603896e+002, 1.348825e+002
5.608718e+002, 1.341877e+002
5.613539e+002, 1.337364e+002
5.618360e+002, 1.333472e+002
5.623181e+002, 1.331709e+002
5.628002e+002, 1.327747e+002
5.632823e+002, 1.318136e+002
5.637645e+002, 1.307647e+002
5.642466e+002, 1.304079e+002
5.647287e+002, 1.310687e+002
5.652108e+002, 1.316922e+002
5.656929e+002, 1.319934e+002
5.661750e+002, 1.320781e+002
5.666572e+002, 1.324366e+002
5.671393e+002, 1.330823e+002
5.676214e+002, 1.338908e+002
5.681035e+002, 1.348547e+002
5.685856e+002, 1.359261e+002
5.690677e+002, 1.369385e+002
5.695499e+002, 1.378696e+002
5.700320e+002, 1.388547e+002
5.705141e+002, 1.399942e+002
5.709962e+002, 1.412662e+002
5.714783e+002, 1.426491e+002
5.719604e+002, 1.442138e+002
5.724426e+002, 1.457538e+002
5.729247e+002, 1.470539e+002
5.734068e+002, 1.482583e+002
5.738889e+002, 1.496553e+002
5.743710e+002, 1.511140e+002
5.748531e+002, 1.529950e+002
5.753353e+002, 1.554778e+002
5.758174e+002, 1.585348e+002
5.762995e+002, 1.618574e+002
5.767816e+002, 1.654928e+002
5.772637e+002, 1.692685e+002
5.777458e+002, 1.730291e+002
5.782280e+002, 1.765735e+002
5.787101e+002, 1.812034e+002
5.791922e+002, 1.871936e+002
5.796743e+002, 1.936649e+002
5.801564e+002, 1.998900e+002
5.806385e+002, 2.058289e+002
5.811207e+002, 2.111224e+002
5.816028e+002, 2.155310e+002
5.820849e+002, 2.195710e+002
5.825670e+002, 2.244225e+002
5.830491e+002, 2.296002e+002
5.835313e+002, 2.337687e+002
5.840134e+002, 2.363538e+002
5.844955e+002, 2.375346e+002
5.849776e+002, 2.375435e+002
5.854597e+002, 2.363284e+002
5.859418e+002, 2.335930e+002
5.864240e+002, 2.288285e+002
5.869061e+002, 2.228083e+002
5.873882e+002, 2.155201e+002
5.878703e+002, 2.064367e+002
5.883524e+002, 1.983517e+002
5.888345e+002, 1.917146e+002
5.893167e+002, 1.861271e+002
5.897988e+002, 1.813379e+002
5.902809e+002, 1.774525e+002
5.907630e+002, 1.740796e+002
5.912451e+002, 1.710623e+002
5.917272e+002, 1.686379e+002
5.922094e+002, 1.674343e+002
5.926915e+002, 1.675274e+002
5.931736e+002, 1.677918e+002
5.936557e+002, 1.678545e+002
5.941378e+002, 1.678381e+002
5.946199e+002, 1.679441e+002
5.951021e+002, 1.681949e+002
5.955842e+002, 1.687777e+002
5.960663e+002, 1.697416e+002
5.965484e+002, 1.711418e+002
5.970305e+002, 1.730733e+002
5.975126e+002, 1.755466e+002
5.979948e+002, 1.784539e+002
5.984769e+002, 1.820921e+002
5.989590e+002, 1.859008e+002
5.994411e+002, 1.894006e+002
5.999232e+002, 1.921250e+002
6.004053e+002, 1.951669e+002
6.008875e+002, 1.988359e+002
6.013696e+002, 2.028388e+002
6.018517e+002, 2.068287e+002
6.023338e+002, 2.111017e+002
6.028159e+002, 2.147599e+002
6.032980e+002, 2.178636e+002
6.037802e+002, 2.201845e+002
6.042623e+002, 2.209823e+002
6.047444e+002, 2.202259e+002
6.052265e+002, 2.181682e+002
6.057086e+002, 2.145804e+002
6.061907e+002, 2.097785e+002
6.066729e+002, 2.046999e+002
6.071550e+002, 1.993682e+002
6.076371e+002, 1.939289e+002
6.081192e+002, 1.881992e+002
6.086013e+002, 1.826052e+002
6.090834e+002, 1.777441e+002
6.095656e+002, 1.736248e+002
6.100477e+002, 1.704140e+002
6.105298e+002, 1.685945e+002
6.110119e+002, 1.675689e+002
6.114940e+002, 1.666475e+002
6.119761e+002, 1.655098e+002
6.124583e+002, 1.646895e+002
6.129404e+002, 1.641471e+002
6.134225e+002, 1.639866e+002
6.139046e+002, 1.645103e+002
6.143867e+002, 1.659690e+002
6.148688e+002, 1.675512e+002
6.153510e+002, 1.689159e+002
6.158331e+002, 1.701997e+002
6.163152e+002, 1.724116e+002
6.167973e+002, 1.756068e+002
6.172794e+002, 1.790556e+002
6.177615e+002, 1.824739e+002
6.182437e+002, 1.857097e+002
6.187258e+002, 1.882413e+002
6.192079e+002, 1.900286e+002
6.196900e+002, 1.918992e+002
6.201721e+002, 1.947874e+002
6.206542e+002, 1.980827e+002
6.211364e+002, 2.010478e+002
6.216185e+002, 2.036199e+002
6.221006e+002, 2.056801e+002
6.225827e+002, 2.072791e+002
6.230648e+002, 2.083391e+002
6.235469e+002, 2.087508e+002
6.240291e+002, 2.085127e+002
6.245112e+002, 2.075820e+002
6.249933e+002, 2.057964e+002
6.254754e+002, 2.033336e+002
6.259575e+002, 2.008071e+002
6.264396e+002, 1.981970e+002
6.269218e+002, 1.955637e+002
6.274039e+002, 1.930236e+002
6.278860e+002, 1.904949e+002
6.283681e+002, 1.875115e+002
6.288502e+002, 1.840739e+002
6.293323e+002, 1.801539e+002
6.298145e+002, 1.754537e+002
6.302966e+002, 1.703356e+002
6.307787e+002, 1.653129e+002
6.312608e+002, 1.604156e+002
6.317429e+002, 1.558622e+002
6.322250e+002, 1.517280e+002
6.327072e+002, 1.480714e+002
6.331893e+002, 1.448983e+002
6.336714e+002, 1.423335e+002
6.341535e+002, 1.401104e+002
6.346356e+002, 1.382417e+002
6.351177e+002, 1.366652e+002
6.355999e+002, 1.352430e+002
6.360820e+002, 1.339986e+002
6.365641e+002, 1.328474e+002
6.370462e+002, 1.317035e+002
6.375283e+002, 1.306642e+002
6.380104e+002, 1.301241e+002
6.384926e+002, 1.301624e+002
6.389747e+002, 1.301737e+002
6.394568e+002, 1.298692e+002
6.399389e+002, 1.293310e+002
6.404210e+002, 1.288443e+002
6.409031e+002, 1.284011e+002
6.413853e+002, 1.279129e+002
6.418674e+002, 1.271538e+002
6.423495e+002, 1.263922e+002
6.428316e+002, 1.259953e+002
6.433137e+002, 1.260245e+002
6.437958e+002, 1.261455e+002
6.442780e+002, 1.263815e+002
6.447601e+002, 1.265257e+002
6.452422e+002, 1.263750e+002
6.457243e+002, 1.254401e+002
6.462064e+002, 1.249317e+002
6.466885e+002, 1.251972e+002
6.471707e+002, 1.257334e+002
6.476528e+002, 1.258341e+002
6.481349e+002, 1.253231e+002
6.486170e+002, 1.249473e+002
6.490991e+002, 1.248643e+002
6.495812e+002, 1.249682e+002
6.500634e+002, 1.249888e+002
6.505455e+002, 1.249379e+002
6.510276e+002, 1.249851e+002
6.515097e+002, 1.253399e+002
6.519918e+002, 1.257629e+002
6.524739e+002, 1.258096e+002
6.529561e+002, 1.255508e+002
6.534382e+002, 1.253586e+002
6.539203e+002, 1.254336e+002
6.544024e+002, 1.256644e+002
6.548845e+002, 1.260969e+002
6.553666e+002, 1.267773e+002
6.558488e+002, 1.270925e+002
6.563309e+002, 1.265467e+002
6.568130e+002, 1.258652e+002
6.572951e+002, 1.254826e+002
6.577772e+002, 1.254882e+002
6.582593e+002, 1.255690e+002
6.587415e+002, 1.257589e+002
6.592236e+002, 1.259697e+002
6.597057e+002, 1.260780e+002
6.601878e+002, 1.260869e+002
6.606699e+002, 1.261967e+002
6.611520e+002, 1.265045e+002
6.616342e+002, 1.267630e+002
6.621163e+002, 1.264323e+002
6.625984e+002, 1.257584e+002
6.630805e+002, 1.253986e+002
6.635626e+002, 1.259043e+002
6.640447e+002, 1.265202e+002
6.645269e+002, 1.266953e+002
6.650090e+002, 1.265495e+002
6.654911e+002, 1.264417e+002
6.659732e+002, 1.266253e+002
6.664553e+002, 1.267253e+002
6.669374e+002, 1.264652e+002
6.674196e+002, 1.258915e+002
6.679017e+002, 1.257941e+002
6.683838e+002, 1.264446e+002
6.688659e+002, 1.270646e+002
6.693480e+002, 1.272029e+002
6.698301e+002, 1.268700e+002
6.703123e+002, 1.267892e+002
6.707944e+002, 1.269832e+002
6.712765e+002, 1.272607e+002
6.717586e+002, 1.274326e+002
6.722407e+002, 1.275668e+002
6.727228e+002, 1.278582e+002
6.732050e+002, 1.283716e+002
6.736871e+002, 1.287974e+002
6.741692e+002, 1.287367e+002
6.746513e+002, 1.285303e+002
6.751334e+002, 1.285948e+002
6.756155e+002, 1.293755e+002
6.760977e+002, 1.299170e+002
6.765798e+002, 1.297406e+002
6.770619e+002, 1.292807e+002
6.775440e+002, 1.292075e+002
6.780261e+002, 1.297883e+002
6.785082e+002, 1.301797e+002
6.789904e+002, 1.301701e+002
6.794725e+002, 1.299355e+002
6.799546e+002, 1.299867e+002
6.804367e+002, 1.303282e+002
6.809188e+002, 1.305407e+002
6.814009e+002, 1.303374e+002
6.818831e+002, 1.299665e+002
6.823652e+002, 1.299501e+002
6.828473e+002, 1.302143e+002
6.833294e+002, 1.303872e+002
6.838115e+002, 1.298816e+002
6.842936e+002, 1.294888e+002
6.847758e+002, 1.300657e+002
6.852579e+002, 1.316419e+002
6.857400e+002, 1.325767e+002
6.862221e+002, 1.317462e+002
6.867042e+002, 1.307383e+002
6.871863e+002, 1.303703e+002
6.876685e+002, 1.307905e+002
6.881506e+002, 1.312650e+002
6.886327e+002, 1.318875e+002
6.891148e+002, 1.323862e+002
6.895969e+002, 1.324829e+002
6.900790e+002, 1.321972e+002
6.905612e+002, 1.317968e+002
6.910433e+002, 1.312731e+002
6.915254e+002, 1.308105e+002
6.920075e+002, 1.306317e+002
6.924896e+002, 1.306731e+002
6.929717e+002, 1.308545e+002
6.934539e+002, 1.312797e+002
6.939360e+002, 1.315844e+002
6.944181e+002, 1.314384e+002
6.949002e+002, 1.310647e+002
6.953823e+002, 1.308085e+002
6.958644e+002, 1.308023e+002
6.963466e+002, 1.308619e+002
6.968287e+002, 1.309918e+002
6.973108e+002, 1.311653e+002
6.977929e+002, 1.313557e+002
6.982750e+002, 1.316462e+002
6.987571e+002, 1.316331e+002
6.992393e+002, 1.310690e+002
6.997214e+002, 1.301791e+002
7.002035e+002, 1.296337e+002
7.006856e+002, 1.294104e+002
7.011677e+002, 1.293426e+002
7.016498e+002, 1.294454e+002
7.021320e+002, 1.295805e+002
7.026141e+002, 1.296095e+002
7.030962e+002, 1.295265e+002
7.035783e+002, 1.293401e+002
7.040604e+002, 1.288246e+002
7.045425e+002, 1.283867e+002
7.050247e+002, 1.283125e+002
7.055068e+002, 1.287116e+002
7.059889e+002, 1.289699e+002
7.064710e+002, 1.291202e+002
7.069531e+002, 1.290774e+002
7.074352e+002, 1.287081e+002
7.079174e+002, 1.279661e+002
7.083995e+002, 1.274485e+002
7.088816e+002, 1.271787e+002
7.093637e+002, 1.270743e+002
7.098458e+002, 1.271576e+002
7.103279e+002, 1.273334e+002
7.108101e+002, 1.273540e+002
7.112922e+002, 1.271601e+002
7.117743e+002, 1.268862e+002
7.122564e+002, 1.265127e+002
7.127385e+002, 1.261680e+002
7.132206e+002, 1.260093e+002
7.137028e+002, 1.262277e+002
7.141849e+002, 1.264320e+002
7.146670e+002, 1.267010e+002
7.151491e+002, 1.268551e+002
7.156312e+002, 1.265600e+002
7.161133e+002, 1.255196e+002
7.165955e+002, 1.249048e+002
7.170776e+002, 1.250597e+002
7.175597e+002, 1.255761e+002
7.180418e+002, 1.254820e+002
7.185239e+002, 1.248517e+002
7.190060e+002, 1.244440e+002
7.194882e+002, 1.246636e+002
7.199703e+002, 1.251318e+002
7.204524e+002, 1.255240e+002
7.209345e+002, 1.257893e+002
7.214166e+002, 1.257931e+002
7.218987e+002, 1.252489e+002
7.223809e+002, 1.246349e+002
7.228630e+002, 1.241102e+002
7.233451e+002, 1.236982e+002
7.238272e+002, 1.235239e+002
7.243093e+002, 1.237488e+002
7.247914e+002, 1.239793e+002
7.252736e+002, 1.241057e+002
7.257557e+002, 1.241247e+002
7.262378e+002, 1.239218e+002
7.267199e+002, 1.234646e+002
7.272020e+002, 1.230559e+002
7.276841e+002, 1.229632e+002
7.281663e+002, 1.230454e+002
7.286484e+002, 1.229602e+002
7.291305e+002, 1.227051e+002
7.296126e+002, 1.225044e+002
7.300947e+002, 1.225071e+002
7.305768e+002, 1.226284e+002
7.310590e+002, 1.228854e+002
7.315411e+002, 1.233701e+002
7.320232e+002, 1.234923e+002
7.325053e+002, 1.226866e+002
7.329874e+002, 1.218566e+002
7.334695e+002, 1.216077e+002
7.339517e+002, 1.222250e+002
7.344338e+002, 1.223545e+002
7.349159e+002, 1.218648e+002
7.353980e+002, 1.212593e+002
7.358801e+002, 1.211379e+002
7.363622e+002, 1.213783e+002
7.368444e+002, 1.214553e+002
7.373265e+002, 1.212681e+002
7.378086e+002, 1.210165e+002
7.382907e+002, 1.208328e+002
7.387728e+002, 1.207235e+002
7.392549e+002, 1.206980e+002
7.397371e+002, 1.207597e+002
7.402192e+002, 1.209083e+002
7.407013e+002, 1.212462e+002
7.411834e+002, 1.216299e+002
7.416655e+002, 1.218627e+002
7.421476e+002, 1.218494e+002
7.426298e+002, 1.219340e+002
7.431119e+002, 1.222452e+002
7.435940e+002, 1.225503e+002
7.440761e+002, 1.222624e+002
7.445582e+002, 1.214642e+002
7.450403e+002, 1.210370e+002
7.455225e+002, 1.213922e+002
7.460046e+002, 1.219715e+002
7.464867e+002, 1.220873e+002
7.469688e+002, 1.218997e+002
7.474509e+002, 1.217531e+002
7.479330e+002, 1.219289e+002
7.484152e+002, 1.220255e+002
7.488973e+002, 1.218231e+002
7.493794e+002, 1.214113e+002
7.498615e+002, 1.210781e+002
7.503436e+002, 1.206738e+002
7.508257e+002, 1.206677e+002
7.513079e+002, 1.213918e+002
7.517900e+002, 1.225196e+002
7.522721e+002, 1.227837e+002
7.527542e+002, 1.221894e+002
7.532363e+002, 1.214378e+002
7.537184e+002, 1.207367e+002
7.542006e+002, 1.201769e+002
7.546827e+002, 1.199422e+002
7.551648e+002, 1.199877e+002
7.556469e+002, 1.201343e+002
7.561290e+002, 1.203706e+002
7.566111e+002, 1.206095e+002
7.570933e+002, 1.207851e+002
7.575754e+002, 1.208995e+002
7.580575e+002, 1.210919e+002
7.585396e+002, 1.214397e+002
7.590217e+002, 1.217580e+002
7.595038e+002, 1.220094e+002
7.599860e+002, 1.221808e+002
7.604681e+002, 1.220805e+002
7.609502e+002, 1.216816e+002
7.614323e+002, 1.213268e+002
7.619144e+002, 1.213009e+002
7.623965e+002, 1.214514e+002
7.628787e+002, 1.214433e+002
7.633608e+002, 1.212925e+002
7.638429e+002, 1.213033e+002
7.643250e+002, 1.219776e+002
7.648071e+002, 1.226322e+002
7.652892e+002, 1.227133e+002
7.657714e+002, 1.220828e+002
7.662535e+002, 1.216713e+002
7.667356e+002, 1.215687e+002
7.672177e+002, 1.216450e+002
7.676998e+002, 1.218926e+002
7.681819e+002, 1.223364e+002
7.686641e+002, 1.225266e+002
7.691462e+002, 1.224341e+002
7.696283e+002, 1.223022e+002
7.701104e+002, 1.223761e+002
7.705925e+002, 1.225432e+002
7.710746e+002, 1.225961e+002
7.715568e+002, 1.225135e+002
7.720389e+002, 1.223375e+002
7.725210e+002, 1.218147e+002
7.730031e+002, 1.213958e+002
7.734852e+002, 1.215285e+002
7.739673e+002, 1.225984e+002
7.744495e+002, 1.231249e+002
7.749316e+002, 1.227789e+002
7.754137e+002, 1.222210e+002
7.758958e+002, 1.218703e+002
7.763779e+002, 1.217170e+002
7.768600e+002, 1.220577e+002
7.773422e+002, 1.230069e+002
7.778243e+002, 1.238107e+002
7.783064e+002, 1.234338e+002
7.787885e+002, 1.224422e+002
7.792706e+002, 1.219406e+002
7.797527e+002, 1.221734e+002
7.802349e+002, 1.224907e+002
7.807170e+002, 1.224872e+002
7.811991e+002, 1.224082e+002
7.816812e+002, 1.224800e+002
7.821633e+002, 1.228805e+002
7.826454e+002, 1.231476e+002
7.831276e+002, 1.232391e+002
7.836097e+002, 1.232490e+002
7.840918e+002, 1.232530e+002
7.845739e+002, 1.232500e+002
7.850560e+002, 1.233054e+002
7.855381e+002, 1.234472e+002
7.860203e+002, 1.235267e+002
7.865024e+002, 1.232423e+002
7.869845e+002, 1.228178e+002
7.874666e+002, 1.226668e+002
7.879487e+002, 1.229626e+002
7.884308e+002, 1.232658e+002
7.889130e+002, 1.233181e+002
7.893951e+002, 1.232927e+002
7.898772e+002, 1.233793e+002
7.903593e+002, 1.237942e+002
7.908414e+002, 1.239199e+002
7.913235e+002, 1.235993e+002
7.918057e+002, 1.231966e+002
7.922878e+002, 1.231858e+002
7.927699e+002, 1.235395e+002
7.932520e+002, 1.238539e+002
7.937341e+002, 1.240775e+002
7.942162e+002, 1.242275e+002
7.946984e+002, 1.241820e+002
7.951805e+002, 1.241219e+002
7.956626e+002, 1.244005e+002
7.961447e+002, 1.254140e+002
7.966268e+002, 1.260562e+002
7.971089e+002, 1.256590e+002
7.975911e+002, 1.248299e+002
7.980732e+002, 1.242408e+002
7.985553e+002, 1.239031e+002
7.990374e+002, 1.238293e+002
7.995195e+002, 1.241160e+002
8.000016e+002, 1.244925e+002
8.004838e+002, 1.245907e+002
8.009659e+002, 1.244591e+002
8.014480e+002, 1.243485e+002
8.019301e+002, 1.242796e+002
8.024122e+002, 1.243541e+002
8.028943e+002, 1.248670e+002
8.033765e+002, 1.255066e+002
8.038586e+002, 1.258689e+002
8.043407e+002, 1.257881e+002
8.048228e+002, 1.255422e+002
8.053049e+002, 1.248836e+002
8.057870e+002, 1.242656e+002
8.062692e+002, 1.241750e+002
8.067513e+002, 1.247487e+002
8.072334e+002, 1.253439e+002
8.077155e+002, 1.259494e+002
8.081976e+002, 1.264205e+002
8.086797e+002, 1.264606e+002
8.091619e+002, 1.262080e+002
8.096440e+002, 1.261059e+002
8.101261e+002, 1.263119e+002
8.106082e+002, 1.264279e+002
8.110903e+002, 1.258816e+002
8.115724e+002, 1.252193e+002
8.120546e+002, 1.250598e+002
8.125367e+002, 1.260200e+002
8.130188e+002, 1.266676e+002
8.135009e+002, 1.267685e+002
8.139830e+002, 1.267108e+002
8.144651e+002, 1.269794e+002
8.149473e+002, 1.276156e+002
8.154294e+002, 1.279286e+002
8.159115e+002, 1.278343e+002
8.163936e+002, 1.274945e+002
8.168757e+002, 1.268182e+002
8.173578e+002, 1.261040e+002
8.178400e+002, 1.259184e+002
8.183221e+002, 1.265138e+002
8.188042e+002, 1.271791e+002
8.192863e+002, 1.277493e+002
8.197684e+002, 1.281234e+002
8.202505e+002, 1.281373e+002
8.207327e+002, 1.273328e+002
8.212148e+002, 1.272777e+002
8.216969e+002, 1.283108e+002
8.221790e+002, 1.294737e+002
8.226611e+002, 1.295537e+002
8.231432e+002, 1.287600e+002
8.236254e+002, 1.284713e+002
8.241075e+002, 1.288737e+002
8.245896e+002, 1.294158e+002
8.250717e+002, 1.296670e+002
8.255538e+002, 1.297380e+002
8.260359e+002, 1.297588e+002
8.265181e+002, 1.297815e+002
8.270002e+002, 1.296617e+002
8.274823e+002, 1.290125e+002
8.279644e+002, 1.285027e+002
8.284465e+002, 1.286599e+002
8.289286e+002, 1.297074e+002
8.294108e+002, 1.302840e+002
8.298929e+002, 1.303007e+002
8.303750e+002, 1.302279e+002
8.308571e+002, 1.305518e+002
8.313392e+002, 1.310989e+002
8.318214e+002, 1.315225e+002
8.323035e+002, 1.317841e+002
8.327856e+002, 1.319160e+002
8.332677e+002, 1.318008e+002
8.337498e+002, 1.316553e+002
8.342319e+002, 1.316436e+002
8.347141e+002, 1.318121e+002
8.351962e+002, 1.319943e+002
8.356783e+002, 1.321697e+002
8.361604e+002, 1.323851e+002
8.366425e+002, 1.327386e+002
8.371246e+002, 1.332038e+002
8.376068e+002, 1.333214e+002
8.380889e+002, 1.330864e+002
8.385710e+002, 1.328649e+002
8.390531e+002, 1.329667e+002
8.395352e+002, 1.332142e+002
8.400173e+002, 1.333779e+002
8.404995e+002, 1.334494e+002
8.409816e+002, 1.336954e+002
8.414637e+002, 1.342934e+002
8.419458e+002, 1.350157e+002
8.424279e+002, 1.358797e+002
8.429100e+002, 1.368728e+002
8.433922e+002, 1.372068e+002
8.438743e+002, 1.367656e+002
8.443564e+002, 1.362932e+002
8.448385e+002, 1.363327e+002
8.453206e+002, 1.366303e+002
8.458027e+002, 1.364233e+002
8.462849e+002, 1.358453e+002
8.467670e+002, 1.356574e+002
8.472491e+002, 1.368827e+002
8.477312e+002, 1.380731e+002
8.482133e+002, 1.381946e+002
8.486954e+002, 1.373760e+002
8.491776e+002, 1.371817e+002
8.496597e+002, 1.380098e+002
8.501418e+002, 1.387482e+002
8.506239e+002, 1.390314e+002
8.511060e+002, 1.389560e+002
8.515881e+002, 1.387391e+002
8.520703e+002, 1.384095e+002
8.525524e+002, 1.382028e+002
8.530345e+002, 1.382059e+002
8.535166e+002, 1.384128e+002
8.539987e+002, 1.388792e+002
8.544808e+002, 1.395438e+002
8.549630e+002, 1.402551e+002
8.554451e+002, 1.411538e+002
8.559272e+002, 1.418485e+002
8.564093e+002, 1.422705e+002
8.568914e+002, 1.424393e+002
8.573735e+002, 1.423232e+002
8.578557e+002, 1.418797e+002
8.583378e+002, 1.416882e+002
8.588199e+002, 1.419909e+002
8.593020e+002, 1.424309e+002
8.597841e+002, 1.424807e+002
8.602662e+002, 1.422670e+002
8.607484e+002, 1.420401e+002
8.612305e+002, 1.417949e+002
8.617126e+002, 1.416921e+002
8.621947e+002, 1.419866e+002
8.626768e+002, 1.423794e+002
8.631589e+002, 1.424284e+002
8.636411e+002, 1.419596e+002
8.641232e+002, 1.416250e+002
8.646053e+002, 1.414570e+002
8.650874e+002, 1.414981e+002
8.655695e+002, 1.420759e+002
8.660516e+002, 1.429173e+002
8.665338e+002, 1.430401e+002
8.670159e+002, 1.421076e+002
8.674980e+002, 1.412529e+002
8.679801e+002, 1.415050e+002
8.684622e+002, 1.420931e+002
8.689443e+002, 1.422413e+002
8.694265e+002, 1.415567e+002
8.699086e+002, 1.411044e+002
8.703907e+002, 1.409538e+002
8.708728e+002, 1.409359e+002
8.713549e+002, 1.409565e+002
8.718370e+002, 1.410062e+002
8.723192e+002, 1.409774e+002
8.728013e+002, 1.408658e+002
8.732834e+002, 1.406780e+002
8.737655e+002, 1.403088e+002
8.742476e+002, 1.399366e+002
8.747297e+002, 1.398287e+002
8.752119e+002, 1.400170e+002
8.756940e+002, 1.399457e+002
8.761761e+002, 1.391010e+002
8.766582e+002, 1.383697e+002
8.771403e+002, 1.381257e+002
8.776224e+002, 1.383342e+002
8.781046e+002, 1.386126e+002
8.785867e+002, 1.389757e+002
8.790688e+002, 1.390978e+002
8.795509e+002, 1.385556e+002
8.800330e+002, 1.377898e+002
8.805151e+002, 1.373459e+002
8.809973e+002, 1.372186e+002
8.814794e+002, 1.373726e+002
8.819615e+002, 1.384301e+002
8.824436e+002, 1.390779e+002
8.829257e+002, 1.384410e+002
8.834078e+002, 1.370727e+002
8.838900e+002, 1.365571e+002
8.843721e+002, 1.370515e+002
8.848542e+002, 1.375874e+002
8.853363e+002, 1.379330e+002
8.858184e+002, 1.380963e+002
8.863005e+002, 1.380323e+002
8.867827e+002, 1.377961e+002
8.872648e+002, 1.375139e+002
8.877469e+002, 1.370268e+002
8.882290e+002, 1.368109e+002
8.887111e+002, 1.372853e+002
8.891932e+002, 1.380773e+002
8.896754e+002, 1.386537e+002
8.901575e+002, 1.389756e+002
8.906396e+002, 1.391167e+002
8.911217e+002, 1.390259e+002
8.916038e+002, 1.388887e+002
8.920859e+002, 1.389456e+002
8.925681e+002, 1.391465e+002
8.930502e+002, 1.393373e+002
8.935323e+002, 1.394892e+002
8.940144e+002, 1.396539e+002
8.944965e+002, 1.398633e+002
8.949786e+002, 1.401009e+002
8.954608e+002, 1.403792e+002
8.959429e+002, 1.407479e+002
8.964250e+002, 1.409325e+002
8.969071e+002, 1.408549e+002
8.973892e+002, 1.407445e+002
8.978713e+002, 1.407352e+002
8.983535e+002, 1.408240e+002
8.988356e+002, 1.410116e+002
8.993177e+002, 1.412939e+002
8.997998e+002, 1.416125e+002
9.002819e+002, 1.420242e+002
9.007640e+002, 1.423810e+002
9.012462e+002, 1.425177e+002
9.017283e+002, 1.424595e+002
9.022104e+002, 1.425190e+002
9.026925e+002, 1.427886e+002
9.031746e+002, 1.430675e+002
9.036567e+002, 1.432705e+002
9.041389e+002, 1.434586e+002
9.046210e+002, 1.439402e+002
9.051031e+002, 1.446599e+002
9.055852e+002, 1.451126e+002
9.060673e+002, 1.448197e+002
9.065494e+002, 1.445524e+002
9.070316e+002, 1.452641e+002
9.075137e+002, 1.464377e+002
9.079958e+002, 1.471707e+002
9.084779e+002, 1.466693e+002
9.089600e+002, 1.464905e+002
9.094421e+002, 1.469118e+002
9.099243e+002, 1.475537e+002
9.104064e+002, 1.478617e+002
9.108885e+002, 1.478626e+002
9.113706e+002, 1.481148e+002
9.118527e+002, 1.487429e+002
9.123348e+002, 1.493604e+002
9.128170e+002, 1.495298e+002
9.132991e+002, 1.495179e+002
9.137812e+002, 1.496198e+002
9.142633e+002, 1.499010e+002
9.147454e+002, 1.502373e+002
9.152275e+002, 1.506594e+002
9.157097e+002, 1.510728e+002
9.161918e+002, 1.514279e+002
9.166739e+002, 1.517249e+002
9.171560e+002, 1.518957e+002
9.176381e+002, 1.519359e+002
9.181202e+002, 1.522056e+002
9.186024e+002, 1.532485e+002
9.190845e+002, 1.544458e+002
9.195666e+002, 1.550637e+002
9.200487e+002, 1.551802e+002
9.205308e+002, 1.553973e+002
9.210129e+002, 1.559965e+002
9.214951e+002, 1.565774e+002
9.219772e+002, 1.569787e+002
9.224593e+002, 1.573170e+002
9.229414e+002, 1.579556e+002
9.234235e+002, 1.588847e+002
9.239056e+002, 1.599843e+002
9.243878e+002, 1.613614e+002
9.248699e+002, 1.625990e+002
9.253520e+002, 1.630890e+002
9.258341e+002, 1.631691e+002
9.263162e+002, 1.633862e+002
9.267983e+002, 1.640014e+002
9.272805e+002, 1.645936e+002
9.277626e+002, 1.649606e+002
9.282447e+002, 1.654476e+002
9.287268e+002, 1.664941e+002
9.292089e+002, 1.681026e+002
9.296910e+002, 1.695494e+002
9.301732e+002, 1.707758e+002
9.306553e+002, 1.718328e+002
9.311374e+002, 1.724955e+002
9.316195e+002, 1.731697e+002
9.321016e+002, 1.743440e+002
9.325837e+002, 1.760650e+002
9.330659e+002, 1.780093e+002
9.335480e+002, 1.801815e+002
9.340301e+002, 1.824691e+002
9.345122e+002, 1.849117e+002
9.349943e+002, 1.874409e+002
9.354764e+002, 1.892738e+002
9.359586e+002, 1.904556e+002
9.364407e+002, 1.919406e+002
9.369228e+002, 1.944213e+002
9.374049e+002, 1.972829e+002
9.378870e+002, 1.998550e+002
9.383691e+002, 2.023288e+002
9.388513e+002, 2.050795e+002
9.393334e+002, 2.081848e+002
9.398155e+002, 2.117086e+002
9.402976e+002, 2.156465e+002
9.407797e+002, 2.199574e+002
9.412618e+002, 2.245907e+002
9.417440e+002, 2.295209e+002
9.422261e+002, 2.341824e+002
9.427082e+002, 2.383913e+002
9.431903e+002, 2.431148e+002
9.436724e+002, 2.493490e+002
9.441545e+002, 2.564710e+002
9.446367e+002, 2.639291e+002
9.451188e+002, 2.716049e+002
9.456009e+002, 2.794968e+002
9.460830e+002, 2.870007e+002
9.465651e+002, 2.955700e+002
9.470472e+002, 3.062962e+002
9.475294e+002, 3.190345e+002
9.480115e+002, 3.312405e+002
9.484936e+002, 3.430473e+002
9.489757e+002, 3.555350e+002
9.494578e+002, 3.692722e+002
9.499399e+002, 3.840488e+002
9.504221e+002, 3.998667e+002
9.509042e+002, 4.166809e+002
9.513863e+002, 4.339464e+002
9.518684e+002, 4.511520e+002
9.523505e+002, 4.698820e+002
9.528326e+002, 4.906586e+002
9.533148e+002, 5.128251e+002
9.537969e+002, 5.351091e+002
9.542790e+002, 5.576867e+002
9.547611e+002, 5.815519e+002
9.552432e+002, 6.070782e+002
9.557253e+002, 6.326393e+002
9.562075e+002, 6.572130e+002
9.566896e+002, 6.810461e+002
9.571717e+002, 7.048559e+002
9.576538e+002, 7.294905e+002
9.581359e+002, 7.517061e+002
9.586180e+002, 7.717399e+002
9.591002e+002, 7.888445e+002
9.595823e+002, 8.030871e+002
9.600644e+002, 8.139469e+002
9.605465e+002, 8.199079e+002
9.610286e+002, 8.208652e+002
9.615107e+002, 8.164031e+002
9.619929e+002, 8.056273e+002
9.624750e+002, 7.900312e+002
9.629571e+002, 7.689717e+002
9.634392e+002, 7.435457e+002
9.639213e+002, 7.169365e+002
9.644034e+002, 6.894538e+002
9.648856e+002, 6.603870e+002
9.653677e+002, 6.291401e+002
9.658498e+002, 5.969382e+002
9.663319e+002, 5.645437e+002
9.668140e+002, 5.326142e+002
9.672961e+002, 5.033417e+002
9.677783e+002, 4.772981e+002
9.682604e+002, 4.531673e+002
9.687425e+002, 4.303723e+002
9.692246e+002, 4.091940e+002
9.697067e+002, 3.892871e+002
9.701888e+002, 3.708085e+002
9.706710e+002, 3.550118e+002
9.711531e+002, 3.421657e+002
9.716352e+002, 3.305998e+002
9.721173e+002, 3.190114e+002
9.725994e+002, 3.081815e+002
9.730815e+002, 2.992364e+002
9.735637e+002, 2.920264e+002
9.740458e+002, 2.852661e+002
9.745279e+002, 2.780728e+002
9.750100e+002, 2.719420e+002
9.754921e+002, 2.674043e+002
9.759742e+002, 2.639786e+002
9.764564e+002, 2.604470e+002
9.769385e+002, 2.568098e+002
9.774206e+002, 2.535211e+002
9.779027e+002, 2.507031e+002
9.783848e+002, 2.483724e+002
9.788669e+002, 2.466942e+002
9.793491e+002, 2.454316e+002
9.798312e+002, 2.442132e+002
9.803133e+002, 2.426034e+002
9.807954e+002, 2.421606e+002
9.812775e+002, 2.433175e+002
9.817596e+002, 2.449350e+002
9.822418e+002, 2.460188e+002
9.827239e+002, 2.468285e+002
9.832060e+002, 2.487335e+002
9.836881e+002, 2.517067e+002
9.841702e+002, 2.554575e+002
9.846523e+002, 2.599875e+002
9.851345e+002, 2.650608e+002
9.856166e+002, 2.706857e+002
9.860987e+002, 2.767952e+002
9.865808e+002, 2.830555e+002
9.870629e+002, 2.893389e+002
9.875450e+002, 2.960485e+002
9.880272e+002, 3.030624e+002
9.885093e+002, 3.110493e+002
9.889914e+002, 3.208048e+002
9.894735e+002, 3.322415e+002
9.899556e+002, 3.450634e+002
9.904377e+002, 3.591149e+002
9.909199e+002, 3.749634e+002
9.914020e+002, 3.926319e+002
9.918841e+002, 4.125053e+002
9.923662e+002, 4.347963e+002
9.928483e+002, 4.591446e+002
9.933304e+002, 4.865375e+002
9.938126e+002, 5.171478e+002
9.942947e+002, 5.478497e+002
9.947768e+002, 5.782229e+002
9.952589e+002, 6.064656e+002
9.957410e+002, 6.325065e+002
9.962231e+002, 6.549178e+002
9.967053e+002, 6.704499e+002
9.971874e+002, 6.794385e+002
9.976695e+002, 6.784813e+002
9.981516e+002, 6.659012e+002
9.986337e+002, 6.447842e+002
9.991158e+002, 6.185146e+002
9.995980e+002, 5.871809e+002
1.000080e+003, 5.526925e+002
1.000562e+003, 5.144296e+002
1.001044e+003, 4.771654e+002
1.001526e+003, 4.434951e+002
1.002009e+003, 4.125479e+002
1.002491e+003, 3.839054e+002
1.002973e+003, 3.572731e+002
1.003455e+003, 3.340269e+002
1.003937e+003, 3.146407e+002
1.004419e+003, 2.971989e+002
1.004901e+003, 2.804973e+002
1.005383e+003, 2.652770e+002
1.005865e+003, 2.533002e+002
1.006348e+003, 2.439428e+002
1.006830e+003, 2.350687e+002
1.007312e+003, 2.253430e+002
1.007794e+003, 2.166396e+002
1.008276e+003, 2.097210e+002
1.008758e+003, 2.038785e+002
1.009240e+003, 1.983136e+002
1.009722e+003, 1.930065e+002
1.010205e+003, 1.885062e+002
1.010687e+003, 1.848251e+002
1.011169e+003, 1.816739e+002
1.011651e+003, 1.788337e+002
1.012133e+003, 1.762940e+002
1.012615e+003, 1.739748e+002
1.013097e+003, 1.718953e+002
1.013579e+003, 1.702774e+002
1.014061e+003, 1.694097e+002
1.014544e+003, 1.685781e+002
1.015026e+003, 1.676379e+002
1.015508e+003, 1.665641e+002
1.015990e+003, 1.651172e+002
1.016472e+003, 1.634307e+002
1.016954e+003, 1.620573e+002
1.017436e+003, 1.611813e+002
1.017918e+003, 1.605817e+002
1.018401e+003, 1.602470e+002
1.018883e+003, 1.600424e+002
1.019365e+003, 1.598403e+002
1.019847e+003, 1.596515e+002
1.020329e+003, 1.594034e+002
1.020811e+003, 1.591044e+002
1.021293e+003, 1.587065e+002
1.021775e+003, 1.580771e+002
1.022257e+003, 1.573831e+002
1.022740e+003, 1.568033e+002
1.023222e+003, 1.563717e+002
1.023704e+003, 1.561964e+002
1.024186e+003, 1.565478e+002
1.024668e+003, 1.568685e+002
1.025150e+003, 1.570494e+002
1.025632e+003, 1.571291e+002
1.026114e+003, 1.571658e+002
1.026596e+003, 1.571578e+002
1.027079e+003, 1.570948e+002
1.027561e+003, 1.569698e+002
1.028043e+003, 1.568281e+002
1.028525e+003, 1.566594e+002
1.029007e+003, 1.565246e+002
1.029489e+003, 1.565022e+002
1.029971e+003, 1.566071e+002
1.030453e+003, 1.566266e+002
1.030936e+003, 1.565071e+002
1.031418e+003, 1.564957e+002
1.031900e+003, 1.567496e+002
1.032382e+003, 1.571191e+002
1.032864e+003, 1.572420e+002
1.033346e+003, 1.572455e+002
1.033828e+003, 1.574344e+002
1.034310e+003, 1.580829e+002
1.034792e+003, 1.586717e+002
1.035275e+003, 1.590634e+002
1.035757e+003, 1.593569e+002
1.036239e+003, 1.595842e+002
1.036721e+003, 1.597443e+002
1.037203e+003, 1.601510e+002
1.037685e+003, 1.608078e+002
1.038167e+003, 1.615941e+002
1.038649e+003, 1.624671e+002
1.039132e+003, 1.633944e+002
1.039614e+003, 1.644742e+002
1.040096e+003, 1.656181e+002
1.040578e+003, 1.663937e+002
1.041060e+003, 1.665711e+002
1.041542e+003, 1.669539e+002
1.042024e+003, 1.676885e+002
1.042506e+003, 1.687177e+002
1.042989e+003, 1.701576e+002
1.043471e+003, 1.717912e+002
1.043953e+003, 1.731458e+002
1.044435e+003, 1.741016e+002
1.044917e+003, 1.750418e+002
1.045399e+003, 1.759740e+002
1.045881e+003, 1.770965e+002
1.046363e+003, 1.785718e+002
1.046845e+003, 1.803342e+002
1.047328e+003, 1.816472e+002
1.047810e+003, 1.825886e+002
1.048292e+003, 1.841812e+002
1.048774e+003, 1.874031e+002
1.049256e+003, 1.907775e+002
1.049738e+003, 1.928119e+002
1.050220e+003, 1.943464e+002
1.050702e+003, 1.968059e+002
1.051184e+003, 2.007778e+002
1.051667e+003, 2.044725e+002
1.052149e+003, 2.077910e+002
1.052631e+003, 2.110526e+002
1.053113e+003, 2.143493e+002
1.053595e+003, 2.179419e+002
1.054077e+003, 2.226319e+002
1.054559e+003, 2.282645e+002
1.055041e+003, 2.336533e+002
1.055523e+003, 2.379469e+002
1.056006e+003, 2.423720e+002
1.056488e+003, 2.471762e+002
1.056970e+003, 2.524123e+002
1.057452e+003, 2.583004e+002
1.057934e+003, 2.647829e+002
1.058416e+003, 2.712653e+002
1.058898e+003, 2.775943e+002
1.059380e+003, 2.842446e+002
1.059863e+003, 2.915653e+002
1.060345e+003, 2.992202e+002
1.060827e+003, 3.068130e+002
1.061309e+003, 3.143115e+002
1.061791e+003, 3.223850e+002
1.062273e+003, 3.310213e+002
1.062755e+003, 3.403161e+002
1.063237e+003, 3.502469e+002
1.063719e+003, 3.607891e+002
1.064202e+003, 3.719989e+002
1.064684e+003, 3.838788e+002
1.065166e+003, 3.964619e+002
1.065648e+003, 4.092695e+002
1.066130e+003, 4.235258e+002
1.066612e+003, 4.397019e+002
1.067094e+003, 4.567207e+002
1.067576e+003, 4.736507e+002
1.068059e+003, 4.907461e+002
1.068541e+003, 5.090770e+002
1.069023e+003, 5.284727e+002
1.069505e+003, 5.469755e+002
1.069987e+003, 5.648586e+002
1.070469e+003, 5.798795e+002
1.070951e+003, 5.911256e+002
1.071433e+003, 5.981720e+002
1.071916e+003, 5.999171e+002
1.072398e+003, 5.963262e+002
1.072880e+003, 5.874232e+002
1.073362e+003, 5.731181e+002
1.073844e+003, 5.546003e+002
1.074326e+003, 5.315449e+002
1.074808e+003, 5.061399e+002
1.075290e+003, 4.802813e+002
1.075772e+003, 4.542907e+002
1.076255e+003, 4.286172e+002
1.076737e+003, 4.028500e+002
1.077219e+003, 3.788525e+002
1.077701e+003, 3.573803e+002
1.078183e+003, 3.381563e+002
1.078665e+003, 3.207831e+002
1.079147e+003, 3.052057e+002
1.079629e+003, 2.914145e+002
1.080111e+003, 2.794482e+002
1.080594e+003, 2.687008e+002
1.081076e+003, 2.592176e+002
1.081558e+003, 2.506790e+002
1.082040e+003, 2.432528e+002
1.082522e+003, 2.368275e+002
1.083004e+003, 2.305703e+002
1.083486e+003, 2.244702e+002
1.083968e+003, 2.189154e+002
1.084450e+003, 2.141937e+002
1.084933e+003, 2.099832e+002
1.085415e+003, 2.061928e+002
1.085897e+003, 2.027823e+002
1.086379e+003, 1.995298e+002
1.086861e+003, 1.964133e+002
1.087343e+003, 1.935726e+002
1.087825e+003, 1.910059e+002
1.088307e+003, 1.887788e+002
1.088790e+003, 1.870769e+002
1.089272e+003, 1.856657e+002
1.089754e+003, 1.842685e+002
1.090236e+003, 1.828801e+002
1.090718e+003, 1.815526e+002
1.091200e+003, 1.802600e+002
1.091682e+003, 1.790979e+002
1.092164e+003, 1.781139e+002
1.092646e+003, 1.772082e+002
1.093129e+003, 1.761659e+002
1.093611e+003, 1.750940e+002
1.094093e+003, 1.742764e+002
1.094575e+003, 1.737731e+002
1.095057e+003, 1.732376e+002
1.095539e+003, 1.723689e+002
1.096021e+003, 1.716007e+002
1.096503e+003, 1.710847e+002
1.096986e+003, 1.708207e+002
1.097468e+003, 1.708418e+002
1.097950e+003, 1.711264e+002
1.098432e+003, 1.715178e+002
1.098914e+003, 1.720737e+002
1.099396e+003, 1.724392e+002
1.099878e+003, 1.721553e+002
1.100360e+003, 1.716875e+002
1.100843e+003, 1.714885e+002
1.101325e+003, 1.715813e+002
1.101807e+003, 1.718043e+002
1.102289e+003, 1.721690e+002
1.102771e+003, 1.725449e+002
1.103253e+003, 1.726954e+002
1.103735e+003, 1.729753e+002
1.104217e+003, 1.740413e+002
1.104699e+003, 1.754824e+002
1.105182e+003, 1.765250e+002
1.105664e+003, 1.767971e+002
1.106146e+003, 1.769970e+002
1.106628e+003, 1.770146e+002
1.107110e+003, 1.772959e+002
1.107592e+003, 1.784444e+002
1.108074e+003, 1.800642e+002
1.108556e+003, 1.813475e+002
1.109038e+003, 1.823390e+002
1.109521e+003, 1.834680e+002
1.110003e+003, 1.849194e+002
1.110485e+003, 1.865517e+002
1.110967e+003, 1.885034e+002
1.111449e+003, 1.904245e+002
1.111931e+003, 1.915193e+002
1.112413e+003, 1.920828e+002
1.112895e+003, 1.936476e+002
1.113377e+003, 1.964243e+002
1.113860e+003, 1.990216e+002
1.114342e+003, 2.003376e+002
1.114824e+003, 2.015046e+002
1.115306e+003, 2.030141e+002
1.115788e+003, 2.048669e+002
1.116270e+003, 2.071479e+002
1.116752e+003, 2.098657e+002
1.117234e+003, 2.124517e+002
1.117717e+003, 2.147325e+002
1.118199e+003, 2.169821e+002
1.118681e+003, 2.194600e+002
1.119163e+003, 2.220097e+002
1.119645e+003, 2.243329e+002
1.120127e+003, 2.263870e+002
1.120609e+003, 2.293456e+002
1.121091e+003, 2.333186e+002
1.121573e+003, 2.375037e+002
1.122056e+003, 2.416336e+002
1.122538e+003, 2.456804e+002
1.123020e+003, 2.494164e+002
1.123502e+003, 2.532284e+002
1.123984e+003, 2.577733e+002
1.124466e+003, 2.635391e+002
1.124948e+003, 2.692651e+002
1.125430e+003, 2.748498e+002
1.125913e+003, 2.806089e+002
1.126395e+003, 2.868855e+002
1.126877e+003, 2.934397e+002
1.127359e+003, 2.997029e+002
1.127841e+003, 3.058267e+002
1.128323e+003, 3.121595e+002
1.128805e+003, 3.191591e+002
1.129287e+003, 3.259462e+002
1.129770e+003, 3.326434e+002
1.130252e+003, 3.387799e+002
1.130734e+003, 3.438595e+002
1.131216e+003, 3.480239e+002
1.131698e+003, 3.522068e+002
1.132180e+003, 3.563228e+002
1.132662e+003, 3.595101e+002
1.133144e+003, 3.616067e+002
1.133626e+003, 3.622659e+002
1.134109e+003, 3.615368e+002
1.134591e+003, 3.593153e+002
1.135073e+003, 3.552155e+002
1.135555e+003, 3.493309e+002
1.136037e+003, 3.423765e+002
1.136519e+003, 3.344056e+002
1.137001e+003, 3.253302e+002
1.137483e+003, 3.143955e+002
1.137965e+003, 3.030253e+002
1.138448e+003, 2.918039e+002
1.138930e+003, 2.808065e+002
1.139412e+003, 2.703842e+002
1.139894e+003, 2.604449e+002
1.140376e+003, 2.514078e+002
1.140858e+003, 2.433942e+002
1.141340e+003, 2.361046e+002
1.141822e+003, 2.292008e+002
1.142304e+003, 2.228530e+002
1.142787e+003, 2.172044e+002
1.143269e+003, 2.123035e+002
1.143751e+003, 2.075417e+002
1.144233e+003, 2.028295e+002
1.144715e+003, 1.989943e+002
1.145197e+003, 1.966012e+002
1.145679e+003, 1.947214e+002
1.146161e+003, 1.921711e+002
1.146644e+003, 1.894665e+002
1.147126e+003, 1.872752e+002
1.147608e+003, 1.858587e+002
1.148090e+003, 1.845422e+002
1.148572e+003, 1.833753e+002
1.149054e+003, 1.821167e+002
1.149536e+003, 1.806782e+002
1.150018e+003, 1.790526e+002
1.150500e+003, 1.770372e+002
1.150983e+003, 1.748493e+002
1.151465e+003, 1.729223e+002
1.151947e+003, 1.715965e+002
1.152429e+003, 1.700683e+002
1.152911e+003, 1.682235e+002
1.153393e+003, 1.663075e+002
1.153875e+003, 1.644344e+002
1.154357e+003, 1.626384e+002
1.154840e+003, 1.610504e+002
1.155322e+003, 1.596104e+002
1.155804e+003, 1.582037e+002
1.156286e+003, 1.566101e+002
1.156768e+003, 1.552841e+002
1.157250e+003, 1.542871e+002
1.157732e+003, 1.535315e+002
1.158214e+003, 1.530099e+002
1.158697e+003, 1.526604e+002
1.159179e+003, 1.522314e+002
1.159661e+003, 1.517260e+002
1.160143e+003, 1.512153e+002
1.160625e+003, 1.507715e+002
1.161107e+003, 1.502690e+002
1.161589e+003, 1.495408e+002
1.162071e+003, 1.488604e+002
1.162553e+003, 1.486516e+002
1.163036e+003, 1.488397e+002
1.163518e+003, 1.488903e+002
1.164000e+003, 1.487704e+002
1.164482e+003, 1.486087e+002
1.164964e+003, 1.484150e+002
1.165446e+003, 1.482802e+002
1.165928e+003, 1.483358e+002
1.166410e+003, 1.484312e+002
1.166892e+003, 1.482617e+002
1.167375e+003, 1.478452e+002
1.167857e+003, 1.474253e+002
1.168339e+003, 1.470292e+002
1.168821e+003, 1.467099e+002
1.169303e+003, 1.464142e+002
1.169785e+003, 1.462962e+002
1.170267e+003, 1.466140e+002
1.170749e+003, 1.471584e+002
1.171231e+003, 1.473241e+002
1.171714e+003, 1.471137e+002
1.172196e+003, 1.469181e+002
1.172678e+003, 1.468133e+002
1.173160e+003, 1.467645e+002
1.173642e+003, 1.467497e+002
1.174124e+003, 1.467743e+002
1.174606e+003, 1.469186e+002
1.175088e+003, 1.471290e+002
1.175571e+003, 1.469946e+002
1.176053e+003, 1.464868e+002
1.176535e+003, 1.462309e+002
1.177017e+003, 1.464577e+002
1.177499e+003, 1.467940e+002
1.177981e+003, 1.470484e+002
1.178463e+003, 1.471174e+002
1.178945e+003, 1.467813e+002
1.179427e+003, 1.460443e+002
1.179910e+003, 1.457123e+002
1.180392e+003, 1.458448e+002
1.180874e+003, 1.456852e+002
1.181356e+003, 1.447418e+002
1.181838e+003, 1.438783e+002
1.182320e+003, 1.442770e+002
1.182802e+003, 1.451267e+002
1.183284e+003, 1.454011e+002
1.183767e+003, 1.448923e+002
1.184249e+003, 1.448441e+002
1.184731e+003, 1.453362e+002
1.185213e+003, 1.457462e+002
1.185695e+003, 1.457492e+002
1.186177e+003, 1.455754e+002
1.186659e+003, 1.453555e+002
1.187141e+003, 1.451924e+002
1.187624e+003, 1.452953e+002
1.188106e+003, 1.458538e+002
1.188588e+003, 1.459729e+002
1.189070e+003, 1.455774e+002
1.189552e+003, 1.451789e+002
1.190034e+003, 1.450550e+002
1.190516e+003, 1.451059e+002
1.190998e+003, 1.453532e+002
1.191480e+003, 1.456384e+002
1.191963e+003, 1.456420e+002
1.192445e+003, 1.449654e+002
1.192927e+003, 1.450478e+002
1.193409e+003, 1.460855e+002
1.193891e+003, 1.469716e+002
1.194373e+003, 1.467111e+002
1.194855e+003, 1.460390e+002
1.195337e+003, 1.458154e+002
1.195819e+003, 1.459501e+002
1.196302e+003, 1.462843e+002
1.196784e+003, 1.471224e+002
1.197266e+003, 1.472731e+002
1.197748e+003, 1.465425e+002
1.198230e+003, 1.458557e+002
1.198712e+003, 1.461833e+002
1.199194e+003, 1.468347e+002
1.199676e+003, 1.467785e+002
1.200158e+003, 1.462773e+002
1.200641e+003, 1.461020e+002
1.201123e+003, 1.465909e+002
1.201605e+003, 1.468728e+002
1.202087e+003, 1.468564e+002
1.202569e+003, 1.468265e+002
1.203051e+003, 1.471474e+002
1.203533e+003, 1.475339e+002
1.204015e+003, 1.474870e+002
1.204498e+003, 1.471623e+002
1.204980e+003, 1.471808e+002
1.205462e+003, 1.479086e+002
1.205944e+003, 1.482696e+002
1.206426e+003, 1.481223e+002
1.206908e+003, 1.478061e+002
1.207390e+003, 1.475766e+002
1.207872e+003, 1.474319e+002
1.208354e+003, 1.473758e+002
1.208837e+003, 1.474013e+002
1.209319e+003, 1.474946e+002
1.209801e+003, 1.477094e+002
1.210283e+003, 1.478306e+002
1.210765e+003, 1.478244e+002
1.211247e+003, 1.477524e+002
1.211729e+003, 1.475364e+002
1.212211e+003, 1.473886e+002
1.212694e+003, 1.476668e+002
1.213176e+003, 1.483057e+002
1.213658e+003, 1.488296e+002
1.214140e+003, 1.492428e+002
1.214622e+003, 1.494041e+002
1.215104e+003, 1.492685e+002
1.215586e+003, 1.489964e+002
1.216068e+003, 1.486952e+002
1.216551e+003, 1.484027e+002
1.217033e+003, 1.480536e+002
1.217515e+003, 1.477156e+002
1.217997e+003, 1.479165e+002
1.218479e+003, 1.489471e+002
1.218961e+003, 1.495170e+002
1.219443e+003, 1.493441e+002
1.219925e+003, 1.489466e+002
1.220407e+003, 1.487726e+002
1.220890e+003, 1.487877e+002
1.221372e+003, 1.491366e+002
1.221854e+003, 1.497174e+002
1.222336e+003, 1.496557e+002
1.222818e+003, 1.487176e+002
1.223300e+003, 1.479677e+002
1.223782e+003, 1.475955e+002
1.224264e+003, 1.475290e+002
1.224746e+003, 1.478994e+002
1.225229e+003, 1.483818e+002
1.225711e+003, 1.486066e+002
1.226193e+003, 1.485769e+002
1.226675e+003, 1.487128e+002
1.227157e+003, 1.490757e+002
1.227639e+003, 1.492709e+002
1.228121e+003, 1.491871e+002
1.228603e+003, 1.490520e+002
1.229085e+003, 1.491073e+002
1.229568e+003, 1.492280e+002
1.230050e+003, 1.493318e+002
1.230532e+003, 1.493937e+002
1.231014e+003, 1.492695e+002
1.231496e+003, 1.489175e+002
1.231978e+003, 1.487791e+002
1.232460e+003, 1.490063e+002
1.232942e+003, 1.492074e+002
1.233425e+003, 1.489446e+002
1.233907e+003, 1.485357e+002
1.234389e+003, 1.481890e+002
1.234871e+003, 1.479427e+002
1.235353e+003, 1.479776e+002
1.235835e+003, 1.483057e+002
1.236317e+003, 1.486611e+002
1.236799e+003, 1.489979e+002
1.237281e+003, 1.492486e+002
1.237764e+003, 1.493769e+002
1.238246e+003, 1.493808e+002
1.238728e+003, 1.491703e+002
1.239210e+003, 1.488319e+002
1.239692e+003, 1.488100e+002
1.240174e+003, 1.490808e+002
1.240656e+003, 1.488851e+002
1.241138e+003, 1.479169e+002
1.241621e+003, 1.472306e+002
1.242103e+003, 1.479043e+002
1.242585e+003, 1.488681e+002
1.243067e+003, 1.494870e+002
1.243549e+003, 1.497796e+002
1.244031e+003, 1.497289e+002
1.244513e+003, 1.493904e+002
1.244995e+003, 1.492379e+002
1.245478e+003, 1.494070e+002
1.245960e+003, 1.495956e+002
1.246442e+003, 1.495463e+002
1.246924e+003, 1.495589e+002
1.247406e+003, 1.498735e+002
1.247888e+003, 1.503165e+002
1.248370e+003, 1.502067e+002
1.248852e+003, 1.497174e+002
1.249334e+003, 1.496918e+002
1.249817e+003, 1.504324e+002
1.250299e+003, 1.508593e+002
1.250781e+003, 1.499478e+002
1.251263e+003, 1.492360e+002
1.251745e+003, 1.494637e+002
1.252227e+003, 1.501737e+002
1.252709e+003, 1.501994e+002
1.253191e+003, 1.497673e+002
1.253673e+003, 1.494994e+002
1.254156e+003, 1.495135e+002
1.254638e+003, 1.497810e+002
1.255120e+003, 1.506765e+002
1.255602e+003, 1.512060e+002
1.256084e+003, 1.508765e+002
1.256566e+003, 1.502170e+002
1.257048e+003, 1.503752e+002
1.257530e+003, 1.509816e+002
1.258012e+003, 1.512487e+002
1.258495e+003, 1.510007e+002
1.258977e+003, 1.508548e+002
1.259459e+003, 1.509073e+002
1.259941e+003, 1.510901e+002
1.260423e+003, 1.514889e+002
1.260905e+003, 1.517742e+002
1.261387e+003, 1.510181e+002
1.261869e+003, 1.500073e+002
1.262352e+003, 1.501331e+002
1.262834e+003, 1.516895e+002
1.263316e+003, 1.522634e+002
1.263798e+003, 1.514250e+002
1.264280e+003, 1.507757e+002
1.264762e+003, 1.508088e+002
1.265244e+003, 1.511442e+002
1.265726e+003, 1.513338e+002
1.266208e+003, 1.515600e+002
1.266691e+003, 1.522135e+002
1.267173e+003, 1.532768e+002
1.267655e+003, 1.534277e+002
1.268137e+003, 1.525358e+002
1.268619e+003, 1.518407e+002
1.269101e+003, 1.517087e+002
1.269583e+003, 1.516873e+002
1.270065e+003, 1.510899e+002
1.270548e+003, 1.506138e+002
1.271030e+003, 1.511836e+002
1.271512e+003, 1.524630e+002
1.271994e+003, 1.529063e+002
1.272476e+003, 1.525303e+002
1.272958e+003, 1.522464e+002
1.273440e+003, 1.522879e+002
1.273922e+003, 1.522236e+002
1.274405e+003, 1.514640e+002
1.274887e+003, 1.508046e+002
1.275369e+003, 1.507644e+002
1.275851e+003, 1.511350e+002
1.276333e+003, 1.513565e+002
1.276815e+003, 1.514574e+002
1.277297e+003, 1.515942e+002
1.277779e+003, 1.517973e+002
1.278261e+003, 1.519769e+002
1.278744e+003, 1.520839e+002
1.279226e+003, 1.521472e+002
1.279708e+003, 1.521607e+002
1.280190e+003, 1.521561e+002
1.280672e+003, 1.521803e+002
1.281154e+003, 1.522397e+002
1.281636e+003, 1.523648e+002
1.282118e+003, 1.525593e+002
1.282600e+003, 1.527548e+002
1.283083e+003, 1.530468e+002
1.283565e+003, 1.531070e+002
1.284047e+003, 1.527863e+002
1.284529e+003, 1.523827e+002
1.285011e+003, 1.523782e+002
1.285493e+003, 1.525430e+002
1.285975e+003, 1.524495e+002
1.286457e+003, 1.520993e+002
1.286939e+003, 1.521013e+002
1.287422e+003, 1.525870e+002
1.287904e+003, 1.531651e+002
1.288386e+003, 1.538406e+002
1.288868e+003, 1.542193e+002
1.289350e+003, 1.535205e+002
1.289832e+003, 1.525895e+002
1.290314e+003, 1.523280e+002
1.290796e+003, 1.526490e+002
1.291279e+003, 1.527936e+002
1.291761e+003, 1.527478e+002
1.292243e+003, 1.525895e+002
1.292725e+003, 1.523132e+002
1.293207e+003, 1.521523e+002
1.293689e+003, 1.523931e+002
1.294171e+003, 1.527099e+002
1.294653e+003, 1.529809e+002
1.295135e+003, 1.531234e+002
1.295618e+003, 1.528772e+002
1.296100e+003, 1.523056e+002
1.296582e+003, 1.520480e+002
1.297064e+003, 1.521687e+002
1.297546e+003, 1.524155e+002
1.298028e+003, 1.529363e+002
1.298510e+003, 1.530524e+002
1.298992e+003, 1.523262e+002
1.299475e+003, 1.515168e+002
1.299957e+003, 1.517275e+002
1.300439e+003, 1.526412e+002
1.300921e+003, 1.533953e+002
1.301403e+003, 1.539399e+002
1.301885e+003, 1.543700e+002
##END=



