##NAMES=Goethite
##RRUFFID=R120086
##IDEAL CHEMISTRY=Fe^3+^O(OH)
##LOCALITY=Alexander mine, Vrancice, Příbram, Central Bohemia Region, Bohemia, Czech Republic
##OWNER=RRUFF
##SOURCE=Michael Scott
##DESCRIPTION=Elongated black crystals, associated with R070363, čechite
##STATUS=The identification of this mineral has been confirmed only by single crystal X-ray diffraction.
##URL=rruff.info/R120086
9.001007e+001, 0.000000e+000
9.049219e+001, 9.353503e+001
9.097430e+001, 9.436015e+001
9.145642e+001, 9.410983e+001
9.193854e+001, 9.288509e+001
9.242065e+001, 9.152829e+001
9.290277e+001, 9.077579e+001
9.338489e+001, 9.040359e+001
9.386700e+001, 8.990038e+001
9.434912e+001, 8.912695e+001
9.483124e+001, 8.810448e+001
9.531335e+001, 8.677085e+001
9.579547e+001, 8.507561e+001
9.627759e+001, 8.339798e+001
9.675970e+001, 8.202219e+001
9.724182e+001, 8.096896e+001
9.772394e+001, 8.040527e+001
9.820605e+001, 8.063411e+001
9.868817e+001, 8.157567e+001
9.917029e+001, 8.228281e+001
9.965240e+001, 8.281496e+001
1.001345e+002, 8.300301e+001
1.006166e+002, 8.243214e+001
1.010988e+002, 8.098141e+001
1.015809e+002, 7.927314e+001
1.020630e+002, 7.752074e+001
1.025451e+002, 7.561135e+001
1.030272e+002, 7.420422e+001
1.035093e+002, 7.355201e+001
1.039915e+002, 7.340828e+001
1.044736e+002, 7.259506e+001
1.049557e+002, 7.061553e+001
1.054378e+002, 6.869472e+001
1.059199e+002, 6.777171e+001
1.064020e+002, 6.864433e+001
1.068842e+002, 6.900513e+001
1.073663e+002, 6.834695e+001
1.078484e+002, 6.665610e+001
1.083305e+002, 6.549381e+001
1.088126e+002, 6.526114e+001
1.092947e+002, 6.533894e+001
1.097769e+002, 6.516061e+001
1.102590e+002, 6.460280e+001
1.107411e+002, 6.391221e+001
1.112232e+002, 6.317607e+001
1.117053e+002, 6.246200e+001
1.121874e+002, 6.142212e+001
1.126696e+002, 5.936048e+001
1.131517e+002, 5.713159e+001
1.136338e+002, 5.584271e+001
1.141159e+002, 5.677973e+001
1.145980e+002, 5.776426e+001
1.150801e+002, 5.786391e+001
1.155623e+002, 5.635992e+001
1.160444e+002, 5.545720e+001
1.165265e+002, 5.653392e+001
1.170086e+002, 5.864298e+001
1.174907e+002, 5.978192e+001
1.179728e+002, 5.848180e+001
1.184550e+002, 5.646795e+001
1.189371e+002, 5.478588e+001
1.194192e+002, 5.361831e+001
1.199013e+002, 5.287406e+001
1.203834e+002, 5.290695e+001
1.208655e+002, 5.347585e+001
1.213477e+002, 5.363741e+001
1.218298e+002, 5.230348e+001
1.223119e+002, 5.049248e+001
1.227940e+002, 4.932668e+001
1.232761e+002, 4.983554e+001
1.237582e+002, 5.049523e+001
1.242404e+002, 4.971429e+001
1.247225e+002, 4.761514e+001
1.252046e+002, 4.570320e+001
1.256867e+002, 4.531673e+001
1.261688e+002, 4.592500e+001
1.266509e+002, 4.657426e+001
1.271331e+002, 4.713068e+001
1.276152e+002, 4.743389e+001
1.280973e+002, 4.706195e+001
1.285794e+002, 4.596164e+001
1.290615e+002, 4.483216e+001
1.295436e+002, 4.451758e+001
1.300258e+002, 4.485419e+001
1.305079e+002, 4.512935e+001
1.309900e+002, 4.498102e+001
1.314721e+002, 4.451618e+001
1.319542e+002, 4.409645e+001
1.324363e+002, 4.377645e+001
1.329185e+002, 4.336717e+001
1.334006e+002, 4.238860e+001
1.338827e+002, 4.083570e+001
1.343648e+002, 3.957289e+001
1.348469e+002, 3.920748e+001
1.353290e+002, 3.966936e+001
1.358112e+002, 3.991758e+001
1.362933e+002, 3.981927e+001
1.367754e+002, 3.953992e+001
1.372575e+002, 3.942367e+001
1.377396e+002, 3.946971e+001
1.382217e+002, 3.968959e+001
1.387039e+002, 4.027358e+001
1.391860e+002, 4.135756e+001
1.396681e+002, 4.180328e+001
1.401502e+002, 4.133167e+001
1.406323e+002, 4.015701e+001
1.411144e+002, 3.920776e+001
1.415966e+002, 3.858805e+001
1.420787e+002, 3.798773e+001
1.425608e+002, 3.712824e+001
1.430429e+002, 3.586987e+001
1.435250e+002, 3.474987e+001
1.440071e+002, 3.381253e+001
1.444893e+002, 3.306857e+001
1.449714e+002, 3.263892e+001
1.454535e+002, 3.273945e+001
1.459356e+002, 3.294689e+001
1.464177e+002, 3.283554e+001
1.468998e+002, 3.206033e+001
1.473820e+002, 3.151006e+001
1.478641e+002, 3.140879e+001
1.483462e+002, 3.183841e+001
1.488283e+002, 3.215966e+001
1.493104e+002, 3.248260e+001
1.497925e+002, 3.264824e+001
1.502747e+002, 3.245721e+001
1.507568e+002, 3.120089e+001
1.512389e+002, 3.032324e+001
1.517210e+002, 3.029565e+001
1.522031e+002, 3.155041e+001
1.526852e+002, 3.227784e+001
1.531674e+002, 3.171070e+001
1.536495e+002, 3.076623e+001
1.541316e+002, 3.076647e+001
1.546137e+002, 3.373568e+001
1.550958e+002, 3.600970e+001
1.555779e+002, 3.615905e+001
1.560601e+002, 3.283410e+001
1.565422e+002, 3.031946e+001
1.570243e+002, 2.984561e+001
1.575064e+002, 3.056705e+001
1.579885e+002, 3.084655e+001
1.584706e+002, 2.954939e+001
1.589528e+002, 2.830454e+001
1.594349e+002, 2.787433e+001
1.599170e+002, 2.860019e+001
1.603991e+002, 2.974735e+001
1.608812e+002, 3.175232e+001
1.613633e+002, 3.411292e+001
1.618455e+002, 3.551100e+001
1.623276e+002, 3.442447e+001
1.628097e+002, 3.287608e+001
1.632918e+002, 3.217766e+001
1.637739e+002, 3.329930e+001
1.642560e+002, 3.439472e+001
1.647382e+002, 3.420362e+001
1.652203e+002, 3.316606e+001
1.657024e+002, 3.296579e+001
1.661845e+002, 3.506520e+001
1.666666e+002, 3.807653e+001
1.671487e+002, 4.076078e+001
1.676309e+002, 4.290987e+001
1.681130e+002, 4.453911e+001
1.685951e+002, 4.538853e+001
1.690772e+002, 4.557899e+001
1.695593e+002, 4.581273e+001
1.700414e+002, 4.655139e+001
1.705236e+002, 4.755843e+001
1.710057e+002, 4.852374e+001
1.714878e+002, 4.885374e+001
1.719699e+002, 4.949696e+001
1.724520e+002, 5.162551e+001
1.729341e+002, 5.512211e+001
1.734163e+002, 5.840123e+001
1.738984e+002, 5.982117e+001
1.743805e+002, 6.032347e+001
1.748626e+002, 6.142937e+001
1.753447e+002, 6.470921e+001
1.758268e+002, 6.837065e+001
1.763090e+002, 7.006197e+001
1.767911e+002, 6.975029e+001
1.772732e+002, 6.940117e+001
1.777553e+002, 7.070032e+001
1.782374e+002, 7.292728e+001
1.787195e+002, 7.476421e+001
1.792017e+002, 7.527934e+001
1.796838e+002, 7.526409e+001
1.801659e+002, 7.604088e+001
1.806480e+002, 7.767801e+001
1.811301e+002, 7.931932e+001
1.816122e+002, 7.999780e+001
1.820944e+002, 7.997102e+001
1.825765e+002, 8.006379e+001
1.830586e+002, 8.074136e+001
1.835407e+002, 8.176688e+001
1.840228e+002, 8.257589e+001
1.845049e+002, 8.308540e+001
1.849871e+002, 8.375437e+001
1.854692e+002, 8.540523e+001
1.859513e+002, 8.784209e+001
1.864334e+002, 8.991725e+001
1.869155e+002, 9.079990e+001
1.873976e+002, 9.087849e+001
1.878798e+002, 9.152272e+001
1.883619e+002, 9.285838e+001
1.888440e+002, 9.443344e+001
1.893261e+002, 9.551516e+001
1.898082e+002, 9.615826e+001
1.902903e+002, 9.696388e+001
1.907725e+002, 9.828585e+001
1.912546e+002, 1.000678e+002
1.917367e+002, 1.019458e+002
1.922188e+002, 1.039814e+002
1.927009e+002, 1.059337e+002
1.931830e+002, 1.071869e+002
1.936652e+002, 1.077318e+002
1.941473e+002, 1.084546e+002
1.946294e+002, 1.100711e+002
1.951115e+002, 1.124755e+002
1.955936e+002, 1.142413e+002
1.960757e+002, 1.151702e+002
1.965579e+002, 1.156421e+002
1.970400e+002, 1.164238e+002
1.975221e+002, 1.175588e+002
1.980042e+002, 1.185450e+002
1.984863e+002, 1.190874e+002
1.989684e+002, 1.191809e+002
1.994506e+002, 1.191079e+002
1.999327e+002, 1.187727e+002
2.004148e+002, 1.184258e+002
2.008969e+002, 1.186103e+002
2.013790e+002, 1.193551e+002
2.018611e+002, 1.204698e+002
2.023433e+002, 1.221045e+002
2.028254e+002, 1.243678e+002
2.033075e+002, 1.257781e+002
2.037896e+002, 1.259318e+002
2.042717e+002, 1.254181e+002
2.047538e+002, 1.258801e+002
2.052360e+002, 1.276014e+002
2.057181e+002, 1.292393e+002
2.062002e+002, 1.297945e+002
2.066823e+002, 1.290051e+002
2.071644e+002, 1.289343e+002
2.076465e+002, 1.300931e+002
2.081287e+002, 1.318783e+002
2.086108e+002, 1.323123e+002
2.090929e+002, 1.309071e+002
2.095750e+002, 1.294961e+002
2.100571e+002, 1.293068e+002
2.105392e+002, 1.306177e+002
2.110214e+002, 1.318219e+002
2.115035e+002, 1.328173e+002
2.119856e+002, 1.336045e+002
2.124677e+002, 1.341402e+002
2.129498e+002, 1.342728e+002
2.134319e+002, 1.345036e+002
2.139140e+002, 1.351807e+002
2.143962e+002, 1.364365e+002
2.148783e+002, 1.376793e+002
2.153604e+002, 1.388488e+002
2.158425e+002, 1.399707e+002
2.163246e+002, 1.411487e+002
2.168067e+002, 1.425466e+002
2.172889e+002, 1.437073e+002
2.177710e+002, 1.443032e+002
2.182531e+002, 1.441286e+002
2.187352e+002, 1.439589e+002
2.192173e+002, 1.437053e+002
2.196994e+002, 1.435003e+002
2.201816e+002, 1.440171e+002
2.206637e+002, 1.455146e+002
2.211458e+002, 1.472843e+002
2.216279e+002, 1.488002e+002
2.221100e+002, 1.497725e+002
2.225921e+002, 1.513263e+002
2.230743e+002, 1.538153e+002
2.235564e+002, 1.569655e+002
2.240385e+002, 1.595371e+002
2.245206e+002, 1.610591e+002
2.250027e+002, 1.626615e+002
2.254848e+002, 1.650417e+002
2.259670e+002, 1.683826e+002
2.264491e+002, 1.720375e+002
2.269312e+002, 1.760839e+002
2.274133e+002, 1.804182e+002
2.278954e+002, 1.847199e+002
2.283775e+002, 1.887346e+002
2.288597e+002, 1.929670e+002
2.293418e+002, 1.977629e+002
2.298239e+002, 2.035362e+002
2.303060e+002, 2.089041e+002
2.307881e+002, 2.137847e+002
2.312702e+002, 2.181828e+002
2.317524e+002, 2.218555e+002
2.322345e+002, 2.244011e+002
2.327166e+002, 2.267193e+002
2.331987e+002, 2.292434e+002
2.336808e+002, 2.318636e+002
2.341629e+002, 2.349012e+002
2.346451e+002, 2.384180e+002
2.351272e+002, 2.423761e+002
2.356093e+002, 2.467190e+002
2.360914e+002, 2.516344e+002
2.365735e+002, 2.566720e+002
2.370556e+002, 2.614990e+002
2.375378e+002, 2.656512e+002
2.380199e+002, 2.705821e+002
2.385020e+002, 2.762368e+002
2.389841e+002, 2.827462e+002
2.394662e+002, 2.903942e+002
2.399483e+002, 2.991870e+002
2.404305e+002, 3.091325e+002
2.409126e+002, 3.203928e+002
2.413947e+002, 3.333542e+002
2.418768e+002, 3.468517e+002
2.423589e+002, 3.611670e+002
2.428410e+002, 3.759158e+002
2.433232e+002, 3.901821e+002
2.438053e+002, 4.044837e+002
2.442874e+002, 4.174953e+002
2.447695e+002, 4.286550e+002
2.452516e+002, 4.388931e+002
2.457337e+002, 4.455542e+002
2.462159e+002, 4.493987e+002
2.466980e+002, 4.494843e+002
2.471801e+002, 4.427633e+002
2.476622e+002, 4.281553e+002
2.481443e+002, 4.082904e+002
2.486264e+002, 3.839376e+002
2.491086e+002, 3.524638e+002
2.495907e+002, 3.223379e+002
2.500728e+002, 2.930903e+002
2.505549e+002, 2.654387e+002
2.510370e+002, 2.412641e+002
2.515191e+002, 2.206025e+002
2.520013e+002, 2.033146e+002
2.524834e+002, 1.892939e+002
2.529655e+002, 1.792187e+002
2.534476e+002, 1.710492e+002
2.539297e+002, 1.651460e+002
2.544118e+002, 1.609997e+002
2.548940e+002, 1.574255e+002
2.553761e+002, 1.545807e+002
2.558582e+002, 1.520131e+002
2.563403e+002, 1.495110e+002
2.568224e+002, 1.469365e+002
2.573046e+002, 1.449327e+002
2.577867e+002, 1.437301e+002
2.582688e+002, 1.429634e+002
2.587509e+002, 1.419271e+002
2.592330e+002, 1.405110e+002
2.597151e+002, 1.390686e+002
2.601973e+002, 1.377322e+002
2.606794e+002, 1.365623e+002
2.611615e+002, 1.352753e+002
2.616436e+002, 1.336634e+002
2.621257e+002, 1.321281e+002
2.626078e+002, 1.314727e+002
2.630900e+002, 1.321013e+002
2.635721e+002, 1.326614e+002
2.640542e+002, 1.326252e+002
2.645363e+002, 1.318644e+002
2.650184e+002, 1.314151e+002
2.655005e+002, 1.314236e+002
2.659827e+002, 1.315679e+002
2.664648e+002, 1.312644e+002
2.669469e+002, 1.302152e+002
2.674290e+002, 1.296121e+002
2.679111e+002, 1.300290e+002
2.683932e+002, 1.315676e+002
2.688754e+002, 1.323297e+002
2.693575e+002, 1.320850e+002
2.698396e+002, 1.314149e+002
2.703217e+002, 1.308983e+002
2.708038e+002, 1.303887e+002
2.712859e+002, 1.306300e+002
2.717681e+002, 1.321608e+002
2.722502e+002, 1.349001e+002
2.727323e+002, 1.365336e+002
2.732144e+002, 1.367397e+002
2.736965e+002, 1.364318e+002
2.741786e+002, 1.365932e+002
2.746608e+002, 1.373291e+002
2.751429e+002, 1.379468e+002
2.756250e+002, 1.381420e+002
2.761071e+002, 1.380336e+002
2.765892e+002, 1.386151e+002
2.770714e+002, 1.400059e+002
2.775535e+002, 1.417211e+002
2.780356e+002, 1.432833e+002
2.785177e+002, 1.446552e+002
2.789998e+002, 1.462304e+002
2.794819e+002, 1.480278e+002
2.799641e+002, 1.501039e+002
2.804462e+002, 1.525771e+002
2.809283e+002, 1.554181e+002
2.814104e+002, 1.588178e+002
2.818925e+002, 1.631795e+002
2.823746e+002, 1.685176e+002
2.828568e+002, 1.737487e+002
2.833389e+002, 1.787857e+002
2.838210e+002, 1.835412e+002
2.843031e+002, 1.877420e+002
2.847852e+002, 1.913892e+002
2.852673e+002, 1.946437e+002
2.857495e+002, 1.973979e+002
2.862316e+002, 1.997270e+002
2.867137e+002, 2.026382e+002
2.871958e+002, 2.063785e+002
2.876779e+002, 2.105894e+002
2.881600e+002, 2.145247e+002
2.886422e+002, 2.181796e+002
2.891243e+002, 2.219304e+002
2.896064e+002, 2.257463e+002
2.900885e+002, 2.297412e+002
2.905706e+002, 2.344486e+002
2.910527e+002, 2.400157e+002
2.915349e+002, 2.460497e+002
2.920170e+002, 2.515562e+002
2.924991e+002, 2.566236e+002
2.929812e+002, 2.628703e+002
2.934633e+002, 2.710412e+002
2.939454e+002, 2.810221e+002
2.944276e+002, 2.925003e+002
2.949097e+002, 3.053988e+002
2.953918e+002, 3.195562e+002
2.958739e+002, 3.351094e+002
2.963560e+002, 3.517630e+002
2.968381e+002, 3.688759e+002
2.973203e+002, 3.866582e+002
2.978024e+002, 4.043921e+002
2.982845e+002, 4.217564e+002
2.987666e+002, 4.390878e+002
2.992487e+002, 4.530852e+002
2.997308e+002, 4.622084e+002
3.002130e+002, 4.657480e+002
3.006951e+002, 4.615666e+002
3.011772e+002, 4.469276e+002
3.016593e+002, 4.251274e+002
3.021414e+002, 3.987391e+002
3.026235e+002, 3.680895e+002
3.031057e+002, 3.374339e+002
3.035878e+002, 3.096011e+002
3.040699e+002, 2.845150e+002
3.045520e+002, 2.626400e+002
3.050341e+002, 2.445056e+002
3.055162e+002, 2.292992e+002
3.059984e+002, 2.163257e+002
3.064805e+002, 2.056076e+002
3.069626e+002, 1.964510e+002
3.074447e+002, 1.889001e+002
3.079268e+002, 1.825628e+002
3.084089e+002, 1.771070e+002
3.088911e+002, 1.726455e+002
3.093732e+002, 1.687174e+002
3.098553e+002, 1.648261e+002
3.103374e+002, 1.611367e+002
3.108195e+002, 1.581344e+002
3.113016e+002, 1.565439e+002
3.117838e+002, 1.555775e+002
3.122659e+002, 1.545090e+002
3.127480e+002, 1.531250e+002
3.132301e+002, 1.518206e+002
3.137122e+002, 1.508483e+002
3.141943e+002, 1.501117e+002
3.146765e+002, 1.494307e+002
3.151586e+002, 1.487497e+002
3.156407e+002, 1.480823e+002
3.161228e+002, 1.474292e+002
3.166049e+002, 1.467942e+002
3.170870e+002, 1.461756e+002
3.175692e+002, 1.458057e+002
3.180513e+002, 1.454066e+002
3.185334e+002, 1.445886e+002
3.190155e+002, 1.422436e+002
3.194976e+002, 1.402961e+002
3.199797e+002, 1.398701e+002
3.204619e+002, 1.411777e+002
3.209440e+002, 1.422135e+002
3.214261e+002, 1.421665e+002
3.219082e+002, 1.416563e+002
3.223903e+002, 1.412677e+002
3.228724e+002, 1.414077e+002
3.233546e+002, 1.413938e+002
3.238367e+002, 1.409080e+002
3.243188e+002, 1.399734e+002
3.248009e+002, 1.393035e+002
3.252830e+002, 1.392572e+002
3.257651e+002, 1.393681e+002
3.262473e+002, 1.393360e+002
3.267294e+002, 1.389718e+002
3.272115e+002, 1.386560e+002
3.276936e+002, 1.383854e+002
3.281757e+002, 1.381824e+002
3.286578e+002, 1.381375e+002
3.291400e+002, 1.384597e+002
3.296221e+002, 1.387706e+002
3.301042e+002, 1.389242e+002
3.305863e+002, 1.389816e+002
3.310684e+002, 1.387574e+002
3.315505e+002, 1.378825e+002
3.320327e+002, 1.367922e+002
3.325148e+002, 1.365126e+002
3.329969e+002, 1.376954e+002
3.334790e+002, 1.388075e+002
3.339611e+002, 1.392854e+002
3.344432e+002, 1.389040e+002
3.349254e+002, 1.387934e+002
3.354075e+002, 1.391348e+002
3.358896e+002, 1.395879e+002
3.363717e+002, 1.395898e+002
3.368538e+002, 1.387895e+002
3.373359e+002, 1.384121e+002
3.378180e+002, 1.390221e+002
3.383001e+002, 1.405905e+002
3.387823e+002, 1.412096e+002
3.392644e+002, 1.405482e+002
3.397465e+002, 1.395881e+002
3.402286e+002, 1.393440e+002
3.407107e+002, 1.399628e+002
3.411928e+002, 1.404530e+002
3.416750e+002, 1.406126e+002
3.421571e+002, 1.405099e+002
3.426392e+002, 1.403956e+002
3.431213e+002, 1.402822e+002
3.436034e+002, 1.400942e+002
3.440855e+002, 1.396900e+002
3.445677e+002, 1.390890e+002
3.450498e+002, 1.386693e+002
3.455319e+002, 1.384437e+002
3.460140e+002, 1.384782e+002
3.464961e+002, 1.390556e+002
3.469782e+002, 1.401494e+002
3.474604e+002, 1.411608e+002
3.479425e+002, 1.415383e+002
3.484246e+002, 1.415228e+002
3.489067e+002, 1.421525e+002
3.493888e+002, 1.436227e+002
3.498709e+002, 1.450377e+002
3.503531e+002, 1.449123e+002
3.508352e+002, 1.436902e+002
3.513173e+002, 1.430200e+002
3.517994e+002, 1.441059e+002
3.522815e+002, 1.460176e+002
3.527636e+002, 1.471544e+002
3.532458e+002, 1.475145e+002
3.537279e+002, 1.477783e+002
3.542100e+002, 1.486515e+002
3.546921e+002, 1.497998e+002
3.551742e+002, 1.506399e+002
3.556563e+002, 1.509189e+002
3.561385e+002, 1.509028e+002
3.566206e+002, 1.505205e+002
3.571027e+002, 1.499275e+002
3.575848e+002, 1.498989e+002
3.580669e+002, 1.515043e+002
3.585490e+002, 1.535880e+002
3.590312e+002, 1.549575e+002
3.595133e+002, 1.550425e+002
3.599954e+002, 1.551960e+002
3.604775e+002, 1.562306e+002
3.609596e+002, 1.579110e+002
3.614417e+002, 1.597141e+002
3.619239e+002, 1.614606e+002
3.624060e+002, 1.632649e+002
3.628881e+002, 1.651570e+002
3.633702e+002, 1.671152e+002
3.638523e+002, 1.693018e+002
3.643344e+002, 1.721507e+002
3.648166e+002, 1.751243e+002
3.652987e+002, 1.776298e+002
3.657808e+002, 1.786276e+002
3.662629e+002, 1.799788e+002
3.667450e+002, 1.820395e+002
3.672271e+002, 1.848267e+002
3.677093e+002, 1.884648e+002
3.681914e+002, 1.938799e+002
3.686735e+002, 1.995757e+002
3.691556e+002, 2.046137e+002
3.696377e+002, 2.079355e+002
3.701198e+002, 2.117349e+002
3.706020e+002, 2.161689e+002
3.710841e+002, 2.211451e+002
3.715662e+002, 2.263894e+002
3.720483e+002, 2.321458e+002
3.725304e+002, 2.377913e+002
3.730125e+002, 2.430406e+002
3.734947e+002, 2.476643e+002
3.739768e+002, 2.524196e+002
3.744589e+002, 2.572882e+002
3.749410e+002, 2.623567e+002
3.754231e+002, 2.677646e+002
3.759052e+002, 2.737315e+002
3.763874e+002, 2.795188e+002
3.768695e+002, 2.846754e+002
3.773516e+002, 2.893044e+002
3.778337e+002, 2.947105e+002
3.783158e+002, 3.010255e+002
3.787979e+002, 3.079483e+002
3.792801e+002, 3.151729e+002
3.797622e+002, 3.227719e+002
3.802443e+002, 3.304804e+002
3.807264e+002, 3.382518e+002
3.812085e+002, 3.462056e+002
3.816906e+002, 3.549475e+002
3.821728e+002, 3.644567e+002
3.826549e+002, 3.738908e+002
3.831370e+002, 3.825894e+002
3.836191e+002, 3.906910e+002
3.841012e+002, 3.985987e+002
3.845833e+002, 4.066290e+002
3.850655e+002, 4.137882e+002
3.855476e+002, 4.188704e+002
3.860297e+002, 4.220122e+002
3.865118e+002, 4.234250e+002
3.869939e+002, 4.237472e+002
3.874760e+002, 4.222088e+002
3.879582e+002, 4.171525e+002
3.884403e+002, 4.084938e+002
3.889224e+002, 3.987335e+002
3.894045e+002, 3.901581e+002
3.898866e+002, 3.818076e+002
3.903687e+002, 3.721421e+002
3.908509e+002, 3.593377e+002
3.913330e+002, 3.466651e+002
3.918151e+002, 3.361939e+002
3.922972e+002, 3.277287e+002
3.927793e+002, 3.202567e+002
3.932614e+002, 3.130133e+002
3.937436e+002, 3.067752e+002
3.942257e+002, 3.018852e+002
3.947078e+002, 2.983339e+002
3.951899e+002, 2.964391e+002
3.956720e+002, 2.972828e+002
3.961541e+002, 2.996816e+002
3.966363e+002, 3.017353e+002
3.971184e+002, 3.021484e+002
3.976005e+002, 3.029166e+002
3.980826e+002, 3.049602e+002
3.985647e+002, 3.085278e+002
3.990468e+002, 3.115708e+002
3.995290e+002, 3.146740e+002
4.000111e+002, 3.167314e+002
4.004932e+002, 3.168777e+002
4.009753e+002, 3.146354e+002
4.014574e+002, 3.111284e+002
4.019395e+002, 3.066943e+002
4.024217e+002, 3.011398e+002
4.029038e+002, 2.933750e+002
4.033859e+002, 2.820107e+002
4.038680e+002, 2.704751e+002
4.043501e+002, 2.603191e+002
4.048322e+002, 2.518331e+002
4.053144e+002, 2.440208e+002
4.057965e+002, 2.369698e+002
4.062786e+002, 2.305920e+002
4.067607e+002, 2.246807e+002
4.072428e+002, 2.191172e+002
4.077249e+002, 2.146912e+002
4.082071e+002, 2.120139e+002
4.086892e+002, 2.107848e+002
4.091713e+002, 2.091040e+002
4.096534e+002, 2.068609e+002
4.101355e+002, 2.047686e+002
4.106176e+002, 2.035192e+002
4.110998e+002, 2.030106e+002
4.115819e+002, 2.027250e+002
4.120640e+002, 2.026111e+002
4.125461e+002, 2.025903e+002
4.130282e+002, 2.024373e+002
4.135103e+002, 2.022101e+002
4.139925e+002, 2.022436e+002
4.144746e+002, 2.027589e+002
4.149567e+002, 2.036514e+002
4.154388e+002, 2.049539e+002
4.159209e+002, 2.067633e+002
4.164030e+002, 2.082117e+002
4.168852e+002, 2.084699e+002
4.173673e+002, 2.079131e+002
4.178494e+002, 2.071618e+002
4.183315e+002, 2.061633e+002
4.188136e+002, 2.052901e+002
4.192957e+002, 2.049558e+002
4.197779e+002, 2.050577e+002
4.202600e+002, 2.048874e+002
4.207421e+002, 2.041964e+002
4.212242e+002, 2.030674e+002
4.217063e+002, 2.015360e+002
4.221884e+002, 1.993423e+002
4.226706e+002, 1.972198e+002
4.231527e+002, 1.952064e+002
4.236348e+002, 1.933860e+002
4.241169e+002, 1.919040e+002
4.245990e+002, 1.912866e+002
4.250811e+002, 1.905030e+002
4.255633e+002, 1.891219e+002
4.260454e+002, 1.870051e+002
4.265275e+002, 1.852378e+002
4.270096e+002, 1.839319e+002
4.274917e+002, 1.828627e+002
4.279738e+002, 1.818464e+002
4.284560e+002, 1.808735e+002
4.289381e+002, 1.799716e+002
4.294202e+002, 1.791554e+002
4.299023e+002, 1.784192e+002
4.303844e+002, 1.777401e+002
4.308665e+002, 1.771889e+002
4.313487e+002, 1.765025e+002
4.318308e+002, 1.756076e+002
4.323129e+002, 1.745222e+002
4.327950e+002, 1.728002e+002
4.332771e+002, 1.701621e+002
4.337592e+002, 1.676491e+002
4.342414e+002, 1.668730e+002
4.347235e+002, 1.676826e+002
4.352056e+002, 1.682070e+002
4.356877e+002, 1.676233e+002
4.361698e+002, 1.665495e+002
4.366519e+002, 1.664046e+002
4.371341e+002, 1.671451e+002
4.376162e+002, 1.679272e+002
4.380983e+002, 1.681596e+002
4.385804e+002, 1.680125e+002
4.390625e+002, 1.677569e+002
4.395446e+002, 1.674196e+002
4.400268e+002, 1.670408e+002
4.405089e+002, 1.664974e+002
4.409910e+002, 1.659411e+002
4.414731e+002, 1.656890e+002
4.419552e+002, 1.659394e+002
4.424373e+002, 1.664883e+002
4.429195e+002, 1.674444e+002
4.434016e+002, 1.687758e+002
4.438837e+002, 1.696399e+002
4.443658e+002, 1.693530e+002
4.448479e+002, 1.686409e+002
4.453300e+002, 1.680615e+002
4.458122e+002, 1.675002e+002
4.462943e+002, 1.673611e+002
4.467764e+002, 1.678485e+002
4.472585e+002, 1.688073e+002
4.477406e+002, 1.698458e+002
4.482227e+002, 1.718523e+002
4.487049e+002, 1.730049e+002
4.491870e+002, 1.723794e+002
4.496691e+002, 1.694411e+002
4.501512e+002, 1.680628e+002
4.506333e+002, 1.690272e+002
4.511154e+002, 1.707163e+002
4.515976e+002, 1.715012e+002
4.520797e+002, 1.709279e+002
4.525618e+002, 1.710067e+002
4.530439e+002, 1.722815e+002
4.535260e+002, 1.742843e+002
4.540081e+002, 1.755729e+002
4.544903e+002, 1.760491e+002
4.549724e+002, 1.764828e+002
4.554545e+002, 1.772184e+002
4.559366e+002, 1.782553e+002
4.564187e+002, 1.797642e+002
4.569008e+002, 1.818117e+002
4.573830e+002, 1.839216e+002
4.578651e+002, 1.854499e+002
4.583472e+002, 1.865419e+002
4.588293e+002, 1.875724e+002
4.593114e+002, 1.885434e+002
4.597935e+002, 1.896454e+002
4.602757e+002, 1.911430e+002
4.607578e+002, 1.930041e+002
4.612399e+002, 1.950975e+002
4.617220e+002, 1.974090e+002
4.622041e+002, 1.998802e+002
4.626862e+002, 2.024614e+002
4.631684e+002, 2.051680e+002
4.636505e+002, 2.078540e+002
4.641326e+002, 2.101907e+002
4.646147e+002, 2.125062e+002
4.650968e+002, 2.152715e+002
4.655789e+002, 2.191864e+002
4.660611e+002, 2.229287e+002
4.665432e+002, 2.258865e+002
4.670253e+002, 2.281557e+002
4.675074e+002, 2.309956e+002
4.679895e+002, 2.349094e+002
4.684716e+002, 2.391490e+002
4.689538e+002, 2.433850e+002
4.694359e+002, 2.477151e+002
4.699180e+002, 2.516878e+002
4.704001e+002, 2.550713e+002
4.708822e+002, 2.582925e+002
4.713643e+002, 2.620956e+002
4.718465e+002, 2.667597e+002
4.723286e+002, 2.711454e+002
4.728107e+002, 2.747666e+002
4.732928e+002, 2.778126e+002
4.737749e+002, 2.817827e+002
4.742570e+002, 2.867594e+002
4.747392e+002, 2.921266e+002
4.752213e+002, 2.978217e+002
4.757034e+002, 3.036727e+002
4.761855e+002, 3.083785e+002
4.766676e+002, 3.116519e+002
4.771497e+002, 3.143055e+002
4.776319e+002, 3.173172e+002
4.781140e+002, 3.205851e+002
4.785961e+002, 3.237354e+002
4.790782e+002, 3.269465e+002
4.795603e+002, 3.297490e+002
4.800424e+002, 3.316637e+002
4.805246e+002, 3.326983e+002
4.810067e+002, 3.328792e+002
4.814888e+002, 3.318883e+002
4.819709e+002, 3.302456e+002
4.824530e+002, 3.285336e+002
4.829352e+002, 3.272585e+002
4.834173e+002, 3.249170e+002
4.838994e+002, 3.207853e+002
4.843815e+002, 3.152182e+002
4.848636e+002, 3.088046e+002
4.853457e+002, 3.012682e+002
4.858279e+002, 2.933514e+002
4.863100e+002, 2.850246e+002
4.867921e+002, 2.762721e+002
4.872742e+002, 2.680325e+002
4.877563e+002, 2.602954e+002
4.882384e+002, 2.529972e+002
4.887206e+002, 2.461835e+002
4.892027e+002, 2.399991e+002
4.896848e+002, 2.340125e+002
4.901669e+002, 2.282764e+002
4.906490e+002, 2.226758e+002
4.911311e+002, 2.168254e+002
4.916133e+002, 2.106998e+002
4.920954e+002, 2.048218e+002
4.925775e+002, 1.991973e+002
4.930596e+002, 1.939862e+002
4.935417e+002, 1.898233e+002
4.940238e+002, 1.867302e+002
4.945060e+002, 1.840475e+002
4.949881e+002, 1.813361e+002
4.954702e+002, 1.786749e+002
4.959523e+002, 1.761779e+002
4.964344e+002, 1.738671e+002
4.969165e+002, 1.717537e+002
4.973987e+002, 1.701190e+002
4.978808e+002, 1.686586e+002
4.983629e+002, 1.668314e+002
4.988450e+002, 1.636490e+002
4.993271e+002, 1.606684e+002
4.998092e+002, 1.592931e+002
5.002914e+002, 1.591975e+002
5.007735e+002, 1.586821e+002
5.012556e+002, 1.564161e+002
5.017377e+002, 1.540085e+002
5.022198e+002, 1.524405e+002
5.027019e+002, 1.521092e+002
5.031841e+002, 1.518387e+002
5.036662e+002, 1.516507e+002
5.041483e+002, 1.513792e+002
5.046304e+002, 1.507995e+002
5.051125e+002, 1.494739e+002
5.055946e+002, 1.485701e+002
5.060768e+002, 1.483685e+002
5.065589e+002, 1.487351e+002
5.070410e+002, 1.489754e+002
5.075231e+002, 1.490167e+002
5.080052e+002, 1.491303e+002
5.084873e+002, 1.495996e+002
5.089695e+002, 1.504240e+002
5.094516e+002, 1.507310e+002
5.099337e+002, 1.504854e+002
5.104158e+002, 1.498415e+002
5.108979e+002, 1.487041e+002
5.113800e+002, 1.472326e+002
5.118622e+002, 1.462134e+002
5.123443e+002, 1.459508e+002
5.128264e+002, 1.460920e+002
5.133085e+002, 1.461829e+002
5.137906e+002, 1.462712e+002
5.142728e+002, 1.465272e+002
5.147549e+002, 1.471986e+002
5.152370e+002, 1.479822e+002
5.157191e+002, 1.486975e+002
5.162012e+002, 1.493428e+002
5.166833e+002, 1.496926e+002
5.171655e+002, 1.493025e+002
5.176476e+002, 1.487604e+002
5.181297e+002, 1.485739e+002
5.186118e+002, 1.493259e+002
5.190939e+002, 1.498454e+002
5.195760e+002, 1.498384e+002
5.200582e+002, 1.494802e+002
5.205403e+002, 1.492026e+002
5.210224e+002, 1.490985e+002
5.215045e+002, 1.489342e+002
5.219866e+002, 1.485083e+002
5.224688e+002, 1.478216e+002
5.229509e+002, 1.478958e+002
5.234330e+002, 1.489751e+002
5.239151e+002, 1.502409e+002
5.243972e+002, 1.510532e+002
5.248793e+002, 1.513966e+002
5.253615e+002, 1.517744e+002
5.258436e+002, 1.522336e+002
5.263257e+002, 1.527358e+002
5.268078e+002, 1.532972e+002
5.272899e+002, 1.538756e+002
5.277720e+002, 1.542468e+002
5.282542e+002, 1.541448e+002
5.287363e+002, 1.539217e+002
5.292184e+002, 1.540759e+002
5.297005e+002, 1.545540e+002
5.301826e+002, 1.550733e+002
5.306647e+002, 1.554670e+002
5.311469e+002, 1.558228e+002
5.316290e+002, 1.563211e+002
5.321111e+002, 1.570955e+002
5.325932e+002, 1.574571e+002
5.330753e+002, 1.561860e+002
5.335574e+002, 1.547784e+002
5.340396e+002, 1.548062e+002
5.345217e+002, 1.584117e+002
5.350038e+002, 1.612712e+002
5.354859e+002, 1.626140e+002
5.359680e+002, 1.627837e+002
5.364501e+002, 1.627868e+002
5.369323e+002, 1.622859e+002
5.374144e+002, 1.622077e+002
5.378965e+002, 1.631083e+002
5.383786e+002, 1.650237e+002
5.388607e+002, 1.660034e+002
5.393428e+002, 1.657830e+002
5.398250e+002, 1.654111e+002
5.403071e+002, 1.658938e+002
5.407892e+002, 1.671434e+002
5.412713e+002, 1.684459e+002
5.417534e+002, 1.697148e+002
5.422355e+002, 1.709251e+002
5.427177e+002, 1.720078e+002
5.431998e+002, 1.730019e+002
5.436819e+002, 1.740035e+002
5.441640e+002, 1.751895e+002
5.446461e+002, 1.762978e+002
5.451282e+002, 1.771236e+002
5.456104e+002, 1.776651e+002
5.460925e+002, 1.779447e+002
5.465746e+002, 1.780127e+002
5.470567e+002, 1.777989e+002
5.475388e+002, 1.772161e+002
5.480209e+002, 1.761695e+002
5.485031e+002, 1.750359e+002
5.489852e+002, 1.737394e+002
5.494673e+002, 1.724585e+002
5.499494e+002, 1.714165e+002
5.504315e+002, 1.712955e+002
5.509136e+002, 1.703430e+002
5.513958e+002, 1.682202e+002
5.518779e+002, 1.651766e+002
5.523600e+002, 1.618016e+002
5.528421e+002, 1.577816e+002
5.533242e+002, 1.544806e+002
5.538063e+002, 1.528440e+002
5.542885e+002, 1.525707e+002
5.547706e+002, 1.510979e+002
5.552527e+002, 1.483267e+002
5.557348e+002, 1.454124e+002
5.562169e+002, 1.434876e+002
5.566990e+002, 1.422063e+002
5.571812e+002, 1.405726e+002
5.576633e+002, 1.383503e+002
5.581454e+002, 1.360765e+002
5.586275e+002, 1.339783e+002
5.591096e+002, 1.322404e+002
5.595917e+002, 1.311439e+002
5.600739e+002, 1.313590e+002
5.605560e+002, 1.317354e+002
5.610381e+002, 1.318813e+002
5.615202e+002, 1.317545e+002
5.620023e+002, 1.312103e+002
5.624844e+002, 1.296454e+002
5.629666e+002, 1.281360e+002
5.634487e+002, 1.271926e+002
5.639308e+002, 1.269147e+002
5.644129e+002, 1.267256e+002
5.648950e+002, 1.266884e+002
5.653771e+002, 1.266684e+002
5.658593e+002, 1.266062e+002
5.663414e+002, 1.265729e+002
5.668235e+002, 1.260872e+002
5.673056e+002, 1.248793e+002
5.677877e+002, 1.235323e+002
5.682698e+002, 1.232421e+002
5.687520e+002, 1.239451e+002
5.692341e+002, 1.246126e+002
5.697162e+002, 1.249322e+002
5.701983e+002, 1.249279e+002
5.706804e+002, 1.244180e+002
5.711625e+002, 1.235056e+002
5.716447e+002, 1.228804e+002
5.721268e+002, 1.233883e+002
5.726089e+002, 1.241742e+002
5.730910e+002, 1.242717e+002
5.735731e+002, 1.234578e+002
5.740552e+002, 1.228959e+002
5.745374e+002, 1.235264e+002
5.750195e+002, 1.244514e+002
5.755016e+002, 1.248330e+002
5.759837e+002, 1.238736e+002
5.764658e+002, 1.231485e+002
5.769479e+002, 1.227661e+002
5.774301e+002, 1.227049e+002
5.779122e+002, 1.229975e+002
5.783943e+002, 1.239983e+002
5.788764e+002, 1.246130e+002
5.793585e+002, 1.243515e+002
5.798406e+002, 1.234063e+002
5.803228e+002, 1.232068e+002
5.808049e+002, 1.238378e+002
5.812870e+002, 1.246616e+002
5.817691e+002, 1.255180e+002
5.822512e+002, 1.262564e+002
5.827333e+002, 1.260462e+002
5.832155e+002, 1.247391e+002
5.836975e+002, 1.235033e+002
5.841796e+002, 1.237270e+002
5.846617e+002, 1.246878e+002
5.851439e+002, 1.251483e+002
5.856260e+002, 1.245156e+002
5.861081e+002, 1.237764e+002
5.865902e+002, 1.233489e+002
5.870723e+002, 1.232614e+002
5.875544e+002, 1.235676e+002
5.880366e+002, 1.248456e+002
5.885187e+002, 1.259486e+002
5.890008e+002, 1.264751e+002
5.894829e+002, 1.264314e+002
5.899650e+002, 1.262904e+002
5.904471e+002, 1.259554e+002
5.909293e+002, 1.256405e+002
5.914114e+002, 1.254515e+002
5.918935e+002, 1.254010e+002
5.923756e+002, 1.253368e+002
5.928577e+002, 1.252086e+002
5.933398e+002, 1.252009e+002
5.938220e+002, 1.255876e+002
5.943041e+002, 1.263147e+002
5.947862e+002, 1.269835e+002
5.952683e+002, 1.275623e+002
5.957504e+002, 1.279597e+002
5.962325e+002, 1.279000e+002
5.967147e+002, 1.275610e+002
5.971968e+002, 1.274032e+002
5.976789e+002, 1.278186e+002
5.981610e+002, 1.283320e+002
5.986431e+002, 1.286787e+002
5.991252e+002, 1.288488e+002
5.996074e+002, 1.288179e+002
6.000895e+002, 1.282396e+002
6.005716e+002, 1.277463e+002
6.010537e+002, 1.277634e+002
6.015358e+002, 1.285266e+002
6.020179e+002, 1.287530e+002
6.025001e+002, 1.279908e+002
6.029822e+002, 1.271237e+002
6.034643e+002, 1.268463e+002
6.039464e+002, 1.273467e+002
6.044285e+002, 1.276691e+002
6.049106e+002, 1.276996e+002
6.053928e+002, 1.276451e+002
6.058749e+002, 1.278379e+002
6.063570e+002, 1.282624e+002
6.068391e+002, 1.286966e+002
6.073212e+002, 1.290611e+002
6.078033e+002, 1.294131e+002
6.082855e+002, 1.300880e+002
6.087676e+002, 1.308921e+002
6.092497e+002, 1.311373e+002
6.097318e+002, 1.295100e+002
6.102139e+002, 1.278501e+002
6.106960e+002, 1.279144e+002
6.111782e+002, 1.297106e+002
6.116603e+002, 1.311129e+002
6.121424e+002, 1.311507e+002
6.126245e+002, 1.307371e+002
6.131066e+002, 1.303939e+002
6.135887e+002, 1.300690e+002
6.140709e+002, 1.300614e+002
6.145530e+002, 1.306391e+002
6.150351e+002, 1.312974e+002
6.155172e+002, 1.314922e+002
6.159993e+002, 1.311326e+002
6.164814e+002, 1.307129e+002
6.169636e+002, 1.302644e+002
6.174457e+002, 1.298495e+002
6.179278e+002, 1.294842e+002
6.184099e+002, 1.292004e+002
6.188920e+002, 1.293204e+002
6.193741e+002, 1.302890e+002
6.198563e+002, 1.315074e+002
6.203384e+002, 1.320396e+002
6.208205e+002, 1.319873e+002
6.213026e+002, 1.318639e+002
6.217847e+002, 1.320193e+002
6.222668e+002, 1.321774e+002
6.227490e+002, 1.321716e+002
6.232311e+002, 1.319942e+002
6.237132e+002, 1.315682e+002
6.241953e+002, 1.302375e+002
6.246774e+002, 1.290918e+002
6.251595e+002, 1.289378e+002
6.256417e+002, 1.305268e+002
6.261238e+002, 1.316684e+002
6.266059e+002, 1.323360e+002
6.270880e+002, 1.325805e+002
6.275701e+002, 1.323274e+002
6.280522e+002, 1.315043e+002
6.285344e+002, 1.308620e+002
6.290165e+002, 1.304892e+002
6.294986e+002, 1.304821e+002
6.299807e+002, 1.313619e+002
6.304628e+002, 1.329242e+002
6.309449e+002, 1.340495e+002
6.314271e+002, 1.338635e+002
6.319092e+002, 1.331749e+002
6.323913e+002, 1.328134e+002
6.328734e+002, 1.327396e+002
6.333555e+002, 1.326853e+002
6.338376e+002, 1.324754e+002
6.343198e+002, 1.322702e+002
6.348019e+002, 1.321629e+002
6.352840e+002, 1.321711e+002
6.357661e+002, 1.322293e+002
6.362482e+002, 1.322489e+002
6.367303e+002, 1.323824e+002
6.372125e+002, 1.327793e+002
6.376946e+002, 1.336188e+002
6.381767e+002, 1.342110e+002
6.386588e+002, 1.345175e+002
6.391409e+002, 1.345975e+002
6.396230e+002, 1.344054e+002
6.401052e+002, 1.339723e+002
6.405873e+002, 1.337892e+002
6.410694e+002, 1.340112e+002
6.415515e+002, 1.344930e+002
6.420336e+002, 1.352068e+002
6.425157e+002, 1.360202e+002
6.429979e+002, 1.365552e+002
6.434800e+002, 1.364989e+002
6.439621e+002, 1.361945e+002
6.444442e+002, 1.357587e+002
6.449263e+002, 1.352387e+002
6.454084e+002, 1.348798e+002
6.458906e+002, 1.347809e+002
6.463727e+002, 1.348484e+002
6.468548e+002, 1.350600e+002
6.473369e+002, 1.354184e+002
6.478190e+002, 1.358754e+002
6.483011e+002, 1.365795e+002
6.487833e+002, 1.371545e+002
6.492654e+002, 1.372357e+002
6.497475e+002, 1.367697e+002
6.502296e+002, 1.364649e+002
6.507117e+002, 1.363528e+002
6.511938e+002, 1.364274e+002
6.516760e+002, 1.368017e+002
6.521581e+002, 1.373704e+002
6.526402e+002, 1.377707e+002
6.531223e+002, 1.378177e+002
6.536044e+002, 1.378574e+002
6.540865e+002, 1.384142e+002
6.545687e+002, 1.391662e+002
6.550508e+002, 1.395003e+002
6.555329e+002, 1.385770e+002
6.560150e+002, 1.378263e+002
6.564971e+002, 1.378569e+002
6.569792e+002, 1.385465e+002
6.574614e+002, 1.391974e+002
6.579435e+002, 1.396669e+002
6.584256e+002, 1.402617e+002
6.589077e+002, 1.412489e+002
6.593898e+002, 1.425821e+002
6.598719e+002, 1.430148e+002
6.603541e+002, 1.424122e+002
6.608362e+002, 1.415413e+002
6.613183e+002, 1.406224e+002
6.618004e+002, 1.398438e+002
6.622825e+002, 1.401325e+002
6.627646e+002, 1.415979e+002
6.632468e+002, 1.430874e+002
6.637289e+002, 1.433100e+002
6.642110e+002, 1.430530e+002
6.646931e+002, 1.434544e+002
6.651752e+002, 1.451502e+002
6.656573e+002, 1.464932e+002
6.661395e+002, 1.464893e+002
6.666216e+002, 1.458477e+002
6.671037e+002, 1.454404e+002
6.675858e+002, 1.454433e+002
6.680679e+002, 1.456509e+002
6.685500e+002, 1.462117e+002
6.690322e+002, 1.468960e+002
6.695143e+002, 1.470820e+002
6.699964e+002, 1.465989e+002
6.704785e+002, 1.464926e+002
6.709606e+002, 1.472641e+002
6.714427e+002, 1.485018e+002
6.719249e+002, 1.489168e+002
6.724070e+002, 1.486195e+002
6.728891e+002, 1.484923e+002
6.733712e+002, 1.495017e+002
6.738533e+002, 1.506973e+002
6.743354e+002, 1.507848e+002
6.748176e+002, 1.498471e+002
6.752997e+002, 1.490541e+002
6.757818e+002, 1.489091e+002
6.762639e+002, 1.491643e+002
6.767460e+002, 1.498170e+002
6.772281e+002, 1.510919e+002
6.777103e+002, 1.517733e+002
6.781924e+002, 1.513614e+002
6.786745e+002, 1.508168e+002
6.791566e+002, 1.509183e+002
6.796387e+002, 1.518814e+002
6.801208e+002, 1.523872e+002
6.806030e+002, 1.522351e+002
6.810851e+002, 1.519807e+002
6.815672e+002, 1.525406e+002
6.820493e+002, 1.536615e+002
6.825314e+002, 1.542765e+002
6.830135e+002, 1.540834e+002
6.834957e+002, 1.533894e+002
6.839778e+002, 1.520647e+002
6.844599e+002, 1.505211e+002
6.849420e+002, 1.495787e+002
6.854241e+002, 1.502290e+002
6.859063e+002, 1.507843e+002
6.863884e+002, 1.504688e+002
6.868705e+002, 1.495348e+002
6.873526e+002, 1.488803e+002
6.878347e+002, 1.486914e+002
6.883168e+002, 1.485878e+002
6.887990e+002, 1.485392e+002
6.892811e+002, 1.485063e+002
6.897632e+002, 1.481829e+002
6.902453e+002, 1.475350e+002
6.907274e+002, 1.468499e+002
6.912095e+002, 1.462712e+002
6.916917e+002, 1.457915e+002
6.921738e+002, 1.454204e+002
6.926559e+002, 1.451549e+002
6.931380e+002, 1.448433e+002
6.936201e+002, 1.443579e+002
6.941022e+002, 1.437821e+002
6.945844e+002, 1.431469e+002
6.950665e+002, 1.424309e+002
6.955486e+002, 1.418523e+002
6.960307e+002, 1.416453e+002
6.965128e+002, 1.415009e+002
6.969949e+002, 1.411614e+002
6.974771e+002, 1.404794e+002
6.979592e+002, 1.399040e+002
6.984413e+002, 1.394475e+002
6.989234e+002, 1.390921e+002
6.994055e+002, 1.388393e+002
6.998876e+002, 1.386930e+002
7.003698e+002, 1.385821e+002
7.008519e+002, 1.385497e+002
7.013340e+002, 1.384131e+002
7.018161e+002, 1.378982e+002
7.022982e+002, 1.370764e+002
7.027803e+002, 1.360984e+002
7.032625e+002, 1.346890e+002
7.037446e+002, 1.335470e+002
7.042267e+002, 1.332948e+002
7.047088e+002, 1.336510e+002
7.051909e+002, 1.340041e+002
7.056730e+002, 1.342348e+002
7.061552e+002, 1.343899e+002
7.066373e+002, 1.344466e+002
7.071194e+002, 1.344306e+002
7.076015e+002, 1.344850e+002
7.080836e+002, 1.346546e+002
7.085657e+002, 1.347498e+002
7.090479e+002, 1.347065e+002
7.095300e+002, 1.345226e+002
7.100121e+002, 1.342026e+002
7.104942e+002, 1.337420e+002
7.109763e+002, 1.331175e+002
7.114584e+002, 1.319088e+002
7.119406e+002, 1.307370e+002
7.124227e+002, 1.306256e+002
7.129048e+002, 1.315805e+002
7.133869e+002, 1.322194e+002
7.138690e+002, 1.314118e+002
7.143511e+002, 1.303991e+002
7.148333e+002, 1.300481e+002
7.153154e+002, 1.307539e+002
7.157975e+002, 1.311508e+002
7.162796e+002, 1.311166e+002
7.167617e+002, 1.309240e+002
7.172438e+002, 1.307806e+002
7.177260e+002, 1.306985e+002
7.182081e+002, 1.305617e+002
7.186902e+002, 1.303561e+002
7.191723e+002, 1.301366e+002
7.196544e+002, 1.299929e+002
7.201365e+002, 1.298864e+002
7.206187e+002, 1.297132e+002
7.211008e+002, 1.294299e+002
7.215829e+002, 1.291285e+002
7.220650e+002, 1.287682e+002
7.225471e+002, 1.284645e+002
7.230292e+002, 1.283665e+002
7.235114e+002, 1.289194e+002
7.239935e+002, 1.291812e+002
7.244756e+002, 1.286225e+002
7.249577e+002, 1.278248e+002
7.254398e+002, 1.278591e+002
7.259219e+002, 1.290868e+002
7.264041e+002, 1.300414e+002
7.268862e+002, 1.303982e+002
7.273683e+002, 1.303010e+002
7.278504e+002, 1.299954e+002
7.283325e+002, 1.295078e+002
7.288146e+002, 1.290008e+002
7.292968e+002, 1.283690e+002
7.297789e+002, 1.279153e+002
7.302610e+002, 1.282072e+002
7.307431e+002, 1.290094e+002
7.312252e+002, 1.295415e+002
7.317073e+002, 1.293035e+002
7.321895e+002, 1.288832e+002
7.326716e+002, 1.283555e+002
7.331537e+002, 1.277806e+002
7.336358e+002, 1.277710e+002
7.341179e+002, 1.287930e+002
7.346000e+002, 1.295825e+002
7.350822e+002, 1.295181e+002
7.355643e+002, 1.287051e+002
7.360464e+002, 1.282097e+002
7.365285e+002, 1.280508e+002
7.370106e+002, 1.278537e+002
7.374927e+002, 1.272287e+002
7.379749e+002, 1.264352e+002
7.384570e+002, 1.258653e+002
7.389391e+002, 1.255480e+002
7.394212e+002, 1.254985e+002
7.399033e+002, 1.260714e+002
7.403854e+002, 1.266697e+002
7.408676e+002, 1.267818e+002
7.413497e+002, 1.261402e+002
7.418318e+002, 1.258705e+002
7.423139e+002, 1.261838e+002
7.427960e+002, 1.267100e+002
7.432781e+002, 1.273072e+002
7.437603e+002, 1.280572e+002
7.442424e+002, 1.282111e+002
7.447245e+002, 1.276471e+002
7.452066e+002, 1.269147e+002
7.456887e+002, 1.266543e+002
7.461708e+002, 1.266695e+002
7.466530e+002, 1.263830e+002
7.471351e+002, 1.256227e+002
7.476172e+002, 1.249635e+002
7.480993e+002, 1.248663e+002
7.485814e+002, 1.250892e+002
7.490635e+002, 1.253699e+002
7.495457e+002, 1.257342e+002
7.500278e+002, 1.260155e+002
7.505099e+002, 1.260113e+002
7.509920e+002, 1.260247e+002
7.514741e+002, 1.265053e+002
7.519562e+002, 1.276597e+002
7.524384e+002, 1.283443e+002
7.529205e+002, 1.283186e+002
7.534026e+002, 1.279323e+002
7.538847e+002, 1.276757e+002
7.543668e+002, 1.275262e+002
7.548489e+002, 1.274094e+002
7.553311e+002, 1.273632e+002
7.558132e+002, 1.272265e+002
7.562953e+002, 1.266262e+002
7.567774e+002, 1.258784e+002
7.572595e+002, 1.255507e+002
7.577416e+002, 1.263957e+002
7.582238e+002, 1.270007e+002
7.587059e+002, 1.268158e+002
7.591880e+002, 1.262406e+002
7.596701e+002, 1.261396e+002
7.601522e+002, 1.266916e+002
7.606343e+002, 1.271420e+002
7.611165e+002, 1.272832e+002
7.615986e+002, 1.272311e+002
7.620807e+002, 1.272641e+002
7.625628e+002, 1.273659e+002
7.630449e+002, 1.274376e+002
7.635270e+002, 1.274220e+002
7.640092e+002, 1.273655e+002
7.644913e+002, 1.272273e+002
7.649734e+002, 1.270724e+002
7.654555e+002, 1.271005e+002
7.659376e+002, 1.278486e+002
7.664197e+002, 1.282977e+002
7.669019e+002, 1.278028e+002
7.673840e+002, 1.266454e+002
7.678661e+002, 1.261406e+002
7.683482e+002, 1.264099e+002
7.688303e+002, 1.270091e+002
7.693124e+002, 1.280053e+002
7.697946e+002, 1.291120e+002
7.702767e+002, 1.290408e+002
7.707588e+002, 1.279409e+002
7.712409e+002, 1.272065e+002
7.717230e+002, 1.282686e+002
7.722051e+002, 1.296950e+002
7.726873e+002, 1.299961e+002
7.731694e+002, 1.292710e+002
7.736515e+002, 1.285484e+002
7.741336e+002, 1.279097e+002
7.746157e+002, 1.276307e+002
7.750978e+002, 1.280140e+002
7.755800e+002, 1.290172e+002
7.760621e+002, 1.294982e+002
7.765442e+002, 1.293201e+002
7.770263e+002, 1.290077e+002
7.775084e+002, 1.287900e+002
7.779905e+002, 1.286705e+002
7.784727e+002, 1.287307e+002
7.789548e+002, 1.289576e+002
7.794369e+002, 1.291334e+002
7.799190e+002, 1.290905e+002
7.804011e+002, 1.289265e+002
7.808832e+002, 1.286796e+002
7.813654e+002, 1.283597e+002
7.818475e+002, 1.281632e+002
7.823296e+002, 1.283866e+002
7.828117e+002, 1.285317e+002
7.832938e+002, 1.282730e+002
7.837759e+002, 1.275407e+002
7.842581e+002, 1.272565e+002
7.847402e+002, 1.275277e+002
7.852223e+002, 1.279241e+002
7.857044e+002, 1.281186e+002
7.861865e+002, 1.281915e+002
7.866686e+002, 1.285160e+002
7.871508e+002, 1.291015e+002
7.876329e+002, 1.296563e+002
7.881150e+002, 1.303520e+002
7.885971e+002, 1.306734e+002
7.890792e+002, 1.298537e+002
7.895613e+002, 1.276344e+002
7.900435e+002, 1.259747e+002
7.905256e+002, 1.254896e+002
7.910077e+002, 1.255625e+002
7.914898e+002, 1.259536e+002
7.919719e+002, 1.267194e+002
7.924540e+002, 1.274388e+002
7.929362e+002, 1.281659e+002
7.934183e+002, 1.285650e+002
7.939004e+002, 1.280326e+002
7.943825e+002, 1.269662e+002
7.948646e+002, 1.265822e+002
7.953467e+002, 1.269714e+002
7.958289e+002, 1.274283e+002
7.963110e+002, 1.278432e+002
7.967931e+002, 1.278355e+002
7.972752e+002, 1.267832e+002
7.977573e+002, 1.241180e+002
7.982394e+002, 1.226856e+002
7.987216e+002, 1.233170e+002
7.992037e+002, 1.246541e+002
7.996858e+002, 1.260416e+002
8.001679e+002, 1.275788e+002
8.006500e+002, 1.283991e+002
8.011321e+002, 1.284803e+002
8.016143e+002, 1.280715e+002
8.020964e+002, 1.269665e+002
8.025785e+002, 1.256578e+002
8.030606e+002, 1.252200e+002
8.035427e+002, 1.258275e+002
8.040248e+002, 1.264324e+002
8.045070e+002, 1.263335e+002
8.049891e+002, 1.260394e+002
8.054712e+002, 1.259206e+002
8.059533e+002, 1.260438e+002
8.064354e+002, 1.262910e+002
8.069175e+002, 1.267454e+002
8.073997e+002, 1.271977e+002
8.078818e+002, 1.275175e+002
8.083639e+002, 1.277014e+002
8.088460e+002, 1.276831e+002
8.093281e+002, 1.274419e+002
8.098102e+002, 1.272244e+002
8.102924e+002, 1.270616e+002
8.107745e+002, 1.271464e+002
8.112566e+002, 1.280705e+002
8.117387e+002, 1.300679e+002
8.122208e+002, 1.311676e+002
8.127029e+002, 1.294970e+002
8.131851e+002, 1.274351e+002
8.136672e+002, 1.266780e+002
8.141493e+002, 1.275588e+002
8.146314e+002, 1.284225e+002
8.151135e+002, 1.293272e+002
8.155956e+002, 1.300522e+002
8.160778e+002, 1.303875e+002
8.165599e+002, 1.303786e+002
8.170420e+002, 1.301386e+002
8.175241e+002, 1.296652e+002
8.180062e+002, 1.292817e+002
8.184883e+002, 1.292677e+002
8.189705e+002, 1.294434e+002
8.194526e+002, 1.296776e+002
8.199347e+002, 1.299717e+002
8.204168e+002, 1.301558e+002
8.208989e+002, 1.299777e+002
8.213810e+002, 1.298843e+002
8.218632e+002, 1.301862e+002
8.223453e+002, 1.309660e+002
8.228274e+002, 1.313349e+002
8.233095e+002, 1.312723e+002
8.237916e+002, 1.309064e+002
8.242737e+002, 1.301320e+002
8.247559e+002, 1.291903e+002
8.252380e+002, 1.285714e+002
8.257201e+002, 1.283074e+002
8.262022e+002, 1.282102e+002
8.266843e+002, 1.280641e+002
8.271664e+002, 1.281316e+002
8.276486e+002, 1.286552e+002
8.281307e+002, 1.297400e+002
8.286128e+002, 1.307436e+002
8.290949e+002, 1.317466e+002
8.295770e+002, 1.325326e+002
8.300591e+002, 1.329593e+002
8.305413e+002, 1.330462e+002
8.310234e+002, 1.330427e+002
8.315055e+002, 1.329477e+002
8.319876e+002, 1.327530e+002
8.324697e+002, 1.323873e+002
8.329518e+002, 1.319591e+002
8.334340e+002, 1.315394e+002
8.339161e+002, 1.311443e+002
8.343982e+002, 1.308792e+002
8.348803e+002, 1.308228e+002
8.353624e+002, 1.308709e+002
8.358445e+002, 1.309958e+002
8.363267e+002, 1.311926e+002
8.368088e+002, 1.313434e+002
8.372909e+002, 1.314317e+002
8.377730e+002, 1.315528e+002
8.382551e+002, 1.318545e+002
8.387372e+002, 1.321996e+002
8.392194e+002, 1.321610e+002
8.397015e+002, 1.318036e+002
8.401836e+002, 1.315003e+002
8.406657e+002, 1.314194e+002
8.411478e+002, 1.315004e+002
8.416299e+002, 1.319173e+002
8.421121e+002, 1.325706e+002
8.425942e+002, 1.325985e+002
8.430763e+002, 1.314754e+002
8.435584e+002, 1.305954e+002
8.440405e+002, 1.304542e+002
8.445226e+002, 1.308684e+002
8.450048e+002, 1.310831e+002
8.454869e+002, 1.311215e+002
8.459690e+002, 1.313654e+002
8.464511e+002, 1.323881e+002
8.469332e+002, 1.333863e+002
8.474153e+002, 1.333615e+002
8.478975e+002, 1.325852e+002
8.483796e+002, 1.318238e+002
8.488617e+002, 1.311857e+002
8.493438e+002, 1.307929e+002
8.498259e+002, 1.307995e+002
8.503080e+002, 1.310401e+002
8.507902e+002, 1.310976e+002
8.512723e+002, 1.309523e+002
8.517544e+002, 1.307291e+002
8.522365e+002, 1.304147e+002
8.527186e+002, 1.301176e+002
8.532007e+002, 1.299231e+002
8.536829e+002, 1.299025e+002
8.541650e+002, 1.302639e+002
8.546471e+002, 1.315651e+002
8.551292e+002, 1.326529e+002
8.556113e+002, 1.328906e+002
8.560934e+002, 1.325568e+002
8.565756e+002, 1.321387e+002
8.570577e+002, 1.314288e+002
8.575398e+002, 1.311335e+002
8.580219e+002, 1.313734e+002
8.585040e+002, 1.319798e+002
8.589861e+002, 1.330379e+002
8.594683e+002, 1.343355e+002
8.599504e+002, 1.344857e+002
8.604325e+002, 1.328030e+002
8.609146e+002, 1.310950e+002
8.613967e+002, 1.312512e+002
8.618788e+002, 1.322578e+002
8.623610e+002, 1.328610e+002
8.628431e+002, 1.324993e+002
8.633252e+002, 1.321918e+002
8.638073e+002, 1.319777e+002
8.642894e+002, 1.319041e+002
8.647715e+002, 1.321058e+002
8.652537e+002, 1.326120e+002
8.657358e+002, 1.329496e+002
8.662179e+002, 1.331536e+002
8.667000e+002, 1.327488e+002
8.671821e+002, 1.303903e+002
8.676642e+002, 1.274801e+002
8.681464e+002, 1.263147e+002
8.686285e+002, 1.274863e+002
8.691106e+002, 1.285345e+002
8.695927e+002, 1.281852e+002
8.700748e+002, 1.276634e+002
8.705569e+002, 1.278070e+002
8.710391e+002, 1.287398e+002
8.715212e+002, 1.294820e+002
8.720033e+002, 1.300215e+002
8.724854e+002, 1.303808e+002
8.729675e+002, 1.304814e+002
8.734496e+002, 1.304284e+002
8.739318e+002, 1.304917e+002
8.744139e+002, 1.306650e+002
8.748960e+002, 1.307893e+002
8.753781e+002, 1.307856e+002
8.758602e+002, 1.306898e+002
8.763423e+002, 1.305321e+002
8.768245e+002, 1.303100e+002
8.773066e+002, 1.299054e+002
8.777887e+002, 1.290632e+002
8.782708e+002, 1.286773e+002
8.787529e+002, 1.294278e+002
8.792350e+002, 1.307740e+002
8.797172e+002, 1.305757e+002
8.801993e+002, 1.290952e+002
8.806814e+002, 1.280025e+002
8.811635e+002, 1.287769e+002
8.816456e+002, 1.297643e+002
8.821277e+002, 1.295463e+002
8.826099e+002, 1.285288e+002
8.830920e+002, 1.279536e+002
8.835741e+002, 1.284931e+002
8.840562e+002, 1.288604e+002
8.845383e+002, 1.287895e+002
8.850204e+002, 1.284787e+002
8.855026e+002, 1.283170e+002
8.859847e+002, 1.283034e+002
8.864668e+002, 1.285306e+002
8.869489e+002, 1.292167e+002
8.874310e+002, 1.297034e+002
8.879131e+002, 1.288926e+002
8.883953e+002, 1.275189e+002
8.888774e+002, 1.266907e+002
8.893595e+002, 1.270879e+002
8.898416e+002, 1.275076e+002
8.903237e+002, 1.278768e+002
8.908058e+002, 1.281185e+002
8.912880e+002, 1.280350e+002
8.917701e+002, 1.275658e+002
8.922522e+002, 1.276824e+002
8.927343e+002, 1.285514e+002
8.932164e+002, 1.294760e+002
8.936985e+002, 1.297234e+002
8.941807e+002, 1.295619e+002
8.946628e+002, 1.293827e+002
8.951449e+002, 1.292589e+002
8.956270e+002, 1.290204e+002
8.961091e+002, 1.283854e+002
8.965912e+002, 1.278121e+002
8.970734e+002, 1.276195e+002
8.975555e+002, 1.278606e+002
8.980376e+002, 1.278308e+002
8.985197e+002, 1.274958e+002
8.990018e+002, 1.271110e+002
8.994839e+002, 1.268245e+002
8.999661e+002, 1.266269e+002
9.004482e+002, 1.265630e+002
9.009303e+002, 1.265989e+002
9.014124e+002, 1.265310e+002
9.018945e+002, 1.258805e+002
9.023766e+002, 1.254722e+002
9.028588e+002, 1.260690e+002
9.033409e+002, 1.273189e+002
9.038230e+002, 1.274547e+002
9.043051e+002, 1.260665e+002
9.047872e+002, 1.252401e+002
9.052693e+002, 1.259676e+002
9.057515e+002, 1.272745e+002
9.062336e+002, 1.269284e+002
9.067157e+002, 1.254783e+002
9.071978e+002, 1.245199e+002
9.076799e+002, 1.249302e+002
9.081620e+002, 1.256988e+002
9.086442e+002, 1.267747e+002
9.091263e+002, 1.277833e+002
9.096084e+002, 1.281057e+002
9.100905e+002, 1.274907e+002
9.105726e+002, 1.268115e+002
9.110547e+002, 1.260515e+002
9.115369e+002, 1.254590e+002
9.120190e+002, 1.254971e+002
9.125011e+002, 1.259594e+002
9.129832e+002, 1.262861e+002
9.134653e+002, 1.263886e+002
9.139474e+002, 1.262999e+002
9.144296e+002, 1.257256e+002
9.149117e+002, 1.251789e+002
9.153938e+002, 1.251896e+002
9.158759e+002, 1.260030e+002
9.163580e+002, 1.263349e+002
9.168401e+002, 1.259538e+002
9.173223e+002, 1.256586e+002
9.178044e+002, 1.261338e+002
9.182865e+002, 1.271439e+002
9.187686e+002, 1.278619e+002
9.192507e+002, 1.282926e+002
9.197328e+002, 1.285629e+002
9.202150e+002, 1.289931e+002
9.206971e+002, 1.290718e+002
9.211792e+002, 1.279864e+002
9.216613e+002, 1.260411e+002
9.221434e+002, 1.255625e+002
9.226255e+002, 1.273388e+002
9.231077e+002, 1.288094e+002
9.235898e+002, 1.291621e+002
9.240719e+002, 1.288428e+002
9.245540e+002, 1.288922e+002
9.250361e+002, 1.292046e+002
9.255182e+002, 1.293216e+002
9.260004e+002, 1.288253e+002
9.264825e+002, 1.284904e+002
9.269646e+002, 1.292211e+002
9.274467e+002, 1.302735e+002
9.279288e+002, 1.304482e+002
9.284109e+002, 1.289579e+002
9.288931e+002, 1.281038e+002
9.293752e+002, 1.280863e+002
9.298573e+002, 1.285424e+002
9.303394e+002, 1.292689e+002
9.308215e+002, 1.301351e+002
9.313036e+002, 1.306977e+002
9.317858e+002, 1.309034e+002
9.322679e+002, 1.308577e+002
9.327500e+002, 1.301934e+002
9.332321e+002, 1.296450e+002
9.337142e+002, 1.299565e+002
9.341964e+002, 1.313688e+002
9.346785e+002, 1.319765e+002
9.351606e+002, 1.314312e+002
9.356427e+002, 1.309353e+002
9.361248e+002, 1.312356e+002
9.366069e+002, 1.320356e+002
9.370891e+002, 1.322877e+002
9.375712e+002, 1.320829e+002
9.380533e+002, 1.318609e+002
9.385354e+002, 1.318220e+002
9.390175e+002, 1.318719e+002
9.394996e+002, 1.320446e+002
9.399818e+002, 1.322590e+002
9.404639e+002, 1.323064e+002
9.409460e+002, 1.322044e+002
9.414281e+002, 1.318311e+002
9.419102e+002, 1.310507e+002
9.423923e+002, 1.302092e+002
9.428745e+002, 1.298096e+002
9.433566e+002, 1.298114e+002
9.438387e+002, 1.301944e+002
9.443208e+002, 1.310900e+002
9.448029e+002, 1.318404e+002
9.452850e+002, 1.320804e+002
9.457672e+002, 1.319990e+002
9.462493e+002, 1.316944e+002
9.467314e+002, 1.310189e+002
9.472135e+002, 1.308133e+002
9.476956e+002, 1.311385e+002
9.481777e+002, 1.317288e+002
9.486599e+002, 1.326465e+002
9.491420e+002, 1.336022e+002
9.496241e+002, 1.337309e+002
9.501062e+002, 1.331128e+002
9.505883e+002, 1.325474e+002
9.510704e+002, 1.322767e+002
9.515526e+002, 1.323476e+002
9.520347e+002, 1.331774e+002
9.525168e+002, 1.344066e+002
9.529989e+002, 1.344886e+002
9.534810e+002, 1.330463e+002
9.539631e+002, 1.323178e+002
9.544453e+002, 1.331974e+002
9.549274e+002, 1.346519e+002
9.554095e+002, 1.350525e+002
9.558916e+002, 1.347023e+002
9.563737e+002, 1.342402e+002
9.568558e+002, 1.337673e+002
9.573380e+002, 1.333995e+002
9.578201e+002, 1.330795e+002
9.583022e+002, 1.329549e+002
9.587843e+002, 1.332561e+002
9.592664e+002, 1.341445e+002
9.597485e+002, 1.344312e+002
9.602307e+002, 1.339891e+002
9.607128e+002, 1.336291e+002
9.611949e+002, 1.344764e+002
9.616770e+002, 1.356463e+002
9.621591e+002, 1.356387e+002
9.626412e+002, 1.344456e+002
9.631234e+002, 1.336846e+002
9.636055e+002, 1.342027e+002
9.640876e+002, 1.349651e+002
9.645697e+002, 1.357588e+002
9.650518e+002, 1.364758e+002
9.655339e+002, 1.364570e+002
9.660161e+002, 1.357020e+002
9.664982e+002, 1.354169e+002
9.669803e+002, 1.362651e+002
9.674624e+002, 1.374504e+002
9.679445e+002, 1.381740e+002
9.684266e+002, 1.385834e+002
9.689088e+002, 1.389080e+002
9.693909e+002, 1.392234e+002
9.698730e+002, 1.394274e+002
9.703551e+002, 1.394419e+002
9.708372e+002, 1.394456e+002
9.713193e+002, 1.397588e+002
9.718015e+002, 1.403049e+002
9.722836e+002, 1.402185e+002
9.727657e+002, 1.394146e+002
9.732478e+002, 1.387030e+002
9.737299e+002, 1.388521e+002
9.742120e+002, 1.392566e+002
9.746942e+002, 1.392576e+002
9.751763e+002, 1.388181e+002
9.756584e+002, 1.391781e+002
9.761405e+002, 1.407765e+002
9.766226e+002, 1.423259e+002
9.771047e+002, 1.433608e+002
9.775869e+002, 1.440248e+002
9.780690e+002, 1.446463e+002
9.785511e+002, 1.452123e+002
9.790332e+002, 1.457047e+002
9.795153e+002, 1.462215e+002
9.799974e+002, 1.465124e+002
9.804796e+002, 1.461015e+002
9.809617e+002, 1.455377e+002
9.814438e+002, 1.455904e+002
9.819259e+002, 1.464252e+002
9.824080e+002, 1.474202e+002
9.828901e+002, 1.485587e+002
9.833723e+002, 1.498288e+002
9.838544e+002, 1.511778e+002
9.843365e+002, 1.526660e+002
9.848186e+002, 1.546239e+002
9.853007e+002, 1.570524e+002
9.857828e+002, 1.589240e+002
9.862650e+002, 1.590422e+002
9.867471e+002, 1.593262e+002
9.872292e+002, 1.608452e+002
9.877113e+002, 1.632513e+002
9.881934e+002, 1.644610e+002
9.886755e+002, 1.643953e+002
9.891577e+002, 1.650321e+002
9.896398e+002, 1.674899e+002
9.901219e+002, 1.703693e+002
9.906040e+002, 1.719769e+002
9.910861e+002, 1.728178e+002
9.915682e+002, 1.737436e+002
9.920504e+002, 1.749123e+002
9.925325e+002, 1.763112e+002
9.930146e+002, 1.779676e+002
9.934967e+002, 1.797940e+002
9.939788e+002, 1.819833e+002
9.944609e+002, 1.844134e+002
9.949431e+002, 1.858253e+002
9.954252e+002, 1.861639e+002
9.959073e+002, 1.864551e+002
9.963894e+002, 1.877846e+002
9.968715e+002, 1.890886e+002
9.973536e+002, 1.893835e+002
9.978358e+002, 1.887371e+002
9.983179e+002, 1.886317e+002
9.988000e+002, 1.891307e+002
9.992821e+002, 1.901692e+002
9.997642e+002, 1.920186e+002
1.000246e+003, 1.939944e+002
1.000728e+003, 1.946447e+002
1.001211e+003, 1.942744e+002
1.001693e+003, 1.936525e+002
1.002175e+003, 1.931598e+002
1.002657e+003, 1.921279e+002
1.003139e+003, 1.893974e+002
1.003621e+003, 1.866206e+002
1.004103e+003, 1.855653e+002
1.004585e+003, 1.868266e+002
1.005068e+003, 1.861684e+002
1.005550e+003, 1.834352e+002
1.006032e+003, 1.802216e+002
1.006514e+003, 1.774664e+002
1.006996e+003, 1.750736e+002
1.007478e+003, 1.728239e+002
1.007960e+003, 1.707598e+002
1.008442e+003, 1.691588e+002
1.008924e+003, 1.688089e+002
1.009407e+003, 1.679584e+002
1.009889e+003, 1.661932e+002
1.010371e+003, 1.637785e+002
1.010853e+003, 1.609640e+002
1.011335e+003, 1.578658e+002
1.011817e+003, 1.555347e+002
1.012299e+003, 1.542964e+002
1.012781e+003, 1.534216e+002
1.013263e+003, 1.525226e+002
1.013746e+003, 1.516097e+002
1.014228e+003, 1.506554e+002
1.014710e+003, 1.496134e+002
1.015192e+003, 1.488943e+002
1.015674e+003, 1.486664e+002
1.016156e+003, 1.482095e+002
1.016638e+003, 1.466850e+002
1.017120e+003, 1.448081e+002
1.017603e+003, 1.443867e+002
1.018085e+003, 1.450297e+002
1.018567e+003, 1.453748e+002
1.019049e+003, 1.445589e+002
1.019531e+003, 1.436479e+002
1.020013e+003, 1.428916e+002
1.020495e+003, 1.422503e+002
1.020977e+003, 1.417076e+002
1.021459e+003, 1.412659e+002
1.021942e+003, 1.406386e+002
1.022424e+003, 1.397359e+002
1.022906e+003, 1.390564e+002
1.023388e+003, 1.393479e+002
1.023870e+003, 1.398999e+002
1.024352e+003, 1.399172e+002
1.024834e+003, 1.392658e+002
1.025316e+003, 1.390148e+002
1.025799e+003, 1.396221e+002
1.026281e+003, 1.397844e+002
1.026763e+003, 1.386571e+002
1.027245e+003, 1.370168e+002
1.027727e+003, 1.370974e+002
1.028209e+003, 1.384189e+002
1.028691e+003, 1.393639e+002
1.029173e+003, 1.390623e+002
1.029656e+003, 1.386394e+002
1.030138e+003, 1.387447e+002
1.030620e+003, 1.388954e+002
1.031102e+003, 1.385105e+002
1.031584e+003, 1.374114e+002
1.032066e+003, 1.367950e+002
1.032548e+003, 1.367098e+002
1.033030e+003, 1.368259e+002
1.033512e+003, 1.370807e+002
1.033995e+003, 1.372431e+002
1.034477e+003, 1.368356e+002
1.034959e+003, 1.359872e+002
1.035441e+003, 1.355914e+002
1.035923e+003, 1.361645e+002
1.036405e+003, 1.367560e+002
1.036887e+003, 1.372599e+002
1.037369e+003, 1.375916e+002
1.037851e+003, 1.375445e+002
1.038334e+003, 1.371829e+002
1.038816e+003, 1.366553e+002
1.039298e+003, 1.358836e+002
1.039780e+003, 1.354747e+002
1.040262e+003, 1.362277e+002
1.040744e+003, 1.371683e+002
1.041226e+003, 1.375262e+002
1.041708e+003, 1.372756e+002
1.042191e+003, 1.367658e+002
1.042673e+003, 1.359324e+002
1.043155e+003, 1.353439e+002
1.043637e+003, 1.354170e+002
1.044119e+003, 1.358090e+002
1.044601e+003, 1.360725e+002
1.045083e+003, 1.362791e+002
1.045565e+003, 1.365818e+002
1.046047e+003, 1.375090e+002
1.046530e+003, 1.377541e+002
1.047012e+003, 1.368500e+002
1.047494e+003, 1.357784e+002
1.047976e+003, 1.356924e+002
1.048458e+003, 1.364140e+002
1.048940e+003, 1.372506e+002
1.049422e+003, 1.381328e+002
1.049904e+003, 1.385695e+002
1.050386e+003, 1.376713e+002
1.050869e+003, 1.367766e+002
1.051351e+003, 1.369633e+002
1.051833e+003, 1.378803e+002
1.052315e+003, 1.379221e+002
1.052797e+003, 1.369084e+002
1.053279e+003, 1.364686e+002
1.053761e+003, 1.372343e+002
1.054243e+003, 1.382086e+002
1.054726e+003, 1.379080e+002
1.055208e+003, 1.371068e+002
1.055690e+003, 1.369700e+002
1.056172e+003, 1.380838e+002
1.056654e+003, 1.386890e+002
1.057136e+003, 1.383772e+002
1.057618e+003, 1.380494e+002
1.058100e+003, 1.384102e+002
1.058583e+003, 1.391608e+002
1.059065e+003, 1.388874e+002
1.059547e+003, 1.378424e+002
1.060029e+003, 1.371906e+002
1.060511e+003, 1.378878e+002
1.060993e+003, 1.387066e+002
1.061475e+003, 1.394577e+002
1.061957e+003, 1.398575e+002
1.062439e+003, 1.392706e+002
1.062922e+003, 1.374667e+002
1.063404e+003, 1.370025e+002
1.063886e+003, 1.382251e+002
1.064368e+003, 1.393791e+002
1.064850e+003, 1.387174e+002
1.065332e+003, 1.373450e+002
1.065814e+003, 1.359959e+002
1.066296e+003, 1.348343e+002
1.066778e+003, 1.349911e+002
1.067261e+003, 1.373929e+002
1.067743e+003, 1.390979e+002
1.068225e+003, 1.391999e+002
1.068707e+003, 1.384788e+002
1.069189e+003, 1.381678e+002
1.069671e+003, 1.381953e+002
1.070153e+003, 1.384490e+002
1.070635e+003, 1.389800e+002
1.071118e+003, 1.394272e+002
1.071600e+003, 1.397056e+002
1.072082e+003, 1.397776e+002
1.072564e+003, 1.395941e+002
1.073046e+003, 1.391737e+002
1.073528e+003, 1.385243e+002
1.074010e+003, 1.377003e+002
1.074492e+003, 1.374021e+002
1.074974e+003, 1.385371e+002
1.075457e+003, 1.397367e+002
1.075939e+003, 1.398022e+002
1.076421e+003, 1.393074e+002
1.076903e+003, 1.392957e+002
1.077385e+003, 1.401864e+002
1.077867e+003, 1.402317e+002
1.078349e+003, 1.390775e+002
1.078831e+003, 1.382686e+002
1.079313e+003, 1.398009e+002
1.079796e+003, 1.422792e+002
1.080278e+003, 1.435845e+002
1.080760e+003, 1.437590e+002
1.081242e+003, 1.438590e+002
1.081724e+003, 1.440579e+002
1.082206e+003, 1.444363e+002
1.082688e+003, 1.450864e+002
1.083170e+003, 1.458239e+002
1.083652e+003, 1.461581e+002
1.084135e+003, 1.462710e+002
1.084617e+003, 1.470093e+002
1.085099e+003, 1.486672e+002
1.085581e+003, 1.499114e+002
1.086063e+003, 1.491818e+002
1.086545e+003, 1.485274e+002
1.087027e+003, 1.496010e+002
1.087509e+003, 1.521011e+002
1.087992e+003, 1.525470e+002
1.088474e+003, 1.509089e+002
1.088956e+003, 1.498662e+002
1.089438e+003, 1.508961e+002
1.089920e+003, 1.522815e+002
1.090402e+003, 1.522354e+002
1.090884e+003, 1.515407e+002
1.091366e+003, 1.513062e+002
1.091849e+003, 1.520077e+002
1.092331e+003, 1.521792e+002
1.092813e+003, 1.516114e+002
1.093295e+003, 1.512222e+002
1.093777e+003, 1.518766e+002
1.094259e+003, 1.530732e+002
1.094741e+003, 1.539050e+002
1.095223e+003, 1.544523e+002
1.095705e+003, 1.550418e+002
1.096188e+003, 1.559648e+002
1.096670e+003, 1.566797e+002
1.097152e+003, 1.570789e+002
1.097634e+003, 1.572710e+002
1.098116e+003, 1.572098e+002
1.098598e+003, 1.570400e+002
1.099080e+003, 1.575856e+002
1.099562e+003, 1.589100e+002
1.100044e+003, 1.601257e+002
1.100527e+003, 1.605612e+002
1.101009e+003, 1.608675e+002
1.101491e+003, 1.613315e+002
1.101973e+003, 1.619678e+002
1.102455e+003, 1.629287e+002
1.102937e+003, 1.642280e+002
1.103419e+003, 1.650960e+002
1.103901e+003, 1.652772e+002
1.104384e+003, 1.652260e+002
1.104866e+003, 1.651177e+002
1.105348e+003, 1.651655e+002
1.105830e+003, 1.656905e+002
1.106312e+003, 1.668051e+002
1.106794e+003, 1.675940e+002
1.107276e+003, 1.680691e+002
1.107758e+003, 1.681125e+002
1.108240e+003, 1.673223e+002
1.108723e+003, 1.665036e+002
1.109205e+003, 1.672577e+002
1.109687e+003, 1.688596e+002
1.110169e+003, 1.698895e+002
1.110651e+003, 1.693708e+002
1.111133e+003, 1.693839e+002
1.111615e+003, 1.703008e+002
1.112097e+003, 1.713510e+002
1.112579e+003, 1.719922e+002
1.113062e+003, 1.722793e+002
1.113544e+003, 1.723737e+002
1.114026e+003, 1.722873e+002
1.114508e+003, 1.720652e+002
1.114990e+003, 1.715207e+002
1.115472e+003, 1.711094e+002
1.115954e+003, 1.710868e+002
1.116436e+003, 1.711827e+002
1.116919e+003, 1.710430e+002
1.117401e+003, 1.706862e+002
1.117883e+003, 1.703382e+002
1.118365e+003, 1.700203e+002
1.118847e+003, 1.698045e+002
1.119329e+003, 1.700731e+002
1.119811e+003, 1.701540e+002
1.120293e+003, 1.694642e+002
1.120776e+003, 1.682098e+002
1.121258e+003, 1.669578e+002
1.121740e+003, 1.656317e+002
1.122222e+003, 1.652083e+002
1.122704e+003, 1.660979e+002
1.123186e+003, 1.670189e+002
1.123668e+003, 1.664309e+002
1.124150e+003, 1.653232e+002
1.124632e+003, 1.648356e+002
1.125115e+003, 1.651849e+002
1.125597e+003, 1.648924e+002
1.126079e+003, 1.636902e+002
1.126561e+003, 1.627093e+002
1.127043e+003, 1.624671e+002
1.127525e+003, 1.625315e+002
1.128007e+003, 1.623497e+002
1.128489e+003, 1.619136e+002
1.128971e+003, 1.611108e+002
1.129454e+003, 1.595024e+002
1.129936e+003, 1.587613e+002
1.130418e+003, 1.594318e+002
1.130900e+003, 1.601819e+002
1.131382e+003, 1.601870e+002
1.131864e+003, 1.596693e+002
1.132346e+003, 1.592662e+002
1.132828e+003, 1.589310e+002
1.133311e+003, 1.585119e+002
1.133793e+003, 1.576028e+002
1.134275e+003, 1.570693e+002
1.134757e+003, 1.573116e+002
1.135239e+003, 1.577423e+002
1.135721e+003, 1.578487e+002
1.136203e+003, 1.576491e+002
1.136685e+003, 1.573032e+002
1.137167e+003, 1.568184e+002
1.137650e+003, 1.562632e+002
1.138132e+003, 1.555126e+002
1.138614e+003, 1.548830e+002
1.139096e+003, 1.546290e+002
1.139578e+003, 1.545480e+002
1.140060e+003, 1.542635e+002
1.140542e+003, 1.537636e+002
1.141024e+003, 1.537161e+002
1.141506e+003, 1.542126e+002
1.141989e+003, 1.547901e+002
1.142471e+003, 1.553662e+002
1.142953e+003, 1.556382e+002
1.143435e+003, 1.551266e+002
1.143917e+003, 1.540629e+002
1.144399e+003, 1.535769e+002
1.144881e+003, 1.537490e+002
1.145363e+003, 1.539968e+002
1.145846e+003, 1.542033e+002
1.146328e+003, 1.543886e+002
1.146810e+003, 1.546978e+002
1.147292e+003, 1.549094e+002
1.147774e+003, 1.545629e+002
1.148256e+003, 1.535401e+002
1.148738e+003, 1.537107e+002
1.149220e+003, 1.555975e+002
1.149703e+003, 1.568149e+002
1.150185e+003, 1.563261e+002
1.150667e+003, 1.551663e+002
1.151149e+003, 1.547701e+002
1.151631e+003, 1.547888e+002
1.152113e+003, 1.546108e+002
1.152595e+003, 1.539204e+002
1.153077e+003, 1.537789e+002
1.153559e+003, 1.543960e+002
1.154042e+003, 1.552148e+002
1.154524e+003, 1.561430e+002
1.155006e+003, 1.569100e+002
1.155488e+003, 1.567458e+002
1.155970e+003, 1.559426e+002
1.156452e+003, 1.552090e+002
1.156934e+003, 1.547610e+002
1.157416e+003, 1.544124e+002
1.157898e+003, 1.540238e+002
1.158381e+003, 1.538852e+002
1.158863e+003, 1.542724e+002
1.159345e+003, 1.550915e+002
1.159827e+003, 1.560267e+002
1.160309e+003, 1.570513e+002
1.160791e+003, 1.580447e+002
1.161273e+003, 1.594633e+002
1.161755e+003, 1.601036e+002
1.162238e+003, 1.591938e+002
1.162720e+003, 1.579490e+002
1.163202e+003, 1.576386e+002
1.163684e+003, 1.581551e+002
1.164166e+003, 1.588731e+002
1.164648e+003, 1.597430e+002
1.165130e+003, 1.605947e+002
1.165612e+003, 1.617814e+002
1.166094e+003, 1.623857e+002
1.166577e+003, 1.616286e+002
1.167059e+003, 1.603315e+002
1.167541e+003, 1.596748e+002
1.168023e+003, 1.596371e+002
1.168505e+003, 1.601093e+002
1.168987e+003, 1.610847e+002
1.169469e+003, 1.620240e+002
1.169951e+003, 1.627080e+002
1.170433e+003, 1.630856e+002
1.170916e+003, 1.628890e+002
1.171398e+003, 1.624267e+002
1.171880e+003, 1.624536e+002
1.172362e+003, 1.629631e+002
1.172844e+003, 1.636499e+002
1.173326e+003, 1.645014e+002
1.173808e+003, 1.651369e+002
1.174290e+003, 1.648349e+002
1.174773e+003, 1.645156e+002
1.175255e+003, 1.651033e+002
1.175737e+003, 1.663754e+002
1.176219e+003, 1.671084e+002
1.176701e+003, 1.672910e+002
1.177183e+003, 1.672881e+002
1.177665e+003, 1.672014e+002
1.178147e+003, 1.669578e+002
1.178630e+003, 1.659792e+002
1.179112e+003, 1.651678e+002
1.179594e+003, 1.656980e+002
1.180076e+003, 1.675950e+002
1.180558e+003, 1.685753e+002
1.181040e+003, 1.685463e+002
1.181522e+003, 1.686167e+002
1.182004e+003, 1.693459e+002
1.182486e+003, 1.700571e+002
1.182969e+003, 1.699025e+002
1.183451e+003, 1.693705e+002
1.183933e+003, 1.690010e+002
1.184415e+003, 1.688213e+002
1.184897e+003, 1.690832e+002
1.185379e+003, 1.698873e+002
1.185861e+003, 1.704803e+002
1.186343e+003, 1.703335e+002
1.186825e+003, 1.699683e+002
1.187308e+003, 1.701369e+002
1.187790e+003, 1.704547e+002
1.188272e+003, 1.702150e+002
1.188754e+003, 1.688018e+002
1.189236e+003, 1.685180e+002
1.189718e+003, 1.695141e+002
1.190200e+003, 1.708830e+002
1.190682e+003, 1.725092e+002
1.191165e+003, 1.737932e+002
1.191647e+003, 1.735606e+002
1.192129e+003, 1.724877e+002
1.192611e+003, 1.719530e+002
1.193093e+003, 1.724765e+002
1.193575e+003, 1.729609e+002
1.194057e+003, 1.734311e+002
1.194539e+003, 1.737064e+002
1.195021e+003, 1.732537e+002
1.195504e+003, 1.727973e+002
1.195986e+003, 1.735510e+002
1.196468e+003, 1.751357e+002
1.196950e+003, 1.764044e+002
1.197432e+003, 1.771857e+002
1.197914e+003, 1.776466e+002
1.198396e+003, 1.778342e+002
1.198878e+003, 1.775535e+002
1.199360e+003, 1.759527e+002
1.199843e+003, 1.741907e+002
1.200325e+003, 1.742341e+002
1.200807e+003, 1.757054e+002
1.201289e+003, 1.768277e+002
1.201771e+003, 1.773000e+002
1.202253e+003, 1.772996e+002
1.202735e+003, 1.766534e+002
1.203217e+003, 1.761774e+002
1.203700e+003, 1.772510e+002
1.204182e+003, 1.787860e+002
1.204664e+003, 1.790579e+002
1.205146e+003, 1.781669e+002
1.205628e+003, 1.775606e+002
1.206110e+003, 1.774448e+002
1.206592e+003, 1.776928e+002
1.207074e+003, 1.783926e+002
1.207557e+003, 1.791266e+002
1.208039e+003, 1.790639e+002
1.208521e+003, 1.788671e+002
1.209003e+003, 1.797535e+002
1.209485e+003, 1.817226e+002
1.209967e+003, 1.830151e+002
1.210449e+003, 1.833847e+002
1.210931e+003, 1.831395e+002
1.211413e+003, 1.821469e+002
1.211896e+003, 1.810926e+002
1.212378e+003, 1.807628e+002
1.212860e+003, 1.810229e+002
1.213342e+003, 1.820441e+002
1.213824e+003, 1.838360e+002
1.214306e+003, 1.843089e+002
1.214788e+003, 1.827075e+002
1.215270e+003, 1.814138e+002
1.215752e+003, 1.810236e+002
1.216235e+003, 1.812902e+002
1.216717e+003, 1.825328e+002
1.217199e+003, 1.838700e+002
1.217681e+003, 1.837975e+002
1.218163e+003, 1.819837e+002
1.218645e+003, 1.807859e+002
1.219127e+003, 1.805103e+002
1.219609e+003, 1.804339e+002
1.220092e+003, 1.803827e+002
1.220574e+003, 1.802947e+002
1.221056e+003, 1.799496e+002
1.221538e+003, 1.795693e+002
1.222020e+003, 1.795616e+002
1.222502e+003, 1.800764e+002
1.222984e+003, 1.801329e+002
1.223466e+003, 1.795478e+002
1.223948e+003, 1.789729e+002
1.224431e+003, 1.785818e+002
1.224913e+003, 1.784406e+002
1.225395e+003, 1.788215e+002
1.225877e+003, 1.794274e+002
1.226359e+003, 1.798520e+002
1.226841e+003, 1.799883e+002
1.227323e+003, 1.801784e+002
1.227805e+003, 1.805458e+002
1.228287e+003, 1.803933e+002
1.228770e+003, 1.791031e+002
1.229252e+003, 1.777533e+002
1.229734e+003, 1.780952e+002
1.230216e+003, 1.791782e+002
1.230698e+003, 1.797365e+002
1.231180e+003, 1.795124e+002
1.231662e+003, 1.789991e+002
1.232144e+003, 1.781057e+002
1.232627e+003, 1.774464e+002
1.233109e+003, 1.773656e+002
1.233591e+003, 1.775479e+002
1.234073e+003, 1.776318e+002
1.234555e+003, 1.777358e+002
1.235037e+003, 1.781738e+002
1.235519e+003, 1.791932e+002
1.236001e+003, 1.788931e+002
1.236484e+003, 1.770842e+002
1.236966e+003, 1.757000e+002
1.237448e+003, 1.758921e+002
1.237930e+003, 1.766664e+002
1.238412e+003, 1.773840e+002
1.238894e+003, 1.778786e+002
1.239376e+003, 1.778450e+002
1.239858e+003, 1.772195e+002
1.240340e+003, 1.765954e+002
1.240823e+003, 1.759684e+002
1.241305e+003, 1.755816e+002
1.241787e+003, 1.757927e+002
1.242269e+003, 1.759713e+002
1.242751e+003, 1.751432e+002
1.243233e+003, 1.742403e+002
1.243715e+003, 1.746160e+002
1.244197e+003, 1.765065e+002
1.244679e+003, 1.771537e+002
1.245162e+003, 1.765821e+002
1.245644e+003, 1.757283e+002
1.246126e+003, 1.747403e+002
1.246608e+003, 1.741113e+002
1.247090e+003, 1.745611e+002
1.247572e+003, 1.752943e+002
1.248054e+003, 1.753228e+002
1.248536e+003, 1.746101e+002
1.249019e+003, 1.745423e+002
1.249501e+003, 1.750417e+002
1.249983e+003, 1.752187e+002
1.250465e+003, 1.739975e+002
1.250947e+003, 1.730651e+002
1.251429e+003, 1.736765e+002
1.251911e+003, 1.746913e+002
1.252393e+003, 1.750219e+002
1.252875e+003, 1.747113e+002
1.253358e+003, 1.746356e+002
1.253840e+003, 1.747775e+002
1.254322e+003, 1.750345e+002
1.254804e+003, 1.754742e+002
1.255286e+003, 1.758598e+002
1.255768e+003, 1.762337e+002
1.256250e+003, 1.763906e+002
1.256732e+003, 1.760742e+002
1.257214e+003, 1.753623e+002
1.257697e+003, 1.745904e+002
1.258179e+003, 1.738313e+002
1.258661e+003, 1.734081e+002
1.259143e+003, 1.736853e+002
1.259625e+003, 1.740254e+002
1.260107e+003, 1.743928e+002
1.260589e+003, 1.746518e+002
1.261071e+003, 1.745654e+002
1.261554e+003, 1.743029e+002
1.262036e+003, 1.745797e+002
1.262518e+003, 1.751756e+002
1.263000e+003, 1.753429e+002
1.263482e+003, 1.740874e+002
1.263964e+003, 1.735461e+002
1.264446e+003, 1.741321e+002
1.264928e+003, 1.748781e+002
1.265411e+003, 1.750339e+002
1.265893e+003, 1.747588e+002
1.266375e+003, 1.741489e+002
1.266857e+003, 1.733809e+002
1.267339e+003, 1.729158e+002
1.267821e+003, 1.727812e+002
1.268303e+003, 1.733488e+002
1.268785e+003, 1.749354e+002
1.269267e+003, 1.760708e+002
1.269750e+003, 1.749631e+002
1.270232e+003, 1.732116e+002
1.270714e+003, 1.729599e+002
1.271196e+003, 1.736845e+002
1.271678e+003, 1.741072e+002
1.272160e+003, 1.738582e+002
1.272642e+003, 1.740907e+002
1.273124e+003, 1.748617e+002
1.273606e+003, 1.758312e+002
1.274089e+003, 1.773821e+002
1.274571e+003, 1.784129e+002
1.275053e+003, 1.773726e+002
1.275535e+003, 1.753210e+002
1.276017e+003, 1.741245e+002
1.276499e+003, 1.739189e+002
1.276981e+003, 1.740111e+002
1.277463e+003, 1.743841e+002
1.277946e+003, 1.748707e+002
1.278428e+003, 1.755045e+002
1.278910e+003, 1.760593e+002
1.279392e+003, 1.765922e+002
1.279874e+003, 1.768122e+002
1.280356e+003, 1.761140e+002
1.280838e+003, 1.745546e+002
1.281320e+003, 1.745054e+002
1.281802e+003, 1.758141e+002
1.282285e+003, 1.768644e+002
1.282767e+003, 1.765609e+002
1.283249e+003, 1.761207e+002
1.283731e+003, 1.759783e+002
1.284213e+003, 1.758784e+002
1.284695e+003, 1.755648e+002
1.285177e+003, 1.750965e+002
1.285659e+003, 1.746841e+002
1.286141e+003, 1.743680e+002
1.286624e+003, 1.743170e+002
1.287106e+003, 1.748681e+002
1.287588e+003, 1.753188e+002
1.288070e+003, 1.756585e+002
1.288552e+003, 1.757246e+002
1.289034e+003, 1.751710e+002
1.289516e+003, 1.743397e+002
1.289998e+003, 1.739001e+002
1.290481e+003, 1.738394e+002
1.290963e+003, 1.741200e+002
1.291445e+003, 1.750178e+002
1.291927e+003, 1.757903e+002
1.292409e+003, 1.764581e+002
1.292891e+003, 1.769093e+002
1.293373e+003, 1.770007e+002
1.293855e+003, 1.768828e+002
1.294338e+003, 1.766349e+002
1.294820e+003, 1.763510e+002
1.295302e+003, 1.762160e+002
1.295784e+003, 1.762312e+002
1.296266e+003, 1.765194e+002
1.296748e+003, 1.771192e+002
1.297230e+003, 1.772754e+002
1.297712e+003, 1.758450e+002
1.298194e+003, 1.745861e+002
1.298677e+003, 1.754604e+002
1.299159e+003, 1.769255e+002
1.299641e+003, 1.769596e+002
1.300123e+003, 1.755069e+002
1.300605e+003, 1.748665e+002
1.301087e+003, 1.749674e+002
1.301569e+003, 1.752094e+002
1.302051e+003, 1.756731e+002
1.302533e+003, 1.755720e+002
1.303016e+003, 1.745926e+002
##END=



