##NAMES=Goethite
##RRUFFID=R120086
##IDEAL CHEMISTRY=Fe^3+^O(OH)
##LOCALITY=Alexander mine, Vrancice, Příbram, Central Bohemia Region, Bohemia, Czech Republic
##OWNER=RRUFF
##SOURCE=Michael Scott
##DESCRIPTION=Elongated black crystals, associated with R070363, čechite
##STATUS=The identification of this mineral has been confirmed only by single crystal X-ray diffraction.
##URL=rruff.info/R120086
9.112140e+001, 0.000000e+000
9.160352e+001, 3.301913e+002
9.208563e+001, 3.127056e+002
9.256775e+001, 3.118537e+002
9.304987e+001, 3.425804e+002
9.353198e+001, 3.675995e+002
9.401410e+001, 3.726385e+002
9.449622e+001, 3.610625e+002
9.497833e+001, 3.386007e+002
9.546045e+001, 3.081950e+002
9.594257e+001, 2.696578e+002
9.642468e+001, 2.381793e+002
9.690680e+001, 2.134259e+002
9.738892e+001, 1.940742e+002
9.787103e+001, 1.806461e+002
9.835315e+001, 1.720836e+002
9.883527e+001, 1.662465e+002
9.931738e+001, 1.615539e+002
9.979950e+001, 1.582912e+002
1.002816e+002, 1.554656e+002
1.007637e+002, 1.527813e+002
1.012458e+002, 1.505390e+002
1.017280e+002, 1.491769e+002
1.022101e+002, 1.488252e+002
1.026922e+002, 1.489113e+002
1.031743e+002, 1.484087e+002
1.036564e+002, 1.472207e+002
1.041385e+002, 1.464233e+002
1.046207e+002, 1.467733e+002
1.051028e+002, 1.478925e+002
1.055849e+002, 1.484479e+002
1.060670e+002, 1.476802e+002
1.065491e+002, 1.464119e+002
1.070313e+002, 1.456430e+002
1.075134e+002, 1.454850e+002
1.079955e+002, 1.453844e+002
1.084776e+002, 1.446318e+002
1.089597e+002, 1.429804e+002
1.094418e+002, 1.417509e+002
1.099240e+002, 1.414204e+002
1.104061e+002, 1.415635e+002
1.108882e+002, 1.418781e+002
1.113703e+002, 1.422352e+002
1.118524e+002, 1.427799e+002
1.123345e+002, 1.439597e+002
1.128167e+002, 1.465657e+002
1.132988e+002, 1.487786e+002
1.137809e+002, 1.509933e+002
1.142630e+002, 1.525496e+002
1.147451e+002, 1.525616e+002
1.152272e+002, 1.504107e+002
1.157094e+002, 1.461858e+002
1.161915e+002, 1.418756e+002
1.166736e+002, 1.364655e+002
1.171557e+002, 1.319138e+002
1.176378e+002, 1.292243e+002
1.181199e+002, 1.280982e+002
1.186021e+002, 1.274455e+002
1.190842e+002, 1.264023e+002
1.195663e+002, 1.249293e+002
1.200484e+002, 1.236363e+002
1.205305e+002, 1.223511e+002
1.210126e+002, 1.213278e+002
1.214948e+002, 1.209066e+002
1.219769e+002, 1.211750e+002
1.224590e+002, 1.216245e+002
1.229411e+002, 1.217434e+002
1.234232e+002, 1.216150e+002
1.239053e+002, 1.214679e+002
1.243875e+002, 1.214954e+002
1.248696e+002, 1.215691e+002
1.253517e+002, 1.212831e+002
1.258338e+002, 1.203442e+002
1.263159e+002, 1.193738e+002
1.267980e+002, 1.187768e+002
1.272802e+002, 1.185220e+002
1.277623e+002, 1.184545e+002
1.282444e+002, 1.184537e+002
1.287265e+002, 1.185123e+002
1.292086e+002, 1.187177e+002
1.296907e+002, 1.193459e+002
1.301729e+002, 1.199322e+002
1.306550e+002, 1.203448e+002
1.311371e+002, 1.205288e+002
1.316192e+002, 1.204197e+002
1.321013e+002, 1.198794e+002
1.325834e+002, 1.185940e+002
1.330656e+002, 1.174659e+002
1.335477e+002, 1.163066e+002
1.340298e+002, 1.153894e+002
1.345119e+002, 1.150659e+002
1.349940e+002, 1.154206e+002
1.354761e+002, 1.160926e+002
1.359583e+002, 1.162549e+002
1.364404e+002, 1.153259e+002
1.369225e+002, 1.145817e+002
1.374046e+002, 1.140527e+002
1.378867e+002, 1.137507e+002
1.383688e+002, 1.137265e+002
1.388510e+002, 1.140238e+002
1.393331e+002, 1.145719e+002
1.398152e+002, 1.151710e+002
1.402973e+002, 1.161178e+002
1.407794e+002, 1.167173e+002
1.412615e+002, 1.164577e+002
1.417437e+002, 1.155096e+002
1.422258e+002, 1.146243e+002
1.427079e+002, 1.141469e+002
1.431900e+002, 1.140388e+002
1.436721e+002, 1.141042e+002
1.441542e+002, 1.143339e+002
1.446364e+002, 1.147391e+002
1.451185e+002, 1.153822e+002
1.456006e+002, 1.162987e+002
1.460827e+002, 1.172364e+002
1.465648e+002, 1.181189e+002
1.470469e+002, 1.189412e+002
1.475291e+002, 1.197001e+002
1.480112e+002, 1.204214e+002
1.484933e+002, 1.210517e+002
1.489754e+002, 1.214331e+002
1.494575e+002, 1.213801e+002
1.499396e+002, 1.213972e+002
1.504218e+002, 1.217260e+002
1.509039e+002, 1.221960e+002
1.513860e+002, 1.225325e+002
1.518681e+002, 1.225066e+002
1.523502e+002, 1.222162e+002
1.528323e+002, 1.225084e+002
1.533145e+002, 1.242266e+002
1.537966e+002, 1.257506e+002
1.542787e+002, 1.266114e+002
1.547608e+002, 1.270250e+002
1.552429e+002, 1.275021e+002
1.557250e+002, 1.284888e+002
1.562072e+002, 1.300528e+002
1.566893e+002, 1.310379e+002
1.571714e+002, 1.309363e+002
1.576535e+002, 1.308454e+002
1.581356e+002, 1.312506e+002
1.586177e+002, 1.321244e+002
1.590999e+002, 1.331091e+002
1.595820e+002, 1.338160e+002
1.600641e+002, 1.341583e+002
1.605462e+002, 1.351820e+002
1.610283e+002, 1.370436e+002
1.615104e+002, 1.394231e+002
1.619926e+002, 1.421196e+002
1.624747e+002, 1.450969e+002
1.629568e+002, 1.483576e+002
1.634389e+002, 1.517411e+002
1.639210e+002, 1.552818e+002
1.644031e+002, 1.597280e+002
1.648853e+002, 1.658031e+002
1.653674e+002, 1.726939e+002
1.658495e+002, 1.798046e+002
1.663316e+002, 1.879314e+002
1.668137e+002, 1.937876e+002
1.672958e+002, 1.941510e+002
1.677780e+002, 1.899127e+002
1.682601e+002, 1.828716e+002
1.687422e+002, 1.722965e+002
1.692243e+002, 1.591808e+002
1.697064e+002, 1.476485e+002
1.701885e+002, 1.381611e+002
1.706707e+002, 1.305798e+002
1.711528e+002, 1.247173e+002
1.716349e+002, 1.204174e+002
1.721170e+002, 1.170114e+002
1.725991e+002, 1.140155e+002
1.730812e+002, 1.114180e+002
1.735634e+002, 1.094824e+002
1.740455e+002, 1.088066e+002
1.745276e+002, 1.083832e+002
1.750097e+002, 1.078302e+002
1.754918e+002, 1.071346e+002
1.759739e+002, 1.064826e+002
1.764561e+002, 1.061317e+002
1.769382e+002, 1.062394e+002
1.774203e+002, 1.060976e+002
1.779024e+002, 1.053426e+002
1.783845e+002, 1.046464e+002
1.788666e+002, 1.044680e+002
1.793488e+002, 1.048090e+002
1.798309e+002, 1.052770e+002
1.803130e+002, 1.053118e+002
1.807951e+002, 1.045784e+002
1.812772e+002, 1.041659e+002
1.817593e+002, 1.043153e+002
1.822415e+002, 1.045866e+002
1.827236e+002, 1.046084e+002
1.832057e+002, 1.043095e+002
1.836878e+002, 1.039466e+002
1.841699e+002, 1.039087e+002
1.846520e+002, 1.043610e+002
1.851342e+002, 1.048709e+002
1.856163e+002, 1.053952e+002
1.860984e+002, 1.059906e+002
1.865805e+002, 1.068629e+002
1.870626e+002, 1.081051e+002
1.875447e+002, 1.092681e+002
1.880269e+002, 1.094148e+002
1.885090e+002, 1.082623e+002
1.889911e+002, 1.074430e+002
1.894732e+002, 1.075954e+002
1.899553e+002, 1.082725e+002
1.904374e+002, 1.086498e+002
1.909196e+002, 1.084016e+002
1.914017e+002, 1.079891e+002
1.918838e+002, 1.080975e+002
1.923659e+002, 1.087279e+002
1.928480e+002, 1.094619e+002
1.933301e+002, 1.101679e+002
1.938123e+002, 1.108362e+002
1.942944e+002, 1.114177e+002
1.947765e+002, 1.118161e+002
1.952586e+002, 1.122274e+002
1.957407e+002, 1.129174e+002
1.962228e+002, 1.138906e+002
1.967050e+002, 1.147681e+002
1.971871e+002, 1.150830e+002
1.976692e+002, 1.148781e+002
1.981513e+002, 1.151539e+002
1.986334e+002, 1.165680e+002
1.991155e+002, 1.181520e+002
1.995977e+002, 1.191574e+002
2.000798e+002, 1.195709e+002
2.005619e+002, 1.199969e+002
2.010440e+002, 1.209735e+002
2.015261e+002, 1.225324e+002
2.020082e+002, 1.244963e+002
2.024904e+002, 1.271302e+002
2.029725e+002, 1.299923e+002
2.034546e+002, 1.329609e+002
2.039367e+002, 1.359899e+002
2.044188e+002, 1.390228e+002
2.049009e+002, 1.421221e+002
2.053831e+002, 1.456076e+002
2.058652e+002, 1.481008e+002
2.063473e+002, 1.500647e+002
2.068294e+002, 1.507876e+002
2.073115e+002, 1.495158e+002
2.077936e+002, 1.462808e+002
2.082758e+002, 1.419048e+002
2.087579e+002, 1.374647e+002
2.092400e+002, 1.328103e+002
2.097221e+002, 1.284618e+002
2.102042e+002, 1.238879e+002
2.106863e+002, 1.199218e+002
2.111685e+002, 1.172700e+002
2.116506e+002, 1.159997e+002
2.121327e+002, 1.154915e+002
2.126148e+002, 1.148511e+002
2.130969e+002, 1.138906e+002
2.135790e+002, 1.132346e+002
2.140612e+002, 1.130911e+002
2.145433e+002, 1.130998e+002
2.150254e+002, 1.128813e+002
2.155075e+002, 1.123747e+002
2.159896e+002, 1.119397e+002
2.164717e+002, 1.121230e+002
2.169539e+002, 1.133088e+002
2.174360e+002, 1.142396e+002
2.179181e+002, 1.146834e+002
2.184002e+002, 1.149700e+002
2.188823e+002, 1.154406e+002
2.193644e+002, 1.161772e+002
2.198466e+002, 1.170033e+002
2.203287e+002, 1.176634e+002
2.208108e+002, 1.181162e+002
2.212929e+002, 1.186640e+002
2.217750e+002, 1.190804e+002
2.222571e+002, 1.197152e+002
2.227393e+002, 1.211405e+002
2.232214e+002, 1.235496e+002
2.237035e+002, 1.262841e+002
2.241856e+002, 1.284488e+002
2.246677e+002, 1.300835e+002
2.251498e+002, 1.319649e+002
2.256320e+002, 1.345505e+002
2.261141e+002, 1.374428e+002
2.265962e+002, 1.400319e+002
2.270783e+002, 1.422452e+002
2.275604e+002, 1.440777e+002
2.280425e+002, 1.454279e+002
2.285247e+002, 1.463799e+002
2.290068e+002, 1.472138e+002
2.294889e+002, 1.480315e+002
2.299710e+002, 1.487972e+002
2.304531e+002, 1.493559e+002
2.309352e+002, 1.495060e+002
2.314174e+002, 1.498493e+002
2.318995e+002, 1.508988e+002
2.323816e+002, 1.524860e+002
2.328637e+002, 1.542001e+002
2.333458e+002, 1.558619e+002
2.338279e+002, 1.574994e+002
2.343101e+002, 1.591873e+002
2.347922e+002, 1.607522e+002
2.352743e+002, 1.626794e+002
2.357564e+002, 1.651999e+002
2.362385e+002, 1.682121e+002
2.367206e+002, 1.715649e+002
2.372028e+002, 1.752507e+002
2.376849e+002, 1.791979e+002
2.381670e+002, 1.830920e+002
2.386491e+002, 1.864800e+002
2.391312e+002, 1.905679e+002
2.396133e+002, 1.959836e+002
2.400955e+002, 2.023105e+002
2.405776e+002, 2.088735e+002
2.410597e+002, 2.151090e+002
2.415418e+002, 2.212893e+002
2.420239e+002, 2.285849e+002
2.425060e+002, 2.372914e+002
2.429882e+002, 2.469305e+002
2.434703e+002, 2.580605e+002
2.439524e+002, 2.698084e+002
2.444345e+002, 2.811673e+002
2.449166e+002, 2.917117e+002
2.453987e+002, 3.012481e+002
2.458809e+002, 3.087661e+002
2.463630e+002, 3.153104e+002
2.468451e+002, 3.178919e+002
2.473272e+002, 3.164742e+002
2.478093e+002, 3.109289e+002
2.482914e+002, 3.005818e+002
2.487736e+002, 2.848454e+002
2.492557e+002, 2.648818e+002
2.497378e+002, 2.455374e+002
2.502199e+002, 2.258788e+002
2.507020e+002, 2.081369e+002
2.511841e+002, 1.926234e+002
2.516663e+002, 1.791883e+002
2.521484e+002, 1.679034e+002
2.526305e+002, 1.587483e+002
2.531126e+002, 1.514828e+002
2.535947e+002, 1.451465e+002
2.540768e+002, 1.399574e+002
2.545590e+002, 1.356925e+002
2.550411e+002, 1.324899e+002
2.555232e+002, 1.301176e+002
2.560053e+002, 1.284042e+002
2.564874e+002, 1.272825e+002
2.569695e+002, 1.265921e+002
2.574517e+002, 1.259464e+002
2.579338e+002, 1.253048e+002
2.584159e+002, 1.247673e+002
2.588980e+002, 1.245051e+002
2.593801e+002, 1.242724e+002
2.598622e+002, 1.237549e+002
2.603444e+002, 1.228503e+002
2.608265e+002, 1.217853e+002
2.613086e+002, 1.209936e+002
2.617907e+002, 1.207591e+002
2.622728e+002, 1.203516e+002
2.627549e+002, 1.194377e+002
2.632371e+002, 1.185008e+002
2.637192e+002, 1.180789e+002
2.642013e+002, 1.183051e+002
2.646834e+002, 1.188327e+002
2.651655e+002, 1.191210e+002
2.656476e+002, 1.188830e+002
2.661298e+002, 1.191661e+002
2.666119e+002, 1.204739e+002
2.670940e+002, 1.220482e+002
2.675761e+002, 1.231548e+002
2.680582e+002, 1.236608e+002
2.685403e+002, 1.239499e+002
2.690225e+002, 1.244634e+002
2.695046e+002, 1.252692e+002
2.699867e+002, 1.260224e+002
2.704688e+002, 1.265073e+002
2.709509e+002, 1.270653e+002
2.714330e+002, 1.279619e+002
2.719152e+002, 1.292309e+002
2.723973e+002, 1.308315e+002
2.728794e+002, 1.328157e+002
2.733615e+002, 1.352224e+002
2.738436e+002, 1.373651e+002
2.743257e+002, 1.388565e+002
2.748079e+002, 1.403570e+002
2.752900e+002, 1.423736e+002
2.757721e+002, 1.449309e+002
2.762542e+002, 1.477025e+002
2.767363e+002, 1.503641e+002
2.772184e+002, 1.530389e+002
2.777006e+002, 1.564607e+002
2.781827e+002, 1.607304e+002
2.786648e+002, 1.656486e+002
2.791469e+002, 1.712325e+002
2.796290e+002, 1.774084e+002
2.801111e+002, 1.837092e+002
2.805933e+002, 1.896794e+002
2.810754e+002, 1.956735e+002
2.815575e+002, 2.027403e+002
2.820396e+002, 2.116110e+002
2.825217e+002, 2.206320e+002
2.830038e+002, 2.290877e+002
2.834860e+002, 2.369385e+002
2.839681e+002, 2.440111e+002
2.844502e+002, 2.500265e+002
2.849323e+002, 2.553289e+002
2.854144e+002, 2.605989e+002
2.858965e+002, 2.654936e+002
2.863787e+002, 2.711297e+002
2.868608e+002, 2.782577e+002
2.873429e+002, 2.866494e+002
2.878250e+002, 2.954790e+002
2.883071e+002, 3.041787e+002
2.887892e+002, 3.136983e+002
2.892714e+002, 3.254950e+002
2.897535e+002, 3.396769e+002
2.902356e+002, 3.543495e+002
2.907177e+002, 3.683651e+002
2.911998e+002, 3.821957e+002
2.916819e+002, 3.974858e+002
2.921641e+002, 4.151026e+002
2.926462e+002, 4.333239e+002
2.931283e+002, 4.497319e+002
2.936104e+002, 4.645682e+002
2.940925e+002, 4.808749e+002
2.945746e+002, 4.997090e+002
2.950568e+002, 5.207960e+002
2.955389e+002, 5.434969e+002
2.960210e+002, 5.675879e+002
2.965031e+002, 5.937258e+002
2.969852e+002, 6.240139e+002
2.974673e+002, 6.570991e+002
2.979495e+002, 6.897475e+002
2.984316e+002, 7.236129e+002
2.989137e+002, 7.552932e+002
2.993958e+002, 7.814631e+002
2.998779e+002, 8.032556e+002
3.003600e+002, 8.134998e+002
3.008422e+002, 8.050618e+002
3.013243e+002, 7.816044e+002
3.018064e+002, 7.470428e+002
3.022885e+002, 6.980012e+002
3.027706e+002, 6.417802e+002
3.032527e+002, 5.842303e+002
3.037349e+002, 5.247143e+002
3.042170e+002, 4.696903e+002
3.046991e+002, 4.225967e+002
3.051812e+002, 3.820780e+002
3.056633e+002, 3.461899e+002
3.061454e+002, 3.149449e+002
3.066276e+002, 2.881644e+002
3.071097e+002, 2.664361e+002
3.075918e+002, 2.496409e+002
3.080739e+002, 2.350846e+002
3.085560e+002, 2.225916e+002
3.090381e+002, 2.117973e+002
3.095203e+002, 2.021192e+002
3.100024e+002, 1.935264e+002
3.104845e+002, 1.858144e+002
3.109666e+002, 1.788787e+002
3.114487e+002, 1.727189e+002
3.119308e+002, 1.674510e+002
3.124130e+002, 1.633002e+002
3.128951e+002, 1.598657e+002
3.133772e+002, 1.568357e+002
3.138593e+002, 1.541660e+002
3.143414e+002, 1.517065e+002
3.148235e+002, 1.493611e+002
3.153057e+002, 1.471661e+002
3.157878e+002, 1.452278e+002
3.162699e+002, 1.436539e+002
3.167520e+002, 1.421232e+002
3.172341e+002, 1.402534e+002
3.177162e+002, 1.382462e+002
3.181984e+002, 1.365654e+002
3.186805e+002, 1.355073e+002
3.191626e+002, 1.348196e+002
3.196447e+002, 1.340752e+002
3.201268e+002, 1.332217e+002
3.206089e+002, 1.325831e+002
3.210911e+002, 1.326857e+002
3.215732e+002, 1.330231e+002
3.220553e+002, 1.328271e+002
3.225374e+002, 1.316958e+002
3.230195e+002, 1.303964e+002
3.235016e+002, 1.297604e+002
3.239838e+002, 1.297888e+002
3.244659e+002, 1.298870e+002
3.249480e+002, 1.299816e+002
3.254301e+002, 1.299124e+002
3.259122e+002, 1.294167e+002
3.263943e+002, 1.283787e+002
3.268765e+002, 1.274312e+002
3.273586e+002, 1.270821e+002
3.278407e+002, 1.272420e+002
3.283228e+002, 1.274371e+002
3.288049e+002, 1.275976e+002
3.292870e+002, 1.277082e+002
3.297692e+002, 1.277340e+002
3.302513e+002, 1.276834e+002
3.307334e+002, 1.276589e+002
3.312155e+002, 1.277116e+002
3.316976e+002, 1.278253e+002
3.321797e+002, 1.279717e+002
3.326619e+002, 1.281600e+002
3.331440e+002, 1.283459e+002
3.336261e+002, 1.284395e+002
3.341082e+002, 1.284952e+002
3.345903e+002, 1.286634e+002
3.350724e+002, 1.290239e+002
3.355546e+002, 1.295022e+002
3.360367e+002, 1.300540e+002
3.365188e+002, 1.306926e+002
3.370009e+002, 1.312265e+002
3.374830e+002, 1.314115e+002
3.379651e+002, 1.314613e+002
3.384473e+002, 1.317873e+002
3.389294e+002, 1.325567e+002
3.394115e+002, 1.334159e+002
3.398936e+002, 1.340798e+002
3.403757e+002, 1.345742e+002
3.408578e+002, 1.350867e+002
3.413400e+002, 1.357479e+002
3.418221e+002, 1.363944e+002
3.423042e+002, 1.367430e+002
3.427863e+002, 1.367272e+002
3.432684e+002, 1.368020e+002
3.437505e+002, 1.372640e+002
3.442327e+002, 1.379788e+002
3.447148e+002, 1.385793e+002
3.451969e+002, 1.389214e+002
3.456790e+002, 1.393159e+002
3.461611e+002, 1.402135e+002
3.466432e+002, 1.415315e+002
3.471254e+002, 1.428384e+002
3.476075e+002, 1.440360e+002
3.480896e+002, 1.451546e+002
3.485717e+002, 1.461279e+002
3.490538e+002, 1.469433e+002
3.495359e+002, 1.479275e+002
3.500181e+002, 1.494302e+002
3.505002e+002, 1.513299e+002
3.509823e+002, 1.530199e+002
3.514644e+002, 1.542105e+002
3.519465e+002, 1.553941e+002
3.524286e+002, 1.569422e+002
3.529108e+002, 1.587896e+002
3.533929e+002, 1.606587e+002
3.538750e+002, 1.624093e+002
3.543571e+002, 1.640937e+002
3.548392e+002, 1.658363e+002
3.553214e+002, 1.676055e+002
3.558035e+002, 1.694773e+002
3.562856e+002, 1.714191e+002
3.567677e+002, 1.734866e+002
3.572498e+002, 1.757773e+002
3.577319e+002, 1.783238e+002
3.582141e+002, 1.810938e+002
3.586962e+002, 1.841545e+002
3.591783e+002, 1.875760e+002
3.596604e+002, 1.908471e+002
3.601425e+002, 1.934834e+002
3.606246e+002, 1.962259e+002
3.611068e+002, 1.997329e+002
3.615889e+002, 2.040932e+002
3.620710e+002, 2.089719e+002
3.625531e+002, 2.140761e+002
3.630352e+002, 2.194675e+002
3.635173e+002, 2.255051e+002
3.639995e+002, 2.324638e+002
3.644816e+002, 2.397554e+002
3.649637e+002, 2.469727e+002
3.654458e+002, 2.542740e+002
3.659279e+002, 2.620232e+002
3.664100e+002, 2.703519e+002
3.668922e+002, 2.793656e+002
3.673743e+002, 2.893477e+002
3.678564e+002, 3.004923e+002
3.683385e+002, 3.122551e+002
3.688206e+002, 3.248987e+002
3.693027e+002, 3.380017e+002
3.697849e+002, 3.510148e+002
3.702670e+002, 3.637380e+002
3.707491e+002, 3.764338e+002
3.712312e+002, 3.894579e+002
3.717133e+002, 4.028212e+002
3.721954e+002, 4.162850e+002
3.726776e+002, 4.295622e+002
3.731597e+002, 4.431041e+002
3.736418e+002, 4.571812e+002
3.741239e+002, 4.718237e+002
3.746060e+002, 4.870299e+002
3.750881e+002, 5.030029e+002
3.755703e+002, 5.196697e+002
3.760524e+002, 5.364556e+002
3.765345e+002, 5.529734e+002
3.770166e+002, 5.701390e+002
3.774987e+002, 5.879072e+002
3.779808e+002, 6.065949e+002
3.784630e+002, 6.266712e+002
3.789451e+002, 6.483546e+002
3.794272e+002, 6.714816e+002
3.799093e+002, 6.956707e+002
3.803914e+002, 7.215370e+002
3.808735e+002, 7.477539e+002
3.813557e+002, 7.745995e+002
3.818378e+002, 8.014735e+002
3.823199e+002, 8.282035e+002
3.828020e+002, 8.547576e+002
3.832841e+002, 8.809034e+002
3.837662e+002, 9.066085e+002
3.842484e+002, 9.323331e+002
3.847305e+002, 9.549919e+002
3.852126e+002, 9.758802e+002
3.856947e+002, 9.922204e+002
3.861768e+002, 1.003732e+003
3.866589e+002, 1.009808e+003
3.871411e+002, 1.009739e+003
3.876232e+002, 1.003202e+003
3.881053e+002, 9.900327e+002
3.885874e+002, 9.693781e+002
3.890695e+002, 9.390128e+002
3.895516e+002, 9.048751e+002
3.900338e+002, 8.666605e+002
3.905159e+002, 8.266506e+002
3.909980e+002, 7.866286e+002
3.914801e+002, 7.470305e+002
3.919622e+002, 7.084182e+002
3.924443e+002, 6.707125e+002
3.929265e+002, 6.337318e+002
3.934086e+002, 5.999924e+002
3.938907e+002, 5.704114e+002
3.943728e+002, 5.440822e+002
3.948549e+002, 5.206933e+002
3.953370e+002, 5.000998e+002
3.958192e+002, 4.820882e+002
3.963013e+002, 4.667171e+002
3.967834e+002, 4.537998e+002
3.972655e+002, 4.429777e+002
3.977476e+002, 4.345567e+002
3.982297e+002, 4.275142e+002
3.987119e+002, 4.218107e+002
3.991940e+002, 4.169897e+002
3.996761e+002, 4.127511e+002
4.001582e+002, 4.093714e+002
4.006403e+002, 4.057585e+002
4.011224e+002, 4.011139e+002
4.016046e+002, 3.953714e+002
4.020867e+002, 3.879615e+002
4.025688e+002, 3.781662e+002
4.030509e+002, 3.671378e+002
4.035330e+002, 3.561801e+002
4.040151e+002, 3.452898e+002
4.044973e+002, 3.346058e+002
4.049794e+002, 3.234140e+002
4.054615e+002, 3.126849e+002
4.059436e+002, 3.044067e+002
4.064257e+002, 2.990414e+002
4.069078e+002, 2.945722e+002
4.073900e+002, 2.891972e+002
4.078721e+002, 2.833676e+002
4.083542e+002, 2.791651e+002
4.088363e+002, 2.773635e+002
4.093184e+002, 2.766845e+002
4.098005e+002, 2.769313e+002
4.102827e+002, 2.777621e+002
4.107648e+002, 2.779489e+002
4.112469e+002, 2.768306e+002
4.117290e+002, 2.750039e+002
4.122111e+002, 2.737974e+002
4.126932e+002, 2.732645e+002
4.131754e+002, 2.730786e+002
4.136575e+002, 2.735856e+002
4.141396e+002, 2.742000e+002
4.146217e+002, 2.741404e+002
4.151038e+002, 2.733362e+002
4.155859e+002, 2.725709e+002
4.160681e+002, 2.726774e+002
4.165502e+002, 2.737729e+002
4.170323e+002, 2.744551e+002
4.175144e+002, 2.747133e+002
4.179965e+002, 2.746473e+002
4.184786e+002, 2.742777e+002
4.189608e+002, 2.736159e+002
4.194429e+002, 2.727658e+002
4.199250e+002, 2.718044e+002
4.204071e+002, 2.704878e+002
4.208892e+002, 2.681093e+002
4.213713e+002, 2.640519e+002
4.218535e+002, 2.597894e+002
4.223356e+002, 2.550735e+002
4.228177e+002, 2.503734e+002
4.232998e+002, 2.460051e+002
4.237819e+002, 2.420270e+002
4.242640e+002, 2.384488e+002
4.247462e+002, 2.354042e+002
4.252283e+002, 2.329561e+002
4.257104e+002, 2.299202e+002
4.261925e+002, 2.257505e+002
4.266746e+002, 2.215448e+002
4.271567e+002, 2.175009e+002
4.276389e+002, 2.136491e+002
4.281210e+002, 2.100810e+002
4.286031e+002, 2.068736e+002
4.290852e+002, 2.038136e+002
4.295673e+002, 2.004382e+002
4.300494e+002, 1.965975e+002
4.305316e+002, 1.929643e+002
4.310137e+002, 1.898171e+002
4.314958e+002, 1.868810e+002
4.319779e+002, 1.840911e+002
4.324600e+002, 1.814083e+002
4.329421e+002, 1.786851e+002
4.334243e+002, 1.757128e+002
4.339064e+002, 1.725875e+002
4.343885e+002, 1.696900e+002
4.348706e+002, 1.670071e+002
4.353527e+002, 1.646031e+002
4.358348e+002, 1.625731e+002
4.363170e+002, 1.608278e+002
4.367991e+002, 1.592490e+002
4.372812e+002, 1.578898e+002
4.377633e+002, 1.565834e+002
4.382454e+002, 1.551409e+002
4.387275e+002, 1.535867e+002
4.392097e+002, 1.521451e+002
4.396918e+002, 1.509299e+002
4.401739e+002, 1.498161e+002
4.406560e+002, 1.485573e+002
4.411381e+002, 1.471062e+002
4.416202e+002, 1.459241e+002
4.421024e+002, 1.452021e+002
4.425845e+002, 1.447837e+002
4.430666e+002, 1.446006e+002
4.435487e+002, 1.446158e+002
4.440308e+002, 1.445666e+002
4.445129e+002, 1.442348e+002
4.449951e+002, 1.436555e+002
4.454772e+002, 1.431681e+002
4.459593e+002, 1.427417e+002
4.464414e+002, 1.424297e+002
4.469235e+002, 1.422939e+002
4.474056e+002, 1.422707e+002
4.478878e+002, 1.423264e+002
4.483699e+002, 1.424427e+002
4.488520e+002, 1.424566e+002
4.493341e+002, 1.420606e+002
4.498162e+002, 1.409103e+002
4.502983e+002, 1.403604e+002
4.507805e+002, 1.408652e+002
4.512626e+002, 1.414576e+002
4.517447e+002, 1.414920e+002
4.522268e+002, 1.411722e+002
4.527089e+002, 1.411661e+002
4.531910e+002, 1.419577e+002
4.536732e+002, 1.433298e+002
4.541553e+002, 1.443656e+002
4.546374e+002, 1.449288e+002
4.551195e+002, 1.453626e+002
4.556016e+002, 1.454804e+002
4.560837e+002, 1.456618e+002
4.565659e+002, 1.462295e+002
4.570480e+002, 1.472426e+002
4.575301e+002, 1.485148e+002
4.580122e+002, 1.500399e+002
4.584943e+002, 1.518084e+002
4.589764e+002, 1.529602e+002
4.594586e+002, 1.530118e+002
4.599407e+002, 1.531232e+002
4.604228e+002, 1.537730e+002
4.609049e+002, 1.549032e+002
4.613870e+002, 1.564908e+002
4.618691e+002, 1.587440e+002
4.623513e+002, 1.610921e+002
4.628334e+002, 1.625652e+002
4.633155e+002, 1.632197e+002
4.637976e+002, 1.646152e+002
4.642797e+002, 1.675881e+002
4.647618e+002, 1.710971e+002
4.652440e+002, 1.737342e+002
4.657261e+002, 1.754896e+002
4.662082e+002, 1.774456e+002
4.666903e+002, 1.800306e+002
4.671724e+002, 1.829852e+002
4.676545e+002, 1.859556e+002
4.681367e+002, 1.889191e+002
4.686188e+002, 1.922358e+002
4.691009e+002, 1.962725e+002
4.695830e+002, 2.007952e+002
4.700651e+002, 2.047242e+002
4.705472e+002, 2.073281e+002
4.710294e+002, 2.103102e+002
4.715115e+002, 2.143766e+002
4.719936e+002, 2.189367e+002
4.724757e+002, 2.232064e+002
4.729578e+002, 2.269952e+002
4.734399e+002, 2.307911e+002
4.739221e+002, 2.352008e+002
4.744042e+002, 2.403425e+002
4.748863e+002, 2.454149e+002
4.753684e+002, 2.506024e+002
4.758505e+002, 2.555799e+002
4.763326e+002, 2.600179e+002
4.768148e+002, 2.641912e+002
4.772969e+002, 2.686147e+002
4.777790e+002, 2.735214e+002
4.782611e+002, 2.785983e+002
4.787432e+002, 2.831093e+002
4.792253e+002, 2.868884e+002
4.797075e+002, 2.905156e+002
4.801896e+002, 2.945579e+002
4.806717e+002, 2.980271e+002
4.811538e+002, 3.003318e+002
4.816359e+002, 3.015114e+002
4.821180e+002, 3.020027e+002
4.826002e+002, 3.023026e+002
4.830823e+002, 3.020721e+002
4.835644e+002, 3.002190e+002
4.840465e+002, 2.965253e+002
4.845286e+002, 2.920083e+002
4.850107e+002, 2.869262e+002
4.854929e+002, 2.813141e+002
4.859750e+002, 2.751438e+002
4.864571e+002, 2.684158e+002
4.869392e+002, 2.613010e+002
4.874213e+002, 2.536199e+002
4.879034e+002, 2.456565e+002
4.883856e+002, 2.380991e+002
4.888677e+002, 2.310104e+002
4.893498e+002, 2.242547e+002
4.898319e+002, 2.177791e+002
4.903140e+002, 2.115749e+002
4.907961e+002, 2.055350e+002
4.912783e+002, 1.995558e+002
4.917604e+002, 1.937940e+002
4.922425e+002, 1.881816e+002
4.927246e+002, 1.828345e+002
4.932067e+002, 1.779354e+002
4.936888e+002, 1.735641e+002
4.941710e+002, 1.696524e+002
4.946531e+002, 1.662022e+002
4.951352e+002, 1.633925e+002
4.956173e+002, 1.605043e+002
4.960994e+002, 1.573863e+002
4.965815e+002, 1.543486e+002
4.970637e+002, 1.514887e+002
4.975458e+002, 1.488420e+002
4.980279e+002, 1.464636e+002
4.985100e+002, 1.443914e+002
4.989921e+002, 1.425557e+002
4.994742e+002, 1.407631e+002
4.999564e+002, 1.390620e+002
5.004385e+002, 1.372850e+002
5.009206e+002, 1.351616e+002
5.014027e+002, 1.331367e+002
5.018848e+002, 1.315548e+002
5.023669e+002, 1.303751e+002
5.028491e+002, 1.292896e+002
5.033312e+002, 1.280456e+002
5.038133e+002, 1.267504e+002
5.042954e+002, 1.257033e+002
5.047775e+002, 1.249293e+002
5.052596e+002, 1.243155e+002
5.057418e+002, 1.239220e+002
5.062239e+002, 1.236083e+002
5.067060e+002, 1.231423e+002
5.071881e+002, 1.224604e+002
5.076702e+002, 1.218540e+002
5.081523e+002, 1.215255e+002
5.086345e+002, 1.213493e+002
5.091166e+002, 1.211240e+002
5.095987e+002, 1.208184e+002
5.100808e+002, 1.204764e+002
5.105629e+002, 1.201085e+002
5.110450e+002, 1.197293e+002
5.115272e+002, 1.194776e+002
5.120093e+002, 1.194889e+002
5.124914e+002, 1.194471e+002
5.129735e+002, 1.191662e+002
5.134556e+002, 1.188168e+002
5.139377e+002, 1.185525e+002
5.144199e+002, 1.184406e+002
5.149020e+002, 1.186150e+002
5.153841e+002, 1.193382e+002
5.158662e+002, 1.207748e+002
5.163483e+002, 1.216231e+002
5.168304e+002, 1.214616e+002
5.173126e+002, 1.211326e+002
5.177947e+002, 1.205389e+002
5.182768e+002, 1.200215e+002
5.187589e+002, 1.201826e+002
5.192410e+002, 1.212978e+002
5.197231e+002, 1.225958e+002
5.202053e+002, 1.228275e+002
5.206874e+002, 1.218935e+002
5.211695e+002, 1.213301e+002
5.216516e+002, 1.214358e+002
5.221337e+002, 1.218455e+002
5.226158e+002, 1.223960e+002
5.230980e+002, 1.230279e+002
5.235801e+002, 1.235591e+002
5.240622e+002, 1.237397e+002
5.245443e+002, 1.239734e+002
5.250264e+002, 1.248164e+002
5.255085e+002, 1.261589e+002
5.259907e+002, 1.273180e+002
5.264728e+002, 1.280675e+002
5.269549e+002, 1.285187e+002
5.274370e+002, 1.287300e+002
5.279191e+002, 1.286105e+002
5.284012e+002, 1.288584e+002
5.288834e+002, 1.298689e+002
5.293655e+002, 1.309907e+002
5.298476e+002, 1.317329e+002
5.303297e+002, 1.321951e+002
5.308118e+002, 1.327639e+002
5.312939e+002, 1.336591e+002
5.317761e+002, 1.347134e+002
5.322582e+002, 1.354330e+002
5.327403e+002, 1.350844e+002
5.332224e+002, 1.357940e+002
5.337045e+002, 1.384723e+002
5.341866e+002, 1.413018e+002
5.346688e+002, 1.432349e+002
5.351509e+002, 1.443500e+002
5.356330e+002, 1.452153e+002
5.361151e+002, 1.461215e+002
5.365972e+002, 1.471347e+002
5.370793e+002, 1.484966e+002
5.375615e+002, 1.502899e+002
5.380436e+002, 1.520571e+002
5.385257e+002, 1.534456e+002
5.390078e+002, 1.549274e+002
5.394899e+002, 1.569761e+002
5.399720e+002, 1.595831e+002
5.404542e+002, 1.622288e+002
5.409363e+002, 1.646768e+002
5.414184e+002, 1.670003e+002
5.419005e+002, 1.692950e+002
5.423826e+002, 1.715653e+002
5.428647e+002, 1.737601e+002
5.433469e+002, 1.757834e+002
5.438290e+002, 1.778016e+002
5.443111e+002, 1.803285e+002
5.447932e+002, 1.836657e+002
5.452753e+002, 1.866999e+002
5.457574e+002, 1.892479e+002
5.462396e+002, 1.914664e+002
5.467217e+002, 1.936067e+002
5.472038e+002, 1.955856e+002
5.476859e+002, 1.969156e+002
5.481680e+002, 1.971867e+002
5.486501e+002, 1.966865e+002
5.491323e+002, 1.968040e+002
5.496144e+002, 1.987226e+002
5.500965e+002, 1.991394e+002
5.505786e+002, 1.970131e+002
5.510607e+002, 1.940007e+002
5.515428e+002, 1.912655e+002
5.520250e+002, 1.888693e+002
5.525071e+002, 1.862298e+002
5.529892e+002, 1.829404e+002
5.534713e+002, 1.790813e+002
5.539534e+002, 1.746974e+002
5.544355e+002, 1.696514e+002
5.549177e+002, 1.647877e+002
5.553998e+002, 1.604528e+002
5.558819e+002, 1.564644e+002
5.563640e+002, 1.525630e+002
5.568461e+002, 1.487625e+002
5.573282e+002, 1.449281e+002
5.578104e+002, 1.406142e+002
5.582925e+002, 1.364430e+002
5.587746e+002, 1.333884e+002
5.592567e+002, 1.313493e+002
5.597388e+002, 1.293007e+002
5.602209e+002, 1.265875e+002
5.607031e+002, 1.234485e+002
5.611852e+002, 1.206407e+002
5.616673e+002, 1.181992e+002
5.621494e+002, 1.160319e+002
5.626315e+002, 1.142714e+002
5.631136e+002, 1.126812e+002
5.635958e+002, 1.110481e+002
5.640779e+002, 1.094044e+002
5.645600e+002, 1.080140e+002
5.650421e+002, 1.071160e+002
5.655242e+002, 1.065054e+002
5.660063e+002, 1.054017e+002
5.664885e+002, 1.035090e+002
5.669706e+002, 1.020018e+002
5.674527e+002, 1.013427e+002
5.679348e+002, 1.010479e+002
5.684169e+002, 1.009899e+002
5.688990e+002, 1.010786e+002
5.693812e+002, 1.008870e+002
5.698633e+002, 9.992727e+001
5.703454e+002, 9.869839e+001
5.708275e+002, 9.800436e+001
5.713096e+002, 9.780886e+001
5.717917e+002, 9.745020e+001
5.722739e+002, 9.657069e+001
5.727560e+002, 9.549929e+001
5.732381e+002, 9.484783e+001
5.737202e+002, 9.472533e+001
5.742023e+002, 9.455103e+001
5.746844e+002, 9.425735e+001
5.751666e+002, 9.390699e+001
5.756487e+002, 9.320984e+001
5.761308e+002, 9.249313e+001
5.766129e+002, 9.279601e+001
5.770950e+002, 9.473342e+001
5.775771e+002, 9.716264e+001
5.780593e+002, 9.735444e+001
5.785414e+002, 9.418069e+001
5.790235e+002, 9.184354e+001
5.795056e+002, 9.083609e+001
5.799877e+002, 9.044888e+001
5.804698e+002, 9.063709e+001
5.809520e+002, 9.119835e+001
5.814341e+002, 9.181252e+001
5.819162e+002, 9.246842e+001
5.823983e+002, 9.283557e+001
5.828804e+002, 9.220712e+001
5.833625e+002, 9.070371e+001
5.838447e+002, 8.963174e+001
5.843268e+002, 8.928159e+001
5.848089e+002, 8.947944e+001
5.852910e+002, 9.042468e+001
5.857731e+002, 9.197987e+001
5.862552e+002, 9.264916e+001
5.867374e+002, 9.155274e+001
5.872195e+002, 9.032479e+001
5.877016e+002, 8.988102e+001
5.881837e+002, 8.986642e+001
5.886658e+002, 8.958781e+001
5.891479e+002, 8.884913e+001
5.896301e+002, 8.804231e+001
5.901122e+002, 8.764762e+001
5.905943e+002, 8.770065e+001
5.910764e+002, 8.784106e+001
5.915585e+002, 8.808486e+001
5.920406e+002, 8.840554e+001
5.925228e+002, 8.894348e+001
5.930049e+002, 8.948515e+001
5.934870e+002, 8.974146e+001
5.939691e+002, 8.964614e+001
5.944512e+002, 8.947361e+001
5.949333e+002, 8.945617e+001
5.954155e+002, 8.957710e+001
5.958976e+002, 8.975869e+001
5.963797e+002, 8.998958e+001
5.968618e+002, 9.032999e+001
5.973439e+002, 9.097360e+001
5.978260e+002, 9.168278e+001
5.983082e+002, 9.186956e+001
5.987903e+002, 9.128471e+001
5.992724e+002, 9.080941e+001
5.997545e+002, 9.081178e+001
6.002366e+002, 9.101156e+001
6.007188e+002, 9.108447e+001
6.012009e+002, 9.103376e+001
6.016830e+002, 9.109280e+001
6.021651e+002, 9.143014e+001
6.026472e+002, 9.197170e+001
6.031293e+002, 9.244059e+001
6.036115e+002, 9.276758e+001
6.040936e+002, 9.314962e+001
6.045757e+002, 9.355959e+001
6.050578e+002, 9.405383e+001
6.055399e+002, 9.463669e+001
6.060220e+002, 9.533068e+001
6.065042e+002, 9.624844e+001
6.069863e+002, 9.762772e+001
6.074684e+002, 9.899002e+001
6.079505e+002, 9.935287e+001
6.084326e+002, 9.874983e+001
6.089147e+002, 9.856069e+001
6.093969e+002, 9.924892e+001
6.098790e+002, 1.002771e+002
6.103611e+002, 1.012584e+002
6.108432e+002, 1.021689e+002
6.113253e+002, 1.024748e+002
6.118074e+002, 1.013835e+002
6.122896e+002, 1.004418e+002
6.127717e+002, 1.009156e+002
6.132538e+002, 1.019640e+002
6.137359e+002, 1.020372e+002
6.142180e+002, 1.007131e+002
6.147001e+002, 9.888756e+001
6.151823e+002, 9.757005e+001
6.156644e+002, 9.677518e+001
6.161465e+002, 9.620779e+001
6.166286e+002, 9.620362e+001
6.171107e+002, 9.596028e+001
6.175928e+002, 9.512981e+001
6.180750e+002, 9.406300e+001
6.185571e+002, 9.300967e+001
6.190392e+002, 9.204295e+001
6.195213e+002, 9.141035e+001
6.200034e+002, 9.159992e+001
6.204855e+002, 9.218578e+001
6.209677e+002, 9.218884e+001
6.214498e+002, 9.155687e+001
6.219319e+002, 9.065182e+001
6.224140e+002, 8.945370e+001
6.228961e+002, 8.830190e+001
6.233782e+002, 8.804858e+001
6.238604e+002, 8.907228e+001
6.243425e+002, 8.968047e+001
6.248246e+002, 8.954261e+001
6.253067e+002, 8.905582e+001
6.257888e+002, 8.825552e+001
6.262709e+002, 8.734293e+001
6.267531e+002, 8.668179e+001
6.272352e+002, 8.645518e+001
6.277173e+002, 8.653974e+001
6.281994e+002, 8.681161e+001
6.286815e+002, 8.737618e+001
6.291636e+002, 8.752596e+001
6.296458e+002, 8.693179e+001
6.301279e+002, 8.628453e+001
6.306100e+002, 8.596297e+001
6.310921e+002, 8.581913e+001
6.315742e+002, 8.555444e+001
6.320563e+002, 8.500326e+001
6.325385e+002, 8.460069e+001
6.330206e+002, 8.477969e+001
6.335027e+002, 8.529960e+001
6.339848e+002, 8.563384e+001
6.344669e+002, 8.571361e+001
6.349490e+002, 8.594724e+001
6.354312e+002, 8.671117e+001
6.359133e+002, 8.782413e+001
6.363954e+002, 8.842709e+001
6.368775e+002, 8.823981e+001
6.373596e+002, 8.788106e+001
6.378417e+002, 8.714209e+001
6.383239e+002, 8.642254e+001
6.388060e+002, 8.599334e+001
6.392881e+002, 8.584545e+001
6.397702e+002, 8.587049e+001
6.402523e+002, 8.604764e+001
6.407344e+002, 8.624551e+001
6.412166e+002, 8.615097e+001
6.416987e+002, 8.574426e+001
6.421808e+002, 8.549749e+001
6.426629e+002, 8.557523e+001
6.431450e+002, 8.571502e+001
6.436271e+002, 8.559812e+001
6.441093e+002, 8.532696e+001
6.445914e+002, 8.530696e+001
6.450735e+002, 8.598794e+001
6.455556e+002, 8.647939e+001
6.460377e+002, 8.613661e+001
6.465198e+002, 8.544516e+001
6.470020e+002, 8.515160e+001
6.474841e+002, 8.536408e+001
6.479662e+002, 8.561757e+001
6.484483e+002, 8.548141e+001
6.489304e+002, 8.502854e+001
6.494125e+002, 8.478953e+001
6.498947e+002, 8.493679e+001
6.503768e+002, 8.497688e+001
6.508589e+002, 8.455872e+001
6.513410e+002, 8.422038e+001
6.518231e+002, 8.447720e+001
6.523052e+002, 8.522138e+001
6.527874e+002, 8.579951e+001
6.532695e+002, 8.576536e+001
6.537516e+002, 8.551704e+001
6.542337e+002, 8.557082e+001
6.547158e+002, 8.585245e+001
6.551979e+002, 8.598061e+001
6.556801e+002, 8.581853e+001
6.561622e+002, 8.566105e+001
6.566443e+002, 8.592020e+001
6.571264e+002, 8.664927e+001
6.576085e+002, 8.673096e+001
6.580906e+002, 8.556640e+001
6.585728e+002, 8.459864e+001
6.590549e+002, 8.407619e+001
6.595370e+002, 8.396911e+001
6.600191e+002, 8.439976e+001
6.605012e+002, 8.527105e+001
6.609833e+002, 8.607524e+001
6.614655e+002, 8.634635e+001
6.619476e+002, 8.626424e+001
6.624297e+002, 8.643742e+001
6.629118e+002, 8.692675e+001
6.633939e+002, 8.717254e+001
6.638760e+002, 8.688428e+001
6.643582e+002, 8.642162e+001
6.648403e+002, 8.613563e+001
6.653224e+002, 8.601945e+001
6.658045e+002, 8.618666e+001
6.662866e+002, 8.696947e+001
6.667687e+002, 8.771210e+001
6.672509e+002, 8.792239e+001
6.677330e+002, 8.788757e+001
6.682151e+002, 8.819646e+001
6.686972e+002, 8.895373e+001
6.691793e+002, 8.958653e+001
6.696614e+002, 8.942712e+001
6.701436e+002, 8.855382e+001
6.706257e+002, 8.815443e+001
6.711078e+002, 8.856661e+001
6.715899e+002, 8.875297e+001
6.720720e+002, 8.802954e+001
6.725541e+002, 8.724605e+001
6.730363e+002, 8.716805e+001
6.735184e+002, 8.776818e+001
6.740005e+002, 8.829518e+001
6.744826e+002, 8.841476e+001
6.749647e+002, 8.832963e+001
6.754468e+002, 8.811338e+001
6.759290e+002, 8.785737e+001
6.764111e+002, 8.786406e+001
6.768932e+002, 8.823107e+001
6.773753e+002, 8.871992e+001
6.778574e+002, 8.905522e+001
6.783395e+002, 8.923128e+001
6.788217e+002, 8.940626e+001
6.793038e+002, 8.981690e+001
6.797859e+002, 8.990963e+001
6.802680e+002, 8.930790e+001
6.807501e+002, 8.854336e+001
6.812322e+002, 8.811565e+001
6.817144e+002, 8.805146e+001
6.821965e+002, 8.800790e+001
6.826786e+002, 8.767201e+001
6.831607e+002, 8.728723e+001
6.836428e+002, 8.737867e+001
6.841249e+002, 8.787038e+001
6.846071e+002, 8.804688e+001
6.850892e+002, 8.761993e+001
6.855713e+002, 8.708016e+001
6.860534e+002, 8.701911e+001
6.865355e+002, 8.747806e+001
6.870176e+002, 8.768526e+001
6.874998e+002, 8.751505e+001
6.879819e+002, 8.727518e+001
6.884640e+002, 8.702688e+001
6.889461e+002, 8.675594e+001
6.894282e+002, 8.634713e+001
6.899103e+002, 8.585595e+001
6.903925e+002, 8.560132e+001
6.908746e+002, 8.595762e+001
6.913567e+002, 8.659097e+001
6.918388e+002, 8.667427e+001
6.923209e+002, 8.619060e+001
6.928030e+002, 8.553654e+001
6.932852e+002, 8.463569e+001
6.937673e+002, 8.394156e+001
6.942494e+002, 8.412231e+001
6.947315e+002, 8.509512e+001
6.952136e+002, 8.550927e+001
6.956957e+002, 8.497740e+001
6.961779e+002, 8.429101e+001
6.966600e+002, 8.351340e+001
6.971421e+002, 8.284473e+001
6.976242e+002, 8.261372e+001
6.981063e+002, 8.277307e+001
6.985884e+002, 8.287505e+001
6.990706e+002, 8.255435e+001
6.995527e+002, 8.197466e+001
7.000348e+002, 8.160571e+001
7.005169e+002, 8.147642e+001
7.009990e+002, 8.139052e+001
7.014811e+002, 8.138107e+001
7.019633e+002, 8.130471e+001
7.024454e+002, 8.091059e+001
7.029275e+002, 8.033028e+001
7.034096e+002, 8.001601e+001
7.038917e+002, 8.010869e+001
7.043738e+002, 8.036416e+001
7.048560e+002, 8.089415e+001
7.053381e+002, 8.141068e+001
7.058202e+002, 8.161846e+001
7.063023e+002, 8.146202e+001
7.067844e+002, 8.090462e+001
7.072665e+002, 7.986405e+001
7.077487e+002, 7.861774e+001
7.082308e+002, 7.795065e+001
7.087129e+002, 7.793546e+001
7.091950e+002, 7.818485e+001
7.096771e+002, 7.883482e+001
7.101592e+002, 7.950513e+001
7.106414e+002, 8.009277e+001
7.111235e+002, 8.050511e+001
7.116056e+002, 8.045889e+001
7.120877e+002, 7.962743e+001
7.125698e+002, 7.899876e+001
7.130519e+002, 7.933349e+001
7.135341e+002, 7.996451e+001
7.140162e+002, 8.011941e+001
7.144983e+002, 7.977737e+001
7.149804e+002, 7.922326e+001
7.154625e+002, 7.859324e+001
7.159446e+002, 7.802067e+001
7.164268e+002, 7.785153e+001
7.169089e+002, 7.823829e+001
7.173910e+002, 7.833501e+001
7.178731e+002, 7.796616e+001
7.183552e+002, 7.750698e+001
7.188373e+002, 7.693504e+001
7.193195e+002, 7.646280e+001
7.198016e+002, 7.653648e+001
7.202837e+002, 7.736507e+001
7.207658e+002, 7.787003e+001
7.212479e+002, 7.706557e+001
7.217300e+002, 7.601180e+001
7.222122e+002, 7.599974e+001
7.226943e+002, 7.681090e+001
7.231764e+002, 7.744743e+001
7.236585e+002, 7.747466e+001
7.241406e+002, 7.715993e+001
7.246227e+002, 7.691608e+001
7.251049e+002, 7.677035e+001
7.255870e+002, 7.636594e+001
7.260691e+002, 7.520606e+001
7.265512e+002, 7.460620e+001
7.270333e+002, 7.556750e+001
7.275154e+002, 7.694624e+001
7.279976e+002, 7.760271e+001
7.284797e+002, 7.744274e+001
7.289618e+002, 7.710010e+001
7.294439e+002, 7.655716e+001
7.299260e+002, 7.618674e+001
7.304081e+002, 7.659850e+001
7.308903e+002, 7.742090e+001
7.313724e+002, 7.768104e+001
7.318545e+002, 7.712231e+001
7.323366e+002, 7.640365e+001
7.328187e+002, 7.625578e+001
7.333008e+002, 7.660648e+001
7.337830e+002, 7.652935e+001
7.342651e+002, 7.572465e+001
7.347472e+002, 7.514059e+001
7.352293e+002, 7.517619e+001
7.357114e+002, 7.535106e+001
7.361935e+002, 7.532033e+001
7.366757e+002, 7.512519e+001
7.371578e+002, 7.500953e+001
7.376399e+002, 7.512657e+001
7.381220e+002, 7.524112e+001
7.386041e+002, 7.513754e+001
7.390862e+002, 7.495255e+001
7.395684e+002, 7.495250e+001
7.400505e+002, 7.514207e+001
7.405326e+002, 7.525697e+001
7.410147e+002, 7.509078e+001
7.414968e+002, 7.475303e+001
7.419789e+002, 7.460798e+001
7.424611e+002, 7.475843e+001
7.429432e+002, 7.470894e+001
7.434253e+002, 7.421724e+001
7.439074e+002, 7.376607e+001
7.443895e+002, 7.359720e+001
7.448716e+002, 7.366100e+001
7.453538e+002, 7.393514e+001
7.458359e+002, 7.455585e+001
7.463180e+002, 7.492650e+001
7.468001e+002, 7.452908e+001
7.472822e+002, 7.393046e+001
7.477643e+002, 7.372585e+001
7.482465e+002, 7.385960e+001
7.487286e+002, 7.399073e+001
7.492107e+002, 7.396423e+001
7.496928e+002, 7.387254e+001
7.501749e+002, 7.386527e+001
7.506570e+002, 7.395020e+001
7.511392e+002, 7.395710e+001
7.516213e+002, 7.388123e+001
7.521034e+002, 7.373288e+001
7.525855e+002, 7.342250e+001
7.530676e+002, 7.310573e+001
7.535497e+002, 7.302806e+001
7.540319e+002, 7.320200e+001
7.545140e+002, 7.321386e+001
7.549961e+002, 7.279237e+001
7.554782e+002, 7.236028e+001
7.559603e+002, 7.210214e+001
7.564424e+002, 7.203008e+001
7.569246e+002, 7.226412e+001
7.574067e+002, 7.275619e+001
7.578888e+002, 7.309324e+001
7.583709e+002, 7.285852e+001
7.588530e+002, 7.226798e+001
7.593351e+002, 7.207557e+001
7.598173e+002, 7.232475e+001
7.602994e+002, 7.260650e+001
7.607815e+002, 7.284554e+001
7.612636e+002, 7.308639e+001
7.617457e+002, 7.351972e+001
7.622278e+002, 7.400594e+001
7.627100e+002, 7.389397e+001
7.631921e+002, 7.255516e+001
7.636742e+002, 7.157343e+001
7.641563e+002, 7.141114e+001
7.646384e+002, 7.166953e+001
7.651205e+002, 7.232059e+001
7.656027e+002, 7.308723e+001
7.660848e+002, 7.331109e+001
7.665669e+002, 7.265771e+001
7.670490e+002, 7.184775e+001
7.675311e+002, 7.196707e+001
7.680132e+002, 7.281214e+001
7.684954e+002, 7.323015e+001
7.689775e+002, 7.312071e+001
7.694596e+002, 7.281234e+001
7.699417e+002, 7.233889e+001
7.704238e+002, 7.193806e+001
7.709059e+002, 7.210585e+001
7.713881e+002, 7.310811e+001
7.718702e+002, 7.359256e+001
7.723523e+002, 7.306709e+001
7.728344e+002, 7.262856e+001
7.733165e+002, 7.281986e+001
7.737986e+002, 7.319810e+001
7.742808e+002, 7.320168e+001
7.747629e+002, 7.279397e+001
7.752450e+002, 7.242593e+001
7.757271e+002, 7.244087e+001
7.762092e+002, 7.262601e+001
7.766913e+002, 7.261079e+001
7.771735e+002, 7.247775e+001
7.776556e+002, 7.266316e+001
7.781377e+002, 7.328442e+001
7.786198e+002, 7.376612e+001
7.791019e+002, 7.354446e+001
7.795840e+002, 7.281878e+001
7.800662e+002, 7.263403e+001
7.805483e+002, 7.334624e+001
7.810304e+002, 7.392753e+001
7.815125e+002, 7.439448e+001
7.819946e+002, 7.463848e+001
7.824767e+002, 7.441704e+001
7.829589e+002, 7.398078e+001
7.834410e+002, 7.389271e+001
7.839231e+002, 7.442007e+001
7.844052e+002, 7.462363e+001
7.848873e+002, 7.349104e+001
7.853694e+002, 7.202354e+001
7.858516e+002, 7.151529e+001
7.863337e+002, 7.181430e+001
7.868158e+002, 7.207818e+001
7.872979e+002, 7.197266e+001
7.877800e+002, 7.192058e+001
7.882621e+002, 7.263488e+001
7.887443e+002, 7.405956e+001
7.892264e+002, 7.435622e+001
7.897085e+002, 7.295769e+001
7.901906e+002, 7.203307e+001
7.906727e+002, 7.260442e+001
7.911548e+002, 7.351939e+001
7.916370e+002, 7.359396e+001
7.921191e+002, 7.294144e+001
7.926012e+002, 7.233721e+001
7.930833e+002, 7.182207e+001
7.935654e+002, 7.146008e+001
7.940475e+002, 7.111701e+001
7.945297e+002, 7.104989e+001
7.950118e+002, 7.183140e+001
7.954939e+002, 7.318124e+001
7.959760e+002, 7.409837e+001
7.964581e+002, 7.402032e+001
7.969402e+002, 7.333130e+001
7.974224e+002, 7.235110e+001
7.979045e+002, 7.119218e+001
7.983866e+002, 7.074615e+001
7.988687e+002, 7.116262e+001
7.993508e+002, 7.158974e+001
7.998329e+002, 7.155407e+001
8.003151e+002, 7.133926e+001
8.007972e+002, 7.149130e+001
8.012793e+002, 7.215440e+001
8.017614e+002, 7.261873e+001
8.022435e+002, 7.298251e+001
8.027256e+002, 7.305095e+001
8.032078e+002, 7.246951e+001
8.036899e+002, 7.175794e+001
8.041720e+002, 7.150456e+001
8.046541e+002, 7.171476e+001
8.051362e+002, 7.187846e+001
8.056183e+002, 7.157290e+001
8.061005e+002, 7.127718e+001
8.065826e+002, 7.171163e+001
8.070647e+002, 7.249165e+001
8.075468e+002, 7.267227e+001
8.080289e+002, 7.213857e+001
8.085110e+002, 7.146651e+001
8.089932e+002, 7.102827e+001
8.094753e+002, 7.084842e+001
8.099574e+002, 7.105455e+001
8.104395e+002, 7.177967e+001
8.109216e+002, 7.229503e+001
8.114037e+002, 7.250991e+001
8.118859e+002, 7.260189e+001
8.123680e+002, 7.265856e+001
8.128501e+002, 7.264204e+001
8.133322e+002, 7.246309e+001
8.138143e+002, 7.208680e+001
8.142964e+002, 7.177978e+001
8.147786e+002, 7.154448e+001
8.152607e+002, 7.145554e+001
8.157428e+002, 7.162137e+001
8.162249e+002, 7.193081e+001
8.167070e+002, 7.233200e+001
8.171891e+002, 7.274429e+001
8.176713e+002, 7.288906e+001
8.181534e+002, 7.248788e+001
8.186355e+002, 7.178611e+001
8.191176e+002, 7.115929e+001
8.195997e+002, 7.063289e+001
8.200818e+002, 7.047086e+001
8.205640e+002, 7.075484e+001
8.210461e+002, 7.108390e+001
8.215282e+002, 7.116409e+001
8.220103e+002, 7.109508e+001
8.224924e+002, 7.117944e+001
8.229745e+002, 7.146865e+001
8.234567e+002, 7.179964e+001
8.239388e+002, 7.232612e+001
8.244209e+002, 7.272043e+001
8.249030e+002, 7.283904e+001
8.253851e+002, 7.277531e+001
8.258672e+002, 7.259693e+001
8.263494e+002, 7.232191e+001
8.268315e+002, 7.214192e+001
8.273136e+002, 7.235456e+001
8.277957e+002, 7.250292e+001
8.282778e+002, 7.199644e+001
8.287599e+002, 7.121548e+001
8.292421e+002, 7.091344e+001
8.297242e+002, 7.118749e+001
8.302063e+002, 7.155096e+001
8.306884e+002, 7.163258e+001
8.311705e+002, 7.155379e+001
8.316526e+002, 7.162849e+001
8.321348e+002, 7.186227e+001
8.326169e+002, 7.207596e+001
8.330990e+002, 7.229472e+001
8.335811e+002, 7.231741e+001
8.340632e+002, 7.190760e+001
8.345453e+002, 7.131052e+001
8.350275e+002, 7.109605e+001
8.355096e+002, 7.148203e+001
8.359917e+002, 7.159966e+001
8.364738e+002, 7.123044e+001
8.369559e+002, 7.084350e+001
8.374380e+002, 7.035771e+001
8.379202e+002, 7.009982e+001
8.384023e+002, 7.070523e+001
8.388844e+002, 7.204886e+001
8.393665e+002, 7.289651e+001
8.398486e+002, 7.222214e+001
8.403307e+002, 7.121989e+001
8.408129e+002, 7.126141e+001
8.412950e+002, 7.181812e+001
8.417771e+002, 7.176369e+001
8.422592e+002, 7.100831e+001
8.427413e+002, 7.018217e+001
8.432234e+002, 6.966778e+001
8.437056e+002, 6.944137e+001
8.441877e+002, 6.949915e+001
8.446698e+002, 6.986124e+001
8.451519e+002, 7.029678e+001
8.456340e+002, 7.091873e+001
8.461161e+002, 7.125031e+001
8.465983e+002, 7.093079e+001
8.470804e+002, 7.036756e+001
8.475625e+002, 7.010605e+001
8.480446e+002, 7.015396e+001
8.485267e+002, 7.034070e+001
8.490089e+002, 7.098156e+001
8.494910e+002, 7.134525e+001
8.499731e+002, 7.090546e+001
8.504552e+002, 7.035159e+001
8.509373e+002, 7.044944e+001
8.514194e+002, 7.101408e+001
8.519016e+002, 7.120113e+001
8.523837e+002, 7.051800e+001
8.528658e+002, 6.982494e+001
8.533479e+002, 7.014388e+001
8.538300e+002, 7.087767e+001
8.543121e+002, 7.085853e+001
8.547943e+002, 7.017617e+001
8.552764e+002, 6.967363e+001
8.557585e+002, 6.971628e+001
8.562406e+002, 7.006416e+001
8.567227e+002, 7.045402e+001
8.572048e+002, 7.086937e+001
8.576870e+002, 7.107458e+001
8.581691e+002, 7.097424e+001
8.586512e+002, 7.105924e+001
8.591333e+002, 7.157381e+001
8.596154e+002, 7.212121e+001
8.600975e+002, 7.248294e+001
8.605797e+002, 7.259496e+001
8.610618e+002, 7.213258e+001
8.615439e+002, 7.037503e+001
8.620260e+002, 6.926066e+001
8.625081e+002, 6.949726e+001
8.629902e+002, 6.991928e+001
8.634724e+002, 6.981021e+001
8.639545e+002, 6.942177e+001
8.644366e+002, 6.926102e+001
8.649187e+002, 6.944663e+001
8.654008e+002, 6.963515e+001
8.658829e+002, 6.950394e+001
8.663651e+002, 6.933312e+001
8.668472e+002, 6.947632e+001
8.673293e+002, 6.983410e+001
8.678114e+002, 7.025642e+001
8.682935e+002, 7.066094e+001
8.687756e+002, 7.076083e+001
8.692578e+002, 7.030807e+001
8.697399e+002, 6.949886e+001
8.702220e+002, 6.872208e+001
8.707041e+002, 6.796086e+001
8.711862e+002, 6.768902e+001
8.716683e+002, 6.804594e+001
8.721505e+002, 6.855405e+001
8.726326e+002, 6.908533e+001
8.731147e+002, 6.949012e+001
8.735968e+002, 6.944321e+001
8.740789e+002, 6.878303e+001
8.745610e+002, 6.854630e+001
8.750432e+002, 6.910747e+001
8.755253e+002, 6.957986e+001
8.760074e+002, 6.980679e+001
8.764895e+002, 6.983170e+001
8.769716e+002, 6.956438e+001
8.774537e+002, 6.912407e+001
8.779359e+002, 6.890648e+001
8.784180e+002, 6.912889e+001
8.789001e+002, 6.938486e+001
8.793822e+002, 6.949522e+001
8.798643e+002, 6.945649e+001
8.803464e+002, 6.926125e+001
8.808286e+002, 6.891422e+001
8.813107e+002, 6.831318e+001
8.817928e+002, 6.745831e+001
8.822749e+002, 6.680367e+001
8.827570e+002, 6.694039e+001
8.832391e+002, 6.761945e+001
8.837213e+002, 6.813831e+001
8.842034e+002, 6.849004e+001
8.846855e+002, 6.842057e+001
8.851676e+002, 6.779247e+001
8.856497e+002, 6.733942e+001
8.861318e+002, 6.773112e+001
8.866140e+002, 6.862828e+001
8.870961e+002, 6.883264e+001
8.875782e+002, 6.795605e+001
8.880603e+002, 6.738117e+001
8.885424e+002, 6.723062e+001
8.890245e+002, 6.722440e+001
8.895067e+002, 6.728669e+001
8.899888e+002, 6.741003e+001
8.904709e+002, 6.766150e+001
8.909530e+002, 6.803774e+001
8.914351e+002, 6.816129e+001
8.919172e+002, 6.786558e+001
8.923994e+002, 6.741366e+001
8.928815e+002, 6.669296e+001
8.933636e+002, 6.603151e+001
8.938457e+002, 6.580742e+001
8.943278e+002, 6.593246e+001
8.948099e+002, 6.607224e+001
8.952921e+002, 6.609051e+001
8.957742e+002, 6.604400e+001
8.962563e+002, 6.607331e+001
8.967384e+002, 6.602879e+001
8.972205e+002, 6.542821e+001
8.977026e+002, 6.448417e+001
8.981848e+002, 6.419344e+001
8.986669e+002, 6.483295e+001
8.991490e+002, 6.550646e+001
8.996311e+002, 6.529276e+001
9.001132e+002, 6.447890e+001
9.005953e+002, 6.416147e+001
9.010775e+002, 6.437550e+001
9.015596e+002, 6.473316e+001
9.020417e+002, 6.526965e+001
9.025238e+002, 6.566209e+001
9.030059e+002, 6.573112e+001
9.034880e+002, 6.551643e+001
9.039702e+002, 6.504475e+001
9.044523e+002, 6.417214e+001
9.049344e+002, 6.362655e+001
9.054165e+002, 6.350670e+001
9.058986e+002, 6.358625e+001
9.063807e+002, 6.416991e+001
9.068629e+002, 6.465246e+001
9.073450e+002, 6.424201e+001
9.078271e+002, 6.321608e+001
9.083092e+002, 6.283205e+001
9.087913e+002, 6.381044e+001
9.092734e+002, 6.463695e+001
9.097556e+002, 6.438042e+001
9.102377e+002, 6.390432e+001
9.107198e+002, 6.400175e+001
9.112019e+002, 6.448081e+001
9.116840e+002, 6.489753e+001
9.121661e+002, 6.509903e+001
9.126483e+002, 6.507880e+001
9.131304e+002, 6.477671e+001
9.136125e+002, 6.429827e+001
9.140946e+002, 6.366988e+001
9.145767e+002, 6.301670e+001
9.150588e+002, 6.279350e+001
9.155410e+002, 6.304919e+001
9.160231e+002, 6.347055e+001
9.165052e+002, 6.388211e+001
9.169873e+002, 6.422141e+001
9.174694e+002, 6.432882e+001
9.179515e+002, 6.419141e+001
9.184337e+002, 6.419585e+001
9.189158e+002, 6.437901e+001
9.193979e+002, 6.456992e+001
9.198800e+002, 6.479443e+001
9.203621e+002, 6.482027e+001
9.208442e+002, 6.427662e+001
9.213264e+002, 6.325616e+001
9.218085e+002, 6.277027e+001
9.222906e+002, 6.322917e+001
9.227727e+002, 6.355385e+001
9.232548e+002, 6.365892e+001
9.237369e+002, 6.366890e+001
9.242191e+002, 6.361618e+001
9.247012e+002, 6.351598e+001
9.251833e+002, 6.330172e+001
9.256654e+002, 6.294857e+001
9.261475e+002, 6.294988e+001
9.266296e+002, 6.398162e+001
9.271118e+002, 6.478057e+001
9.275939e+002, 6.442992e+001
9.280760e+002, 6.370960e+001
9.285581e+002, 6.349703e+001
9.290402e+002, 6.375017e+001
9.295223e+002, 6.394221e+001
9.300045e+002, 6.383981e+001
9.304866e+002, 6.363409e+001
9.309687e+002, 6.336104e+001
9.314508e+002, 6.317798e+001
9.319329e+002, 6.351009e+001
9.324150e+002, 6.414780e+001
9.328972e+002, 6.438612e+001
9.333793e+002, 6.405186e+001
9.338614e+002, 6.353407e+001
9.343435e+002, 6.314094e+001
9.348256e+002, 6.286840e+001
9.353077e+002, 6.268862e+001
9.357899e+002, 6.260808e+001
9.362720e+002, 6.279260e+001
9.367541e+002, 6.329205e+001
9.372362e+002, 6.366152e+001
9.377183e+002, 6.367041e+001
9.382004e+002, 6.346750e+001
9.386826e+002, 6.325124e+001
9.391647e+002, 6.301883e+001
9.396468e+002, 6.289282e+001
9.401289e+002, 6.284863e+001
9.406110e+002, 6.299566e+001
9.410931e+002, 6.364674e+001
9.415753e+002, 6.410777e+001
9.420574e+002, 6.363017e+001
9.425395e+002, 6.263984e+001
9.430216e+002, 6.234936e+001
9.435037e+002, 6.310140e+001
9.439858e+002, 6.351155e+001
9.444680e+002, 6.321227e+001
9.449501e+002, 6.286850e+001
9.454322e+002, 6.257073e+001
9.459143e+002, 6.246230e+001
9.463964e+002, 6.283647e+001
9.468785e+002, 6.356136e+001
9.473607e+002, 6.399904e+001
9.478428e+002, 6.382666e+001
9.483249e+002, 6.358068e+001
9.488070e+002, 6.364170e+001
9.492891e+002, 6.368182e+001
9.497712e+002, 6.320353e+001
9.502534e+002, 6.251731e+001
9.507355e+002, 6.234540e+001
9.512176e+002, 6.282244e+001
9.516997e+002, 6.332184e+001
9.521818e+002, 6.332177e+001
9.526639e+002, 6.315092e+001
9.531461e+002, 6.322955e+001
9.536282e+002, 6.349369e+001
9.541103e+002, 6.389756e+001
9.545924e+002, 6.436449e+001
9.550745e+002, 6.454247e+001
9.555566e+002, 6.425310e+001
9.560388e+002, 6.379528e+001
9.565209e+002, 6.355772e+001
9.570030e+002, 6.350649e+001
9.574851e+002, 6.342408e+001
9.579672e+002, 6.331264e+001
9.584493e+002, 6.352330e+001
9.589315e+002, 6.417998e+001
9.594136e+002, 6.482652e+001
9.598957e+002, 6.513873e+001
9.603778e+002, 6.518721e+001
9.608599e+002, 6.515089e+001
9.613420e+002, 6.503881e+001
9.618242e+002, 6.476157e+001
9.623063e+002, 6.417397e+001
9.627884e+002, 6.379742e+001
9.632705e+002, 6.394550e+001
9.637526e+002, 6.418184e+001
9.642347e+002, 6.403280e+001
9.647169e+002, 6.356472e+001
9.651990e+002, 6.326564e+001
9.656811e+002, 6.332384e+001
9.661632e+002, 6.326400e+001
9.666453e+002, 6.275490e+001
9.671274e+002, 6.250709e+001
9.676096e+002, 6.301116e+001
9.680917e+002, 6.383237e+001
9.685738e+002, 6.451484e+001
9.690559e+002, 6.500524e+001
9.695380e+002, 6.516918e+001
9.700201e+002, 6.465836e+001
9.705023e+002, 6.424056e+001
9.709844e+002, 6.449130e+001
9.714665e+002, 6.466697e+001
9.719486e+002, 6.388396e+001
9.724307e+002, 6.263805e+001
9.729128e+002, 6.193217e+001
9.733950e+002, 6.203228e+001
9.738771e+002, 6.260053e+001
9.743592e+002, 6.396696e+001
9.748413e+002, 6.518652e+001
9.753234e+002, 6.511155e+001
9.758055e+002, 6.453325e+001
9.762877e+002, 6.482966e+001
9.767698e+002, 6.583592e+001
9.772519e+002, 6.619955e+001
9.777340e+002, 6.526229e+001
9.782161e+002, 6.426351e+001
9.786982e+002, 6.485405e+001
9.791804e+002, 6.613828e+001
9.796625e+002, 6.626304e+001
9.801446e+002, 6.555966e+001
9.806267e+002, 6.532658e+001
9.811088e+002, 6.579219e+001
9.815909e+002, 6.624094e+001
9.820731e+002, 6.618871e+001
9.825552e+002, 6.579688e+001
9.830373e+002, 6.513297e+001
9.835194e+002, 6.432668e+001
9.840015e+002, 6.447488e+001
9.844836e+002, 6.560462e+001
9.849658e+002, 6.659951e+001
9.854479e+002, 6.711919e+001
9.859300e+002, 6.729625e+001
9.864121e+002, 6.720226e+001
9.868942e+002, 6.694079e+001
9.873763e+002, 6.695140e+001
9.878585e+002, 6.733568e+001
9.883406e+002, 6.718675e+001
9.888227e+002, 6.612493e+001
9.893048e+002, 6.573219e+001
9.897869e+002, 6.689268e+001
9.902690e+002, 6.858595e+001
9.907512e+002, 6.965031e+001
9.912333e+002, 7.012124e+001
9.917154e+002, 7.040002e+001
9.921975e+002, 7.032698e+001
9.926796e+002, 7.040562e+001
9.931617e+002, 7.079653e+001
9.936439e+002, 7.116169e+001
9.941260e+002, 7.108797e+001
9.946081e+002, 7.104861e+001
9.950902e+002, 7.203465e+001
9.955723e+002, 7.412257e+001
9.960544e+002, 7.498051e+001
9.965366e+002, 7.330199e+001
9.970187e+002, 7.214152e+001
9.975008e+002, 7.230791e+001
9.979829e+002, 7.280247e+001
9.984650e+002, 7.312268e+001
9.989471e+002, 7.330584e+001
9.994293e+002, 7.345251e+001
9.999114e+002, 7.357433e+001
1.000393e+003, 7.370843e+001
1.000876e+003, 7.414908e+001
1.001358e+003, 7.424120e+001
1.001840e+003, 7.325657e+001
1.002322e+003, 7.218971e+001
1.002804e+003, 7.200129e+001
1.003286e+003, 7.244627e+001
1.003768e+003, 7.286257e+001
1.004250e+003, 7.308350e+001
1.004733e+003, 7.298878e+001
1.005215e+003, 7.228360e+001
1.005697e+003, 7.148502e+001
1.006179e+003, 7.095754e+001
1.006661e+003, 7.058543e+001
1.007143e+003, 7.019263e+001
1.007625e+003, 6.979697e+001
1.008107e+003, 6.954426e+001
1.008589e+003, 6.950581e+001
1.009072e+003, 6.949291e+001
1.009554e+003, 6.951848e+001
1.010036e+003, 6.934315e+001
1.010518e+003, 6.849602e+001
1.011000e+003, 6.729050e+001
1.011482e+003, 6.628008e+001
1.011964e+003, 6.557938e+001
1.012446e+003, 6.513010e+001
1.012929e+003, 6.490786e+001
1.013411e+003, 6.481036e+001
1.013893e+003, 6.465660e+001
1.014375e+003, 6.456524e+001
1.014857e+003, 6.496400e+001
1.015339e+003, 6.564221e+001
1.015821e+003, 6.586090e+001
1.016303e+003, 6.547080e+001
1.016785e+003, 6.470494e+001
1.017268e+003, 6.365188e+001
1.017750e+003, 6.275127e+001
1.018232e+003, 6.286449e+001
1.018714e+003, 6.374563e+001
1.019196e+003, 6.447439e+001
1.019678e+003, 6.499851e+001
1.020160e+003, 6.518933e+001
1.020642e+003, 6.501159e+001
1.021125e+003, 6.452824e+001
1.021607e+003, 6.374380e+001
1.022089e+003, 6.284621e+001
1.022571e+003, 6.227647e+001
1.023053e+003, 6.201583e+001
1.023535e+003, 6.181717e+001
1.024017e+003, 6.167944e+001
1.024499e+003, 6.134054e+001
1.024981e+003, 6.066614e+001
1.025464e+003, 6.015941e+001
1.025946e+003, 6.031396e+001
1.026428e+003, 6.092373e+001
1.026910e+003, 6.137179e+001
1.027392e+003, 6.165851e+001
1.027874e+003, 6.175476e+001
1.028356e+003, 6.162235e+001
1.028838e+003, 6.146364e+001
1.029321e+003, 6.131844e+001
1.029803e+003, 6.125895e+001
1.030285e+003, 6.136572e+001
1.030767e+003, 6.161092e+001
1.031249e+003, 6.192638e+001
1.031731e+003, 6.247292e+001
1.032213e+003, 6.240068e+001
1.032695e+003, 6.136084e+001
1.033177e+003, 6.054577e+001
1.033660e+003, 6.044892e+001
1.034142e+003, 6.065413e+001
1.034624e+003, 6.072343e+001
1.035106e+003, 6.071130e+001
1.035588e+003, 6.099896e+001
1.036070e+003, 6.199730e+001
1.036552e+003, 6.226496e+001
1.037034e+003, 6.123419e+001
1.037516e+003, 6.040558e+001
1.037999e+003, 6.039654e+001
1.038481e+003, 6.079174e+001
1.038963e+003, 6.135766e+001
1.039445e+003, 6.199608e+001
1.039927e+003, 6.192037e+001
1.040409e+003, 6.025982e+001
1.040891e+003, 5.942765e+001
1.041373e+003, 6.006169e+001
1.041855e+003, 6.072636e+001
1.042338e+003, 6.086236e+001
1.042820e+003, 6.080402e+001
1.043302e+003, 6.096967e+001
1.043784e+003, 6.129156e+001
1.044266e+003, 6.123261e+001
1.044748e+003, 6.022488e+001
1.045230e+003, 5.976847e+001
1.045712e+003, 6.054722e+001
1.046195e+003, 6.116170e+001
1.046677e+003, 6.077415e+001
1.047159e+003, 6.014758e+001
1.047641e+003, 6.024541e+001
1.048123e+003, 6.094570e+001
1.048605e+003, 6.118220e+001
1.049087e+003, 6.032374e+001
1.049569e+003, 5.994189e+001
1.050052e+003, 6.073037e+001
1.050534e+003, 6.148627e+001
1.051016e+003, 6.166273e+001
1.051498e+003, 6.151904e+001
1.051980e+003, 6.126999e+001
1.052462e+003, 6.097401e+001
1.052944e+003, 6.082745e+001
1.053426e+003, 6.110026e+001
1.053908e+003, 6.104260e+001
1.054391e+003, 6.012194e+001
1.054873e+003, 5.925264e+001
1.055355e+003, 5.870690e+001
1.055837e+003, 5.859158e+001
1.056319e+003, 5.935972e+001
1.056801e+003, 6.072104e+001
1.057283e+003, 6.123086e+001
1.057765e+003, 6.005567e+001
1.058248e+003, 5.919160e+001
1.058730e+003, 5.947235e+001
1.059212e+003, 5.992871e+001
1.059694e+003, 5.997775e+001
1.060176e+003, 5.993824e+001
1.060658e+003, 6.039655e+001
1.061140e+003, 6.117683e+001
1.061622e+003, 6.135041e+001
1.062104e+003, 6.046446e+001
1.062587e+003, 5.953933e+001
1.063069e+003, 5.870062e+001
1.063551e+003, 5.820274e+001
1.064033e+003, 5.850795e+001
1.064515e+003, 5.901641e+001
1.064997e+003, 5.892415e+001
1.065479e+003, 5.837388e+001
1.065961e+003, 5.823754e+001
1.066443e+003, 5.897312e+001
1.066926e+003, 5.937885e+001
1.067408e+003, 5.851020e+001
1.067890e+003, 5.768870e+001
1.068372e+003, 5.776530e+001
1.068854e+003, 5.827278e+001
1.069336e+003, 5.875505e+001
1.069818e+003, 5.913116e+001
1.070300e+003, 5.940261e+001
1.070782e+003, 5.956585e+001
1.071265e+003, 5.964970e+001
1.071747e+003, 5.971589e+001
1.072229e+003, 5.965098e+001
1.072711e+003, 5.903133e+001
1.073193e+003, 5.851355e+001
1.073675e+003, 5.907258e+001
1.074157e+003, 6.034222e+001
1.074639e+003, 6.109533e+001
1.075122e+003, 6.092719e+001
1.075604e+003, 6.073743e+001
1.076086e+003, 6.109634e+001
1.076568e+003, 6.136482e+001
1.077050e+003, 6.095061e+001
1.077532e+003, 6.043063e+001
1.078014e+003, 6.049949e+001
1.078496e+003, 6.096671e+001
1.078979e+003, 6.117625e+001
1.079461e+003, 6.094081e+001
1.079943e+003, 6.083231e+001
1.080425e+003, 6.127142e+001
1.080907e+003, 6.171113e+001
1.081389e+003, 6.174039e+001
1.081871e+003, 6.172042e+001
1.082353e+003, 6.192200e+001
1.082835e+003, 6.237986e+001
1.083318e+003, 6.311776e+001
1.083800e+003, 6.413608e+001
1.084282e+003, 6.523604e+001
1.084764e+003, 6.624033e+001
1.085246e+003, 6.742583e+001
1.085728e+003, 6.919820e+001
1.086210e+003, 7.096642e+001
1.086692e+003, 7.258883e+001
1.087175e+003, 7.367351e+001
1.087657e+003, 7.353206e+001
1.088139e+003, 7.208973e+001
1.088621e+003, 7.014760e+001
1.089103e+003, 6.734665e+001
1.089585e+003, 6.505778e+001
1.090067e+003, 6.436376e+001
1.090549e+003, 6.391653e+001
1.091031e+003, 6.236527e+001
1.091514e+003, 6.053853e+001
1.091996e+003, 5.992785e+001
1.092478e+003, 6.057717e+001
1.092960e+003, 6.107151e+001
1.093442e+003, 6.092598e+001
1.093924e+003, 6.058452e+001
1.094406e+003, 5.983337e+001
1.094888e+003, 5.934808e+001
1.095370e+003, 5.995296e+001
1.095853e+003, 6.083643e+001
1.096335e+003, 6.078979e+001
1.096817e+003, 5.994238e+001
1.097299e+003, 5.957654e+001
1.097781e+003, 6.023791e+001
1.098263e+003, 6.086548e+001
1.098745e+003, 6.133231e+001
1.099227e+003, 6.143683e+001
1.099709e+003, 6.061509e+001
1.100192e+003, 5.972684e+001
1.100674e+003, 5.981010e+001
1.101156e+003, 6.063610e+001
1.101638e+003, 6.122923e+001
1.102120e+003, 6.140770e+001
1.102602e+003, 6.133781e+001
1.103084e+003, 6.055818e+001
1.103566e+003, 6.018019e+001
1.104049e+003, 6.114960e+001
1.104531e+003, 6.224757e+001
1.105013e+003, 6.236292e+001
1.105495e+003, 6.179620e+001
1.105977e+003, 6.119649e+001
1.106459e+003, 6.046273e+001
1.106941e+003, 6.093346e+001
1.107423e+003, 6.420030e+001
1.107906e+003, 6.679200e+001
1.108388e+003, 6.805809e+001
1.108870e+003, 6.808739e+001
1.109352e+003, 6.611630e+001
1.109834e+003, 6.330532e+001
1.110316e+003, 6.165277e+001
1.110798e+003, 6.130897e+001
1.111280e+003, 6.095984e+001
1.111762e+003, 6.028710e+001
1.112245e+003, 5.992488e+001
1.112727e+003, 5.985143e+001
1.113209e+003, 6.021661e+001
1.113691e+003, 6.182959e+001
1.114173e+003, 6.345710e+001
1.114655e+003, 6.326011e+001
1.115137e+003, 6.140557e+001
1.115619e+003, 6.021482e+001
1.116102e+003, 6.006796e+001
1.116584e+003, 5.991657e+001
1.117066e+003, 5.959656e+001
1.117548e+003, 5.949773e+001
1.118030e+003, 5.983852e+001
1.118512e+003, 6.037144e+001
1.118994e+003, 6.094653e+001
1.119476e+003, 6.150887e+001
1.119958e+003, 6.184724e+001
1.120441e+003, 6.199355e+001
1.120923e+003, 6.177863e+001
1.121405e+003, 6.095490e+001
1.121887e+003, 6.031620e+001
1.122369e+003, 6.008471e+001
1.122851e+003, 6.007299e+001
1.123333e+003, 6.024046e+001
1.123815e+003, 6.043100e+001
1.124297e+003, 6.025314e+001
1.124780e+003, 5.965489e+001
1.125262e+003, 5.939949e+001
1.125744e+003, 5.961297e+001
1.126226e+003, 5.971088e+001
1.126708e+003, 5.959174e+001
1.127190e+003, 5.932277e+001
1.127672e+003, 5.886524e+001
1.128154e+003, 5.846783e+001
1.128636e+003, 5.850788e+001
1.129119e+003, 5.894357e+001
1.129601e+003, 5.946599e+001
1.130083e+003, 6.010363e+001
1.130565e+003, 6.056432e+001
1.131047e+003, 6.082935e+001
1.131529e+003, 6.073788e+001
1.132011e+003, 6.016944e+001
1.132493e+003, 5.964650e+001
1.132976e+003, 5.976361e+001
1.133458e+003, 6.019205e+001
1.133940e+003, 5.983928e+001
1.134422e+003, 5.880361e+001
1.134904e+003, 5.835447e+001
1.135386e+003, 5.853336e+001
1.135868e+003, 5.906028e+001
1.136350e+003, 5.984580e+001
1.136833e+003, 6.039395e+001
1.137315e+003, 6.033953e+001
1.137797e+003, 5.995300e+001
1.138279e+003, 5.967923e+001
1.138761e+003, 5.945552e+001
1.139243e+003, 5.892833e+001
1.139725e+003, 5.824377e+001
1.140207e+003, 5.803870e+001
1.140689e+003, 5.838737e+001
1.141172e+003, 5.912752e+001
1.141654e+003, 6.017139e+001
1.142136e+003, 6.088143e+001
1.142618e+003, 6.047206e+001
1.143100e+003, 5.941352e+001
1.143582e+003, 5.816251e+001
1.144064e+003, 5.701495e+001
1.144546e+003, 5.666951e+001
1.145029e+003, 5.700633e+001
1.145511e+003, 5.749178e+001
1.145993e+003, 5.795411e+001
1.146475e+003, 5.847944e+001
1.146957e+003, 5.915948e+001
1.147439e+003, 5.984077e+001
1.147921e+003, 6.064631e+001
1.148403e+003, 6.113941e+001
1.148885e+003, 6.043903e+001
1.149368e+003, 5.919744e+001
1.149850e+003, 5.849577e+001
1.150332e+003, 5.848084e+001
1.150814e+003, 5.885140e+001
1.151296e+003, 5.955531e+001
1.151778e+003, 6.020186e+001
1.152260e+003, 6.065843e+001
1.152742e+003, 6.085618e+001
1.153224e+003, 6.077414e+001
1.153707e+003, 6.039025e+001
1.154189e+003, 5.930036e+001
1.154671e+003, 5.800313e+001
1.155153e+003, 5.770838e+001
1.155635e+003, 5.867002e+001
1.156117e+003, 5.939083e+001
1.156599e+003, 5.922941e+001
1.157081e+003, 5.900116e+001
1.157563e+003, 5.878825e+001
1.158046e+003, 5.877104e+001
1.158528e+003, 5.932689e+001
1.159010e+003, 5.997583e+001
1.159492e+003, 5.994854e+001
1.159974e+003, 5.933172e+001
1.160456e+003, 5.916829e+001
1.160938e+003, 6.000030e+001
1.161420e+003, 6.039074e+001
1.161903e+003, 5.984011e+001
1.162385e+003, 5.948357e+001
1.162867e+003, 5.991016e+001
1.163349e+003, 6.030188e+001
1.163831e+003, 5.992031e+001
1.164313e+003, 5.909461e+001
1.164795e+003, 5.861442e+001
1.165277e+003, 5.849586e+001
1.165760e+003, 5.858220e+001
1.166242e+003, 5.888885e+001
1.166724e+003, 5.938348e+001
1.167206e+003, 6.014050e+001
1.167688e+003, 6.084980e+001
1.168170e+003, 6.140569e+001
1.168652e+003, 6.166858e+001
1.169134e+003, 6.141506e+001
1.169616e+003, 6.075204e+001
1.170099e+003, 6.013315e+001
1.170581e+003, 5.955581e+001
1.171063e+003, 5.920263e+001
1.171545e+003, 5.908398e+001
1.172027e+003, 5.915668e+001
1.172509e+003, 5.940934e+001
1.172991e+003, 5.979156e+001
1.173473e+003, 6.029406e+001
1.173956e+003, 6.073602e+001
1.174438e+003, 6.075491e+001
1.174920e+003, 6.047094e+001
1.175402e+003, 6.012521e+001
1.175884e+003, 5.983710e+001
1.176366e+003, 6.023583e+001
1.176848e+003, 6.119984e+001
1.177330e+003, 6.160845e+001
1.177813e+003, 6.100612e+001
1.178295e+003, 6.026401e+001
1.178777e+003, 6.015572e+001
1.179259e+003, 6.030993e+001
1.179741e+003, 6.030522e+001
1.180223e+003, 6.023742e+001
1.180705e+003, 6.020021e+001
1.181187e+003, 6.022930e+001
1.181669e+003, 6.038565e+001
1.182151e+003, 6.066306e+001
1.182634e+003, 6.098887e+001
1.183116e+003, 6.135815e+001
1.183598e+003, 6.165917e+001
1.184080e+003, 6.192928e+001
1.184562e+003, 6.198733e+001
1.185044e+003, 6.145366e+001
1.185526e+003, 6.086048e+001
1.186008e+003, 6.074995e+001
1.186490e+003, 6.103691e+001
1.186973e+003, 6.152808e+001
1.187455e+003, 6.222837e+001
1.187937e+003, 6.240867e+001
1.188419e+003, 6.124175e+001
1.188901e+003, 6.056601e+001
1.189383e+003, 6.115450e+001
1.189865e+003, 6.182247e+001
1.190347e+003, 6.192804e+001
1.190830e+003, 6.184787e+001
1.191312e+003, 6.200982e+001
1.191794e+003, 6.234348e+001
1.192276e+003, 6.251048e+001
1.192758e+003, 6.253066e+001
1.193240e+003, 6.226433e+001
1.193722e+003, 6.149046e+001
1.194204e+003, 6.112506e+001
1.194687e+003, 6.147422e+001
1.195169e+003, 6.198443e+001
1.195651e+003, 6.235305e+001
1.196133e+003, 6.254338e+001
1.196615e+003, 6.243213e+001
1.197097e+003, 6.211695e+001
1.197579e+003, 6.226201e+001
1.198061e+003, 6.283763e+001
1.198543e+003, 6.332032e+001
1.199026e+003, 6.364060e+001
1.199508e+003, 6.341603e+001
1.199990e+003, 6.255852e+001
1.200472e+003, 6.192185e+001
1.200954e+003, 6.219566e+001
1.201436e+003, 6.301893e+001
1.201918e+003, 6.432521e+001
1.202400e+003, 6.551070e+001
1.202883e+003, 6.494315e+001
1.203365e+003, 6.340025e+001
1.203847e+003, 6.273433e+001
1.204329e+003, 6.299793e+001
1.204811e+003, 6.321644e+001
1.205293e+003, 6.303460e+001
1.205775e+003, 6.292318e+001
1.206257e+003, 6.336245e+001
1.206740e+003, 6.376646e+001
1.207222e+003, 6.369431e+001
1.207704e+003, 6.341137e+001
1.208186e+003, 6.294474e+001
1.208668e+003, 6.255885e+001
1.209150e+003, 6.270555e+001
1.209632e+003, 6.329836e+001
1.210114e+003, 6.371132e+001
1.210596e+003, 6.373565e+001
1.211078e+003, 6.380919e+001
1.211561e+003, 6.409139e+001
1.212043e+003, 6.433487e+001
1.212525e+003, 6.450667e+001
1.213007e+003, 6.456733e+001
1.213489e+003, 6.441409e+001
1.213971e+003, 6.419433e+001
1.214453e+003, 6.413309e+001
1.214935e+003, 6.422440e+001
1.215417e+003, 6.438533e+001
1.215900e+003, 6.467732e+001
1.216382e+003, 6.476714e+001
1.216864e+003, 6.455680e+001
1.217346e+003, 6.455088e+001
1.217828e+003, 6.497791e+001
1.218310e+003, 6.519533e+001
1.218792e+003, 6.461304e+001
1.219274e+003, 6.393334e+001
1.219757e+003, 6.476749e+001
1.220239e+003, 6.658672e+001
1.220721e+003, 6.655849e+001
1.221203e+003, 6.512791e+001
1.221685e+003, 6.456493e+001
1.222167e+003, 6.499297e+001
1.222649e+003, 6.530614e+001
1.223131e+003, 6.512505e+001
1.223614e+003, 6.491118e+001
1.224096e+003, 6.502769e+001
1.224578e+003, 6.521903e+001
1.225060e+003, 6.508051e+001
1.225542e+003, 6.496841e+001
1.226024e+003, 6.556095e+001
1.226506e+003, 6.632344e+001
1.226988e+003, 6.627666e+001
1.227470e+003, 6.561533e+001
1.227953e+003, 6.526997e+001
1.228435e+003, 6.551023e+001
1.228917e+003, 6.569427e+001
1.229399e+003, 6.541453e+001
1.229881e+003, 6.527188e+001
1.230363e+003, 6.564158e+001
1.230845e+003, 6.599992e+001
1.231327e+003, 6.612920e+001
1.231810e+003, 6.601437e+001
1.232292e+003, 6.545714e+001
1.232774e+003, 6.464890e+001
1.233256e+003, 6.434469e+001
1.233738e+003, 6.461297e+001
1.234220e+003, 6.514716e+001
1.234702e+003, 6.613517e+001
1.235184e+003, 6.672896e+001
1.235667e+003, 6.667115e+001
1.236149e+003, 6.660600e+001
1.236631e+003, 6.686877e+001
1.237113e+003, 6.727806e+001
1.237595e+003, 6.768155e+001
1.238077e+003, 6.794835e+001
1.238559e+003, 6.754776e+001
1.239041e+003, 6.665003e+001
1.239523e+003, 6.605547e+001
1.240005e+003, 6.580405e+001
1.240488e+003, 6.604199e+001
1.240970e+003, 6.666605e+001
1.241452e+003, 6.692190e+001
1.241934e+003, 6.643373e+001
1.242416e+003, 6.591705e+001
1.242898e+003, 6.607273e+001
1.243380e+003, 6.646857e+001
1.243862e+003, 6.691521e+001
1.244344e+003, 6.715272e+001
1.244827e+003, 6.658732e+001
1.245309e+003, 6.575903e+001
1.245791e+003, 6.565641e+001
1.246273e+003, 6.626364e+001
1.246755e+003, 6.675672e+001
1.247237e+003, 6.690188e+001
1.247719e+003, 6.701442e+001
1.248201e+003, 6.722005e+001
1.248684e+003, 6.732691e+001
1.249166e+003, 6.726836e+001
1.249648e+003, 6.709707e+001
1.250130e+003, 6.670865e+001
1.250612e+003, 6.636767e+001
1.251094e+003, 6.651014e+001
1.251576e+003, 6.701467e+001
1.252058e+003, 6.703332e+001
1.252541e+003, 6.645459e+001
1.253023e+003, 6.624368e+001
1.253505e+003, 6.646201e+001
1.253987e+003, 6.658451e+001
1.254469e+003, 6.648599e+001
1.254951e+003, 6.640993e+001
1.255433e+003, 6.649206e+001
1.255915e+003, 6.674664e+001
1.256397e+003, 6.729311e+001
1.256880e+003, 6.788152e+001
1.257362e+003, 6.795127e+001
1.257844e+003, 6.773415e+001
1.258326e+003, 6.753793e+001
1.258808e+003, 6.750403e+001
1.259290e+003, 6.807484e+001
1.259772e+003, 6.909136e+001
1.260254e+003, 6.960069e+001
1.260737e+003, 6.918506e+001
1.261219e+003, 6.848625e+001
1.261701e+003, 6.735735e+001
1.262183e+003, 6.668046e+001
1.262665e+003, 6.739387e+001
1.263147e+003, 6.817124e+001
1.263629e+003, 6.773578e+001
1.264111e+003, 6.696282e+001
1.264594e+003, 6.731624e+001
1.265076e+003, 6.856881e+001
1.265558e+003, 6.918687e+001
1.266040e+003, 6.903680e+001
1.266522e+003, 6.870000e+001
1.267004e+003, 6.809333e+001
1.267486e+003, 6.760066e+001
1.267968e+003, 6.731789e+001
1.268450e+003, 6.704640e+001
1.268932e+003, 6.668983e+001
1.269415e+003, 6.621988e+001
1.269897e+003, 6.547326e+001
1.270379e+003, 6.488338e+001
1.270861e+003, 6.598845e+001
1.271343e+003, 6.795786e+001
1.271825e+003, 6.793771e+001
1.272307e+003, 6.658041e+001
1.272789e+003, 6.618047e+001
1.273271e+003, 6.690171e+001
1.273754e+003, 6.757262e+001
1.274236e+003, 6.774855e+001
1.274718e+003, 6.775095e+001
1.275200e+003, 6.775898e+001
1.275682e+003, 6.770197e+001
1.276164e+003, 6.740215e+001
1.276646e+003, 6.717268e+001
1.277128e+003, 6.732627e+001
1.277611e+003, 6.760847e+001
1.278093e+003, 6.763759e+001
1.278575e+003, 6.754269e+001
1.279057e+003, 6.796963e+001
1.279539e+003, 6.914191e+001
1.280021e+003, 6.904420e+001
1.280503e+003, 6.684724e+001
1.280985e+003, 6.579993e+001
1.281468e+003, 6.657195e+001
1.281950e+003, 6.725698e+001
1.282432e+003, 6.712928e+001
1.282914e+003, 6.686279e+001
1.283396e+003, 6.702704e+001
1.283878e+003, 6.736750e+001
1.284360e+003, 6.743684e+001
1.284842e+003, 6.726157e+001
1.285324e+003, 6.693011e+001
##END=



