##NAMES=Goldichite
##RRUFFID=R120120
##IDEAL CHEMISTRY=KFe^3+^(S^6+^O_4_)_2_&#183;4H_2_O
##LOCALITY=Dexter #7 mine, San Rafael Swell, Emery County, Utah, USA
##OWNER=RRUFF
##SOURCE=Marcus Origlieri
##DESCRIPTION=Aggregates of pale yellowish green bladed crystals on pink coquimbite
##STATUS=The identification of this mineral has been confirmed by single-crystal X-ray diffraction.
##URL=rruff.info/R120120
8.975323e+001, 0.000000e+000
9.023535e+001, 2.024403e+002
9.071747e+001, 2.013308e+002
9.119958e+001, 2.001620e+002
9.168170e+001, 2.022636e+002
9.216382e+001, 2.037237e+002
9.264594e+001, 2.042765e+002
9.312805e+001, 2.045573e+002
9.361017e+001, 2.048451e+002
9.409229e+001, 2.043904e+002
9.457440e+001, 2.025482e+002
9.505651e+001, 2.010531e+002
9.553863e+001, 2.000119e+002
9.602074e+001, 1.993830e+002
9.650286e+001, 1.992044e+002
9.698498e+001, 1.993650e+002
9.746709e+001, 1.993585e+002
9.794921e+001, 1.992423e+002
9.843133e+001, 1.991362e+002
9.891344e+001, 1.989070e+002
9.939556e+001, 1.981926e+002
9.987768e+001, 1.972098e+002
1.003598e+002, 1.966370e+002
1.008419e+002, 1.968907e+002
1.013240e+002, 1.979164e+002
1.018061e+002, 1.990734e+002
1.022883e+002, 2.005474e+002
1.027704e+002, 2.020120e+002
1.032525e+002, 2.032693e+002
1.037346e+002, 2.043824e+002
1.042167e+002, 2.049693e+002
1.046988e+002, 2.048629e+002
1.051810e+002, 2.040440e+002
1.056631e+002, 2.022602e+002
1.061452e+002, 1.989538e+002
1.066273e+002, 1.945129e+002
1.071094e+002, 1.905630e+002
1.075915e+002, 1.875519e+002
1.080737e+002, 1.844862e+002
1.085558e+002, 1.807339e+002
1.090379e+002, 1.765403e+002
1.095200e+002, 1.725555e+002
1.100021e+002, 1.693283e+002
1.104842e+002, 1.669331e+002
1.109664e+002, 1.650100e+002
1.114485e+002, 1.638748e+002
1.119306e+002, 1.629039e+002
1.124127e+002, 1.617544e+002
1.128948e+002, 1.604122e+002
1.133769e+002, 1.591291e+002
1.138591e+002, 1.582986e+002
1.143412e+002, 1.583290e+002
1.148233e+002, 1.580874e+002
1.153054e+002, 1.573317e+002
1.157875e+002, 1.564242e+002
1.162696e+002, 1.557585e+002
1.167517e+002, 1.554842e+002
1.172339e+002, 1.553864e+002
1.177160e+002, 1.548738e+002
1.181981e+002, 1.534973e+002
1.186802e+002, 1.526639e+002
1.191623e+002, 1.530880e+002
1.196444e+002, 1.544173e+002
1.201266e+002, 1.557067e+002
1.206087e+002, 1.565659e+002
1.210908e+002, 1.570849e+002
1.215729e+002, 1.575615e+002
1.220550e+002, 1.580275e+002
1.225371e+002, 1.583959e+002
1.230193e+002, 1.583984e+002
1.235014e+002, 1.579411e+002
1.239835e+002, 1.579135e+002
1.244656e+002, 1.592940e+002
1.249477e+002, 1.611381e+002
1.254298e+002, 1.625990e+002
1.259120e+002, 1.632770e+002
1.263941e+002, 1.635320e+002
1.268762e+002, 1.641489e+002
1.273583e+002, 1.652407e+002
1.278404e+002, 1.665636e+002
1.283225e+002, 1.680519e+002
1.288047e+002, 1.696826e+002
1.292868e+002, 1.714443e+002
1.297689e+002, 1.733615e+002
1.302510e+002, 1.754131e+002
1.307331e+002, 1.772757e+002
1.312152e+002, 1.789231e+002
1.316974e+002, 1.804046e+002
1.321795e+002, 1.817926e+002
1.326616e+002, 1.830280e+002
1.331437e+002, 1.839622e+002
1.336258e+002, 1.844530e+002
1.341079e+002, 1.844344e+002
1.345901e+002, 1.843418e+002
1.350722e+002, 1.840884e+002
1.355543e+002, 1.838446e+002
1.360364e+002, 1.836926e+002
1.365185e+002, 1.836456e+002
1.370006e+002, 1.836996e+002
1.374828e+002, 1.838981e+002
1.379649e+002, 1.843057e+002
1.384470e+002, 1.844679e+002
1.389291e+002, 1.841272e+002
1.394112e+002, 1.836201e+002
1.398933e+002, 1.833214e+002
1.403755e+002, 1.833137e+002
1.408576e+002, 1.835199e+002
1.413397e+002, 1.838221e+002
1.418218e+002, 1.841973e+002
1.423039e+002, 1.848300e+002
1.427860e+002, 1.859481e+002
1.432681e+002, 1.874208e+002
1.437503e+002, 1.887628e+002
1.442324e+002, 1.897495e+002
1.447145e+002, 1.907117e+002
1.451966e+002, 1.919227e+002
1.456787e+002, 1.933842e+002
1.461608e+002, 1.949947e+002
1.466430e+002, 1.966784e+002
1.471251e+002, 1.984370e+002
1.476072e+002, 2.002736e+002
1.480893e+002, 2.024545e+002
1.485714e+002, 2.045612e+002
1.490535e+002, 2.063750e+002
1.495357e+002, 2.078395e+002
1.500178e+002, 2.090366e+002
1.504999e+002, 2.100671e+002
1.509820e+002, 2.109474e+002
1.514641e+002, 2.116123e+002
1.519462e+002, 2.122848e+002
1.524284e+002, 2.126781e+002
1.529105e+002, 2.126266e+002
1.533926e+002, 2.120588e+002
1.538747e+002, 2.109337e+002
1.543568e+002, 2.091267e+002
1.548389e+002, 2.058942e+002
1.553211e+002, 2.028095e+002
1.558032e+002, 1.999484e+002
1.562853e+002, 1.972705e+002
1.567674e+002, 1.947799e+002
1.572495e+002, 1.924877e+002
1.577316e+002, 1.903251e+002
1.582138e+002, 1.879946e+002
1.586959e+002, 1.851770e+002
1.591780e+002, 1.825653e+002
1.596601e+002, 1.804089e+002
1.601422e+002, 1.785972e+002
1.606243e+002, 1.768932e+002
1.611065e+002, 1.752135e+002
1.615886e+002, 1.735154e+002
1.620707e+002, 1.716778e+002
1.625528e+002, 1.695465e+002
1.630349e+002, 1.674417e+002
1.635170e+002, 1.655993e+002
1.639991e+002, 1.639920e+002
1.644813e+002, 1.623733e+002
1.649634e+002, 1.604956e+002
1.654455e+002, 1.585322e+002
1.659276e+002, 1.568642e+002
1.664097e+002, 1.555987e+002
1.668918e+002, 1.545831e+002
1.673740e+002, 1.536732e+002
1.678561e+002, 1.528742e+002
1.683382e+002, 1.521628e+002
1.688203e+002, 1.514742e+002
1.693024e+002, 1.508775e+002
1.697845e+002, 1.505022e+002
1.702667e+002, 1.504923e+002
1.707488e+002, 1.506799e+002
1.712309e+002, 1.506465e+002
1.717130e+002, 1.502111e+002
1.721951e+002, 1.498919e+002
1.726772e+002, 1.499358e+002
1.731594e+002, 1.501921e+002
1.736415e+002, 1.504431e+002
1.741236e+002, 1.505399e+002
1.746057e+002, 1.505293e+002
1.750878e+002, 1.506911e+002
1.755699e+002, 1.510675e+002
1.760521e+002, 1.516038e+002
1.765342e+002, 1.522842e+002
1.770163e+002, 1.531065e+002
1.774984e+002, 1.540891e+002
1.779805e+002, 1.552853e+002
1.784626e+002, 1.567011e+002
1.789448e+002, 1.578500e+002
1.794269e+002, 1.583571e+002
1.799090e+002, 1.589679e+002
1.803911e+002, 1.599169e+002
1.808732e+002, 1.611637e+002
1.813553e+002, 1.625411e+002
1.818375e+002, 1.639123e+002
1.823196e+002, 1.652698e+002
1.828017e+002, 1.666954e+002
1.832838e+002, 1.681647e+002
1.837659e+002, 1.697011e+002
1.842480e+002, 1.713906e+002
1.847301e+002, 1.731888e+002
1.852123e+002, 1.748983e+002
1.856944e+002, 1.762975e+002
1.861765e+002, 1.773257e+002
1.866586e+002, 1.785516e+002
1.871407e+002, 1.798808e+002
1.876228e+002, 1.814463e+002
1.881050e+002, 1.835119e+002
1.885871e+002, 1.860678e+002
1.890692e+002, 1.885860e+002
1.895513e+002, 1.904694e+002
1.900334e+002, 1.917303e+002
1.905155e+002, 1.932091e+002
1.909977e+002, 1.950081e+002
1.914798e+002, 1.970531e+002
1.919619e+002, 1.993410e+002
1.924440e+002, 2.019180e+002
1.929261e+002, 2.045184e+002
1.934082e+002, 2.070148e+002
1.938904e+002, 2.093796e+002
1.943725e+002, 2.113503e+002
1.948546e+002, 2.129485e+002
1.953367e+002, 2.140896e+002
1.958188e+002, 2.145258e+002
1.963009e+002, 2.140392e+002
1.967831e+002, 2.132546e+002
1.972652e+002, 2.128296e+002
1.977473e+002, 2.125383e+002
1.982294e+002, 2.117464e+002
1.987115e+002, 2.099076e+002
1.991936e+002, 2.072376e+002
1.996758e+002, 2.046642e+002
2.001579e+002, 2.021622e+002
2.006400e+002, 1.998310e+002
2.011221e+002, 1.978609e+002
2.016042e+002, 1.961049e+002
2.020863e+002, 1.942278e+002
2.025685e+002, 1.919603e+002
2.030506e+002, 1.893215e+002
2.035327e+002, 1.866916e+002
2.040148e+002, 1.838283e+002
2.044969e+002, 1.812701e+002
2.049790e+002, 1.794961e+002
2.054612e+002, 1.782303e+002
2.059433e+002, 1.767816e+002
2.064254e+002, 1.744482e+002
2.069075e+002, 1.711465e+002
2.073896e+002, 1.685981e+002
2.078717e+002, 1.674485e+002
2.083539e+002, 1.665110e+002
2.088360e+002, 1.655580e+002
2.093181e+002, 1.645273e+002
2.098002e+002, 1.633807e+002
2.102823e+002, 1.620312e+002
2.107644e+002, 1.604179e+002
2.112466e+002, 1.592376e+002
2.117287e+002, 1.589792e+002
2.122108e+002, 1.586603e+002
2.126929e+002, 1.577817e+002
2.131750e+002, 1.564533e+002
2.136571e+002, 1.551359e+002
2.141393e+002, 1.542736e+002
2.146214e+002, 1.539619e+002
2.151035e+002, 1.534311e+002
2.155856e+002, 1.525069e+002
2.160677e+002, 1.515698e+002
2.165498e+002, 1.509152e+002
2.170320e+002, 1.504744e+002
2.175141e+002, 1.498636e+002
2.179962e+002, 1.486915e+002
2.184783e+002, 1.468623e+002
2.189604e+002, 1.453340e+002
2.194425e+002, 1.442915e+002
2.199247e+002, 1.433523e+002
2.204068e+002, 1.422357e+002
2.208889e+002, 1.409563e+002
2.213710e+002, 1.397732e+002
2.218531e+002, 1.389284e+002
2.223352e+002, 1.384551e+002
2.228174e+002, 1.379366e+002
2.232995e+002, 1.371703e+002
2.237816e+002, 1.365034e+002
2.242637e+002, 1.362830e+002
2.247458e+002, 1.365049e+002
2.252279e+002, 1.367671e+002
2.257100e+002, 1.367212e+002
2.261922e+002, 1.364091e+002
2.266743e+002, 1.362228e+002
2.271564e+002, 1.363122e+002
2.276385e+002, 1.364584e+002
2.281206e+002, 1.364509e+002
2.286027e+002, 1.362768e+002
2.290849e+002, 1.360679e+002
2.295670e+002, 1.358669e+002
2.300491e+002, 1.357089e+002
2.305312e+002, 1.356905e+002
2.310133e+002, 1.359359e+002
2.314954e+002, 1.362697e+002
2.319776e+002, 1.364423e+002
2.324597e+002, 1.364135e+002
2.329418e+002, 1.365085e+002
2.334239e+002, 1.371440e+002
2.339060e+002, 1.380038e+002
2.343881e+002, 1.385747e+002
2.348703e+002, 1.385006e+002
2.353524e+002, 1.382749e+002
2.358345e+002, 1.386110e+002
2.363166e+002, 1.396212e+002
2.367987e+002, 1.407397e+002
2.372808e+002, 1.417420e+002
2.377630e+002, 1.426733e+002
2.382451e+002, 1.435920e+002
2.387272e+002, 1.445418e+002
2.392093e+002, 1.454493e+002
2.396914e+002, 1.461780e+002
2.401735e+002, 1.466921e+002
2.406557e+002, 1.471477e+002
2.411378e+002, 1.475737e+002
2.416199e+002, 1.479877e+002
2.421020e+002, 1.484048e+002
2.425841e+002, 1.488289e+002
2.430662e+002, 1.492587e+002
2.435484e+002, 1.497320e+002
2.440305e+002, 1.503420e+002
2.445126e+002, 1.507285e+002
2.449947e+002, 1.508231e+002
2.454768e+002, 1.506623e+002
2.459589e+002, 1.501928e+002
2.464410e+002, 1.493808e+002
2.469232e+002, 1.484356e+002
2.474053e+002, 1.477064e+002
2.478874e+002, 1.472613e+002
2.483695e+002, 1.468867e+002
2.488516e+002, 1.466064e+002
2.493337e+002, 1.463360e+002
2.498159e+002, 1.459777e+002
2.502980e+002, 1.455063e+002
2.507801e+002, 1.450358e+002
2.512622e+002, 1.447322e+002
2.517443e+002, 1.445577e+002
2.522264e+002, 1.446695e+002
2.527086e+002, 1.451936e+002
2.531907e+002, 1.458806e+002
2.536728e+002, 1.465503e+002
2.541549e+002, 1.471600e+002
2.546370e+002, 1.478043e+002
2.551191e+002, 1.486523e+002
2.556013e+002, 1.498305e+002
2.560834e+002, 1.509407e+002
2.565655e+002, 1.517103e+002
2.570476e+002, 1.526042e+002
2.575297e+002, 1.540640e+002
2.580118e+002, 1.561000e+002
2.584940e+002, 1.582660e+002
2.589761e+002, 1.599489e+002
2.594582e+002, 1.609408e+002
2.599403e+002, 1.619469e+002
2.604224e+002, 1.633055e+002
2.609045e+002, 1.644345e+002
2.613867e+002, 1.649751e+002
2.618688e+002, 1.648954e+002
2.623509e+002, 1.643785e+002
2.628330e+002, 1.636159e+002
2.633151e+002, 1.625781e+002
2.637972e+002, 1.613641e+002
2.642794e+002, 1.598723e+002
2.647615e+002, 1.583313e+002
2.652436e+002, 1.567747e+002
2.657257e+002, 1.552660e+002
2.662078e+002, 1.539472e+002
2.666899e+002, 1.529720e+002
2.671721e+002, 1.523918e+002
2.676542e+002, 1.518813e+002
2.681363e+002, 1.514606e+002
2.686184e+002, 1.510751e+002
2.691005e+002, 1.505520e+002
2.695826e+002, 1.499992e+002
2.700648e+002, 1.497730e+002
2.705469e+002, 1.501985e+002
2.710290e+002, 1.512977e+002
2.715111e+002, 1.523609e+002
2.719932e+002, 1.532952e+002
2.724753e+002, 1.542880e+002
2.729575e+002, 1.552691e+002
2.734396e+002, 1.563502e+002
2.739217e+002, 1.578514e+002
2.744038e+002, 1.600637e+002
2.748859e+002, 1.629005e+002
2.753680e+002, 1.652223e+002
2.758501e+002, 1.668527e+002
2.763322e+002, 1.683083e+002
2.768144e+002, 1.694782e+002
2.772965e+002, 1.706048e+002
2.777786e+002, 1.722242e+002
2.782607e+002, 1.746773e+002
2.787428e+002, 1.777680e+002
2.792249e+002, 1.806977e+002
2.797071e+002, 1.833411e+002
2.801892e+002, 1.860164e+002
2.806713e+002, 1.887968e+002
2.811534e+002, 1.916644e+002
2.816355e+002, 1.945603e+002
2.821176e+002, 1.974354e+002
2.825998e+002, 2.003921e+002
2.830819e+002, 2.036289e+002
2.835640e+002, 2.069903e+002
2.840461e+002, 2.108571e+002
2.845282e+002, 2.157608e+002
2.850103e+002, 2.211028e+002
2.854925e+002, 2.259911e+002
2.859746e+002, 2.301267e+002
2.864567e+002, 2.338201e+002
2.869388e+002, 2.375822e+002
2.874209e+002, 2.413703e+002
2.879030e+002, 2.453037e+002
2.883852e+002, 2.497078e+002
2.888673e+002, 2.541247e+002
2.893494e+002, 2.579966e+002
2.898315e+002, 2.611991e+002
2.903136e+002, 2.638641e+002
2.907957e+002, 2.661808e+002
2.912779e+002, 2.681603e+002
2.917600e+002, 2.694960e+002
2.922421e+002, 2.700133e+002
2.927242e+002, 2.699490e+002
2.932063e+002, 2.695311e+002
2.936884e+002, 2.687865e+002
2.941706e+002, 2.676151e+002
2.946527e+002, 2.658795e+002
2.951348e+002, 2.635352e+002
2.956169e+002, 2.609517e+002
2.960990e+002, 2.580167e+002
2.965811e+002, 2.549358e+002
2.970633e+002, 2.518774e+002
2.975454e+002, 2.488506e+002
2.980275e+002, 2.456776e+002
2.985096e+002, 2.420818e+002
2.989917e+002, 2.382402e+002
2.994738e+002, 2.350889e+002
2.999560e+002, 2.329400e+002
3.004381e+002, 2.311994e+002
3.009202e+002, 2.296165e+002
3.014023e+002, 2.281711e+002
3.018844e+002, 2.267313e+002
3.023665e+002, 2.251457e+002
3.028487e+002, 2.235840e+002
3.033308e+002, 2.225108e+002
3.038129e+002, 2.220960e+002
3.042950e+002, 2.218187e+002
3.047771e+002, 2.213965e+002
3.052592e+002, 2.209302e+002
3.057414e+002, 2.206692e+002
3.062235e+002, 2.206944e+002
3.067056e+002, 2.209960e+002
3.071877e+002, 2.216144e+002
3.076698e+002, 2.226023e+002
3.081519e+002, 2.235990e+002
3.086341e+002, 2.243926e+002
3.091162e+002, 2.251382e+002
3.095983e+002, 2.261373e+002
3.100804e+002, 2.274984e+002
3.105625e+002, 2.289679e+002
3.110446e+002, 2.301406e+002
3.115268e+002, 2.310000e+002
3.120089e+002, 2.320651e+002
3.124910e+002, 2.337818e+002
3.129731e+002, 2.355964e+002
3.134552e+002, 2.368345e+002
3.139373e+002, 2.373858e+002
3.144195e+002, 2.376349e+002
3.149016e+002, 2.379544e+002
3.153837e+002, 2.383061e+002
3.158658e+002, 2.382793e+002
3.163479e+002, 2.378740e+002
3.168300e+002, 2.370522e+002
3.173121e+002, 2.358519e+002
3.177943e+002, 2.342502e+002
3.182764e+002, 2.320269e+002
3.187585e+002, 2.289016e+002
3.192406e+002, 2.250008e+002
3.197227e+002, 2.211338e+002
3.202048e+002, 2.175290e+002
3.206870e+002, 2.137171e+002
3.211691e+002, 2.092612e+002
3.216512e+002, 2.043465e+002
3.221333e+002, 1.995361e+002
3.226154e+002, 1.951102e+002
3.230975e+002, 1.909712e+002
3.235797e+002, 1.869744e+002
3.240618e+002, 1.831235e+002
3.245439e+002, 1.793440e+002
3.250260e+002, 1.754807e+002
3.255081e+002, 1.716812e+002
3.259902e+002, 1.682126e+002
3.264724e+002, 1.651777e+002
3.269545e+002, 1.624140e+002
3.274366e+002, 1.596909e+002
3.279187e+002, 1.570001e+002
3.284008e+002, 1.543784e+002
3.288829e+002, 1.517611e+002
3.293651e+002, 1.492583e+002
3.298472e+002, 1.470310e+002
3.303293e+002, 1.451067e+002
3.308114e+002, 1.433167e+002
3.312935e+002, 1.414396e+002
3.317756e+002, 1.394719e+002
3.322578e+002, 1.378721e+002
3.327399e+002, 1.368590e+002
3.332220e+002, 1.360726e+002
3.337041e+002, 1.353298e+002
3.341862e+002, 1.345992e+002
3.346683e+002, 1.337822e+002
3.351505e+002, 1.328032e+002
3.356326e+002, 1.316764e+002
3.361147e+002, 1.305673e+002
3.365968e+002, 1.291884e+002
3.370789e+002, 1.281065e+002
3.375610e+002, 1.278477e+002
3.380432e+002, 1.280759e+002
3.385253e+002, 1.279579e+002
3.390074e+002, 1.270649e+002
3.394895e+002, 1.256983e+002
3.399716e+002, 1.246651e+002
3.404537e+002, 1.240478e+002
3.409359e+002, 1.235510e+002
3.414180e+002, 1.232361e+002
3.419001e+002, 1.229695e+002
3.423822e+002, 1.225521e+002
3.428643e+002, 1.219285e+002
3.433464e+002, 1.212430e+002
3.438286e+002, 1.206888e+002
3.443107e+002, 1.202951e+002
3.447928e+002, 1.199898e+002
3.452749e+002, 1.199359e+002
3.457570e+002, 1.198596e+002
3.462391e+002, 1.194696e+002
3.467213e+002, 1.187901e+002
3.472034e+002, 1.181494e+002
3.476855e+002, 1.178729e+002
3.481676e+002, 1.179865e+002
3.486497e+002, 1.178860e+002
3.491318e+002, 1.174469e+002
3.496140e+002, 1.169604e+002
3.500961e+002, 1.164544e+002
3.505782e+002, 1.159995e+002
3.510603e+002, 1.157589e+002
3.515424e+002, 1.158543e+002
3.520245e+002, 1.161830e+002
3.525067e+002, 1.163011e+002
3.529888e+002, 1.159933e+002
3.534709e+002, 1.157427e+002
3.539530e+002, 1.156282e+002
3.544351e+002, 1.155921e+002
3.549172e+002, 1.156113e+002
3.553994e+002, 1.156701e+002
3.558815e+002, 1.156636e+002
3.563636e+002, 1.153902e+002
3.568457e+002, 1.145748e+002
3.573278e+002, 1.140607e+002
3.578099e+002, 1.140164e+002
3.582920e+002, 1.141151e+002
3.587741e+002, 1.141661e+002
3.592563e+002, 1.141369e+002
3.597384e+002, 1.140713e+002
3.602205e+002, 1.140116e+002
3.607026e+002, 1.139609e+002
3.611847e+002, 1.138861e+002
3.616668e+002, 1.137557e+002
3.621490e+002, 1.136362e+002
3.626311e+002, 1.136350e+002
3.631132e+002, 1.136542e+002
3.635953e+002, 1.134732e+002
3.640774e+002, 1.129325e+002
3.645595e+002, 1.121659e+002
3.650417e+002, 1.117521e+002
3.655238e+002, 1.119797e+002
3.660059e+002, 1.121880e+002
3.664880e+002, 1.123367e+002
3.669701e+002, 1.124113e+002
3.674522e+002, 1.123863e+002
3.679344e+002, 1.122583e+002
3.684165e+002, 1.120732e+002
3.688986e+002, 1.118681e+002
3.693807e+002, 1.115541e+002
3.698628e+002, 1.114775e+002
3.703449e+002, 1.119851e+002
3.708271e+002, 1.124375e+002
3.713092e+002, 1.124129e+002
3.717913e+002, 1.119730e+002
3.722734e+002, 1.115274e+002
3.727555e+002, 1.114926e+002
3.732376e+002, 1.118485e+002
3.737198e+002, 1.118766e+002
3.742019e+002, 1.111994e+002
3.746840e+002, 1.106547e+002
3.751661e+002, 1.105886e+002
3.756482e+002, 1.108103e+002
3.761303e+002, 1.110342e+002
3.766125e+002, 1.111340e+002
3.770946e+002, 1.111295e+002
3.775767e+002, 1.110220e+002
3.780588e+002, 1.107158e+002
3.785409e+002, 1.105807e+002
3.790230e+002, 1.109947e+002
3.795052e+002, 1.114494e+002
3.799873e+002, 1.114765e+002
3.804694e+002, 1.109887e+002
3.809515e+002, 1.104292e+002
3.814336e+002, 1.102862e+002
3.819157e+002, 1.105491e+002
3.823979e+002, 1.106944e+002
3.828800e+002, 1.104893e+002
3.833621e+002, 1.103587e+002
3.838442e+002, 1.106457e+002
3.843263e+002, 1.112526e+002
3.848084e+002, 1.118282e+002
3.852906e+002, 1.122725e+002
3.857727e+002, 1.125359e+002
3.862548e+002, 1.124149e+002
3.867369e+002, 1.117815e+002
3.872190e+002, 1.112263e+002
3.877011e+002, 1.111293e+002
3.881833e+002, 1.113138e+002
3.886654e+002, 1.115751e+002
3.891475e+002, 1.119385e+002
3.896296e+002, 1.122561e+002
3.901117e+002, 1.123772e+002
3.905938e+002, 1.123219e+002
3.910760e+002, 1.122285e+002
3.915581e+002, 1.121036e+002
3.920402e+002, 1.120106e+002
3.925223e+002, 1.120404e+002
3.930044e+002, 1.121962e+002
3.934865e+002, 1.123852e+002
3.939687e+002, 1.125681e+002
3.944508e+002, 1.127630e+002
3.949329e+002, 1.130075e+002
3.954150e+002, 1.133132e+002
3.958971e+002, 1.136238e+002
3.963792e+002, 1.139092e+002
3.968614e+002, 1.141601e+002
3.973435e+002, 1.143321e+002
3.978256e+002, 1.142993e+002
3.983077e+002, 1.142962e+002
3.987898e+002, 1.144761e+002
3.992719e+002, 1.148170e+002
3.997540e+002, 1.152481e+002
4.002361e+002, 1.157592e+002
4.007183e+002, 1.162957e+002
4.012004e+002, 1.166737e+002
4.016825e+002, 1.167274e+002
4.021646e+002, 1.169358e+002
4.026467e+002, 1.174342e+002
4.031288e+002, 1.181068e+002
4.036110e+002, 1.188864e+002
4.040931e+002, 1.197372e+002
4.045752e+002, 1.205219e+002
4.050573e+002, 1.210717e+002
4.055394e+002, 1.213381e+002
4.060215e+002, 1.215689e+002
4.065037e+002, 1.215606e+002
4.069858e+002, 1.217112e+002
4.074679e+002, 1.222968e+002
4.079500e+002, 1.232091e+002
4.084321e+002, 1.241680e+002
4.089142e+002, 1.250142e+002
4.093964e+002, 1.257565e+002
4.098785e+002, 1.264467e+002
4.103606e+002, 1.268798e+002
4.108427e+002, 1.275363e+002
4.113248e+002, 1.286412e+002
4.118069e+002, 1.298800e+002
4.122891e+002, 1.309567e+002
4.127712e+002, 1.317948e+002
4.132533e+002, 1.325166e+002
4.137354e+002, 1.332646e+002
4.142175e+002, 1.340295e+002
4.146996e+002, 1.348735e+002
4.151818e+002, 1.358503e+002
4.156639e+002, 1.368552e+002
4.161460e+002, 1.378667e+002
4.166281e+002, 1.388784e+002
4.171102e+002, 1.398775e+002
4.175923e+002, 1.408831e+002
4.180745e+002, 1.418554e+002
4.185566e+002, 1.426799e+002
4.190387e+002, 1.433575e+002
4.195208e+002, 1.438673e+002
4.200029e+002, 1.440647e+002
4.204850e+002, 1.441745e+002
4.209672e+002, 1.443991e+002
4.214493e+002, 1.447872e+002
4.219314e+002, 1.452484e+002
4.224135e+002, 1.458156e+002
4.228956e+002, 1.464645e+002
4.233777e+002, 1.467108e+002
4.238599e+002, 1.464120e+002
4.243420e+002, 1.457670e+002
4.248241e+002, 1.449159e+002
4.253062e+002, 1.438793e+002
4.257883e+002, 1.427119e+002
4.262704e+002, 1.412829e+002
4.267526e+002, 1.398042e+002
4.272347e+002, 1.386322e+002
4.277168e+002, 1.377763e+002
4.281989e+002, 1.369798e+002
4.286810e+002, 1.361850e+002
4.291631e+002, 1.353216e+002
4.296453e+002, 1.342636e+002
4.301274e+002, 1.329364e+002
4.306095e+002, 1.315797e+002
4.310916e+002, 1.303105e+002
4.315737e+002, 1.291009e+002
4.320558e+002, 1.279039e+002
4.325380e+002, 1.267210e+002
4.330201e+002, 1.254912e+002
4.335022e+002, 1.241098e+002
4.339843e+002, 1.225445e+002
4.344664e+002, 1.211271e+002
4.349485e+002, 1.197131e+002
4.354307e+002, 1.185803e+002
4.359128e+002, 1.180752e+002
4.363949e+002, 1.180497e+002
4.368770e+002, 1.179889e+002
4.373591e+002, 1.175767e+002
4.378412e+002, 1.169403e+002
4.383234e+002, 1.165733e+002
4.388055e+002, 1.166869e+002
4.392876e+002, 1.168068e+002
4.397697e+002, 1.168879e+002
4.402518e+002, 1.169712e+002
4.407339e+002, 1.171207e+002
4.412160e+002, 1.173358e+002
4.416982e+002, 1.175294e+002
4.421803e+002, 1.175867e+002
4.426624e+002, 1.174775e+002
4.431445e+002, 1.174574e+002
4.436266e+002, 1.173631e+002
4.441087e+002, 1.175334e+002
4.445909e+002, 1.182029e+002
4.450730e+002, 1.191842e+002
4.455551e+002, 1.201938e+002
4.460372e+002, 1.210845e+002
4.465193e+002, 1.219009e+002
4.470014e+002, 1.227706e+002
4.474836e+002, 1.237762e+002
4.479657e+002, 1.245845e+002
4.484478e+002, 1.247007e+002
4.489299e+002, 1.249236e+002
4.494120e+002, 1.258739e+002
4.498941e+002, 1.275269e+002
4.503763e+002, 1.292703e+002
4.508584e+002, 1.305288e+002
4.513405e+002, 1.314685e+002
4.518226e+002, 1.327773e+002
4.523047e+002, 1.345204e+002
4.527868e+002, 1.364834e+002
4.532690e+002, 1.387538e+002
4.537511e+002, 1.411135e+002
4.542332e+002, 1.431891e+002
4.547153e+002, 1.446811e+002
4.551974e+002, 1.462882e+002
4.556795e+002, 1.487190e+002
4.561617e+002, 1.517977e+002
4.566438e+002, 1.548537e+002
4.571259e+002, 1.577797e+002
4.576080e+002, 1.604507e+002
4.580901e+002, 1.625450e+002
4.585722e+002, 1.640631e+002
4.590544e+002, 1.658172e+002
4.595365e+002, 1.681430e+002
4.600186e+002, 1.706190e+002
4.605007e+002, 1.727789e+002
4.609828e+002, 1.746918e+002
4.614649e+002, 1.768581e+002
4.619471e+002, 1.796372e+002
4.624292e+002, 1.828708e+002
4.629113e+002, 1.859729e+002
4.633934e+002, 1.885912e+002
4.638755e+002, 1.915462e+002
4.643576e+002, 1.950980e+002
4.648398e+002, 1.989683e+002
4.653219e+002, 2.027680e+002
4.658040e+002, 2.064843e+002
4.662861e+002, 2.104967e+002
4.667682e+002, 2.152476e+002
4.672503e+002, 2.208515e+002
4.677325e+002, 2.264513e+002
4.682146e+002, 2.323234e+002
4.686967e+002, 2.378905e+002
4.691788e+002, 2.430646e+002
4.696609e+002, 2.477989e+002
4.701430e+002, 2.520532e+002
4.706252e+002, 2.558226e+002
4.711073e+002, 2.589877e+002
4.715894e+002, 2.614419e+002
4.720715e+002, 2.633127e+002
4.725536e+002, 2.639256e+002
4.730357e+002, 2.633583e+002
4.735179e+002, 2.612080e+002
4.740000e+002, 2.568220e+002
4.744821e+002, 2.505350e+002
4.749642e+002, 2.435412e+002
4.754463e+002, 2.363730e+002
4.759284e+002, 2.290728e+002
4.764106e+002, 2.215874e+002
4.768927e+002, 2.139019e+002
4.773748e+002, 2.062889e+002
4.778569e+002, 1.986275e+002
4.783390e+002, 1.912768e+002
4.788211e+002, 1.848201e+002
4.793033e+002, 1.794325e+002
4.797854e+002, 1.744162e+002
4.802675e+002, 1.692678e+002
4.807496e+002, 1.642985e+002
4.812317e+002, 1.601765e+002
4.817138e+002, 1.570425e+002
4.821959e+002, 1.542154e+002
4.826780e+002, 1.510408e+002
4.831602e+002, 1.475502e+002
4.836423e+002, 1.445345e+002
4.841244e+002, 1.419794e+002
4.846065e+002, 1.398835e+002
4.850886e+002, 1.384471e+002
4.855707e+002, 1.374179e+002
4.860529e+002, 1.363853e+002
4.865350e+002, 1.351917e+002
4.870171e+002, 1.339361e+002
4.874992e+002, 1.327894e+002
4.879813e+002, 1.317697e+002
4.884634e+002, 1.307940e+002
4.889456e+002, 1.299338e+002
4.894277e+002, 1.290451e+002
4.899098e+002, 1.280330e+002
4.903919e+002, 1.269400e+002
4.908740e+002, 1.258779e+002
4.913561e+002, 1.249233e+002
4.918383e+002, 1.240282e+002
4.923204e+002, 1.230823e+002
4.928025e+002, 1.221348e+002
4.932846e+002, 1.210074e+002
4.937667e+002, 1.195010e+002
4.942488e+002, 1.179255e+002
4.947310e+002, 1.164514e+002
4.952131e+002, 1.151033e+002
4.956952e+002, 1.138538e+002
4.961773e+002, 1.127538e+002
4.966594e+002, 1.117424e+002
4.971415e+002, 1.106358e+002
4.976237e+002, 1.093972e+002
4.981058e+002, 1.082076e+002
4.985879e+002, 1.070761e+002
4.990700e+002, 1.060913e+002
4.995521e+002, 1.054227e+002
5.000342e+002, 1.051682e+002
5.005164e+002, 1.050034e+002
5.009985e+002, 1.049109e+002
5.014806e+002, 1.047602e+002
5.019627e+002, 1.042196e+002
5.024448e+002, 1.032168e+002
5.029269e+002, 1.022091e+002
5.034091e+002, 1.016462e+002
5.038912e+002, 1.015443e+002
5.043733e+002, 1.013777e+002
5.048554e+002, 1.011408e+002
5.053375e+002, 1.008542e+002
5.058196e+002, 1.004359e+002
5.063018e+002, 9.999895e+001
5.067839e+002, 9.976932e+001
5.072660e+002, 9.981562e+001
5.077481e+002, 9.990488e+001
5.082302e+002, 9.965359e+001
5.087123e+002, 9.893031e+001
5.091945e+002, 9.834087e+001
5.096766e+002, 9.789116e+001
5.101587e+002, 9.757200e+001
5.106408e+002, 9.747546e+001
5.111229e+002, 9.749451e+001
5.116050e+002, 9.742203e+001
5.120872e+002, 9.713376e+001
5.125693e+002, 9.677477e+001
5.130514e+002, 9.662095e+001
5.135335e+002, 9.669868e+001
5.140156e+002, 9.678220e+001
5.144977e+002, 9.688921e+001
5.149799e+002, 9.691446e+001
5.154620e+002, 9.676440e+001
5.159441e+002, 9.645522e+001
5.164262e+002, 9.609988e+001
5.169083e+002, 9.568526e+001
5.173904e+002, 9.528292e+001
5.178726e+002, 9.499264e+001
5.183547e+002, 9.481010e+001
5.188368e+002, 9.465876e+001
5.193189e+002, 9.449956e+001
5.198010e+002, 9.435326e+001
5.202831e+002, 9.429480e+001
5.207653e+002, 9.439473e+001
5.212474e+002, 9.436295e+001
5.217295e+002, 9.390096e+001
5.222116e+002, 9.346172e+001
5.226937e+002, 9.355973e+001
5.231758e+002, 9.412624e+001
5.236580e+002, 9.464685e+001
5.241401e+002, 9.474605e+001
5.246222e+002, 9.449790e+001
5.251043e+002, 9.428401e+001
5.255864e+002, 9.421133e+001
5.260685e+002, 9.401604e+001
5.265507e+002, 9.350576e+001
5.270328e+002, 9.298708e+001
5.275149e+002, 9.271067e+001
5.279970e+002, 9.270102e+001
5.284791e+002, 9.283077e+001
5.289612e+002, 9.306307e+001
5.294434e+002, 9.334992e+001
5.299255e+002, 9.336620e+001
5.304076e+002, 9.300069e+001
5.308897e+002, 9.262314e+001
5.313718e+002, 9.234105e+001
5.318539e+002, 9.215403e+001
5.323361e+002, 9.210369e+001
5.328182e+002, 9.222108e+001
5.333003e+002, 9.230329e+001
5.337824e+002, 9.214120e+001
5.342645e+002, 9.186435e+001
5.347466e+002, 9.179449e+001
5.352288e+002, 9.198978e+001
5.357109e+002, 9.215202e+001
5.361930e+002, 9.202581e+001
5.366751e+002, 9.166934e+001
5.371572e+002, 9.146362e+001
5.376393e+002, 9.151566e+001
5.381215e+002, 9.157158e+001
5.386036e+002, 9.162680e+001
5.390857e+002, 9.161549e+001
5.395678e+002, 9.136972e+001
5.400499e+002, 9.089586e+001
5.405320e+002, 9.049023e+001
5.410142e+002, 9.048903e+001
5.414963e+002, 9.090688e+001
5.419784e+002, 9.121967e+001
5.424604e+002, 9.143532e+001
5.429426e+002, 9.152046e+001
5.434247e+002, 9.140297e+001
5.439068e+002, 9.118262e+001
5.443889e+002, 9.094088e+001
5.448710e+002, 9.070607e+001
5.453531e+002, 9.052909e+001
5.458353e+002, 9.051905e+001
5.463174e+002, 9.065322e+001
5.467995e+002, 9.064049e+001
5.472816e+002, 9.038865e+001
5.477637e+002, 9.015314e+001
5.482458e+002, 9.007008e+001
5.487280e+002, 9.011441e+001
5.492101e+002, 9.029848e+001
5.496922e+002, 9.074923e+001
5.501743e+002, 9.107182e+001
5.506564e+002, 9.089304e+001
5.511385e+002, 9.043101e+001
5.516207e+002, 9.016146e+001
5.521028e+002, 9.018722e+001
5.525849e+002, 9.026458e+001
5.530670e+002, 9.015874e+001
5.535491e+002, 8.986851e+001
5.540313e+002, 8.966883e+001
5.545134e+002, 8.956112e+001
5.549955e+002, 8.952755e+001
5.554776e+002, 8.958924e+001
5.559597e+002, 8.971046e+001
5.564418e+002, 8.988187e+001
5.569240e+002, 9.008627e+001
5.574061e+002, 9.023875e+001
5.578882e+002, 9.022453e+001
5.583703e+002, 9.003605e+001
5.588524e+002, 8.989069e+001
5.593345e+002, 8.980434e+001
5.598167e+002, 8.974128e+001
5.602988e+002, 8.966734e+001
5.607809e+002, 8.961475e+001
5.612630e+002, 8.960369e+001
5.617451e+002, 8.963293e+001
5.622272e+002, 8.977293e+001
5.627094e+002, 9.018089e+001
5.631915e+002, 9.075513e+001
5.636736e+002, 9.117724e+001
5.641557e+002, 9.142275e+001
5.646378e+002, 9.144703e+001
5.651199e+002, 9.111800e+001
5.656021e+002, 9.053577e+001
5.660842e+002, 9.015488e+001
5.665663e+002, 8.997375e+001
5.670484e+002, 8.999293e+001
5.675305e+002, 9.052321e+001
5.680126e+002, 9.110771e+001
5.684948e+002, 9.104257e+001
5.689769e+002, 9.027933e+001
5.694590e+002, 8.946464e+001
5.699411e+002, 8.921634e+001
5.704232e+002, 8.950114e+001
5.709053e+002, 8.969362e+001
5.713875e+002, 8.968595e+001
5.718696e+002, 8.973096e+001
5.723517e+002, 8.983250e+001
5.728338e+002, 9.002296e+001
5.733159e+002, 9.042323e+001
5.737980e+002, 9.100646e+001
5.742802e+002, 9.146821e+001
5.747623e+002, 9.140047e+001
5.752444e+002, 9.097305e+001
5.757265e+002, 9.094181e+001
5.762086e+002, 9.140079e+001
5.766907e+002, 9.186242e+001
5.771729e+002, 9.209888e+001
5.776550e+002, 9.219666e+001
5.781371e+002, 9.227360e+001
5.786192e+002, 9.229959e+001
5.791013e+002, 9.245075e+001
5.795834e+002, 9.294083e+001
5.800656e+002, 9.350352e+001
5.805477e+002, 9.377037e+001
5.810298e+002, 9.376580e+001
5.815119e+002, 9.384328e+001
5.819940e+002, 9.423595e+001
5.824761e+002, 9.485688e+001
5.829583e+002, 9.540646e+001
5.834404e+002, 9.570310e+001
5.839225e+002, 9.621547e+001
5.844046e+002, 9.723094e+001
5.848867e+002, 9.821833e+001
5.853688e+002, 9.876004e+001
5.858510e+002, 9.894579e+001
5.863331e+002, 9.915376e+001
5.868152e+002, 9.962329e+001
5.872973e+002, 1.002559e+002
5.877794e+002, 1.008526e+002
5.882615e+002, 1.014258e+002
5.887437e+002, 1.018851e+002
5.892258e+002, 1.022455e+002
5.897079e+002, 1.024366e+002
5.901900e+002, 1.023904e+002
5.906721e+002, 1.021273e+002
5.911542e+002, 1.017615e+002
5.916364e+002, 1.013138e+002
5.921185e+002, 1.007910e+002
5.926006e+002, 1.000681e+002
5.930827e+002, 9.927126e+001
5.935648e+002, 9.876939e+001
5.940469e+002, 9.870229e+001
5.945291e+002, 9.893430e+001
5.950112e+002, 9.929723e+001
5.954933e+002, 9.982228e+001
5.959754e+002, 1.003478e+002
5.964575e+002, 1.008673e+002
5.969396e+002, 1.013956e+002
5.974218e+002, 1.019362e+002
5.979039e+002, 1.024925e+002
5.983860e+002, 1.030154e+002
5.988681e+002, 1.034991e+002
5.993502e+002, 1.041299e+002
5.998323e+002, 1.051465e+002
6.003145e+002, 1.065451e+002
6.007966e+002, 1.081455e+002
6.012787e+002, 1.100070e+002
6.017608e+002, 1.119161e+002
6.022429e+002, 1.138223e+002
6.027250e+002, 1.156723e+002
6.032072e+002, 1.173236e+002
6.036893e+002, 1.187183e+002
6.041714e+002, 1.200572e+002
6.046535e+002, 1.217307e+002
6.051356e+002, 1.232924e+002
6.056177e+002, 1.239964e+002
6.060999e+002, 1.238049e+002
6.065820e+002, 1.233193e+002
6.070641e+002, 1.230118e+002
6.075462e+002, 1.227163e+002
6.080283e+002, 1.216545e+002
6.085104e+002, 1.192128e+002
6.089926e+002, 1.168499e+002
6.094747e+002, 1.146548e+002
6.099568e+002, 1.125291e+002
6.104389e+002, 1.103308e+002
6.109210e+002, 1.081262e+002
6.114031e+002, 1.061552e+002
6.118853e+002, 1.046124e+002
6.123674e+002, 1.033229e+002
6.128495e+002, 1.018826e+002
6.133316e+002, 1.002589e+002
6.138137e+002, 9.877457e+001
6.142958e+002, 9.750256e+001
6.147780e+002, 9.639492e+001
6.152601e+002, 9.541759e+001
6.157422e+002, 9.455610e+001
6.162243e+002, 9.376351e+001
6.167064e+002, 9.298035e+001
6.171885e+002, 9.231246e+001
6.176707e+002, 9.181087e+001
6.181528e+002, 9.147774e+001
6.186349e+002, 9.134737e+001
6.191170e+002, 9.142348e+001
6.195991e+002, 9.158345e+001
6.200812e+002, 9.167986e+001
6.205634e+002, 9.170410e+001
6.210455e+002, 9.179952e+001
6.215276e+002, 9.201602e+001
6.220097e+002, 9.224639e+001
6.224918e+002, 9.232441e+001
6.229739e+002, 9.248532e+001
6.234561e+002, 9.304521e+001
6.239382e+002, 9.403243e+001
6.244203e+002, 9.506133e+001
6.249023e+002, 9.585322e+001
6.253845e+002, 9.644056e+001
6.258666e+002, 9.672461e+001
6.263487e+002, 9.663696e+001
6.268308e+002, 9.715806e+001
6.273129e+002, 9.904341e+001
6.277950e+002, 1.015049e+002
6.282772e+002, 1.029762e+002
6.287593e+002, 1.032571e+002
6.292414e+002, 1.037273e+002
6.297235e+002, 1.044158e+002
6.302056e+002, 1.055107e+002
6.306877e+002, 1.073430e+002
6.311699e+002, 1.096766e+002
6.316520e+002, 1.119874e+002
6.321341e+002, 1.140249e+002
6.326162e+002, 1.159470e+002
6.330983e+002, 1.180030e+002
6.335804e+002, 1.202167e+002
6.340626e+002, 1.224923e+002
6.345447e+002, 1.248399e+002
6.350268e+002, 1.272234e+002
6.355089e+002, 1.297111e+002
6.359910e+002, 1.321908e+002
6.364731e+002, 1.346333e+002
6.369553e+002, 1.371755e+002
6.374374e+002, 1.389722e+002
6.379195e+002, 1.394224e+002
6.384016e+002, 1.387034e+002
6.388837e+002, 1.370489e+002
6.393658e+002, 1.345020e+002
6.398480e+002, 1.312218e+002
6.403301e+002, 1.272022e+002
6.408122e+002, 1.226535e+002
6.412943e+002, 1.182343e+002
6.417764e+002, 1.138206e+002
6.422585e+002, 1.097689e+002
6.427407e+002, 1.060306e+002
6.432228e+002, 1.027020e+002
6.437049e+002, 9.985746e+001
6.441870e+002, 9.746460e+001
6.446691e+002, 9.542488e+001
6.451512e+002, 9.370301e+001
6.456334e+002, 9.228420e+001
6.461155e+002, 9.124621e+001
6.465976e+002, 9.058553e+001
6.470797e+002, 8.978268e+001
6.475618e+002, 8.863307e+001
6.480439e+002, 8.761446e+001
6.485261e+002, 8.724632e+001
6.490082e+002, 8.730745e+001
6.494903e+002, 8.710409e+001
6.499724e+002, 8.634422e+001
6.504545e+002, 8.568694e+001
6.509366e+002, 8.544527e+001
6.514188e+002, 8.541685e+001
6.519009e+002, 8.543022e+001
6.523830e+002, 8.542472e+001
6.528651e+002, 8.530046e+001
6.533472e+002, 8.496789e+001
6.538293e+002, 8.449300e+001
6.543115e+002, 8.409595e+001
6.547936e+002, 8.370958e+001
6.552757e+002, 8.356689e+001
6.557578e+002, 8.410573e+001
6.562399e+002, 8.454630e+001
6.567220e+002, 8.432832e+001
6.572042e+002, 8.364003e+001
6.576863e+002, 8.311671e+001
6.581684e+002, 8.310609e+001
6.586505e+002, 8.317001e+001
6.591326e+002, 8.281355e+001
6.596147e+002, 8.220384e+001
6.600969e+002, 8.179403e+001
6.605790e+002, 8.168269e+001
6.610611e+002, 8.178423e+001
6.615432e+002, 8.208389e+001
6.620253e+002, 8.254087e+001
6.625074e+002, 8.270811e+001
6.629896e+002, 8.224151e+001
6.634717e+002, 8.193932e+001
6.639538e+002, 8.199864e+001
6.644359e+002, 8.214783e+001
6.649180e+002, 8.216283e+001
6.654001e+002, 8.205598e+001
6.658823e+002, 8.198806e+001
6.663644e+002, 8.208627e+001
6.668465e+002, 8.223246e+001
6.673286e+002, 8.217821e+001
6.678107e+002, 8.193114e+001
6.682928e+002, 8.173759e+001
6.687750e+002, 8.161000e+001
6.692571e+002, 8.165885e+001
6.697392e+002, 8.212508e+001
6.702213e+002, 8.293358e+001
6.707034e+002, 8.333357e+001
6.711855e+002, 8.291857e+001
6.716677e+002, 8.257942e+001
6.721498e+002, 8.262802e+001
6.726319e+002, 8.287535e+001
6.731140e+002, 8.317628e+001
6.735961e+002, 8.347078e+001
6.740782e+002, 8.366955e+001
6.745604e+002, 8.368169e+001
6.750425e+002, 8.358810e+001
6.755246e+002, 8.371875e+001
6.760067e+002, 8.419491e+001
6.764888e+002, 8.433053e+001
6.769709e+002, 8.367964e+001
6.774531e+002, 8.300322e+001
6.779352e+002, 8.306523e+001
6.784173e+002, 8.362772e+001
6.788994e+002, 8.382585e+001
6.793815e+002, 8.324454e+001
6.798636e+002, 8.253529e+001
6.803458e+002, 8.199339e+001
6.808279e+002, 8.160517e+001
6.813100e+002, 8.135753e+001
6.817921e+002, 8.124280e+001
6.822742e+002, 8.124678e+001
6.827563e+002, 8.138358e+001
6.832385e+002, 8.159880e+001
6.837206e+002, 8.160570e+001
6.842027e+002, 8.126160e+001
6.846848e+002, 8.102026e+001
6.851669e+002, 8.109070e+001
6.856490e+002, 8.114865e+001
6.861312e+002, 8.102104e+001
6.866133e+002, 8.072458e+001
6.870954e+002, 8.031301e+001
6.875775e+002, 7.968270e+001
6.880596e+002, 7.916630e+001
6.885417e+002, 7.918212e+001
6.890239e+002, 7.951906e+001
6.895060e+002, 7.967431e+001
6.899881e+002, 7.955995e+001
6.904702e+002, 7.940508e+001
6.909523e+002, 7.940214e+001
6.914344e+002, 7.949889e+001
6.919166e+002, 7.941763e+001
6.923987e+002, 7.886608e+001
6.928808e+002, 7.861098e+001
6.933629e+002, 7.896645e+001
6.938450e+002, 7.935447e+001
6.943271e+002, 7.938969e+001
6.948093e+002, 7.916777e+001
6.952914e+002, 7.901555e+001
6.957735e+002, 7.911271e+001
6.962556e+002, 7.921212e+001
6.967377e+002, 7.892312e+001
6.972198e+002, 7.839767e+001
6.977020e+002, 7.823069e+001
6.981841e+002, 7.853458e+001
6.986662e+002, 7.885815e+001
6.991483e+002, 7.887813e+001
6.996304e+002, 7.867883e+001
7.001125e+002, 7.858131e+001
7.005947e+002, 7.871297e+001
7.010768e+002, 7.875272e+001
7.015589e+002, 7.867042e+001
7.020410e+002, 7.852087e+001
7.025231e+002, 7.826727e+001
7.030052e+002, 7.798515e+001
7.034874e+002, 7.782954e+001
7.039695e+002, 7.787734e+001
7.044516e+002, 7.798405e+001
7.049337e+002, 7.795266e+001
7.054158e+002, 7.782053e+001
7.058979e+002, 7.778191e+001
7.063801e+002, 7.786671e+001
7.068622e+002, 7.796059e+001
7.073442e+002, 7.799851e+001
7.078264e+002, 7.799938e+001
7.083085e+002, 7.801221e+001
7.087906e+002, 7.804614e+001
7.092727e+002, 7.806584e+001
7.097548e+002, 7.804415e+001
7.102369e+002, 7.803075e+001
7.107191e+002, 7.803572e+001
7.112012e+002, 7.807482e+001
7.116833e+002, 7.818871e+001
7.121654e+002, 7.839021e+001
7.126475e+002, 7.859541e+001
7.131296e+002, 7.873510e+001
7.136118e+002, 7.880101e+001
7.140939e+002, 7.874631e+001
7.145760e+002, 7.856762e+001
7.150581e+002, 7.826496e+001
7.155402e+002, 7.773433e+001
7.160223e+002, 7.718949e+001
7.165045e+002, 7.703622e+001
7.169866e+002, 7.734297e+001
7.174687e+002, 7.758011e+001
7.179508e+002, 7.767192e+001
7.184329e+002, 7.771877e+001
7.189150e+002, 7.775494e+001
7.193972e+002, 7.778378e+001
7.198793e+002, 7.779824e+001
7.203614e+002, 7.779969e+001
7.208435e+002, 7.781182e+001
7.213256e+002, 7.786967e+001
7.218077e+002, 7.795403e+001
7.222899e+002, 7.798977e+001
7.227720e+002, 7.797444e+001
7.232541e+002, 7.792636e+001
7.237362e+002, 7.783662e+001
7.242183e+002, 7.773793e+001
7.247004e+002, 7.766312e+001
7.251826e+002, 7.761202e+001
7.256647e+002, 7.759444e+001
7.261468e+002, 7.762138e+001
7.266289e+002, 7.767014e+001
7.271110e+002, 7.777415e+001
7.275931e+002, 7.787179e+001
7.280753e+002, 7.784274e+001
7.285574e+002, 7.771355e+001
7.290395e+002, 7.769688e+001
7.295216e+002, 7.800797e+001
7.300037e+002, 7.842356e+001
7.304858e+002, 7.834408e+001
7.309680e+002, 7.774580e+001
7.314501e+002, 7.734928e+001
7.319322e+002, 7.732004e+001
7.324143e+002, 7.746034e+001
7.328964e+002, 7.769048e+001
7.333785e+002, 7.796436e+001
7.338607e+002, 7.805418e+001
7.343428e+002, 7.777079e+001
7.348249e+002, 7.759581e+001
7.353070e+002, 7.773555e+001
7.357891e+002, 7.793239e+001
7.362712e+002, 7.793492e+001
7.367534e+002, 7.780489e+001
7.372355e+002, 7.777599e+001
7.377176e+002, 7.796945e+001
7.381997e+002, 7.825990e+001
7.386818e+002, 7.853184e+001
7.391639e+002, 7.876381e+001
7.396461e+002, 7.868069e+001
7.401282e+002, 7.817484e+001
7.406103e+002, 7.775690e+001
7.410924e+002, 7.775999e+001
7.415745e+002, 7.799808e+001
7.420566e+002, 7.805386e+001
7.425388e+002, 7.787045e+001
7.430209e+002, 7.772142e+001
7.435030e+002, 7.760034e+001
7.439851e+002, 7.754827e+001
7.444672e+002, 7.761259e+001
7.449493e+002, 7.775049e+001
7.454315e+002, 7.791293e+001
7.459136e+002, 7.807956e+001
7.463957e+002, 7.822391e+001
7.468778e+002, 7.834004e+001
7.473599e+002, 7.840993e+001
7.478420e+002, 7.834380e+001
7.483242e+002, 7.813705e+001
7.488063e+002, 7.797901e+001
7.492884e+002, 7.793851e+001
7.497705e+002, 7.795687e+001
7.502526e+002, 7.797771e+001
7.507347e+002, 7.800253e+001
7.512169e+002, 7.798579e+001
7.516990e+002, 7.793093e+001
7.521811e+002, 7.783407e+001
7.526632e+002, 7.760180e+001
7.531453e+002, 7.739378e+001
7.536274e+002, 7.737041e+001
7.541096e+002, 7.751722e+001
7.545917e+002, 7.772118e+001
7.550738e+002, 7.797066e+001
7.555559e+002, 7.813793e+001
7.560380e+002, 7.793547e+001
7.565201e+002, 7.747466e+001
7.570023e+002, 7.729792e+001
7.574844e+002, 7.751115e+001
7.579665e+002, 7.769979e+001
7.584486e+002, 7.753899e+001
7.589307e+002, 7.716385e+001
7.594128e+002, 7.703697e+001
7.598950e+002, 7.741495e+001
7.603771e+002, 7.757262e+001
7.608592e+002, 7.730284e+001
7.613413e+002, 7.704549e+001
7.618234e+002, 7.702427e+001
7.623055e+002, 7.714725e+001
7.627877e+002, 7.726089e+001
7.632698e+002, 7.732365e+001
7.637519e+002, 7.736309e+001
7.642340e+002, 7.738018e+001
7.647161e+002, 7.739698e+001
7.651982e+002, 7.750179e+001
7.656804e+002, 7.765815e+001
7.661625e+002, 7.763815e+001
7.666446e+002, 7.734520e+001
7.671267e+002, 7.695674e+001
7.676088e+002, 7.669136e+001
7.680909e+002, 7.654685e+001
7.685731e+002, 7.653954e+001
7.690552e+002, 7.665951e+001
7.695373e+002, 7.693819e+001
7.700194e+002, 7.769468e+001
7.705015e+002, 7.835993e+001
7.709836e+002, 7.837999e+001
7.714658e+002, 7.785510e+001
7.719479e+002, 7.740686e+001
7.724300e+002, 7.727686e+001
7.729121e+002, 7.725185e+001
7.733942e+002, 7.722071e+001
7.738763e+002, 7.718441e+001
7.743585e+002, 7.716495e+001
7.748406e+002, 7.715113e+001
7.753227e+002, 7.705687e+001
7.758048e+002, 7.681126e+001
7.762869e+002, 7.651611e+001
7.767690e+002, 7.642058e+001
7.772512e+002, 7.655009e+001
7.777333e+002, 7.672279e+001
7.782154e+002, 7.698624e+001
7.786975e+002, 7.718331e+001
7.791796e+002, 7.716485e+001
7.796617e+002, 7.705267e+001
7.801439e+002, 7.705704e+001
7.806260e+002, 7.720947e+001
7.811081e+002, 7.734881e+001
7.815902e+002, 7.754795e+001
7.820723e+002, 7.760962e+001
7.825544e+002, 7.718114e+001
7.830366e+002, 7.660738e+001
7.835187e+002, 7.652537e+001
7.840008e+002, 7.705545e+001
7.844829e+002, 7.769805e+001
7.849650e+002, 7.803445e+001
7.854471e+002, 7.810683e+001
7.859293e+002, 7.798999e+001
7.864114e+002, 7.768127e+001
7.868935e+002, 7.736691e+001
7.873756e+002, 7.705247e+001
7.878577e+002, 7.687392e+001
7.883398e+002, 7.700605e+001
7.888220e+002, 7.740307e+001
7.893040e+002, 7.766931e+001
7.897861e+002, 7.777950e+001
7.902682e+002, 7.780428e+001
7.907504e+002, 7.756519e+001
7.912325e+002, 7.741260e+001
7.917146e+002, 7.775016e+001
7.921967e+002, 7.831664e+001
7.926788e+002, 7.849625e+001
7.931609e+002, 7.802660e+001
7.936431e+002, 7.750667e+001
7.941252e+002, 7.755386e+001
7.946073e+002, 7.786980e+001
7.950894e+002, 7.790093e+001
7.955715e+002, 7.764262e+001
7.960536e+002, 7.726395e+001
7.965358e+002, 7.681580e+001
7.970179e+002, 7.646709e+001
7.975000e+002, 7.648284e+001
7.979821e+002, 7.688396e+001
7.984642e+002, 7.713135e+001
7.989464e+002, 7.712289e+001
7.994285e+002, 7.714680e+001
7.999106e+002, 7.739224e+001
8.003927e+002, 7.760059e+001
8.008748e+002, 7.746362e+001
8.013569e+002, 7.708229e+001
8.018391e+002, 7.696705e+001
8.023212e+002, 7.742413e+001
8.028033e+002, 7.792059e+001
8.032854e+002, 7.829192e+001
8.037675e+002, 7.848003e+001
8.042496e+002, 7.827709e+001
8.047318e+002, 7.780730e+001
8.052139e+002, 7.752776e+001
8.056960e+002, 7.769796e+001
8.061781e+002, 7.802917e+001
8.066602e+002, 7.805265e+001
8.071423e+002, 7.779147e+001
8.076245e+002, 7.754091e+001
8.081066e+002, 7.729761e+001
8.085887e+002, 7.715238e+001
8.090708e+002, 7.719572e+001
8.095529e+002, 7.728783e+001
8.100350e+002, 7.718111e+001
8.105172e+002, 7.680954e+001
8.109993e+002, 7.669359e+001
8.114814e+002, 7.718351e+001
8.119635e+002, 7.748052e+001
8.124456e+002, 7.707791e+001
8.129277e+002, 7.659367e+001
8.134099e+002, 7.672448e+001
8.138920e+002, 7.737770e+001
8.143741e+002, 7.786948e+001
8.148562e+002, 7.781840e+001
8.153383e+002, 7.756380e+001
8.158204e+002, 7.739324e+001
8.163026e+002, 7.730129e+001
8.167847e+002, 7.730338e+001
8.172668e+002, 7.738741e+001
8.177489e+002, 7.745595e+001
8.182310e+002, 7.745317e+001
8.187131e+002, 7.740264e+001
8.191953e+002, 7.733511e+001
8.196774e+002, 7.723183e+001
8.201595e+002, 7.724937e+001
8.206416e+002, 7.752769e+001
8.211237e+002, 7.765711e+001
8.216058e+002, 7.730760e+001
8.220880e+002, 7.685770e+001
8.225701e+002, 7.673855e+001
8.230522e+002, 7.694447e+001
8.235343e+002, 7.716653e+001
8.240164e+002, 7.744600e+001
8.244985e+002, 7.760721e+001
8.249807e+002, 7.744714e+001
8.254628e+002, 7.721204e+001
8.259449e+002, 7.719122e+001
8.264270e+002, 7.737541e+001
8.269091e+002, 7.759483e+001
8.273912e+002, 7.777669e+001
8.278734e+002, 7.784989e+001
8.283555e+002, 7.763364e+001
8.288376e+002, 7.721407e+001
8.293197e+002, 7.693694e+001
8.298018e+002, 7.683359e+001
8.302839e+002, 7.688805e+001
8.307661e+002, 7.712316e+001
8.312482e+002, 7.742799e+001
8.317303e+002, 7.763563e+001
8.322124e+002, 7.775275e+001
8.326945e+002, 7.771277e+001
8.331766e+002, 7.734565e+001
8.336588e+002, 7.706717e+001
8.341409e+002, 7.694985e+001
8.346230e+002, 7.696762e+001
8.351051e+002, 7.718453e+001
8.355872e+002, 7.753806e+001
8.360693e+002, 7.774785e+001
8.365515e+002, 7.761643e+001
8.370336e+002, 7.750571e+001
8.375157e+002, 7.768144e+001
8.379978e+002, 7.793858e+001
8.384799e+002, 7.807236e+001
8.389620e+002, 7.806017e+001
8.394442e+002, 7.787217e+001
8.399263e+002, 7.749216e+001
8.404084e+002, 7.717754e+001
8.408905e+002, 7.739799e+001
8.413726e+002, 7.802766e+001
8.418547e+002, 7.832645e+001
8.423369e+002, 7.826943e+001
8.428190e+002, 7.805747e+001
8.433011e+002, 7.770448e+001
8.437832e+002, 7.738541e+001
8.442653e+002, 7.730881e+001
8.447474e+002, 7.746960e+001
8.452296e+002, 7.767724e+001
8.457117e+002, 7.802652e+001
8.461938e+002, 7.827940e+001
8.466759e+002, 7.847553e+001
8.471580e+002, 7.851583e+001
8.476401e+002, 7.817039e+001
8.481223e+002, 7.765168e+001
8.486044e+002, 7.746526e+001
8.490865e+002, 7.782261e+001
8.495686e+002, 7.814082e+001
8.500507e+002, 7.806445e+001
8.505328e+002, 7.782923e+001
8.510150e+002, 7.761561e+001
8.514971e+002, 7.745414e+001
8.519792e+002, 7.739593e+001
8.524613e+002, 7.744438e+001
8.529434e+002, 7.747665e+001
8.534255e+002, 7.730817e+001
8.539077e+002, 7.708740e+001
8.543898e+002, 7.741633e+001
8.548719e+002, 7.829491e+001
8.553540e+002, 7.876640e+001
8.558361e+002, 7.858067e+001
8.563182e+002, 7.821193e+001
8.568004e+002, 7.798359e+001
8.572825e+002, 7.786126e+001
8.577646e+002, 7.772536e+001
8.582467e+002, 7.747361e+001
8.587288e+002, 7.743391e+001
8.592109e+002, 7.793803e+001
8.596931e+002, 7.826058e+001
8.601752e+002, 7.790336e+001
8.606573e+002, 7.736436e+001
8.611394e+002, 7.729841e+001
8.616215e+002, 7.775603e+001
8.621036e+002, 7.816463e+001
8.625858e+002, 7.828384e+001
8.630679e+002, 7.829450e+001
8.635500e+002, 7.828362e+001
8.640321e+002, 7.826086e+001
8.645142e+002, 7.820973e+001
8.649963e+002, 7.815233e+001
8.654785e+002, 7.819375e+001
8.659606e+002, 7.840928e+001
8.664427e+002, 7.863960e+001
8.669248e+002, 7.857250e+001
8.674069e+002, 7.828637e+001
8.678890e+002, 7.823037e+001
8.683712e+002, 7.843717e+001
8.688533e+002, 7.863147e+001
8.693354e+002, 7.869677e+001
8.698175e+002, 7.871603e+001
8.702996e+002, 7.881977e+001
8.707817e+002, 7.901053e+001
8.712639e+002, 7.898843e+001
8.717459e+002, 7.859944e+001
8.722280e+002, 7.826868e+001
8.727101e+002, 7.812735e+001
8.731923e+002, 7.800814e+001
8.736744e+002, 7.777403e+001
8.741565e+002, 7.749093e+001
8.746386e+002, 7.732066e+001
8.751207e+002, 7.730530e+001
8.756028e+002, 7.735823e+001
8.760850e+002, 7.743540e+001
8.765671e+002, 7.758371e+001
8.770492e+002, 7.800143e+001
8.775313e+002, 7.845214e+001
8.780134e+002, 7.843620e+001
8.784955e+002, 7.791300e+001
8.789777e+002, 7.749006e+001
8.794598e+002, 7.769825e+001
8.799419e+002, 7.821047e+001
8.804240e+002, 7.856420e+001
8.809061e+002, 7.876002e+001
8.813882e+002, 7.877843e+001
8.818704e+002, 7.862270e+001
8.823525e+002, 7.834801e+001
8.828346e+002, 7.796484e+001
8.833167e+002, 7.759182e+001
8.837988e+002, 7.751221e+001
8.842809e+002, 7.778200e+001
8.847631e+002, 7.790105e+001
8.852452e+002, 7.776804e+001
8.857273e+002, 7.774050e+001
8.862094e+002, 7.801119e+001
8.866915e+002, 7.836903e+001
8.871736e+002, 7.857185e+001
8.876558e+002, 7.863084e+001
8.881379e+002, 7.873743e+001
8.886200e+002, 7.901569e+001
8.891021e+002, 7.917345e+001
8.895842e+002, 7.908859e+001
8.900663e+002, 7.893608e+001
8.905485e+002, 7.875301e+001
8.910306e+002, 7.861773e+001
8.915127e+002, 7.866660e+001
8.919948e+002, 7.894112e+001
8.924769e+002, 7.929760e+001
8.929590e+002, 7.977540e+001
8.934412e+002, 8.018074e+001
8.939233e+002, 8.022402e+001
8.944054e+002, 8.005554e+001
8.948875e+002, 8.003944e+001
8.953696e+002, 8.021663e+001
8.958517e+002, 8.025467e+001
8.963339e+002, 7.985934e+001
8.968160e+002, 7.933963e+001
8.972981e+002, 7.940240e+001
8.977802e+002, 7.997597e+001
8.982623e+002, 8.032396e+001
8.987444e+002, 8.036385e+001
8.992266e+002, 8.037322e+001
8.997087e+002, 8.048078e+001
9.001908e+002, 8.063207e+001
9.006729e+002, 8.075842e+001
9.011550e+002, 8.086279e+001
9.016371e+002, 8.084987e+001
9.021193e+002, 8.053881e+001
9.026014e+002, 8.044904e+001
9.030835e+002, 8.087393e+001
9.035656e+002, 8.135722e+001
9.040477e+002, 8.158637e+001
9.045298e+002, 8.163570e+001
9.050120e+002, 8.168865e+001
9.054941e+002, 8.175401e+001
9.059762e+002, 8.185349e+001
9.064583e+002, 8.202544e+001
9.069404e+002, 8.219875e+001
9.074225e+002, 8.230808e+001
9.079047e+002, 8.240347e+001
9.083868e+002, 8.252355e+001
9.088689e+002, 8.269508e+001
9.093510e+002, 8.302363e+001
9.098331e+002, 8.376265e+001
9.103152e+002, 8.437682e+001
9.107974e+002, 8.407497e+001
9.112795e+002, 8.336076e+001
9.117616e+002, 8.314782e+001
9.122437e+002, 8.348342e+001
9.127258e+002, 8.407976e+001
9.132079e+002, 8.480146e+001
9.136901e+002, 8.541220e+001
9.141722e+002, 8.551259e+001
9.146543e+002, 8.521529e+001
9.151364e+002, 8.516222e+001
9.156185e+002, 8.535589e+001
9.161006e+002, 8.579153e+001
9.165828e+002, 8.654604e+001
9.170649e+002, 8.718314e+001
9.175470e+002, 8.730093e+001
9.180291e+002, 8.705796e+001
9.185112e+002, 8.701892e+001
9.189933e+002, 8.716374e+001
9.194755e+002, 8.759255e+001
9.199576e+002, 8.870297e+001
9.204397e+002, 8.952399e+001
9.209218e+002, 8.925181e+001
9.214039e+002, 8.877428e+001
9.218860e+002, 8.914530e+001
9.223682e+002, 9.033918e+001
9.228503e+002, 9.135647e+001
9.233324e+002, 9.203990e+001
9.238145e+002, 9.255901e+001
9.242966e+002, 9.273074e+001
9.247787e+002, 9.295784e+001
9.252609e+002, 9.361336e+001
9.257430e+002, 9.455666e+001
9.262251e+002, 9.546043e+001
9.267072e+002, 9.622847e+001
9.271893e+002, 9.696400e+001
9.276714e+002, 9.774842e+001
9.281536e+002, 9.851382e+001
9.286357e+002, 9.910767e+001
9.291178e+002, 9.966710e+001
9.295999e+002, 1.003747e+002
9.300820e+002, 1.013181e+002
9.305641e+002, 1.027338e+002
9.310463e+002, 1.048419e+002
9.315284e+002, 1.070858e+002
9.320105e+002, 1.084680e+002
9.324926e+002, 1.092109e+002
9.329747e+002, 1.101507e+002
9.334568e+002, 1.113427e+002
9.339390e+002, 1.129434e+002
9.344211e+002, 1.150142e+002
9.349032e+002, 1.173817e+002
9.353853e+002, 1.199002e+002
9.358674e+002, 1.225198e+002
9.363495e+002, 1.248128e+002
9.368317e+002, 1.265060e+002
9.373138e+002, 1.291808e+002
9.377959e+002, 1.334407e+002
9.382780e+002, 1.377654e+002
9.387601e+002, 1.412850e+002
9.392422e+002, 1.444331e+002
9.397244e+002, 1.479329e+002
9.402065e+002, 1.517325e+002
9.406886e+002, 1.561463e+002
9.411707e+002, 1.614529e+002
9.416528e+002, 1.669798e+002
9.421349e+002, 1.726895e+002
9.426171e+002, 1.784979e+002
9.430992e+002, 1.842276e+002
9.435813e+002, 1.900314e+002
9.440634e+002, 1.962410e+002
9.445455e+002, 2.029663e+002
9.450276e+002, 2.099629e+002
9.455098e+002, 2.170412e+002
9.459919e+002, 2.245192e+002
9.464740e+002, 2.326074e+002
9.469561e+002, 2.411512e+002
9.474382e+002, 2.500275e+002
9.479203e+002, 2.591178e+002
9.484025e+002, 2.682663e+002
9.488846e+002, 2.774407e+002
9.493667e+002, 2.865163e+002
9.498488e+002, 2.954679e+002
9.503309e+002, 3.042453e+002
9.508130e+002, 3.127820e+002
9.512952e+002, 3.211309e+002
9.517773e+002, 3.298281e+002
9.522594e+002, 3.389285e+002
9.527415e+002, 3.470373e+002
9.532236e+002, 3.527846e+002
9.537057e+002, 3.566957e+002
9.541878e+002, 3.601215e+002
9.546699e+002, 3.629498e+002
9.551520e+002, 3.646123e+002
9.556342e+002, 3.650270e+002
9.561163e+002, 3.634090e+002
9.565984e+002, 3.592392e+002
9.570805e+002, 3.533616e+002
9.575626e+002, 3.471944e+002
9.580447e+002, 3.406756e+002
9.585269e+002, 3.327184e+002
9.590090e+002, 3.231343e+002
9.594911e+002, 3.127080e+002
9.599732e+002, 3.013976e+002
9.604553e+002, 2.897747e+002
9.609374e+002, 2.782220e+002
9.614196e+002, 2.668325e+002
9.619017e+002, 2.558693e+002
9.623838e+002, 2.453717e+002
9.628659e+002, 2.352042e+002
9.633480e+002, 2.252850e+002
9.638301e+002, 2.158543e+002
9.643123e+002, 2.069691e+002
9.647944e+002, 1.986046e+002
9.652765e+002, 1.906830e+002
9.657586e+002, 1.832221e+002
9.662407e+002, 1.763311e+002
9.667228e+002, 1.701209e+002
9.672050e+002, 1.642365e+002
9.676871e+002, 1.584646e+002
9.681692e+002, 1.531414e+002
9.686513e+002, 1.487369e+002
9.691334e+002, 1.447606e+002
9.696155e+002, 1.405160e+002
9.700977e+002, 1.359865e+002
9.705798e+002, 1.318578e+002
9.710619e+002, 1.285017e+002
9.715440e+002, 1.255333e+002
9.720261e+002, 1.228020e+002
9.725082e+002, 1.202635e+002
9.729904e+002, 1.179386e+002
9.734725e+002, 1.157674e+002
9.739546e+002, 1.136202e+002
9.744367e+002, 1.114683e+002
9.749188e+002, 1.094156e+002
9.754009e+002, 1.075842e+002
9.758831e+002, 1.058676e+002
9.763652e+002, 1.040590e+002
9.768473e+002, 1.022792e+002
9.773294e+002, 1.008054e+002
9.778115e+002, 9.962368e+001
9.782936e+002, 9.854433e+001
9.787758e+002, 9.746964e+001
9.792579e+002, 9.639258e+001
9.797400e+002, 9.523304e+001
9.802221e+002, 9.408446e+001
9.807042e+002, 9.337862e+001
9.811863e+002, 9.305330e+001
9.816685e+002, 9.258169e+001
9.821506e+002, 9.186279e+001
9.826327e+002, 9.106738e+001
9.831148e+002, 9.029496e+001
9.835969e+002, 8.958195e+001
9.840790e+002, 8.899393e+001
9.845612e+002, 8.853198e+001
9.850433e+002, 8.820823e+001
9.855254e+002, 8.805486e+001
9.860075e+002, 8.783662e+001
9.864896e+002, 8.746224e+001
9.869717e+002, 8.710251e+001
9.874539e+002, 8.690704e+001
9.879360e+002, 8.682139e+001
9.884181e+002, 8.667693e+001
9.889002e+002, 8.646556e+001
9.893823e+002, 8.621772e+001
9.898644e+002, 8.588647e+001
9.903466e+002, 8.560434e+001
9.908287e+002, 8.536880e+001
9.913108e+002, 8.524901e+001
9.917929e+002, 8.540616e+001
9.922750e+002, 8.576189e+001
9.927571e+002, 8.583437e+001
9.932393e+002, 8.528318e+001
9.937214e+002, 8.506422e+001
9.942035e+002, 8.535384e+001
9.946856e+002, 8.578310e+001
9.951677e+002, 8.630503e+001
9.956498e+002, 8.683007e+001
9.961320e+002, 8.717219e+001
9.966141e+002, 8.739011e+001
9.970962e+002, 8.793113e+001
9.975783e+002, 8.924858e+001
9.980604e+002, 9.027357e+001
9.985425e+002, 9.047410e+001
9.990247e+002, 9.057274e+001
9.995068e+002, 9.092345e+001
9.999889e+002, 9.150633e+001
1.000471e+003, 9.217336e+001
1.000953e+003, 9.294656e+001
1.001435e+003, 9.417480e+001
1.001917e+003, 9.642468e+001
1.002399e+003, 9.851144e+001
1.002882e+003, 9.943302e+001
1.003364e+003, 1.002034e+002
1.003846e+003, 1.016966e+002
1.004328e+003, 1.038235e+002
1.004810e+003, 1.063862e+002
1.005292e+003, 1.092686e+002
1.005774e+003, 1.120235e+002
1.006256e+003, 1.141013e+002
1.006739e+003, 1.163242e+002
1.007221e+003, 1.194505e+002
1.007703e+003, 1.232023e+002
1.008185e+003, 1.273091e+002
1.008667e+003, 1.316574e+002
1.009149e+003, 1.360929e+002
1.009631e+003, 1.405459e+002
1.010113e+003, 1.451140e+002
1.010595e+003, 1.498736e+002
1.011078e+003, 1.547596e+002
1.011560e+003, 1.596292e+002
1.012042e+003, 1.645510e+002
1.012524e+003, 1.697105e+002
1.013006e+003, 1.751121e+002
1.013488e+003, 1.806149e+002
1.013970e+003, 1.861841e+002
1.014452e+003, 1.919979e+002
1.014935e+003, 1.983735e+002
1.015417e+003, 2.050639e+002
1.015899e+003, 2.117960e+002
1.016381e+003, 2.183444e+002
1.016863e+003, 2.236940e+002
1.017345e+003, 2.276299e+002
1.017827e+003, 2.298698e+002
1.018309e+003, 2.302533e+002
1.018791e+003, 2.290271e+002
1.019274e+003, 2.262195e+002
1.019756e+003, 2.221891e+002
1.020238e+003, 2.185352e+002
1.020720e+003, 2.152695e+002
1.021202e+003, 2.121027e+002
1.021684e+003, 2.089160e+002
1.022166e+003, 2.071362e+002
1.022648e+003, 2.075981e+002
1.023130e+003, 2.098356e+002
1.023613e+003, 2.131887e+002
1.024095e+003, 2.176486e+002
1.024577e+003, 2.233336e+002
1.025059e+003, 2.305498e+002
1.025541e+003, 2.366499e+002
1.026023e+003, 2.417344e+002
1.026505e+003, 2.431077e+002
1.026987e+003, 2.390921e+002
1.027469e+003, 2.302584e+002
1.027952e+003, 2.172477e+002
1.028434e+003, 1.997668e+002
1.028916e+003, 1.828619e+002
1.029398e+003, 1.660546e+002
1.029880e+003, 1.513135e+002
1.030362e+003, 1.390199e+002
1.030844e+003, 1.287491e+002
1.031326e+003, 1.204095e+002
1.031809e+003, 1.137160e+002
1.032291e+003, 1.081279e+002
1.032773e+003, 1.037133e+002
1.033255e+003, 9.990112e+001
1.033737e+003, 9.675609e+001
1.034219e+003, 9.407359e+001
1.034701e+003, 9.189907e+001
1.035183e+003, 9.005885e+001
1.035666e+003, 8.856516e+001
1.036148e+003, 8.727430e+001
1.036630e+003, 8.586694e+001
1.037112e+003, 8.427792e+001
1.037594e+003, 8.294300e+001
1.038076e+003, 8.195167e+001
1.038558e+003, 8.108427e+001
1.039040e+003, 8.037081e+001
1.039522e+003, 7.970066e+001
1.040005e+003, 7.898106e+001
1.040487e+003, 7.826058e+001
1.040969e+003, 7.765022e+001
1.041451e+003, 7.716043e+001
1.041933e+003, 7.671144e+001
1.042415e+003, 7.639450e+001
1.042897e+003, 7.598512e+001
1.043379e+003, 7.521647e+001
1.043861e+003, 7.456884e+001
1.044344e+003, 7.453662e+001
1.044826e+003, 7.478645e+001
1.045308e+003, 7.462794e+001
1.045790e+003, 7.394630e+001
1.046272e+003, 7.338588e+001
1.046754e+003, 7.304688e+001
1.047236e+003, 7.279402e+001
1.047718e+003, 7.254670e+001
1.048201e+003, 7.242445e+001
1.048683e+003, 7.258339e+001
1.049165e+003, 7.289793e+001
1.049647e+003, 7.319878e+001
1.050129e+003, 7.349094e+001
1.050611e+003, 7.344722e+001
1.051093e+003, 7.252009e+001
1.051575e+003, 7.190779e+001
1.052057e+003, 7.228735e+001
1.052540e+003, 7.279240e+001
1.053022e+003, 7.268596e+001
1.053504e+003, 7.228972e+001
1.053986e+003, 7.232201e+001
1.054468e+003, 7.289840e+001
1.054950e+003, 7.323645e+001
1.055432e+003, 7.288710e+001
1.055914e+003, 7.259679e+001
1.056396e+003, 7.265165e+001
1.056879e+003, 7.282809e+001
1.057361e+003, 7.292779e+001
1.057843e+003, 7.304041e+001
1.058325e+003, 7.339302e+001
1.058807e+003, 7.401131e+001
1.059289e+003, 7.451849e+001
1.059771e+003, 7.468907e+001
1.060253e+003, 7.486802e+001
1.060736e+003, 7.514760e+001
1.061218e+003, 7.552373e+001
1.061700e+003, 7.594498e+001
1.062182e+003, 7.648388e+001
1.062664e+003, 7.729951e+001
1.063146e+003, 7.839521e+001
1.063628e+003, 7.948991e+001
1.064110e+003, 8.050208e+001
1.064593e+003, 8.147404e+001
1.065075e+003, 8.231247e+001
1.065557e+003, 8.322800e+001
1.066039e+003, 8.441227e+001
1.066521e+003, 8.576843e+001
1.067003e+003, 8.707703e+001
1.067485e+003, 8.833732e+001
1.067967e+003, 8.985432e+001
1.068449e+003, 9.174232e+001
1.068932e+003, 9.390450e+001
1.069414e+003, 9.623698e+001
1.069896e+003, 9.888957e+001
1.070378e+003, 1.020165e+002
1.070860e+003, 1.055175e+002
1.071342e+003, 1.093022e+002
1.071824e+003, 1.133394e+002
1.072306e+003, 1.176516e+002
1.072788e+003, 1.222752e+002
1.073271e+003, 1.270896e+002
1.073753e+003, 1.323654e+002
1.074235e+003, 1.374722e+002
1.074717e+003, 1.423656e+002
1.075199e+003, 1.465544e+002
1.075681e+003, 1.495580e+002
1.076163e+003, 1.512888e+002
1.076645e+003, 1.518615e+002
1.077127e+003, 1.515037e+002
1.077610e+003, 1.494147e+002
1.078092e+003, 1.445732e+002
1.078574e+003, 1.385702e+002
1.079056e+003, 1.317395e+002
1.079538e+003, 1.248561e+002
1.080020e+003, 1.186496e+002
1.080502e+003, 1.131497e+002
1.080984e+003, 1.080681e+002
1.081467e+003, 1.033274e+002
1.081949e+003, 9.902749e+001
1.082431e+003, 9.508163e+001
1.082913e+003, 9.171367e+001
1.083395e+003, 8.933156e+001
1.083877e+003, 8.740569e+001
1.084359e+003, 8.535887e+001
1.084841e+003, 8.327335e+001
1.085323e+003, 8.153346e+001
1.085806e+003, 8.026102e+001
1.086288e+003, 7.916592e+001
1.086770e+003, 7.797815e+001
1.087252e+003, 7.712125e+001
1.087734e+003, 7.720431e+001
1.088216e+003, 7.737144e+001
1.088698e+003, 7.671419e+001
1.089180e+003, 7.553550e+001
1.089662e+003, 7.459086e+001
1.090145e+003, 7.403036e+001
1.090627e+003, 7.357023e+001
1.091109e+003, 7.305219e+001
1.091591e+003, 7.267669e+001
1.092073e+003, 7.263076e+001
1.092555e+003, 7.266213e+001
1.093037e+003, 7.270688e+001
1.093519e+003, 7.262718e+001
1.094002e+003, 7.205190e+001
1.094484e+003, 7.100777e+001
1.094966e+003, 7.045776e+001
1.095448e+003, 7.114177e+001
1.095930e+003, 7.171988e+001
1.096412e+003, 7.179795e+001
1.096894e+003, 7.158767e+001
1.097376e+003, 7.097128e+001
1.097859e+003, 7.030458e+001
1.098341e+003, 7.012398e+001
1.098823e+003, 7.038410e+001
1.099305e+003, 7.044071e+001
1.099787e+003, 6.999522e+001
1.100269e+003, 6.965517e+001
1.100751e+003, 6.970975e+001
1.101233e+003, 6.974763e+001
1.101715e+003, 6.946655e+001
1.102198e+003, 6.914281e+001
1.102680e+003, 6.912314e+001
1.103162e+003, 6.933213e+001
1.103644e+003, 6.942503e+001
1.104126e+003, 6.935889e+001
1.104608e+003, 6.915530e+001
1.105090e+003, 6.848135e+001
1.105572e+003, 6.811044e+001
1.106054e+003, 6.858533e+001
1.106537e+003, 6.921447e+001
1.107019e+003, 6.948949e+001
1.107501e+003, 6.947048e+001
1.107983e+003, 6.933617e+001
1.108465e+003, 6.907099e+001
1.108947e+003, 6.885925e+001
1.109429e+003, 6.870663e+001
1.109911e+003, 6.862257e+001
1.110394e+003, 6.862605e+001
1.110876e+003, 6.868058e+001
1.111358e+003, 6.884817e+001
1.111840e+003, 6.901332e+001
1.112322e+003, 6.894400e+001
1.112804e+003, 6.862034e+001
1.113286e+003, 6.843980e+001
1.113768e+003, 6.839493e+001
1.114250e+003, 6.851074e+001
1.114733e+003, 6.892662e+001
1.115215e+003, 6.932008e+001
1.115697e+003, 6.961935e+001
1.116179e+003, 6.976546e+001
1.116661e+003, 6.959567e+001
1.117143e+003, 6.918493e+001
1.117625e+003, 6.911370e+001
1.118107e+003, 6.968880e+001
1.118589e+003, 6.984945e+001
1.119072e+003, 6.931834e+001
1.119554e+003, 6.891956e+001
1.120036e+003, 6.896675e+001
1.120518e+003, 6.913644e+001
1.121000e+003, 6.914464e+001
1.121482e+003, 6.906770e+001
1.121964e+003, 6.913209e+001
1.122446e+003, 6.935539e+001
1.122929e+003, 6.962550e+001
1.123411e+003, 6.998055e+001
1.123893e+003, 7.024592e+001
1.124375e+003, 7.036052e+001
1.124857e+003, 7.045773e+001
1.125339e+003, 7.064043e+001
1.125821e+003, 7.081200e+001
1.126303e+003, 7.078284e+001
1.126786e+003, 7.057012e+001
1.127268e+003, 7.046919e+001
1.127750e+003, 7.046650e+001
1.128232e+003, 7.075727e+001
1.128714e+003, 7.141928e+001
1.129196e+003, 7.195040e+001
1.129678e+003, 7.210516e+001
1.130160e+003, 7.213112e+001
1.130642e+003, 7.230218e+001
1.131125e+003, 7.258325e+001
1.131607e+003, 7.281734e+001
1.132089e+003, 7.301803e+001
1.132571e+003, 7.349039e+001
1.133053e+003, 7.424274e+001
1.133535e+003, 7.478501e+001
1.134017e+003, 7.496865e+001
1.134499e+003, 7.514016e+001
1.134981e+003, 7.557783e+001
1.135464e+003, 7.611282e+001
1.135946e+003, 7.637706e+001
1.136428e+003, 7.648324e+001
1.136910e+003, 7.691553e+001
1.137392e+003, 7.760754e+001
1.137874e+003, 7.817288e+001
1.138356e+003, 7.857304e+001
1.138838e+003, 7.912103e+001
1.139321e+003, 7.998094e+001
1.139803e+003, 8.086401e+001
1.140285e+003, 8.145657e+001
1.140767e+003, 8.186015e+001
1.141249e+003, 8.224032e+001
1.141731e+003, 8.259132e+001
1.142213e+003, 8.293966e+001
1.142695e+003, 8.324392e+001
1.143177e+003, 8.334728e+001
1.143660e+003, 8.322134e+001
1.144142e+003, 8.305744e+001
1.144624e+003, 8.297903e+001
1.145106e+003, 8.294721e+001
1.145588e+003, 8.310514e+001
1.146070e+003, 8.313802e+001
1.146552e+003, 8.245496e+001
1.147034e+003, 8.143058e+001
1.147516e+003, 8.079084e+001
1.147999e+003, 8.058050e+001
1.148481e+003, 8.038509e+001
1.148963e+003, 8.004528e+001
1.149445e+003, 7.959542e+001
1.149927e+003, 7.885251e+001
1.150409e+003, 7.823802e+001
1.150891e+003, 7.837574e+001
1.151373e+003, 7.854359e+001
1.151856e+003, 7.772458e+001
1.152338e+003, 7.634356e+001
1.152820e+003, 7.554571e+001
1.153302e+003, 7.556894e+001
1.153784e+003, 7.560144e+001
1.154266e+003, 7.548609e+001
1.154748e+003, 7.517166e+001
1.155230e+003, 7.442654e+001
1.155713e+003, 7.371446e+001
1.156195e+003, 7.333932e+001
1.156677e+003, 7.315467e+001
1.157159e+003, 7.295403e+001
1.157641e+003, 7.273824e+001
1.158123e+003, 7.262700e+001
1.158605e+003, 7.275994e+001
1.159087e+003, 7.272086e+001
1.159569e+003, 7.226962e+001
1.160052e+003, 7.193934e+001
1.160534e+003, 7.190874e+001
1.161016e+003, 7.200302e+001
1.161498e+003, 7.213321e+001
1.161980e+003, 7.227806e+001
1.162462e+003, 7.241091e+001
1.162944e+003, 7.254922e+001
1.163426e+003, 7.247180e+001
1.163908e+003, 7.207806e+001
1.164391e+003, 7.176241e+001
1.164873e+003, 7.158967e+001
1.165355e+003, 7.145201e+001
1.165837e+003, 7.127702e+001
1.166319e+003, 7.118015e+001
1.166801e+003, 7.133327e+001
1.167283e+003, 7.164159e+001
1.167765e+003, 7.167803e+001
1.168247e+003, 7.142881e+001
1.168730e+003, 7.137544e+001
1.169212e+003, 7.154722e+001
1.169694e+003, 7.156435e+001
1.170176e+003, 7.132145e+001
1.170658e+003, 7.099432e+001
1.171140e+003, 7.068746e+001
1.171622e+003, 7.048293e+001
1.172104e+003, 7.057726e+001
1.172587e+003, 7.085608e+001
1.173069e+003, 7.094766e+001
1.173551e+003, 7.088126e+001
1.174033e+003, 7.070572e+001
1.174515e+003, 7.047688e+001
1.174997e+003, 7.043126e+001
1.175479e+003, 7.064235e+001
1.175961e+003, 7.084278e+001
1.176443e+003, 7.076012e+001
1.176926e+003, 7.067663e+001
1.177408e+003, 7.104987e+001
1.177890e+003, 7.156736e+001
1.178372e+003, 7.181113e+001
1.178854e+003, 7.182219e+001
1.179336e+003, 7.167616e+001
1.179818e+003, 7.144680e+001
1.180300e+003, 7.131192e+001
1.180782e+003, 7.134982e+001
1.181265e+003, 7.144762e+001
1.181747e+003, 7.169406e+001
1.182229e+003, 7.178904e+001
1.182711e+003, 7.127636e+001
1.183193e+003, 7.075158e+001
1.183675e+003, 7.084055e+001
1.184157e+003, 7.132567e+001
1.184639e+003, 7.181764e+001
1.185122e+003, 7.223629e+001
1.185604e+003, 7.235209e+001
1.186086e+003, 7.184413e+001
1.186568e+003, 7.146777e+001
1.187050e+003, 7.142506e+001
1.187532e+003, 7.144157e+001
1.188014e+003, 7.133425e+001
1.188496e+003, 7.129722e+001
1.188979e+003, 7.153499e+001
1.189461e+003, 7.197715e+001
1.189943e+003, 7.246086e+001
1.190425e+003, 7.306296e+001
1.190907e+003, 7.319759e+001
1.191389e+003, 7.256367e+001
1.191871e+003, 7.235540e+001
1.192353e+003, 7.293994e+001
1.192835e+003, 7.342182e+001
1.193318e+003, 7.330943e+001
1.193800e+003, 7.301586e+001
1.194282e+003, 7.305356e+001
1.194764e+003, 7.332088e+001
1.195246e+003, 7.337259e+001
1.195728e+003, 7.322478e+001
1.196210e+003, 7.335152e+001
1.196692e+003, 7.376051e+001
1.197174e+003, 7.419292e+001
1.197657e+003, 7.457527e+001
1.198139e+003, 7.485231e+001
1.198621e+003, 7.498902e+001
1.199103e+003, 7.500233e+001
1.199585e+003, 7.477868e+001
1.200067e+003, 7.455111e+001
1.200549e+003, 7.486636e+001
1.201031e+003, 7.551221e+001
1.201514e+003, 7.617537e+001
1.201996e+003, 7.670238e+001
1.202478e+003, 7.671146e+001
1.202960e+003, 7.618848e+001
1.203442e+003, 7.577482e+001
1.203924e+003, 7.587300e+001
1.204406e+003, 7.610000e+001
1.204888e+003, 7.628904e+001
1.205370e+003, 7.635629e+001
1.205853e+003, 7.603378e+001
1.206335e+003, 7.569749e+001
1.206817e+003, 7.582296e+001
1.207299e+003, 7.632024e+001
1.207781e+003, 7.692290e+001
1.208263e+003, 7.760404e+001
1.208745e+003, 7.791190e+001
1.209227e+003, 7.742690e+001
1.209709e+003, 7.702327e+001
1.210192e+003, 7.673502e+001
1.210674e+003, 7.674232e+001
1.211156e+003, 7.746548e+001
1.211638e+003, 7.823952e+001
1.212120e+003, 7.834204e+001
1.212602e+003, 7.795152e+001
1.213084e+003, 7.773132e+001
1.213566e+003, 7.767954e+001
1.214049e+003, 7.783459e+001
1.214531e+003, 7.827116e+001
1.215013e+003, 7.861626e+001
1.215495e+003, 7.879470e+001
1.215977e+003, 7.889626e+001
1.216459e+003, 7.895889e+001
1.216941e+003, 7.900752e+001
1.217423e+003, 7.905209e+001
1.217906e+003, 7.914153e+001
1.218388e+003, 7.957516e+001
1.218870e+003, 8.020040e+001
1.219352e+003, 8.001779e+001
1.219834e+003, 7.921922e+001
1.220316e+003, 7.917746e+001
1.220798e+003, 8.006740e+001
1.221280e+003, 8.078233e+001
1.221762e+003, 8.072274e+001
1.222245e+003, 8.041512e+001
1.222727e+003, 8.030924e+001
1.223209e+003, 8.031651e+001
1.223691e+003, 8.034769e+001
1.224173e+003, 8.042072e+001
1.224655e+003, 8.060625e+001
1.225137e+003, 8.083237e+001
1.225619e+003, 8.100830e+001
1.226101e+003, 8.108736e+001
1.226584e+003, 8.093322e+001
1.227066e+003, 8.038844e+001
1.227548e+003, 7.993913e+001
1.228030e+003, 7.988330e+001
1.228512e+003, 7.978639e+001
1.228994e+003, 7.923308e+001
1.229476e+003, 7.879871e+001
1.229958e+003, 7.925080e+001
1.230441e+003, 7.996859e+001
1.230923e+003, 7.971430e+001
1.231405e+003, 7.853081e+001
1.231887e+003, 7.797304e+001
1.232369e+003, 7.829330e+001
1.232851e+003, 7.845518e+001
1.233333e+003, 7.835338e+001
1.233815e+003, 7.826165e+001
1.234297e+003, 7.818711e+001
1.234780e+003, 7.858894e+001
1.235262e+003, 7.995092e+001
1.235744e+003, 8.135091e+001
1.236226e+003, 8.102773e+001
1.236708e+003, 7.947807e+001
1.237190e+003, 7.878333e+001
1.237672e+003, 7.877087e+001
1.238154e+003, 7.869548e+001
1.238636e+003, 7.849740e+001
1.239119e+003, 7.829931e+001
1.239601e+003, 7.815827e+001
1.240083e+003, 7.817120e+001
1.240565e+003, 7.841199e+001
1.241047e+003, 7.876553e+001
1.241529e+003, 7.927913e+001
1.242011e+003, 7.968771e+001
1.242493e+003, 7.960945e+001
1.242975e+003, 7.937338e+001
1.243458e+003, 7.931279e+001
1.243940e+003, 7.946052e+001
1.244422e+003, 7.984949e+001
1.244904e+003, 8.045586e+001
1.245386e+003, 8.093700e+001
1.245868e+003, 8.109194e+001
1.246350e+003, 8.132304e+001
1.246832e+003, 8.179312e+001
1.247315e+003, 8.221928e+001
1.247797e+003, 8.237930e+001
1.248279e+003, 8.261539e+001
1.248761e+003, 8.317004e+001
1.249243e+003, 8.395665e+001
1.249725e+003, 8.486379e+001
1.250207e+003, 8.587208e+001
1.250689e+003, 8.659980e+001
1.251172e+003, 8.697310e+001
1.251654e+003, 8.795414e+001
1.252136e+003, 8.964408e+001
1.252618e+003, 9.114454e+001
1.253100e+003, 9.218784e+001
1.253582e+003, 9.331954e+001
1.254064e+003, 9.490612e+001
1.254546e+003, 9.677279e+001
1.255028e+003, 9.861810e+001
1.255510e+003, 1.005941e+002
1.255993e+003, 1.030071e+002
1.256475e+003, 1.057351e+002
1.256957e+003, 1.085107e+002
1.257439e+003, 1.113602e+002
1.257921e+003, 1.144129e+002
1.258403e+003, 1.176982e+002
1.258885e+003, 1.212141e+002
1.259367e+003, 1.248698e+002
1.259850e+003, 1.290643e+002
1.260332e+003, 1.340256e+002
1.260814e+003, 1.395055e+002
1.261296e+003, 1.456005e+002
1.261778e+003, 1.519846e+002
1.262260e+003, 1.582793e+002
1.262742e+003, 1.648125e+002
1.263224e+003, 1.722791e+002
1.263707e+003, 1.805443e+002
1.264189e+003, 1.880770e+002
1.264671e+003, 1.950184e+002
1.265153e+003, 2.008763e+002
1.265635e+003, 2.057406e+002
1.266117e+003, 2.091072e+002
1.266599e+003, 2.109476e+002
1.267081e+003, 2.106244e+002
1.267563e+003, 2.077554e+002
1.268046e+003, 2.027538e+002
1.268528e+003, 1.957522e+002
1.269010e+003, 1.875302e+002
1.269492e+003, 1.797081e+002
1.269974e+003, 1.721467e+002
1.270456e+003, 1.643005e+002
1.270938e+003, 1.563863e+002
1.271420e+003, 1.489456e+002
1.271902e+003, 1.421291e+002
1.272385e+003, 1.360364e+002
1.272867e+003, 1.307184e+002
1.273349e+003, 1.258738e+002
1.273831e+003, 1.212553e+002
1.274313e+003, 1.171232e+002
1.274795e+003, 1.136509e+002
1.275277e+003, 1.106055e+002
1.275759e+003, 1.078131e+002
1.276242e+003, 1.053480e+002
1.276724e+003, 1.034097e+002
1.277206e+003, 1.018572e+002
1.277688e+003, 1.002323e+002
1.278170e+003, 9.847794e+001
1.278652e+003, 9.721217e+001
1.279134e+003, 9.665864e+001
1.279616e+003, 9.570588e+001
1.280099e+003, 9.409514e+001
1.280581e+003, 9.292090e+001
1.281063e+003, 9.262390e+001
1.281545e+003, 9.242393e+001
1.282027e+003, 9.168941e+001
1.282509e+003, 9.073624e+001
1.282991e+003, 8.999728e+001
1.283473e+003, 8.949939e+001
1.283955e+003, 8.932285e+001
##END=



