##NAMES=Goldfieldite
##RRUFFID=R110023
##IDEAL CHEMISTRY=(Cu^1+^_4_[box]_2_)Cu^1+^_6_Te^4+^_4_S^2-^_13_
##LOCALITY=Mohawk mine, Goldfield, Esmeralda County, Nevada, USA
##OWNER=RRUFF
##SOURCE=William Pinch
##DESCRIPTION=Dark grey metallic massive to granular associated with pinkish grey famatinite R110021
##STATUS=The identification of this mineral has been confirmed only by single crystal X-ray diffraction.
##URL=rruff.info/R110023
179.6838, 470.1102
180.1659, 471.8563
180.6480, 470.9251
181.1301, 469.5880
181.6122, 470.0001
182.0944, 471.8403
182.5765, 474.0360
183.0586, 476.7958
183.5407, 479.4997
184.0228, 480.8338
184.5049, 480.6922
184.9871, 479.7072
185.4692, 478.1551
185.9513, 476.1865
186.4334, 474.7486
186.9155, 474.9423
187.3976, 476.0669
187.8798, 475.5195
188.3619, 472.9254
188.8440, 469.7658
189.3261, 467.9147
189.8082, 467.3121
190.2903, 467.6012
190.7725, 469.2999
191.2546, 472.0194
191.7367, 473.0929
192.2188, 472.0509
192.7009, 470.2965
193.1830, 470.1572
193.6652, 471.6255
194.1473, 473.5434
194.6294, 475.4845
195.1115, 477.4203
195.5936, 478.8275
196.0757, 479.4435
196.5579, 479.9179
197.0400, 482.0537
197.5221, 486.1043
198.0042, 489.1617
198.4863, 488.6243
198.9684, 484.4266
199.4506, 483.1480
199.9327, 486.1837
200.4148, 491.1459
200.8969, 492.5283
201.3790, 489.8071
201.8611, 486.4666
202.3433, 484.4008
202.8254, 483.6759
203.3075, 483.4600
203.7896, 483.8818
204.2717, 484.6096
204.7538, 484.6732
205.2360, 483.8607
205.7181, 483.1358
206.2002, 483.1791
206.6823, 484.1417
207.1644, 484.7979
207.6465, 484.9494
208.1287, 484.7769
208.6108, 485.0061
209.0929, 485.9668
209.5750, 486.4137
210.0571, 485.1603
210.5392, 481.5363
211.0214, 479.4589
211.5035, 479.7538
211.9856, 481.6664
212.4677, 482.4597
212.9498, 481.6636
213.4319, 480.8368
213.9140, 480.9051
214.3962, 482.0031
214.8783, 483.6017
215.3604, 485.8638
215.8425, 488.5703
216.3246, 490.8529
216.8067, 492.9499
217.2889, 494.2113
217.7710, 493.9144
218.2531, 491.1153
218.7352, 489.5988
219.2173, 490.0707
219.6994, 492.0562
220.1816, 493.1901
220.6637, 492.8842
221.1458, 492.7458
221.6279, 493.9254
222.1100, 497.1342
222.5921, 499.8196
223.0743, 501.8974
223.5564, 503.3148
224.0385, 503.7650
224.5206, 502.7677
225.0027, 501.5761
225.4848, 501.0651
225.9670, 501.8275
226.4491, 501.7658
226.9312, 500.0274
227.4133, 497.2809
227.8954, 497.0600
228.3775, 501.2860
228.8597, 505.2477
229.3418, 505.6244
229.8239, 499.9047
230.3060, 496.4810
230.7881, 496.5837
231.2702, 499.5218
231.7524, 502.1351
232.2345, 504.4372
232.7166, 506.3302
233.1987, 507.6495
233.6808, 508.0206
234.1629, 508.6030
234.6451, 509.4426
235.1272, 510.5381
235.6093, 512.0193
236.0914, 514.4401
236.5735, 516.4894
237.0556, 517.3450
237.5378, 516.3398
238.0199, 515.6144
238.5020, 515.3124
238.9841, 515.3852
239.4662, 515.6140
239.9483, 515.9337
240.4305, 516.5287
240.9126, 517.7006
241.3947, 520.4160
241.8768, 521.4803
242.3589, 519.7625
242.8410, 516.3628
243.3232, 515.3177
243.8053, 517.9780
244.2874, 521.1434
244.7695, 523.1401
245.2516, 523.3161
245.7337, 523.8080
246.2159, 524.8787
246.6980, 526.2678
247.1801, 527.0709
247.6622, 526.8304
248.1443, 526.6869
248.6264, 527.2360
249.1086, 528.8871
249.5907, 530.2587
250.0728, 531.3518
250.5549, 532.1526
251.0370, 532.4861
251.5191, 531.7346
252.0013, 531.5172
252.4834, 532.7409
252.9655, 536.2805
253.4476, 538.9726
253.9297, 540.7086
254.4118, 541.6536
254.8940, 542.1048
255.3761, 541.7141
255.8582, 541.4446
256.3403, 541.8162
256.8224, 543.2298
257.3046, 543.8597
257.7867, 543.3314
258.2688, 542.2361
258.7509, 541.6699
259.2330, 541.6052
259.7151, 542.1207
260.1973, 543.5084
260.6794, 546.1678
261.1615, 547.7220
261.6436, 547.7821
262.1257, 547.0682
262.6078, 546.7732
263.0900, 547.0346
263.5721, 547.4081
264.0542, 547.5567
264.5363, 547.2785
265.0184, 548.5215
265.5005, 552.2328
265.9827, 556.4081
266.4648, 557.8691
266.9469, 555.5319
267.4290, 553.6009
267.9111, 553.3882
268.3932, 554.9830
268.8754, 556.9874
269.3575, 559.7219
269.8396, 562.3480
270.3217, 563.4133
270.8038, 562.2744
271.2859, 562.0213
271.7681, 563.6537
272.2502, 567.0920
272.7323, 570.8336
273.2144, 575.2617
273.6965, 579.0705
274.1786, 580.2960
274.6608, 578.2866
275.1429, 577.3517
275.6250, 578.8760
276.1071, 582.4634
276.5892, 585.1226
277.0714, 586.5922
277.5535, 587.7629
278.0356, 589.5738
278.5177, 592.1251
278.9998, 594.2053
279.4819, 595.4052
279.9641, 595.9786
280.4462, 597.0369
280.9283, 598.6794
281.4104, 600.3851
281.8925, 601.9851
282.3746, 603.4952
282.8568, 603.9066
283.3389, 602.5511
283.8210, 600.4135
284.3031, 600.5016
284.7852, 603.0525
285.2673, 605.9686
285.7495, 607.5523
286.2316, 607.9639
286.7137, 609.3014
287.1958, 612.0762
287.6779, 615.5526
288.1600, 618.1058
288.6422, 619.7184
289.1243, 621.4501
289.6064, 624.4672
290.0885, 628.3456
290.5706, 630.3465
291.0527, 629.6486
291.5349, 628.3754
292.0170, 630.3122
292.4991, 635.1745
292.9812, 640.0881
293.4633, 643.5983
293.9454, 645.9103
294.4276, 647.4984
294.9097, 648.2958
295.3918, 648.7242
295.8739, 648.8641
296.3560, 648.9173
296.8381, 649.8428
297.3203, 652.6819
297.8024, 656.5889
298.2845, 659.9464
298.7666, 662.7311
299.2487, 665.0236
299.7308, 667.0519
300.2130, 668.7092
300.6951, 669.6434
301.1772, 668.9455
301.6593, 667.8225
302.1414, 668.0173
302.6235, 669.5102
303.1057, 671.6570
303.5878, 674.7455
304.0699, 678.0291
304.5520, 679.9395
305.0341, 678.5322
305.5162, 676.8685
305.9984, 678.9044
306.4805, 684.0934
306.9626, 688.8238
307.4447, 690.1220
307.9268, 689.6201
308.4089, 689.2516
308.8911, 689.0266
309.3732, 689.8260
309.8553, 693.3887
310.3374, 698.8348
310.8195, 703.2589
311.3016, 703.7271
311.7838, 703.0396
312.2659, 703.8198
312.7480, 707.0741
313.2301, 710.6179
313.7122, 713.0985
314.1943, 714.9484
314.6765, 717.0247
315.1586, 719.9443
315.6407, 723.0443
316.1228, 725.8060
316.6049, 727.9573
317.0870, 730.6267
317.5692, 735.2477
318.0513, 740.4647
318.5334, 744.3496
319.0155, 744.8542
319.4976, 745.1276
319.9797, 746.5684
320.4619, 749.3594
320.9440, 752.2230
321.4261, 755.1794
321.9082, 757.8275
322.3903, 759.7717
322.8724, 759.5642
323.3546, 760.0002
323.8367, 762.4758
324.3188, 766.8776
324.8009, 769.8867
325.2830, 770.1328
325.7651, 769.3253
326.2473, 768.5694
326.7294, 767.9896
327.2115, 767.4734
327.6936, 766.5981
328.1757, 765.6517
328.6578, 765.9777
329.1400, 769.0469
329.6221, 772.1980
330.1042, 774.3301
330.5863, 774.9303
331.0684, 775.3450
331.5505, 775.1976
332.0327, 774.9173
332.5148, 775.5065
332.9969, 777.5223
333.4790, 779.6196
333.9611, 781.4164
334.4432, 782.9211
334.9254, 783.8975
335.4075, 783.9065
335.8896, 783.7045
336.3717, 784.4470
336.8538, 786.5875
337.3359, 788.4735
337.8180, 789.2206
338.3001, 788.8710
338.7823, 790.9413
339.2644, 796.2789
339.7465, 802.3508
340.2286, 806.7343
340.7107, 809.2139
341.1928, 811.1191
341.6750, 812.4233
342.1571, 813.4183
342.6392, 815.1568
343.1213, 817.7213
343.6034, 820.7067
344.0855, 823.9893
344.5677, 827.5297
345.0498, 830.8932
345.5319, 833.8225
346.0140, 836.8535
346.4961, 841.0476
346.9782, 846.3590
347.4604, 852.2450
347.9425, 858.7254
348.4246, 865.5771
348.9067, 871.8055
349.3888, 877.3683
349.8709, 882.2770
350.3531, 886.6503
350.8352, 890.4096
351.3173, 893.2535
351.7994, 894.8063
352.2815, 895.4562
352.7636, 895.4223
353.2458, 894.6999
353.7279, 894.6122
354.2100, 897.8067
354.6921, 902.1653
355.1742, 903.9586
355.6563, 901.1473
356.1385, 896.2568
356.6206, 890.9387
357.1027, 885.3379
357.5848, 880.3307
358.0669, 877.3133
358.5490, 874.6495
359.0312, 870.7120
359.5133, 864.7469
359.9954, 858.3929
360.4775, 852.4965
360.9596, 846.8817
361.4417, 841.2673
361.9239, 835.1020
362.4060, 829.1940
362.8881, 824.3309
363.3702, 820.9623
363.8523, 816.6526
364.3344, 810.5604
364.8166, 803.1317
365.2987, 794.8044
365.7808, 784.7129
366.2629, 774.9250
366.7450, 766.4498
367.2271, 759.2770
367.7093, 751.0076
368.1914, 739.3558
368.6735, 727.7698
369.1556, 718.4369
369.6377, 714.2560
370.1198, 709.0265
370.6020, 701.8742
371.0841, 693.4089
371.5662, 685.8488
372.0483, 679.8507
372.5304, 674.0492
373.0125, 667.7637
373.4947, 660.5215
373.9768, 654.2925
374.4589, 649.2333
374.9410, 644.9905
375.4231, 641.3234
375.9052, 638.7571
376.3874, 635.2143
376.8695, 629.7524
377.3516, 622.3810
377.8337, 616.4694
378.3158, 612.5187
378.7979, 608.4700
379.2801, 601.8692
379.7622, 592.5028
380.2443, 584.2162
380.7264, 577.9095
381.2085, 572.9168
381.6906, 567.2129
382.1728, 560.7891
382.6549, 554.8575
383.1370, 550.7133
383.6191, 547.8508
384.1012, 544.4277
384.5833, 540.1233
385.0655, 535.4975
385.5476, 531.4399
386.0297, 527.7236
386.5118, 523.7595
386.9939, 518.9078
387.4760, 513.7394
387.9582, 508.8326
388.4403, 504.1613
388.9224, 500.3313
389.4045, 498.4292
389.8866, 497.5591
390.3687, 496.4351
390.8509, 494.3959
391.3330, 492.2705
391.8151, 490.6855
392.2972, 489.5301
392.7793, 488.3122
393.2614, 486.9367
393.7436, 485.3219
394.2257, 483.1834
394.7078, 479.9225
395.1899, 477.5314
395.6720, 477.3771
396.1541, 478.4165
396.6363, 478.9749
397.1184, 477.9800
397.6005, 477.0542
398.0826, 477.0128
398.5647, 478.0993
399.0468, 478.2607
399.5290, 477.2033
400.0111, 475.1933
400.4932, 472.3755
400.9753, 466.3240
401.4574, 462.7923
401.9395, 463.4072
402.4217, 467.1761
402.9038, 469.4418
403.3859, 469.7949
403.8680, 469.2509
404.3501, 468.1589
404.8322, 466.3140
405.3144, 464.6464
405.7965, 463.1318
406.2786, 461.8439
406.7607, 461.0527
407.2428, 460.8983
407.7249, 460.4173
408.2071, 458.9460
408.6892, 456.7998
409.1713, 456.3813
409.6534, 457.9632
410.1355, 459.6696
410.6176, 459.6851
411.0998, 458.2508
411.5819, 456.6198
412.0640, 454.7429
412.5461, 453.2645
413.0282, 453.8045
413.5103, 455.9834
413.9925, 457.5804
414.4746, 457.0327
414.9567, 455.1751
415.4388, 453.1473
415.9209, 450.9797
416.4030, 449.0368
416.8852, 447.5299
417.3673, 446.4490
417.8494, 445.7646
418.3315, 445.6288
418.8136, 445.7495
419.2957, 446.3251
419.7779, 447.1885
420.2600, 447.2730
420.7421, 444.8806
421.2242, 442.2653
421.7063, 441.2282
422.1884, 443.0342
422.6706, 444.5939
423.1527, 444.8887
423.6348, 444.4723
424.1169, 444.3904
424.5990, 445.9671
425.0811, 446.7711
425.5633, 445.5264
426.0454, 441.7038
426.5275, 439.5934
427.0096, 440.5619
427.4917, 442.1268
427.9738, 442.1139
428.4560, 439.2970
428.9381, 437.4738
429.4202, 437.2740
429.9023, 438.3174
430.3844, 439.5596
430.8665, 441.3472
431.3487, 442.3134
431.8308, 441.3963
432.3129, 438.4763
432.7950, 436.3534
433.2771, 435.1840
433.7592, 434.5013
434.2414, 433.6789
434.7235, 432.7485
435.2056, 432.0740
435.6877, 431.8467
436.1698, 431.9015
436.6519, 431.9460
437.1341, 431.9777
437.6162, 431.9181
438.0983, 431.6968
438.5804, 431.3513
439.0625, 430.8555
439.5446, 430.0904
440.0268, 429.5709
440.5089, 430.1385
440.9910, 431.2804
441.4731, 431.9415
441.9552, 431.2253
442.4373, 430.2100
442.9195, 429.4752
443.4016, 429.0455
443.8837, 428.9004
444.3658, 429.4980
444.8479, 430.1062
445.3300, 430.1180
445.8122, 428.4600
446.2943, 427.4398
446.7764, 428.1132
447.2585, 429.7199
447.7406, 430.3163
448.2227, 428.9213
448.7049, 427.3406
449.1870, 426.0199
449.6691, 424.9848
450.1512, 424.1671
450.6333, 423.7156
451.1154, 423.3414
451.5976, 422.6365
452.0797, 421.2769
452.5618, 420.8667
453.0439, 422.2394
453.5260, 424.4247
454.0081, 423.8809
454.4903, 420.0802
454.9724, 416.9986
455.4545, 417.5871
455.9366, 421.1920
456.4187, 423.1287
456.9008, 423.1118
457.3830, 422.0994
457.8651, 420.6440
458.3472, 419.0053
458.8293, 418.1753
459.3114, 418.9646
459.7935, 420.1871
460.2757, 420.2730
460.7578, 419.4009
461.2399, 418.5046
461.7220, 418.2471
462.2041, 418.1903
462.6862, 417.9047
463.1684, 417.2836
463.6505, 416.6620
464.1326, 416.1269
464.6147, 415.7323
465.0968, 415.5412
465.5789, 415.3775
466.0611, 415.6377
466.5432, 416.8300
467.0253, 418.8159
467.5074, 420.0782
467.9895, 420.4848
468.4716, 420.0929
468.9538, 418.7862
469.4359, 415.7290
469.9180, 413.6439
470.4001, 412.8541
470.8822, 412.7858
471.3643, 412.6487
471.8465, 412.5161
472.3286, 412.0470
472.8107, 410.9538
473.2928, 409.4359
473.7749, 408.7281
474.2570, 408.9776
474.7392, 409.2709
475.2213, 408.6495
475.7034, 407.3333
476.1855, 406.9261
476.6676, 407.7255
477.1497, 409.0234
477.6319, 410.0377
478.1140, 410.7867
478.5961, 411.3091
479.0782, 412.0327
479.5603, 412.2896
480.0424, 410.7480
480.5246, 407.6597
481.0067, 405.1281
481.4888, 404.7826
481.9709, 405.3995
482.4530, 406.0089
482.9352, 406.6021
483.4173, 406.7163
483.8994, 405.7293
484.3815, 404.2360
484.8636, 403.1547
485.3457, 402.7572
485.8279, 402.7217
486.3100, 403.3854
486.7921, 404.7310
487.2742, 404.8240
487.7563, 402.3336
488.2384, 399.9548
488.7206, 399.3278
489.2027, 401.3521
489.6848, 402.7539
490.1669, 403.5190
490.6490, 403.6338
491.1311, 402.6415
491.6133, 400.2223
492.0954, 399.0671
492.5775, 400.6264
493.0596, 403.9155
493.5417, 405.0088
494.0238, 403.8681
494.5060, 402.5562
494.9881, 403.2464
495.4702, 404.8957
495.9523, 404.5381
496.4344, 401.3858
496.9165, 398.0635
497.3987, 397.4243
497.8808, 398.4637
498.3629, 399.3045
498.8450, 399.0610
499.3271, 398.4590
499.8092, 397.9314
500.2914, 397.4498
500.7735, 396.8703
501.2556, 395.9147
501.7377, 395.0054
502.2198, 394.4495
502.7019, 394.5089
503.1841, 394.3271
503.6662, 393.2958
504.1483, 392.1872
504.6304, 391.9595
505.1125, 393.4994
505.5946, 394.4544
506.0768, 394.1714
506.5589, 392.9924
507.0410, 392.8056
507.5231, 394.0486
508.0052, 395.0417
508.4873, 394.6220
508.9695, 392.7742
509.4516, 391.7818
509.9337, 391.7427
510.4158, 392.1910
510.8979, 392.9093
511.3800, 393.7478
511.8622, 393.9393
512.3443, 393.0073
512.8264, 391.7386
513.3085, 391.2870
513.7906, 391.4308
514.2728, 391.3705
514.7549, 390.0667
515.2370, 388.7535
515.7191, 388.8013
516.2012, 390.3991
516.6833, 391.5409
517.1655, 390.7009
517.6476, 389.3273
518.1297, 388.6645
518.6118, 389.7519
519.0939, 390.5943
519.5760, 390.6557
520.0582, 390.2768
520.5403, 390.3214
521.0224, 391.5271
521.5045, 392.1086
521.9866, 391.3966
522.4688, 389.3858
522.9509, 387.5882
523.4330, 385.6890
523.9151, 384.6832
524.3972, 385.8549
524.8793, 389.2617
525.3615, 391.6413
525.8436, 392.6717
526.3257, 392.7281
526.8078, 391.8553
527.2899, 390.3135
527.7720, 389.4081
528.2542, 390.2690
528.7363, 391.5668
529.2184, 391.4368
529.7005, 390.0703
530.1826, 388.5068
530.6647, 387.0060
531.1469, 385.8238
531.6290, 385.2724
532.1111, 385.5370
532.5932, 385.7721
533.0753, 385.3835
533.5574, 384.9179
534.0396, 384.9479
534.5217, 386.4945
535.0038, 387.4637
535.4859, 387.1386
535.9680, 386.0095
536.4501, 385.6904
536.9323, 386.8140
537.4144, 387.6652
537.8965, 387.4653
538.3786, 386.1780
538.8607, 385.4639
539.3428, 385.4215
539.8250, 385.6505
540.3071, 385.8187
540.7892, 385.9301
541.2713, 386.1387
541.7534, 386.5583
542.2355, 386.8159
542.7177, 386.0815
543.1998, 384.6881
543.6819, 383.7187
544.1640, 384.1581
544.6461, 384.9171
545.1282, 384.7606
545.6104, 383.8805
546.0925, 383.4641
546.5746, 384.7575
547.0567, 386.2827
547.5388, 387.0485
548.0209, 386.7582
548.5031, 386.2253
548.9852, 385.3446
549.4673, 384.4286
549.9494, 383.7732
550.4315, 382.9474
550.9136, 383.1160
551.3958, 384.9671
551.8779, 387.7496
552.3600, 389.1727
552.8421, 389.0206
553.3242, 388.2769
553.8063, 387.0983
554.2885, 385.6001
554.7706, 384.8534
555.2527, 384.9305
555.7348, 385.0096
556.2169, 384.0862
556.6990, 382.6242
557.1812, 381.8199
557.6633, 381.9213
558.1454, 382.4871
558.6275, 383.2969
559.1096, 384.2451
559.5917, 385.1615
560.0739, 386.2397
560.5560, 387.0114
561.0381, 387.1636
561.5202, 386.7805
562.0023, 386.2516
562.4844, 385.2938
562.9666, 384.5310
563.4487, 384.2603
563.9308, 384.5267
564.4129, 385.0510
564.8950, 386.1138
565.3771, 387.1205
565.8593, 387.5403
566.3414, 387.2260
566.8235, 386.9502
567.3056, 386.8110
567.7877, 386.7004
568.2698, 386.3531
568.7520, 385.7896
569.2341, 385.4109
569.7162, 385.6706
570.1983, 386.0127
570.6804, 384.9311
571.1625, 382.7088
571.6447, 381.2483
572.1268, 382.4843
572.6089, 384.6872
573.0910, 386.4778
573.5731, 387.8266
574.0552, 387.8548
574.5374, 384.4609
575.0195, 380.4077
575.5016, 378.2628
575.9837, 380.4600
576.4658, 382.1703
576.9479, 382.7805
577.4301, 382.6638
577.9122, 382.5171
578.3943, 382.2505
578.8764, 382.0950
579.3585, 382.0695
579.8406, 382.1913
580.3228, 382.6502
580.8049, 383.4787
581.2870, 384.4239
581.7691, 385.5636
582.2512, 386.7268
582.7333, 387.2216
583.2155, 386.9986
583.6975, 386.2711
584.1796, 384.6133
584.6617, 382.7334
585.1439, 381.8827
585.6260, 382.9271
586.1081, 384.1339
586.5902, 384.4127
587.0723, 384.1105
587.5544, 383.8917
588.0366, 384.1483
588.5187, 384.3049
589.0008, 383.8253
589.4829, 382.8007
589.9650, 382.9997
590.4471, 385.7072
590.9293, 387.9402
591.4114, 387.9293
591.8935, 385.1503
592.3756, 384.0054
592.8577, 384.8633
593.3398, 386.3545
593.8220, 387.4532
594.3041, 388.0765
594.7862, 387.2635
595.2683, 384.3613
595.7504, 381.2541
596.2325, 380.5258
596.7147, 381.5459
597.1968, 382.6684
597.6789, 383.4273
598.1610, 383.8209
598.6431, 383.5631
599.1252, 382.8422
599.6074, 382.5075
600.0895, 383.2381
600.5716, 384.1017
601.0537, 384.8282
601.5358, 385.5471
602.0179, 385.1722
602.5001, 382.4400
602.9822, 379.8593
603.4643, 379.5392
603.9464, 382.3048
604.4285, 384.0038
604.9106, 384.1725
605.3928, 383.6283
605.8749, 383.6317
606.3570, 384.1318
606.8391, 384.4151
607.3212, 384.0398
607.8033, 383.6175
608.2855, 384.4834
608.7676, 386.2184
609.2497, 387.3156
609.7318, 386.3662
610.2139, 384.8521
610.6960, 383.6896
611.1782, 382.9478
611.6603, 382.9146
612.1424, 384.6387
612.6245, 386.4130
613.1066, 387.1380
613.5887, 386.2467
614.0709, 385.4262
614.5530, 384.5475
615.0351, 383.8594
615.5172, 383.6307
615.9993, 383.9241
616.4814, 384.4630
616.9636, 385.3497
617.4457, 386.2498
617.9278, 386.4947
618.4099, 386.1182
618.8920, 385.5088
619.3741, 384.5805
619.8563, 383.6773
620.3384, 383.5060
620.8205, 383.9085
621.3026, 384.1088
621.7847, 383.2702
622.2668, 382.3341
622.7490, 382.0529
623.2311, 382.5404
623.7132, 383.1071
624.1953, 383.8976
624.6774, 384.4905
625.1595, 384.5543
625.6417, 383.5557
626.1238, 383.1706
626.6059, 383.8433
627.0880, 384.6638
627.5701, 384.1124
628.0522, 381.9541
628.5344, 380.8018
629.0165, 381.4195
629.4986, 383.0090
629.9807, 384.3204
630.4628, 385.3120
630.9449, 385.7495
631.4271, 384.9794
631.9092, 383.9444
632.3913, 383.5501
632.8734, 383.7813
633.3555, 384.5110
633.8376, 386.2794
634.3198, 388.0463
634.8019, 389.2772
635.2840, 389.9410
635.7661, 389.9146
636.2482, 388.7349
636.7303, 387.2540
637.2125, 385.9536
637.6946, 384.6300
638.1767, 384.2175
638.6588, 385.0747
639.1409, 386.2953
639.6230, 386.5832
640.1052, 385.9892
640.5873, 385.0835
641.0694, 383.7593
641.5515, 382.6480
642.0336, 383.0654
642.5157, 384.5462
642.9979, 385.7401
643.4800, 385.7253
643.9621, 385.3859
644.4442, 385.2990
644.9263, 385.4299
645.4084, 385.5105
645.8906, 385.8036
646.3727, 385.7225
646.8548, 384.7360
647.3369, 382.6266
647.8190, 381.3878
648.3011, 381.2231
648.7833, 381.6422
649.2654, 382.4534
649.7475, 383.7301
650.2296, 384.5782
650.7117, 384.9214
651.1938, 384.9557
651.6760, 384.6646
652.1581, 384.2329
652.6402, 384.3744
653.1223, 385.6752
653.6044, 386.7470
654.0865, 385.8477
654.5687, 383.8838
655.0508, 382.6005
655.5329, 383.1076
656.0150, 383.9228
656.4971, 384.6744
656.9792, 385.3187
657.4614, 385.6876
657.9435, 385.4964
658.4256, 385.4357
658.9077, 385.8390
659.3898, 386.6687
659.8719, 387.0236
660.3541, 386.8809
660.8362, 386.3688
661.3183, 385.1357
661.8004, 383.5539
662.2825, 383.2535
662.7646, 384.3861
663.2468, 385.6924
663.7289, 385.9521
664.2110, 385.7625
664.6931, 386.0041
665.1752, 387.2094
665.6573, 387.9610
666.1395, 387.3491
666.6216, 386.0609
667.1037, 384.9405
667.5858, 383.8027
668.0679, 383.2621
668.5500, 383.5030
669.0322, 384.3117
669.5143, 385.4706
669.9964, 387.2701
670.4785, 387.9328
670.9606, 386.4613
671.4427, 383.7950
671.9249, 382.5356
672.4070, 382.5641
672.8891, 383.0074
673.3712, 383.6139
673.8533, 384.2010
674.3354, 384.5326
674.8176, 384.6205
675.2997, 384.6265
675.7818, 384.5650
676.2639, 384.5001
676.7460, 384.4964
677.2281, 384.6112
677.7103, 384.5811
678.1924, 384.3152
678.6745, 383.9882
679.1566, 383.6682
679.6387, 383.2801
680.1208, 383.2549
680.6030, 383.6221
681.0851, 384.3322
681.5672, 386.0801
682.0493, 388.3042
682.5314, 388.2698
683.0135, 384.3737
683.4957, 380.2552
683.9778, 380.2319
684.4599, 382.7054
684.9420, 384.6602
685.4241, 384.4551
685.9063, 384.0918
686.3884, 384.5824
686.8705, 385.5538
687.3526, 385.6328
687.8347, 383.7151
688.3168, 382.4462
688.7990, 382.7515
689.2811, 384.3526
689.7632, 385.4928
690.2453, 386.1991
690.7274, 386.2743
691.2095, 385.0629
691.6917, 383.1665
692.1738, 382.5824
692.6559, 383.2799
693.1380, 383.9532
693.6201, 383.3863
694.1022, 382.4789
694.5844, 382.0524
695.0665, 382.2297
695.5486, 382.7897
696.0307, 383.9914
696.5128, 385.3241
696.9949, 386.4822
697.4771, 388.1164
697.9592, 388.0575
698.4413, 385.4996
698.9234, 382.2946
699.4055, 380.7547
699.8876, 380.9133
700.3698, 381.2657
700.8519, 381.6992
701.3340, 381.8642
701.8161, 380.8139
702.2982, 379.1004
702.7803, 378.1528
703.2625, 379.3457
703.7446, 380.4457
704.2267, 379.2300
704.7088, 376.8542
705.1909, 375.8721
705.6730, 378.4665
706.1552, 380.8461
706.6373, 382.1482
707.1194, 382.5035
707.6015, 382.4863
708.0836, 382.0197
708.5657, 381.3693
709.0479, 380.5201
709.5300, 379.5764
710.0121, 379.0187
710.4942, 378.8345
710.9763, 378.8217
711.4584, 379.0031
711.9406, 379.1890
712.4227, 379.0414
712.9048, 378.5626
713.3869, 378.2824
713.8690, 378.7165
714.3511, 379.2566
714.8333, 379.5661
715.3154, 379.6763
715.7975, 379.2506
716.2796, 377.8565
716.7617, 376.4699
717.2438, 375.9369
717.7260, 376.3640
718.2081, 376.6626
718.6902, 376.8262
719.1723, 376.6329
719.6544, 375.3850
720.1365, 373.5946
720.6187, 372.6030
721.1008, 372.8393
721.5829, 373.4815
722.0650, 374.2372
722.5471, 374.9036
723.0292, 375.2247
723.5114, 374.4147
723.9935, 374.1136
724.4756, 375.1652
724.9577, 376.6487
725.4398, 376.9112
725.9219, 375.4550
726.4041, 374.3068
726.8862, 374.0182
727.3683, 374.1668
727.8504, 373.5389
728.3325, 372.3028
728.8146, 371.6274
729.2968, 372.2792
729.7789, 373.5633
730.2610, 375.1634
730.7431, 376.8120
731.2252, 377.6226
731.7073, 375.8831
732.1895, 374.5117
732.6716, 375.4315
733.1537, 378.4014
733.6358, 379.3944
734.1179, 377.5352
734.6000, 375.1596
735.0822, 372.9156
735.5643, 370.9019
736.0464, 370.5255
736.5285, 371.8651
737.0106, 373.3119
737.4927, 374.0402
737.9749, 373.9995
738.4570, 372.5195
738.9391, 369.6654
739.4212, 367.7522
739.9033, 368.9632
740.3854, 371.0452
740.8676, 372.4019
741.3497, 372.6610
741.8318, 372.9355
742.3139, 373.4969
742.7960, 373.8831
743.2781, 373.7387
743.7603, 372.9859
744.2424, 372.2312
744.7245, 371.4751
745.2066, 370.7831
745.6887, 370.1718
746.1708, 369.6761
746.6530, 369.3711
747.1351, 369.2575
747.6172, 369.4121
748.0993, 370.6967
748.5814, 371.9238
749.0635, 371.6367
749.5457, 367.3741
750.0278, 365.0311
750.5099, 366.4608
750.9920, 369.4276
751.4741, 371.6184
751.9562, 373.1050
752.4384, 373.1735
752.9205, 371.2987
753.4026, 368.8537
753.8847, 367.9686
754.3668, 368.4141
754.8489, 369.3448
755.3311, 370.7998
755.8132, 372.0839
756.2953, 372.7103
756.7774, 372.7059
757.2595, 372.1062
757.7416, 369.9134
758.2238, 368.3179
758.7059, 368.1992
759.1880, 368.9062
759.6701, 369.0526
760.1522, 368.4070
760.6343, 367.9735
761.1165, 368.0065
761.5986, 368.4122
762.0807, 369.1671
762.5628, 370.1696
763.0449, 370.8037
763.5270, 370.3209
764.0092, 369.7526
764.4913, 370.4040
764.9734, 371.8154
765.4555, 372.5695
765.9376, 371.7708
766.4197, 370.6158
766.9019, 369.1119
767.3840, 367.5014
767.8661, 367.0955
768.3482, 368.3635
768.8303, 369.4571
769.3124, 369.6206
769.7946, 369.0522
770.2767, 368.1484
770.7588, 366.9991
771.2409, 366.4438
771.7230, 367.6686
772.2051, 369.2607
772.6873, 369.6781
773.1694, 369.0570
773.6515, 368.6656
774.1336, 369.1813
774.6157, 369.8058
775.0978, 370.2326
775.5800, 370.4652
776.0621, 370.6862
776.5442, 371.1016
777.0263, 370.9061
777.5084, 369.0804
777.9905, 366.2116
778.4727, 365.3831
778.9548, 366.4955
779.4369, 367.8138
779.9190, 368.4567
780.4011, 368.4616
780.8832, 367.3481
781.3654, 365.1463
781.8475, 364.1366
782.3296, 366.2679
782.8117, 368.6913
783.2938, 370.1021
783.7759, 370.4671
784.2581, 370.0448
784.7402, 368.5702
785.2223, 367.1659
785.7044, 366.7020
786.1865, 366.9642
786.6686, 366.9486
787.1508, 366.6413
787.6329, 366.7578
788.1150, 369.0814
788.5971, 371.3040
789.0792, 370.3623
789.5613, 365.3672
790.0435, 362.7451
790.5256, 366.8127
791.0077, 371.1895
791.4898, 372.3614
791.9719, 369.7212
792.4540, 368.0192
792.9362, 367.3735
793.4183, 367.2676
793.9004, 367.3660
794.3825, 367.6673
794.8646, 368.3325
795.3467, 369.3864
795.8289, 370.1251
796.3110, 370.1954
796.7931, 369.6306
797.2752, 368.1783
797.7573, 365.3847
798.2394, 363.6742
798.7216, 363.8052
799.2037, 364.5224
799.6858, 365.1688
800.1679, 365.7834
800.6500, 365.9438
801.1321, 365.5650
801.6143, 365.2920
802.0964, 365.8905
802.5785, 366.9573
803.0606, 367.7951
803.5427, 368.3263
804.0248, 368.5078
804.5070, 368.0057
804.9891, 367.3570
805.4712, 367.0236
805.9533, 367.2665
806.4354, 367.0270
806.9175, 365.7939
807.3997, 364.8134
807.8818, 365.2456
808.3639, 367.0436
808.8460, 368.2314
809.3281, 368.7251
809.8102, 368.8310
810.2924, 368.7230
810.7745, 368.4458
811.2566, 367.9113
811.7387, 367.0463
812.2208, 366.6563
812.7029, 367.4830
813.1851, 368.6076
813.6672, 369.4933
814.1493, 370.2532
814.6314, 370.0674
815.1135, 368.4824
815.5956, 367.0876
816.0778, 367.4805
816.5599, 369.2257
817.0420, 370.3624
817.5241, 370.7809
818.0062, 370.7811
818.4883, 370.1962
818.9705, 369.5562
819.4526, 369.5328
819.9347, 370.3433
820.4168, 370.6577
820.8989, 369.5845
821.3810, 368.5068
821.8632, 368.1537
822.3453, 368.6096
822.8274, 369.1060
823.3095, 369.7162
823.7916, 369.9128
824.2737, 368.9942
824.7559, 367.4489
825.2380, 366.0238
825.7201, 364.8077
826.2022, 364.3682
826.6843, 365.7946
827.1664, 367.5487
827.6486, 368.6045
828.1307, 368.7826
828.6128, 368.8495
829.0949, 368.7965
829.5770, 368.6436
830.0591, 368.2418
830.5413, 367.6646
831.0234, 367.9494
831.5055, 369.0800
831.9876, 370.0463
832.4697, 370.2174
832.9518, 369.7909
833.4340, 368.6688
833.9161, 366.9423
834.3982, 365.7495
834.8803, 365.8813
835.3624, 366.2598
835.8445, 366.3766
836.3267, 366.2541
836.8088, 366.5528
837.2909, 367.4388
837.7730, 367.9785
838.2551, 367.4405
838.7372, 366.2496
839.2194, 365.2002
839.7015, 364.3815
840.1836, 364.3043
840.6657, 366.2988
841.1478, 368.1982
841.6299, 368.2534
842.1121, 366.7024
842.5942, 366.2225
843.0763, 367.9279
843.5584, 368.9612
844.0405, 368.1528
844.5226, 366.0738
845.0048, 364.7490
845.4869, 364.1868
845.9690, 364.5811
846.4511, 367.1623
846.9332, 369.7878
847.4153, 369.7093
847.8975, 367.7313
848.3796, 366.1258
848.8617, 365.9904
849.3438, 365.9832
849.8259, 365.4628
850.3080, 364.8668
850.7902, 365.6450
851.2723, 368.1546
851.7544, 369.7789
852.2365, 369.5020
852.7186, 368.3791
853.2007, 368.2494
853.6829, 368.8155
854.1650, 369.2609
854.6471, 369.1879
855.1292, 369.0157
855.6113, 368.6418
856.0934, 368.3722
856.5756, 368.8583
857.0577, 370.9636
857.5398, 371.9905
858.0219, 371.3904
858.5040, 370.0121
858.9861, 369.1692
859.4683, 368.7717
859.9504, 368.2840
860.4325, 367.4544
860.9146, 366.9385
861.3967, 367.5764
861.8788, 368.7792
862.3610, 369.8585
862.8431, 370.8575
863.3252, 371.3123
863.8073, 370.9688
864.2894, 370.3381
864.7715, 369.9278
865.2537, 369.7592
865.7358, 369.5653
866.2179, 369.3792
866.7000, 368.8423
867.1821, 366.9134
867.6642, 364.6911
868.1464, 363.9146
868.6285, 365.0001
869.1106, 366.3960
869.5927, 367.9879
870.0748, 369.2916
870.5569, 369.9783
871.0391, 369.9783
871.5212, 369.7072
872.0033, 369.0626
872.4854, 368.5069
872.9675, 368.3283
873.4496, 368.4987
873.9318, 369.1882
874.4139, 370.3229
874.8960, 371.1280
875.3781, 370.9555
875.8602, 370.4727
876.3423, 369.8091
876.8245, 369.0403
877.3066, 369.4129
877.7887, 371.7538
878.2708, 373.3550
878.7529, 372.7989
879.2350, 370.8522
879.7172, 369.9558
880.1993, 370.0486
880.6814, 370.5912
881.1635, 371.9177
881.6456, 373.0302
882.1277, 372.9877
882.6099, 372.1110
883.0920, 371.3664
883.5741, 370.8156
884.0562, 370.5840
884.5383, 370.8247
885.0204, 371.2553
885.5026, 371.0305
885.9847, 370.2298
886.4668, 370.2386
886.9489, 371.7214
887.4310, 373.5322
887.9131, 374.5859
888.3953, 375.0643
888.8774, 375.2519
889.3595, 375.2953
889.8416, 374.9254
890.3237, 373.6009
890.8058, 372.2983
891.2880, 372.2709
891.7701, 373.6888
892.2522, 374.0792
892.7343, 373.1109
893.2164, 371.9020
893.6985, 371.6408
894.1807, 371.8742
894.6628, 371.9731
895.1449, 371.8378
895.6270, 371.5694
896.1091, 370.8628
896.5912, 370.3439
897.0734, 370.5171
897.5555, 371.4966
898.0376, 371.6002
898.5197, 370.6600
899.0018, 369.8929
899.4839, 370.3973
899.9661, 371.5671
900.4482, 372.4798
900.9303, 373.0712
901.4124, 373.0677
901.8945, 371.7498
902.3766, 370.3817
902.8588, 369.1761
903.3409, 368.3555
903.8230, 369.1990
904.3051, 372.3011
904.7872, 374.7067
905.2693, 375.3154
905.7515, 374.8287
906.2336, 374.3102
906.7157, 373.8849
907.1978, 373.9370
907.6799, 375.1163
908.1620, 376.1816
908.6442, 376.8281
909.1263, 376.9086
909.6084, 376.1104
910.0905, 373.7823
910.5726, 372.4138
911.0547, 372.3555
911.5369, 372.9686
912.0190, 373.6187
912.5011, 374.2442
912.9832, 374.6284
913.4653, 374.7033
913.9474, 374.7518
914.4296, 375.0743
914.9117, 375.3638
915.3938, 375.2411
915.8759, 374.4367
916.3580, 374.4198
916.8401, 375.5321
917.3223, 376.5705
917.8044, 376.5317
918.2865, 375.7397
918.7686, 375.4661
919.2507, 375.6626
919.7328, 375.7567
920.2150, 375.4807
920.6971, 374.9160
921.1792, 373.6522
921.6613, 371.9655
922.1434, 371.7961
922.6255, 374.0395
923.1077, 375.7174
923.5898, 375.7318
924.0719, 374.9193
924.5540, 375.2224
925.0361, 376.4421
925.5182, 377.8188
926.0004, 379.4486
926.4825, 380.5279
926.9646, 380.2183
927.4467, 379.1573
927.9288, 378.2831
928.4109, 377.5332
928.8931, 377.2852
929.3752, 377.7125
929.8573, 378.3285
930.3394, 378.7584
930.8215, 378.9289
931.3036, 378.4029
931.7858, 377.0786
932.2679, 375.9369
932.7500, 375.7188
933.2321, 375.9156
933.7142, 376.2636
934.1964, 376.8044
934.6785, 376.7952
935.1606, 375.9613
935.6427, 375.2664
936.1248, 375.2572
936.6069, 375.7657
937.0891, 376.2404
937.5712, 376.7074
938.0533, 377.2772
938.5354, 378.4568
939.0175, 379.2999
939.4996, 379.1644
939.9818, 378.2440
940.4639, 377.0465
940.9460, 375.1096
941.4281, 374.3282
941.9102, 375.4409
942.3923, 377.0715
942.8745, 376.5866
943.3566, 374.7813
943.8387, 374.0551
944.3208, 375.2148
944.8029, 376.6738
945.2850, 378.0204
945.7672, 378.9492
946.2493, 379.0528
946.7314, 378.0457
947.2135, 377.5026
947.6956, 377.5020
948.1777, 377.7122
948.6599, 377.9966
949.1420, 378.2717
949.6241, 378.4707
950.1062, 378.5319
950.5883, 378.0345
951.0704, 375.7407
951.5526, 373.8101
952.0347, 373.6592
952.5168, 374.8245
952.9989, 375.5446
953.4810, 375.6059
953.9631, 376.3441
954.4453, 378.4786
954.9274, 380.8690
955.4095, 381.5897
955.8916, 381.1212
956.3737, 380.4507
956.8558, 379.5536
957.3380, 379.1399
957.8201, 380.2872
958.3022, 381.4608
958.7843, 381.0722
959.2664, 378.7104
959.7485, 377.0318
960.2307, 376.1119
960.7128, 375.9157
961.1949, 377.1983
961.6770, 378.7896
962.1591, 378.4747
962.6412, 376.2909
963.1234, 375.3534
963.6055, 378.2305
964.0876, 380.9146
964.5697, 382.0911
965.0518, 381.9348
965.5339, 380.8537
966.0161, 378.8431
966.4982, 377.7474
966.9803, 378.6215
967.4624, 380.1354
967.9445, 381.4300
968.4266, 382.1582
968.9088, 381.7247
969.3909, 377.6818
969.8730, 375.9126
970.3551, 377.9321
970.8372, 380.7881
971.3193, 381.4071
971.8015, 380.0014
972.2836, 378.2167
972.7657, 376.1535
973.2478, 375.0430
973.7299, 376.8887
974.2120, 379.3043
974.6942, 380.2687
975.1763, 379.5981
975.6584, 378.7943
976.1405, 377.4692
976.6226, 377.0448
977.1047, 378.3297
977.5869, 380.6205
978.0690, 382.0562
978.5511, 382.7689
979.0332, 383.3195
979.5153, 384.0928
979.9974, 384.5256
980.4796, 384.1430
980.9617, 383.3034
981.4438, 382.5374
981.9259, 381.9322
982.4080, 381.1027
982.8901, 379.9510
983.3723, 378.8784
983.8544, 378.0153
984.3365, 377.6192
984.8186, 378.4839
985.3007, 380.6323
985.7828, 382.4694
986.2650, 383.6597
986.7471, 383.9678
987.2292, 383.0897
987.7113, 381.2890
988.1934, 379.7302
988.6755, 378.3783
989.1577, 378.1194
989.6398, 379.7660
990.1219, 381.8627
990.6040, 382.8495
991.0861, 383.0005
991.5682, 382.7660
992.0504, 381.5537
992.5325, 381.1261
993.0146, 382.0702
993.4967, 383.1978
993.9788, 383.5189
994.4609, 383.0540
994.9431, 381.5347
995.4252, 378.9572
995.9073, 377.1598
996.3894, 377.9653
996.8715, 379.6455
997.3536, 381.3041
997.8358, 382.7554
998.3179, 383.1294
998.8000, 381.8399
999.2821, 381.0328
999.7642, 381.4666
1000.246, 382.5374
1000.728, 383.3452
1001.211, 383.7726
1001.693, 383.3498
1002.175, 381.3042
1002.657, 379.7927
1003.139, 379.9354
1003.621, 380.9492
1004.103, 382.2339
1004.585, 383.9569
1005.068, 384.8835
1005.550, 384.9594
1006.032, 384.8026
1006.514, 384.7246
1006.996, 384.7810
1007.478, 385.1900
1007.960, 385.8493
1008.442, 386.2063
1008.924, 385.9756
1009.407, 385.5474
1009.889, 384.8450
1010.371, 384.1232
1010.853, 384.0750
1011.335, 384.5647
1011.817, 384.6499
1012.299, 384.0399
1012.781, 383.3529
1013.263, 383.0470
1013.746, 382.9038
1014.228, 382.7230
1014.710, 382.4916
1015.192, 382.1745
1015.674, 381.6209
1016.156, 381.5113
1016.638, 382.4252
1017.120, 383.9853
1017.603, 385.8823
1018.085, 387.7892
1018.567, 388.4996
1019.049, 385.7836
1019.531, 383.8443
1020.013, 384.5596
1020.495, 386.2783
1020.977, 386.4772
1021.459, 385.1013
1021.942, 384.2675
1022.424, 384.2261
1022.906, 384.8551
1023.388, 386.8786
1023.870, 388.9666
1024.352, 389.6306
1024.834, 388.6130
1025.316, 387.7764
1025.799, 387.2046
1026.281, 386.9493
1026.763, 387.0311
1027.245, 387.4582
1027.727, 388.7277
1028.209, 390.4160
1028.691, 391.0386
1029.173, 389.2665
1029.656, 387.5087
1030.138, 387.0042
1030.620, 385.9676
1031.102, 386.5915
1031.584, 385.5476
1032.066, 385.4571
1032.548, 386.4210
1033.030, 387.6087
1033.512, 388.6823
1033.995, 389.3488
1034.477, 389.0183
1034.959, 387.8392
1035.441, 386.8232
1035.923, 385.5789
1036.405, 385.5941
1036.887, 387.7926
1037.369, 390.6575
1037.851, 391.0980
1038.334, 389.6147
1038.816, 387.9527
1039.298, 386.2990
1039.780, 385.4642
1040.262, 386.5938
1040.744, 388.2576
1041.226, 389.5553
1041.708, 390.5444
1042.191, 389.6837
1042.673, 386.7027
1043.155, 384.1371
1043.637, 383.4355
1044.119, 383.8406
1044.601, 384.4933
1045.083, 385.4042
1045.565, 386.5695
1046.047, 388.6367
1046.530, 390.0205
1047.012, 390.5700
1047.494, 390.4307
1047.976, 389.3403
1048.458, 387.6223
1048.940, 387.0179
1049.422, 387.6297
1049.904, 388.4644
1050.386, 389.2624
1050.869, 389.7570
1051.351, 389.4398
1051.833, 388.6411
1052.315, 388.7619
1052.797, 389.9173
1053.279, 391.1870
1053.761, 392.4706
1054.243, 393.4196
1054.726, 393.2113
1055.208, 392.5601
1055.690, 392.5965
1056.172, 394.0346
1056.654, 394.4475
1057.136, 392.9462
1057.618, 391.7307
1058.100, 392.5843
1058.583, 394.7027
1059.065, 394.4916
1059.547, 392.4843
1060.029, 391.1392
1060.511, 392.6485
1060.993, 394.0456
1061.475, 394.0829
1061.957, 393.2785
1062.439, 392.0240
1062.922, 390.0993
1063.404, 390.0573
1063.886, 392.2856
1064.368, 394.5883
1064.850, 395.1279
1065.332, 394.6994
1065.814, 393.6400
1066.296, 392.1264
1066.778, 391.8646
1067.261, 393.9212
1067.743, 394.9757
1068.225, 393.8222
1068.707, 391.8288
1069.189, 391.6091
1069.671, 392.5422
1070.153, 393.2486
1070.635, 393.4301
1071.118, 393.1947
1071.600, 391.9630
1072.082, 390.9395
1072.564, 390.9799
1073.046, 391.9591
1073.528, 392.1804
1074.010, 391.6964
1074.492, 391.1942
1074.974, 390.6203
1075.457, 390.6497
1075.939, 392.6994
1076.421, 395.3774
1076.903, 396.1818
1077.385, 394.1751
1077.867, 392.9596
1078.349, 392.8309
1078.831, 392.8947
1079.313, 391.9603
1079.796, 390.8809
1080.278, 391.2746
1080.760, 392.9446
1081.242, 394.0396
1081.724, 393.4963
1082.206, 392.9294
1082.688, 392.6480
1083.170, 392.5189
1083.652, 392.2891
1084.135, 392.0023
1084.617, 391.7988
1085.099, 391.6929
1085.581, 391.7907
1086.063, 391.9929
1086.545, 392.6140
1087.027, 394.2930
1087.509, 396.7527
1087.992, 396.7290
1088.474, 394.1865
1088.956, 392.3001
1089.438, 392.5011
1089.920, 393.6335
1090.402, 394.9316
1090.884, 396.2866
1091.366, 397.6305
1091.849, 399.4399
1092.331, 399.7394
1092.813, 398.1295
1093.295, 396.3612
1093.777, 395.5959
1094.259, 395.6042
1094.741, 396.2064
1095.223, 397.2185
1095.705, 398.0365
1096.188, 398.3161
1096.670, 398.5322
1097.152, 398.8868
1097.634, 399.0464
1098.116, 398.2821
1098.598, 396.8928
1099.080, 396.4248
1099.562, 397.0041
1100.044, 397.6477
1100.527, 397.7630
1101.009, 397.7722
1101.491, 397.7918
1101.973, 397.9189
1102.455, 398.7900
1102.937, 400.4361
1103.419, 400.5397
1103.901, 398.0930
1104.384, 395.7428
1104.866, 396.7969
1105.348, 398.7758
1105.830, 398.8926
1106.312, 396.5124
1106.794, 395.8433
1107.276, 397.3190
1107.758, 398.8001
1108.240, 399.4149
1108.723, 399.3524
1109.205, 398.3861
1109.687, 397.1069
1110.169, 396.6953
1110.651, 398.4006
1111.133, 399.2147
1111.615, 398.5942
1112.097, 397.6872
1112.579, 397.2246
1113.062, 397.2068
1113.544, 397.7210
1114.026, 398.7120
1114.508, 399.9010
1114.990, 402.1861
1115.472, 403.3040
1115.954, 401.6827
1116.436, 399.2784
1116.919, 398.8066
1117.401, 400.0878
1117.883, 400.3703
1118.365, 399.4165
1118.847, 398.8275
1119.329, 400.1081
1119.811, 401.8079
1120.293, 403.1700
1120.776, 404.1432
1121.258, 404.5366
1121.740, 404.2599
1122.222, 404.3912
1122.704, 405.3277
1123.186, 405.9368
1123.668, 404.5787
1124.150, 402.5802
1124.632, 401.1227
1125.115, 400.3645
1125.597, 401.0149
1126.079, 403.6113
1126.561, 405.8089
1127.043, 406.6776
1127.525, 406.7658
1128.007, 407.0734
1128.489, 407.2408
1128.971, 406.4900
1129.454, 403.9228
1129.936, 402.4522
1130.418, 402.4930
1130.900, 403.3467
1131.382, 405.3299
1131.864, 407.5145
1132.346, 406.2871
1132.828, 402.7154
1133.311, 400.3236
1133.793, 401.6175
1134.275, 402.9734
1134.757, 403.4844
1135.239, 403.7903
1135.721, 404.7547
1136.203, 404.5484
1136.685, 405.9696
1137.167, 404.2681
1137.650, 402.7088
1138.132, 402.2549
1138.614, 402.2176
1139.096, 402.2977
1139.578, 402.5773
1140.060, 403.2057
1140.542, 404.1939
1141.024, 405.8557
1141.506, 408.3153
1141.989, 409.8363
1142.471, 408.1209
1142.953, 405.7638
1143.435, 404.7178
1143.917, 404.8251
1144.399, 404.7575
1144.881, 404.4795
1145.363, 404.2658
1145.846, 404.1677
1146.328, 404.1835
1146.810, 404.1061
1147.292, 404.2686
1147.774, 405.3716
1148.256, 407.5916
1148.738, 408.1622
1149.220, 406.4757
1149.703, 405.2060
1150.185, 405.3717
1150.667, 406.2329
1151.149, 407.0277
1151.631, 407.6419
1152.113, 407.9442
1152.595, 407.9889
1153.077, 407.1461
1153.559, 404.5693
1154.042, 403.1679
1154.524, 405.3323
1155.006, 408.9663
1155.488, 408.9333
1155.970, 406.6061
1156.452, 405.3312
1156.934, 406.9675
1157.416, 408.3823
1157.898, 409.5252
1158.381, 409.8356
1158.863, 407.9927
1159.345, 405.0007
1159.827, 405.5641
1160.309, 408.8296
1160.791, 411.3423
1161.273, 410.8946
1161.755, 410.2581
1162.238, 409.8017
1162.720, 409.8032
1163.202, 411.0601
1163.684, 413.1876
1164.166, 413.3654
1164.648, 411.6920
1165.130, 410.2980
1165.612, 410.3375
1166.094, 411.0223
1166.577, 412.6038
1167.059, 414.2248
1167.541, 414.2686
1168.023, 412.9018
1168.505, 412.4196
1168.987, 413.0687
1169.469, 413.2297
1169.951, 410.3690
1170.433, 408.0795
1170.916, 409.4394
1171.398, 412.7813
1171.880, 413.8893
1172.362, 412.8012
1172.844, 411.9496
1173.326, 411.7857
1173.808, 411.9124
1174.290, 412.3545
1174.773, 412.6563
1175.255, 411.9592
1175.737, 410.6813
1176.219, 411.6822
1176.701, 415.1589
1177.183, 416.5943
1177.665, 414.1849
1178.147, 411.5156
1178.630, 412.4334
1179.112, 414.4865
1179.594, 415.4097
1180.076, 415.0753
1180.558, 413.7790
1181.040, 411.2948
1181.522, 410.1195
1182.004, 411.7369
1182.486, 413.8973
1182.969, 414.2726
1183.451, 413.7270
1183.933, 413.0850
1184.415, 412.2289
1184.897, 413.0002
1185.379, 415.7660
1185.861, 417.7900
1186.343, 417.1862
1186.825, 415.7749
1187.308, 415.7998
1187.790, 416.4450
1188.272, 416.3806
1188.754, 415.0653
1189.236, 414.1244
1189.718, 413.5823
1190.200, 413.3383
1190.682, 413.2061
1191.165, 413.4458
1191.647, 414.5262
1192.129, 416.2017
1192.611, 418.0899
1193.093, 421.0835
1193.575, 421.8575
1194.057, 419.9581
1194.539, 417.5113
1195.021, 415.9572
1195.504, 414.9914
1195.986, 414.1707
1196.468, 413.5820
1196.950, 413.5547
1197.432, 414.4020
1197.914, 415.2063
1198.396, 415.9402
1198.878, 416.5136
1199.360, 416.5848
1199.843, 416.5992
1200.325, 417.5887
1200.807, 419.1767
1201.289, 419.6313
1201.771, 418.0082
1202.253, 416.6466
1202.735, 415.6185
1203.217, 415.5445
1203.700, 418.0552
1204.182, 421.3969
1204.664, 422.9723
1205.146, 422.8360
1205.628, 422.6606
1206.110, 422.9695
1206.592, 422.4120
1207.074, 420.2412
1207.557, 418.6640
1208.039, 421.6187
1208.521, 426.2649
1209.003, 428.4788
1209.485, 428.0078
1209.967, 427.1451
1210.449, 425.9717
1210.931, 425.1242
1211.413, 424.8246
1211.896, 424.6420
1212.378, 423.6686
1212.860, 422.6017
1213.342, 422.8095
1213.824, 424.4376
1214.306, 424.8846
1214.788, 423.5219
1215.270, 422.0602
1215.752, 420.8076
1216.235, 420.0247
1216.717, 420.5595
1217.199, 421.5645
1217.681, 421.5328
1218.163, 422.1701
1218.645, 423.0904
1219.127, 422.5836
1219.609, 424.1716
1220.092, 423.8086
1220.574, 422.5163
1221.056, 421.3413
1221.538, 420.4576
1222.020, 420.2055
1222.502, 420.7379
1222.984, 421.1303
1223.466, 421.2982
1223.948, 421.3516
1224.431, 421.0348
1224.913, 421.2171
1225.395, 424.5548
1225.877, 428.5187
1226.359, 429.2155
1226.841, 424.9894
1227.323, 422.8203
1227.805, 423.1409
1228.287, 424.0227
1228.770, 424.9239
1229.252, 425.5068
1229.734, 424.9455
1230.216, 423.9510
1230.698, 423.5073
1231.180, 423.8673
1231.662, 424.2400
1232.144, 424.6072
1232.627, 425.1524
1233.109, 426.1836
1233.591, 427.0645
1234.073, 426.5987
1234.555, 425.7469
1235.037, 425.9622
1235.519, 427.6417
1236.001, 428.6847
1236.484, 429.0605
1236.966, 429.0345
1237.448, 428.4962
1237.930, 427.9856
1238.412, 428.3576
1238.894, 428.9243
1239.376, 428.4948
1239.858, 426.6895
1240.340, 426.7474
1240.823, 428.7555
1241.305, 430.4467
1241.787, 430.5490
1242.269, 429.9110
1242.751, 428.0256
1243.233, 426.5664
1243.715, 428.0868
1244.197, 433.1218
1244.679, 435.0164
1245.162, 433.8463
1245.644, 432.5372
1246.126, 432.7155
1246.608, 433.2245
1247.090, 433.4748
1247.572, 433.5173
1248.054, 433.3463
1248.536, 432.9433
1249.019, 433.2749
1249.501, 434.2569
1249.983, 434.9048
1250.465, 434.1019
1250.947, 433.5450
1251.429, 434.6913
1251.911, 436.0234
1252.393, 435.7513
1252.875, 434.0405
1253.358, 434.6700
1253.840, 437.2930
1254.322, 439.6415
1254.804, 440.8744
1255.286, 441.1318
1255.768, 439.8209
1256.250, 438.2275
1256.732, 437.5411
1257.214, 437.5529
1257.697, 436.7366
1258.179, 435.3496
1258.661, 434.5875
1259.143, 435.3814
1259.625, 436.3457
1260.107, 437.3080
1260.589, 438.2051
1261.071, 439.0761
1261.554, 439.8192
1262.036, 440.0215
1262.518, 439.7910
1263.000, 439.5137
1263.482, 438.8646
1263.964, 439.0411
1264.446, 440.5894
1264.928, 441.8703
1265.411, 441.1299
1265.893, 439.3775
1266.375, 438.4435
1266.857, 438.1474
1267.339, 437.9373
1267.821, 437.1248
1268.303, 437.7110
1268.785, 440.1870
1269.267, 442.4074
1269.750, 441.9489
1270.232, 440.8017
1270.714, 442.2748
1271.196, 444.9727
1271.678, 445.3422
1272.160, 441.9804
1272.642, 440.0067
1273.124, 439.5975
1273.606, 440.1064
1274.089, 441.9722
1274.571, 443.6610
1275.053, 443.3364
1275.535, 442.0336
1276.017, 441.6689
1276.499, 442.4702
1276.981, 443.0206
1277.463, 443.2918
1277.946, 443.1685
1278.428, 441.6631
1278.910, 440.7701
1279.392, 442.5577
1279.874, 445.1230
1280.356, 446.3401
1280.838, 446.2163
1281.320, 445.2250
1281.802, 443.5210
1282.285, 442.2598
1282.767, 442.3423
1283.249, 442.6043
1283.731, 442.2470
1284.213, 442.3001
1284.695, 444.0836
1285.177, 447.0947
1285.659, 449.3086
1286.141, 450.6004
1286.624, 450.5103
1287.106, 447.0439
1287.588, 444.8831
1288.070, 444.7599
1288.552, 445.6577
1289.034, 447.3787
1289.516, 449.2369
1289.998, 449.2060
1290.481, 448.0548
1290.963, 447.7850
1291.445, 450.4794
1291.927, 451.0691
1292.409, 448.9766
1292.891, 446.9851
1293.373, 447.2108
1293.855, 448.5761
1294.338, 450.4284
1294.820, 452.1958
1295.302, 452.5874
1295.784, 451.0899
1296.266, 450.1396
1296.748, 449.7162
1297.230, 450.2202
1297.712, 453.0218
1298.194, 455.5227
1298.677, 455.4107
1299.159, 453.8932
1299.641, 452.2843
1300.123, 450.5380
1300.605, 450.5344
1301.087, 452.0658
1301.569, 453.3160
1302.051, 453.5135
1302.533, 452.8907
1303.016, 451.4274
##END=



