##NAMES=Goldichite
##RRUFFID=R120120
##IDEAL CHEMISTRY=KFe^3+^(S^6+^O_4_)_2_&#183;4H_2_O
##LOCALITY=Dexter #7 mine, San Rafael Swell, Emery County, Utah, USA
##OWNER=RRUFF
##SOURCE=Marcus Origlieri
##DESCRIPTION=Aggregates of pale yellowish green bladed crystals on pink coquimbite
##STATUS=The identification of this mineral has been confirmed by single-crystal X-ray diffraction.
##URL=rruff.info/R120120
8.936163e+001, 0.000000e+000
8.984375e+001, 3.237124e+001
9.032587e+001, 3.269152e+001
9.080798e+001, 3.280301e+001
9.129010e+001, 3.279246e+001
9.177222e+001, 3.246638e+001
9.225433e+001, 3.136206e+001
9.273645e+001, 2.954489e+001
9.321857e+001, 2.776512e+001
9.370068e+001, 2.668572e+001
9.418280e+001, 2.616928e+001
9.466492e+001, 2.580120e+001
9.514703e+001, 2.551087e+001
9.562915e+001, 2.526661e+001
9.611127e+001, 2.494692e+001
9.659338e+001, 2.453646e+001
9.707550e+001, 2.413770e+001
9.755762e+001, 2.387378e+001
9.803973e+001, 2.374561e+001
9.852185e+001, 2.367109e+001
9.900397e+001, 2.363282e+001
9.948608e+001, 2.363181e+001
9.996820e+001, 2.362237e+001
1.004503e+002, 2.362045e+001
1.009324e+002, 2.359097e+001
1.014146e+002, 2.345662e+001
1.018967e+002, 2.319897e+001
1.023788e+002, 2.288587e+001
1.028609e+002, 2.252439e+001
1.033430e+002, 2.207201e+001
1.038251e+002, 2.172770e+001
1.043073e+002, 2.155828e+001
1.047894e+002, 2.151715e+001
1.052715e+002, 2.135090e+001
1.057536e+002, 2.096266e+001
1.062357e+002, 2.055445e+001
1.067178e+002, 2.025808e+001
1.072000e+002, 2.009289e+001
1.076821e+002, 2.002050e+001
1.081642e+002, 2.013665e+001
1.086463e+002, 2.047757e+001
1.091284e+002, 2.050083e+001
1.096105e+002, 1.985451e+001
1.100927e+002, 1.904208e+001
1.105748e+002, 1.853846e+001
1.110569e+002, 1.869191e+001
1.115390e+002, 1.883379e+001
1.120211e+002, 1.878666e+001
1.125032e+002, 1.846629e+001
1.129854e+002, 1.824301e+001
1.134675e+002, 1.828882e+001
1.139496e+002, 1.843882e+001
1.144317e+002, 1.845442e+001
1.149138e+002, 1.812992e+001
1.153959e+002, 1.777006e+001
1.158781e+002, 1.752194e+001
1.163602e+002, 1.746005e+001
1.168423e+002, 1.739396e+001
1.173244e+002, 1.727265e+001
1.178065e+002, 1.709814e+001
1.182886e+002, 1.687554e+001
1.187708e+002, 1.648535e+001
1.192529e+002, 1.610875e+001
1.197350e+002, 1.590938e+001
1.202171e+002, 1.609961e+001
1.206992e+002, 1.627070e+001
1.211813e+002, 1.608314e+001
1.216635e+002, 1.560218e+001
1.221456e+002, 1.519176e+001
1.226277e+002, 1.514437e+001
1.231098e+002, 1.528791e+001
1.235919e+002, 1.539581e+001
1.240740e+002, 1.538247e+001
1.245562e+002, 1.530085e+001
1.250383e+002, 1.522411e+001
1.255204e+002, 1.515181e+001
1.260025e+002, 1.500765e+001
1.264846e+002, 1.460143e+001
1.269667e+002, 1.405596e+001
1.274489e+002, 1.367832e+001
1.279310e+002, 1.370568e+001
1.284131e+002, 1.397361e+001
1.288952e+002, 1.418596e+001
1.293773e+002, 1.434035e+001
1.298594e+002, 1.441381e+001
1.303416e+002, 1.431923e+001
1.308237e+002, 1.408341e+001
1.313058e+002, 1.389534e+001
1.317879e+002, 1.391449e+001
1.322700e+002, 1.408731e+001
1.327521e+002, 1.415070e+001
1.332343e+002, 1.407496e+001
1.337164e+002, 1.389924e+001
1.341985e+002, 1.366497e+001
1.346806e+002, 1.336670e+001
1.351627e+002, 1.308105e+001
1.356448e+002, 1.288135e+001
1.361270e+002, 1.276864e+001
1.366091e+002, 1.259367e+001
1.370912e+002, 1.229391e+001
1.375733e+002, 1.194193e+001
1.380554e+002, 1.178992e+001
1.385375e+002, 1.188866e+001
1.390197e+002, 1.203926e+001
1.395018e+002, 1.208606e+001
1.399839e+002, 1.200508e+001
1.404660e+002, 1.192030e+001
1.409481e+002, 1.183887e+001
1.414302e+002, 1.176523e+001
1.419124e+002, 1.176357e+001
1.423945e+002, 1.187637e+001
1.428766e+002, 1.200238e+001
1.433587e+002, 1.203276e+001
1.438408e+002, 1.191253e+001
1.443229e+002, 1.180837e+001
1.448051e+002, 1.175754e+001
1.452872e+002, 1.176594e+001
1.457693e+002, 1.178607e+001
1.462514e+002, 1.186104e+001
1.467335e+002, 1.192153e+001
1.472156e+002, 1.187112e+001
1.476978e+002, 1.158865e+001
1.481799e+002, 1.134627e+001
1.486620e+002, 1.123172e+001
1.491441e+002, 1.133278e+001
1.496262e+002, 1.132338e+001
1.501083e+002, 1.108004e+001
1.505905e+002, 1.074635e+001
1.510726e+002, 1.057435e+001
1.515547e+002, 1.080424e+001
1.520368e+002, 1.098984e+001
1.525189e+002, 1.098172e+001
1.530010e+002, 1.060949e+001
1.534832e+002, 1.033466e+001
1.539653e+002, 1.017894e+001
1.544474e+002, 1.013977e+001
1.549295e+002, 1.021095e+001
1.554116e+002, 1.058351e+001
1.558937e+002, 1.092772e+001
1.563759e+002, 1.108041e+001
1.568580e+002, 1.080269e+001
1.573401e+002, 1.062468e+001
1.578222e+002, 1.066605e+001
1.583043e+002, 1.089203e+001
1.587864e+002, 1.117434e+001
1.592686e+002, 1.152717e+001
1.597507e+002, 1.189700e+001
1.602328e+002, 1.224883e+001
1.607149e+002, 1.249095e+001
1.611970e+002, 1.279805e+001
1.616791e+002, 1.323038e+001
1.621613e+002, 1.377527e+001
1.626434e+002, 1.439236e+001
1.631255e+002, 1.510333e+001
1.636076e+002, 1.585816e+001
1.640897e+002, 1.661227e+001
1.645718e+002, 1.717355e+001
1.650540e+002, 1.787767e+001
1.655361e+002, 1.899097e+001
1.660182e+002, 2.050165e+001
1.665003e+002, 2.196304e+001
1.669824e+002, 2.302590e+001
1.674645e+002, 2.394719e+001
1.679467e+002, 2.502890e+001
1.684288e+002, 2.638387e+001
1.689109e+002, 2.795153e+001
1.693930e+002, 2.974705e+001
1.698751e+002, 3.178631e+001
1.703572e+002, 3.385493e+001
1.708394e+002, 3.592877e+001
1.713215e+002, 3.794841e+001
1.718036e+002, 3.978305e+001
1.722857e+002, 4.132973e+001
1.727678e+002, 4.270846e+001
1.732499e+002, 4.397992e+001
1.737321e+002, 4.513606e+001
1.742142e+002, 4.634997e+001
1.746963e+002, 4.790588e+001
1.751784e+002, 4.966771e+001
1.756605e+002, 5.131994e+001
1.761426e+002, 5.255885e+001
1.766248e+002, 5.362668e+001
1.771069e+002, 5.483275e+001
1.775890e+002, 5.621346e+001
1.780711e+002, 5.771984e+001
1.785532e+002, 5.927916e+001
1.790353e+002, 6.092438e+001
1.795175e+002, 6.271121e+001
1.799996e+002, 6.474643e+001
1.804817e+002, 6.694199e+001
1.809638e+002, 6.915157e+001
1.814459e+002, 7.134050e+001
1.819280e+002, 7.360307e+001
1.824102e+002, 7.612199e+001
1.828923e+002, 7.884231e+001
1.833744e+002, 8.172046e+001
1.838565e+002, 8.463465e+001
1.843386e+002, 8.766519e+001
1.848207e+002, 9.099123e+001
1.853029e+002, 9.475352e+001
1.857850e+002, 9.866378e+001
1.862671e+002, 1.023381e+002
1.867492e+002, 1.057678e+002
1.872313e+002, 1.091172e+002
1.877134e+002, 1.123648e+002
1.881956e+002, 1.156013e+002
1.886777e+002, 1.191079e+002
1.891598e+002, 1.229976e+002
1.896419e+002, 1.271594e+002
1.901240e+002, 1.314185e+002
1.906061e+002, 1.358344e+002
1.910883e+002, 1.402544e+002
1.915704e+002, 1.446799e+002
1.920525e+002, 1.491264e+002
1.925346e+002, 1.533383e+002
1.930167e+002, 1.572174e+002
1.934988e+002, 1.607621e+002
1.939810e+002, 1.636768e+002
1.944631e+002, 1.658128e+002
1.949452e+002, 1.677730e+002
1.954273e+002, 1.694627e+002
1.959094e+002, 1.708872e+002
1.963915e+002, 1.718615e+002
1.968737e+002, 1.722785e+002
1.973558e+002, 1.722702e+002
1.978379e+002, 1.723613e+002
1.983200e+002, 1.726370e+002
1.988021e+002, 1.726609e+002
1.992842e+002, 1.720341e+002
1.997664e+002, 1.707542e+002
2.002485e+002, 1.691476e+002
2.007306e+002, 1.670950e+002
2.012127e+002, 1.647614e+002
2.016948e+002, 1.631373e+002
2.021769e+002, 1.624001e+002
2.026591e+002, 1.617980e+002
2.031412e+002, 1.606465e+002
2.036233e+002, 1.589073e+002
2.041054e+002, 1.569161e+002
2.045875e+002, 1.545811e+002
2.050696e+002, 1.519916e+002
2.055518e+002, 1.500563e+002
2.060339e+002, 1.488879e+002
2.065160e+002, 1.480821e+002
2.069981e+002, 1.472794e+002
2.074802e+002, 1.465118e+002
2.079623e+002, 1.456237e+002
2.084445e+002, 1.445526e+002
2.089266e+002, 1.433005e+002
2.094087e+002, 1.420691e+002
2.098908e+002, 1.408503e+002
2.103729e+002, 1.396449e+002
2.108550e+002, 1.384521e+002
2.113372e+002, 1.372861e+002
2.118193e+002, 1.361101e+002
2.123014e+002, 1.348550e+002
2.127835e+002, 1.335286e+002
2.132656e+002, 1.325417e+002
2.137477e+002, 1.320600e+002
2.142299e+002, 1.316767e+002
2.147120e+002, 1.309035e+002
2.151941e+002, 1.296189e+002
2.156762e+002, 1.282673e+002
2.161583e+002, 1.269339e+002
2.166404e+002, 1.256300e+002
2.171226e+002, 1.243447e+002
2.176047e+002, 1.231409e+002
2.180868e+002, 1.218801e+002
2.185689e+002, 1.203145e+002
2.190510e+002, 1.182153e+002
2.195331e+002, 1.163420e+002
2.200153e+002, 1.149423e+002
2.204974e+002, 1.140782e+002
2.209795e+002, 1.129181e+002
2.214616e+002, 1.112811e+002
2.219437e+002, 1.095324e+002
2.224258e+002, 1.080872e+002
2.229080e+002, 1.069994e+002
2.233901e+002, 1.061240e+002
2.238722e+002, 1.054898e+002
2.243543e+002, 1.051263e+002
2.248364e+002, 1.046760e+002
2.253185e+002, 1.041169e+002
2.258007e+002, 1.034950e+002
2.262828e+002, 1.028401e+002
2.267649e+002, 1.020893e+002
2.272470e+002, 1.014279e+002
2.277291e+002, 1.009016e+002
2.282112e+002, 1.004952e+002
2.286934e+002, 1.002875e+002
2.291755e+002, 1.004076e+002
2.296576e+002, 1.006112e+002
2.301397e+002, 1.005241e+002
2.306218e+002, 9.981078e+001
2.311039e+002, 9.943940e+001
2.315861e+002, 9.981960e+001
2.320682e+002, 1.011571e+002
2.325503e+002, 1.018057e+002
2.330324e+002, 1.013934e+002
2.335145e+002, 1.006151e+002
2.339966e+002, 1.003372e+002
2.344788e+002, 1.007267e+002
2.349609e+002, 1.013305e+002
2.354430e+002, 1.020838e+002
2.359251e+002, 1.030219e+002
2.364072e+002, 1.038699e+002
2.368893e+002, 1.046229e+002
2.373715e+002, 1.052899e+002
2.378536e+002, 1.058774e+002
2.383357e+002, 1.063771e+002
2.388178e+002, 1.068139e+002
2.392999e+002, 1.071519e+002
2.397820e+002, 1.073489e+002
2.402642e+002, 1.077295e+002
2.407463e+002, 1.083196e+002
2.412284e+002, 1.090663e+002
2.417105e+002, 1.099500e+002
2.421926e+002, 1.111712e+002
2.426747e+002, 1.121503e+002
2.431569e+002, 1.126564e+002
2.436390e+002, 1.126059e+002
2.441211e+002, 1.127992e+002
2.446032e+002, 1.133926e+002
2.450853e+002, 1.140914e+002
2.455674e+002, 1.145603e+002
2.460496e+002, 1.147576e+002
2.465317e+002, 1.148004e+002
2.470138e+002, 1.146614e+002
2.474959e+002, 1.143120e+002
2.479780e+002, 1.141363e+002
2.484601e+002, 1.142178e+002
2.489423e+002, 1.143925e+002
2.494244e+002, 1.144715e+002
2.499065e+002, 1.143788e+002
2.503886e+002, 1.143530e+002
2.508707e+002, 1.144995e+002
2.513528e+002, 1.148346e+002
2.518350e+002, 1.149142e+002
2.523171e+002, 1.144834e+002
2.527992e+002, 1.140714e+002
2.532813e+002, 1.142527e+002
2.537634e+002, 1.152549e+002
2.542455e+002, 1.163457e+002
2.547277e+002, 1.173771e+002
2.552098e+002, 1.183497e+002
2.556919e+002, 1.194140e+002
2.561740e+002, 1.205445e+002
2.566561e+002, 1.217913e+002
2.571382e+002, 1.232101e+002
2.576204e+002, 1.249053e+002
2.581025e+002, 1.265384e+002
2.585846e+002, 1.280043e+002
2.590667e+002, 1.293196e+002
2.595488e+002, 1.307269e+002
2.600309e+002, 1.322228e+002
2.605131e+002, 1.337754e+002
2.609952e+002, 1.353684e+002
2.614773e+002, 1.371061e+002
2.619594e+002, 1.386315e+002
2.624415e+002, 1.398658e+002
2.629236e+002, 1.408321e+002
2.634058e+002, 1.416287e+002
2.638879e+002, 1.422443e+002
2.643700e+002, 1.427276e+002
2.648521e+002, 1.431454e+002
2.653342e+002, 1.435293e+002
2.658163e+002, 1.436989e+002
2.662985e+002, 1.434777e+002
2.667806e+002, 1.430011e+002
2.672627e+002, 1.430848e+002
2.677448e+002, 1.438591e+002
2.682269e+002, 1.449194e+002
2.687090e+002, 1.458618e+002
2.691912e+002, 1.465014e+002
2.696733e+002, 1.479004e+002
2.701554e+002, 1.503741e+002
2.706375e+002, 1.536608e+002
2.711196e+002, 1.565504e+002
2.716017e+002, 1.588342e+002
2.720839e+002, 1.612833e+002
2.725660e+002, 1.643719e+002
2.730481e+002, 1.681714e+002
2.735302e+002, 1.721970e+002
2.740123e+002, 1.764289e+002
2.744944e+002, 1.808833e+002
2.749766e+002, 1.856507e+002
2.754587e+002, 1.907096e+002
2.759408e+002, 1.961255e+002
2.764229e+002, 2.018728e+002
2.769050e+002, 2.079932e+002
2.773871e+002, 2.142317e+002
2.778693e+002, 2.205363e+002
2.783514e+002, 2.269917e+002
2.788335e+002, 2.337273e+002
2.793156e+002, 2.407926e+002
2.797977e+002, 2.482210e+002
2.802798e+002, 2.562003e+002
2.807620e+002, 2.646663e+002
2.812441e+002, 2.729127e+002
2.817262e+002, 2.806964e+002
2.822083e+002, 2.886172e+002
2.826904e+002, 2.979356e+002
2.831725e+002, 3.087361e+002
2.836547e+002, 3.196850e+002
2.841368e+002, 3.300583e+002
2.846189e+002, 3.398505e+002
2.851010e+002, 3.500489e+002
2.855831e+002, 3.606304e+002
2.860652e+002, 3.717352e+002
2.865474e+002, 3.839044e+002
2.870295e+002, 3.971096e+002
2.875116e+002, 4.099869e+002
2.879937e+002, 4.219007e+002
2.884758e+002, 4.330549e+002
2.889579e+002, 4.439191e+002
2.894401e+002, 4.546264e+002
2.899222e+002, 4.649649e+002
2.904043e+002, 4.750005e+002
2.908864e+002, 4.846243e+002
2.913685e+002, 4.929777e+002
2.918506e+002, 4.997574e+002
2.923328e+002, 5.049984e+002
2.928149e+002, 5.086920e+002
2.932970e+002, 5.108935e+002
2.937791e+002, 5.112454e+002
2.942612e+002, 5.091541e+002
2.947433e+002, 5.048380e+002
2.952255e+002, 4.990956e+002
2.957076e+002, 4.920372e+002
2.961897e+002, 4.838310e+002
2.966718e+002, 4.748367e+002
2.971539e+002, 4.651024e+002
2.976360e+002, 4.548096e+002
2.981182e+002, 4.436785e+002
2.986003e+002, 4.321578e+002
2.990824e+002, 4.210555e+002
2.995645e+002, 4.104391e+002
3.000466e+002, 4.004844e+002
3.005287e+002, 3.914965e+002
3.010109e+002, 3.834484e+002
3.014930e+002, 3.758343e+002
3.019751e+002, 3.683612e+002
3.024572e+002, 3.611227e+002
3.029393e+002, 3.543930e+002
3.034214e+002, 3.480403e+002
3.039036e+002, 3.424077e+002
3.043857e+002, 3.379979e+002
3.048678e+002, 3.346659e+002
3.053499e+002, 3.317914e+002
3.058320e+002, 3.290624e+002
3.063141e+002, 3.265857e+002
3.067963e+002, 3.245871e+002
3.072784e+002, 3.231696e+002
3.077605e+002, 3.219654e+002
3.082426e+002, 3.205187e+002
3.087247e+002, 3.190268e+002
3.092068e+002, 3.179655e+002
3.096890e+002, 3.177150e+002
3.101711e+002, 3.179110e+002
3.106532e+002, 3.182308e+002
3.111353e+002, 3.186024e+002
3.116174e+002, 3.192443e+002
3.120995e+002, 3.205963e+002
3.125817e+002, 3.222569e+002
3.130638e+002, 3.235992e+002
3.135459e+002, 3.243305e+002
3.140280e+002, 3.247041e+002
3.145101e+002, 3.248105e+002
3.149922e+002, 3.246475e+002
3.154744e+002, 3.244352e+002
3.159565e+002, 3.247584e+002
3.164386e+002, 3.249381e+002
3.169207e+002, 3.242035e+002
3.174028e+002, 3.223248e+002
3.178849e+002, 3.194937e+002
3.183671e+002, 3.156119e+002
3.188492e+002, 3.106902e+002
3.193313e+002, 3.054079e+002
3.198134e+002, 3.001129e+002
3.202955e+002, 2.944555e+002
3.207776e+002, 2.882228e+002
3.212598e+002, 2.813338e+002
3.217419e+002, 2.738356e+002
3.222240e+002, 2.653237e+002
3.227061e+002, 2.560343e+002
3.231882e+002, 2.472081e+002
3.236703e+002, 2.394449e+002
3.241525e+002, 2.319207e+002
3.246346e+002, 2.242501e+002
3.251167e+002, 2.157739e+002
3.255988e+002, 2.079072e+002
3.260809e+002, 2.009726e+002
3.265630e+002, 1.947558e+002
3.270452e+002, 1.886410e+002
3.275273e+002, 1.826626e+002
3.280094e+002, 1.768006e+002
3.284915e+002, 1.709491e+002
3.289736e+002, 1.647974e+002
3.294557e+002, 1.594935e+002
3.299379e+002, 1.553463e+002
3.304200e+002, 1.519332e+002
3.309021e+002, 1.486450e+002
3.313842e+002, 1.454671e+002
3.318663e+002, 1.423959e+002
3.323484e+002, 1.393990e+002
3.328306e+002, 1.365185e+002
3.333127e+002, 1.337605e+002
3.337948e+002, 1.310343e+002
3.342769e+002, 1.285014e+002
3.347590e+002, 1.264267e+002
3.352411e+002, 1.250489e+002
3.357233e+002, 1.235490e+002
3.362054e+002, 1.216979e+002
3.366875e+002, 1.195204e+002
3.371696e+002, 1.176788e+002
3.376517e+002, 1.162540e+002
3.381339e+002, 1.150188e+002
3.386160e+002, 1.138250e+002
3.390981e+002, 1.126679e+002
3.395802e+002, 1.115382e+002
3.400623e+002, 1.104301e+002
3.405444e+002, 1.093507e+002
3.410266e+002, 1.084068e+002
3.415087e+002, 1.076056e+002
3.419908e+002, 1.068330e+002
3.424729e+002, 1.059854e+002
3.429550e+002, 1.050694e+002
3.434371e+002, 1.042482e+002
3.439193e+002, 1.035775e+002
3.444014e+002, 1.029376e+002
3.448835e+002, 1.020592e+002
3.453656e+002, 1.009451e+002
3.458477e+002, 9.995097e+001
3.463298e+002, 9.931728e+001
3.468120e+002, 9.896357e+001
3.472941e+002, 9.856020e+001
3.477762e+002, 9.808659e+001
3.482583e+002, 9.762092e+001
3.487404e+002, 9.727798e+001
3.492225e+002, 9.703087e+001
3.497047e+002, 9.676511e+001
3.501868e+002, 9.649356e+001
3.506689e+002, 9.615292e+001
3.511510e+002, 9.550867e+001
3.516331e+002, 9.457175e+001
3.521152e+002, 9.376297e+001
3.525974e+002, 9.355424e+001
3.530795e+002, 9.370596e+001
3.535616e+002, 9.377757e+001
3.540437e+002, 9.363951e+001
3.545258e+002, 9.338464e+001
3.550079e+002, 9.307011e+001
3.554901e+002, 9.270734e+001
3.559722e+002, 9.234151e+001
3.564543e+002, 9.195188e+001
3.569364e+002, 9.159793e+001
3.574185e+002, 9.135462e+001
3.579006e+002, 9.127843e+001
3.583828e+002, 9.119888e+001
3.588649e+002, 9.100149e+001
3.593470e+002, 9.072306e+001
3.598291e+002, 9.043668e+001
3.603112e+002, 9.009999e+001
3.607933e+002, 8.982045e+001
3.612755e+002, 8.968077e+001
3.617576e+002, 8.970634e+001
3.622397e+002, 8.973360e+001
3.627218e+002, 8.972769e+001
3.632039e+002, 8.967998e+001
3.636860e+002, 8.958095e+001
3.641682e+002, 8.935861e+001
3.646503e+002, 8.915027e+001
3.651324e+002, 8.900533e+001
3.656145e+002, 8.892129e+001
3.660966e+002, 8.885045e+001
3.665787e+002, 8.885324e+001
3.670609e+002, 8.882463e+001
3.675430e+002, 8.869742e+001
3.680251e+002, 8.835428e+001
3.685072e+002, 8.804339e+001
3.689893e+002, 8.778599e+001
3.694714e+002, 8.757527e+001
3.699536e+002, 8.739544e+001
3.704357e+002, 8.720405e+001
3.709178e+002, 8.708874e+001
3.713999e+002, 8.708540e+001
3.718820e+002, 8.720655e+001
3.723641e+002, 8.742925e+001
3.728463e+002, 8.789639e+001
3.733284e+002, 8.836836e+001
3.738105e+002, 8.841865e+001
3.742926e+002, 8.779766e+001
3.747747e+002, 8.732129e+001
3.752568e+002, 8.728632e+001
3.757390e+002, 8.769901e+001
3.762211e+002, 8.785507e+001
3.767032e+002, 8.766910e+001
3.771853e+002, 8.740515e+001
3.776674e+002, 8.731539e+001
3.781495e+002, 8.741536e+001
3.786317e+002, 8.755724e+001
3.791138e+002, 8.773840e+001
3.795959e+002, 8.792819e+001
3.800780e+002, 8.798060e+001
3.805601e+002, 8.787447e+001
3.810422e+002, 8.787352e+001
3.815244e+002, 8.830396e+001
3.820065e+002, 8.905569e+001
3.824886e+002, 8.944398e+001
3.829707e+002, 8.933474e+001
3.834528e+002, 8.905369e+001
3.839349e+002, 8.908279e+001
3.844171e+002, 8.936953e+001
3.848992e+002, 8.962144e+001
3.853813e+002, 8.965114e+001
3.858634e+002, 8.957019e+001
3.863455e+002, 8.953539e+001
3.868276e+002, 8.954820e+001
3.873098e+002, 8.968056e+001
3.877919e+002, 9.009464e+001
3.882740e+002, 9.066016e+001
3.887561e+002, 9.114297e+001
3.892382e+002, 9.146243e+001
3.897203e+002, 9.167536e+001
3.902025e+002, 9.174490e+001
3.906846e+002, 9.171144e+001
3.911667e+002, 9.177263e+001
3.916488e+002, 9.211276e+001
3.921309e+002, 9.255362e+001
3.926130e+002, 9.294943e+001
3.930952e+002, 9.325603e+001
3.935773e+002, 9.353870e+001
3.940594e+002, 9.381014e+001
3.945415e+002, 9.407571e+001
3.950236e+002, 9.434496e+001
3.955057e+002, 9.462455e+001
3.959879e+002, 9.490715e+001
3.964700e+002, 9.516255e+001
3.969521e+002, 9.536723e+001
3.974342e+002, 9.569468e+001
3.979163e+002, 9.626310e+001
3.983984e+002, 9.692308e+001
3.988806e+002, 9.753810e+001
3.993627e+002, 9.808720e+001
3.998448e+002, 9.860198e+001
4.003269e+002, 9.900591e+001
4.008090e+002, 9.934154e+001
4.012911e+002, 9.993108e+001
4.017733e+002, 1.010247e+002
4.022554e+002, 1.020811e+002
4.027375e+002, 1.027649e+002
4.032196e+002, 1.027710e+002
4.037017e+002, 1.031897e+002
4.041838e+002, 1.041392e+002
4.046660e+002, 1.054239e+002
4.051481e+002, 1.066895e+002
4.056302e+002, 1.079687e+002
4.061123e+002, 1.091275e+002
4.065944e+002, 1.100230e+002
4.070765e+002, 1.106868e+002
4.075587e+002, 1.117425e+002
4.080408e+002, 1.132512e+002
4.085229e+002, 1.149321e+002
4.090050e+002, 1.165694e+002
4.094871e+002, 1.181485e+002
4.099692e+002, 1.195451e+002
4.104514e+002, 1.206558e+002
4.109335e+002, 1.216665e+002
4.114156e+002, 1.229657e+002
4.118977e+002, 1.245287e+002
4.123798e+002, 1.262156e+002
4.128619e+002, 1.281074e+002
4.133441e+002, 1.300040e+002
4.138262e+002, 1.313758e+002
4.143083e+002, 1.320315e+002
4.147904e+002, 1.328504e+002
4.152725e+002, 1.350378e+002
4.157546e+002, 1.380211e+002
4.162368e+002, 1.406680e+002
4.167189e+002, 1.422900e+002
4.172010e+002, 1.434684e+002
4.176831e+002, 1.445901e+002
4.181652e+002, 1.456619e+002
4.186473e+002, 1.467646e+002
4.191295e+002, 1.480851e+002
4.196116e+002, 1.493743e+002
4.200937e+002, 1.503845e+002
4.205758e+002, 1.509564e+002
4.210579e+002, 1.514054e+002
4.215400e+002, 1.519406e+002
4.220222e+002, 1.524402e+002
4.225043e+002, 1.526182e+002
4.229864e+002, 1.522936e+002
4.234685e+002, 1.517375e+002
4.239506e+002, 1.510681e+002
4.244327e+002, 1.503539e+002
4.249149e+002, 1.493237e+002
4.253970e+002, 1.478709e+002
4.258791e+002, 1.461637e+002
4.263612e+002, 1.443420e+002
4.268433e+002, 1.424297e+002
4.273254e+002, 1.403735e+002
4.278076e+002, 1.381259e+002
4.282897e+002, 1.356998e+002
4.287718e+002, 1.333021e+002
4.292539e+002, 1.309050e+002
4.297360e+002, 1.286454e+002
4.302181e+002, 1.267539e+002
4.307003e+002, 1.253538e+002
4.311824e+002, 1.233908e+002
4.316645e+002, 1.206140e+002
4.321466e+002, 1.176215e+002
4.326287e+002, 1.155829e+002
4.331108e+002, 1.145351e+002
4.335930e+002, 1.134349e+002
4.340751e+002, 1.117670e+002
4.345572e+002, 1.097630e+002
4.350393e+002, 1.082606e+002
4.355214e+002, 1.072777e+002
4.360035e+002, 1.063501e+002
4.364857e+002, 1.049337e+002
4.369678e+002, 1.032766e+002
4.374499e+002, 1.019695e+002
4.379320e+002, 1.012246e+002
4.384141e+002, 1.007078e+002
4.388962e+002, 1.000109e+002
4.393784e+002, 9.923158e+001
4.398605e+002, 9.865757e+001
4.403426e+002, 9.865779e+001
4.408247e+002, 9.879229e+001
4.413068e+002, 9.865721e+001
4.417889e+002, 9.819650e+001
4.422711e+002, 9.775796e+001
4.427532e+002, 9.742090e+001
4.432353e+002, 9.723521e+001
4.437174e+002, 9.725269e+001
4.441995e+002, 9.777947e+001
4.446816e+002, 9.820393e+001
4.451638e+002, 9.813929e+001
4.456459e+002, 9.775771e+001
4.461280e+002, 9.784654e+001
4.466101e+002, 9.895342e+001
4.470922e+002, 1.001958e+002
4.475743e+002, 1.012104e+002
4.480565e+002, 1.019295e+002
4.485386e+002, 1.025471e+002
4.490207e+002, 1.029183e+002
4.495028e+002, 1.032761e+002
4.499849e+002, 1.039201e+002
4.504670e+002, 1.049386e+002
4.509492e+002, 1.060603e+002
4.514313e+002, 1.072352e+002
4.519134e+002, 1.084639e+002
4.523955e+002, 1.096662e+002
4.528776e+002, 1.107492e+002
4.533597e+002, 1.120500e+002
4.538419e+002, 1.139624e+002
4.543240e+002, 1.164494e+002
4.548061e+002, 1.185597e+002
4.552882e+002, 1.201063e+002
4.557703e+002, 1.214900e+002
4.562524e+002, 1.232818e+002
4.567346e+002, 1.254606e+002
4.572167e+002, 1.277024e+002
4.576988e+002, 1.299994e+002
4.581809e+002, 1.322497e+002
4.586630e+002, 1.342406e+002
4.591451e+002, 1.359755e+002
4.596273e+002, 1.378083e+002
4.601094e+002, 1.400249e+002
4.605915e+002, 1.424711e+002
4.610736e+002, 1.449616e+002
4.615557e+002, 1.475338e+002
4.620378e+002, 1.500307e+002
4.625200e+002, 1.522246e+002
4.630021e+002, 1.542939e+002
4.634842e+002, 1.565411e+002
4.639663e+002, 1.590543e+002
4.644484e+002, 1.618151e+002
4.649305e+002, 1.647598e+002
4.654127e+002, 1.678819e+002
4.658948e+002, 1.712705e+002
4.663769e+002, 1.749452e+002
4.668590e+002, 1.788694e+002
4.673411e+002, 1.830013e+002
4.678232e+002, 1.875751e+002
4.683054e+002, 1.921384e+002
4.687875e+002, 1.966343e+002
4.692696e+002, 2.010740e+002
4.697517e+002, 2.055659e+002
4.702338e+002, 2.102969e+002
4.707159e+002, 2.146830e+002
4.711981e+002, 2.185956e+002
4.716802e+002, 2.220466e+002
4.721623e+002, 2.247605e+002
4.726444e+002, 2.267807e+002
4.731265e+002, 2.278747e+002
4.736086e+002, 2.276677e+002
4.740908e+002, 2.261694e+002
4.745729e+002, 2.240726e+002
4.750550e+002, 2.215993e+002
4.755371e+002, 2.184316e+002
4.760192e+002, 2.137722e+002
4.765013e+002, 2.077120e+002
4.769835e+002, 2.011994e+002
4.774656e+002, 1.946160e+002
4.779477e+002, 1.879077e+002
4.784298e+002, 1.808147e+002
4.789119e+002, 1.733102e+002
4.793940e+002, 1.660964e+002
4.798762e+002, 1.596039e+002
4.803583e+002, 1.537703e+002
4.808404e+002, 1.485054e+002
4.813225e+002, 1.438531e+002
4.818046e+002, 1.396024e+002
4.822867e+002, 1.357473e+002
4.827689e+002, 1.322206e+002
4.832510e+002, 1.288459e+002
4.837331e+002, 1.252635e+002
4.842152e+002, 1.220737e+002
4.846973e+002, 1.196997e+002
4.851794e+002, 1.183681e+002
4.856616e+002, 1.167406e+002
4.861437e+002, 1.142689e+002
4.866258e+002, 1.117243e+002
4.871079e+002, 1.096815e+002
4.875900e+002, 1.083562e+002
4.880721e+002, 1.071358e+002
4.885543e+002, 1.059267e+002
4.890364e+002, 1.047962e+002
4.895185e+002, 1.040344e+002
4.900006e+002, 1.038051e+002
4.904827e+002, 1.034351e+002
4.909648e+002, 1.025796e+002
4.914470e+002, 1.012623e+002
4.919291e+002, 1.000123e+002
4.924112e+002, 9.882567e+001
4.928933e+002, 9.776010e+001
4.933754e+002, 9.698027e+001
4.938575e+002, 9.640320e+001
4.943397e+002, 9.566174e+001
4.948218e+002, 9.465676e+001
4.953039e+002, 9.350742e+001
4.957860e+002, 9.229906e+001
4.962681e+002, 9.107652e+001
4.967502e+002, 8.999554e+001
4.972324e+002, 8.919504e+001
4.977145e+002, 8.852742e+001
4.981966e+002, 8.790438e+001
4.986787e+002, 8.731406e+001
4.991608e+002, 8.662514e+001
4.996429e+002, 8.544090e+001
5.001251e+002, 8.429279e+001
5.006072e+002, 8.364943e+001
5.010893e+002, 8.419694e+001
5.015714e+002, 8.446048e+001
5.020535e+002, 8.392049e+001
5.025356e+002, 8.288143e+001
5.030178e+002, 8.203873e+001
5.034999e+002, 8.143920e+001
5.039820e+002, 8.104231e+001
5.044641e+002, 8.092848e+001
5.049462e+002, 8.111839e+001
5.054283e+002, 8.105910e+001
5.059105e+002, 8.065095e+001
5.063926e+002, 8.015132e+001
5.068747e+002, 7.971968e+001
5.073568e+002, 7.934359e+001
5.078389e+002, 7.918432e+001
5.083210e+002, 7.936550e+001
5.088032e+002, 7.958716e+001
5.092853e+002, 7.920346e+001
5.097674e+002, 7.825652e+001
5.102495e+002, 7.745867e+001
5.107316e+002, 7.714961e+001
5.112137e+002, 7.715670e+001
5.116959e+002, 7.715534e+001
5.121780e+002, 7.714137e+001
5.126601e+002, 7.707234e+001
5.131422e+002, 7.685041e+001
5.136243e+002, 7.658076e+001
5.141064e+002, 7.640249e+001
5.145886e+002, 7.635330e+001
5.150707e+002, 7.634789e+001
5.155528e+002, 7.641184e+001
5.160349e+002, 7.646789e+001
5.165170e+002, 7.640532e+001
5.169991e+002, 7.609700e+001
5.174813e+002, 7.576058e+001
5.179634e+002, 7.542650e+001
5.184455e+002, 7.510862e+001
5.189276e+002, 7.489584e+001
5.194097e+002, 7.493272e+001
5.198918e+002, 7.496171e+001
5.203740e+002, 7.486793e+001
5.208561e+002, 7.458891e+001
5.213382e+002, 7.439537e+001
5.218203e+002, 7.433108e+001
5.223024e+002, 7.429887e+001
5.227845e+002, 7.413599e+001
5.232667e+002, 7.377994e+001
5.237488e+002, 7.366145e+001
5.242309e+002, 7.394322e+001
5.247130e+002, 7.444132e+001
5.251951e+002, 7.470820e+001
5.256772e+002, 7.474706e+001
5.261594e+002, 7.469132e+001
5.266415e+002, 7.456979e+001
5.271236e+002, 7.441743e+001
5.276057e+002, 7.434128e+001
5.280878e+002, 7.434745e+001
5.285699e+002, 7.430738e+001
5.290521e+002, 7.403893e+001
5.295342e+002, 7.368796e+001
5.300163e+002, 7.344877e+001
5.304984e+002, 7.340020e+001
5.309805e+002, 7.342603e+001
5.314626e+002, 7.348183e+001
5.319448e+002, 7.356571e+001
5.324269e+002, 7.367348e+001
5.329090e+002, 7.391976e+001
5.333911e+002, 7.407635e+001
5.338732e+002, 7.402405e+001
5.343553e+002, 7.375037e+001
5.348375e+002, 7.353609e+001
5.353196e+002, 7.334163e+001
5.358017e+002, 7.325278e+001
5.362838e+002, 7.333803e+001
5.367659e+002, 7.369173e+001
5.372480e+002, 7.395271e+001
5.377302e+002, 7.410196e+001
5.382123e+002, 7.417870e+001
5.386944e+002, 7.423872e+001
5.391765e+002, 7.428476e+001
5.396586e+002, 7.428391e+001
5.401407e+002, 7.421917e+001
5.406229e+002, 7.411153e+001
5.411050e+002, 7.399378e+001
5.415871e+002, 7.387096e+001
5.420692e+002, 7.378388e+001
5.425513e+002, 7.382021e+001
5.430334e+002, 7.388635e+001
5.435156e+002, 7.380338e+001
5.439977e+002, 7.355342e+001
5.444798e+002, 7.334436e+001
5.449619e+002, 7.337308e+001
5.454440e+002, 7.350202e+001
5.459261e+002, 7.358084e+001
5.464083e+002, 7.354913e+001
5.468904e+002, 7.348896e+001
5.473725e+002, 7.332522e+001
5.478546e+002, 7.315665e+001
5.483367e+002, 7.319115e+001
5.488188e+002, 7.379659e+001
5.493010e+002, 7.424578e+001
5.497831e+002, 7.430281e+001
5.502652e+002, 7.397399e+001
5.507473e+002, 7.376724e+001
5.512294e+002, 7.372662e+001
5.517115e+002, 7.373374e+001
5.521937e+002, 7.371355e+001
5.526758e+002, 7.366081e+001
5.531579e+002, 7.363947e+001
5.536400e+002, 7.365272e+001
5.541221e+002, 7.370067e+001
5.546042e+002, 7.378392e+001
5.550864e+002, 7.390256e+001
5.555685e+002, 7.406180e+001
5.560506e+002, 7.429016e+001
5.565327e+002, 7.452178e+001
5.570148e+002, 7.465536e+001
5.574969e+002, 7.470683e+001
5.579791e+002, 7.473817e+001
5.584612e+002, 7.476320e+001
5.589433e+002, 7.479541e+001
5.594254e+002, 7.480756e+001
5.599075e+002, 7.479542e+001
5.603896e+002, 7.492030e+001
5.608718e+002, 7.556837e+001
5.613539e+002, 7.618071e+001
5.618360e+002, 7.632639e+001
5.623181e+002, 7.550496e+001
5.628002e+002, 7.487608e+001
5.632823e+002, 7.446070e+001
5.637645e+002, 7.428795e+001
5.642466e+002, 7.444816e+001
5.647287e+002, 7.511316e+001
5.652108e+002, 7.572371e+001
5.656929e+002, 7.615141e+001
5.661750e+002, 7.642585e+001
5.666572e+002, 7.672622e+001
5.671393e+002, 7.707256e+001
5.676214e+002, 7.728249e+001
5.681035e+002, 7.706383e+001
5.685856e+002, 7.659683e+001
5.690677e+002, 7.664613e+001
5.695499e+002, 7.726047e+001
5.700320e+002, 7.799800e+001
5.705141e+002, 7.847572e+001
5.709962e+002, 7.878698e+001
5.714783e+002, 7.907597e+001
5.719604e+002, 7.936770e+001
5.724426e+002, 7.967236e+001
5.729247e+002, 7.998660e+001
5.734068e+002, 8.032168e+001
5.738889e+002, 8.070503e+001
5.743710e+002, 8.104052e+001
5.748531e+002, 8.152946e+001
5.753353e+002, 8.235511e+001
5.758174e+002, 8.347774e+001
5.762995e+002, 8.436422e+001
5.767816e+002, 8.480848e+001
5.772637e+002, 8.523173e+001
5.777458e+002, 8.577855e+001
5.782280e+002, 8.640870e+001
5.787101e+002, 8.741682e+001
5.791922e+002, 8.891022e+001
5.796743e+002, 9.054539e+001
5.801564e+002, 9.203550e+001
5.806385e+002, 9.336962e+001
5.811207e+002, 9.437279e+001
5.816028e+002, 9.488593e+001
5.820849e+002, 9.532830e+001
5.825670e+002, 9.632887e+001
5.830491e+002, 9.778265e+001
5.835313e+002, 9.940778e+001
5.840134e+002, 1.011613e+002
5.844955e+002, 1.029442e+002
5.849776e+002, 1.046537e+002
5.854597e+002, 1.063046e+002
5.859418e+002, 1.079817e+002
5.864240e+002, 1.098596e+002
5.869061e+002, 1.116632e+002
5.873882e+002, 1.132483e+002
5.878703e+002, 1.145394e+002
5.883524e+002, 1.158007e+002
5.888345e+002, 1.171718e+002
5.893167e+002, 1.184531e+002
5.897988e+002, 1.195043e+002
5.902809e+002, 1.203769e+002
5.907630e+002, 1.208959e+002
5.912451e+002, 1.210244e+002
5.917272e+002, 1.208266e+002
5.922094e+002, 1.202963e+002
5.926915e+002, 1.194037e+002
5.931736e+002, 1.187349e+002
5.936557e+002, 1.185449e+002
5.941378e+002, 1.186718e+002
5.946199e+002, 1.186054e+002
5.951021e+002, 1.184118e+002
5.955842e+002, 1.186260e+002
5.960663e+002, 1.197264e+002
5.965484e+002, 1.213565e+002
5.970305e+002, 1.230917e+002
5.975126e+002, 1.248897e+002
5.979948e+002, 1.270458e+002
5.984769e+002, 1.297828e+002
5.989590e+002, 1.328899e+002
5.994411e+002, 1.362247e+002
5.999232e+002, 1.399018e+002
6.004053e+002, 1.435845e+002
6.008875e+002, 1.470604e+002
6.013696e+002, 1.505481e+002
6.018517e+002, 1.543889e+002
6.023338e+002, 1.589004e+002
6.028159e+002, 1.630539e+002
6.032980e+002, 1.665629e+002
6.037802e+002, 1.696243e+002
6.042623e+002, 1.731903e+002
6.047444e+002, 1.773129e+002
6.052265e+002, 1.812319e+002
6.057086e+002, 1.848203e+002
6.061907e+002, 1.878840e+002
6.066729e+002, 1.899204e+002
6.071550e+002, 1.909222e+002
6.076371e+002, 1.906821e+002
6.081192e+002, 1.888961e+002
6.086013e+002, 1.858095e+002
6.090834e+002, 1.816564e+002
6.095656e+002, 1.763048e+002
6.100477e+002, 1.704711e+002
6.105298e+002, 1.644932e+002
6.110119e+002, 1.582908e+002
6.114940e+002, 1.516943e+002
6.119761e+002, 1.433421e+002
6.124583e+002, 1.362850e+002
6.129404e+002, 1.316886e+002
6.134225e+002, 1.285533e+002
6.139046e+002, 1.244960e+002
6.143867e+002, 1.189736e+002
6.148688e+002, 1.138089e+002
6.153510e+002, 1.094391e+002
6.158331e+002, 1.058412e+002
6.163152e+002, 1.028090e+002
6.167973e+002, 1.003718e+002
6.172794e+002, 9.827377e+001
6.177615e+002, 9.640479e+001
6.182437e+002, 9.476588e+001
6.187258e+002, 9.327129e+001
6.192079e+002, 9.189562e+001
6.196900e+002, 9.084668e+001
6.201721e+002, 9.037560e+001
6.206542e+002, 9.029830e+001
6.211364e+002, 9.037505e+001
6.216185e+002, 9.050201e+001
6.221006e+002, 9.089191e+001
6.225827e+002, 9.174020e+001
6.230648e+002, 9.287859e+001
6.235469e+002, 9.407186e+001
6.240291e+002, 9.494238e+001
6.245112e+002, 9.628890e+001
6.249933e+002, 9.826956e+001
6.254754e+002, 1.008075e+002
6.259575e+002, 1.036501e+002
6.264396e+002, 1.069386e+002
6.269218e+002, 1.101578e+002
6.274039e+002, 1.129910e+002
6.278860e+002, 1.155698e+002
6.283681e+002, 1.187521e+002
6.288502e+002, 1.225536e+002
6.293323e+002, 1.265457e+002
6.298145e+002, 1.302904e+002
6.302966e+002, 1.340174e+002
6.307787e+002, 1.382287e+002
6.312608e+002, 1.429733e+002
6.317429e+002, 1.481480e+002
6.322250e+002, 1.539689e+002
6.327072e+002, 1.600322e+002
6.331893e+002, 1.659875e+002
6.336714e+002, 1.715339e+002
6.341535e+002, 1.772024e+002
6.346356e+002, 1.831871e+002
6.351177e+002, 1.893357e+002
6.355999e+002, 1.955515e+002
6.360820e+002, 2.022664e+002
6.365641e+002, 2.083502e+002
6.370462e+002, 2.137026e+002
6.375283e+002, 2.182775e+002
6.380104e+002, 2.221045e+002
6.384926e+002, 2.252998e+002
6.389747e+002, 2.272530e+002
6.394568e+002, 2.282096e+002
6.399389e+002, 2.276576e+002
6.404210e+002, 2.236846e+002
6.409031e+002, 2.163385e+002
6.413853e+002, 2.069407e+002
6.418674e+002, 1.953717e+002
6.423495e+002, 1.828033e+002
6.428316e+002, 1.705396e+002
6.433137e+002, 1.585337e+002
6.437958e+002, 1.477267e+002
6.442780e+002, 1.388693e+002
6.447601e+002, 1.311030e+002
6.452422e+002, 1.237304e+002
6.457243e+002, 1.161350e+002
6.462064e+002, 1.097392e+002
6.466885e+002, 1.048663e+002
6.471707e+002, 1.010126e+002
6.476528e+002, 9.764574e+001
6.481349e+002, 9.478713e+001
6.486170e+002, 9.226486e+001
6.490991e+002, 9.004104e+001
6.495812e+002, 8.810575e+001
6.500634e+002, 8.636636e+001
6.505455e+002, 8.481174e+001
6.510276e+002, 8.349547e+001
6.515097e+002, 8.248767e+001
6.519918e+002, 8.168837e+001
6.524739e+002, 8.096523e+001
6.529561e+002, 8.032008e+001
6.534382e+002, 7.970736e+001
6.539203e+002, 7.918751e+001
6.544024e+002, 7.863771e+001
6.548845e+002, 7.790639e+001
6.553666e+002, 7.695471e+001
6.558488e+002, 7.617919e+001
6.563309e+002, 7.575625e+001
6.568130e+002, 7.547393e+001
6.572951e+002, 7.521082e+001
6.577772e+002, 7.498103e+001
6.582593e+002, 7.472364e+001
6.587415e+002, 7.440835e+001
6.592236e+002, 7.411470e+001
6.597057e+002, 7.394656e+001
6.601878e+002, 7.390202e+001
6.606699e+002, 7.388742e+001
6.611520e+002, 7.391301e+001
6.616342e+002, 7.389450e+001
6.621163e+002, 7.368208e+001
6.625984e+002, 7.332739e+001
6.630805e+002, 7.295865e+001
6.635626e+002, 7.242978e+001
6.640447e+002, 7.210876e+001
6.645269e+002, 7.246468e+001
6.650090e+002, 7.325867e+001
6.654911e+002, 7.380078e+001
6.659732e+002, 7.367746e+001
6.664553e+002, 7.346452e+001
6.669374e+002, 7.340746e+001
6.674196e+002, 7.348811e+001
6.679017e+002, 7.332601e+001
6.683838e+002, 7.274279e+001
6.688659e+002, 7.225179e+001
6.693480e+002, 7.215281e+001
6.698301e+002, 7.243987e+001
6.703123e+002, 7.264155e+001
6.707944e+002, 7.275546e+001
6.712765e+002, 7.280587e+001
6.717586e+002, 7.272794e+001
6.722407e+002, 7.261599e+001
6.727228e+002, 7.271130e+001
6.732050e+002, 7.307352e+001
6.736871e+002, 7.346445e+001
6.741692e+002, 7.381166e+001
6.746513e+002, 7.404506e+001
6.751334e+002, 7.406261e+001
6.756155e+002, 7.357600e+001
6.760977e+002, 7.326859e+001
6.765798e+002, 7.342422e+001
6.770619e+002, 7.380949e+001
6.775440e+002, 7.409410e+001
6.780261e+002, 7.430634e+001
6.785082e+002, 7.433885e+001
6.789904e+002, 7.410722e+001
6.794725e+002, 7.373316e+001
6.799546e+002, 7.356369e+001
6.804367e+002, 7.360502e+001
6.809188e+002, 7.356612e+001
6.814009e+002, 7.328257e+001
6.818831e+002, 7.287109e+001
6.823652e+002, 7.255309e+001
6.828473e+002, 7.230840e+001
6.833294e+002, 7.205001e+001
6.838115e+002, 7.162046e+001
6.842936e+002, 7.123709e+001
6.847758e+002, 7.107227e+001
6.852579e+002, 7.113705e+001
6.857400e+002, 7.123003e+001
6.862221e+002, 7.136653e+001
6.867042e+002, 7.145898e+001
6.871863e+002, 7.145016e+001
6.876685e+002, 7.130188e+001
6.881506e+002, 7.121476e+001
6.886327e+002, 7.119312e+001
6.891148e+002, 7.121892e+001
6.895969e+002, 7.129378e+001
6.900790e+002, 7.141256e+001
6.905612e+002, 7.151333e+001
6.910433e+002, 7.159968e+001
6.915254e+002, 7.161143e+001
6.920075e+002, 7.143989e+001
6.924896e+002, 7.115031e+001
6.929717e+002, 7.084410e+001
6.934539e+002, 7.047439e+001
6.939360e+002, 7.024497e+001
6.944181e+002, 7.036552e+001
6.949002e+002, 7.068230e+001
6.953823e+002, 7.095780e+001
6.958644e+002, 7.122340e+001
6.963466e+002, 7.133067e+001
6.968287e+002, 7.116268e+001
6.973108e+002, 7.085335e+001
6.977929e+002, 7.076949e+001
6.982750e+002, 7.096928e+001
6.987571e+002, 7.119317e+001
6.992393e+002, 7.139979e+001
6.997214e+002, 7.154992e+001
7.002035e+002, 7.149254e+001
7.006856e+002, 7.124424e+001
7.011677e+002, 7.094559e+001
7.016498e+002, 7.059785e+001
7.021320e+002, 7.029251e+001
7.026141e+002, 7.012168e+001
7.030962e+002, 7.008678e+001
7.035783e+002, 7.017847e+001
7.040604e+002, 7.065929e+001
7.045425e+002, 7.104562e+001
7.050247e+002, 7.095930e+001
7.055068e+002, 7.022431e+001
7.059889e+002, 6.989251e+001
7.064710e+002, 7.020829e+001
7.069531e+002, 7.061526e+001
7.074352e+002, 7.072961e+001
7.079174e+002, 7.051488e+001
7.083995e+002, 7.043552e+001
7.088816e+002, 7.051755e+001
7.093637e+002, 7.064976e+001
7.098458e+002, 7.070913e+001
7.103279e+002, 7.072961e+001
7.108101e+002, 7.082124e+001
7.112922e+002, 7.103263e+001
7.117743e+002, 7.118599e+001
7.122564e+002, 7.110489e+001
7.127385e+002, 7.090784e+001
7.132206e+002, 7.073304e+001
7.137028e+002, 7.058265e+001
7.141849e+002, 7.050832e+001
7.146670e+002, 7.056893e+001
7.151491e+002, 7.069314e+001
7.156312e+002, 7.077889e+001
7.161133e+002, 7.078315e+001
7.165955e+002, 7.088252e+001
7.170776e+002, 7.115409e+001
7.175597e+002, 7.147812e+001
7.180418e+002, 7.153494e+001
7.185239e+002, 7.135815e+001
7.190060e+002, 7.129269e+001
7.194882e+002, 7.159380e+001
7.199703e+002, 7.194002e+001
7.204524e+002, 7.182738e+001
7.209345e+002, 7.141462e+001
7.214166e+002, 7.116988e+001
7.218987e+002, 7.153716e+001
7.223809e+002, 7.190974e+001
7.228630e+002, 7.195551e+001
7.233451e+002, 7.171011e+001
7.238272e+002, 7.155517e+001
7.243093e+002, 7.151639e+001
7.247914e+002, 7.156191e+001
7.252736e+002, 7.172662e+001
7.257557e+002, 7.199017e+001
7.262378e+002, 7.204771e+001
7.267199e+002, 7.187316e+001
7.272020e+002, 7.172956e+001
7.276841e+002, 7.186079e+001
7.281663e+002, 7.213323e+001
7.286484e+002, 7.222261e+001
7.291305e+002, 7.212553e+001
7.296126e+002, 7.203965e+001
7.300947e+002, 7.215411e+001
7.305768e+002, 7.229774e+001
7.310590e+002, 7.230673e+001
7.315411e+002, 7.211912e+001
7.320232e+002, 7.201620e+001
7.325053e+002, 7.207862e+001
7.329874e+002, 7.221529e+001
7.334695e+002, 7.239189e+001
7.339517e+002, 7.264481e+001
7.344338e+002, 7.277506e+001
7.349159e+002, 7.273462e+001
7.353980e+002, 7.270770e+001
7.358801e+002, 7.302871e+001
7.363622e+002, 7.356072e+001
7.368444e+002, 7.364748e+001
7.373265e+002, 7.310519e+001
7.378086e+002, 7.253910e+001
7.382907e+002, 7.254501e+001
7.387728e+002, 7.286477e+001
7.392549e+002, 7.316944e+001
7.397371e+002, 7.337930e+001
7.402192e+002, 7.355508e+001
7.407013e+002, 7.365170e+001
7.411834e+002, 7.375065e+001
7.416655e+002, 7.398071e+001
7.421476e+002, 7.446960e+001
7.426298e+002, 7.477438e+001
7.431119e+002, 7.482035e+001
7.435940e+002, 7.468582e+001
7.440761e+002, 7.437058e+001
7.445582e+002, 7.392361e+001
7.450403e+002, 7.388367e+001
7.455225e+002, 7.459978e+001
7.460046e+002, 7.546564e+001
7.464867e+002, 7.568156e+001
7.469688e+002, 7.548009e+001
7.474509e+002, 7.535971e+001
7.479330e+002, 7.572561e+001
7.484152e+002, 7.600114e+001
7.488973e+002, 7.576328e+001
7.493794e+002, 7.524426e+001
7.498615e+002, 7.524094e+001
7.503436e+002, 7.621263e+001
7.508257e+002, 7.688787e+001
7.513079e+002, 7.687248e+001
7.517900e+002, 7.636562e+001
7.522721e+002, 7.608914e+001
7.527542e+002, 7.604228e+001
7.532363e+002, 7.594186e+001
7.537184e+002, 7.552453e+001
7.542006e+002, 7.505505e+001
7.546827e+002, 7.504037e+001
7.551648e+002, 7.537448e+001
7.556469e+002, 7.561525e+001
7.561290e+002, 7.543452e+001
7.566111e+002, 7.519247e+001
7.570933e+002, 7.507307e+001
7.575754e+002, 7.508158e+001
7.580575e+002, 7.509184e+001
7.585396e+002, 7.501598e+001
7.590217e+002, 7.506925e+001
7.595038e+002, 7.545916e+001
7.599860e+002, 7.611224e+001
7.604681e+002, 7.606468e+001
7.609502e+002, 7.524917e+001
7.614323e+002, 7.453040e+001
7.619144e+002, 7.464046e+001
7.623965e+002, 7.517817e+001
7.628787e+002, 7.545184e+001
7.633608e+002, 7.544563e+001
7.638429e+002, 7.528129e+001
7.643250e+002, 7.473355e+001
7.648071e+002, 7.428050e+001
7.652892e+002, 7.431609e+001
7.657714e+002, 7.494331e+001
7.662535e+002, 7.547708e+001
7.667356e+002, 7.592418e+001
7.672177e+002, 7.621204e+001
7.676998e+002, 7.628593e+001
7.681819e+002, 7.613877e+001
7.686641e+002, 7.587994e+001
7.691462e+002, 7.549617e+001
7.696283e+002, 7.512148e+001
7.701104e+002, 7.481418e+001
7.705925e+002, 7.461185e+001
7.710746e+002, 7.461551e+001
7.715568e+002, 7.483920e+001
7.720389e+002, 7.512294e+001
7.725210e+002, 7.541979e+001
7.730031e+002, 7.569982e+001
7.734852e+002, 7.594328e+001
7.739673e+002, 7.614505e+001
7.744495e+002, 7.632205e+001
7.749316e+002, 7.657690e+001
7.754137e+002, 7.668476e+001
7.758958e+002, 7.638219e+001
7.763779e+002, 7.561281e+001
7.768600e+002, 7.517882e+001
7.773422e+002, 7.512840e+001
7.778243e+002, 7.527023e+001
7.783064e+002, 7.552389e+001
7.787885e+002, 7.580513e+001
7.792706e+002, 7.595371e+001
7.797527e+002, 7.593765e+001
7.802349e+002, 7.582719e+001
7.807170e+002, 7.540857e+001
7.811991e+002, 7.506567e+001
7.816812e+002, 7.517836e+001
7.821633e+002, 7.625072e+001
7.826454e+002, 7.688872e+001
7.831276e+002, 7.692995e+001
7.836097e+002, 7.673155e+001
7.840918e+002, 7.665161e+001
7.845739e+002, 7.669463e+001
7.850560e+002, 7.655271e+001
7.855381e+002, 7.615041e+001
7.860203e+002, 7.581332e+001
7.865024e+002, 7.608105e+001
7.869845e+002, 7.661666e+001
7.874666e+002, 7.678514e+001
7.879487e+002, 7.630390e+001
7.884308e+002, 7.591685e+001
7.889130e+002, 7.612812e+001
7.893951e+002, 7.653889e+001
7.898772e+002, 7.673182e+001
7.903593e+002, 7.645273e+001
7.908414e+002, 7.636747e+001
7.913235e+002, 7.656194e+001
7.918057e+002, 7.683759e+001
7.922878e+002, 7.694039e+001
7.927699e+002, 7.688366e+001
7.932520e+002, 7.687015e+001
7.937341e+002, 7.693706e+001
7.942162e+002, 7.701211e+001
7.946984e+002, 7.697587e+001
7.951805e+002, 7.690852e+001
7.956626e+002, 7.695728e+001
7.961447e+002, 7.725427e+001
7.966268e+002, 7.744724e+001
7.971089e+002, 7.740102e+001
7.975911e+002, 7.718970e+001
7.980732e+002, 7.687679e+001
7.985553e+002, 7.629342e+001
7.990374e+002, 7.603741e+001
7.995195e+002, 7.622923e+001
8.000016e+002, 7.658935e+001
8.004838e+002, 7.678958e+001
8.009659e+002, 7.684521e+001
8.014480e+002, 7.682734e+001
8.019301e+002, 7.672819e+001
8.024122e+002, 7.665154e+001
8.028943e+002, 7.669121e+001
8.033765e+002, 7.681823e+001
8.038586e+002, 7.700101e+001
8.043407e+002, 7.727738e+001
8.048228e+002, 7.752369e+001
8.053049e+002, 7.778459e+001
8.057870e+002, 7.795997e+001
8.062692e+002, 7.790992e+001
8.067513e+002, 7.753918e+001
8.072334e+002, 7.732076e+001
8.077155e+002, 7.731089e+001
8.081976e+002, 7.741850e+001
8.086797e+002, 7.758057e+001
8.091619e+002, 7.776467e+001
8.096440e+002, 7.788319e+001
8.101261e+002, 7.792165e+001
8.106082e+002, 7.787334e+001
8.110903e+002, 7.757109e+001
8.115724e+002, 7.725754e+001
8.120546e+002, 7.721834e+001
8.125367e+002, 7.791509e+001
8.130188e+002, 7.819410e+001
8.135009e+002, 7.775178e+001
8.139830e+002, 7.713674e+001
8.144651e+002, 7.698323e+001
8.149473e+002, 7.732436e+001
8.154294e+002, 7.755466e+001
8.159115e+002, 7.760065e+001
8.163936e+002, 7.759359e+001
8.168757e+002, 7.766415e+001
8.173578e+002, 7.779281e+001
8.178400e+002, 7.797466e+001
8.183221e+002, 7.825840e+001
8.188042e+002, 7.841541e+001
8.192863e+002, 7.821609e+001
8.197684e+002, 7.790524e+001
8.202505e+002, 7.771389e+001
8.207327e+002, 7.766840e+001
8.212148e+002, 7.771345e+001
8.216969e+002, 7.789368e+001
8.221790e+002, 7.807946e+001
8.226611e+002, 7.806021e+001
8.231432e+002, 7.789208e+001
8.236254e+002, 7.801051e+001
8.241075e+002, 7.850046e+001
8.245896e+002, 7.892726e+001
8.250717e+002, 7.878709e+001
8.255538e+002, 7.841387e+001
8.260359e+002, 7.818829e+001
8.265181e+002, 7.821592e+001
8.270002e+002, 7.826440e+001
8.274823e+002, 7.833007e+001
8.279644e+002, 7.836331e+001
8.284465e+002, 7.832170e+001
8.289286e+002, 7.818502e+001
8.294108e+002, 7.807519e+001
8.298929e+002, 7.798743e+001
8.303750e+002, 7.796069e+001
8.308571e+002, 7.804532e+001
8.313392e+002, 7.821474e+001
8.318214e+002, 7.842381e+001
8.323035e+002, 7.866728e+001
8.327856e+002, 7.891793e+001
8.332677e+002, 7.929887e+001
8.337498e+002, 7.957554e+001
8.342319e+002, 7.949666e+001
8.347141e+002, 7.887189e+001
8.351962e+002, 7.861520e+001
8.356783e+002, 7.890774e+001
8.361604e+002, 7.925811e+001
8.366425e+002, 7.917580e+001
8.371246e+002, 7.873335e+001
8.376068e+002, 7.935933e+001
8.380889e+002, 8.106971e+001
8.385710e+002, 8.237143e+001
8.390531e+002, 8.162449e+001
8.395352e+002, 8.016780e+001
8.400173e+002, 7.943600e+001
8.404995e+002, 7.952127e+001
8.409816e+002, 7.972321e+001
8.414637e+002, 7.989670e+001
8.419458e+002, 8.005521e+001
8.424279e+002, 8.023011e+001
8.429100e+002, 8.041837e+001
8.433922e+002, 8.043275e+001
8.438743e+002, 8.023807e+001
8.443564e+002, 8.005827e+001
8.448385e+002, 8.004409e+001
8.453206e+002, 8.013515e+001
8.458027e+002, 8.018739e+001
8.462849e+002, 8.021140e+001
8.467670e+002, 8.026780e+001
8.472491e+002, 8.034929e+001
8.477312e+002, 8.051151e+001
8.482133e+002, 8.090844e+001
8.486954e+002, 8.148119e+001
8.491776e+002, 8.168161e+001
8.496597e+002, 8.129899e+001
8.501418e+002, 8.095425e+001
8.506239e+002, 8.085550e+001
8.511060e+002, 8.094662e+001
8.515881e+002, 8.110416e+001
8.520703e+002, 8.130907e+001
8.525524e+002, 8.139420e+001
8.530345e+002, 8.119352e+001
8.535166e+002, 8.091202e+001
8.539987e+002, 8.059399e+001
8.544808e+002, 8.034094e+001
8.549630e+002, 8.041254e+001
8.554451e+002, 8.130546e+001
8.559272e+002, 8.201427e+001
8.564093e+002, 8.230977e+001
8.568914e+002, 8.231121e+001
8.573735e+002, 8.227641e+001
8.578557e+002, 8.220061e+001
8.583378e+002, 8.212451e+001
8.588199e+002, 8.203127e+001
8.593020e+002, 8.199851e+001
8.597841e+002, 8.225734e+001
8.602662e+002, 8.264999e+001
8.607484e+002, 8.282829e+001
8.612305e+002, 8.240449e+001
8.617126e+002, 8.215218e+001
8.621947e+002, 8.262141e+001
8.626768e+002, 8.331843e+001
8.631589e+002, 8.352195e+001
8.636411e+002, 8.301199e+001
8.641232e+002, 8.263013e+001
8.646053e+002, 8.244852e+001
8.650874e+002, 8.242036e+001
8.655695e+002, 8.256595e+001
8.660516e+002, 8.281587e+001
8.665338e+002, 8.292762e+001
8.670159e+002, 8.282533e+001
8.674980e+002, 8.274594e+001
8.679801e+002, 8.289268e+001
8.684622e+002, 8.312440e+001
8.689443e+002, 8.329428e+001
8.694265e+002, 8.330433e+001
8.699086e+002, 8.347356e+001
8.703907e+002, 8.394109e+001
8.708728e+002, 8.435059e+001
8.713549e+002, 8.431705e+001
8.718370e+002, 8.389411e+001
8.723192e+002, 8.374122e+001
8.728013e+002, 8.388447e+001
8.732834e+002, 8.411470e+001
8.737655e+002, 8.420923e+001
8.742476e+002, 8.433697e+001
8.747297e+002, 8.479630e+001
8.752119e+002, 8.563029e+001
8.756940e+002, 8.607113e+001
8.761761e+002, 8.560623e+001
8.766582e+002, 8.503388e+001
8.771403e+002, 8.461187e+001
8.776224e+002, 8.434232e+001
8.781046e+002, 8.432571e+001
8.785867e+002, 8.457696e+001
8.790688e+002, 8.476295e+001
8.795509e+002, 8.457436e+001
8.800330e+002, 8.426515e+001
8.805151e+002, 8.422054e+001
8.809973e+002, 8.438259e+001
8.814794e+002, 8.452144e+001
8.819615e+002, 8.435681e+001
8.824436e+002, 8.435619e+001
8.829257e+002, 8.489412e+001
8.834078e+002, 8.570415e+001
8.838900e+002, 8.600919e+001
8.843721e+002, 8.571294e+001
8.848542e+002, 8.540195e+001
8.853363e+002, 8.520329e+001
8.858184e+002, 8.514433e+001
8.863005e+002, 8.534334e+001
8.867827e+002, 8.572028e+001
8.872648e+002, 8.606750e+001
8.877469e+002, 8.627642e+001
8.882290e+002, 8.648718e+001
8.887111e+002, 8.691626e+001
8.891932e+002, 8.731634e+001
8.896754e+002, 8.728110e+001
8.901575e+002, 8.646859e+001
8.906396e+002, 8.615385e+001
8.911217e+002, 8.653468e+001
8.916038e+002, 8.720324e+001
8.920859e+002, 8.777775e+001
8.925681e+002, 8.822594e+001
8.930502e+002, 8.836423e+001
8.935323e+002, 8.810526e+001
8.940144e+002, 8.796868e+001
8.944965e+002, 8.856384e+001
8.949786e+002, 8.927328e+001
8.954608e+002, 8.951099e+001
8.959429e+002, 8.899726e+001
8.964250e+002, 8.883930e+001
8.969071e+002, 8.912455e+001
8.973892e+002, 8.959158e+001
8.978713e+002, 9.011619e+001
8.983535e+002, 9.068079e+001
8.988356e+002, 9.119978e+001
8.993177e+002, 9.166332e+001
8.997998e+002, 9.194059e+001
9.002819e+002, 9.176674e+001
9.007640e+002, 9.152217e+001
9.012462e+002, 9.149950e+001
9.017283e+002, 9.169329e+001
9.022104e+002, 9.189243e+001
9.026925e+002, 9.202666e+001
9.031746e+002, 9.223756e+001
9.036567e+002, 9.258688e+001
9.041389e+002, 9.303286e+001
9.046210e+002, 9.348724e+001
9.051031e+002, 9.393844e+001
9.055852e+002, 9.429335e+001
9.060673e+002, 9.445005e+001
9.065494e+002, 9.458304e+001
9.070316e+002, 9.484574e+001
9.075137e+002, 9.519576e+001
9.079958e+002, 9.556318e+001
9.084779e+002, 9.593613e+001
9.089600e+002, 9.631184e+001
9.094421e+002, 9.667768e+001
9.099243e+002, 9.705671e+001
9.104064e+002, 9.753349e+001
9.108885e+002, 9.809364e+001
9.113706e+002, 9.851307e+001
9.118527e+002, 9.875587e+001
9.123348e+002, 9.887673e+001
9.128170e+002, 9.878570e+001
9.132991e+002, 9.867901e+001
9.137812e+002, 9.876992e+001
9.142633e+002, 9.909883e+001
9.147454e+002, 9.962391e+001
9.152275e+002, 1.005127e+002
9.157097e+002, 1.013834e+002
9.161918e+002, 1.020304e+002
9.166739e+002, 1.024552e+002
9.171560e+002, 1.026273e+002
9.176381e+002, 1.025415e+002
9.181202e+002, 1.026966e+002
9.186024e+002, 1.037170e+002
9.190845e+002, 1.049648e+002
9.195666e+002, 1.057199e+002
9.200487e+002, 1.060396e+002
9.205308e+002, 1.064218e+002
9.210129e+002, 1.071196e+002
9.214951e+002, 1.077468e+002
9.219772e+002, 1.081026e+002
9.224593e+002, 1.083658e+002
9.229414e+002, 1.091776e+002
9.234235e+002, 1.105181e+002
9.239056e+002, 1.117041e+002
9.243878e+002, 1.124440e+002
9.248699e+002, 1.130728e+002
9.253520e+002, 1.139574e+002
9.258341e+002, 1.150056e+002
9.263162e+002, 1.160857e+002
9.267983e+002, 1.171528e+002
9.272805e+002, 1.182617e+002
9.277626e+002, 1.193702e+002
9.282447e+002, 1.205846e+002
9.287268e+002, 1.220911e+002
9.292089e+002, 1.238899e+002
9.296910e+002, 1.253003e+002
9.301732e+002, 1.262166e+002
9.306553e+002, 1.272998e+002
9.311374e+002, 1.293818e+002
9.316195e+002, 1.318187e+002
9.321016e+002, 1.338168e+002
9.325837e+002, 1.352231e+002
9.330659e+002, 1.370653e+002
9.335480e+002, 1.397198e+002
9.340301e+002, 1.426730e+002
9.345122e+002, 1.457245e+002
9.349943e+002, 1.489042e+002
9.354764e+002, 1.522001e+002
9.359586e+002, 1.556539e+002
9.364407e+002, 1.593564e+002
9.369228e+002, 1.634575e+002
9.374049e+002, 1.678345e+002
9.378870e+002, 1.723394e+002
9.383691e+002, 1.770505e+002
9.388513e+002, 1.820327e+002
9.393334e+002, 1.872632e+002
9.398155e+002, 1.929609e+002
9.402976e+002, 1.990733e+002
9.407797e+002, 2.056534e+002
9.412618e+002, 2.125390e+002
9.417440e+002, 2.197719e+002
9.422261e+002, 2.279654e+002
9.427082e+002, 2.374092e+002
9.431903e+002, 2.472619e+002
9.436724e+002, 2.561782e+002
9.441545e+002, 2.652652e+002
9.446367e+002, 2.758602e+002
9.451188e+002, 2.884413e+002
9.456009e+002, 3.012147e+002
9.460830e+002, 3.138288e+002
9.465651e+002, 3.268199e+002
9.470472e+002, 3.404430e+002
9.475294e+002, 3.548232e+002
9.480115e+002, 3.695112e+002
9.484936e+002, 3.845645e+002
9.489757e+002, 4.000909e+002
9.494578e+002, 4.163937e+002
9.499399e+002, 4.329845e+002
9.504221e+002, 4.497184e+002
9.509042e+002, 4.665268e+002
9.513863e+002, 4.827936e+002
9.518684e+002, 4.987175e+002
9.523505e+002, 5.140318e+002
9.528326e+002, 5.288799e+002
9.533148e+002, 5.428930e+002
9.537969e+002, 5.552670e+002
9.542790e+002, 5.661717e+002
9.547611e+002, 5.766019e+002
9.552432e+002, 5.871888e+002
9.557253e+002, 5.955764e+002
9.562075e+002, 6.000201e+002
9.566896e+002, 6.013947e+002
9.571717e+002, 6.005472e+002
9.576538e+002, 5.977224e+002
9.581359e+002, 5.922220e+002
9.586180e+002, 5.838510e+002
9.591002e+002, 5.731145e+002
9.595823e+002, 5.601198e+002
9.600644e+002, 5.450762e+002
9.605465e+002, 5.284202e+002
9.610286e+002, 5.102236e+002
9.615107e+002, 4.916171e+002
9.619929e+002, 4.730237e+002
9.624750e+002, 4.541732e+002
9.629571e+002, 4.343082e+002
9.634392e+002, 4.139780e+002
9.639213e+002, 3.944183e+002
9.644034e+002, 3.757387e+002
9.648856e+002, 3.581583e+002
9.653677e+002, 3.418423e+002
9.658498e+002, 3.263421e+002
9.663319e+002, 3.105608e+002
9.668140e+002, 2.949688e+002
9.672961e+002, 2.809673e+002
9.677783e+002, 2.690131e+002
9.682604e+002, 2.580540e+002
9.687425e+002, 2.479847e+002
9.692246e+002, 2.384448e+002
9.697067e+002, 2.288735e+002
9.701888e+002, 2.192799e+002
9.706710e+002, 2.107173e+002
9.711531e+002, 2.032797e+002
9.716352e+002, 1.966050e+002
9.721173e+002, 1.908391e+002
9.725994e+002, 1.855367e+002
9.730815e+002, 1.799550e+002
9.735637e+002, 1.741978e+002
9.740458e+002, 1.688612e+002
9.745279e+002, 1.641973e+002
9.750100e+002, 1.599703e+002
9.754921e+002, 1.561435e+002
9.759742e+002, 1.526465e+002
9.764564e+002, 1.493074e+002
9.769385e+002, 1.460993e+002
9.774206e+002, 1.429565e+002
9.779027e+002, 1.398553e+002
9.783848e+002, 1.369443e+002
9.788669e+002, 1.342393e+002
9.793491e+002, 1.318513e+002
9.798312e+002, 1.299691e+002
9.803133e+002, 1.289865e+002
9.807954e+002, 1.275458e+002
9.812775e+002, 1.253490e+002
9.817596e+002, 1.231061e+002
9.822418e+002, 1.211926e+002
9.827239e+002, 1.196262e+002
9.832060e+002, 1.187126e+002
9.836881e+002, 1.183634e+002
9.841702e+002, 1.178206e+002
9.846523e+002, 1.163169e+002
9.851345e+002, 1.147677e+002
9.856166e+002, 1.137641e+002
9.860987e+002, 1.131708e+002
9.865808e+002, 1.123829e+002
9.870629e+002, 1.112789e+002
9.875450e+002, 1.103510e+002
9.880272e+002, 1.096809e+002
9.885093e+002, 1.092587e+002
9.889914e+002, 1.093685e+002
9.894735e+002, 1.096553e+002
9.899556e+002, 1.092744e+002
9.904377e+002, 1.078386e+002
9.909199e+002, 1.066286e+002
9.914020e+002, 1.062897e+002
9.918841e+002, 1.062766e+002
9.923662e+002, 1.062202e+002
9.928483e+002, 1.061161e+002
9.933304e+002, 1.061640e+002
9.938126e+002, 1.063663e+002
9.942947e+002, 1.066768e+002
9.947768e+002, 1.072834e+002
9.952589e+002, 1.078238e+002
9.957410e+002, 1.076143e+002
9.962231e+002, 1.069704e+002
9.967053e+002, 1.068011e+002
9.971874e+002, 1.078753e+002
9.976695e+002, 1.087583e+002
9.981516e+002, 1.091678e+002
9.986337e+002, 1.094052e+002
9.991158e+002, 1.099287e+002
9.995980e+002, 1.107154e+002
1.000080e+003, 1.115679e+002
1.000562e+003, 1.124721e+002
1.001044e+003, 1.134026e+002
1.001526e+003, 1.141465e+002
1.002009e+003, 1.150670e+002
1.002491e+003, 1.164865e+002
1.002973e+003, 1.184856e+002
1.003455e+003, 1.206553e+002
1.003937e+003, 1.230290e+002
1.004419e+003, 1.254535e+002
1.004901e+003, 1.278123e+002
1.005383e+003, 1.302409e+002
1.005865e+003, 1.330383e+002
1.006348e+003, 1.361862e+002
1.006830e+003, 1.397180e+002
1.007312e+003, 1.438433e+002
1.007794e+003, 1.480603e+002
1.008276e+003, 1.520570e+002
1.008758e+003, 1.562374e+002
1.009240e+003, 1.610940e+002
1.009722e+003, 1.666232e+002
1.010205e+003, 1.726908e+002
1.010687e+003, 1.793858e+002
1.011169e+003, 1.863986e+002
1.011651e+003, 1.934838e+002
1.012133e+003, 2.008126e+002
1.012615e+003, 2.085773e+002
1.013097e+003, 2.167787e+002
1.013579e+003, 2.256670e+002
1.014061e+003, 2.351904e+002
1.014544e+003, 2.455195e+002
1.015026e+003, 2.568226e+002
1.015508e+003, 2.687543e+002
1.015990e+003, 2.811269e+002
1.016472e+003, 2.936840e+002
1.016954e+003, 3.053130e+002
1.017436e+003, 3.156820e+002
1.017918e+003, 3.253398e+002
1.018401e+003, 3.358585e+002
1.018883e+003, 3.450150e+002
1.019365e+003, 3.507098e+002
1.019847e+003, 3.526805e+002
1.020329e+003, 3.525771e+002
1.020811e+003, 3.502353e+002
1.021293e+003, 3.467338e+002
1.021775e+003, 3.420923e+002
1.022257e+003, 3.372110e+002
1.022740e+003, 3.330228e+002
1.023222e+003, 3.297215e+002
1.023704e+003, 3.279284e+002
1.024186e+003, 3.282249e+002
1.024668e+003, 3.296970e+002
1.025150e+003, 3.321212e+002
1.025632e+003, 3.355131e+002
1.026114e+003, 3.406982e+002
1.026596e+003, 3.472230e+002
1.027079e+003, 3.524142e+002
1.027561e+003, 3.561863e+002
1.028043e+003, 3.556530e+002
1.028525e+003, 3.487562e+002
1.029007e+003, 3.362750e+002
1.029489e+003, 3.176968e+002
1.029971e+003, 2.927391e+002
1.030453e+003, 2.680607e+002
1.030936e+003, 2.430644e+002
1.031418e+003, 2.201032e+002
1.031900e+003, 1.997999e+002
1.032382e+003, 1.821552e+002
1.032864e+003, 1.677566e+002
1.033346e+003, 1.561136e+002
1.033828e+003, 1.464383e+002
1.034310e+003, 1.391920e+002
1.034792e+003, 1.327632e+002
1.035275e+003, 1.266395e+002
1.035757e+003, 1.212970e+002
1.036239e+003, 1.172410e+002
1.036721e+003, 1.145022e+002
1.037203e+003, 1.120540e+002
1.037685e+003, 1.099029e+002
1.038167e+003, 1.077966e+002
1.038649e+003, 1.053413e+002
1.039132e+003, 1.030539e+002
1.039614e+003, 1.014415e+002
1.040096e+003, 1.003919e+002
1.040578e+003, 9.918055e+001
1.041060e+003, 9.763139e+001
1.041542e+003, 9.625013e+001
1.042024e+003, 9.513274e+001
1.042506e+003, 9.416634e+001
1.042989e+003, 9.312732e+001
1.043471e+003, 9.210296e+001
1.043953e+003, 9.129111e+001
1.044435e+003, 9.074497e+001
1.044917e+003, 9.024844e+001
1.045399e+003, 8.977946e+001
1.045881e+003, 8.926160e+001
1.046363e+003, 8.861262e+001
1.046845e+003, 8.787367e+001
1.047328e+003, 8.738924e+001
1.047810e+003, 8.714605e+001
1.048292e+003, 8.700121e+001
1.048774e+003, 8.698847e+001
1.049256e+003, 8.690800e+001
1.049738e+003, 8.652199e+001
1.050220e+003, 8.598764e+001
1.050702e+003, 8.555412e+001
1.051184e+003, 8.525108e+001
1.051667e+003, 8.503279e+001
1.052149e+003, 8.491397e+001
1.052631e+003, 8.482556e+001
1.053113e+003, 8.470729e+001
1.053595e+003, 8.457204e+001
1.054077e+003, 8.445692e+001
1.054559e+003, 8.435469e+001
1.055041e+003, 8.421157e+001
1.055523e+003, 8.382555e+001
1.056006e+003, 8.363471e+001
1.056488e+003, 8.382686e+001
1.056970e+003, 8.421272e+001
1.057452e+003, 8.437866e+001
1.057934e+003, 8.435865e+001
1.058416e+003, 8.449034e+001
1.058898e+003, 8.486678e+001
1.059380e+003, 8.522053e+001
1.059863e+003, 8.527462e+001
1.060345e+003, 8.525216e+001
1.060827e+003, 8.533223e+001
1.061309e+003, 8.552665e+001
1.061791e+003, 8.571857e+001
1.062273e+003, 8.585543e+001
1.062755e+003, 8.625957e+001
1.063237e+003, 8.720167e+001
1.063719e+003, 8.830618e+001
1.064202e+003, 8.894844e+001
1.064684e+003, 8.933554e+001
1.065166e+003, 8.986655e+001
1.065648e+003, 9.071906e+001
1.066130e+003, 9.160148e+001
1.066612e+003, 9.238149e+001
1.067094e+003, 9.332235e+001
1.067576e+003, 9.469156e+001
1.068059e+003, 9.643095e+001
1.068541e+003, 9.817350e+001
1.069023e+003, 9.991324e+001
1.069505e+003, 1.016108e+002
1.069987e+003, 1.030419e+002
1.070469e+003, 1.046241e+002
1.070951e+003, 1.065689e+002
1.071433e+003, 1.087908e+002
1.071916e+003, 1.111389e+002
1.072398e+003, 1.136053e+002
1.072880e+003, 1.160973e+002
1.073362e+003, 1.185754e+002
1.073844e+003, 1.211135e+002
1.074326e+003, 1.237796e+002
1.074808e+003, 1.265114e+002
1.075290e+003, 1.293303e+002
1.075772e+003, 1.322194e+002
1.076255e+003, 1.348273e+002
1.076737e+003, 1.374276e+002
1.077219e+003, 1.390494e+002
1.077701e+003, 1.392871e+002
1.078183e+003, 1.384744e+002
1.078665e+003, 1.373094e+002
1.079147e+003, 1.356052e+002
1.079629e+003, 1.328658e+002
1.080111e+003, 1.287007e+002
1.080594e+003, 1.241905e+002
1.081076e+003, 1.191540e+002
1.081558e+003, 1.143956e+002
1.082040e+003, 1.105384e+002
1.082522e+003, 1.074868e+002
1.083004e+003, 1.044088e+002
1.083486e+003, 1.013141e+002
1.083968e+003, 9.853787e+001
1.084450e+003, 9.618745e+001
1.084933e+003, 9.428716e+001
1.085415e+003, 9.301501e+001
1.085897e+003, 9.216335e+001
1.086379e+003, 9.135266e+001
1.086861e+003, 9.060181e+001
1.087343e+003, 8.975274e+001
1.087825e+003, 8.876413e+001
1.088307e+003, 8.791203e+001
1.088790e+003, 8.758398e+001
1.089272e+003, 8.743284e+001
1.089754e+003, 8.701475e+001
1.090236e+003, 8.636321e+001
1.090718e+003, 8.576598e+001
1.091200e+003, 8.515932e+001
1.091682e+003, 8.484868e+001
1.092164e+003, 8.498209e+001
1.092646e+003, 8.525529e+001
1.093129e+003, 8.514971e+001
1.093611e+003, 8.482365e+001
1.094093e+003, 8.471613e+001
1.094575e+003, 8.491504e+001
1.095057e+003, 8.497469e+001
1.095539e+003, 8.448864e+001
1.096021e+003, 8.404681e+001
1.096503e+003, 8.393645e+001
1.096986e+003, 8.405602e+001
1.097468e+003, 8.401716e+001
1.097950e+003, 8.383474e+001
1.098432e+003, 8.363094e+001
1.098914e+003, 8.342501e+001
1.099396e+003, 8.325964e+001
1.099878e+003, 8.320290e+001
1.100360e+003, 8.317717e+001
1.100843e+003, 8.307287e+001
1.101325e+003, 8.285627e+001
1.101807e+003, 8.290810e+001
1.102289e+003, 8.325365e+001
1.102771e+003, 8.360186e+001
1.103253e+003, 8.386936e+001
1.103735e+003, 8.397038e+001
1.104217e+003, 8.356776e+001
1.104699e+003, 8.297647e+001
1.105182e+003, 8.281075e+001
1.105664e+003, 8.364722e+001
1.106146e+003, 8.404518e+001
1.106628e+003, 8.389979e+001
1.107110e+003, 8.350625e+001
1.107592e+003, 8.289576e+001
1.108074e+003, 8.231884e+001
1.108556e+003, 8.239350e+001
1.109038e+003, 8.302401e+001
1.109521e+003, 8.359148e+001
1.110003e+003, 8.388415e+001
1.110485e+003, 8.404583e+001
1.110967e+003, 8.408610e+001
1.111449e+003, 8.405155e+001
1.111931e+003, 8.393538e+001
1.112413e+003, 8.379541e+001
1.112895e+003, 8.392345e+001
1.113377e+003, 8.435770e+001
1.113860e+003, 8.487254e+001
1.114342e+003, 8.560001e+001
1.114824e+003, 8.608658e+001
1.115306e+003, 8.592510e+001
1.115788e+003, 8.536470e+001
1.116270e+003, 8.522459e+001
1.116752e+003, 8.549693e+001
1.117234e+003, 8.578840e+001
1.117717e+003, 8.600066e+001
1.118199e+003, 8.620354e+001
1.118681e+003, 8.651808e+001
1.119163e+003, 8.681101e+001
1.119645e+003, 8.684847e+001
1.120127e+003, 8.660032e+001
1.120609e+003, 8.693916e+001
1.121091e+003, 8.798105e+001
1.121573e+003, 8.886115e+001
1.122056e+003, 8.913832e+001
1.122538e+003, 8.919259e+001
1.123020e+003, 8.951609e+001
1.123502e+003, 8.995988e+001
1.123984e+003, 9.025891e+001
1.124466e+003, 9.008940e+001
1.124948e+003, 9.052162e+001
1.125430e+003, 9.182460e+001
1.125913e+003, 9.305952e+001
1.126395e+003, 9.339642e+001
1.126877e+003, 9.332500e+001
1.127359e+003, 9.400613e+001
1.127841e+003, 9.522397e+001
1.128323e+003, 9.637217e+001
1.128805e+003, 9.708382e+001
1.129287e+003, 9.791624e+001
1.129770e+003, 9.894690e+001
1.130252e+003, 1.001026e+002
1.130734e+003, 1.012969e+002
1.131216e+003, 1.025593e+002
1.131698e+003, 1.041529e+002
1.132180e+003, 1.060296e+002
1.132662e+003, 1.077746e+002
1.133144e+003, 1.089236e+002
1.133626e+003, 1.101923e+002
1.134109e+003, 1.118802e+002
1.134591e+003, 1.138222e+002
1.135073e+003, 1.158551e+002
1.135555e+003, 1.179431e+002
1.136037e+003, 1.197304e+002
1.136519e+003, 1.211686e+002
1.137001e+003, 1.229416e+002
1.137483e+003, 1.260354e+002
1.137965e+003, 1.291523e+002
1.138448e+003, 1.313431e+002
1.138930e+003, 1.329203e+002
1.139412e+003, 1.347925e+002
1.139894e+003, 1.369919e+002
1.140376e+003, 1.392132e+002
1.140858e+003, 1.414251e+002
1.141340e+003, 1.434854e+002
1.141822e+003, 1.451613e+002
1.142304e+003, 1.467194e+002
1.142787e+003, 1.485506e+002
1.143269e+003, 1.506433e+002
1.143751e+003, 1.521308e+002
1.144233e+003, 1.529511e+002
1.144715e+003, 1.534324e+002
1.145197e+003, 1.536698e+002
1.145679e+003, 1.536156e+002
1.146161e+003, 1.533216e+002
1.146644e+003, 1.526353e+002
1.147126e+003, 1.512564e+002
1.147608e+003, 1.488926e+002
1.148090e+003, 1.467938e+002
1.148572e+003, 1.450723e+002
1.149054e+003, 1.433554e+002
1.149536e+003, 1.416112e+002
1.150018e+003, 1.396013e+002
1.150500e+003, 1.365432e+002
1.150983e+003, 1.329560e+002
1.151465e+003, 1.298674e+002
1.151947e+003, 1.278694e+002
1.152429e+003, 1.257373e+002
1.152911e+003, 1.232835e+002
1.153393e+003, 1.208946e+002
1.153875e+003, 1.188602e+002
1.154357e+003, 1.170826e+002
1.154840e+003, 1.153203e+002
1.155322e+003, 1.135701e+002
1.155804e+003, 1.119071e+002
1.156286e+003, 1.104116e+002
1.156768e+003, 1.089006e+002
1.157250e+003, 1.072884e+002
1.157732e+003, 1.057309e+002
1.158214e+003, 1.043667e+002
1.158697e+003, 1.031752e+002
1.159179e+003, 1.020855e+002
1.159661e+003, 1.011010e+002
1.160143e+003, 1.002824e+002
1.160625e+003, 9.980463e+001
1.161107e+003, 9.931203e+001
1.161589e+003, 9.862983e+001
1.162071e+003, 9.794212e+001
1.162553e+003, 9.759023e+001
1.163036e+003, 9.748644e+001
1.163518e+003, 9.689207e+001
1.164000e+003, 9.578812e+001
1.164482e+003, 9.481639e+001
1.164964e+003, 9.446339e+001
1.165446e+003, 9.423519e+001
1.165928e+003, 9.398935e+001
1.166410e+003, 9.366380e+001
1.166892e+003, 9.304762e+001
1.167375e+003, 9.217661e+001
1.167857e+003, 9.171376e+001
1.168339e+003, 9.176119e+001
1.168821e+003, 9.177818e+001
1.169303e+003, 9.126773e+001
1.169785e+003, 9.069949e+001
1.170267e+003, 9.039573e+001
1.170749e+003, 9.026934e+001
1.171231e+003, 9.005460e+001
1.171714e+003, 8.975093e+001
1.172196e+003, 8.954639e+001
1.172678e+003, 8.949679e+001
1.173160e+003, 8.944505e+001
1.173642e+003, 8.928773e+001
1.174124e+003, 8.905106e+001
1.174606e+003, 8.868039e+001
1.175088e+003, 8.822824e+001
1.175571e+003, 8.803767e+001
1.176053e+003, 8.812021e+001
1.176535e+003, 8.823913e+001
1.177017e+003, 8.836118e+001
1.177499e+003, 8.838372e+001
1.177981e+003, 8.813725e+001
1.178463e+003, 8.779371e+001
1.178945e+003, 8.749210e+001
1.179427e+003, 8.724274e+001
1.179910e+003, 8.713077e+001
1.180392e+003, 8.717220e+001
1.180874e+003, 8.717368e+001
1.181356e+003, 8.705052e+001
1.181838e+003, 8.688664e+001
1.182320e+003, 8.670614e+001
1.182802e+003, 8.657345e+001
1.183284e+003, 8.657791e+001
1.183767e+003, 8.673895e+001
1.184249e+003, 8.699144e+001
1.184731e+003, 8.739499e+001
1.185213e+003, 8.747289e+001
1.185695e+003, 8.682097e+001
1.186177e+003, 8.601633e+001
1.186659e+003, 8.559970e+001
1.187141e+003, 8.552354e+001
1.187624e+003, 8.581326e+001
1.188106e+003, 8.667524e+001
1.188588e+003, 8.699955e+001
1.189070e+003, 8.668154e+001
1.189552e+003, 8.642485e+001
1.190034e+003, 8.676649e+001
1.190516e+003, 8.724436e+001
1.190998e+003, 8.710420e+001
1.191480e+003, 8.674474e+001
1.191963e+003, 8.691209e+001
1.192445e+003, 8.816765e+001
1.192927e+003, 8.870470e+001
1.193409e+003, 8.839412e+001
1.193891e+003, 8.795142e+001
1.194373e+003, 8.774438e+001
1.194855e+003, 8.777980e+001
1.195337e+003, 8.825150e+001
1.195819e+003, 8.894026e+001
1.196302e+003, 8.933630e+001
1.196784e+003, 8.911037e+001
1.197266e+003, 8.923531e+001
1.197748e+003, 8.982361e+001
1.198230e+003, 9.035674e+001
1.198712e+003, 9.021546e+001
1.199194e+003, 8.991518e+001
1.199676e+003, 9.025406e+001
1.200158e+003, 9.100685e+001
1.200641e+003, 9.152556e+001
1.201123e+003, 9.160783e+001
1.201605e+003, 9.168388e+001
1.202087e+003, 9.177085e+001
1.202569e+003, 9.187820e+001
1.203051e+003, 9.201911e+001
1.203533e+003, 9.218104e+001
1.204015e+003, 9.236430e+001
1.204498e+003, 9.255522e+001
1.204980e+003, 9.271901e+001
1.205462e+003, 9.290371e+001
1.205944e+003, 9.289426e+001
1.206426e+003, 9.260445e+001
1.206908e+003, 9.238543e+001
1.207390e+003, 9.271548e+001
1.207872e+003, 9.323007e+001
1.208354e+003, 9.341484e+001
1.208837e+003, 9.333797e+001
1.209319e+003, 9.341356e+001
1.209801e+003, 9.369292e+001
1.210283e+003, 9.414391e+001
1.210765e+003, 9.483127e+001
1.211247e+003, 9.543890e+001
1.211729e+003, 9.547215e+001
1.212211e+003, 9.535374e+001
1.212694e+003, 9.566329e+001
1.213176e+003, 9.635336e+001
1.213658e+003, 9.693589e+001
1.214140e+003, 9.733855e+001
1.214622e+003, 9.773927e+001
1.215104e+003, 9.818834e+001
1.215586e+003, 9.854128e+001
1.216068e+003, 9.839836e+001
1.216551e+003, 9.824058e+001
1.217033e+003, 9.878049e+001
1.217515e+003, 9.994790e+001
1.217997e+003, 1.008185e+002
1.218479e+003, 1.012809e+002
1.218961e+003, 1.016319e+002
1.219443e+003, 1.018930e+002
1.219925e+003, 1.021945e+002
1.220407e+003, 1.028424e+002
1.220890e+003, 1.035011e+002
1.221372e+003, 1.037078e+002
1.221854e+003, 1.034868e+002
1.222336e+003, 1.034388e+002
1.222818e+003, 1.035631e+002
1.223300e+003, 1.040300e+002
1.223782e+003, 1.049826e+002
1.224264e+003, 1.057796e+002
1.224746e+003, 1.054701e+002
1.225229e+003, 1.048109e+002
1.225711e+003, 1.046245e+002
1.226193e+003, 1.049258e+002
1.226675e+003, 1.050244e+002
1.227157e+003, 1.048916e+002
1.227639e+003, 1.046913e+002
1.228121e+003, 1.044604e+002
1.228603e+003, 1.041616e+002
1.229085e+003, 1.036351e+002
1.229568e+003, 1.031174e+002
1.230050e+003, 1.029654e+002
1.230532e+003, 1.031064e+002
1.231014e+003, 1.027428e+002
1.231496e+003, 1.018091e+002
1.231978e+003, 1.009316e+002
1.232460e+003, 1.002522e+002
1.232942e+003, 9.965836e+001
1.233425e+003, 9.898994e+001
1.233907e+003, 9.838880e+001
1.234389e+003, 9.802604e+001
1.234871e+003, 9.785790e+001
1.235353e+003, 9.752660e+001
1.235835e+003, 9.701128e+001
1.236317e+003, 9.695710e+001
1.236799e+003, 9.760898e+001
1.237281e+003, 9.825867e+001
1.237764e+003, 9.820747e+001
1.238246e+003, 9.799843e+001
1.238728e+003, 9.804824e+001
1.239210e+003, 9.832114e+001
1.239692e+003, 9.868641e+001
1.240174e+003, 9.913387e+001
1.240656e+003, 9.952930e+001
1.241138e+003, 9.981736e+001
1.241621e+003, 1.001661e+002
1.242103e+003, 1.005528e+002
1.242585e+003, 1.011983e+002
1.243067e+003, 1.023708e+002
1.243549e+003, 1.038677e+002
1.244031e+003, 1.048770e+002
1.244513e+003, 1.054900e+002
1.244995e+003, 1.064109e+002
1.245478e+003, 1.078613e+002
1.245960e+003, 1.093165e+002
1.246442e+003, 1.103219e+002
1.246924e+003, 1.114168e+002
1.247406e+003, 1.128379e+002
1.247888e+003, 1.145694e+002
1.248370e+003, 1.165004e+002
1.248852e+003, 1.186405e+002
1.249334e+003, 1.211300e+002
1.249817e+003, 1.240292e+002
1.250299e+003, 1.269846e+002
1.250781e+003, 1.294733e+002
1.251263e+003, 1.324496e+002
1.251745e+003, 1.363735e+002
1.252227e+003, 1.409220e+002
1.252709e+003, 1.452995e+002
1.253191e+003, 1.496920e+002
1.253673e+003, 1.546416e+002
1.254156e+003, 1.602675e+002
1.254638e+003, 1.665535e+002
1.255120e+003, 1.734345e+002
1.255602e+003, 1.811483e+002
1.256084e+003, 1.897056e+002
1.256566e+003, 1.991774e+002
1.257048e+003, 2.097835e+002
1.257530e+003, 2.214322e+002
1.258012e+003, 2.336686e+002
1.258495e+003, 2.464086e+002
1.258977e+003, 2.605740e+002
1.259459e+003, 2.765222e+002
1.259941e+003, 2.930664e+002
1.260423e+003, 3.096162e+002
1.260905e+003, 3.270421e+002
1.261387e+003, 3.469416e+002
1.261869e+003, 3.684867e+002
1.262352e+003, 3.908247e+002
1.262834e+003, 4.138495e+002
1.263316e+003, 4.376930e+002
1.263798e+003, 4.624185e+002
1.264280e+003, 4.878204e+002
1.264762e+003, 5.140347e+002
1.265244e+003, 5.397134e+002
1.265726e+003, 5.653497e+002
1.266208e+003, 5.884296e+002
1.266691e+003, 6.064770e+002
1.267173e+003, 6.189283e+002
1.267655e+003, 6.258615e+002
1.268137e+003, 6.275850e+002
1.268619e+003, 6.214366e+002
1.269101e+003, 6.062829e+002
1.269583e+003, 5.851101e+002
1.270065e+003, 5.585367e+002
1.270548e+003, 5.287133e+002
1.271030e+003, 4.968228e+002
1.271512e+003, 4.634930e+002
1.271994e+003, 4.307689e+002
1.272476e+003, 3.988122e+002
1.272958e+003, 3.688645e+002
1.273440e+003, 3.412409e+002
1.273922e+003, 3.161103e+002
1.274405e+003, 2.937941e+002
1.274887e+003, 2.741009e+002
1.275369e+003, 2.566935e+002
1.275851e+003, 2.413244e+002
1.276333e+003, 2.273977e+002
1.276815e+003, 2.149064e+002
1.277297e+003, 2.034928e+002
1.277779e+003, 1.931922e+002
1.278261e+003, 1.840035e+002
1.278744e+003, 1.765013e+002
1.279226e+003, 1.696405e+002
1.279708e+003, 1.628115e+002
1.280190e+003, 1.565308e+002
1.280672e+003, 1.518195e+002
1.281154e+003, 1.482056e+002
1.281636e+003, 1.444354e+002
1.282118e+003, 1.403032e+002
1.282600e+003, 1.364031e+002
1.283083e+003, 1.326815e+002
1.283565e+003, 1.296626e+002
1.284047e+003, 1.276393e+002
1.284529e+003, 1.259724e+002
1.285011e+003, 1.238459e+002
1.285493e+003, 1.214186e+002
1.285975e+003, 1.188154e+002
1.286457e+003, 1.161024e+002
1.286939e+003, 1.139002e+002
1.287422e+003, 1.123704e+002
1.287904e+003, 1.109777e+002
1.288386e+003, 1.096598e+002
1.288868e+003, 1.083371e+002
1.289350e+003, 1.068759e+002
1.289832e+003, 1.054033e+002
1.290314e+003, 1.039680e+002
1.290796e+003, 1.026478e+002
1.291279e+003, 1.016821e+002
1.291761e+003, 1.011120e+002
1.292243e+003, 1.004622e+002
1.292725e+003, 9.966920e+001
1.293207e+003, 9.873662e+001
1.293689e+003, 9.752903e+001
1.294171e+003, 9.631529e+001
1.294653e+003, 9.524168e+001
1.295135e+003, 9.431550e+001
1.295618e+003, 9.355332e+001
1.296100e+003, 9.296305e+001
1.296582e+003, 9.271548e+001
1.297064e+003, 9.281212e+001
1.297546e+003, 9.281900e+001
1.298028e+003, 9.236617e+001
1.298510e+003, 9.189859e+001
1.298992e+003, 9.159624e+001
1.299475e+003, 9.132206e+001
1.299957e+003, 9.082466e+001
1.300439e+003, 9.022894e+001
1.300921e+003, 8.993381e+001
1.301403e+003, 8.991628e+001
1.301885e+003, 8.984827e+001
##END=



