##NAMES=Gonnardite
##RRUFFID=R100080
##IDEAL CHEMISTRY=(Na,Ca)_2_(Si,Al)_5_O_10_&#183;3H_2_O
##LOCALITY=Rio Chiavone nero, Fara, Breganze, Vicenza, Italy
##OWNER=RRUFF
##SOURCE=Ivano Rocchetti
##DESCRIPTION=White spherical aggregate of acicular crystals, associated with colorless analcime
##STATUS=The identification of this mineral has been confirmed by single-crystal X-ray diffraction.
##URL=rruff.info/R100080
90.49219, 15.82921
90.97430, 16.39401
91.45642, 16.59539
91.93854, 15.95919
92.42065, 15.09891
92.90277, 15.04774
93.38489, 16.00186
93.86700, 17.15929
94.34912, 17.54593
94.83124, 17.25277
95.31335, 16.78387
95.79547, 16.33043
96.27759, 15.92560
96.75970, 15.72843
97.24182, 15.84598
97.72394, 16.08100
98.20605, 15.96460
98.68817, 15.46073
99.17029, 14.88958
99.65240, 14.39339
100.1345, 13.95206
100.6166, 13.93157
101.0988, 14.59453
101.5809, 15.80557
102.0630, 16.43336
102.5451, 16.40011
103.0272, 15.93317
103.5093, 15.16992
103.9915, 13.90370
104.4736, 12.89977
104.9557, 12.43856
105.4378, 12.64397
105.9199, 12.68167
106.4020, 12.40023
106.8842, 12.02513
107.3663, 11.96917
107.8484, 12.57368
108.3305, 13.10267
108.8126, 13.29280
109.2947, 12.91444
109.7769, 12.57820
110.2590, 12.25765
110.7411, 11.97351
111.2232, 11.79880
111.7053, 11.91899
112.1874, 12.01924
112.6696, 11.95726
113.1517, 11.55357
113.6338, 11.16578
114.1159, 10.80049
114.5980, 10.47146
115.0801, 10.26427
115.5623, 10.25398
116.0444, 10.34965
116.5265, 10.48042
117.0086, 10.82133
117.4907, 11.02635
117.9728, 10.85556
118.4550, 10.29052
118.9371, 9.860071
119.4192, 10.05752
119.9013, 10.46827
120.3834, 10.56009
120.8655, 9.676785
121.3477, 8.673752
121.8298, 8.182641
122.3119, 8.300887
122.7940, 8.648426
123.2761, 9.132063
123.7582, 9.658845
124.2404, 10.02180
124.7225, 9.963564
125.2046, 9.730692
125.6867, 9.646056
126.1688, 9.801768
126.6509, 10.00080
127.1331, 9.991330
127.6152, 9.815060
128.0973, 9.679234
128.5794, 9.810669
129.0615, 10.09037
129.5436, 10.20711
130.0258, 9.999386
130.5079, 9.701189
130.9900, 9.759747
131.4721, 10.17428
131.9542, 10.67907
132.4363, 11.06182
132.9185, 11.33572
133.4006, 11.59752
133.8827, 11.90747
134.3648, 12.21716
134.8469, 12.28132
135.3290, 12.02768
135.8112, 11.84622
136.2933, 12.20726
136.7754, 13.13454
137.2575, 14.24509
137.7396, 15.55012
138.2217, 17.01330
138.7039, 17.97341
139.1860, 18.19491
139.6681, 18.28716
140.1502, 19.30006
140.6323, 21.49130
141.1144, 23.71106
141.5966, 25.53940
142.0787, 26.90934
142.5608, 28.13021
143.0429, 29.18423
143.5250, 30.09786
144.0071, 30.89923
144.4893, 31.49560
144.9714, 32.11924
145.4535, 32.82562
145.9356, 33.43852
146.4177, 34.53441
146.8998, 36.41401
147.3820, 38.82188
147.8641, 40.73618
148.3462, 41.46558
148.8283, 42.32711
149.3104, 44.06623
149.7925, 47.75755
150.2747, 50.91145
150.7568, 52.99374
151.2389, 54.12904
151.7210, 55.85121
152.2031, 58.23127
152.6852, 61.12874
153.1674, 64.48672
153.6495, 69.15110
154.1316, 73.36301
154.6137, 76.80348
155.0958, 79.45814
155.5779, 81.89270
156.0601, 83.99905
156.5422, 85.99628
157.0243, 88.04660
157.5064, 90.51600
157.9885, 92.72995
158.4706, 94.31130
158.9528, 95.13613
159.4349, 96.31492
159.9170, 98.66066
160.3991, 101.3549
160.8812, 103.4515
161.3633, 103.9088
161.8455, 104.3273
162.3276, 105.5401
162.8097, 107.8031
163.2918, 109.8837
163.7739, 111.0410
164.2560, 111.5994
164.7382, 111.5651
165.2203, 112.0788
165.7024, 112.7183
166.1845, 113.0486
166.6666, 112.9428
167.1487, 112.7860
167.6309, 112.9818
168.1130, 113.2911
168.5951, 113.2029
169.0772, 112.3159
169.5593, 111.0308
170.0414, 109.6866
170.5236, 108.3641
171.0057, 106.9353
171.4878, 105.1089
171.9699, 103.0347
172.4520, 101.2108
172.9341, 100.0740
173.4163, 99.25886
173.8984, 98.36385
174.3805, 97.34527
174.8626, 96.14574
175.3447, 94.58337
175.8268, 92.72262
176.3090, 90.85788
176.7911, 89.07850
177.2732, 87.45493
177.7553, 86.14883
178.2374, 85.33928
178.7195, 84.69661
179.2017, 83.75329
179.6838, 82.53384
180.1659, 81.36155
180.6480, 80.55538
181.1301, 79.98042
181.6122, 79.29265
182.0944, 78.31950
182.5765, 77.23777
183.0586, 76.24487
183.5407, 75.35718
184.0228, 74.70492
184.5049, 74.64002
184.9871, 74.97731
185.4692, 75.03848
185.9513, 74.45461
186.4334, 73.51682
186.9155, 72.97334
187.3976, 72.86311
187.8798, 72.72328
188.3619, 71.87551
188.8440, 70.45640
189.3261, 69.41743
189.8082, 69.29707
190.2903, 69.79204
190.7725, 69.70973
191.2546, 68.95446
191.7367, 68.12143
192.2188, 67.93578
192.7009, 68.36455
193.1830, 68.84972
193.6652, 69.36295
194.1473, 69.82069
194.6294, 69.50924
195.1115, 68.27065
195.5936, 66.79360
196.0757, 66.04534
196.5579, 66.04964
197.0400, 66.05034
197.5221, 65.64715
198.0042, 64.88847
198.4863, 64.56530
198.9684, 64.77819
199.4506, 65.20902
199.9327, 65.36418
200.4148, 65.21214
200.8969, 65.08736
201.3790, 65.22503
201.8611, 65.64603
202.3433, 65.63025
202.8254, 65.06635
203.3075, 64.24072
203.7896, 63.64261
204.2717, 63.30083
204.7538, 63.01272
205.2360, 62.67681
205.7181, 62.27541
206.2002, 62.03298
206.6823, 62.06908
207.1644, 62.12139
207.6465, 61.58026
208.1287, 60.23896
208.6108, 59.05093
209.0929, 58.47113
209.5750, 58.60096
210.0571, 58.83604
210.5392, 59.28890
211.0214, 59.74644
211.5035, 59.73798
211.9856, 59.17134
212.4677, 58.40574
212.9498, 57.48148
213.4319, 56.24423
213.9141, 55.57104
214.3962, 55.63704
214.8783, 56.16104
215.3604, 56.51283
215.8425, 56.67755
216.3246, 56.71010
216.8067, 56.57140
217.2889, 56.12733
217.7710, 56.03009
218.2531, 56.54063
218.7352, 57.27246
219.2173, 57.19161
219.6994, 55.80865
220.1816, 54.54441
220.6637, 54.08580
221.1458, 54.77484
221.6279, 55.28801
222.1100, 55.58655
222.5921, 55.71072
223.0743, 55.78393
223.5564, 55.86657
224.0385, 55.79394
224.5206, 55.43587
225.0027, 54.57624
225.4848, 54.00526
225.9670, 53.78456
226.4491, 53.84661
226.9312, 54.08035
227.4133, 54.72692
227.8954, 55.15102
228.3775, 54.93964
228.8597, 53.55057
229.3418, 52.88510
229.8239, 53.25811
230.3060, 54.28486
230.7881, 54.88417
231.2702, 54.87823
231.7524, 54.71969
232.2345, 54.60628
232.7166, 54.56189
233.1987, 54.49712
233.6808, 54.39191
234.1629, 54.27151
234.6451, 54.20057
235.1272, 54.18276
235.6093, 54.21236
236.0914, 54.28187
236.5735, 54.36567
237.0556, 54.57386
237.5378, 55.04882
238.0199, 55.60974
238.5020, 55.76921
238.9841, 55.30881
239.4662, 54.77522
239.9483, 54.40902
240.4305, 54.33232
240.9126, 54.14341
241.3947, 53.82025
241.8768, 53.39090
242.3589, 52.89595
242.8410, 52.20071
243.3232, 51.64451
243.8053, 51.43975
244.2874, 51.91066
244.7695, 51.89638
245.2516, 51.05805
245.7337, 49.86680
246.2159, 49.44798
246.6980, 50.34405
247.1801, 51.15906
247.6622, 51.28066
248.1443, 50.30757
248.6264, 49.81900
249.1086, 50.14760
249.5907, 50.79614
250.0728, 50.64125
250.5549, 49.06751
251.0370, 47.72926
251.5191, 47.35962
252.0013, 48.38528
252.4834, 48.92985
252.9655, 48.74553
253.4476, 48.22366
253.9297, 48.13049
254.4118, 48.74720
254.8940, 49.26494
255.3761, 49.34382
255.8582, 48.81816
256.3403, 48.53913
256.8224, 48.64011
257.3046, 48.88547
257.7867, 48.84845
258.2688, 48.35690
258.7509, 47.95634
259.2330, 47.94427
259.7151, 48.49086
260.1973, 48.33329
260.6794, 47.07793
261.1615, 45.50743
261.6436, 44.88145
262.1257, 45.61855
262.6078, 46.25708
263.0900, 46.24549
263.5721, 45.46712
264.0542, 45.23917
264.5363, 45.79386
265.0184, 46.61671
265.5005, 47.04887
265.9827, 46.96788
266.4648, 46.83862
266.9469, 46.78531
267.4290, 46.80983
267.9111, 46.80247
268.3932, 46.74482
268.8754, 46.68333
269.3575, 46.68139
269.8396, 46.76276
270.3217, 46.82121
270.8038, 46.85207
271.2859, 46.85083
271.7681, 46.70557
272.2502, 46.38756
272.7323, 45.98650
273.2144, 45.53314
273.6965, 44.96471
274.1786, 44.68019
274.6608, 44.83737
275.1429, 45.36785
275.6250, 45.81605
276.1071, 46.21133
276.5892, 46.44180
277.0714, 46.33059
277.5535, 45.83313
278.0356, 45.41541
278.5177, 45.19358
278.9998, 45.10952
279.4819, 44.88066
279.9641, 44.45336
280.4462, 44.09796
280.9283, 44.07965
281.4104, 44.41082
281.8925, 44.69839
282.3746, 44.88929
282.8568, 44.99377
283.3389, 45.04707
283.8210, 45.05325
284.3031, 44.97464
284.7852, 44.64878
285.2673, 44.10968
285.7495, 44.01017
286.2316, 44.58588
286.7137, 45.41302
287.1958, 45.52566
287.6779, 44.90178
288.1600, 44.22611
288.6422, 43.87025
289.1243, 43.81890
289.6064, 43.99051
290.0885, 44.40816
290.5706, 44.96945
291.0527, 45.66790
291.5349, 46.47388
292.0170, 46.94474
292.4991, 46.62833
292.9812, 45.74541
293.4633, 45.06709
293.9454, 44.62061
294.4276, 44.41259
294.9097, 44.63224
295.3918, 45.18285
295.8739, 45.54802
296.3560, 45.27393
296.8381, 44.65431
297.3203, 44.44006
297.8024, 44.68191
298.2845, 44.99688
298.7666, 44.92015
299.2487, 44.57334
299.7308, 44.32831
300.2130, 44.38590
300.6951, 44.62103
301.1772, 44.91313
301.6593, 45.26142
302.1414, 45.45260
302.6235, 45.09782
303.1057, 44.45719
303.5878, 44.07673
304.0699, 44.37189
304.5520, 44.82543
305.0341, 44.78056
305.5162, 44.28945
305.9984, 43.78547
306.4805, 43.50776
306.9626, 43.43125
307.4447, 43.54156
307.9268, 43.91884
308.4089, 44.36845
308.8911, 44.74323
309.3732, 45.05058
309.8553, 45.32223
310.3374, 45.52236
310.8195, 45.72110
311.3016, 46.03712
311.7838, 46.64530
312.2659, 47.05167
312.7480, 46.65551
313.2301, 45.78035
313.7122, 45.22044
314.1943, 45.58141
314.6765, 46.23695
315.1586, 46.72010
315.6407, 46.88453
316.1228, 47.15583
316.6049, 47.94786
317.0870, 48.95240
317.5692, 49.65137
318.0513, 49.87751
318.5334, 49.74926
319.0155, 49.10572
319.4976, 47.79494
319.9797, 46.98126
320.4619, 47.34110
320.9440, 48.29600
321.4261, 49.19134
321.9082, 49.77556
322.3903, 50.37397
322.8724, 51.16545
323.3546, 52.16042
323.8367, 52.92699
324.3188, 53.31658
324.8009, 53.48692
325.2830, 53.55563
325.7651, 53.22911
326.2473, 53.14785
326.7294, 53.48495
327.2115, 54.19475
327.6936, 54.90919
328.1757, 55.75908
328.6578, 56.49202
329.1400, 56.98146
329.6221, 56.98988
330.1042, 57.06797
330.5863, 57.23602
331.0684, 57.47651
331.5505, 57.72733
332.0327, 57.90019
332.5148, 58.18873
332.9969, 58.73212
333.4790, 59.75242
333.9611, 60.35761
334.4432, 60.31528
334.9254, 59.99151
335.4075, 60.01817
335.8896, 60.52840
336.3717, 61.13094
336.8538, 61.78664
337.3359, 62.54514
337.8180, 62.83216
338.3001, 62.49971
338.7823, 61.92495
339.2644, 61.47399
339.7465, 61.10255
340.2286, 61.06020
340.7107, 61.53511
341.1928, 62.42130
341.6750, 62.92290
342.1571, 63.00540
342.6392, 62.86266
343.1213, 62.61163
343.6034, 62.25249
344.0855, 61.88405
344.5677, 61.52439
345.0498, 61.16541
345.5319, 60.79072
346.0140, 60.39946
346.4961, 60.01984
346.9782, 59.74149
347.4604, 59.51202
347.9425, 59.03529
348.4246, 58.21471
348.9067, 57.33931
349.3888, 56.86797
349.8709, 56.73803
350.3531, 56.59939
350.8352, 56.06987
351.3173, 55.45799
351.7994, 55.54023
352.2815, 56.40569
352.7636, 57.19163
353.2458, 56.94615
353.7279, 56.00064
354.2100, 55.06742
354.6921, 54.34606
355.1742, 53.81690
355.6563, 53.48908
356.1385, 53.35436
356.6206, 53.30806
357.1027, 53.44045
357.5848, 53.56163
358.0669, 53.42936
358.5490, 52.83719
359.0312, 52.19070
359.5133, 51.69446
359.9954, 51.34068
360.4775, 51.09639
360.9596, 51.13536
361.4417, 51.15437
361.9239, 50.89774
362.4060, 50.19842
362.8881, 49.60026
363.3702, 49.33423
363.8523, 49.29192
364.3344, 49.30720
364.8166, 49.42747
365.2987, 49.51415
365.7808, 49.57024
366.2629, 49.62471
366.7450, 49.40538
367.2271, 48.57486
367.7093, 47.59822
368.1914, 46.88426
368.6735, 46.25216
369.1556, 46.13027
369.6377, 46.96173
370.1198, 48.58016
370.6020, 49.45573
371.0841, 49.11497
371.5662, 48.47091
372.0483, 48.00290
372.5304, 47.78119
373.0125, 47.59390
373.4947, 47.42338
373.9768, 47.29072
374.4589, 47.24495
374.9410, 47.29456
375.4231, 47.41168
375.9052, 47.55468
376.3874, 47.69678
376.8695, 48.17293
377.3516, 49.19151
377.8337, 50.20204
378.3158, 50.48053
378.7979, 49.94435
379.2801, 49.27786
379.7622, 48.59699
380.2443, 47.93819
380.7264, 47.41076
381.2085, 47.00823
381.6906, 46.80665
382.1728, 46.94353
382.6549, 47.37271
383.1370, 47.81069
383.6191, 48.24328
384.1012, 48.60964
384.5833, 48.79810
385.0655, 48.82082
385.5476, 48.77742
386.0297, 48.62464
386.5118, 48.46937
386.9939, 48.58613
387.4760, 49.04560
387.9582, 49.43164
388.4403, 49.27910
388.9224, 48.76538
389.4045, 48.26415
389.8866, 47.81283
390.3687, 47.51583
390.8509, 47.55445
391.3330, 47.89814
391.8151, 48.21776
392.2972, 48.28233
392.7793, 48.24280
393.2614, 48.23092
393.7436, 48.18201
394.2257, 48.30682
394.7078, 48.99670
395.1899, 49.95827
395.6720, 50.42093
396.1541, 49.69107
396.6363, 48.76630
397.1184, 48.09639
397.6005, 47.76289
398.0826, 47.57743
398.5647, 47.50505
399.0468, 47.56812
399.5290, 47.79375
400.0111, 48.44401
400.4932, 48.97683
400.9753, 49.30474
401.4574, 49.42809
401.9395, 49.41697
402.4217, 49.20856
402.9038, 48.93159
403.3859, 48.58451
403.8680, 47.82235
404.3501, 47.92199
404.8322, 49.47469
405.3144, 51.70275
405.7965, 52.29727
406.2786, 50.74907
406.7607, 49.27552
407.2428, 48.97773
407.7249, 49.90006
408.2071, 50.52239
408.6892, 50.79481
409.1713, 50.92633
409.6534, 51.16585
410.1355, 51.50789
410.6176, 51.86186
411.0998, 52.22863
411.5819, 52.57557
412.0640, 52.80255
412.5461, 52.91169
413.0282, 53.00669
413.5103, 53.20771
413.9925, 53.44492
414.4746, 53.52938
414.9567, 53.35913
415.4388, 53.24397
415.9209, 53.61515
416.4030, 54.30195
416.8852, 54.89110
417.3673, 54.85369
417.8494, 54.83488
418.3315, 55.56445
418.8136, 57.08782
419.2957, 58.37465
419.7779, 58.77787
420.2600, 58.67883
420.7421, 58.45206
421.2242, 57.65543
421.7063, 57.32486
422.1884, 58.10997
422.6706, 59.70520
423.1527, 60.98450
423.6348, 61.39584
424.1169, 61.65707
424.5990, 62.09012
425.0811, 62.76579
425.5633, 63.50413
426.0454, 64.29794
426.5275, 65.14716
427.0096, 66.07122
427.4917, 67.13477
427.9738, 68.16653
428.4560, 69.12573
428.9381, 70.02242
429.4202, 70.88733
429.9023, 71.65987
430.3844, 72.49083
430.8665, 73.47487
431.3487, 74.61853
431.8308, 75.90730
432.3129, 77.40826
432.7950, 78.96081
433.2771, 80.17030
433.7592, 81.01418
434.2414, 81.81469
434.7235, 82.78695
435.2056, 83.84354
435.6877, 84.45707
436.1698, 84.56837
436.6519, 84.91994
437.1341, 86.64577
437.6162, 89.20104
438.0983, 91.14804
438.5804, 91.80340
439.0625, 92.10923
439.5446, 93.19588
440.0268, 94.87910
440.5089, 96.48477
440.9910, 97.59282
441.4731, 98.46437
441.9552, 99.27654
442.4373, 99.99793
442.9195, 100.9249
443.4016, 102.4995
443.8837, 104.2693
444.3658, 105.6844
444.8479, 106.3240
445.3300, 106.8453
445.8122, 107.6004
446.2943, 108.5121
446.7764, 108.9358
447.2585, 108.9486
447.7406, 108.3184
448.2227, 106.8104
448.7049, 103.5883
449.1870, 101.1802
449.6691, 100.2348
450.1512, 99.79093
450.6333, 98.28291
451.1154, 95.15381
451.5976, 92.12747
452.0797, 89.69129
452.5618, 87.79727
453.0439, 85.92951
453.5260, 84.14363
454.0081, 82.32253
454.4903, 80.26466
454.9724, 77.99492
455.4545, 76.11745
455.9366, 74.78853
456.4187, 73.74361
456.9008, 72.50978
457.3830, 71.12143
457.8651, 69.97620
458.3472, 69.38059
458.8293, 69.09593
459.3114, 68.64191
459.7935, 68.02132
460.2757, 67.49023
460.7578, 67.32292
461.2399, 67.35817
461.7220, 67.40609
462.2041, 67.55637
462.6862, 67.46788
463.1684, 66.65136
463.6505, 65.41578
464.1326, 64.49610
464.6147, 64.28279
465.0968, 64.37588
465.5789, 64.73475
466.0611, 65.43510
466.5432, 65.71803
467.0253, 65.13625
467.5074, 64.22861
467.9895, 63.44575
468.4716, 62.69054
468.9538, 62.21082
469.4359, 62.12086
469.9180, 62.31629
470.4001, 62.49184
470.8822, 62.71729
471.3643, 62.79979
471.8465, 62.68089
472.3286, 62.36745
472.8107, 61.68029
473.2928, 60.44689
473.7749, 59.28328
474.2570, 59.13758
474.7392, 59.99891
475.2213, 60.28385
475.7034, 59.44696
476.1855, 58.08497
476.6676, 57.43240
477.1497, 57.43348
477.6319, 57.57933
478.1140, 57.64018
478.5961, 57.62143
479.0782, 57.53691
479.5603, 57.38842
480.0424, 57.15325
480.5246, 56.56303
481.0067, 55.94179
481.4888, 55.76330
481.9709, 56.61143
482.4530, 57.43639
482.9352, 57.62062
483.4173, 57.33046
483.8994, 57.09182
484.3815, 57.18045
484.8636, 57.27959
485.3457, 57.24230
485.8279, 57.04060
486.3100, 56.76620
486.7921, 56.23735
487.2742, 55.74442
487.7563, 55.55381
488.2384, 55.87323
488.7206, 56.14911
489.2027, 56.36262
489.6848, 56.48299
490.1669, 56.34219
490.6490, 55.83979
491.1311, 55.38850
491.6133, 55.29075
492.0954, 55.53580
492.5775, 55.26715
493.0596, 54.34948
493.5417, 53.50040
494.0238, 53.79811
494.5060, 54.94665
494.9881, 55.49383
495.4702, 54.83277
495.9523, 53.78943
496.4344, 53.50172
496.9165, 53.84737
497.3987, 54.36547
497.8808, 55.19365
498.3629, 55.83889
498.8450, 55.60398
499.3271, 54.38952
499.8092, 53.45170
500.2914, 53.62083
500.7735, 54.30272
501.2556, 54.93932
501.7377, 55.41371
502.2198, 55.79597
502.7019, 56.10903
503.1841, 56.34269
503.6662, 56.47034
504.1483, 56.07501
504.6304, 56.02699
505.1125, 56.73410
505.5946, 58.29745
506.0768, 59.26423
506.5589, 59.32256
507.0410, 59.23791
507.5231, 59.67494
508.0052, 60.72545
508.4873, 61.67414
508.9695, 62.40618
509.4516, 63.03544
509.9337, 63.76766
510.4158, 64.59785
510.8979, 65.42101
511.3800, 66.00203
511.8622, 66.61038
512.3443, 68.01353
512.8264, 70.16148
513.3085, 72.35145
513.7906, 74.04726
514.2728, 75.46189
514.7549, 76.82823
515.2370, 78.12476
515.7191, 79.58041
516.2012, 81.29613
516.6833, 83.26798
517.1655, 85.51711
517.6476, 88.28814
518.1297, 91.09963
518.6118, 93.89297
519.0939, 96.63892
519.5760, 99.08138
520.0582, 100.5326
520.5403, 102.2240
521.0224, 104.7109
521.5045, 108.3462
521.9866, 111.7698
522.4688, 114.8779
522.9509, 117.8884
523.4330, 121.0855
523.9151, 124.4635
524.3972, 128.0906
524.8793, 132.0287
525.3615, 136.1363
525.8436, 140.1627
526.3257, 144.1215
526.8078, 147.8701
527.2899, 151.3020
527.7720, 154.5173
528.2542, 157.8279
528.7363, 161.2536
529.2184, 164.2546
529.7005, 166.2961
530.1826, 167.6221
530.6647, 168.5493
531.1469, 169.1843
531.6290, 169.3886
532.1111, 169.1332
532.5932, 168.3822
533.0753, 167.0679
533.5574, 165.4345
534.0396, 162.9732
534.5217, 159.3022
535.0038, 154.3828
535.4859, 149.2839
535.9680, 143.9826
536.4501, 138.6069
536.9323, 133.2136
537.4144, 127.6332
537.8965, 122.3491
538.3786, 117.3610
538.8607, 112.6887
539.3428, 108.5573
539.8250, 104.9716
540.3071, 101.3637
540.7892, 97.56419
541.2713, 93.68174
541.7534, 90.04379
542.2355, 86.65827
542.7177, 83.62092
543.1998, 81.01462
543.6819, 78.74857
544.1640, 76.74555
544.6461, 75.00269
545.1282, 73.34998
545.6104, 71.79141
546.0925, 70.22684
546.5746, 68.51850
547.0567, 66.27518
547.5388, 64.37809
548.0209, 63.33918
548.5031, 62.86375
548.9852, 62.27759
549.4673, 61.28928
549.9494, 60.38643
550.4315, 59.71968
550.9136, 59.28789
551.3958, 58.81005
551.8779, 58.29691
552.3600, 57.71822
552.8421, 56.97445
553.3242, 56.01537
553.8063, 55.39991
554.2885, 55.20256
554.7706, 55.20872
555.2527, 55.23714
555.7348, 55.25523
556.2169, 55.03564
556.6990, 54.41674
557.1812, 53.65291
557.6633, 53.09892
558.1454, 52.71447
558.6275, 52.34655
559.1096, 51.79274
559.5917, 51.30232
560.0739, 51.12235
560.5560, 51.27142
561.0381, 51.46600
561.5202, 51.69095
562.0023, 51.85413
562.4844, 51.88126
562.9666, 51.64427
563.4487, 51.44936
563.9308, 51.40144
564.4129, 51.36752
564.8950, 51.11707
565.3771, 50.50749
565.8593, 50.01064
566.3414, 49.75552
566.8235, 49.69147
567.3056, 49.55347
567.7877, 49.31864
568.2698, 49.18125
568.7520, 49.29564
569.2341, 49.60601
569.7162, 49.94445
570.1983, 50.31036
570.6804, 50.59053
571.1625, 50.64606
571.6447, 50.55031
572.1268, 50.42944
572.6089, 50.34513
573.0910, 50.17314
573.5731, 49.58857
574.0552, 48.89999
574.5374, 48.63445
575.0195, 49.53935
575.5016, 50.31725
575.9837, 50.51722
576.4658, 50.16230
576.9479, 49.70034
577.4301, 48.86070
577.9122, 48.25719
578.3943, 48.19104
578.8764, 48.75990
579.3585, 49.37590
579.8406, 50.11712
580.3228, 50.73198
580.8049, 50.86007
581.2870, 50.53369
581.7691, 50.37035
582.2512, 50.53169
582.7333, 50.76152
583.2155, 50.57853
583.6976, 50.12593
584.1797, 49.84743
584.6617, 50.22346
585.1439, 50.66650
585.6260, 50.56154
586.1081, 50.01105
586.5902, 49.54004
587.0723, 49.40869
587.5544, 49.41652
588.0366, 49.46199
588.5187, 49.54344
589.0008, 49.62456
589.4829, 49.63636
589.9650, 49.69155
590.4471, 49.90597
590.9293, 50.46269
591.4114, 50.73560
591.8935, 50.59691
592.3756, 50.25645
592.8577, 50.10034
593.3398, 50.14191
593.8220, 50.15664
594.3041, 50.03233
594.7862, 49.86477
595.2683, 49.95557
595.7504, 50.25873
596.2325, 50.44244
596.7147, 50.18594
597.1968, 49.75700
597.6789, 49.40398
598.1610, 49.14378
598.6431, 49.08094
599.1252, 49.51101
599.6074, 50.02591
600.0895, 50.28461
600.5716, 50.08366
601.0537, 49.87387
601.5358, 49.69110
602.0179, 49.54751
602.5001, 49.47858
602.9822, 49.59407
603.4643, 49.55312
603.9464, 49.23627
604.4285, 48.74809
604.9106, 48.38398
605.3928, 48.13770
605.8749, 48.09628
606.3570, 48.45098
606.8391, 49.03382
607.3212, 49.33762
607.8033, 49.36306
608.2855, 49.12683
608.7676, 48.25829
609.2497, 47.29840
609.7318, 47.04482
610.2139, 47.74614
610.6960, 48.48577
611.1782, 48.91819
611.6603, 49.05766
612.1424, 48.92191
612.6245, 48.04858
613.1066, 47.46302
613.5887, 47.37542
614.0709, 47.64138
614.5530, 48.05648
615.0351, 48.88359
615.5172, 49.26240
615.9993, 48.82546
616.4814, 47.75272
616.9636, 46.91728
617.4457, 46.30410
617.9278, 46.10393
618.4099, 46.86053
618.8920, 48.09187
619.3741, 48.32230
619.8563, 47.48788
620.3384, 46.61415
620.8205, 46.56442
621.3026, 46.94780
621.7847, 47.33801
622.2668, 47.73115
622.7490, 47.89711
623.2311, 47.48516
623.7132, 46.87897
624.1953, 46.56905
624.6774, 47.04260
625.1595, 47.31244
625.6417, 47.10757
626.1238, 46.64626
626.6059, 46.62981
627.0880, 47.31218
627.5701, 47.65458
628.0522, 47.12656
628.5344, 45.96217
629.0165, 45.31367
629.4986, 45.18583
629.9807, 45.36099
630.4628, 46.00370
630.9449, 46.75212
631.4271, 46.77555
631.9092, 45.98217
632.3913, 45.30338
632.8734, 45.50070
633.3555, 46.11648
633.8376, 46.72472
634.3198, 47.38774
634.8019, 47.70768
635.2840, 47.28728
635.7661, 46.56169
636.2482, 46.13457
636.7303, 46.11718
637.2125, 46.24633
637.6946, 46.57388
638.1767, 46.98980
638.6588, 47.19571
639.1409, 47.18542
639.6230, 47.00548
640.1052, 46.51307
640.5873, 45.92079
641.0694, 45.99406
641.5515, 46.67804
642.0336, 47.33819
642.5157, 47.55120
642.9979, 47.50084
643.4800, 47.30278
643.9621, 46.95492
644.4442, 46.78901
644.9263, 47.30492
645.4084, 47.86648
645.8906, 47.92107
646.3727, 46.90173
646.8548, 46.26387
647.3369, 46.23400
647.8190, 46.50636
648.3011, 46.72010
648.7833, 46.82750
649.2654, 47.06704
649.7475, 47.56344
650.2296, 48.10377
650.7117, 48.16066
651.1938, 47.78099
651.6760, 47.53039
652.1581, 47.76406
652.6402, 48.16191
653.1223, 48.25239
653.6044, 48.07917
654.0865, 47.82846
654.5687, 47.42088
655.0508, 47.11831
655.5329, 47.18454
656.0150, 47.65186
656.4971, 47.93941
656.9792, 47.74308
657.4614, 47.47261
657.9435, 47.34787
658.4256, 47.40627
658.9077, 47.49262
659.3898, 47.64020
659.8719, 47.75613
660.3541, 47.66072
660.8362, 47.36742
661.3183, 47.40165
661.8004, 47.93056
662.2825, 48.51207
662.7646, 48.47860
663.2468, 48.04021
663.7289, 47.71225
664.2110, 47.73635
664.6931, 47.86157
665.1752, 47.91717
665.6573, 47.94046
666.1395, 48.02034
666.6216, 48.47668
667.1037, 48.69341
667.5858, 48.26942
668.0679, 47.33640
668.5500, 46.81483
669.0322, 46.77888
669.5143, 47.01034
669.9964, 47.55823
670.4785, 48.37543
670.9606, 48.57533
671.4427, 48.09414
671.9249, 47.62276
672.4070, 47.76146
672.8891, 48.30505
673.3712, 48.86116
673.8533, 49.40348
674.3354, 49.83119
674.8176, 50.03226
675.2997, 50.10649
675.7818, 50.14491
676.2639, 50.10560
676.7460, 50.15162
677.2281, 50.58647
677.7103, 51.00554
678.1924, 50.85915
678.6745, 49.71282
679.1566, 48.96886
679.6387, 48.88108
680.1208, 49.22627
680.6030, 49.60053
681.0851, 49.99689
681.5672, 50.24313
682.0493, 50.18972
682.5314, 50.02812
683.0135, 50.09746
683.4957, 50.35431
683.9778, 50.62545
684.4599, 51.00594
684.9420, 51.21385
685.4241, 50.88707
685.9063, 50.08137
686.3884, 49.58760
686.8705, 49.89057
687.3526, 50.30687
687.8347, 50.56288
688.3168, 50.65575
688.7990, 50.55986
689.2811, 50.17051
689.7632, 49.82436
690.2453, 49.91315
690.7274, 50.37773
691.2095, 50.31079
691.6917, 49.57716
692.1738, 48.88833
692.6559, 49.18230
693.1380, 49.99733
693.6201, 50.54309
694.1022, 50.57425
694.5844, 50.49137
695.0665, 50.50957
695.5486, 50.55025
696.0307, 50.51267
696.5128, 50.27827
696.9949, 50.08828
697.4771, 49.97718
697.9592, 49.91809
698.4413, 49.83101
698.9234, 49.66282
699.4055, 49.70816
699.8876, 50.14473
700.3698, 50.75256
700.8519, 50.91221
701.3340, 50.68675
701.8161, 50.48692
702.2982, 50.60192
702.7803, 50.80305
703.2625, 50.70594
703.7446, 50.41698
704.2267, 50.47392
704.7088, 51.66517
705.1909, 52.78225
705.6730, 53.06236
706.1552, 52.37911
706.6373, 52.14222
707.1194, 52.74965
707.6015, 53.25242
708.0836, 53.04668
708.5657, 52.08596
709.0479, 51.35013
709.5300, 50.83355
710.0121, 50.57174
710.4942, 50.69798
710.9763, 51.08944
711.4584, 51.53375
711.9406, 52.03407
712.4227, 52.31500
712.9048, 51.96675
713.3869, 51.39859
713.8690, 51.04695
714.3511, 51.15855
714.8333, 51.22665
715.3154, 50.99189
715.7975, 50.76103
716.2796, 50.93508
716.7617, 51.79741
717.2438, 52.17844
717.7260, 51.78859
718.2081, 51.09410
718.6902, 50.93295
719.1723, 51.24564
719.6544, 51.59751
720.1365, 51.91982
720.6187, 52.11421
721.1008, 51.93396
721.5829, 51.53696
722.0650, 51.28948
722.5471, 51.61799
723.0292, 51.85901
723.5114, 51.61817
723.9935, 51.02037
724.4756, 50.62066
724.9577, 50.44079
725.4398, 50.46742
725.9219, 50.75782
726.4041, 51.25735
726.8862, 51.64067
727.3683, 51.90314
727.8504, 52.15740
728.3325, 52.56068
728.8146, 52.97795
729.2968, 53.10178
729.7789, 52.94753
730.2610, 52.66616
730.7431, 52.09518
731.2252, 51.62600
731.7073, 51.63860
732.1895, 52.21149
732.6716, 52.62136
733.1537, 52.81828
733.6358, 52.73720
734.1179, 52.22319
734.6000, 51.11114
735.0822, 50.59600
735.5643, 50.79176
736.0464, 51.17862
736.5285, 51.31401
737.0106, 51.24963
737.4927, 51.14244
737.9749, 50.99467
738.4570, 50.94529
738.9391, 51.23145
739.4212, 51.63064
739.9033, 51.89909
740.3854, 51.99212
740.8676, 51.93792
741.3497, 51.55847
741.8318, 51.13975
742.3139, 50.98213
742.7960, 51.22316
743.2781, 51.37851
743.7603, 51.39649
744.2424, 51.35395
744.7245, 51.38363
745.2066, 51.46728
745.6887, 51.43468
746.1708, 51.19094
746.6530, 50.95634
747.1351, 50.95261
747.6172, 51.14158
748.0993, 51.46155
748.5814, 52.17073
749.0635, 52.68089
749.5457, 52.78019
750.0278, 52.54143
750.5099, 52.09040
750.9920, 51.05853
751.4741, 50.57540
751.9562, 51.06258
752.4384, 52.05890
752.9205, 52.36341
753.4026, 51.99465
753.8847, 51.46783
754.3668, 50.76437
754.8489, 50.25944
755.3311, 50.88155
755.8132, 52.20353
756.2953, 52.95674
756.7774, 51.86684
757.2595, 50.74515
757.7416, 50.56560
758.2238, 51.16811
758.7059, 51.48274
759.1880, 51.23660
759.6701, 51.04953
760.1522, 51.12200
760.6343, 51.40120
761.1165, 51.62770
761.5986, 51.80055
762.0807, 51.90997
762.5628, 51.90892
763.0449, 51.85885
763.5270, 51.88445
764.0092, 51.96746
764.4913, 52.01046
764.9734, 52.01282
765.4555, 51.91201
765.9376, 51.64963
766.4197, 51.22136
766.9019, 50.75615
767.3840, 50.12101
767.8661, 49.65569
768.3482, 49.54904
768.8303, 49.78460
769.3124, 49.98821
769.7946, 50.16255
770.2767, 50.25465
770.7588, 50.17419
771.2409, 50.00470
771.7230, 49.89769
772.2051, 49.85655
772.6873, 49.81317
773.1694, 49.74769
773.6515, 49.64983
774.1336, 49.51083
774.6157, 49.32678
775.0978, 49.10328
775.5800, 48.75995
776.0621, 48.48705
776.5442, 48.38428
777.0263, 48.45278
777.5084, 48.74698
777.9905, 49.29804
778.4727, 49.78535
778.9548, 49.95785
779.4369, 49.87217
779.9190, 49.49946
780.4011, 48.82043
780.8832, 48.38921
781.3654, 48.89771
781.8475, 49.52002
782.3296, 49.58205
782.8117, 48.71306
783.2938, 48.24210
783.7759, 48.39341
784.2581, 48.63172
784.7402, 48.45592
785.2223, 47.86564
785.7044, 47.76015
786.1865, 48.21557
786.6686, 48.78294
787.1508, 49.20283
787.6329, 49.39330
788.1150, 49.07222
788.5971, 48.06706
789.0792, 47.43659
789.5613, 48.14253
790.0435, 49.12733
790.5256, 49.50860
791.0077, 48.96998
791.4898, 48.52903
791.9719, 48.16809
792.4540, 47.94008
792.9362, 47.97811
793.4183, 48.24895
793.9004, 48.31824
794.3825, 48.13329
794.8646, 47.92706
795.3467, 47.91394
795.8289, 48.02021
796.3110, 48.16187
796.7931, 48.34486
797.2752, 48.48034
797.7573, 48.52364
798.2394, 48.51557
798.7216, 48.47984
799.2037, 48.35769
799.6858, 48.38393
800.1679, 48.60760
800.6500, 48.86805
801.1321, 49.04522
801.6143, 49.12923
802.0964, 49.04528
802.5785, 48.76983
803.0606, 48.47610
803.5427, 48.42011
804.0248, 48.37816
804.5070, 48.02796
804.9891, 47.09368
805.4712, 46.52784
805.9533, 46.81130
806.4354, 47.33172
806.9175, 47.64745
807.3997, 47.67970
807.8818, 47.89923
808.3639, 48.38167
808.8460, 48.80468
809.3281, 48.79875
809.8102, 48.47456
810.2924, 48.04729
810.7745, 47.51800
811.2566, 47.15051
811.7387, 47.25913
812.2208, 47.53944
812.7029, 47.74093
813.1851, 47.85308
813.6672, 47.77413
814.1493, 47.28096
814.6314, 46.86412
815.1135, 47.06136
815.5956, 47.92188
816.0778, 48.12586
816.5599, 47.55944
817.0420, 46.84826
817.5241, 46.50972
818.0062, 46.45356
818.4883, 46.53289
818.9705, 46.72398
819.4526, 47.09441
819.9347, 48.07350
820.4168, 48.95697
820.8989, 49.13353
821.3810, 48.36883
821.8632, 47.88617
822.3453, 47.75584
822.8274, 47.75292
823.3095, 47.67899
823.7916, 47.56831
824.2737, 47.66073
824.7559, 47.96975
825.2380, 48.25784
825.7201, 48.28719
826.2022, 48.22638
826.6843, 48.25958
827.1664, 48.42655
827.6486, 48.50872
828.1307, 48.35036
828.6128, 48.19579
829.0949, 48.19573
829.5770, 48.37277
830.0591, 48.28764
830.5413, 47.88040
831.0234, 47.58141
831.5055, 47.85552
831.9876, 48.41430
832.4697, 48.71406
832.9518, 48.73535
833.4340, 48.61058
833.9161, 48.21046
834.3982, 47.85868
834.8803, 47.83590
835.3624, 48.18941
835.8445, 48.25621
836.3267, 47.88391
836.8088, 47.52314
837.2909, 47.40303
837.7730, 47.48314
838.2551, 47.52642
838.7372, 47.53651
839.2194, 47.56445
839.7015, 47.58672
840.1836, 47.68449
840.6657, 48.11898
841.1478, 48.78379
841.6299, 49.01732
842.1121, 48.10228
842.5942, 47.26479
843.0763, 46.86349
843.5584, 46.86973
844.0405, 47.21283
844.5226, 47.95369
845.0048, 48.59098
845.4869, 48.90600
845.9690, 48.97903
846.4511, 48.94601
846.9332, 48.80269
847.4153, 48.53451
847.8975, 47.76072
848.3796, 47.24091
848.8617, 47.45876
849.3438, 48.24402
849.8259, 49.03551
850.3080, 50.14829
850.7902, 50.47154
851.2723, 49.46088
851.7544, 47.86546
852.2365, 47.41835
852.7186, 47.95670
853.2007, 48.54928
853.6829, 48.95263
854.1650, 49.12794
854.6471, 48.87501
855.1292, 48.41206
855.6113, 48.10539
856.0934, 48.09578
856.5756, 48.21355
857.0577, 48.52905
857.5398, 48.88224
858.0219, 49.04334
858.5040, 49.00383
858.9861, 48.90332
859.4683, 48.74712
859.9504, 48.59859
860.4325, 48.52724
860.9146, 48.52136
861.3967, 48.55367
861.8788, 48.58857
862.3610, 48.73905
862.8431, 49.34985
863.3252, 49.89594
863.8073, 49.83522
864.2894, 48.80373
864.7715, 48.36769
865.2537, 48.70732
865.7358, 49.13994
866.2179, 48.89367
866.7000, 48.21186
867.1821, 47.70001
867.6642, 47.41182
868.1464, 47.41956
868.6285, 48.27071
869.1106, 49.07223
869.5927, 48.98240
870.0748, 47.61370
870.5569, 47.05719
871.0391, 47.68232
871.5212, 48.44785
872.0033, 48.71115
872.4854, 48.55663
872.9675, 48.71517
873.4496, 49.15474
873.9318, 49.35378
874.4139, 48.66207
874.8960, 47.79722
875.3781, 47.39150
875.8602, 47.42088
876.3423, 47.51574
876.8245, 47.60774
877.3066, 47.73609
877.7887, 47.92131
878.2708, 48.15020
878.7529, 48.40036
879.2350, 48.67204
879.7172, 48.82389
880.1993, 48.74209
880.6814, 48.56736
881.1635, 48.51085
881.6456, 48.50476
882.1277, 48.39021
882.6099, 47.93084
883.0920, 47.56635
883.5741, 47.40712
884.0562, 47.41638
884.5383, 47.60887
885.0204, 48.05336
885.5026, 48.23389
885.9847, 48.03690
886.4668, 47.61124
886.9489, 46.94086
887.4310, 46.23324
887.9131, 45.95192
888.3953, 46.32887
888.8774, 46.80091
889.3595, 47.24333
889.8416, 47.58829
890.3237, 47.74812
890.8058, 47.57761
891.2880, 47.69572
891.7701, 48.20102
892.2522, 48.68464
892.7343, 48.76061
893.2164, 48.52675
893.6985, 48.18147
894.1807, 47.74617
894.6628, 47.40335
895.1449, 47.26665
895.6270, 47.27037
896.1091, 47.42103
896.5912, 47.73005
897.0734, 47.91082
897.5555, 47.90606
898.0376, 47.90472
898.5197, 47.99500
899.0018, 48.15799
899.4839, 48.39336
899.9661, 48.66604
900.4482, 48.77131
900.9303, 48.44409
901.4124, 48.05674
901.8945, 47.82291
902.3766, 47.72675
902.8588, 47.70239
903.3409, 47.79453
903.8230, 47.85815
904.3051, 47.86622
904.7872, 47.83527
905.2693, 47.81750
905.7515, 47.79826
906.2336, 47.65767
906.7157, 47.28800
907.1978, 46.99572
907.6799, 47.08808
908.1620, 47.39017
908.6442, 47.69764
909.1263, 48.01126
909.6084, 48.25550
910.0905, 48.47377
910.5726, 48.56168
911.0547, 48.30437
911.5369, 47.75823
912.0190, 47.65526
912.5011, 48.05317
912.9832, 48.44960
913.4653, 48.38518
913.9474, 48.15368
914.4296, 48.02386
914.9117, 48.02566
915.3938, 48.03614
915.8759, 48.15361
916.3580, 48.09785
916.8401, 47.61916
917.3223, 46.86601
917.8044, 46.82903
918.2865, 47.46289
918.7686, 48.02157
919.2507, 48.04255
919.7328, 47.86040
920.2150, 47.71507
920.6971, 47.62844
921.1792, 47.65072
921.6613, 47.81517
922.1434, 48.08982
922.6255, 48.57326
923.1077, 49.07068
923.5898, 49.20216
924.0719, 48.98742
924.5540, 48.81095
925.0361, 48.77593
925.5182, 48.68049
926.0004, 48.20878
926.4825, 47.61199
926.9646, 47.14103
927.4467, 46.72216
927.9288, 46.83449
928.4109, 47.83754
928.8931, 48.95411
929.3752, 49.75325
929.8573, 50.23076
930.3394, 49.95878
930.8215, 48.94020
931.3036, 48.09571
931.7858, 48.35687
932.2679, 48.93480
932.7500, 48.97688
933.2321, 48.54689
933.7142, 48.41120
934.1964, 49.14418
934.6785, 49.64014
935.1606, 49.55108
935.6427, 49.07653
936.1248, 48.78395
936.6069, 48.66224
937.0891, 48.59361
937.5712, 48.45180
938.0533, 48.50882
938.5354, 49.25622
939.0175, 50.29773
939.4996, 51.04124
939.9818, 51.47815
940.4639, 51.31676
940.9460, 50.13876
941.4281, 48.95527
941.9102, 49.01187
942.3923, 50.13874
942.8745, 50.71524
943.3566, 50.61970
943.8387, 50.30212
944.3208, 49.87672
944.8029, 49.58234
945.2850, 49.72313
945.7672, 50.33931
946.2493, 50.72729
946.7314, 50.76121
947.2135, 50.69854
947.6956, 50.58508
948.1777, 50.47319
948.6599, 50.60496
949.1420, 50.93840
949.6241, 51.22881
950.1062, 51.24146
950.5883, 51.31621
951.0704, 51.86475
951.5526, 52.60265
952.0347, 52.95288
952.5168, 52.58478
952.9989, 52.45693
953.4810, 52.72871
953.9631, 53.08166
954.4453, 53.03663
954.9274, 52.73437
955.4095, 52.71037
955.8916, 53.05544
956.3737, 53.39034
956.8558, 53.37548
957.3380, 53.32224
957.8201, 53.54324
958.3022, 54.08454
958.7843, 54.21181
959.2664, 53.77991
959.7485, 53.38983
960.2307, 53.36776
960.7128, 53.56869
961.1949, 53.65120
961.6770, 53.65723
962.1591, 53.73207
962.6412, 54.26881
963.1234, 54.52357
963.6055, 53.79988
964.0876, 52.75431
964.5697, 52.53909
965.0518, 53.38240
965.5339, 53.99087
966.0161, 54.18864
966.4982, 54.19403
966.9803, 54.22438
967.4624, 54.25935
967.9445, 54.30170
968.4266, 54.37366
968.9088, 54.25447
969.3909, 53.51603
969.8730, 52.90196
970.3551, 52.84866
970.8372, 53.31740
971.3193, 53.60442
971.8015, 53.70247
972.2836, 53.74596
972.7657, 53.81423
973.2478, 53.85968
973.7299, 53.72063
974.2120, 53.51815
974.6942, 53.54997
975.1763, 54.31237
975.6584, 54.74485
976.1405, 54.58225
976.6226, 54.18423
977.1047, 54.05656
977.5869, 54.17823
978.0690, 54.37171
978.5511, 54.63068
979.0332, 54.77990
979.5153, 54.48129
979.9974, 54.13391
980.4796, 54.12377
980.9617, 54.53909
981.4438, 54.98283
981.9259, 55.53577
982.4080, 55.91626
982.8901, 55.92519
983.3723, 55.70727
983.8544, 55.73394
984.3365, 55.94958
984.8186, 56.12366
985.3007, 56.06535
985.7828, 56.02301
986.2650, 56.13617
986.7471, 56.33534
987.2292, 56.47483
987.7113, 56.47462
988.1934, 56.77084
988.6755, 57.49365
989.1577, 58.15211
989.6398, 58.01112
990.1219, 57.50277
990.6040, 57.39813
991.0861, 57.78967
991.5682, 58.16383
992.0504, 58.32930
992.5325, 58.41906
993.0146, 58.52890
993.4967, 58.62162
993.9788, 58.39677
994.4609, 57.85682
994.9431, 57.52132
995.4252, 57.64414
995.9073, 58.00599
996.3894, 58.53518
996.8715, 59.09076
997.3536, 59.45094
997.8358, 59.53942
998.3179, 59.39387
998.8000, 58.81722
999.2821, 58.32283
999.7642, 58.61877
1000.246, 59.48676
1000.728, 59.57214
1001.211, 58.84343
1001.693, 58.26485
1002.175, 58.69457
1002.657, 59.28377
1003.139, 59.43761
1003.621, 59.21358
1004.103, 59.22777
1004.585, 59.58873
1005.068, 59.75318
1005.550, 59.50325
1006.032, 59.12136
1006.514, 59.01715
1006.996, 59.13154
1007.478, 59.39779
1007.960, 59.98884
1008.442, 60.23456
1008.924, 59.46730
1009.407, 58.68655
1009.889, 58.64179
1010.371, 59.37336
1010.853, 59.63762
1011.335, 59.43321
1011.817, 59.04943
1012.299, 58.37179
1012.781, 57.86112
1013.263, 58.24591
1013.746, 59.18886
1014.228, 59.45957
1014.710, 58.32054
1015.192, 57.57440
1015.674, 57.58492
1016.156, 57.92755
1016.638, 58.03853
1017.120, 57.94304
1017.603, 57.65219
1018.085, 57.12701
1018.567, 56.74977
1019.049, 56.83685
1019.531, 57.07706
1020.013, 57.31107
1020.495, 57.52797
1020.977, 57.51336
1021.459, 57.24927
1021.942, 56.89667
1022.424, 56.42094
1022.906, 56.02618
1023.388, 55.97071
1023.870, 56.20525
1024.352, 56.63317
1024.834, 57.81934
1025.316, 58.28123
1025.799, 57.51949
1026.281, 56.54621
1026.763, 56.50301
1027.245, 57.22706
1027.727, 57.67135
1028.209, 57.77985
1028.691, 57.68597
1029.173, 57.35975
1029.656, 56.96923
1030.138, 56.58767
1030.620, 56.23790
1031.102, 55.97759
1031.584, 55.78926
1032.066, 55.78284
1032.548, 56.03744
1033.030, 56.35423
1033.512, 56.42539
1033.995, 56.35398
1034.477, 56.34814
1034.959, 56.53304
1035.441, 56.47216
1035.923, 55.70787
1036.405, 55.07767
1036.887, 55.12440
1037.369, 55.74495
1037.851, 55.97889
1038.334, 55.86257
1038.816, 55.76980
1039.298, 55.91967
1039.780, 56.15541
1040.262, 56.41328
1040.744, 56.67468
1041.226, 56.91979
1041.708, 57.21275
1042.191, 57.26528
1042.673, 56.99098
1043.155, 56.73102
1043.637, 56.97988
1044.119, 57.42482
1044.601, 57.47632
1045.083, 57.10920
1045.565, 56.80566
1046.047, 56.80648
1046.530, 56.81361
1047.012, 56.71070
1047.494, 56.56424
1047.976, 56.59115
1048.458, 56.76601
1048.940, 56.82977
1049.422, 56.60417
1049.904, 56.60003
1050.386, 57.71952
1050.869, 58.93712
1051.351, 59.04533
1051.833, 57.73824
1052.315, 57.03046
1052.797, 57.00432
1053.279, 57.20134
1053.761, 57.41290
1054.243, 57.63436
1054.726, 57.97424
1055.208, 58.31736
1055.690, 58.35971
1056.172, 57.34848
1056.654, 56.97610
1057.136, 57.78773
1057.618, 58.87263
1058.100, 59.15657
1058.583, 58.74224
1059.065, 58.15649
1059.547, 57.45134
1060.029, 57.07377
1060.511, 57.49259
1060.993, 58.19456
1061.475, 59.21009
1061.957, 60.27398
1062.439, 60.17970
1062.922, 58.69459
1063.404, 57.47550
1063.886, 56.91450
1064.368, 56.85970
1064.850, 57.44684
1065.332, 58.26767
1065.814, 58.75200
1066.296, 58.71427
1066.778, 58.66866
1067.261, 58.64667
1067.743, 58.67437
1068.225, 58.82683
1068.707, 58.65219
1069.189, 58.82882
1069.671, 58.38706
1070.153, 58.06237
1070.635, 57.93518
1071.118, 58.07929
1071.600, 58.96877
1072.082, 59.84269
1072.564, 59.79109
1073.046, 58.69527
1073.528, 58.21990
1074.010, 58.43290
1074.492, 58.81353
1074.974, 59.12498
1075.457, 59.28957
1075.939, 59.24418
1076.421, 58.98877
1076.903, 58.47252
1077.385, 57.38385
1077.867, 56.96782
1078.349, 57.58515
1078.831, 58.51542
1079.313, 58.83124
1079.796, 58.77538
1080.278, 58.73933
1080.760, 58.77407
1081.242, 58.91264
1081.724, 59.22955
1082.206, 59.60884
1082.688, 60.14855
1083.170, 60.63917
1083.652, 60.14534
1084.135, 58.89659
1084.617, 58.13933
1085.099, 58.49269
1085.581, 58.86169
1086.063, 58.43304
1086.545, 57.81403
1087.027, 57.57795
1087.509, 57.77944
1087.992, 57.84107
1088.474, 57.74752
1088.956, 57.76150
1089.438, 58.28739
1089.920, 58.78891
1090.402, 58.50964
1090.884, 57.81493
1091.366, 57.49058
1091.849, 57.84547
1092.331, 58.24558
1092.813, 58.75123
1093.295, 59.04792
1093.777, 58.50574
1094.259, 57.64321
1094.741, 57.60685
1095.223, 58.35415
1095.705, 59.12207
1096.188, 59.96030
1096.670, 60.27128
1097.152, 59.75342
1097.634, 58.81915
1098.116, 58.14862
1098.598, 57.72134
1099.080, 57.40740
1099.562, 57.17145
1100.044, 57.18812
1100.527, 58.06289
1101.009, 58.78027
1101.491, 58.47217
1101.973, 57.36432
1102.455, 56.83581
1102.937, 56.89991
1103.419, 57.02730
1103.901, 57.01154
1104.384, 57.06389
1104.866, 57.69204
1105.348, 58.35735
1105.830, 58.31318
1106.312, 57.17181
1106.794, 56.62167
1107.276, 56.81708
1107.758, 57.05457
1108.240, 56.88241
1108.723, 56.54021
1109.205, 56.47596
1109.687, 56.57356
1110.169, 56.56495
1110.651, 56.33862
1111.133, 56.01023
1111.615, 55.47711
1112.097, 55.03420
1112.579, 54.95925
1113.062, 55.19713
1113.544, 55.74498
1114.026, 56.49934
1114.508, 56.79998
1114.990, 55.77096
1115.472, 54.86858
1115.954, 54.66380
1116.436, 54.85413
1116.919, 55.16169
1117.401, 55.55068
1117.883, 55.29135
1118.365, 54.28079
1118.847, 53.26979
1119.329, 52.68787
1119.811, 52.42318
1120.293, 52.55133
1120.776, 52.94418
1121.258, 53.13630
1121.740, 53.11555
1122.222, 52.97358
1122.704, 52.69046
1123.186, 52.45445
1123.668, 52.54801
1124.150, 52.73860
1124.632, 52.81542
1125.115, 52.75162
1125.597, 52.34377
1126.079, 51.40064
1126.561, 50.77181
1127.043, 50.88343
1127.525, 51.33712
1128.007, 51.54914
1128.489, 51.60751
1128.971, 51.66355
1129.454, 51.77827
1129.936, 51.82566
1130.418, 51.84637
1130.900, 51.70015
1131.382, 51.14619
1131.864, 50.43468
1132.346, 50.42201
1132.828, 50.89294
1133.311, 51.16555
1133.793, 50.72071
1134.275, 50.37602
1134.757, 50.32893
1135.239, 50.42104
1135.721, 50.61400
1136.203, 50.85980
1136.685, 50.62007
1137.167, 49.96535
1137.650, 49.58708
1138.132, 50.22129
1138.614, 50.84433
1139.096, 50.87920
1139.578, 50.68137
1140.060, 50.78877
1140.542, 51.20954
1141.024, 51.29282
1141.506, 50.98347
1141.989, 50.53967
1142.471, 49.88519
1142.953, 49.41471
1143.435, 49.62960
1143.917, 49.27109
1144.399, 49.17792
1144.881, 49.46217
1145.363, 49.22402
1145.846, 49.83691
1146.328, 50.51638
1146.810, 50.58301
1147.292, 50.24545
1147.774, 49.47695
1148.256, 48.34175
1148.738, 47.92677
1149.220, 48.39430
1149.703, 49.03872
1150.185, 49.76114
1150.667, 50.31794
1151.149, 50.27088
1151.631, 49.91917
1152.113, 49.66313
1152.595, 49.57871
1153.077, 49.50203
1153.559, 49.41970
1154.042, 49.34433
1154.524, 49.27851
1155.006, 49.22524
1155.488, 49.15977
1155.970, 49.11852
1156.452, 49.19718
1156.934, 49.50507
1157.416, 49.65635
1157.898, 49.55796
1158.381, 49.40350
1158.863, 49.25923
1159.345, 49.16074
1159.827, 49.26478
1160.309, 49.49997
1160.791, 49.67575
1161.273, 49.78741
1161.755, 49.70299
1162.238, 49.25105
1162.720, 48.80556
1163.202, 48.64278
1163.684, 48.72479
1164.166, 48.86456
1164.648, 49.06020
1165.130, 49.30128
1165.612, 49.84000
1166.094, 50.07914
1166.577, 49.58550
1167.059, 48.95107
1167.541, 48.76431
1168.023, 48.97675
1168.505, 49.18486
1168.987, 49.37872
1169.469, 49.59422
1169.951, 50.07802
1170.433, 50.32617
1170.916, 49.91185
1171.398, 49.25723
1171.880, 48.84347
1172.362, 48.66839
1172.844, 48.82156
1173.326, 49.29951
1173.808, 49.71093
1174.290, 49.84412
1174.773, 49.76735
1175.255, 49.27828
1175.737, 48.69612
1176.219, 48.75888
1176.701, 49.47265
1177.183, 49.67524
1177.665, 49.19298
1178.147, 48.68544
1178.630, 48.57172
1179.112, 48.71386
1179.594, 49.23206
1180.076, 49.91157
1180.558, 50.01927
1181.040, 49.51747
1181.522, 49.22926
1182.004, 49.34407
1182.486, 49.45997
1182.969, 49.12808
1183.451, 48.72053
1183.933, 48.47128
1184.415, 48.41661
1184.897, 48.78481
1185.379, 49.64265
1185.861, 50.17580
1186.343, 50.11884
1186.825, 49.90462
1187.308, 49.92753
1187.790, 50.01886
1188.272, 50.05550
1188.754, 50.02154
1189.236, 49.66490
1189.718, 48.89674
1190.200, 48.75806
1190.682, 49.81004
1191.165, 50.95427
1191.647, 51.06308
1192.129, 50.61096
1192.611, 49.96309
1193.093, 49.13422
1193.575, 48.89989
1194.057, 49.36660
1194.539, 49.61881
1195.021, 49.17671
1195.504, 48.61480
1195.986, 48.51133
1196.468, 48.71360
1196.950, 49.11483
1197.432, 49.78261
1197.914, 49.95797
1198.396, 49.54679
1198.878, 49.30195
1199.360, 49.77169
1199.843, 50.28842
1200.325, 49.92745
1200.807, 49.17568
1201.289, 48.71157
1201.771, 48.64018
1202.253, 48.80138
1202.735, 49.26104
1203.217, 49.51854
1203.700, 49.10008
1204.182, 48.57013
1204.664, 48.66222
1205.146, 49.05427
1205.628, 49.20332
1206.110, 48.92059
1206.592, 48.86453
1207.074, 49.06169
1207.557, 49.31078
1208.039, 49.49731
1208.521, 49.65358
1209.003, 49.85560
1209.485, 50.04283
1209.967, 50.09541
1210.449, 49.99495
1210.931, 49.76322
1211.413, 49.35995
1211.896, 49.07431
1212.378, 49.18398
1212.860, 49.44318
1213.342, 49.70479
1213.824, 49.89146
1214.306, 49.81520
1214.788, 49.39206
1215.270, 48.96655
1215.752, 48.52477
1216.235, 48.26245
1216.717, 48.46992
1217.199, 48.79858
1217.681, 48.90438
1218.163, 48.86216
1218.645, 48.83327
1219.127, 48.79153
1219.609, 48.96970
1220.092, 49.41504
1220.574, 49.72972
1221.056, 49.42029
1221.538, 48.99871
1222.020, 49.01283
1222.502, 49.26455
1222.984, 49.23241
1223.466, 48.79266
1223.948, 48.59019
1224.431, 48.66276
1224.913, 48.97498
1225.395, 49.95992
1225.877, 50.74162
1226.359, 50.25183
1226.841, 49.07915
1227.323, 48.75038
1227.805, 49.43048
1228.287, 49.86174
1228.770, 49.94904
1229.252, 49.90304
1229.734, 49.80189
1230.216, 49.71672
1230.698, 49.67167
1231.180, 49.69525
1231.662, 49.88646
1232.144, 50.27654
1232.627, 50.36563
1233.109, 50.10484
1233.591, 49.80851
1234.073, 49.70930
1234.555, 49.65559
1235.037, 49.50028
1235.519, 49.34168
1236.001, 49.44626
1236.484, 49.81369
1236.966, 49.71854
1237.448, 49.10082
1237.930, 48.68136
1238.412, 49.28021
1238.894, 49.86436
1239.376, 49.70628
1239.858, 49.22999
1240.340, 49.09412
1240.823, 49.27822
1241.305, 49.59762
1241.787, 50.02311
1242.269, 50.31765
1242.751, 50.25800
1243.233, 50.11092
1243.715, 49.96510
1244.197, 49.82969
1244.679, 49.69197
1245.162, 49.57001
1245.644, 49.62429
1246.126, 49.85133
1246.608, 49.95591
1247.090, 49.67514
1247.572, 49.36204
1248.054, 49.03349
1248.536, 48.85632
1249.019, 49.20710
1249.501, 49.91188
1249.983, 50.47894
1250.465, 50.85319
1250.947, 51.00981
1251.429, 50.79297
1251.911, 50.52680
1252.393, 50.22879
1252.875, 50.00257
1253.358, 50.05859
1253.840, 50.26900
1254.322, 50.35992
1254.804, 50.31407
1255.286, 50.20018
1255.768, 50.04634
1256.250, 49.74592
1256.732, 49.13684
1257.214, 48.75986
1257.697, 49.70452
1258.179, 51.09300
1258.661, 51.39352
1259.143, 50.68951
1259.625, 50.19459
1260.107, 50.09313
1260.589, 50.17277
1261.071, 50.45080
1261.554, 50.70584
1262.036, 50.64512
1262.518, 50.46932
1263.000, 50.35931
1263.482, 50.34513
1263.964, 50.51017
1264.446, 50.93690
1264.928, 51.18671
1265.411, 51.20964
1265.893, 50.99662
1266.375, 50.20031
1266.857, 49.46583
1267.339, 49.46968
1267.821, 49.99318
1268.303, 50.31263
1268.785, 50.43103
1269.267, 50.24710
1269.750, 49.73754
1270.232, 49.34225
1270.714, 49.43936
1271.196, 49.70325
1271.678, 50.02554
1272.160, 50.32746
1272.642, 50.44727
1273.124, 50.40416
1273.606, 50.57536
1274.089, 50.96276
1274.571, 51.06982
1275.053, 50.18980
1275.535, 49.48500
1276.017, 49.40887
1276.499, 49.67711
1276.981, 50.03074
1277.463, 50.40327
1277.946, 50.47009
1278.428, 50.26252
1278.910, 50.15112
1279.392, 50.42513
1279.874, 50.65033
1280.356, 50.80639
1280.838, 50.78447
1281.320, 50.32844
1281.802, 49.66674
1282.285, 49.22530
1282.767, 49.01270
1283.249, 48.99622
1283.731, 49.32263
1284.213, 49.52752
1284.695, 49.54607
1285.177, 49.55361
1285.659, 49.80081
1286.141, 50.06316
1286.624, 49.89592
1287.106, 49.52110
1287.588, 49.65574
1288.070, 50.59335
1288.552, 50.87289
1289.034, 50.36064
1289.516, 49.91052
1289.998, 50.44922
1290.481, 51.04060
1290.963, 50.70076
1291.445, 50.01592
1291.927, 50.07000
1292.409, 50.93211
1292.891, 51.27019
1293.373, 51.07737
1293.855, 50.73986
1294.338, 50.27589
1294.820, 49.98016
1295.302, 50.25254
1295.784, 50.53740
1296.266, 50.16629
1296.748, 49.32246
1297.230, 49.47211
1297.712, 50.37288
1298.194, 50.92204
1298.677, 49.90862
1299.159, 49.61513
1299.641, 50.76398
1300.123, 51.87215
1300.605, 51.58884
1301.087, 50.57030
1301.569, 50.46093
1302.051, 50.87291
1302.533, 50.91800
1303.016, 50.35176
##END=



