##NAMES=Gorgeyite
##RRUFFID=R060578
##IDEAL CHEMISTRY=K_2_Ca_5_(S^6+^O_4_)_6_&#183;H_2_O
##LOCALITY=Inder Lake, West Kazakhstan, Kazakhstan
##OWNER=RRUFF
##SOURCE=Michael Scott
##DESCRIPTION=Colorless to yellow tabular crystals
##STATUS=The identification of this mineral has been confirmed by X-ray diffraction.
##URL=rruff.info/R060578
180.2962, 1925.301
180.7783, 1933.206
181.2604, 1939.290
181.7425, 1942.629
182.2246, 1939.032
182.7068, 1932.194
183.1889, 1931.523
183.6710, 1940.985
184.1531, 1954.133
184.6352, 1959.301
185.1173, 1956.967
185.5995, 1955.105
186.0816, 1964.476
186.5637, 1980.695
187.0458, 1986.580
187.5279, 1972.770
188.0100, 1949.377
188.4922, 1940.902
188.9743, 1947.995
189.4564, 1959.318
189.9385, 1964.765
190.4206, 1964.890
190.9027, 1963.881
191.3849, 1962.525
191.8670, 1961.019
192.3491, 1959.375
192.8312, 1957.153
193.3133, 1956.895
193.7955, 1963.047
194.2776, 1975.461
194.7597, 1986.694
195.2418, 1993.025
195.7239, 1995.234
196.2060, 2000.215
196.6882, 2008.586
197.1703, 2018.109
197.6524, 2027.162
198.1345, 2035.982
198.6166, 2039.609
199.0987, 2031.961
199.5809, 2013.022
200.0630, 2004.398
200.5451, 2009.046
201.0272, 2019.882
201.5093, 2024.109
201.9914, 2020.730
202.4736, 2015.617
202.9557, 2012.204
203.4378, 2010.887
203.9199, 2006.290
204.4020, 1997.439
204.8841, 1985.768
205.3663, 1974.069
205.8484, 1961.608
206.3305, 1951.546
206.8126, 1947.385
207.2947, 1950.891
207.7768, 1948.261
208.2590, 1934.804
208.7411, 1915.607
209.2232, 1911.103
209.7053, 1927.500
210.1874, 1943.729
210.6695, 1942.858
211.1517, 1918.972
211.6338, 1903.579
212.1159, 1902.479
212.5980, 1913.352
213.0801, 1923.420
213.5622, 1933.701
214.0444, 1941.085
214.5265, 1941.367
215.0086, 1930.912
215.4907, 1925.183
215.9728, 1927.217
216.4549, 1936.558
216.9371, 1947.649
217.4192, 1961.550
217.9013, 1975.499
218.3834, 1987.472
218.8655, 1998.770
219.3476, 2004.340
219.8298, 2001.816
220.3119, 1991.146
220.7940, 1981.542
221.2761, 1973.053
221.7582, 1965.574
222.2403, 1957.917
222.7225, 1947.354
223.2046, 1943.465
223.6867, 1950.871
224.1688, 1971.201
224.6509, 1984.501
225.1330, 1988.104
225.6152, 1987.330
226.0973, 1989.625
226.5794, 1998.354
227.0615, 2003.057
227.5436, 1999.124
228.0257, 1983.971
228.5079, 1975.926
228.9900, 1977.943
229.4721, 1984.773
229.9542, 1988.913
230.4363, 1989.622
230.9185, 1988.953
231.4006, 1987.056
231.8827, 1983.233
232.3648, 1981.253
232.8469, 1981.762
233.3290, 1983.724
233.8112, 1985.037
234.2933, 1983.881
234.7754, 1985.164
235.2575, 1991.490
235.7396, 2005.771
236.2217, 2015.527
236.7039, 2019.367
237.1860, 2019.383
237.6681, 2019.395
238.1502, 2018.049
238.6323, 2018.859
239.1144, 2023.821
239.5966, 2035.607
240.0787, 2044.254
240.5608, 2049.257
241.0429, 2051.304
241.5250, 2051.285
242.0071, 2046.111
242.4893, 2043.569
242.9714, 2047.448
243.4535, 2061.497
243.9356, 2073.504
244.4177, 2083.996
244.8998, 2092.313
245.3820, 2096.491
245.8641, 2095.091
246.3462, 2091.653
246.8283, 2087.613
247.3104, 2082.740
247.7925, 2077.705
248.2747, 2071.621
248.7568, 2065.582
249.2389, 2063.302
249.7210, 2068.035
250.2031, 2071.601
250.6852, 2069.426
251.1674, 2057.856
251.6495, 2049.474
252.1316, 2045.962
252.6137, 2045.678
253.0958, 2043.175
253.5779, 2036.406
254.0601, 2030.586
254.5422, 2029.087
255.0243, 2034.678
255.5064, 2037.476
255.9885, 2037.105
256.4706, 2033.660
256.9528, 2026.003
257.4349, 2008.829
257.9170, 1996.213
258.3991, 1997.843
258.8812, 2022.085
259.3633, 2037.035
259.8455, 2039.114
260.3276, 2031.149
260.8097, 2022.039
261.2918, 2009.307
261.7739, 1999.815
262.2560, 1998.354
262.7382, 2008.364
263.2203, 2016.004
263.7024, 2019.752
264.1845, 2020.782
264.6666, 2023.811
265.1487, 2030.434
265.6309, 2035.704
266.1130, 2035.515
266.5951, 2027.147
267.0772, 2023.482
267.5593, 2026.826
268.0414, 2034.973
268.5236, 2040.036
269.0057, 2040.761
269.4878, 2041.526
269.9699, 2046.276
270.4520, 2057.073
270.9341, 2061.553
271.4163, 2056.393
271.8984, 2045.397
272.3805, 2039.793
272.8626, 2039.727
273.3447, 2044.505
273.8268, 2056.785
274.3090, 2078.985
274.7911, 2091.009
275.2732, 2088.583
275.7553, 2076.450
276.2374, 2066.470
276.7195, 2058.228
277.2017, 2053.427
277.6838, 2054.386
278.1659, 2061.697
278.6480, 2067.562
279.1301, 2071.571
279.6122, 2073.478
280.0944, 2072.128
280.5765, 2067.030
281.0586, 2061.466
281.5407, 2056.363
282.0229, 2051.692
282.5050, 2051.583
282.9871, 2057.549
283.4692, 2066.792
283.9513, 2072.907
284.4334, 2075.538
284.9156, 2079.200
285.3977, 2089.489
285.8798, 2105.390
286.3619, 2112.094
286.8440, 2106.166
287.3261, 2094.157
287.8083, 2087.600
288.2904, 2086.522
288.7725, 2087.839
289.2546, 2092.093
289.7367, 2098.075
290.2188, 2097.557
290.7010, 2087.773
291.1831, 2076.037
291.6652, 2075.575
292.1473, 2085.696
292.6294, 2096.724
293.1115, 2103.683
293.5937, 2107.261
294.0758, 2109.300
294.5579, 2109.439
295.0400, 2109.650
295.5221, 2113.646
296.0042, 2120.742
296.4864, 2126.648
296.9685, 2127.700
297.4506, 2126.043
297.9327, 2127.378
298.4148, 2132.773
298.8969, 2138.204
299.3791, 2137.860
299.8612, 2133.141
300.3433, 2128.826
300.8254, 2128.058
301.3075, 2129.099
301.7896, 2129.243
302.2718, 2128.317
302.7539, 2126.617
303.2360, 2122.720
303.7181, 2118.126
304.2002, 2116.439
304.6823, 2121.840
305.1645, 2129.988
305.6466, 2136.423
306.1287, 2141.098
306.6108, 2142.783
307.0929, 2137.327
307.5750, 2128.442
308.0572, 2122.710
308.5393, 2125.436
309.0214, 2131.120
309.5035, 2134.461
309.9856, 2135.171
310.4677, 2137.582
310.9499, 2148.503
311.4320, 2162.012
311.9141, 2170.098
312.3962, 2161.575
312.8783, 2152.946
313.3604, 2158.832
313.8426, 2178.606
314.3247, 2192.330
314.8068, 2183.683
315.2889, 2165.476
315.7710, 2151.117
316.2531, 2142.821
316.7353, 2140.998
317.2174, 2148.116
317.6995, 2163.392
318.1816, 2179.030
318.6637, 2198.411
319.1458, 2213.625
319.6280, 2218.320
320.1101, 2194.327
320.5922, 2176.460
321.0743, 2179.747
321.5564, 2200.097
322.0385, 2214.514
322.5207, 2212.769
323.0028, 2205.950
323.4849, 2200.905
323.9670, 2199.411
324.4491, 2198.867
324.9312, 2198.805
325.4134, 2199.376
325.8955, 2201.150
326.3776, 2208.227
326.8597, 2213.509
327.3418, 2213.525
327.8239, 2202.495
328.3061, 2194.060
328.7882, 2187.410
329.2703, 2183.475
329.7524, 2184.818
330.2345, 2196.952
330.7166, 2208.969
331.1988, 2216.806
331.6809, 2218.062
332.1630, 2220.385
332.6451, 2224.842
333.1272, 2229.996
333.6093, 2233.091
334.0915, 2233.493
334.5736, 2232.857
335.0557, 2231.520
335.5378, 2229.277
336.0199, 2227.431
336.5020, 2226.428
336.9842, 2225.375
337.4663, 2222.351
337.9484, 2215.632
338.4305, 2211.753
338.9126, 2213.572
339.3947, 2221.133
339.8769, 2225.541
340.3590, 2225.621
340.8411, 2225.009
341.3232, 2228.215
341.8053, 2235.781
342.2874, 2242.763
342.7696, 2247.690
343.2517, 2251.006
343.7338, 2254.692
344.2159, 2258.875
344.6980, 2263.011
345.1801, 2268.364
345.6623, 2274.470
346.1444, 2273.867
346.6265, 2261.147
347.1086, 2244.188
347.5907, 2245.199
348.0728, 2264.051
348.5550, 2280.553
349.0371, 2275.621
349.5192, 2255.475
350.0013, 2239.065
350.4834, 2228.386
350.9655, 2225.295
351.4477, 2237.622
351.9298, 2262.375
352.4119, 2283.936
352.8940, 2291.723
353.3762, 2290.480
353.8583, 2286.450
354.3404, 2279.389
354.8225, 2273.571
355.3046, 2275.302
355.7867, 2281.646
356.2689, 2285.544
356.7510, 2280.918
357.2331, 2273.712
357.7152, 2268.772
358.1973, 2266.410
358.6794, 2266.876
359.1616, 2273.051
359.6437, 2281.550
360.1258, 2287.640
360.6079, 2290.064
361.0900, 2289.125
361.5721, 2280.949
362.0543, 2265.791
362.5364, 2259.143
363.0185, 2276.120
363.5006, 2300.467
363.9827, 2317.398
364.4648, 2319.133
364.9470, 2317.449
365.4291, 2313.597
365.9112, 2308.183
366.3933, 2304.892
366.8754, 2303.527
367.3575, 2305.092
367.8397, 2310.213
368.3218, 2326.364
368.8039, 2336.922
369.2860, 2337.101
369.7681, 2330.569
370.2502, 2328.455
370.7324, 2336.537
371.2145, 2343.214
371.6966, 2342.518
372.1787, 2326.323
372.6608, 2324.081
373.1429, 2345.905
373.6251, 2376.162
374.1072, 2387.676
374.5893, 2370.389
375.0714, 2354.651
375.5535, 2351.774
376.0356, 2363.100
376.5178, 2365.274
376.9999, 2354.043
377.4820, 2340.912
377.9641, 2341.198
378.4462, 2357.403
378.9283, 2370.284
379.4105, 2374.244
379.8926, 2371.105
380.3747, 2368.993
380.8568, 2367.995
381.3389, 2367.379
381.8210, 2365.201
382.3032, 2362.100
382.7853, 2363.963
383.2674, 2373.655
383.7495, 2386.330
384.2316, 2391.774
384.7137, 2390.725
385.1959, 2389.562
385.6780, 2393.389
386.1601, 2399.959
386.6422, 2404.528
387.1243, 2406.505
387.6064, 2406.668
388.0886, 2405.895
388.5707, 2404.008
389.0528, 2400.563
389.5349, 2390.397
390.0170, 2381.428
390.4991, 2383.711
390.9813, 2398.605
391.4634, 2412.135
391.9455, 2415.117
392.4276, 2411.424
392.9097, 2405.977
393.3918, 2392.320
393.8740, 2384.708
394.3561, 2394.482
394.8382, 2419.535
395.3203, 2439.783
395.8024, 2441.939
396.2845, 2440.114
396.7667, 2444.231
397.2488, 2468.930
397.7309, 2483.571
398.2130, 2474.962
398.6951, 2450.976
399.1772, 2436.390
399.6594, 2439.543
400.1415, 2447.768
400.6236, 2457.155
401.1057, 2469.580
401.5878, 2478.774
402.0699, 2485.358
402.5521, 2488.407
403.0342, 2484.972
403.5163, 2466.005
403.9984, 2457.311
404.4805, 2470.883
404.9626, 2507.257
405.4448, 2522.767
405.9269, 2509.640
406.4090, 2489.919
406.8911, 2485.455
407.3732, 2498.559
407.8553, 2512.126
408.3375, 2524.847
408.8196, 2534.888
409.3017, 2533.369
409.7838, 2519.129
410.2659, 2506.355
410.7480, 2506.457
411.2302, 2517.134
411.7123, 2526.248
412.1944, 2531.289
412.6765, 2537.735
413.1586, 2556.678
413.6407, 2585.105
414.1229, 2609.288
414.6050, 2618.893
415.0871, 2621.646
415.5692, 2629.420
416.0513, 2643.013
416.5334, 2656.143
417.0156, 2660.854
417.4977, 2662.683
417.9798, 2669.824
418.4619, 2688.962
418.9440, 2711.180
419.4261, 2732.023
419.9083, 2751.275
420.3904, 2769.977
420.8725, 2783.688
421.3546, 2799.816
421.8367, 2823.130
422.3188, 2854.277
422.8010, 2893.412
423.2831, 2951.954
423.7652, 3018.063
424.2473, 3067.967
424.7295, 3074.444
425.2116, 3086.594
425.6937, 3123.321
426.1758, 3192.846
426.6579, 3254.735
427.1400, 3304.936
427.6222, 3350.701
428.1043, 3400.969
428.5864, 3460.782
429.0685, 3514.668
429.5506, 3558.623
430.0327, 3593.578
430.5149, 3629.122
430.9970, 3668.102
431.4791, 3700.329
431.9612, 3716.252
432.4433, 3714.948
432.9254, 3713.688
433.4076, 3713.410
433.8897, 3714.898
434.3718, 3721.029
434.8539, 3731.635
435.3360, 3740.782
435.8181, 3744.302
436.3003, 3744.098
436.7824, 3745.626
437.2645, 3749.125
437.7466, 3752.633
438.2287, 3751.752
438.7108, 3749.475
439.1930, 3752.201
439.6751, 3760.023
440.1572, 3775.759
440.6393, 3813.362
441.1214, 3866.155
441.6035, 3901.169
442.0857, 3902.757
442.5678, 3876.376
443.0499, 3823.981
443.5320, 3739.859
444.0141, 3646.217
444.4962, 3545.234
444.9784, 3441.513
445.4605, 3342.768
445.9426, 3239.761
446.4247, 3152.565
446.9068, 3088.124
447.3889, 3048.897
447.8711, 3021.157
448.3532, 3010.993
448.8353, 3007.607
449.3174, 3002.862
449.7995, 2993.334
450.2816, 2988.332
450.7638, 2990.122
451.2459, 2997.076
451.7280, 3002.024
452.2101, 3002.531
452.6922, 3006.736
453.1743, 3019.703
453.6565, 3042.131
454.1386, 3064.947
454.6207, 3087.977
455.1028, 3111.738
455.5849, 3138.716
456.0670, 3168.426
456.5492, 3194.437
457.0313, 3214.284
457.5134, 3228.805
457.9955, 3239.425
458.4776, 3246.218
458.9597, 3248.799
459.4419, 3249.597
459.9240, 3245.470
460.4061, 3229.262
460.8882, 3195.704
461.3703, 3159.102
461.8524, 3132.509
462.3346, 3112.528
462.8167, 3091.822
463.2988, 3065.570
463.7809, 3038.688
464.2630, 3011.536
464.7451, 2983.285
465.2273, 2966.524
465.7094, 2968.751
466.1915, 2983.111
466.6736, 3003.548
467.1557, 3035.727
467.6378, 3066.243
468.1200, 3092.822
468.6021, 3116.302
469.0842, 3138.785
469.5663, 3154.679
470.0484, 3175.957
470.5305, 3207.592
471.0127, 3250.006
471.4948, 3303.227
471.9769, 3373.054
472.4590, 3446.947
472.9411, 3504.716
473.4232, 3542.589
473.9054, 3587.419
474.3875, 3646.982
474.8696, 3719.138
475.3517, 3795.922
475.8338, 3877.983
476.3159, 3958.748
476.7981, 4031.314
477.2802, 4098.355
477.7623, 4170.306
478.2444, 4251.791
478.7265, 4328.940
479.2086, 4388.829
479.6908, 4431.526
480.1729, 4456.304
480.6550, 4453.562
481.1371, 4439.032
481.6192, 4428.460
482.1013, 4421.751
482.5835, 4402.411
483.0656, 4361.503
483.5477, 4304.912
484.0298, 4237.015
484.5119, 4148.461
484.9940, 4062.440
485.4762, 3981.377
485.9583, 3905.874
486.4404, 3837.480
486.9225, 3789.743
487.4046, 3735.754
487.8867, 3662.429
488.3689, 3562.679
488.8510, 3486.009
489.3331, 3441.248
489.8152, 3408.149
490.2973, 3366.016
490.7794, 3311.467
491.2616, 3263.460
491.7437, 3225.633
492.2258, 3195.760
492.7079, 3168.711
493.1900, 3144.732
493.6722, 3123.118
494.1543, 3106.043
494.6364, 3091.386
495.1185, 3069.619
495.6006, 3039.545
496.0828, 3012.271
496.5649, 3000.767
497.0470, 3000.538
497.5291, 3003.086
498.0112, 3010.963
498.4933, 3014.767
498.9755, 3005.797
499.4576, 2985.767
499.9397, 2961.510
500.4218, 2928.829
500.9039, 2898.102
501.3860, 2876.877
501.8682, 2869.898
502.3503, 2860.588
502.8324, 2843.142
503.3145, 2822.155
503.7966, 2803.176
504.2787, 2787.593
504.7609, 2772.333
505.2430, 2755.230
505.7251, 2737.470
506.2072, 2727.869
506.6893, 2731.108
507.1714, 2734.265
507.6536, 2729.646
508.1357, 2716.165
508.6178, 2703.956
509.0999, 2693.253
509.5820, 2684.050
510.0641, 2676.455
510.5463, 2670.411
511.0284, 2665.510
511.5105, 2661.219
511.9926, 2658.167
512.4747, 2658.375
512.9568, 2661.468
513.4390, 2664.290
513.9211, 2665.515
514.4032, 2664.851
514.8853, 2661.615
515.3674, 2655.295
515.8495, 2648.167
516.3317, 2639.909
516.8138, 2632.142
517.2959, 2627.109
517.7780, 2624.734
518.2601, 2625.998
518.7422, 2636.378
519.2244, 2653.923
519.7065, 2659.319
520.1886, 2634.912
520.6707, 2611.278
521.1528, 2602.162
521.6349, 2613.037
522.1171, 2625.320
522.5992, 2642.893
523.0813, 2657.952
523.5634, 2657.415
524.0455, 2637.325
524.5276, 2623.025
525.0098, 2622.261
525.4919, 2631.340
525.9740, 2638.363
526.4561, 2643.335
526.9382, 2647.743
527.4203, 2654.262
527.9025, 2660.916
528.3846, 2661.715
528.8667, 2655.236
529.3488, 2648.669
529.8309, 2650.431
530.3130, 2656.397
530.7952, 2659.895
531.2773, 2660.183
531.7594, 2655.591
532.2415, 2640.539
532.7236, 2618.222
533.2057, 2603.021
533.6879, 2603.344
534.1700, 2608.623
534.6521, 2614.365
535.1342, 2621.289
535.6163, 2625.393
536.0984, 2624.190
536.5806, 2621.782
537.0627, 2622.108
537.5448, 2624.639
538.0269, 2631.908
538.5090, 2646.707
538.9911, 2665.415
539.4733, 2674.966
539.9554, 2674.586
540.4375, 2671.270
540.9196, 2668.917
541.4017, 2666.889
541.8839, 2660.796
542.3660, 2649.915
542.8481, 2641.243
543.3302, 2645.972
543.8123, 2657.060
544.2944, 2659.447
544.7766, 2642.639
545.2587, 2626.150
545.7408, 2628.932
546.2229, 2644.290
546.7050, 2655.711
547.1871, 2652.543
547.6693, 2647.234
548.1514, 2645.823
548.6335, 2649.115
549.1156, 2652.089
549.5977, 2654.377
550.0798, 2655.838
550.5620, 2655.993
551.0441, 2651.771
551.5262, 2652.422
552.0083, 2659.417
552.4904, 2670.672
552.9725, 2684.069
553.4547, 2701.334
553.9368, 2711.471
554.4189, 2708.794
554.9010, 2696.268
555.3831, 2683.875
555.8652, 2671.560
556.3474, 2662.236
556.8295, 2659.065
557.3116, 2660.390
557.7937, 2663.559
558.2758, 2668.827
558.7579, 2673.098
559.2401, 2670.791
559.7222, 2666.330
560.2043, 2666.581
560.6864, 2684.101
561.1685, 2697.238
561.6506, 2693.174
562.1328, 2675.105
562.6149, 2660.531
563.0970, 2648.648
563.5791, 2644.777
564.0612, 2652.631
564.5433, 2676.901
565.0255, 2695.288
565.5076, 2707.743
565.9897, 2714.140
566.4718, 2712.281
566.9539, 2700.180
567.4360, 2692.832
567.9182, 2693.802
568.4003, 2699.423
568.8824, 2701.016
569.3645, 2699.106
569.8466, 2700.358
570.3287, 2713.673
570.8109, 2730.367
571.2930, 2733.521
571.7751, 2723.511
572.2572, 2713.100
572.7393, 2713.250
573.2214, 2716.445
573.7036, 2713.707
574.1857, 2698.100
574.6678, 2688.349
575.1499, 2697.403
575.6320, 2714.935
576.1141, 2725.944
576.5963, 2717.766
577.0784, 2714.640
577.5605, 2723.463
578.0426, 2741.764
578.5247, 2754.407
579.0068, 2759.726
579.4890, 2762.576
579.9711, 2763.991
580.4532, 2763.616
580.9353, 2769.275
581.4174, 2781.838
581.8995, 2796.850
582.3817, 2809.455
582.8638, 2820.346
583.3459, 2832.236
583.8280, 2846.223
584.3101, 2860.539
584.7922, 2872.527
585.2744, 2882.998
585.7565, 2894.332
586.2386, 2903.406
586.7207, 2917.211
587.2028, 2942.102
587.6849, 2977.748
588.1671, 3012.453
588.6492, 3040.638
589.1313, 3068.592
589.6134, 3099.677
590.0955, 3133.813
590.5776, 3171.279
591.0598, 3210.421
591.5419, 3254.382
592.0240, 3311.902
592.5061, 3388.950
592.9882, 3448.985
593.4703, 3479.883
593.9525, 3491.722
594.4346, 3509.478
594.9167, 3532.174
595.3988, 3546.094
595.8809, 3541.035
596.3630, 3523.038
596.8452, 3499.076
597.3273, 3469.961
597.8094, 3441.978
598.2915, 3411.566
598.7736, 3388.475
599.2557, 3383.845
599.7379, 3409.386
600.2200, 3434.416
600.7021, 3448.247
601.1843, 3456.718
601.6664, 3469.256
602.1485, 3490.631
602.6306, 3510.954
603.1127, 3533.244
603.5948, 3553.759
604.0770, 3550.631
604.5591, 3519.158
605.0412, 3479.502
605.5233, 3440.302
606.0054, 3401.621
606.4875, 3366.382
606.9697, 3334.706
607.4518, 3308.152
607.9339, 3291.788
608.4160, 3281.365
608.8981, 3267.522
609.3802, 3244.871
609.8624, 3227.055
610.3445, 3226.906
610.8266, 3237.962
611.3087, 3249.378
611.7908, 3253.290
612.2729, 3261.094
612.7551, 3280.731
613.2372, 3309.698
613.7193, 3329.113
614.2014, 3326.029
614.6835, 3328.524
615.1656, 3349.370
615.6478, 3390.721
616.1299, 3428.398
616.6120, 3460.891
617.0941, 3493.343
617.5762, 3531.618
618.0583, 3575.288
618.5405, 3617.366
619.0226, 3655.952
619.5047, 3695.190
619.9868, 3742.028
620.4689, 3793.794
620.9510, 3845.529
621.4332, 3888.919
621.9153, 3936.687
622.3974, 4000.088
622.8795, 4076.018
623.3616, 4152.440
623.8438, 4217.605
624.3259, 4289.456
624.8080, 4375.901
625.2901, 4478.674
625.7722, 4588.083
626.2543, 4700.527
626.7365, 4824.084
627.2186, 4969.041
627.7007, 5140.316
628.1828, 5302.394
628.6649, 5451.412
629.1470, 5590.115
629.6292, 5730.733
630.1113, 5867.196
630.5934, 5966.959
631.0755, 6010.028
631.5576, 6022.780
632.0397, 6039.941
632.5219, 6054.369
633.0040, 6043.010
633.4861, 6005.304
633.9682, 5929.349
634.4503, 5804.639
634.9324, 5630.265
635.4146, 5427.360
635.8967, 5178.594
636.3788, 4921.328
636.8609, 4670.938
637.3430, 4418.540
637.8251, 4196.758
638.3073, 4008.415
638.7894, 3849.849
639.2715, 3719.173
639.7536, 3617.106
640.2357, 3539.021
640.7178, 3488.938
641.2000, 3451.670
641.6821, 3400.273
642.1642, 3339.300
642.6463, 3286.050
643.1284, 3247.271
643.6105, 3220.260
644.0927, 3205.640
644.5748, 3201.995
645.0569, 3200.753
645.5390, 3198.962
646.0211, 3198.477
646.5032, 3198.687
646.9854, 3196.803
647.4675, 3207.896
647.9496, 3238.946
648.4317, 3274.963
648.9138, 3302.864
649.3959, 3319.576
649.8781, 3346.373
650.3602, 3387.464
650.8423, 3433.248
651.3244, 3466.334
651.8065, 3490.255
652.2886, 3524.424
652.7708, 3579.550
653.2529, 3642.406
653.7350, 3706.698
654.2171, 3767.776
654.6992, 3810.121
655.1813, 3816.940
655.6635, 3811.530
656.1456, 3802.754
656.6277, 3791.257
657.1098, 3782.816
657.5919, 3764.817
658.0740, 3762.882
658.5562, 3792.301
659.0383, 3861.114
659.5204, 3930.440
660.0025, 4006.990
660.4846, 4069.419
660.9667, 4099.621
661.4489, 4097.246
661.9310, 4052.788
662.4131, 3958.222
662.8952, 3839.657
663.3773, 3717.812
663.8594, 3598.326
664.3416, 3494.331
664.8237, 3410.824
665.3058, 3344.725
665.7879, 3297.146
666.2700, 3266.120
666.7521, 3244.881
667.2343, 3234.534
667.7164, 3231.684
668.1985, 3235.746
668.6806, 3246.658
669.1627, 3263.726
669.6448, 3293.869
670.1270, 3314.419
670.6091, 3309.444
671.0912, 3279.684
671.5733, 3241.775
672.0554, 3196.262
672.5375, 3144.125
673.0197, 3077.957
673.5018, 3007.557
673.9839, 2951.997
674.4660, 2918.512
674.9481, 2894.089
675.4302, 2871.389
675.9124, 2851.966
676.3945, 2837.698
676.8766, 2833.045
677.3587, 2829.045
677.8408, 2820.574
678.3229, 2811.507
678.8051, 2815.156
679.2872, 2839.498
679.7693, 2856.594
680.2514, 2855.802
680.7335, 2839.964
681.2156, 2818.864
681.6978, 2792.094
682.1799, 2775.445
682.6620, 2787.853
683.1441, 2814.325
683.6262, 2833.108
684.1083, 2842.668
684.5905, 2841.140
685.0726, 2813.645
685.5547, 2782.363
686.0368, 2767.699
686.5189, 2781.169
687.0010, 2793.672
687.4832, 2799.280
687.9653, 2802.926
688.4474, 2810.729
688.9295, 2827.682
689.4116, 2833.328
689.8937, 2822.070
690.3759, 2802.326
690.8580, 2787.889
691.3401, 2778.876
691.8222, 2777.435
692.3043, 2790.412
692.7864, 2805.290
693.2686, 2801.002
693.7507, 2782.430
694.2328, 2767.518
694.7149, 2765.571
695.1970, 2769.313
695.6791, 2774.856
696.1613, 2781.996
696.6434, 2792.638
697.1255, 2817.656
697.6076, 2835.334
698.0897, 2832.746
698.5718, 2804.979
699.0540, 2791.921
699.5361, 2796.396
700.0182, 2807.021
700.5003, 2816.910
700.9824, 2824.695
701.4645, 2820.947
701.9467, 2802.235
702.4288, 2784.476
702.9109, 2785.163
703.3930, 2796.466
703.8751, 2807.172
704.3572, 2817.426
704.8394, 2821.301
705.3215, 2809.216
705.8036, 2790.462
706.2857, 2783.179
706.7678, 2795.040
707.2499, 2807.477
707.7321, 2818.894
708.2142, 2828.303
708.6963, 2832.110
709.1784, 2830.178
709.6605, 2824.042
710.1426, 2810.413
710.6248, 2794.762
711.1069, 2791.998
711.5890, 2800.604
712.0711, 2810.452
712.5532, 2815.942
713.0353, 2819.187
713.5175, 2821.963
713.9996, 2824.499
714.4817, 2825.168
714.9638, 2822.493
715.4459, 2818.580
715.9280, 2813.914
716.4102, 2806.319
716.8923, 2806.787
717.3744, 2819.962
717.8565, 2832.446
718.3386, 2826.852
718.8207, 2805.567
719.3029, 2794.330
719.7850, 2797.652
720.2671, 2808.377
720.7492, 2824.714
721.2313, 2841.378
721.7134, 2848.112
722.1956, 2833.233
722.6777, 2820.215
723.1598, 2826.076
723.6419, 2840.321
724.1240, 2842.159
724.6061, 2812.658
725.0883, 2792.516
725.5704, 2791.291
726.0525, 2803.155
726.5346, 2807.632
727.0167, 2803.211
727.4988, 2803.358
727.9810, 2817.701
728.4631, 2838.530
728.9452, 2848.057
729.4273, 2846.977
729.9094, 2839.774
730.3915, 2820.942
730.8737, 2803.249
731.3558, 2797.037
731.8379, 2803.064
732.3200, 2813.810
732.8021, 2838.619
733.2842, 2857.471
733.7664, 2858.891
734.2485, 2838.413
734.7306, 2823.501
735.2127, 2815.315
735.6948, 2809.968
736.1769, 2801.823
736.6591, 2792.469
737.1412, 2796.216
737.6233, 2816.218
738.1054, 2835.863
738.5875, 2837.100
739.0696, 2828.203
739.5518, 2820.518
740.0339, 2815.894
740.5161, 2814.953
740.9982, 2823.163
741.4803, 2833.266
741.9624, 2834.356
742.4445, 2815.935
742.9266, 2807.847
743.4088, 2816.594
743.8909, 2833.902
744.3730, 2844.271
744.8551, 2847.618
745.3372, 2847.875
745.8193, 2846.092
746.3015, 2842.071
746.7836, 2831.425
747.2657, 2817.807
747.7478, 2811.759
748.2299, 2828.610
748.7120, 2844.932
749.1942, 2842.549
749.6763, 2826.346
750.1584, 2824.408
750.6405, 2855.249
751.1226, 2881.042
751.6047, 2890.480
752.0869, 2884.458
752.5690, 2870.042
753.0511, 2845.510
753.5332, 2826.505
754.0153, 2826.889
754.4974, 2839.127
754.9796, 2846.019
755.4617, 2847.335
755.9438, 2846.501
756.4259, 2849.973
756.9080, 2849.333
757.3901, 2831.877
757.8723, 2789.681
758.3544, 2770.743
758.8365, 2801.979
759.3186, 2841.748
759.8007, 2867.500
760.2828, 2878.334
760.7650, 2876.275
761.2471, 2857.542
761.7292, 2838.511
762.2113, 2841.501
762.6934, 2858.454
763.1755, 2861.424
763.6577, 2843.299
764.1398, 2825.420
764.6219, 2825.161
765.1040, 2834.549
765.5861, 2844.569
766.0682, 2856.778
766.5504, 2863.415
767.0325, 2860.282
767.5146, 2852.474
767.9967, 2844.229
768.4788, 2833.342
768.9609, 2831.611
769.4431, 2842.905
769.9252, 2860.006
770.4073, 2873.377
770.8894, 2882.580
771.3715, 2885.044
771.8536, 2876.744
772.3358, 2866.533
772.8179, 2859.444
773.3000, 2856.306
773.7821, 2858.757
774.2642, 2875.979
774.7463, 2888.865
775.2285, 2892.673
775.7106, 2889.051
776.1927, 2879.766
776.6748, 2861.206
777.1569, 2850.997
777.6390, 2857.762
778.1212, 2874.002
778.6033, 2882.049
779.0854, 2882.199
779.5675, 2876.553
780.0496, 2856.881
780.5317, 2839.281
781.0139, 2842.036
781.4960, 2860.582
781.9781, 2871.931
782.4602, 2858.183
782.9423, 2847.549
783.4244, 2853.477
783.9066, 2873.529
784.3887, 2877.044
784.8708, 2859.537
785.3529, 2842.615
785.8350, 2838.469
786.3171, 2844.044
786.7993, 2849.893
787.2814, 2855.861
787.7635, 2860.443
788.2456, 2860.000
788.7277, 2859.672
789.2098, 2866.168
789.6920, 2880.179
790.1741, 2887.526
790.6562, 2879.308
791.1383, 2868.652
791.6204, 2860.706
792.1025, 2855.545
792.5847, 2853.071
793.0668, 2853.471
793.5489, 2855.820
794.0310, 2861.364
794.5131, 2868.081
794.9952, 2868.679
795.4774, 2862.647
795.9595, 2859.247
796.4416, 2870.197
796.9237, 2883.364
797.4058, 2887.663
797.8879, 2879.167
798.3701, 2871.090
798.8522, 2864.246
799.3343, 2858.886
799.8164, 2853.733
800.2985, 2847.429
800.7806, 2854.262
801.2628, 2876.833
801.7449, 2901.550
802.2270, 2920.056
802.7091, 2929.282
803.1912, 2916.505
803.6733, 2874.650
804.1555, 2844.349
804.6376, 2865.375
805.1197, 2900.911
805.6018, 2917.187
806.0839, 2896.850
806.5660, 2879.620
807.0482, 2863.787
807.5303, 2853.213
808.0124, 2853.211
808.4945, 2863.787
808.9766, 2876.608
809.4587, 2892.280
809.9409, 2902.778
810.4230, 2893.499
810.9051, 2875.114
811.3872, 2864.087
811.8693, 2864.162
812.3514, 2872.143
812.8336, 2895.183
813.3157, 2921.250
813.7978, 2936.944
814.2799, 2940.415
814.7620, 2936.499
815.2441, 2922.543
815.7263, 2906.348
816.2084, 2897.936
816.6905, 2896.535
817.1726, 2897.602
817.6547, 2900.632
818.1368, 2904.551
818.6190, 2909.606
819.1011, 2914.479
819.5832, 2917.431
820.0653, 2918.045
820.5474, 2916.534
821.0295, 2910.692
821.5117, 2904.077
821.9938, 2900.154
822.4759, 2898.842
822.9580, 2901.653
823.4401, 2910.454
823.9222, 2918.987
824.4044, 2916.013
824.8865, 2905.497
825.3686, 2897.553
825.8507, 2893.998
826.3328, 2895.928
826.8149, 2911.147
827.2971, 2929.648
827.7792, 2938.453
828.2613, 2927.769
828.7434, 2916.960
829.2255, 2904.825
829.7076, 2894.558
830.1898, 2891.501
830.6719, 2895.662
831.1540, 2899.162
831.6361, 2900.644
832.1182, 2900.800
832.6003, 2896.450
833.0825, 2892.374
833.5646, 2897.709
834.0467, 2924.442
834.5288, 2944.437
835.0109, 2945.210
835.4930, 2934.846
835.9752, 2924.326
836.4573, 2912.697
836.9394, 2904.007
837.4215, 2898.938
837.9036, 2896.471
838.3857, 2895.141
838.8679, 2895.141
839.3500, 2897.413
839.8321, 2902.402
840.3142, 2908.929
840.7963, 2917.958
841.2784, 2927.212
841.7606, 2933.740
842.2427, 2936.171
842.7248, 2936.532
843.2069, 2933.482
843.6890, 2929.901
844.1711, 2929.268
844.6533, 2931.664
845.1354, 2935.434
845.6175, 2940.712
846.0996, 2945.890
846.5817, 2952.361
847.0638, 2956.535
847.5460, 2949.826
848.0281, 2922.496
848.5102, 2904.058
848.9923, 2913.921
849.4744, 2934.654
849.9565, 2948.392
850.4387, 2955.531
850.9208, 2951.815
851.4029, 2932.413
851.8850, 2912.720
852.3671, 2914.513
852.8492, 2931.792
853.3314, 2940.748
853.8135, 2936.133
854.2956, 2931.274
854.7777, 2939.011
855.2598, 2950.698
855.7419, 2957.236
856.2241, 2953.608
856.7062, 2952.462
857.1883, 2957.126
857.6704, 2961.424
858.1525, 2960.226
858.6346, 2953.432
859.1168, 2940.961
859.5989, 2921.436
860.0810, 2907.841
860.5631, 2919.516
861.0452, 2942.213
861.5273, 2957.873
862.0095, 2963.792
862.4916, 2960.797
862.9737, 2936.464
863.4558, 2913.367
863.9379, 2908.357
864.4200, 2926.845
864.9022, 2935.313
865.3843, 2931.975
865.8664, 2925.585
866.3485, 2922.435
866.8306, 2922.037
867.3127, 2922.701
867.7949, 2924.349
868.2770, 2928.760
868.7591, 2942.162
869.2412, 2954.881
869.7233, 2958.911
870.2054, 2951.675
870.6876, 2948.706
871.1697, 2952.608
871.6518, 2955.751
872.1339, 2951.035
872.6160, 2940.867
873.0981, 2944.909
873.5803, 2962.538
874.0624, 2978.926
874.5445, 2984.168
875.0266, 2983.576
875.5087, 2980.378
875.9908, 2975.050
876.4730, 2970.719
876.9551, 2968.190
877.4372, 2966.862
877.9193, 2967.811
878.4014, 2970.021
878.8835, 2963.423
879.3657, 2947.617
879.8478, 2940.593
880.3299, 2962.783
880.8120, 2992.126
881.2941, 2995.871
881.7763, 2979.620
882.2584, 2963.034
882.7405, 2948.367
883.2227, 2940.989
883.7048, 2946.334
884.1869, 2959.913
884.6690, 2970.315
885.1511, 2977.977
885.6332, 2979.505
886.1154, 2971.415
886.5975, 2960.147
887.0796, 2956.148
887.5617, 2958.542
888.0438, 2965.007
888.5259, 2978.764
889.0081, 2991.511
889.4902, 3000.774
889.9723, 3006.086
890.4544, 3006.494
890.9365, 3000.165
891.4186, 2992.968
891.9008, 2983.719
892.3829, 2977.469
892.8650, 2989.056
893.3471, 3011.147
893.8292, 3014.609
894.3113, 2983.796
894.7935, 2958.295
895.2756, 2980.327
895.7577, 3016.736
896.2398, 3029.155
896.7219, 2988.452
897.2040, 2963.601
897.6862, 2957.408
898.1683, 2962.501
898.6504, 2976.087
899.1325, 2995.987
899.6146, 3005.547
900.0967, 3002.567
900.5789, 2995.629
901.0610, 2986.733
901.5431, 2980.494
902.0252, 2983.311
902.5073, 2999.082
902.9894, 3007.671
903.4716, 3004.509
903.9537, 2997.323
904.4358, 2987.269
904.9179, 2975.154
905.4000, 2980.366
905.8821, 3003.038
906.3643, 3021.102
906.8464, 3013.075
907.3285, 2996.406
907.8106, 2986.924
908.2927, 2985.792
908.7748, 2993.629
909.2570, 3028.158
909.7391, 3051.646
910.2212, 3048.902
910.7033, 3025.686
911.1854, 3006.916
911.6675, 2992.463
912.1497, 2992.946
912.6318, 3026.622
913.1139, 3063.445
913.5960, 3057.583
914.0781, 3024.201
914.5602, 2999.917
915.0424, 3003.186
915.5245, 3011.763
916.0066, 3024.371
916.4887, 3036.608
916.9708, 3039.399
917.4529, 3031.876
917.9351, 3022.656
918.4172, 3011.038
918.8993, 3005.396
919.3814, 3027.517
919.8635, 3060.323
920.3456, 3072.316
920.8278, 3039.931
921.3099, 3019.321
921.7920, 3041.199
922.2741, 3072.349
922.7562, 3083.836
923.2383, 3071.692
923.7205, 3061.220
924.2026, 3053.597
924.6847, 3045.813
925.1668, 3033.207
925.6489, 3019.270
926.1310, 3007.450
926.6132, 2998.019
927.0953, 2998.993
927.5774, 3025.021
928.0595, 3051.913
928.5416, 3066.593
929.0237, 3069.130
929.5059, 3073.253
929.9880, 3079.750
930.4701, 3082.437
930.9522, 3072.338
931.4343, 3058.914
931.9164, 3061.446
932.3986, 3075.834
932.8807, 3086.370
933.3628, 3077.504
933.8449, 3072.918
934.3270, 3090.225
934.8091, 3116.319
935.2913, 3115.198
935.7734, 3081.283
936.2555, 3057.119
936.7376, 3055.433
937.2197, 3063.638
937.7018, 3062.375
938.1840, 3056.997
938.6661, 3058.854
939.1482, 3076.455
939.6303, 3092.568
940.1124, 3101.230
940.5945, 3106.183
941.0767, 3110.890
941.5588, 3115.316
942.0409, 3120.182
942.5230, 3125.704
943.0051, 3130.465
943.4872, 3135.346
943.9694, 3137.618
944.4515, 3129.137
944.9336, 3108.131
945.4157, 3096.984
945.8978, 3119.123
946.3799, 3139.741
946.8621, 3138.656
947.3442, 3117.003
947.8263, 3110.121
948.3084, 3119.347
948.7905, 3128.179
949.2726, 3124.807
949.7548, 3116.890
950.2369, 3114.633
950.7190, 3117.235
951.2011, 3122.065
951.6832, 3124.190
952.1653, 3133.979
952.6475, 3161.640
953.1296, 3194.581
953.6117, 3203.371
954.0938, 3187.243
954.5759, 3169.694
955.0580, 3154.333
955.5402, 3144.637
956.0223, 3149.907
956.5044, 3161.690
956.9865, 3166.287
957.4686, 3152.029
957.9507, 3149.512
958.4329, 3171.806
958.9150, 3198.174
959.3971, 3212.847
959.8792, 3215.671
960.3613, 3214.761
960.8434, 3210.153
961.3256, 3206.100
961.8077, 3209.082
962.2898, 3212.143
962.7719, 3204.376
963.2540, 3186.223
963.7361, 3180.186
964.2183, 3199.138
964.7004, 3218.386
965.1825, 3229.428
965.6646, 3234.968
966.1467, 3244.062
966.6288, 3256.361
967.1110, 3270.312
967.5931, 3291.906
968.0752, 3306.059
968.5573, 3288.363
969.0394, 3257.677
969.5215, 3247.946
970.0037, 3279.951
970.4858, 3306.737
970.9679, 3326.735
971.4500, 3337.989
971.9321, 3331.148
972.4142, 3312.372
972.8964, 3307.357
973.3785, 3320.086
973.8606, 3338.679
974.3427, 3366.474
974.8248, 3388.183
975.3069, 3385.921
975.7891, 3354.856
976.2712, 3342.898
976.7533, 3354.280
977.2354, 3371.640
977.7175, 3387.094
978.1996, 3401.242
978.6818, 3414.857
979.1639, 3428.473
979.6460, 3444.223
980.1281, 3467.097
980.6102, 3488.020
981.0923, 3499.566
981.5745, 3507.498
982.0566, 3523.321
982.5387, 3547.904
983.0208, 3576.817
983.5029, 3611.225
983.9850, 3643.753
984.4672, 3659.157
984.9493, 3668.825
985.4314, 3693.373
985.9135, 3742.344
986.3956, 3785.437
986.8777, 3800.636
987.3599, 3819.302
987.8420, 3858.849
988.3241, 3919.322
988.8062, 3992.642
989.2883, 4078.914
989.7704, 4168.024
990.2526, 4239.083
990.7347, 4320.662
991.2168, 4446.667
991.6989, 4609.771
992.1810, 4774.117
992.6631, 4916.285
993.1453, 5083.577
993.6274, 5280.861
994.1095, 5510.026
994.5916, 5771.263
995.0737, 6064.714
995.5558, 6403.895
996.0380, 6789.440
996.5201, 7218.584
997.0022, 7701.090
997.4843, 8220.542
997.9664, 8766.252
998.4485, 9361.843
998.9307, 9887.529
999.4128, 10330.29
999.8949, 10729.44
1000.377, 11085.55
1000.859, 11425.53
1001.341, 11793.52
1001.823, 12202.07
1002.305, 12725.17
1002.788, 13375.72
1003.270, 14182.09
1003.752, 15232.54
1004.234, 16431.18
1004.716, 17661.31
1005.198, 18955.39
1005.680, 19814.93
1006.162, 20086.88
1006.645, 19897.08
1007.127, 19163.00
1007.609, 18147.01
1008.091, 17214.55
1008.573, 16373.13
1009.055, 15829.00
1009.537, 15617.96
1010.019, 15663.12
1010.501, 15914.28
1010.984, 16371.21
1011.466, 17088.07
1011.948, 18056.39
1012.430, 19160.09
1012.912, 20700.44
1013.394, 22005.45
1013.876, 22802.38
1014.358, 22955.81
1014.841, 22067.72
1015.323, 19815.62
1015.805, 17368.02
1016.287, 14862.73
1016.769, 12494.16
1017.251, 10596.03
1017.733, 9110.354
1018.215, 7929.435
1018.697, 7081.662
1019.180, 6394.817
1019.662, 5837.389
1020.144, 5393.026
1020.626, 5056.575
1021.108, 4835.378
1021.590, 4645.410
1022.072, 4487.170
1022.554, 4348.260
1023.037, 4220.631
1023.519, 4107.713
1024.001, 4011.230
1024.483, 3932.807
1024.965, 3875.958
1025.447, 3862.484
1025.929, 3835.909
1026.411, 3781.299
1026.893, 3717.902
1027.376, 3682.652
1027.858, 3668.442
1028.340, 3648.490
1028.822, 3615.760
1029.304, 3585.137
1029.786, 3571.042
1030.268, 3559.124
1030.750, 3536.781
1031.233, 3503.034
1031.715, 3468.458
1032.197, 3431.716
1032.679, 3406.434
1033.161, 3406.090
1033.643, 3418.593
1034.125, 3430.515
1034.607, 3440.087
1035.089, 3442.150
1035.572, 3432.282
1036.054, 3417.572
1036.536, 3397.393
1037.018, 3375.419
1037.500, 3354.614
1037.982, 3335.931
1038.464, 3331.135
1038.946, 3342.996
1039.428, 3352.415
1039.911, 3337.478
1040.393, 3319.805
1040.875, 3320.086
1041.357, 3339.628
1041.839, 3345.104
1042.321, 3333.031
1042.803, 3319.943
1043.285, 3311.301
1043.768, 3307.993
1044.250, 3318.686
1044.732, 3335.417
1045.214, 3340.354
1045.696, 3306.126
1046.178, 3290.279
1046.660, 3318.422
1047.142, 3352.715
1047.625, 3352.133
1048.107, 3319.537
1048.589, 3302.357
1049.071, 3303.225
1049.553, 3308.715
1050.035, 3311.653
1050.517, 3312.888
1050.999, 3312.790
1051.481, 3311.410
1051.964, 3308.833
1052.446, 3303.431
1052.928, 3302.847
1053.410, 3310.779
1053.892, 3321.169
1054.374, 3323.655
1054.856, 3321.179
1055.338, 3319.550
1055.820, 3321.583
1056.303, 3320.368
1056.785, 3300.233
1057.267, 3291.128
1057.749, 3319.259
1058.231, 3380.566
1058.713, 3415.721
1059.195, 3426.094
1059.677, 3429.526
1060.160, 3432.131
1060.642, 3436.297
1061.124, 3443.829
1061.606, 3454.326
1062.088, 3466.206
1062.570, 3479.425
1063.052, 3493.788
1063.534, 3509.055
1064.016, 3526.362
1064.499, 3550.880
1064.981, 3577.084
1065.463, 3595.433
1065.945, 3604.536
1066.427, 3610.815
1066.909, 3609.728
1067.391, 3614.881
1067.873, 3635.902
1068.355, 3665.000
1068.838, 3667.488
1069.320, 3648.881
1069.802, 3640.902
1070.284, 3666.463
1070.766, 3687.645
1071.248, 3663.744
1071.730, 3632.935
1072.212, 3644.399
1072.695, 3717.200
1073.177, 3756.408
1073.659, 3757.519
1074.141, 3758.207
1074.623, 3795.420
1075.105, 3844.773
1075.587, 3876.049
1076.069, 3891.394
1076.552, 3907.862
1077.034, 3927.808
1077.516, 3953.083
1077.998, 3988.069
1078.480, 4022.874
1078.962, 4048.549
1079.444, 4060.340
1079.926, 4037.767
1080.408, 3973.334
1080.891, 3904.938
1081.373, 3851.249
1081.855, 3801.554
1082.337, 3748.257
1082.819, 3692.189
1083.301, 3637.792
1083.783, 3585.173
1084.265, 3544.607
1084.747, 3527.244
1085.230, 3514.797
1085.712, 3488.320
1086.194, 3456.235
1086.676, 3432.118
1087.158, 3417.406
1087.640, 3410.123
1088.122, 3411.043
1088.604, 3416.899
1089.087, 3431.129
1089.569, 3445.554
1090.051, 3440.365
1090.533, 3418.755
1091.015, 3404.587
1091.497, 3411.459
1091.979, 3421.785
1092.461, 3433.532
1092.943, 3444.330
1093.426, 3446.025
1093.908, 3441.814
1094.390, 3450.530
1094.872, 3477.808
1095.354, 3502.134
1095.836, 3505.873
1096.318, 3504.630
1096.800, 3507.919
1097.283, 3515.984
1097.765, 3531.062
1098.247, 3553.164
1098.729, 3582.905
1099.211, 3623.402
1099.693, 3666.140
1100.175, 3703.701
1100.657, 3736.682
1101.140, 3764.897
1101.622, 3781.114
1102.104, 3810.170
1102.586, 3855.790
1103.068, 3901.628
1103.550, 3929.302
1104.032, 3949.520
1104.514, 3990.146
1104.996, 4046.120
1105.479, 4089.315
1105.961, 4093.712
1106.443, 4105.031
1106.925, 4137.387
1107.407, 4176.781
1107.889, 4198.716
1108.371, 4206.925
1108.853, 4220.512
1109.335, 4242.878
1109.818, 4262.809
1110.300, 4269.840
1110.782, 4275.484
1111.264, 4283.974
1111.746, 4296.772
1112.228, 4323.694
1112.710, 4365.242
1113.192, 4409.718
1113.675, 4451.316
1114.157, 4497.515
1114.639, 4553.630
1115.121, 4618.671
1115.603, 4697.199
1116.085, 4802.533
1116.567, 4865.911
1117.049, 4879.095
1117.531, 4883.146
1118.014, 4900.388
1118.496, 4927.671
1118.978, 4966.338
1119.460, 5010.361
1119.942, 5044.864
1120.424, 5062.387
1120.906, 5074.440
1121.388, 5089.719
1121.870, 5087.194
1122.353, 5038.024
1122.835, 4952.863
1123.317, 4866.216
1123.799, 4778.472
1124.281, 4671.868
1124.763, 4509.939
1125.245, 4361.203
1125.727, 4250.054
1126.210, 4167.292
1126.692, 4093.643
1127.174, 4029.433
1127.656, 3978.524
1128.138, 3943.637
1128.620, 3915.636
1129.102, 3881.077
1129.584, 3857.076
1130.067, 3862.005
1130.549, 3892.844
1131.031, 3914.435
1131.513, 3925.876
1131.995, 3943.822
1132.477, 3978.297
1132.959, 4015.879
1133.441, 4032.665
1133.923, 4048.175
1134.406, 4093.111
1134.888, 4188.320
1135.370, 4255.732
1135.852, 4288.063
1136.334, 4320.006
1136.816, 4380.034
1137.298, 4452.248
1137.780, 4524.681
1138.262, 4587.605
1138.745, 4612.075
1139.227, 4567.865
1139.709, 4513.207
1140.191, 4450.153
1140.673, 4382.914
1141.155, 4312.408
1141.637, 4242.910
1142.119, 4188.403
1142.602, 4148.227
1143.084, 4112.326
1143.566, 4079.248
1144.048, 4045.323
1144.530, 4009.529
1145.012, 3972.052
1145.494, 3930.565
1145.976, 3886.738
1146.458, 3846.880
1146.941, 3811.838
1147.423, 3783.597
1147.905, 3765.357
1148.387, 3752.173
1148.869, 3740.076
1149.351, 3729.962
1149.833, 3725.792
1150.315, 3727.998
1150.797, 3742.992
1151.280, 3776.197
1151.762, 3814.971
1152.244, 3850.542
1152.726, 3886.477
1153.208, 3928.583
1153.690, 3978.360
1154.172, 4010.884
1154.654, 4024.672
1155.137, 4055.776
1155.619, 4131.320
1156.101, 4225.991
1156.583, 4317.758
1157.065, 4410.125
1157.547, 4509.286
1158.029, 4609.866
1158.511, 4731.249
1158.994, 4875.799
1159.476, 5030.847
1159.958, 5186.558
1160.440, 5346.240
1160.922, 5518.577
1161.404, 5698.566
1161.886, 5872.039
1162.368, 6037.000
1162.850, 6196.473
1163.333, 6352.688
1163.815, 6499.170
1164.297, 6653.723
1164.779, 6784.598
1165.261, 6840.678
1165.743, 6818.216
1166.225, 6723.208
1166.707, 6542.401
1167.189, 6310.791
1167.672, 6019.073
1168.154, 5706.439
1168.636, 5441.387
1169.118, 5215.238
1169.600, 5002.031
1170.082, 4793.238
1170.564, 4625.190
1171.046, 4520.367
1171.529, 4444.775
1172.011, 4390.269
1172.493, 4354.810
1172.975, 4334.926
1173.457, 4328.694
1173.939, 4330.279
1174.421, 4341.239
1174.903, 4350.732
1175.385, 4360.174
1175.868, 4360.789
1176.350, 4350.025
1176.832, 4325.926
1177.314, 4267.933
1177.796, 4182.183
1178.278, 4104.588
1178.760, 4058.938
1179.242, 4013.457
1179.724, 3944.946
1180.207, 3877.615
1180.689, 3835.703
1181.171, 3818.509
1181.653, 3797.891
1182.135, 3773.677
1182.617, 3750.034
1183.099, 3725.137
1183.581, 3706.324
1184.064, 3701.657
1184.546, 3703.083
1185.028, 3699.379
1185.510, 3690.416
1185.992, 3677.245
1186.474, 3659.775
1186.956, 3648.352
1187.438, 3658.445
1187.921, 3669.240
1188.403, 3665.660
1188.885, 3652.082
1189.367, 3639.391
1189.849, 3627.456
1190.331, 3617.407
1190.813, 3608.922
1191.295, 3607.785
1191.777, 3629.925
1192.260, 3652.196
1192.742, 3653.934
1193.224, 3637.944
1193.706, 3625.974
1194.188, 3618.803
1194.670, 3604.418
1195.152, 3576.580
1195.634, 3554.607
1196.116, 3566.256
1196.599, 3586.720
1197.081, 3588.196
1197.563, 3569.884
1198.045, 3572.393
1198.527, 3598.378
1199.009, 3619.708
1199.491, 3624.121
1199.973, 3625.099
1200.456, 3640.529
1200.938, 3658.598
1201.420, 3663.213
1201.902, 3650.970
1202.384, 3645.678
1202.866, 3647.982
1203.348, 3651.982
1203.830, 3652.308
1204.313, 3656.575
1204.795, 3677.185
1205.277, 3705.663
1205.759, 3730.313
1206.241, 3750.657
1206.723, 3763.586
1207.205, 3767.850
1207.687, 3773.750
1208.169, 3787.018
1208.651, 3806.146
1209.134, 3826.376
1209.616, 3852.049
1210.098, 3893.846
1210.580, 3963.523
1211.062, 4015.044
1211.544, 4046.008
1212.026, 4070.535
1212.508, 4097.767
1212.991, 4125.735
1213.473, 4151.021
1213.955, 4175.051
1214.437, 4203.824
1214.919, 4248.690
1215.401, 4259.597
1215.883, 4228.146
1216.365, 4188.334
1216.848, 4169.815
1217.330, 4158.814
1217.812, 4142.503
1218.294, 4120.183
1218.776, 4094.159
1219.258, 4068.848
1219.740, 4022.168
1220.222, 3947.011
1220.704, 3873.002
1221.187, 3828.650
1221.669, 3802.479
1222.151, 3787.573
1222.633, 3781.145
1223.115, 3767.450
1223.597, 3742.943
1224.079, 3725.320
1224.561, 3718.643
1225.043, 3715.875
1225.526, 3711.022
1226.008, 3704.819
1226.490, 3697.939
1226.972, 3690.366
1227.454, 3682.411
1227.936, 3674.381
1228.418, 3662.423
1228.900, 3642.873
1229.383, 3629.348
1229.865, 3647.359
1230.347, 3672.479
1230.829, 3676.398
1231.311, 3656.920
1231.793, 3643.193
1232.275, 3635.040
1232.757, 3634.964
1233.240, 3647.213
1233.722, 3657.330
1234.204, 3642.119
1234.686, 3621.615
1235.168, 3618.767
1235.650, 3634.917
1236.132, 3649.220
1236.614, 3661.743
1237.096, 3670.518
1237.579, 3675.978
1238.061, 3674.604
1238.543, 3653.690
1239.025, 3630.344
1239.507, 3627.108
1239.989, 3644.902
1240.471, 3648.465
1240.953, 3637.475
1241.436, 3626.929
1241.918, 3623.417
1242.400, 3623.234
1242.882, 3627.977
1243.364, 3631.250
1243.846, 3623.500
1244.328, 3603.646
1244.810, 3605.620
1245.292, 3628.541
1245.775, 3642.690
1246.257, 3625.555
1246.739, 3607.495
1247.221, 3612.252
1247.703, 3623.618
1248.185, 3622.447
1248.667, 3608.106
1249.149, 3608.214
1249.631, 3621.465
1250.114, 3635.360
1250.596, 3644.537
1251.078, 3650.615
1251.560, 3655.648
1252.042, 3656.782
1252.524, 3646.989
1253.006, 3627.729
1253.488, 3632.288
1253.971, 3657.525
1254.453, 3679.005
1254.935, 3683.442
1255.417, 3681.793
1255.899, 3677.490
1256.381, 3669.365
1256.863, 3650.443
1257.345, 3625.204
1257.828, 3625.935
1258.310, 3649.135
1258.792, 3670.695
1259.274, 3682.878
1259.756, 3685.221
1260.238, 3673.781
1260.720, 3659.670
1261.202, 3655.407
1261.684, 3657.642
1262.167, 3652.095
1262.649, 3641.405
1263.131, 3640.937
1263.613, 3673.260
1264.095, 3691.758
1264.577, 3686.397
1265.059, 3672.939
1265.541, 3666.735
1266.023, 3665.560
1266.506, 3665.619
1266.988, 3666.565
1267.470, 3667.796
1267.952, 3668.143
1268.434, 3671.834
1268.916, 3681.719
1269.398, 3687.655
1269.880, 3673.675
1270.363, 3652.218
1270.845, 3640.277
1271.327, 3637.692
1271.809, 3639.826
1272.291, 3644.833
1272.773, 3659.962
1273.255, 3689.698
1273.737, 3710.406
1274.219, 3683.287
1274.702, 3646.677
1275.184, 3644.295
1275.666, 3669.100
1276.148, 3682.070
1276.630, 3681.090
1277.112, 3671.604
1277.594, 3652.820
1278.076, 3640.204
1278.558, 3651.638
1279.041, 3670.614
1279.523, 3687.346
1280.005, 3700.295
1280.487, 3707.420
1280.969, 3708.658
1281.451, 3703.459
1281.933, 3691.582
1282.415, 3680.499
1282.898, 3670.019
1283.380, 3668.104
1283.862, 3685.226
1284.344, 3709.834
1284.826, 3720.158
1285.308, 3717.798
1285.790, 3712.078
1286.272, 3704.156
1286.755, 3698.371
1287.237, 3696.853
1287.719, 3698.874
1288.201, 3706.342
1288.683, 3713.901
1289.165, 3706.270
1289.647, 3692.306
1290.129, 3702.340
1290.611, 3737.795
1291.094, 3761.154
1291.576, 3751.221
1292.058, 3739.305
1292.540, 3730.769
1293.022, 3723.771
1293.504, 3713.110
1293.986, 3703.689
1294.468, 3705.741
1294.950, 3718.966
1295.433, 3727.683
1295.915, 3728.849
1296.397, 3729.819
1296.879, 3731.647
1297.361, 3734.912
1297.843, 3747.136
1298.325, 3756.038
1298.807, 3742.750
1299.290, 3710.880
1299.772, 3694.937
1300.254, 3695.684
1300.736, 3707.947
1301.218, 3732.897
1301.700, 3751.458
1302.182, 3735.505
1302.664, 3717.391
1303.146, 3727.436
1303.629, 3751.758
1304.111, 3756.515
1304.593, 3743.790
1305.075, 3741.125
1305.557, 3752.653
1306.039, 3762.663
1306.521, 3755.486
1307.003, 3752.450
1307.485, 3764.596
1307.968, 3782.153
1308.450, 3788.105
1308.932, 3784.629
1309.414, 3776.535
1309.896, 3764.799
1310.378, 3756.423
1310.860, 3756.190
1311.342, 3756.447
1311.825, 3755.074
1312.307, 3755.337
1312.789, 3764.022
1313.271, 3776.131
1313.753, 3786.390
1314.235, 3793.121
1314.717, 3785.912
1315.199, 3757.027
1315.682, 3741.260
1316.164, 3745.371
1316.646, 3759.499
1317.128, 3784.724
1317.610, 3805.763
1318.092, 3810.534
##END=



