##NAMES=Gorgeyite
##RRUFFID=R060578
##IDEAL CHEMISTRY=K_2_Ca_5_(S^6+^O_4_)_6_&#183;H_2_O
##LOCALITY=Inder Lake, West Kazakhstan, Kazakhstan
##OWNER=RRUFF
##SOURCE=Michael Scott
##DESCRIPTION=Colorless to yellow tabular crystals
##STATUS=The identification of this mineral has been confirmed by X-ray diffraction.
##URL=rruff.info/R060578
169.2408, 5012.613
169.7230, 5042.066
170.2051, 5071.384
170.6872, 5099.319
171.1693, 5123.706
171.6514, 5144.017
172.1335, 5159.952
172.6157, 5169.972
173.0978, 5171.570
173.5799, 5172.063
174.0620, 5175.394
174.5441, 5179.772
175.0262, 5181.881
175.5084, 5177.586
175.9905, 5171.511
176.4726, 5178.916
176.9547, 5211.479
177.4368, 5235.637
177.9189, 5231.440
178.4010, 5214.032
178.8832, 5204.286
179.3653, 5214.012
179.8474, 5236.384
180.3295, 5250.498
180.8116, 5249.666
181.2937, 5252.416
181.7759, 5265.964
182.2580, 5285.430
182.7401, 5305.313
183.2222, 5323.520
183.7043, 5339.576
184.1864, 5350.806
184.6686, 5350.100
185.1507, 5357.438
185.6328, 5387.817
186.1149, 5424.334
186.5970, 5447.000
187.0791, 5445.483
187.5613, 5427.741
188.0434, 5413.684
188.5255, 5401.397
189.0076, 5397.395
189.4897, 5406.291
189.9718, 5421.261
190.4540, 5436.200
190.9361, 5448.546
191.4182, 5458.110
191.9003, 5462.834
192.3824, 5453.634
192.8645, 5456.745
193.3467, 5483.670
193.8288, 5519.446
194.3109, 5550.192
194.7930, 5570.399
195.2751, 5583.710
195.7572, 5598.799
196.2394, 5622.853
196.7215, 5634.316
197.2036, 5621.417
197.6857, 5601.955
198.1678, 5590.485
198.6499, 5591.980
199.1321, 5602.832
199.6142, 5618.303
200.0963, 5646.658
200.5784, 5662.230
201.0605, 5654.366
201.5426, 5640.621
202.0248, 5636.123
202.5069, 5644.491
202.9890, 5655.892
203.4711, 5654.353
203.9532, 5635.351
204.4353, 5612.749
204.9175, 5582.769
205.3996, 5553.045
205.8817, 5529.166
206.3638, 5512.013
206.8459, 5498.090
207.3280, 5482.949
207.8102, 5467.160
208.2923, 5448.747
208.7744, 5423.942
209.2565, 5399.688
209.7386, 5375.429
210.2207, 5353.772
210.7029, 5343.418
211.1850, 5360.419
211.6671, 5420.368
212.1492, 5449.035
212.6313, 5417.887
213.1134, 5382.073
213.5956, 5367.919
214.0777, 5375.526
214.5598, 5389.933
215.0419, 5397.026
215.5240, 5395.900
216.0061, 5393.116
216.4883, 5382.595
216.9704, 5376.028
217.4525, 5379.842
217.9346, 5391.968
218.4167, 5405.838
218.8988, 5416.191
219.3810, 5422.946
219.8631, 5429.032
220.3452, 5432.845
220.8273, 5437.550
221.3094, 5446.752
221.7915, 5457.499
222.2737, 5463.746
222.7558, 5460.613
223.2379, 5449.134
223.7200, 5440.781
224.2021, 5439.598
224.6842, 5437.261
225.1664, 5428.435
225.6485, 5418.037
226.1306, 5414.401
226.6127, 5423.181
227.0948, 5440.390
227.5770, 5448.919
228.0591, 5439.943
228.5412, 5433.827
229.0233, 5436.421
229.5054, 5442.671
229.9875, 5445.557
230.4697, 5441.695
230.9518, 5435.796
231.4339, 5440.998
231.9160, 5470.084
232.3981, 5487.840
232.8802, 5485.308
233.3624, 5473.824
233.8445, 5462.661
234.3266, 5454.970
234.8087, 5448.546
235.2908, 5437.625
235.7729, 5413.948
236.2551, 5406.226
236.7372, 5430.399
237.2193, 5459.754
237.7014, 5476.594
238.1835, 5477.625
238.6656, 5471.649
239.1478, 5467.244
239.6299, 5461.982
240.1120, 5467.775
240.5941, 5505.073
241.0762, 5537.117
241.5583, 5542.259
242.0405, 5522.411
242.5226, 5496.581
243.0047, 5480.906
243.4868, 5475.530
243.9689, 5478.887
244.4510, 5501.118
244.9332, 5523.025
245.4153, 5538.069
245.8974, 5546.953
246.3795, 5552.974
246.8616, 5558.920
247.3437, 5564.317
247.8259, 5564.737
248.3080, 5559.666
248.7901, 5549.524
249.2722, 5531.833
249.7543, 5510.152
250.2364, 5490.287
250.7186, 5475.561
251.2007, 5464.248
251.6828, 5450.865
252.1649, 5433.086
252.6470, 5418.016
253.1291, 5406.791
253.6113, 5399.518
254.0934, 5397.035
254.5755, 5400.100
255.0576, 5406.289
255.5397, 5413.505
256.0219, 5423.785
256.5040, 5427.127
256.9861, 5409.432
257.4682, 5390.105
257.9503, 5384.605
258.4324, 5396.485
258.9146, 5414.060
259.3967, 5426.970
259.8788, 5435.229
260.3609, 5438.097
260.8430, 5428.300
261.3251, 5419.434
261.8073, 5423.450
262.2894, 5439.862
262.7715, 5455.432
263.2536, 5461.092
263.7357, 5457.858
264.2178, 5451.220
264.7000, 5440.239
265.1821, 5428.052
265.6642, 5414.992
266.1463, 5402.133
266.6284, 5393.663
267.1105, 5395.555
267.5927, 5402.441
268.0748, 5402.852
268.5569, 5395.620
269.0390, 5384.887
269.5211, 5366.493
270.0032, 5347.073
270.4854, 5339.866
270.9675, 5357.532
271.4496, 5381.230
271.9317, 5388.374
272.4138, 5378.491
272.8959, 5368.431
273.3781, 5367.996
273.8602, 5371.837
274.3423, 5368.993
274.8244, 5354.636
275.3065, 5341.445
275.7886, 5339.038
276.2708, 5345.294
276.7529, 5351.587
277.2350, 5354.957
277.7171, 5356.946
278.1992, 5359.546
278.6813, 5362.091
279.1635, 5367.555
279.6456, 5382.296
280.1277, 5399.476
280.6098, 5405.429
281.0919, 5396.004
281.5740, 5382.455
282.0562, 5378.267
282.5383, 5384.246
283.0204, 5389.498
283.5025, 5389.692
283.9846, 5390.646
284.4667, 5399.813
284.9489, 5416.997
285.4310, 5433.224
285.9131, 5441.479
286.3952, 5441.468
286.8773, 5438.405
287.3594, 5429.793
287.8416, 5420.844
288.3237, 5414.348
288.8058, 5409.578
289.2879, 5403.874
289.7700, 5395.282
290.2521, 5385.422
290.7343, 5381.485
291.2164, 5388.312
291.6985, 5394.612
292.1806, 5397.679
292.6627, 5399.681
293.1448, 5406.063
293.6270, 5418.452
294.1091, 5428.478
294.5912, 5419.928
295.0733, 5372.749
295.5554, 5345.276
296.0375, 5346.293
296.5197, 5359.129
297.0018, 5376.084
297.4839, 5394.091
297.9660, 5409.897
298.4481, 5421.043
298.9302, 5428.442
299.4124, 5424.141
299.8945, 5389.730
300.3766, 5362.326
300.8587, 5360.396
301.3408, 5375.493
301.8229, 5387.607
302.3050, 5382.552
302.7871, 5365.002
303.2693, 5359.424
303.7514, 5375.110
304.2335, 5389.649
304.7156, 5401.662
305.1977, 5408.912
305.6798, 5407.875
306.1620, 5397.049
306.6441, 5381.490
307.1262, 5367.513
307.6083, 5353.002
308.0904, 5348.271
308.5725, 5366.476
309.0547, 5387.352
309.5368, 5399.063
310.0189, 5400.585
310.5010, 5398.136
310.9831, 5396.770
311.4652, 5396.240
311.9474, 5393.707
312.4295, 5388.225
312.9116, 5381.703
313.3937, 5374.176
313.8758, 5366.510
314.3579, 5361.095
314.8401, 5358.097
315.3222, 5358.396
315.8043, 5368.028
316.2864, 5390.463
316.7685, 5401.224
317.2506, 5374.076
317.7328, 5330.988
318.2149, 5309.443
318.6970, 5322.250
319.1791, 5342.478
319.6612, 5351.134
320.1433, 5350.341
320.6255, 5349.883
321.1076, 5353.378
321.5897, 5358.057
322.0718, 5360.170
322.5539, 5360.368
323.0360, 5356.282
323.5182, 5341.398
324.0003, 5324.308
324.4824, 5315.228
324.9645, 5315.863
325.4466, 5325.831
325.9287, 5349.317
326.4109, 5388.331
326.8930, 5403.531
327.3751, 5371.718
327.8572, 5338.402
328.3393, 5330.675
328.8214, 5343.337
329.3036, 5356.705
329.7857, 5358.990
330.2678, 5353.577
330.7499, 5355.763
331.2320, 5380.766
331.7141, 5394.482
332.1963, 5387.086
332.6784, 5369.591
333.1605, 5351.545
333.6426, 5336.553
334.1247, 5326.279
334.6068, 5323.750
335.0890, 5331.982
335.5711, 5340.072
336.0532, 5358.999
336.5353, 5368.318
337.0174, 5346.149
337.4995, 5302.483
337.9817, 5269.788
338.4638, 5277.955
338.9459, 5320.850
339.4280, 5342.124
339.9101, 5325.708
340.3922, 5310.448
340.8744, 5310.555
341.3565, 5317.277
341.8386, 5318.896
342.3207, 5310.379
342.8028, 5298.413
343.2849, 5291.496
343.7671, 5289.313
344.2492, 5295.398
344.7313, 5324.911
345.2134, 5351.234
345.6955, 5348.105
346.1776, 5315.243
346.6598, 5285.173
347.1419, 5280.525
347.6240, 5294.258
348.1061, 5309.126
348.5882, 5325.780
349.0703, 5336.305
349.5525, 5329.172
350.0346, 5310.178
350.5167, 5296.387
350.9988, 5291.714
351.4809, 5292.521
351.9630, 5299.522
352.4452, 5310.844
352.9273, 5315.231
353.4094, 5304.107
353.8915, 5286.558
354.3736, 5289.710
354.8557, 5328.966
355.3379, 5352.435
355.8200, 5331.058
356.3021, 5295.738
356.7842, 5285.993
357.2663, 5309.283
357.7484, 5342.384
358.2306, 5359.831
358.7127, 5359.070
359.1948, 5355.622
359.6769, 5352.229
360.1590, 5344.002
360.6411, 5322.350
361.1233, 5294.370
361.6054, 5276.292
362.0875, 5278.692
362.5696, 5294.262
363.0517, 5294.904
363.5338, 5261.713
364.0160, 5244.445
364.4981, 5264.556
364.9802, 5291.439
365.4623, 5296.621
365.9444, 5275.335
366.4265, 5248.151
366.9087, 5238.927
367.3908, 5248.804
367.8729, 5256.344
368.3550, 5257.899
368.8371, 5260.562
369.3192, 5270.557
369.8014, 5284.417
370.2835, 5293.373
370.7656, 5289.976
371.2477, 5282.101
371.7298, 5286.932
372.2119, 5306.875
372.6941, 5315.358
373.1762, 5290.682
373.6583, 5254.438
374.1404, 5239.818
374.6225, 5252.056
375.1046, 5270.563
375.5868, 5292.374
376.0689, 5311.614
376.5510, 5310.277
377.0331, 5281.761
377.5152, 5256.105
377.9973, 5269.143
378.4795, 5326.157
378.9616, 5359.841
379.4437, 5355.638
379.9258, 5340.226
380.4079, 5324.923
380.8900, 5311.149
381.3722, 5299.939
381.8543, 5291.985
382.3364, 5286.465
382.8185, 5280.652
383.3006, 5266.577
383.7827, 5263.543
384.2649, 5284.693
384.7470, 5308.586
385.2291, 5315.432
385.7112, 5303.646
386.1933, 5288.121
386.6754, 5285.700
387.1576, 5297.533
387.6397, 5300.049
388.1218, 5280.126
388.6039, 5266.086
389.0860, 5270.567
389.5681, 5285.922
390.0503, 5300.039
390.5324, 5307.856
391.0145, 5312.288
391.4966, 5313.973
391.9787, 5310.981
392.4608, 5325.907
392.9430, 5387.887
393.4251, 5448.589
393.9072, 5457.516
394.3893, 5414.767
394.8714, 5370.929
395.3535, 5348.747
395.8357, 5341.918
396.3178, 5343.259
396.7999, 5352.777
397.2820, 5360.069
397.7641, 5357.689
398.2462, 5346.688
398.7284, 5335.037
399.2105, 5316.752
399.6926, 5304.561
400.1747, 5305.038
400.6568, 5314.486
401.1389, 5329.354
401.6211, 5348.611
402.1032, 5365.641
402.5853, 5370.297
403.0674, 5357.798
403.5495, 5346.773
404.0316, 5339.724
404.5138, 5331.523
404.9959, 5314.557
405.4780, 5294.050
405.9601, 5283.641
406.4422, 5293.198
406.9243, 5316.322
407.4065, 5329.300
407.8886, 5324.506
408.3707, 5325.271
408.8528, 5344.427
409.3349, 5365.011
409.8170, 5372.194
410.2992, 5364.257
410.7813, 5353.271
411.2634, 5347.128
411.7455, 5346.116
412.2276, 5352.899
412.7097, 5369.604
413.1919, 5389.350
413.6740, 5406.120
414.1561, 5422.664
414.6382, 5444.936
415.1203, 5478.434
415.6024, 5512.749
416.0846, 5538.439
416.5667, 5558.535
417.0488, 5582.560
417.5309, 5613.966
418.0130, 5649.437
418.4951, 5684.563
418.9773, 5719.754
419.4594, 5752.624
419.9415, 5773.820
420.4236, 5800.071
420.9057, 5845.555
421.3878, 5906.863
421.8700, 5971.205
422.3521, 6031.004
422.8342, 6086.798
423.3163, 6140.034
423.7984, 6182.125
424.2805, 6235.997
424.7627, 6305.944
425.2448, 6386.087
425.7269, 6474.563
426.2090, 6569.767
426.6911, 6664.725
427.1732, 6752.385
427.6554, 6833.913
428.1375, 6914.578
428.6196, 6992.920
429.1017, 7073.080
429.5838, 7173.391
430.0659, 7273.214
430.5481, 7338.302
431.0302, 7354.201
431.5123, 7347.871
431.9944, 7335.409
432.4765, 7318.189
432.9586, 7300.908
433.4408, 7284.604
433.9229, 7268.979
434.4050, 7252.455
434.8871, 7234.517
435.3692, 7224.151
435.8513, 7228.207
436.3335, 7234.315
436.8156, 7229.957
437.2977, 7221.278
437.7798, 7223.947
438.2619, 7246.007
438.7440, 7284.280
439.2262, 7332.506
439.7083, 7408.927
440.1904, 7461.583
440.6725, 7488.863
441.1546, 7496.452
441.6367, 7495.940
442.1189, 7481.385
442.6010, 7430.696
443.0831, 7323.929
443.5652, 7169.479
444.0473, 6992.561
444.5294, 6778.821
445.0116, 6582.573
445.4937, 6426.911
445.9758, 6297.112
446.4579, 6182.511
446.9400, 6083.214
447.4221, 5992.085
447.9043, 5897.335
448.3864, 5809.118
448.8685, 5753.577
449.3506, 5735.479
449.8327, 5728.303
450.3148, 5710.956
450.7970, 5685.675
451.2791, 5673.670
451.7612, 5682.310
452.2433, 5694.490
452.7254, 5706.463
453.2076, 5717.963
453.6897, 5727.725
454.1718, 5735.702
454.6539, 5745.063
455.1360, 5760.189
455.6181, 5782.034
456.1003, 5804.114
456.5824, 5837.532
457.0645, 5859.135
457.5466, 5860.206
458.0287, 5844.975
458.5108, 5817.094
458.9930, 5775.343
459.4751, 5734.752
459.9572, 5721.764
460.4393, 5736.981
460.9214, 5741.979
461.4035, 5729.080
461.8857, 5704.041
462.3678, 5665.620
462.8499, 5617.429
463.3320, 5579.226
463.8141, 5554.059
464.2962, 5542.708
464.7784, 5551.956
465.2605, 5577.178
465.7426, 5598.792
466.2247, 5606.527
466.7068, 5612.680
467.1889, 5642.369
467.6711, 5716.606
468.1532, 5770.082
468.6353, 5786.632
469.1174, 5796.964
469.5995, 5815.060
470.0816, 5843.449
470.5638, 5881.510
471.0459, 5928.977
471.5280, 5985.954
472.0101, 6057.561
472.4922, 6153.351
472.9743, 6236.387
473.4565, 6274.390
473.9386, 6314.521
474.4207, 6392.454
474.9028, 6506.638
475.3849, 6623.207
475.8670, 6716.406
476.3492, 6801.980
476.8313, 6915.191
477.3134, 7056.874
477.7955, 7184.302
478.2776, 7276.461
478.7597, 7340.368
479.2419, 7392.757
479.7240, 7435.986
480.2061, 7464.307
480.6882, 7478.704
481.1703, 7476.303
481.6524, 7453.737
482.1346, 7411.287
482.6167, 7351.850
483.0988, 7276.609
483.5809, 7186.870
484.0630, 7087.043
484.5451, 6966.534
485.0273, 6853.113
485.5094, 6762.089
485.9915, 6670.905
486.4736, 6555.409
486.9557, 6416.385
487.4378, 6284.954
487.9200, 6186.251
488.4021, 6113.624
488.8842, 6048.936
489.3663, 5993.151
489.8484, 5939.598
490.3305, 5886.779
490.8127, 5833.352
491.2948, 5776.684
491.7769, 5715.078
492.2590, 5654.938
492.7411, 5596.578
493.2232, 5542.357
493.7054, 5494.366
494.1875, 5453.301
494.6696, 5420.293
495.1517, 5397.114
495.6338, 5382.251
496.1159, 5365.252
496.5981, 5343.855
497.0802, 5323.564
497.5623, 5308.723
498.0444, 5292.478
498.5265, 5267.166
499.0086, 5233.273
499.4908, 5199.872
499.9729, 5174.956
500.4550, 5156.441
500.9371, 5137.104
501.4192, 5116.847
501.9013, 5096.173
502.3835, 5076.462
502.8656, 5055.520
503.3477, 5030.602
503.8298, 5001.652
504.3119, 4969.088
504.7940, 4923.827
505.2762, 4880.400
505.7583, 4858.079
506.2404, 4856.598
506.7225, 4863.045
507.2046, 4869.846
507.6867, 4876.177
508.1689, 4878.545
508.6510, 4879.260
509.1331, 4871.921
509.6152, 4853.322
510.0973, 4829.257
510.5794, 4796.946
511.0616, 4761.431
511.5437, 4740.061
512.0258, 4752.257
512.5079, 4783.098
512.9901, 4789.618
513.4722, 4767.782
513.9543, 4745.284
514.4364, 4728.889
514.9185, 4719.071
515.4006, 4717.862
515.8828, 4726.198
516.3649, 4730.802
516.8470, 4723.975
517.3291, 4714.396
517.8112, 4711.823
518.2933, 4714.420
518.7755, 4711.943
519.2576, 4698.317
519.7397, 4679.360
520.2218, 4669.479
520.7039, 4676.778
521.1860, 4677.612
521.6682, 4666.417
522.1503, 4654.753
522.6324, 4651.634
523.1145, 4653.162
523.5966, 4647.215
524.0787, 4623.932
524.5609, 4597.728
525.0430, 4595.279
525.5251, 4616.416
526.0072, 4633.717
526.4893, 4640.578
526.9714, 4641.901
527.4536, 4643.414
527.9357, 4644.705
528.4178, 4639.301
528.8999, 4616.682
529.3820, 4596.605
529.8641, 4591.743
530.3463, 4597.644
530.8284, 4606.631
531.3105, 4615.901
531.7926, 4623.745
532.2747, 4627.224
532.7568, 4625.139
533.2390, 4626.352
533.7211, 4636.346
534.2032, 4643.305
534.6853, 4643.975
535.1674, 4639.422
535.6495, 4629.837
536.1317, 4614.613
536.6138, 4600.359
537.0959, 4595.612
537.5780, 4596.883
538.0601, 4592.931
538.5422, 4582.321
539.0244, 4566.771
539.5065, 4542.446
539.9886, 4514.634
540.4707, 4509.467
540.9528, 4550.813
541.4349, 4579.445
541.9171, 4572.901
542.3992, 4555.149
542.8813, 4550.042
543.3634, 4558.689
543.8455, 4566.245
544.3276, 4559.996
544.8098, 4543.973
545.2919, 4536.186
545.7740, 4539.168
546.2561, 4543.529
546.7382, 4550.976
547.2203, 4555.793
547.7025, 4550.542
548.1846, 4536.355
548.6666, 4527.031
549.1487, 4535.727
549.6309, 4547.292
550.1130, 4542.012
550.5951, 4523.779
551.0772, 4511.881
551.5593, 4514.809
552.0414, 4522.820
552.5236, 4519.453
553.0057, 4498.977
553.4878, 4486.521
553.9699, 4486.752
554.4520, 4488.724
554.9341, 4488.341
555.4163, 4486.703
555.8984, 4486.850
556.3805, 4490.010
556.8626, 4491.823
557.3447, 4482.168
557.8268, 4463.950
558.3090, 4464.166
558.7911, 4491.421
559.2732, 4517.619
559.7553, 4523.209
560.2374, 4513.431
560.7195, 4506.898
561.2017, 4506.014
561.6838, 4504.396
562.1659, 4501.370
562.6480, 4495.830
563.1301, 4484.586
563.6122, 4468.820
564.0944, 4454.691
564.5765, 4446.623
565.0586, 4443.562
565.5407, 4440.829
566.0228, 4436.688
566.5049, 4437.295
566.9871, 4451.339
567.4692, 4464.297
567.9513, 4464.745
568.4334, 4455.065
568.9155, 4447.890
569.3976, 4449.182
569.8798, 4454.689
570.3619, 4464.035
570.8440, 4474.427
571.3261, 4474.529
571.8082, 4460.129
572.2903, 4442.019
572.7725, 4433.373
573.2546, 4435.351
573.7367, 4435.632
574.2188, 4430.737
574.7009, 4428.382
575.1830, 4432.091
575.6652, 4438.500
576.1473, 4443.623
576.6294, 4446.688
577.1115, 4450.208
577.5936, 4455.615
578.0757, 4463.310
578.5579, 4476.551
579.0400, 4496.461
579.5221, 4512.445
580.0042, 4520.557
580.4863, 4521.089
580.9684, 4511.804
581.4506, 4488.854
581.9327, 4473.644
582.4148, 4471.765
582.8969, 4476.195
583.3790, 4485.523
583.8611, 4497.033
584.3433, 4505.306
584.8254, 4507.751
585.3075, 4509.756
585.7896, 4520.967
586.2717, 4542.326
586.7538, 4560.781
587.2360, 4571.284
587.7181, 4586.495
588.2002, 4622.060
588.6823, 4664.884
589.1644, 4690.412
589.6465, 4685.332
590.1287, 4689.993
590.6108, 4731.447
591.0929, 4789.499
591.5750, 4841.777
592.0571, 4884.933
592.5392, 4920.000
593.0214, 4947.066
593.5035, 4967.636
593.9856, 4987.449
594.4677, 5010.401
594.9498, 5023.088
595.4319, 5019.953
595.9141, 5009.940
596.3962, 4994.865
596.8783, 4976.372
597.3604, 4957.029
597.8425, 4935.382
598.3246, 4918.061
598.8068, 4911.819
599.2889, 4914.475
599.7710, 4920.135
600.2531, 4927.684
600.7352, 4940.218
601.2173, 4961.517
601.6995, 4990.082
602.1816, 5013.799
602.6637, 5038.564
603.1458, 5049.514
603.6279, 5041.362
604.1100, 5022.579
604.5922, 4996.343
605.0743, 4964.903
605.5564, 4933.250
606.0385, 4905.166
606.5206, 4876.913
607.0027, 4837.125
607.4849, 4788.819
607.9670, 4759.525
608.4491, 4759.605
608.9312, 4765.295
609.4133, 4749.278
609.8954, 4711.480
610.3776, 4699.572
610.8597, 4721.934
611.3418, 4756.765
611.8239, 4820.726
612.3060, 4881.277
612.7881, 4898.292
613.2703, 4873.360
613.7524, 4846.068
614.2345, 4847.298
614.7166, 4866.503
615.1987, 4874.807
615.6808, 4871.140
616.1630, 4883.456
616.6451, 4927.514
617.1272, 4976.142
617.6093, 4992.473
618.0914, 4975.754
618.5735, 4985.570
619.0557, 5048.626
619.5378, 5110.249
620.0199, 5146.357
620.5020, 5170.672
620.9841, 5199.964
621.4662, 5238.023
621.9484, 5279.321
622.4305, 5314.677
622.9126, 5351.121
623.3947, 5421.161
623.8768, 5531.682
624.3589, 5634.577
624.8411, 5708.387
625.3232, 5776.569
625.8053, 5862.520
626.2874, 5965.319
626.7695, 6088.365
627.2516, 6251.459
627.7338, 6413.559
628.2159, 6553.505
628.6980, 6678.444
629.1801, 6802.332
629.6622, 6926.293
630.1443, 7034.218
630.6265, 7107.221
631.1086, 7150.830
631.5907, 7200.860
632.0728, 7265.995
632.5549, 7305.225
633.0370, 7312.648
633.5192, 7281.602
634.0013, 7206.301
634.4834, 7088.319
634.9655, 6933.170
635.4476, 6725.046
635.9297, 6499.035
636.4119, 6259.246
636.8940, 6020.388
637.3761, 5802.453
637.8582, 5610.649
638.3403, 5439.143
638.8224, 5282.448
639.3046, 5141.433
639.7867, 5022.155
640.2688, 4918.696
640.7509, 4860.593
641.2330, 4897.174
641.7151, 4943.834
642.1973, 4900.752
642.6794, 4776.430
643.1615, 4677.360
643.6436, 4627.204
644.1257, 4605.758
644.6078, 4613.418
645.0900, 4638.049
645.5721, 4666.357
646.0542, 4693.303
646.5363, 4711.731
647.0184, 4710.566
647.5005, 4697.759
647.9827, 4713.437
648.4648, 4763.614
648.9469, 4818.069
649.4290, 4870.006
649.9111, 4922.695
650.3932, 4978.923
650.8754, 5038.633
651.3575, 5103.805
651.8396, 5183.083
652.3217, 5258.735
652.8038, 5321.662
653.2859, 5376.831
653.7681, 5437.198
654.2502, 5500.400
654.7323, 5540.650
655.2144, 5530.861
655.6965, 5490.714
656.1786, 5488.064
656.6608, 5529.195
657.1429, 5568.593
657.6250, 5592.569
658.1071, 5618.130
658.5892, 5664.006
659.0714, 5725.533
659.5535, 5781.483
660.0356, 5845.602
660.5177, 5884.705
660.9998, 5896.440
661.4819, 5871.885
661.9641, 5792.088
662.4462, 5664.112
662.9283, 5515.877
663.4104, 5361.762
663.8925, 5210.414
664.3746, 5078.336
664.8568, 4965.546
665.3389, 4871.225
665.8210, 4793.414
666.3031, 4737.728
666.7852, 4710.995
667.2673, 4710.734
667.7495, 4722.184
668.2316, 4752.605
668.7137, 4782.689
669.1958, 4822.100
669.6779, 4848.836
670.1600, 4847.297
670.6422, 4817.729
671.1243, 4763.586
671.6064, 4684.592
672.0885, 4594.979
672.5706, 4513.147
673.0527, 4438.013
673.5349, 4359.611
674.0170, 4273.535
674.4991, 4203.920
674.9812, 4169.316
675.4633, 4157.463
675.9454, 4136.894
676.4276, 4100.159
676.9097, 4070.836
677.3918, 4053.513
677.8739, 4039.619
678.3560, 4027.042
678.8381, 4014.180
679.3203, 3996.975
679.8024, 3974.192
680.2845, 3956.511
680.7666, 3959.956
681.2487, 3974.631
681.7308, 3974.685
682.2130, 3959.984
682.6951, 3949.023
683.1772, 3950.729
683.6593, 3956.795
684.1414, 3954.302
684.6235, 3941.851
685.1057, 3928.224
685.5878, 3907.292
686.0699, 3892.442
686.5520, 3892.579
687.0341, 3896.919
687.5162, 3891.166
687.9984, 3875.056
688.4805, 3866.444
688.9626, 3888.172
689.4447, 3912.827
689.9268, 3902.422
690.4089, 3868.911
690.8911, 3847.876
691.3732, 3848.989
691.8553, 3860.583
692.3374, 3872.828
692.8195, 3884.594
693.3016, 3883.837
693.7838, 3860.720
694.2659, 3847.017
694.7480, 3858.279
695.2301, 3872.035
695.7122, 3870.050
696.1943, 3857.007
696.6765, 3851.880
697.1586, 3866.542
697.6407, 3879.252
698.1228, 3875.688
698.6049, 3865.185
699.0870, 3860.439
699.5692, 3861.210
700.0513, 3858.215
700.5334, 3845.310
701.0155, 3827.438
701.4976, 3814.046
701.9797, 3805.120
702.4619, 3800.696
702.9440, 3801.967
703.4261, 3804.936
703.9082, 3809.520
704.3903, 3813.271
704.8724, 3809.155
705.3546, 3791.910
705.8367, 3782.390
706.3188, 3789.328
706.8009, 3798.824
707.2830, 3802.959
707.7651, 3803.747
708.2473, 3807.184
708.7294, 3814.660
709.2115, 3817.583
709.6936, 3801.558
710.1757, 3776.314
710.6578, 3769.623
711.1400, 3780.590
711.6221, 3786.943
712.1042, 3780.033
712.5863, 3769.249
713.0684, 3767.922
713.5505, 3777.226
714.0327, 3770.494
714.5148, 3724.927
714.9969, 3694.709
715.4790, 3694.542
715.9611, 3707.605
716.4432, 3726.896
716.9254, 3747.976
717.4075, 3758.086
717.8896, 3743.657
718.3717, 3728.712
718.8538, 3734.227
719.3359, 3751.497
719.8181, 3771.130
720.3002, 3788.724
720.7823, 3789.688
721.2644, 3761.729
721.7465, 3721.162
722.2286, 3711.995
722.7108, 3741.519
723.1929, 3749.957
723.6750, 3721.600
724.1571, 3694.056
724.6392, 3688.646
725.1213, 3698.238
725.6035, 3707.935
726.0856, 3717.773
726.5677, 3727.290
727.0498, 3744.188
727.5319, 3752.903
728.0140, 3736.969
728.4962, 3709.271
728.9783, 3690.116
729.4604, 3685.047
729.9425, 3686.448
730.4246, 3693.745
730.9067, 3700.118
731.3889, 3682.277
731.8710, 3644.221
732.3531, 3627.311
732.8352, 3645.979
733.3173, 3672.735
733.7994, 3679.079
734.2816, 3666.877
734.7637, 3661.078
735.2458, 3663.892
735.7279, 3669.534
736.2100, 3680.201
736.6921, 3690.760
737.1743, 3701.777
737.6564, 3709.989
738.1385, 3706.297
738.6206, 3683.664
739.1027, 3660.166
739.5848, 3642.056
740.0670, 3631.084
740.5491, 3632.596
741.0312, 3643.467
741.5133, 3655.677
741.9954, 3665.457
742.4775, 3668.650
742.9597, 3655.010
743.4418, 3626.400
743.9239, 3608.407
744.4060, 3601.707
744.8881, 3604.088
745.3702, 3617.241
745.8524, 3635.505
746.3345, 3653.001
746.8166, 3670.669
747.2987, 3677.932
747.7808, 3669.477
748.2629, 3658.230
748.7451, 3642.570
749.2272, 3628.819
749.7093, 3626.240
750.1914, 3631.582
750.6735, 3627.178
751.1556, 3590.157
751.6378, 3568.344
752.1199, 3636.514
752.6020, 3740.482
753.0841, 3772.406
753.5662, 3726.456
754.0483, 3657.769
754.5305, 3596.052
755.0126, 3549.705
755.4947, 3541.687
755.9768, 3577.790
756.4589, 3596.844
756.9410, 3591.534
757.4232, 3584.960
757.9053, 3588.368
758.3874, 3595.054
758.8695, 3595.267
759.3516, 3589.067
759.8337, 3578.248
760.3159, 3552.505
760.7980, 3534.638
761.2801, 3535.939
761.7622, 3547.601
762.2443, 3565.447
762.7264, 3585.068
763.2086, 3594.058
763.6907, 3580.458
764.1728, 3562.019
764.6549, 3561.239
765.1370, 3571.230
765.6191, 3574.711
766.1013, 3569.643
766.5834, 3563.233
767.0655, 3560.094
767.5476, 3557.537
768.0297, 3546.726
768.5118, 3523.333
768.9940, 3520.820
769.4761, 3553.008
769.9582, 3577.334
770.4403, 3570.262
770.9224, 3548.684
771.4045, 3535.781
771.8867, 3531.770
772.3688, 3532.231
772.8509, 3545.594
773.3330, 3552.719
773.8151, 3539.727
774.2972, 3521.096
774.7794, 3511.279
775.2615, 3511.613
775.7436, 3517.177
776.2257, 3527.791
776.7078, 3537.158
777.1899, 3538.177
777.6721, 3532.564
778.1542, 3521.880
778.6363, 3507.529
779.1184, 3496.718
779.6005, 3493.581
780.0826, 3495.904
780.5648, 3500.630
781.0469, 3508.287
781.5290, 3513.405
782.0111, 3517.292
782.4932, 3514.493
782.9753, 3496.645
783.4575, 3477.049
783.9396, 3474.361
784.4217, 3488.933
784.9038, 3501.249
785.3859, 3512.521
785.8680, 3518.803
786.3502, 3516.377
786.8323, 3510.620
787.3144, 3506.015
787.7965, 3502.347
788.2786, 3496.429
788.7607, 3485.367
789.2429, 3476.788
789.7250, 3481.889
790.2071, 3491.134
790.6892, 3487.748
791.1713, 3473.258
791.6534, 3459.384
792.1356, 3451.081
792.6177, 3446.653
793.0998, 3444.480
793.5819, 3444.247
794.0640, 3442.306
794.5461, 3438.042
795.0283, 3435.845
795.5104, 3436.865
795.9925, 3440.686
796.4746, 3447.792
796.9567, 3457.721
797.4388, 3465.242
797.9210, 3475.934
798.4031, 3475.878
798.8852, 3451.909
799.3673, 3429.477
799.8494, 3424.274
800.3315, 3430.817
800.8137, 3438.528
801.2958, 3445.673
801.7779, 3449.101
802.2600, 3444.856
802.7421, 3438.277
803.2242, 3435.572
803.7064, 3433.788
804.1885, 3424.278
804.6706, 3406.546
805.1527, 3393.281
805.6348, 3397.925
806.1169, 3410.337
806.5991, 3404.989
807.0812, 3385.275
807.5633, 3379.065
808.0454, 3391.836
808.5275, 3406.430
809.0096, 3412.583
809.4918, 3410.570
809.9739, 3399.110
810.4560, 3371.936
810.9381, 3359.002
811.4202, 3370.711
811.9023, 3379.562
812.3845, 3368.002
812.8666, 3352.929
813.3487, 3355.441
813.8308, 3375.612
814.3129, 3392.966
814.7950, 3406.665
815.2772, 3414.350
815.7593, 3413.168
816.2414, 3407.228
816.7235, 3398.452
817.2056, 3388.382
817.6877, 3379.700
818.1699, 3373.639
818.6520, 3368.644
819.1341, 3367.140
819.6162, 3363.641
820.0983, 3340.285
820.5804, 3306.299
821.0626, 3299.784
821.5447, 3333.157
822.0268, 3375.204
822.5089, 3394.495
822.9910, 3392.364
823.4731, 3366.073
823.9553, 3313.031
824.4374, 3289.890
824.9195, 3314.344
825.4016, 3346.905
825.8837, 3359.349
826.3658, 3356.019
826.8480, 3350.775
827.3301, 3340.652
827.8122, 3335.597
828.2943, 3343.300
828.7764, 3346.578
829.2585, 3332.375
829.7407, 3314.582
830.2228, 3312.245
830.7049, 3326.279
831.1870, 3334.419
831.6691, 3326.931
832.1512, 3317.931
832.6334, 3313.199
833.1155, 3310.156
833.5976, 3305.546
834.0797, 3299.973
834.5618, 3296.745
835.0439, 3297.745
835.5261, 3299.075
836.0082, 3294.097
836.4903, 3288.724
836.9724, 3297.222
837.4545, 3314.776
837.9366, 3319.017
838.4188, 3303.330
838.9009, 3288.990
839.3830, 3301.542
839.8651, 3330.710
840.3472, 3336.640
840.8293, 3318.845
841.3115, 3301.836
841.7936, 3288.691
842.2757, 3283.544
842.7578, 3291.598
843.2399, 3306.458
843.7220, 3312.076
844.2042, 3306.800
844.6863, 3297.238
845.1684, 3276.370
845.6505, 3261.699
846.1326, 3263.927
846.6147, 3271.712
847.0969, 3275.258
847.5790, 3274.421
848.0611, 3270.426
848.5432, 3255.629
849.0253, 3248.250
849.5074, 3258.505
849.9896, 3273.286
850.4717, 3287.952
850.9538, 3297.758
851.4359, 3292.173
851.9180, 3266.809
852.4001, 3244.318
852.8823, 3241.742
853.3644, 3247.455
853.8465, 3251.248
854.3286, 3253.037
854.8107, 3251.523
855.2928, 3247.961
855.7750, 3251.233
856.2571, 3270.511
856.7392, 3292.443
857.2213, 3289.594
857.7034, 3268.185
858.1855, 3256.025
858.6677, 3255.639
859.1498, 3259.333
859.6319, 3264.360
860.1140, 3265.695
860.5961, 3254.104
861.0782, 3230.491
861.5604, 3219.021
862.0425, 3222.139
862.5246, 3228.426
863.0067, 3237.559
863.4888, 3245.346
863.9709, 3249.069
864.4531, 3248.698
864.9352, 3243.337
865.4173, 3223.555
865.8994, 3218.600
866.3815, 3246.310
866.8636, 3266.908
867.3458, 3259.549
867.8279, 3242.352
868.3100, 3236.487
868.7921, 3242.540
869.2742, 3245.752
869.7563, 3240.768
870.2385, 3234.382
870.7206, 3228.703
871.2027, 3223.115
871.6848, 3214.037
872.1669, 3205.204
872.6490, 3206.966
873.1312, 3223.298
873.6133, 3237.326
874.0954, 3233.532
874.5775, 3223.874
875.0596, 3221.479
875.5417, 3223.827
876.0239, 3224.911
876.5060, 3223.710
876.9881, 3222.991
877.4702, 3224.923
877.9523, 3227.080
878.4344, 3224.775
878.9166, 3219.358
879.3987, 3216.684
879.8808, 3216.742
880.3629, 3213.634
880.8450, 3204.776
881.3271, 3195.668
881.8093, 3193.423
882.2914, 3196.525
882.7735, 3193.979
883.2556, 3184.149
883.7377, 3181.430
884.2198, 3189.341
884.7020, 3201.664
885.1841, 3218.047
885.6662, 3231.836
886.1483, 3226.515
886.6304, 3195.191
887.1125, 3176.173
887.5947, 3175.397
888.0768, 3177.517
888.5589, 3180.571
889.0410, 3183.197
889.5231, 3184.681
890.0052, 3184.839
890.4874, 3182.742
890.9695, 3176.385
891.4516, 3171.323
891.9337, 3164.861
892.4158, 3163.601
892.8979, 3179.665
893.3801, 3198.396
893.8622, 3196.763
894.3443, 3173.540
894.8264, 3154.823
895.3085, 3148.491
895.7906, 3152.422
896.2728, 3178.766
896.7549, 3204.698
897.2370, 3200.435
897.7191, 3175.554
898.2012, 3160.093
898.6833, 3164.829
899.1655, 3173.426
899.6476, 3174.470
900.1297, 3170.897
900.6118, 3166.931
901.0939, 3160.995
901.5760, 3145.658
902.0582, 3122.819
902.5403, 3107.841
903.0224, 3110.528
903.5045, 3124.462
903.9866, 3147.758
904.4688, 3173.590
904.9509, 3176.299
905.4330, 3157.916
905.9151, 3140.047
906.3972, 3129.828
906.8793, 3126.862
907.3615, 3132.165
907.8436, 3142.150
908.3257, 3145.044
908.8078, 3140.813
909.2899, 3134.673
909.7720, 3126.776
910.2542, 3119.186
910.7363, 3111.882
911.2184, 3109.016
911.7005, 3118.927
912.1826, 3141.251
912.6647, 3146.394
913.1469, 3126.512
913.6290, 3115.217
914.1111, 3123.542
914.5932, 3130.997
915.0753, 3120.403
915.5574, 3102.029
916.0396, 3101.075
916.5217, 3125.454
917.0038, 3137.382
917.4859, 3124.823
917.9680, 3116.848
918.4501, 3121.461
918.9323, 3131.997
919.4144, 3148.859
919.8965, 3167.687
920.3786, 3172.239
920.8607, 3153.880
921.3428, 3137.853
921.8250, 3126.616
922.3071, 3119.758
922.7892, 3117.034
923.2713, 3118.554
923.7534, 3126.523
924.2355, 3139.748
924.7177, 3150.431
925.1998, 3158.218
925.6819, 3159.894
926.1640, 3147.710
926.6461, 3134.918
927.1282, 3137.175
927.6104, 3144.484
928.0925, 3135.794
928.5746, 3108.117
929.0567, 3084.208
929.5388, 3077.018
930.0209, 3077.891
930.5031, 3084.407
930.9852, 3092.498
931.4673, 3096.682
931.9494, 3097.797
932.4315, 3099.445
932.9136, 3102.979
933.3958, 3108.120
933.8779, 3116.647
934.3600, 3125.000
934.8421, 3128.229
935.3242, 3127.833
935.8063, 3126.267
936.2885, 3124.252
936.7706, 3122.944
937.2527, 3123.120
937.7348, 3121.620
938.2169, 3108.301
938.6990, 3092.957
939.1812, 3104.664
939.6633, 3135.466
940.1454, 3151.624
940.6275, 3146.499
941.1096, 3137.080
941.5917, 3135.526
942.0739, 3135.646
942.5560, 3121.529
943.0381, 3098.396
943.5202, 3099.411
944.0023, 3123.215
944.4844, 3130.047
944.9666, 3107.146
945.4487, 3085.896
945.9308, 3096.071
946.4129, 3125.101
946.8950, 3137.952
947.3771, 3134.697
947.8593, 3127.864
948.3414, 3117.117
948.8235, 3118.848
949.3056, 3142.232
949.7877, 3166.112
950.2698, 3166.450
950.7520, 3146.972
951.2341, 3122.318
951.7162, 3086.819
952.1983, 3089.520
952.6804, 3148.784
953.1625, 3193.343
953.6447, 3186.227
954.1268, 3155.805
954.6089, 3138.332
955.0910, 3133.622
955.5731, 3136.435
956.0552, 3150.459
956.5374, 3161.055
957.0195, 3168.226
957.5016, 3167.265
957.9837, 3149.313
958.4658, 3128.708
958.9479, 3130.745
959.4301, 3157.614
959.9122, 3176.281
960.3943, 3186.555
960.8764, 3188.298
961.3585, 3172.035
961.8406, 3160.388
962.3228, 3172.293
962.8049, 3195.424
963.2870, 3203.826
963.7691, 3192.404
964.2512, 3193.716
964.7333, 3226.175
965.2155, 3244.584
965.6976, 3229.936
966.1797, 3210.154
966.6618, 3202.053
967.1439, 3202.108
967.6260, 3201.081
968.1082, 3195.561
968.5903, 3201.890
969.0724, 3239.573
969.5545, 3264.137
970.0366, 3248.234
970.5187, 3229.947
971.0009, 3242.990
971.4830, 3276.151
971.9651, 3297.109
972.4472, 3299.149
972.9293, 3302.511
973.4114, 3312.120
973.8936, 3320.817
974.3757, 3325.150
974.8578, 3328.283
975.3399, 3334.893
975.8220, 3342.637
976.3041, 3341.073
976.7863, 3319.623
977.2684, 3318.865
977.7505, 3372.950
978.2326, 3418.974
978.7147, 3420.215
979.1968, 3407.265
979.6790, 3408.948
980.1611, 3424.578
980.6432, 3441.461
981.1253, 3455.203
981.6074, 3475.386
982.0895, 3502.137
982.5717, 3539.156
983.0538, 3601.633
983.5359, 3666.131
984.0180, 3708.046
984.5001, 3728.074
984.9822, 3734.627
985.4644, 3715.311
985.9465, 3726.584
986.4286, 3811.420
986.9107, 3907.152
987.3928, 3974.265
987.8749, 4033.930
988.3571, 4109.823
988.8392, 4203.351
989.3213, 4305.346
989.8034, 4410.961
990.2855, 4530.676
990.7676, 4669.295
991.2498, 4822.283
991.7319, 4979.233
992.2140, 5153.435
992.6961, 5354.678
993.1782, 5589.623
993.6603, 5875.819
994.1425, 6218.769
994.6246, 6610.611
995.1067, 7039.231
995.5888, 7525.455
996.0709, 8107.708
996.5530, 8737.495
997.0352, 9371.054
997.5173, 9996.595
997.9994, 10603.48
998.4815, 11201.13
998.9636, 11740.21
999.4457, 12154.90
999.9279, 12553.29
1000.410, 12920.76
1000.892, 13370.47
1001.374, 14017.13
1001.856, 14878.54
1002.338, 15939.00
1002.821, 17214.22
1003.303, 18627.40
1003.785, 20359.74
1004.267, 21992.73
1004.749, 23423.72
1005.231, 24448.81
1005.713, 24794.52
1006.195, 24497.22
1006.677, 23761.24
1007.160, 22515.68
1007.642, 21313.96
1008.124, 20236.60
1008.606, 19476.84
1009.088, 19138.58
1009.570, 19208.10
1010.052, 19655.50
1010.534, 20484.03
1011.017, 21757.10
1011.499, 23595.12
1011.981, 25527.31
1012.463, 27817.66
1012.945, 29624.59
1013.427, 30683.83
1013.909, 30793.65
1014.391, 29541.33
1014.873, 27152.46
1015.356, 24281.77
1015.838, 20961.25
1016.320, 17854.79
1016.802, 15122.19
1017.284, 12780.63
1017.766, 10874.00
1018.248, 9333.365
1018.730, 8152.827
1019.213, 7275.230
1019.695, 6573.141
1020.177, 6032.604
1020.659, 5588.578
1021.141, 5241.938
1021.623, 4956.603
1022.105, 4736.281
1022.587, 4549.901
1023.069, 4367.393
1023.552, 4196.278
1024.034, 4062.299
1024.516, 3973.525
1024.998, 3903.025
1025.480, 3860.850
1025.962, 3814.102
1026.444, 3746.056
1026.926, 3673.368
1027.409, 3603.479
1027.891, 3541.653
1028.373, 3499.065
1028.855, 3479.969
1029.337, 3456.373
1029.819, 3415.572
1030.301, 3380.329
1030.783, 3361.743
1031.266, 3345.457
1031.748, 3320.013
1032.230, 3290.696
1032.712, 3266.355
1033.194, 3247.444
1033.676, 3236.475
1034.158, 3243.097
1034.640, 3244.009
1035.122, 3226.646
1035.604, 3212.224
1036.087, 3219.046
1036.569, 3232.599
1037.051, 3230.557
1037.533, 3212.163
1038.015, 3193.823
1038.497, 3169.078
1038.979, 3155.396
1039.461, 3168.144
1039.944, 3173.093
1040.426, 3147.073
1040.908, 3112.714
1041.390, 3098.590
1041.872, 3102.510
1042.354, 3099.740
1042.836, 3087.607
1043.318, 3074.269
1043.800, 3056.414
1044.283, 3043.997
1044.765, 3040.737
1045.247, 3044.663
1045.729, 3057.250
1046.211, 3074.457
1046.693, 3076.795
1047.175, 3059.086
1047.657, 3043.021
1048.140, 3025.810
1048.622, 3020.295
1049.104, 3034.496
1049.586, 3051.233
1050.068, 3056.933
1050.550, 3053.118
1051.032, 3040.263
1051.514, 3015.013
1051.996, 3019.083
1052.479, 3059.438
1052.961, 3084.153
1053.443, 3079.365
1053.925, 3064.817
1054.407, 3050.908
1054.889, 3044.833
1055.371, 3065.423
1055.853, 3108.346
1056.335, 3115.930
1056.818, 3088.448
1057.300, 3083.572
1057.782, 3111.391
1058.264, 3137.602
1058.746, 3144.061
1059.228, 3141.974
1059.710, 3143.339
1060.192, 3150.245
1060.675, 3174.887
1061.157, 3212.628
1061.639, 3236.238
1062.121, 3244.203
1062.603, 3248.271
1063.085, 3253.677
1063.567, 3271.495
1064.049, 3317.490
1064.531, 3371.665
1065.014, 3397.215
1065.496, 3401.918
1065.978, 3399.509
1066.460, 3394.316
1066.942, 3398.616
1067.424, 3413.130
1067.906, 3417.733
1068.388, 3395.707
1068.870, 3369.639
1069.353, 3367.843
1069.835, 3375.699
1070.317, 3372.393
1070.799, 3362.801
1071.281, 3357.094
1071.763, 3357.571
1072.245, 3363.587
1072.727, 3375.101
1073.210, 3390.637
1073.692, 3412.583
1074.174, 3434.482
1074.656, 3446.758
1075.138, 3458.992
1075.620, 3485.524
1076.102, 3522.108
1076.584, 3553.340
1077.067, 3574.923
1077.549, 3601.229
1078.031, 3662.186
1078.513, 3697.719
1078.995, 3669.422
1079.477, 3616.386
1079.959, 3558.940
1080.441, 3502.689
1080.923, 3455.142
1081.406, 3416.351
1081.888, 3368.837
1082.370, 3296.594
1082.852, 3234.783
1083.334, 3189.016
1083.816, 3154.563
1084.298, 3136.354
1084.780, 3123.385
1085.262, 3105.468
1085.745, 3082.859
1086.227, 3055.905
1086.709, 3017.880
1087.191, 2994.387
1087.673, 2993.896
1088.155, 2989.897
1088.637, 2968.820
1089.119, 2955.893
1089.602, 2974.018
1090.084, 3007.691
1090.566, 3023.777
1091.048, 3021.884
1091.530, 3011.114
1092.012, 2988.419
1092.494, 2978.757
1092.976, 2988.277
1093.458, 2995.572
1093.941, 2988.741
1094.423, 2980.548
1094.905, 2987.302
1095.387, 3005.917
1095.869, 3027.081
1096.351, 3050.022
1096.833, 3067.627
1097.315, 3079.878
1097.797, 3091.722
1098.280, 3105.021
1098.762, 3122.462
1099.244, 3146.319
1099.726, 3174.545
1100.208, 3204.292
1100.690, 3235.966
1101.172, 3271.756
1101.654, 3309.827
1102.137, 3347.595
1102.619, 3382.849
1103.101, 3408.665
1103.583, 3420.804
1104.065, 3436.998
1104.547, 3477.991
1105.029, 3522.911
1105.511, 3551.484
1105.994, 3573.606
1106.476, 3602.844
1106.958, 3635.814
1107.440, 3662.573
1107.922, 3681.012
1108.404, 3694.471
1108.886, 3713.575
1109.368, 3713.896
1109.850, 3664.033
1110.333, 3617.683
1110.815, 3606.271
1111.297, 3618.144
1111.779, 3639.321
1112.261, 3668.879
1112.743, 3709.305
1113.225, 3766.040
1113.707, 3820.350
1114.189, 3873.625
1114.672, 3920.834
1115.154, 3959.268
1115.636, 3994.565
1116.118, 4033.533
1116.600, 4068.803
1117.082, 4085.552
1117.564, 4083.692
1118.046, 4081.348
1118.529, 4076.631
1119.011, 4081.932
1119.493, 4098.724
1119.975, 4129.470
1120.457, 4178.646
1120.939, 4220.228
1121.421, 4229.771
1121.903, 4206.153
1122.385, 4135.629
1122.868, 4028.186
1123.350, 3930.937
1123.832, 3846.276
1124.314, 3774.106
1124.796, 3712.651
1125.278, 3646.154
1125.760, 3565.201
1126.242, 3487.235
1126.724, 3430.037
1127.207, 3390.339
1127.689, 3367.694
1128.171, 3356.923
1128.653, 3346.837
1129.135, 3341.831
1129.617, 3358.496
1130.099, 3399.201
1130.581, 3441.430
1131.064, 3474.380
1131.546, 3505.636
1132.028, 3527.686
1132.510, 3562.299
1132.992, 3633.884
1133.474, 3719.822
1133.956, 3790.416
1134.438, 3849.768
1134.921, 3924.486
1135.403, 4022.428
1135.885, 4118.904
1136.367, 4216.076
1136.849, 4305.451
1137.331, 4398.414
1137.813, 4464.973
1138.295, 4490.949
1138.777, 4476.740
1139.260, 4416.929
1139.742, 4316.973
1140.224, 4226.566
1140.706, 4146.626
1141.188, 4066.206
1141.670, 3984.571
1142.152, 3898.787
1142.634, 3807.596
1143.116, 3722.481
1143.599, 3651.986
1144.081, 3594.916
1144.563, 3557.467
1145.045, 3528.778
1145.527, 3469.177
1146.009, 3390.852
1146.491, 3331.131
1146.973, 3293.005
1147.456, 3263.515
1147.938, 3237.473
1148.420, 3213.042
1148.902, 3182.380
1149.384, 3163.902
1149.866, 3182.676
1150.348, 3213.583
1150.830, 3234.546
1151.313, 3248.757
1151.795, 3259.728
1152.277, 3271.313
1152.759, 3295.202
1153.241, 3337.031
1153.723, 3379.619
1154.205, 3417.295
1154.687, 3458.179
1155.169, 3496.558
1155.651, 3548.356
1156.134, 3629.946
1156.616, 3724.502
1157.098, 3803.462
1157.580, 3870.258
1158.062, 3966.595
1158.544, 4096.982
1159.026, 4237.717
1159.508, 4389.073
1159.991, 4538.020
1160.473, 4680.761
1160.955, 4820.472
1161.437, 4960.788
1161.919, 5100.775
1162.401, 5247.938
1162.883, 5391.844
1163.365, 5501.131
1163.848, 5577.390
1164.330, 5627.450
1164.812, 5647.227
1165.294, 5620.906
1165.776, 5542.824
1166.258, 5412.146
1166.740, 5217.156
1167.222, 4998.263
1167.704, 4769.021
1168.187, 4551.245
1168.669, 4365.732
1169.151, 4204.066
1169.633, 4049.472
1170.115, 3907.680
1170.597, 3801.173
1171.079, 3736.950
1171.561, 3680.871
1172.043, 3618.320
1172.526, 3577.219
1173.008, 3570.987
1173.490, 3573.621
1173.972, 3579.662
1174.454, 3582.279
1174.936, 3573.280
1175.418, 3555.938
1175.900, 3544.139
1176.383, 3539.698
1176.865, 3513.365
1177.347, 3464.696
1177.829, 3406.011
1178.311, 3340.041
1178.793, 3284.351
1179.275, 3247.424
1179.757, 3214.782
1180.240, 3168.430
1180.722, 3123.307
1181.204, 3113.447
1181.686, 3115.651
1182.168, 3084.245
1182.650, 3035.388
1183.132, 3008.559
1183.614, 3005.598
1184.096, 3002.761
1184.578, 2991.317
1185.061, 2980.557
1185.543, 2977.291
1186.025, 2972.116
1186.507, 2950.355
1186.989, 2936.700
1187.471, 2963.763
1187.953, 2999.246
1188.435, 2992.082
1188.918, 2950.490
1189.400, 2926.549
1189.882, 2925.268
1190.364, 2924.801
1190.846, 2926.923
1191.328, 2920.186
1191.810, 2900.228
1192.292, 2884.171
1192.775, 2881.805
1193.257, 2888.331
1193.739, 2900.837
1194.221, 2912.983
1194.703, 2903.987
1195.185, 2884.050
1195.667, 2883.776
1196.149, 2896.570
1196.631, 2897.861
1197.114, 2884.649
1197.596, 2869.129
1198.078, 2856.065
1198.560, 2847.697
1199.042, 2844.778
1199.524, 2847.809
1200.006, 2867.131
1200.488, 2882.142
1200.970, 2870.247
1201.453, 2847.648
1201.935, 2837.858
1202.417, 2841.186
1202.899, 2847.997
1203.381, 2860.177
1203.863, 2869.246
1204.345, 2873.270
1204.827, 2880.937
1205.310, 2894.978
1205.792, 2908.199
1206.274, 2916.487
1206.756, 2923.670
1207.238, 2934.265
1207.720, 2947.283
1208.202, 2961.497
1208.684, 2975.656
1209.167, 2983.892
1209.649, 2989.167
1210.131, 2999.649
1210.613, 3016.662
1211.095, 3041.605
1211.577, 3075.561
1212.059, 3094.775
1212.541, 3059.734
1213.023, 3040.110
1213.505, 3089.658
1213.988, 3148.770
1214.470, 3184.501
1214.952, 3199.545
1215.434, 3192.204
1215.916, 3169.791
1216.398, 3157.769
1216.880, 3158.808
1217.362, 3154.286
1217.845, 3144.650
1218.327, 3125.876
1218.809, 3095.565
1219.291, 3070.270
1219.773, 3057.423
1220.255, 3041.661
1220.737, 3007.294
1221.219, 2968.034
1221.702, 2949.633
1222.184, 2943.170
1222.666, 2931.349
1223.148, 2916.359
1223.630, 2904.190
1224.112, 2894.185
1224.594, 2882.045
1225.076, 2866.817
1225.558, 2851.211
1226.041, 2834.052
1226.523, 2821.535
1227.005, 2812.849
1227.487, 2812.978
1227.969, 2840.121
1228.451, 2859.380
1228.933, 2836.327
1229.415, 2797.139
1229.897, 2788.104
1230.380, 2805.893
1230.862, 2816.106
1231.344, 2818.857
1231.826, 2807.802
1232.308, 2783.474
1232.790, 2763.038
1233.272, 2751.758
1233.754, 2758.605
1234.237, 2789.588
1234.719, 2815.070
1235.201, 2794.831
1235.683, 2764.182
1236.165, 2762.154
1236.647, 2771.044
1237.129, 2774.404
1237.611, 2772.516
1238.094, 2765.364
1238.576, 2755.856
1239.058, 2755.287
1239.540, 2769.830
1240.022, 2774.174
1240.504, 2760.390
1240.986, 2749.568
1241.468, 2744.271
1241.950, 2741.995
1242.432, 2742.148
1242.915, 2743.414
1243.397, 2744.680
1243.879, 2745.949
##END=



