##NAMES=Gotzenite
##RRUFFID=R130110
##IDEAL CHEMISTRY=Ca_4_NaCa_2_Ti^4+^(Si_2_O_7_)_2_(OF)F_2_
##LOCALITY=Pocos de Caldas, Pocos de Caldas Plateau, Minas Gerais, Brazil
##OWNER=RRUFF
##SOURCE=Gunnar Farber
##DESCRIPTION=Grey to pale brown aggregates of elongated crystals, associated with colorless nepheline, elongated pectolite, and white milky microcline.
##STATUS=The identification of this mineral is confirmed by single-crystal X-ray diffraction and chemical analysis.
##URL=rruff.info/R130110
##MEASURED CHEMISTRY=Na_1.00_(Ca_4.23_Na_1.05_Zr_0.44_Mn_0.12_Sr_0.06_Ce_0.04_La_0.03_Fe_0.02_Y_0.02_Dy_0.01_)(Ti_0.90_Nd^5+^_0.10_)(Si_2.00_O_7_)_2_OF_2.98_
7.826855e+001, 2.926656e+004
8.019702e+001, 2.600314e+004
8.212549e+001, 2.478126e+004
8.405396e+001, 2.631890e+004
8.598242e+001, 2.944868e+004
8.791089e+001, 3.264648e+004
8.983936e+001, 3.590362e+004
9.176782e+001, 3.892880e+004
9.369629e+001, 3.993311e+004
9.562476e+001, 3.854183e+004
9.755322e+001, 3.729184e+004
9.948169e+001, 3.629359e+004
1.014102e+002, 3.561771e+004
1.033386e+002, 3.519387e+004
1.052671e+002, 3.492314e+004
1.071956e+002, 3.474769e+004
1.091240e+002, 3.466342e+004
1.110525e+002, 3.460626e+004
1.129810e+002, 3.462254e+004
1.149094e+002, 3.478461e+004
1.168379e+002, 3.506756e+004
1.187664e+002, 3.534180e+004
1.206948e+002, 3.551797e+004
1.226233e+002, 3.574020e+004
1.245518e+002, 3.601566e+004
1.264802e+002, 3.636203e+004
1.284087e+002, 3.681297e+004
1.303372e+002, 3.736239e+004
1.322656e+002, 3.788364e+004
1.341941e+002, 3.832367e+004
1.361226e+002, 3.877712e+004
1.380510e+002, 3.924548e+004
1.399795e+002, 3.974968e+004
1.419080e+002, 4.030368e+004
1.438364e+002, 4.090670e+004
1.457649e+002, 4.156149e+004
1.476934e+002, 4.233896e+004
1.496218e+002, 4.307177e+004
1.515503e+002, 4.372251e+004
1.534788e+002, 4.432454e+004
1.554072e+002, 4.486809e+004
1.573357e+002, 4.536980e+004
1.592642e+002, 4.599266e+004
1.611926e+002, 4.688093e+004
1.631211e+002, 4.769223e+004
1.650496e+002, 4.831984e+004
1.669780e+002, 4.894872e+004
1.689065e+002, 4.971249e+004
1.708350e+002, 5.057129e+004
1.727634e+002, 5.137613e+004
1.746919e+002, 5.205260e+004
1.766204e+002, 5.281682e+004
1.785488e+002, 5.373358e+004
1.804773e+002, 5.465229e+004
1.824058e+002, 5.546414e+004
1.843342e+002, 5.623874e+004
1.862627e+002, 5.711364e+004
1.881912e+002, 5.815124e+004
1.901196e+002, 5.904196e+004
1.920481e+002, 5.967695e+004
1.939766e+002, 6.036505e+004
1.959050e+002, 6.130134e+004
1.978335e+002, 6.230673e+004
1.997620e+002, 6.320406e+004
2.016904e+002, 6.398998e+004
2.036189e+002, 6.483299e+004
2.055474e+002, 6.572850e+004
2.074758e+002, 6.667943e+004
2.094043e+002, 6.775470e+004
2.113328e+002, 6.881501e+004
2.132612e+002, 6.977231e+004
2.151897e+002, 7.064484e+004
2.171182e+002, 7.147791e+004
2.190466e+002, 7.225598e+004
2.209751e+002, 7.310369e+004
2.229036e+002, 7.408698e+004
2.248320e+002, 7.504805e+004
2.267605e+002, 7.589975e+004
2.286890e+002, 7.669852e+004
2.306174e+002, 7.752316e+004
2.325459e+002, 7.837416e+004
2.344744e+002, 7.923402e+004
2.364028e+002, 8.015284e+004
2.383313e+002, 8.093327e+004
2.402598e+002, 8.138391e+004
2.421882e+002, 8.181013e+004
2.441167e+002, 8.239603e+004
2.460452e+002, 8.311182e+004
2.479736e+002, 8.386289e+004
2.499021e+002, 8.464846e+004
2.518306e+002, 8.542751e+004
2.537590e+002, 8.620889e+004
2.556875e+002, 8.693868e+004
2.576160e+002, 8.756759e+004
2.595444e+002, 8.815156e+004
2.614729e+002, 8.872459e+004
2.634014e+002, 8.930759e+004
2.653298e+002, 9.001117e+004
2.672583e+002, 9.089038e+004
2.691868e+002, 9.173355e+004
2.711152e+002, 9.254719e+004
2.730437e+002, 9.326312e+004
2.749722e+002, 9.377100e+004
2.769006e+002, 9.419042e+004
2.788291e+002, 9.475594e+004
2.807576e+002, 9.544571e+004
2.826860e+002, 9.601309e+004
2.846145e+002, 9.639005e+004
2.865430e+002, 9.669927e+004
2.884714e+002, 9.689930e+004
2.903999e+002, 9.710991e+004
2.923284e+002, 9.744888e+004
2.942568e+002, 9.784943e+004
2.961853e+002, 9.815505e+004
2.981138e+002, 9.834228e+004
3.000422e+002, 9.865563e+004
3.019707e+002, 9.924083e+004
3.038992e+002, 9.979438e+004
3.058276e+002, 1.002114e+005
3.077561e+002, 1.006120e+005
3.096846e+002, 1.010789e+005
3.116130e+002, 1.016113e+005
3.135415e+002, 1.022163e+005
3.154700e+002, 1.028939e+005
3.173984e+002, 1.036499e+005
3.193269e+002, 1.044849e+005
3.212554e+002, 1.053846e+005
3.231838e+002, 1.063697e+005
3.251123e+002, 1.073919e+005
3.270408e+002, 1.084588e+005
3.289692e+002, 1.095279e+005
3.308977e+002, 1.104445e+005
3.328262e+002, 1.111164e+005
3.347546e+002, 1.118893e+005
3.366831e+002, 1.128215e+005
3.386116e+002, 1.137791e+005
3.405400e+002, 1.147135e+005
3.424685e+002, 1.156805e+005
3.443970e+002, 1.167347e+005
3.463254e+002, 1.178503e+005
3.482539e+002, 1.189232e+005
3.501824e+002, 1.199040e+005
3.521108e+002, 1.210009e+005
3.540393e+002, 1.222272e+005
3.559678e+002, 1.235285e+005
3.578962e+002, 1.249321e+005
3.598247e+002, 1.263547e+005
3.617532e+002, 1.276822e+005
3.636816e+002, 1.289995e+005
3.656101e+002, 1.305271e+005
3.675386e+002, 1.323108e+005
3.694670e+002, 1.340730e+005
3.713955e+002, 1.357582e+005
3.733240e+002, 1.375888e+005
3.752524e+002, 1.396378e+005
3.771809e+002, 1.418535e+005
3.791094e+002, 1.441937e+005
3.810378e+002, 1.466610e+005
3.829663e+002, 1.492177e+005
3.848948e+002, 1.518660e+005
3.868232e+002, 1.548714e+005
3.887517e+002, 1.582979e+005
3.906802e+002, 1.617012e+005
3.926086e+002, 1.649236e+005
3.945371e+002, 1.682240e+005
3.964656e+002, 1.717195e+005
3.983940e+002, 1.753461e+005
4.003225e+002, 1.791011e+005
4.022510e+002, 1.829405e+005
4.041794e+002, 1.866278e+005
4.061079e+002, 1.901597e+005
4.080364e+002, 1.937520e+005
4.099648e+002, 1.975525e+005
4.118933e+002, 2.010991e+005
4.138218e+002, 2.040762e+005
4.157502e+002, 2.069316e+005
4.176787e+002, 2.099723e+005
4.196072e+002, 2.130327e+005
4.215356e+002, 2.158877e+005
4.234641e+002, 2.185183e+005
4.253926e+002, 2.207678e+005
4.273210e+002, 2.225992e+005
4.292495e+002, 2.242025e+005
4.311780e+002, 2.255948e+005
4.331064e+002, 2.267869e+005
4.350349e+002, 2.278113e+005
4.369634e+002, 2.286201e+005
4.388918e+002, 2.291730e+005
4.408203e+002, 2.294716e+005
4.427488e+002, 2.295603e+005
4.446772e+002, 2.294383e+005
4.466057e+002, 2.290446e+005
4.485342e+002, 2.283451e+005
4.504626e+002, 2.274310e+005
4.523911e+002, 2.261355e+005
4.543196e+002, 2.248819e+005
4.562480e+002, 2.238511e+005
4.581765e+002, 2.229240e+005
4.601050e+002, 2.219113e+005
4.620334e+002, 2.209449e+005
4.639619e+002, 2.203322e+005
4.658904e+002, 2.200867e+005
4.678188e+002, 2.198916e+005
4.697473e+002, 2.195690e+005
4.716758e+002, 2.195870e+005
4.736042e+002, 2.202592e+005
4.755327e+002, 2.208990e+005
4.774612e+002, 2.211484e+005
4.793896e+002, 2.212926e+005
4.813181e+002, 2.216675e+005
4.832466e+002, 2.221104e+005
4.851750e+002, 2.222962e+005
4.871035e+002, 2.222179e+005
4.890320e+002, 2.219080e+005
4.909604e+002, 2.213998e+005
4.928889e+002, 2.205795e+005
4.948174e+002, 2.195949e+005
4.967458e+002, 2.180874e+005
4.986743e+002, 2.158700e+005
5.006028e+002, 2.131388e+005
5.025313e+002, 2.100153e+005
5.044597e+002, 2.065297e+005
5.063882e+002, 2.027320e+005
5.083167e+002, 1.986320e+005
5.102451e+002, 1.940978e+005
5.121736e+002, 1.890060e+005
5.141021e+002, 1.837262e+005
5.160305e+002, 1.781253e+005
5.179590e+002, 1.725955e+005
5.198875e+002, 1.672050e+005
5.218159e+002, 1.619753e+005
5.237444e+002, 1.569909e+005
5.256729e+002, 1.521043e+005
5.276013e+002, 1.470700e+005
5.295298e+002, 1.420134e+005
5.314583e+002, 1.374017e+005
5.333867e+002, 1.332883e+005
5.353152e+002, 1.293995e+005
5.372437e+002, 1.257332e+005
5.391721e+002, 1.223154e+005
5.411006e+002, 1.191651e+005
5.430291e+002, 1.162212e+005
5.449575e+002, 1.134327e+005
5.468860e+002, 1.108608e+005
5.488145e+002, 1.086362e+005
5.507429e+002, 1.065998e+005
5.526714e+002, 1.044790e+005
5.545999e+002, 1.023236e+005
5.565283e+002, 1.004446e+005
5.584568e+002, 9.883943e+004
5.603853e+002, 9.727510e+004
5.623137e+002, 9.572825e+004
5.642422e+002, 9.425392e+004
5.661707e+002, 9.288627e+004
5.680991e+002, 9.155780e+004
5.700276e+002, 9.018228e+004
5.719561e+002, 8.890059e+004
5.738845e+002, 8.789775e+004
5.758130e+002, 8.698133e+004
5.777415e+002, 8.583892e+004
5.796699e+002, 8.454096e+004
5.815984e+002, 8.332035e+004
5.835269e+002, 8.218154e+004
5.854553e+002, 8.126141e+004
5.873838e+002, 8.061988e+004
5.893123e+002, 7.995257e+004
5.912407e+002, 7.918032e+004
5.931692e+002, 7.840766e+004
5.950977e+002, 7.766554e+004
5.970261e+002, 7.693265e+004
5.989546e+002, 7.619853e+004
6.008831e+002, 7.547133e+004
6.028115e+002, 7.474442e+004
6.047400e+002, 7.403943e+004
6.066685e+002, 7.339512e+004
6.085969e+002, 7.280559e+004
6.105254e+002, 7.224293e+004
6.124539e+002, 7.169988e+004
6.143823e+002, 7.122002e+004
6.163108e+002, 7.082249e+004
6.182393e+002, 7.045884e+004
6.201677e+002, 7.015916e+004
6.220962e+002, 6.984238e+004
6.240247e+002, 6.941592e+004
6.259531e+002, 6.904784e+004
6.278816e+002, 6.894159e+004
6.298101e+002, 6.887499e+004
6.317385e+002, 6.856995e+004
6.336670e+002, 6.813896e+004
6.355955e+002, 6.780324e+004
6.375239e+002, 6.755921e+004
6.394524e+002, 6.733015e+004
6.413809e+002, 6.713554e+004
6.433093e+002, 6.687680e+004
6.452378e+002, 6.645977e+004
6.471663e+002, 6.613943e+004
6.490947e+002, 6.601751e+004
6.510232e+002, 6.585661e+004
6.529517e+002, 6.555840e+004
6.548801e+002, 6.523814e+004
6.568086e+002, 6.496704e+004
6.587371e+002, 6.469567e+004
6.606655e+002, 6.438060e+004
6.625940e+002, 6.403792e+004
6.645225e+002, 6.370269e+004
6.664509e+002, 6.336801e+004
6.683794e+002, 6.298121e+004
6.703079e+002, 6.253489e+004
6.722363e+002, 6.213876e+004
6.741648e+002, 6.180998e+004
6.760933e+002, 6.146402e+004
6.780217e+002, 6.106843e+004
6.799502e+002, 6.074257e+004
6.818787e+002, 6.056690e+004
6.838071e+002, 6.034657e+004
6.857356e+002, 5.996741e+004
6.876641e+002, 5.955982e+004
6.895925e+002, 5.917082e+004
6.915210e+002, 5.881508e+004
6.934495e+002, 5.850401e+004
6.953779e+002, 5.823764e+004
6.973064e+002, 5.804855e+004
6.992349e+002, 5.790428e+004
7.011633e+002, 5.765589e+004
7.030918e+002, 5.730837e+004
7.050203e+002, 5.702767e+004
7.069487e+002, 5.681526e+004
7.088772e+002, 5.667234e+004
7.108057e+002, 5.661039e+004
7.127341e+002, 5.656247e+004
7.146626e+002, 5.651411e+004
7.165911e+002, 5.648130e+004
7.185195e+002, 5.649954e+004
7.204480e+002, 5.648641e+004
7.223765e+002, 5.634394e+004
7.243049e+002, 5.623980e+004
7.262334e+002, 5.631584e+004
7.281619e+002, 5.644984e+004
7.300903e+002, 5.652307e+004
7.320188e+002, 5.656209e+004
7.339473e+002, 5.658731e+004
7.358757e+002, 5.662364e+004
7.378042e+002, 5.673316e+004
7.397327e+002, 5.691493e+004
7.416611e+002, 5.718907e+004
7.435896e+002, 5.755448e+004
7.455181e+002, 5.784216e+004
7.474465e+002, 5.802689e+004
7.493750e+002, 5.817256e+004
7.513035e+002, 5.826276e+004
7.532319e+002, 5.836689e+004
7.551604e+002, 5.848116e+004
7.570889e+002, 5.863164e+004
7.590173e+002, 5.885336e+004
7.609458e+002, 5.907289e+004
7.628743e+002, 5.925925e+004
7.648027e+002, 5.943132e+004
7.667312e+002, 5.965176e+004
7.686597e+002, 5.981869e+004
7.705881e+002, 5.974652e+004
7.725166e+002, 5.961753e+004
7.744451e+002, 5.972098e+004
7.763735e+002, 5.993248e+004
7.783020e+002, 5.996451e+004
7.802305e+002, 5.984863e+004
7.821589e+002, 5.978737e+004
7.840874e+002, 5.978722e+004
7.860159e+002, 5.970164e+004
7.879443e+002, 5.948792e+004
7.898728e+002, 5.935132e+004
7.918013e+002, 5.931970e+004
7.937297e+002, 5.932967e+004
7.956582e+002, 5.941784e+004
7.975867e+002, 5.948549e+004
7.995151e+002, 5.953375e+004
8.014436e+002, 5.953123e+004
8.033721e+002, 5.939866e+004
8.053005e+002, 5.933297e+004
8.072290e+002, 5.942478e+004
8.091575e+002, 5.958498e+004
8.110859e+002, 5.981664e+004
8.130144e+002, 6.002359e+004
8.149429e+002, 6.012398e+004
8.168713e+002, 6.018581e+004
8.187998e+002, 6.026186e+004
8.207283e+002, 6.035492e+004
8.226567e+002, 6.045061e+004
8.245852e+002, 6.057551e+004
8.265137e+002, 6.081989e+004
8.284421e+002, 6.114038e+004
8.303706e+002, 6.134138e+004
8.322991e+002, 6.144196e+004
8.342275e+002, 6.167918e+004
8.361560e+002, 6.206026e+004
8.380845e+002, 6.224700e+004
8.400129e+002, 6.222402e+004
8.419414e+002, 6.239159e+004
8.438699e+002, 6.280591e+004
8.457983e+002, 6.310310e+004
8.477268e+002, 6.322240e+004
8.496553e+002, 6.330235e+004
8.515837e+002, 6.334064e+004
8.535122e+002, 6.343879e+004
8.554407e+002, 6.364303e+004
8.573691e+002, 6.385175e+004
8.592976e+002, 6.407038e+004
8.612261e+002, 6.422243e+004
8.631545e+002, 6.427491e+004
8.650830e+002, 6.426929e+004
8.670115e+002, 6.416427e+004
8.689399e+002, 6.408278e+004
8.708684e+002, 6.414425e+004
8.727969e+002, 6.419499e+004
8.747253e+002, 6.410516e+004
8.766538e+002, 6.396870e+004
8.785823e+002, 6.390442e+004
8.805107e+002, 6.381737e+004
8.824392e+002, 6.355959e+004
8.843677e+002, 6.323695e+004
8.862961e+002, 6.300728e+004
8.882246e+002, 6.282490e+004
8.901531e+002, 6.260715e+004
8.920815e+002, 6.236738e+004
8.940100e+002, 6.213916e+004
8.959385e+002, 6.191032e+004
8.978669e+002, 6.166155e+004
8.997954e+002, 6.137878e+004
9.017239e+002, 6.098326e+004
9.036523e+002, 6.049130e+004
9.055808e+002, 6.007802e+004
9.075093e+002, 5.974921e+004
9.094377e+002, 5.938884e+004
9.113662e+002, 5.897970e+004
9.132947e+002, 5.869025e+004
9.152231e+002, 5.856814e+004
9.171516e+002, 5.838642e+004
9.190801e+002, 5.810345e+004
9.210085e+002, 5.786052e+004
9.229370e+002, 5.773805e+004
9.248655e+002, 5.749734e+004
9.267939e+002, 5.699229e+004
9.287224e+002, 5.666457e+004
9.306509e+002, 5.663323e+004
9.325793e+002, 5.658228e+004
9.345078e+002, 5.645894e+004
9.364363e+002, 5.634080e+004
9.383647e+002, 5.621542e+004
9.402932e+002, 5.615668e+004
9.422217e+002, 5.618563e+004
9.441501e+002, 5.628114e+004
9.460786e+002, 5.648612e+004
9.480071e+002, 5.664154e+004
9.499355e+002, 5.666319e+004
9.518640e+002, 5.667768e+004
9.537925e+002, 5.673763e+004
9.557209e+002, 5.680667e+004
9.576494e+002, 5.686394e+004
9.595779e+002, 5.693924e+004
9.615063e+002, 5.707017e+004
9.634348e+002, 5.719332e+004
9.653633e+002, 5.720522e+004
9.672917e+002, 5.729700e+004
9.692202e+002, 5.762768e+004
9.711487e+002, 5.799533e+004
9.730771e+002, 5.828168e+004
9.750056e+002, 5.854826e+004
9.769341e+002, 5.886483e+004
9.788625e+002, 5.913916e+004
9.807910e+002, 5.914414e+004
9.827195e+002, 5.925995e+004
9.846479e+002, 5.996827e+004
9.865764e+002, 6.074935e+004
9.885049e+002, 6.112046e+004
9.904333e+002, 6.134286e+004
9.923618e+002, 6.163240e+004
9.942903e+002, 6.195143e+004
9.962188e+002, 6.227046e+004
9.981472e+002, 6.258820e+004
1.000076e+003, 6.284189e+004
1.002004e+003, 6.315808e+004
1.003933e+003, 6.375712e+004
1.005861e+003, 6.443418e+004
1.007790e+003, 6.492866e+004
1.009718e+003, 6.536025e+004
1.011646e+003, 6.587613e+004
1.013575e+003, 6.641909e+004
1.015503e+003, 6.689857e+004
1.017432e+003, 6.737275e+004
1.019360e+003, 6.790506e+004
1.021289e+003, 6.849527e+004
1.023217e+003, 6.921168e+004
1.025146e+003, 6.992841e+004
1.027074e+003, 7.038667e+004
1.029003e+003, 7.082226e+004
1.030931e+003, 7.164469e+004
1.032860e+003, 7.256277e+004
1.034788e+003, 7.313050e+004
1.036717e+003, 7.359852e+004
1.038645e+003, 7.427432e+004
1.040573e+003, 7.506848e+004
1.042502e+003, 7.590723e+004
1.044430e+003, 7.674866e+004
1.046359e+003, 7.757067e+004
1.048287e+003, 7.833763e+004
1.050216e+003, 7.893463e+004
1.052144e+003, 7.952509e+004
1.054073e+003, 8.032819e+004
1.056001e+003, 8.123658e+004
1.057930e+003, 8.211830e+004
1.059858e+003, 8.303691e+004
1.061787e+003, 8.410229e+004
1.063715e+003, 8.520610e+004
1.065644e+003, 8.621411e+004
1.067572e+003, 8.719640e+004
1.069500e+003, 8.818547e+004
1.071429e+003, 8.922295e+004
1.073357e+003, 9.038326e+004
1.075286e+003, 9.157830e+004
1.077214e+003, 9.271620e+004
1.079143e+003, 9.386483e+004
1.081071e+003, 9.509459e+004
1.083000e+003, 9.636863e+004
1.084928e+003, 9.765270e+004
1.086857e+003, 9.897484e+004
1.088785e+003, 1.003059e+005
1.090714e+003, 1.017473e+005
1.092642e+003, 1.034122e+005
1.094571e+003, 1.051572e+005
1.096499e+003, 1.069086e+005
1.098427e+003, 1.086650e+005
1.100356e+003, 1.103794e+005
1.102284e+003, 1.121555e+005
1.104213e+003, 1.140512e+005
1.106141e+003, 1.160126e+005
1.108070e+003, 1.179686e+005
1.109998e+003, 1.200471e+005
1.111927e+003, 1.224091e+005
1.113855e+003, 1.247484e+005
1.115784e+003, 1.268079e+005
1.117712e+003, 1.290627e+005
1.119641e+003, 1.316928e+005
1.121569e+003, 1.344977e+005
1.123498e+003, 1.375522e+005
1.125426e+003, 1.405150e+005
1.127354e+003, 1.431268e+005
1.129283e+003, 1.460367e+005
1.131211e+003, 1.495271e+005
1.133140e+003, 1.529405e+005
1.135068e+003, 1.560290e+005
1.136997e+003, 1.593963e+005
1.138925e+003, 1.631870e+005
1.140854e+003, 1.670783e+005
1.142782e+003, 1.710330e+005
1.144711e+003, 1.750767e+005
1.146639e+003, 1.791722e+005
1.148568e+003, 1.836810e+005
1.150496e+003, 1.886872e+005
1.152425e+003, 1.936772e+005
1.154353e+003, 1.986081e+005
1.156281e+003, 2.037743e+005
1.158210e+003, 2.091809e+005
1.160138e+003, 2.145990e+005
1.162067e+003, 2.200386e+005
1.163995e+003, 2.259072e+005
1.165924e+003, 2.321595e+005
1.167852e+003, 2.383855e+005
1.169781e+003, 2.446845e+005
1.171709e+003, 2.516171e+005
1.173638e+003, 2.590184e+005
1.175566e+003, 2.663569e+005
1.177495e+003, 2.737872e+005
1.179423e+003, 2.816020e+005
1.181352e+003, 2.897649e+005
1.183280e+003, 2.982943e+005
1.185208e+003, 3.070432e+005
1.187137e+003, 3.156550e+005
1.189065e+003, 3.245798e+005
1.190994e+003, 3.343243e+005
1.192922e+003, 3.444250e+005
1.194851e+003, 3.545492e+005
1.196779e+003, 3.648903e+005
1.198708e+003, 3.754737e+005
1.200636e+003, 3.865235e+005
1.202565e+003, 3.981293e+005
1.204493e+003, 4.103963e+005
1.206422e+003, 4.234444e+005
1.208350e+003, 4.369821e+005
1.210279e+003, 4.509778e+005
1.212207e+003, 4.649228e+005
1.214135e+003, 4.784423e+005
1.216064e+003, 4.930327e+005
1.217992e+003, 5.090773e+005
1.219921e+003, 5.253283e+005
1.221849e+003, 5.416225e+005
1.223778e+003, 5.585607e+005
1.225706e+003, 5.762134e+005
1.227635e+003, 5.943288e+005
1.229563e+003, 6.129263e+005
1.231492e+003, 6.322724e+005
1.233420e+003, 6.523226e+005
1.235349e+003, 6.728883e+005
1.237277e+003, 6.938637e+005
1.239206e+003, 7.150144e+005
1.241134e+003, 7.363008e+005
1.243063e+003, 7.576684e+005
1.244991e+003, 7.791906e+005
1.246919e+003, 8.013006e+005
1.248848e+003, 8.233060e+005
1.250776e+003, 8.445984e+005
1.252705e+003, 8.653494e+005
1.254633e+003, 8.858277e+005
1.256562e+003, 9.055961e+005
1.258490e+003, 9.243454e+005
1.260419e+003, 9.424016e+005
1.262347e+003, 9.599531e+005
1.264276e+003, 9.766979e+005
1.266204e+003, 9.923642e+005
1.268133e+003, 1.007731e+006
1.270061e+003, 1.023284e+006
1.271990e+003, 1.036944e+006
1.273918e+003, 1.048334e+006
1.275846e+003, 1.059623e+006
1.277775e+003, 1.070899e+006
1.279703e+003, 1.081663e+006
1.281632e+003, 1.092018e+006
1.283560e+003, 1.102599e+006
1.285489e+003, 1.113373e+006
1.287417e+003, 1.124164e+006
1.289346e+003, 1.135048e+006
1.291274e+003, 1.146141e+006
1.293203e+003, 1.157374e+006
1.295131e+003, 1.168441e+006
1.297060e+003, 1.179926e+006
1.298988e+003, 1.192562e+006
1.300917e+003, 1.205220e+006
1.302845e+003, 1.217267e+006
1.304773e+003, 1.229273e+006
1.306702e+003, 1.241619e+006
1.308630e+003, 1.253697e+006
1.310559e+003, 1.265377e+006
1.312487e+003, 1.277105e+006
1.314416e+003, 1.289056e+006
1.316344e+003, 1.300854e+006
1.318273e+003, 1.312517e+006
1.320201e+003, 1.322838e+006
1.322130e+003, 1.331887e+006
1.324058e+003, 1.340690e+006
1.325987e+003, 1.348937e+006
1.327915e+003, 1.356055e+006
1.329844e+003, 1.361828e+006
1.331772e+003, 1.365592e+006
1.333700e+003, 1.368241e+006
1.335629e+003, 1.370646e+006
1.337557e+003, 1.372389e+006
1.339486e+003, 1.373122e+006
1.341414e+003, 1.373289e+006
1.343343e+003, 1.372628e+006
1.345271e+003, 1.372540e+006
1.347200e+003, 1.373198e+006
1.349128e+003, 1.375217e+006
1.351057e+003, 1.378670e+006
1.352985e+003, 1.384149e+006
1.354914e+003, 1.391679e+006
1.356842e+003, 1.400713e+006
1.358771e+003, 1.411704e+006
1.360699e+003, 1.426316e+006
1.362627e+003, 1.444126e+006
1.364556e+003, 1.463689e+006
1.366484e+003, 1.486749e+006
1.368413e+003, 1.515108e+006
1.370341e+003, 1.548331e+006
1.372270e+003, 1.586514e+006
1.374198e+003, 1.628700e+006
1.376127e+003, 1.673932e+006
1.378055e+003, 1.724253e+006
1.379984e+003, 1.780605e+006
1.381912e+003, 1.840192e+006
1.383841e+003, 1.902856e+006
1.385769e+003, 1.968874e+006
1.387698e+003, 2.038120e+006
1.389626e+003, 2.109337e+006
1.391554e+003, 2.182393e+006
1.393483e+003, 2.258046e+006
1.395411e+003, 2.333939e+006
1.397340e+003, 2.407214e+006
1.399268e+003, 2.478287e+006
1.401197e+003, 2.547665e+006
1.403125e+003, 2.614614e+006
1.405054e+003, 2.679761e+006
1.406982e+003, 2.740167e+006
1.408911e+003, 2.795799e+006
1.410839e+003, 2.844561e+006
1.412768e+003, 2.885271e+006
1.414696e+003, 2.923041e+006
1.416625e+003, 2.957741e+006
1.418553e+003, 2.983591e+006
1.420481e+003, 3.001593e+006
1.422410e+003, 3.014003e+006
1.424338e+003, 3.022799e+006
1.426267e+003, 3.030637e+006
1.428195e+003, 3.037104e+006
1.430124e+003, 3.040487e+006
1.432052e+003, 3.045772e+006
1.433981e+003, 3.054557e+006
1.435909e+003, 3.067237e+006
1.437838e+003, 3.083477e+006
1.439766e+003, 3.107258e+006
1.441695e+003, 3.139034e+006
1.443623e+003, 3.177035e+006
1.445552e+003, 3.220956e+006
1.447480e+003, 3.270897e+006
1.449408e+003, 3.326521e+006
1.451337e+003, 3.388895e+006
1.453265e+003, 3.454619e+006
1.455194e+003, 3.521600e+006
1.457122e+003, 3.588352e+006
1.459051e+003, 3.654968e+006
1.460979e+003, 3.719729e+006
1.462908e+003, 3.783438e+006
1.464836e+003, 3.839769e+006
1.466765e+003, 3.888239e+006
1.468693e+003, 3.928893e+006
1.470622e+003, 3.961016e+006
1.472550e+003, 3.981361e+006
1.474479e+003, 3.990170e+006
1.476407e+003, 3.987648e+006
1.478335e+003, 3.972898e+006
1.480264e+003, 3.944733e+006
1.482192e+003, 3.904184e+006
1.484121e+003, 3.850922e+006
1.486049e+003, 3.785918e+006
1.487978e+003, 3.708447e+006
1.489906e+003, 3.623956e+006
1.491835e+003, 3.532823e+006
1.493763e+003, 3.436068e+006
1.495692e+003, 3.333929e+006
1.497620e+003, 3.224749e+006
1.499549e+003, 3.112737e+006
1.501477e+003, 3.001299e+006
1.503406e+003, 2.891243e+006
1.505334e+003, 2.782451e+006
1.507262e+003, 2.676761e+006
1.509191e+003, 2.574824e+006
1.511119e+003, 2.476306e+006
1.513048e+003, 2.380804e+006
1.514976e+003, 2.291597e+006
1.516905e+003, 2.208533e+006
1.518833e+003, 2.130544e+006
1.520762e+003, 2.057914e+006
1.522690e+003, 1.991608e+006
1.524619e+003, 1.930025e+006
1.526547e+003, 1.871979e+006
1.528476e+003, 1.818009e+006
1.530404e+003, 1.768443e+006
1.532333e+003, 1.722658e+006
1.534261e+003, 1.680762e+006
1.536189e+003, 1.641567e+006
1.538118e+003, 1.605228e+006
1.540046e+003, 1.572930e+006
1.541975e+003, 1.543798e+006
1.543903e+003, 1.516697e+006
1.545832e+003, 1.491563e+006
1.547760e+003, 1.468377e+006
1.549689e+003, 1.446851e+006
1.551617e+003, 1.426945e+006
1.553546e+003, 1.408310e+006
1.555474e+003, 1.390843e+006
1.557403e+003, 1.374258e+006
1.559331e+003, 1.358351e+006
1.561260e+003, 1.342301e+006
1.563188e+003, 1.326887e+006
1.565116e+003, 1.313652e+006
1.567045e+003, 1.300669e+006
1.568973e+003, 1.286360e+006
1.570902e+003, 1.273023e+006
1.572830e+003, 1.261063e+006
1.574759e+003, 1.249566e+006
1.576687e+003, 1.238262e+006
1.578616e+003, 1.225620e+006
1.580544e+003, 1.212690e+006
1.582473e+003, 1.201564e+006
1.584401e+003, 1.191410e+006
1.586330e+003, 1.181549e+006
1.588258e+003, 1.172503e+006
1.590187e+003, 1.164699e+006
1.592115e+003, 1.157327e+006
1.594043e+003, 1.150267e+006
1.595972e+003, 1.143855e+006
1.597900e+003, 1.138173e+006
1.599829e+003, 1.133743e+006
1.601757e+003, 1.130135e+006
1.603686e+003, 1.127168e+006
1.605614e+003, 1.124361e+006
1.607543e+003, 1.121384e+006
1.609471e+003, 1.118809e+006
1.611400e+003, 1.116728e+006
1.613328e+003, 1.115407e+006
1.615257e+003, 1.114773e+006
1.617185e+003, 1.114334e+006
1.619114e+003, 1.113843e+006
1.621042e+003, 1.112403e+006
1.622970e+003, 1.111703e+006
1.624899e+003, 1.113174e+006
1.626827e+003, 1.113594e+006
1.628756e+003, 1.111944e+006
1.630684e+003, 1.110695e+006
1.632613e+003, 1.109876e+006
1.634541e+003, 1.109640e+006
1.636470e+003, 1.109065e+006
1.638398e+003, 1.106522e+006
1.640327e+003, 1.103393e+006
1.642255e+003, 1.100353e+006
1.644184e+003, 1.096809e+006
1.646112e+003, 1.092584e+006
1.648041e+003, 1.089049e+006
1.649969e+003, 1.085759e+006
1.651897e+003, 1.080220e+006
1.653826e+003, 1.073369e+006
1.655754e+003, 1.066215e+006
1.657683e+003, 1.058716e+006
1.659611e+003, 1.050840e+006
1.661540e+003, 1.042815e+006
1.663468e+003, 1.034725e+006
1.665397e+003, 1.026839e+006
1.667325e+003, 1.018755e+006
1.669254e+003, 1.008605e+006
1.671182e+003, 9.980910e+005
1.673111e+003, 9.890393e+005
1.675039e+003, 9.801348e+005
1.676968e+003, 9.708461e+005
1.678896e+003, 9.614978e+005
1.680824e+003, 9.520456e+005
1.682753e+003, 9.425894e+005
1.684681e+003, 9.329885e+005
1.686610e+003, 9.230033e+005
1.688538e+003, 9.129029e+005
1.690467e+003, 9.026731e+005
1.692395e+003, 8.930531e+005
1.694324e+003, 8.843681e+005
1.696252e+003, 8.756098e+005
1.698181e+003, 8.668489e+005
1.700109e+003, 8.587858e+005
1.702038e+003, 8.510359e+005
1.703966e+003, 8.429591e+005
1.705895e+003, 8.352676e+005
1.707823e+003, 8.282776e+005
1.709751e+003, 8.219534e+005
1.711680e+003, 8.163876e+005
1.713608e+003, 8.095709e+005
1.715537e+003, 8.023475e+005
1.717465e+003, 7.963393e+005
1.719394e+003, 7.914314e+005
1.721322e+003, 7.880806e+005
1.723251e+003, 7.840211e+005
1.725179e+003, 7.783194e+005
1.727108e+003, 7.742678e+005
1.729036e+003, 7.714108e+005
1.730965e+003, 7.676273e+005
1.732893e+003, 7.637950e+005
1.734822e+003, 7.606994e+005
1.736750e+003, 7.581536e+005
1.738678e+003, 7.562176e+005
1.740607e+003, 7.541628e+005
1.742535e+003, 7.519916e+005
1.744464e+003, 7.499142e+005
1.746392e+003, 7.480343e+005
1.748321e+003, 7.462458e+005
1.750249e+003, 7.451979e+005
1.752178e+003, 7.452945e+005
1.754106e+003, 7.446777e+005
1.756035e+003, 7.432594e+005
1.757963e+003, 7.432739e+005
1.759892e+003, 7.438938e+005
1.761820e+003, 7.435818e+005
1.763749e+003, 7.434300e+005
1.765677e+003, 7.441557e+005
1.767605e+003, 7.446454e+005
1.769534e+003, 7.448223e+005
1.771462e+003, 7.455565e+005
1.773391e+003, 7.467271e+005
1.775319e+003, 7.483591e+005
1.777248e+003, 7.497683e+005
1.779176e+003, 7.502364e+005
1.781105e+003, 7.511178e+005
1.783033e+003, 7.525685e+005
1.784962e+003, 7.547542e+005
1.786890e+003, 7.572396e+005
1.788819e+003, 7.589528e+005
1.790747e+003, 7.609131e+005
1.792676e+003, 7.640676e+005
1.794604e+003, 7.668076e+005
1.796532e+003, 7.688983e+005
1.798461e+003, 7.712217e+005
1.800389e+003, 7.737011e+005
1.802318e+003, 7.763011e+005
1.804246e+003, 7.787494e+005
1.806175e+003, 7.808268e+005
1.808103e+003, 7.831224e+005
1.810032e+003, 7.857792e+005
1.811960e+003, 7.873075e+005
1.813889e+003, 7.884553e+005
1.815817e+003, 7.906261e+005
1.817746e+003, 7.927734e+005
1.819674e+003, 7.943911e+005
1.821603e+003, 7.958302e+005
1.823531e+003, 7.970583e+005
1.825459e+003, 7.979118e+005
1.827388e+003, 7.982716e+005
1.829316e+003, 7.979313e+005
1.831245e+003, 7.971915e+005
1.833173e+003, 7.961546e+005
1.835102e+003, 7.953951e+005
1.837030e+003, 7.948813e+005
1.838959e+003, 7.938033e+005
1.840887e+003, 7.924005e+005
1.842816e+003, 7.908554e+005
1.844744e+003, 7.889921e+005
1.846673e+003, 7.867047e+005
1.848601e+003, 7.837799e+005
1.850530e+003, 7.804221e+005
1.852458e+003, 7.774892e+005
1.854386e+003, 7.742632e+005
1.856315e+003, 7.702153e+005
1.858243e+003, 7.657817e+005
1.860172e+003, 7.610509e+005
1.862100e+003, 7.564272e+005
1.864029e+003, 7.517358e+005
1.865957e+003, 7.467808e+005
1.867886e+003, 7.413173e+005
1.869814e+003, 7.352264e+005
1.871743e+003, 7.283699e+005
1.873671e+003, 7.209310e+005
1.875600e+003, 7.140836e+005
1.877528e+003, 7.071780e+005
1.879457e+003, 6.995854e+005
1.881385e+003, 6.917002e+005
1.883313e+003, 6.836715e+005
1.885242e+003, 6.752988e+005
1.887170e+003, 6.668135e+005
1.889099e+003, 6.588620e+005
1.891027e+003, 6.507780e+005
1.892956e+003, 6.418332e+005
1.894884e+003, 6.335064e+005
1.896813e+003, 6.258298e+005
1.898741e+003, 6.184850e+005
1.900670e+003, 6.110198e+005
1.902598e+003, 6.026044e+005
1.904527e+003, 5.950547e+005
1.906455e+003, 5.891722e+005
1.908384e+003, 5.826325e+005
1.910312e+003, 5.758109e+005
1.912240e+003, 5.695781e+005
1.914169e+003, 5.639113e+005
1.916097e+003, 5.588021e+005
1.918026e+003, 5.542425e+005
1.919954e+003, 5.501222e+005
1.921883e+003, 5.455304e+005
1.923811e+003, 5.409958e+005
1.925740e+003, 5.369173e+005
1.927668e+003, 5.334683e+005
1.929597e+003, 5.306897e+005
1.931525e+003, 5.282904e+005
1.933454e+003, 5.261785e+005
1.935382e+003, 5.243574e+005
1.937311e+003, 5.225797e+005
1.939239e+003, 5.206936e+005
1.941167e+003, 5.199071e+005
1.943096e+003, 5.198211e+005
1.945024e+003, 5.186804e+005
1.946953e+003, 5.174704e+005
1.948881e+003, 5.167844e+005
1.950810e+003, 5.165273e+005
1.952738e+003, 5.166305e+005
1.954667e+003, 5.166078e+005
1.956595e+003, 5.167577e+005
1.958524e+003, 5.174317e+005
1.960452e+003, 5.184198e+005
1.962381e+003, 5.196522e+005
1.964309e+003, 5.202500e+005
1.966238e+003, 5.208623e+005
1.968166e+003, 5.227208e+005
1.970094e+003, 5.245033e+005
1.972023e+003, 5.257071e+005
1.973951e+003, 5.269284e+005
1.975880e+003, 5.282304e+005
1.977808e+003, 5.297805e+005
1.979737e+003, 5.313052e+005
1.981665e+003, 5.325878e+005
1.983594e+003, 5.340676e+005
1.985522e+003, 5.358031e+005
1.987451e+003, 5.382926e+005
1.989379e+003, 5.406324e+005
1.991308e+003, 5.420884e+005
1.993236e+003, 5.439440e+005
1.995165e+003, 5.461767e+005
1.997093e+003, 5.473326e+005
1.999021e+003, 5.483860e+005
2.000950e+003, 5.502620e+005
2.002878e+003, 5.516926e+005
2.004807e+003, 5.524351e+005
2.006735e+003, 5.525736e+005
2.008664e+003, 5.522927e+005
2.010592e+003, 5.517771e+005
2.012521e+003, 5.509716e+005
2.014449e+003, 5.498205e+005
2.016378e+003, 5.481711e+005
2.018306e+003, 5.457534e+005
2.020235e+003, 5.419470e+005
2.022163e+003, 5.376736e+005
2.024092e+003, 5.331030e+005
2.026020e+003, 5.279054e+005
2.027948e+003, 5.221797e+005
2.029877e+003, 5.162159e+005
2.031805e+003, 5.092364e+005
2.033734e+003, 5.010888e+005
2.035662e+003, 4.923413e+005
2.037591e+003, 4.832269e+005
2.039519e+003, 4.739403e+005
2.041448e+003, 4.646835e+005
2.043376e+003, 4.555706e+005
2.045305e+003, 4.451438e+005
2.047233e+003, 4.341064e+005
2.049162e+003, 4.237910e+005
2.051090e+003, 4.129220e+005
2.053019e+003, 4.010096e+005
2.054947e+003, 3.900925e+005
2.056875e+003, 3.798006e+005
2.058804e+003, 3.697339e+005
2.060732e+003, 3.591612e+005
2.062661e+003, 3.476527e+005
2.064589e+003, 3.369995e+005
2.066518e+003, 3.269345e+005
2.068446e+003, 3.172152e+005
2.070375e+003, 3.072289e+005
2.072303e+003, 2.966769e+005
2.074232e+003, 2.872387e+005
2.076160e+003, 2.784265e+005
2.078089e+003, 2.695720e+005
2.080017e+003, 2.609800e+005
2.081946e+003, 2.527555e+005
2.083874e+003, 2.454040e+005
2.085802e+003, 2.383424e+005
2.087731e+003, 2.307900e+005
2.089659e+003, 2.235835e+005
2.091588e+003, 2.169253e+005
2.093516e+003, 2.104881e+005
2.095445e+003, 2.044006e+005
2.097373e+003, 1.989180e+005
2.099302e+003, 1.932516e+005
2.101230e+003, 1.873830e+005
2.103159e+003, 1.819833e+005
2.105087e+003, 1.771046e+005
2.107016e+003, 1.728056e+005
2.108944e+003, 1.689607e+005
2.110873e+003, 1.654233e+005
2.112801e+003, 1.616193e+005
2.114729e+003, 1.578241e+005
2.116658e+003, 1.541816e+005
2.118586e+003, 1.507727e+005
2.120515e+003, 1.475848e+005
2.122443e+003, 1.444770e+005
2.124372e+003, 1.416120e+005
2.126300e+003, 1.390706e+005
2.128229e+003, 1.365459e+005
2.130157e+003, 1.340674e+005
2.132086e+003, 1.316836e+005
2.134014e+003, 1.294490e+005
2.135943e+003, 1.273792e+005
2.137871e+003, 1.251075e+005
2.139800e+003, 1.229111e+005
2.141728e+003, 1.212455e+005
2.143656e+003, 1.193856e+005
2.145585e+003, 1.172657e+005
2.147513e+003, 1.156967e+005
2.149442e+003, 1.142036e+005
2.151370e+003, 1.123528e+005
2.153299e+003, 1.107716e+005
2.155227e+003, 1.094209e+005
2.157156e+003, 1.079962e+005
2.159084e+003, 1.065498e+005
2.161013e+003, 1.051122e+005
2.162941e+003, 1.036198e+005
2.164870e+003, 1.021595e+005
2.166798e+003, 1.009216e+005
2.168727e+003, 9.971574e+004
2.170655e+003, 9.848530e+004
2.172583e+003, 9.719755e+004
2.174512e+003, 9.588844e+004
2.176440e+003, 9.455633e+004
2.178369e+003, 9.345227e+004
2.180297e+003, 9.254345e+004
2.182226e+003, 9.145694e+004
2.184154e+003, 9.031660e+004
2.186083e+003, 8.917887e+004
2.188011e+003, 8.818113e+004
2.189940e+003, 8.723616e+004
2.191868e+003, 8.612027e+004
2.193797e+003, 8.505222e+004
2.195725e+003, 8.407954e+004
2.197654e+003, 8.311527e+004
2.199582e+003, 8.218690e+004
2.201510e+003, 8.137316e+004
2.203439e+003, 8.045907e+004
2.205367e+003, 7.948071e+004
2.207296e+003, 7.864114e+004
2.209224e+003, 7.787116e+004
2.211153e+003, 7.715336e+004
2.213081e+003, 7.642391e+004
2.215010e+003, 7.566809e+004
2.216938e+003, 7.481248e+004
2.218867e+003, 7.406677e+004
2.220795e+003, 7.344606e+004
2.222724e+003, 7.272123e+004
2.224652e+003, 7.207887e+004
2.226581e+003, 7.182570e+004
2.228509e+003, 7.094854e+004
2.230438e+003, 6.978906e+004
2.232366e+003, 6.925855e+004
2.234294e+003, 6.875962e+004
2.236223e+003, 6.810859e+004
2.238151e+003, 6.759485e+004
2.240080e+003, 6.704654e+004
2.242008e+003, 6.628670e+004
2.243937e+003, 6.567468e+004
2.245865e+003, 6.521894e+004
2.247794e+003, 6.492412e+004
2.249722e+003, 6.451839e+004
2.251651e+003, 6.391808e+004
2.253579e+003, 6.351132e+004
2.255508e+003, 6.314530e+004
2.257436e+003, 6.264431e+004
2.259365e+003, 6.220991e+004
2.261293e+003, 6.181208e+004
2.263221e+003, 6.118906e+004
2.265150e+003, 6.070907e+004
2.267078e+003, 6.047944e+004
2.269007e+003, 6.009395e+004
2.270935e+003, 5.971429e+004
2.272864e+003, 5.960120e+004
2.274792e+003, 5.929551e+004
2.276721e+003, 5.885756e+004
2.278649e+003, 5.862161e+004
2.280578e+003, 5.844297e+004
2.282506e+003, 5.827099e+004
2.284435e+003, 5.785376e+004
2.286363e+003, 5.739671e+004
2.288292e+003, 5.708879e+004
2.290220e+003, 5.689504e+004
2.292148e+003, 5.673484e+004
2.294077e+003, 5.642249e+004
2.296005e+003, 5.603050e+004
2.297934e+003, 5.558218e+004
2.299862e+003, 5.554811e+004
2.301791e+003, 5.554030e+004
2.303719e+003, 5.519701e+004
2.305648e+003, 5.510826e+004
2.307576e+003, 5.508557e+004
2.309505e+003, 5.468904e+004
2.311433e+003, 5.432994e+004
2.313362e+003, 5.409486e+004
2.315290e+003, 5.396029e+004
2.317219e+003, 5.384840e+004
2.319147e+003, 5.372768e+004
2.321075e+003, 5.341721e+004
2.323004e+003, 5.311611e+004
2.324932e+003, 5.310681e+004
2.326861e+003, 5.295487e+004
2.328789e+003, 5.265809e+004
2.330718e+003, 5.240353e+004
2.332646e+003, 5.216670e+004
2.334575e+003, 5.195086e+004
2.336503e+003, 5.192661e+004
2.338432e+003, 5.190659e+004
2.340360e+003, 5.175716e+004
2.342289e+003, 5.158920e+004
2.344217e+003, 5.145984e+004
2.346146e+003, 5.145070e+004
2.348074e+003, 5.149426e+004
2.350002e+003, 5.157676e+004
2.351931e+003, 5.181613e+004
2.353859e+003, 5.174142e+004
2.355788e+003, 5.122706e+004
2.357716e+003, 5.111687e+004
2.359645e+003, 5.115280e+004
2.361573e+003, 5.111429e+004
2.363502e+003, 5.113149e+004
2.365430e+003, 5.114610e+004
2.367359e+003, 5.105736e+004
2.369287e+003, 5.087711e+004
2.371216e+003, 5.064243e+004
2.373144e+003, 5.053369e+004
2.375073e+003, 5.038705e+004
2.377001e+003, 5.014130e+004
2.378929e+003, 4.989872e+004
2.380858e+003, 4.967832e+004
2.382786e+003, 4.949560e+004
2.384715e+003, 4.935067e+004
2.386643e+003, 4.919443e+004
2.388572e+003, 4.894355e+004
2.390500e+003, 4.877179e+004
2.392429e+003, 4.864953e+004
2.394357e+003, 4.842709e+004
2.396286e+003, 4.811073e+004
2.398214e+003, 4.770860e+004
2.400143e+003, 4.735216e+004
2.402071e+003, 4.699714e+004
2.404000e+003, 4.662512e+004
2.405928e+003, 4.622988e+004
2.407856e+003, 4.591442e+004
2.409785e+003, 4.579719e+004
2.411713e+003, 4.547546e+004
2.413642e+003, 4.503386e+004
2.415570e+003, 4.466100e+004
2.417499e+003, 4.426074e+004
2.419427e+003, 4.386838e+004
2.421356e+003, 4.366909e+004
2.423284e+003, 4.342159e+004
2.425213e+003, 4.308670e+004
2.427141e+003, 4.285297e+004
2.429070e+003, 4.254845e+004
2.430998e+003, 4.209331e+004
2.432927e+003, 4.188925e+004
2.434855e+003, 4.174901e+004
2.436783e+003, 4.154381e+004
2.438712e+003, 4.114373e+004
2.440640e+003, 4.071636e+004
2.442569e+003, 4.046645e+004
2.444497e+003, 4.034695e+004
2.446426e+003, 4.028643e+004
2.448354e+003, 4.017478e+004
2.450283e+003, 4.000269e+004
2.452211e+003, 3.978316e+004
2.454140e+003, 3.955446e+004
2.456068e+003, 3.929979e+004
2.457997e+003, 3.903161e+004
2.459925e+003, 3.901693e+004
2.461854e+003, 3.901134e+004
2.463782e+003, 3.889500e+004
2.465710e+003, 3.886552e+004
2.467639e+003, 3.890070e+004
2.469567e+003, 3.898208e+004
2.471496e+003, 3.902690e+004
2.473424e+003, 3.910270e+004
2.475353e+003, 3.928155e+004
2.477281e+003, 3.947521e+004
2.479210e+003, 3.968301e+004
2.481138e+003, 3.990836e+004
2.483067e+003, 4.023043e+004
2.484995e+003, 4.062069e+004
2.486924e+003, 4.093030e+004
2.488852e+003, 4.149304e+004
2.490781e+003, 4.226624e+004
2.492709e+003, 4.290209e+004
2.494637e+003, 4.345255e+004
2.496566e+003, 4.405179e+004
2.498494e+003, 4.529576e+004
2.500423e+003, 4.657043e+004
2.502351e+003, 4.770924e+004
2.504280e+003, 4.916033e+004
2.506208e+003, 5.082075e+004
2.508137e+003, 5.263028e+004
2.510065e+003, 5.473457e+004
2.511994e+003, 5.721213e+004
2.513922e+003, 6.015452e+004
2.515851e+003, 6.338520e+004
2.517779e+003, 6.697190e+004
2.519708e+003, 7.097147e+004
2.521636e+003, 7.548180e+004
2.523564e+003, 8.054320e+004
2.525493e+003, 8.613547e+004
2.527421e+003, 9.229979e+004
2.529350e+003, 9.901995e+004
2.531278e+003, 1.063564e+005
2.533207e+003, 1.134304e+005
2.535135e+003, 1.202186e+005
2.537064e+003, 1.270432e+005
2.538992e+003, 1.326942e+005
2.540921e+003, 1.368502e+005
2.542849e+003, 1.390610e+005
2.544778e+003, 1.394374e+005
2.546706e+003, 1.378682e+005
2.548635e+003, 1.337233e+005
2.550563e+003, 1.276397e+005
2.552491e+003, 1.202030e+005
2.554420e+003, 1.126588e+005
2.556348e+003, 1.049735e+005
2.558277e+003, 9.730451e+004
2.560205e+003, 9.000509e+004
2.562134e+003, 8.333452e+004
2.564062e+003, 7.733821e+004
2.565991e+003, 7.181841e+004
2.567919e+003, 6.702027e+004
2.569848e+003, 6.290714e+004
2.571776e+003, 5.916239e+004
2.573705e+003, 5.601042e+004
2.575633e+003, 5.337640e+004
2.577562e+003, 5.084173e+004
2.579490e+003, 4.854144e+004
2.581418e+003, 4.654381e+004
2.583347e+003, 4.514014e+004
2.585275e+003, 4.394993e+004
2.587204e+003, 4.284545e+004
2.589132e+003, 4.167874e+004
2.591061e+003, 4.085446e+004
2.592989e+003, 4.039962e+004
2.594918e+003, 3.943587e+004
2.596846e+003, 3.869139e+004
2.598775e+003, 3.831082e+004
2.600703e+003, 3.767197e+004
2.602632e+003, 3.716486e+004
2.604560e+003, 3.688470e+004
2.606489e+003, 3.665879e+004
2.608417e+003, 3.634500e+004
2.610345e+003, 3.594696e+004
2.612274e+003, 3.575598e+004
2.614202e+003, 3.558581e+004
2.616131e+003, 3.535796e+004
2.618059e+003, 3.495612e+004
2.619988e+003, 3.459869e+004
2.621916e+003, 3.435500e+004
2.623845e+003, 3.430612e+004
2.625773e+003, 3.406977e+004
2.627702e+003, 3.364707e+004
2.629630e+003, 3.333109e+004
2.631559e+003, 3.319216e+004
2.633487e+003, 3.317323e+004
2.635416e+003, 3.312734e+004
2.637344e+003, 3.285148e+004
2.639272e+003, 3.246801e+004
2.641201e+003, 3.240959e+004
2.643129e+003, 3.228202e+004
2.645058e+003, 3.207383e+004
2.646986e+003, 3.186451e+004
2.648915e+003, 3.190267e+004
2.650843e+003, 3.198841e+004
2.652772e+003, 3.164253e+004
2.654700e+003, 3.144806e+004
2.656629e+003, 3.137711e+004
2.658557e+003, 3.127955e+004
2.660486e+003, 3.122282e+004
2.662414e+003, 3.116936e+004
2.664343e+003, 3.106544e+004
2.666271e+003, 3.094562e+004
2.668199e+003, 3.085266e+004
2.670128e+003, 3.082898e+004
2.672056e+003, 3.071497e+004
2.673985e+003, 3.059759e+004
2.675913e+003, 3.054773e+004
2.677842e+003, 3.042402e+004
2.679770e+003, 3.028969e+004
2.681699e+003, 3.018897e+004
2.683627e+003, 3.024177e+004
2.685556e+003, 3.020827e+004
2.687484e+003, 3.002140e+004
2.689413e+003, 3.008448e+004
2.691341e+003, 3.006924e+004
2.693270e+003, 2.990064e+004
2.695198e+003, 2.977573e+004
2.697126e+003, 2.986053e+004
2.699055e+003, 3.006585e+004
2.700983e+003, 2.996895e+004
2.702912e+003, 2.976993e+004
2.704840e+003, 2.958878e+004
2.706769e+003, 2.960629e+004
2.708697e+003, 2.957531e+004
2.710626e+003, 2.952098e+004
2.712554e+003, 2.960255e+004
2.714483e+003, 2.941964e+004
2.716411e+003, 2.916927e+004
2.718340e+003, 2.912842e+004
2.720268e+003, 2.905993e+004
2.722197e+003, 2.901224e+004
2.724125e+003, 2.903343e+004
2.726053e+003, 2.910882e+004
2.727982e+003, 2.900468e+004
2.729910e+003, 2.861112e+004
2.731839e+003, 2.869812e+004
2.733767e+003, 2.879703e+004
2.735696e+003, 2.875983e+004
2.737624e+003, 2.872366e+004
2.739553e+003, 2.866180e+004
2.741481e+003, 2.858193e+004
2.743410e+003, 2.851920e+004
2.745338e+003, 2.846369e+004
2.747267e+003, 2.842200e+004
2.749195e+003, 2.841712e+004
2.751124e+003, 2.834210e+004
2.753052e+003, 2.827223e+004
2.754980e+003, 2.828140e+004
2.756909e+003, 2.827281e+004
2.758837e+003, 2.830064e+004
2.760766e+003, 2.838221e+004
2.762694e+003, 2.835249e+004
2.764623e+003, 2.826942e+004
2.766551e+003, 2.819104e+004
2.768480e+003, 2.833046e+004
2.770408e+003, 2.814680e+004
2.772337e+003, 2.782546e+004
2.774265e+003, 2.807373e+004
2.776194e+003, 2.814229e+004
2.778122e+003, 2.807586e+004
2.780051e+003, 2.804197e+004
2.781979e+003, 2.804058e+004
2.783907e+003, 2.796645e+004
2.785836e+003, 2.772005e+004
2.787764e+003, 2.774669e+004
2.789693e+003, 2.779306e+004
2.791621e+003, 2.776532e+004
2.793550e+003, 2.772928e+004
2.795478e+003, 2.776480e+004
2.797407e+003, 2.783807e+004
2.799335e+003, 2.782838e+004
2.801264e+003, 2.782402e+004
2.803192e+003, 2.783655e+004
2.805121e+003, 2.787082e+004
2.807049e+003, 2.760490e+004
2.808978e+003, 2.743130e+004
2.810906e+003, 2.752312e+004
2.812834e+003, 2.730555e+004
2.814763e+003, 2.714626e+004
2.816691e+003, 2.712427e+004
2.818620e+003, 2.702928e+004
2.820548e+003, 2.698625e+004
2.822477e+003, 2.698867e+004
2.824405e+003, 2.699285e+004
2.826334e+003, 2.703999e+004
2.828262e+003, 2.705475e+004
2.830191e+003, 2.698232e+004
2.832119e+003, 2.687947e+004
2.834048e+003, 2.679245e+004
2.835976e+003, 2.672773e+004
2.837905e+003, 2.663923e+004
2.839833e+003, 2.651482e+004
2.841761e+003, 2.645965e+004
2.843690e+003, 2.669492e+004
2.845618e+003, 2.669474e+004
2.847547e+003, 2.665609e+004
2.849475e+003, 2.678197e+004
2.851404e+003, 2.664672e+004
2.853332e+003, 2.661092e+004
2.855261e+003, 2.673692e+004
2.857189e+003, 2.668483e+004
2.859118e+003, 2.666121e+004
2.861046e+003, 2.665962e+004
2.862975e+003, 2.662138e+004
2.864903e+003, 2.666490e+004
2.866832e+003, 2.671586e+004
2.868760e+003, 2.671016e+004
2.870688e+003, 2.645900e+004
2.872617e+003, 2.634836e+004
2.874545e+003, 2.642183e+004
2.876474e+003, 2.649690e+004
2.878402e+003, 2.648095e+004
2.880331e+003, 2.643482e+004
2.882259e+003, 2.643639e+004
2.884188e+003, 2.636545e+004
2.886116e+003, 2.608490e+004
2.888045e+003, 2.570247e+004
2.889973e+003, 2.601129e+004
2.891902e+003, 2.608840e+004
2.893830e+003, 2.590007e+004
2.895759e+003, 2.563333e+004
2.897687e+003, 2.559807e+004
2.899615e+003, 2.560797e+004
2.901544e+003, 2.553661e+004
2.903472e+003, 2.538982e+004
2.905401e+003, 2.527818e+004
2.907329e+003, 2.514983e+004
2.909258e+003, 2.479165e+004
2.911186e+003, 2.485115e+004
2.913115e+003, 2.482070e+004
2.915043e+003, 2.428250e+004
2.916972e+003, 2.410893e+004
2.918900e+003, 2.403720e+004
2.920829e+003, 2.397525e+004
2.922757e+003, 2.394170e+004
2.924686e+003, 2.387736e+004
2.926614e+003, 2.365470e+004
2.928542e+003, 2.320915e+004
2.930471e+003, 2.307953e+004
2.932399e+003, 2.308031e+004
2.934328e+003, 2.305967e+004
2.936256e+003, 2.278737e+004
2.938185e+003, 2.253662e+004
2.940113e+003, 2.232302e+004
2.942042e+003, 2.212980e+004
2.943970e+003, 2.207114e+004
2.945899e+003, 2.206570e+004
2.947827e+003, 2.202462e+004
2.949756e+003, 2.177837e+004
2.951684e+003, 2.157813e+004
2.953613e+003, 2.140345e+004
2.955541e+003, 2.120093e+004
2.957469e+003, 2.122986e+004
2.959398e+003, 2.105571e+004
2.961326e+003, 2.073886e+004
2.963255e+003, 2.079889e+004
2.965183e+003, 2.064592e+004
2.967112e+003, 2.043808e+004
2.969040e+003, 2.034557e+004
2.970969e+003, 2.013217e+004
2.972897e+003, 1.996229e+004
2.974826e+003, 1.983991e+004
2.976754e+003, 1.968867e+004
2.978683e+003, 1.947902e+004
2.980611e+003, 1.934037e+004
2.982540e+003, 1.931400e+004
2.984468e+003, 1.917306e+004
2.986396e+003, 1.904670e+004
2.988325e+003, 1.884112e+004
2.990253e+003, 1.840373e+004
2.992182e+003, 1.837246e+004
2.994110e+003, 1.834461e+004
2.996039e+003, 1.817950e+004
2.997967e+003, 1.801692e+004
2.999896e+003, 1.790460e+004
3.001824e+003, 1.783898e+004
3.003753e+003, 1.780232e+004
3.005681e+003, 1.760854e+004
3.007610e+003, 1.744913e+004
3.009538e+003, 1.733780e+004
3.011467e+003, 1.719598e+004
3.013395e+003, 1.703700e+004
3.015323e+003, 1.697427e+004
3.017252e+003, 1.701452e+004
3.019180e+003, 1.680858e+004
3.021109e+003, 1.672424e+004
3.023037e+003, 1.665651e+004
3.024966e+003, 1.643893e+004
3.026894e+003, 1.626004e+004
3.028823e+003, 1.627756e+004
3.030751e+003, 1.635086e+004
3.032680e+003, 1.609029e+004
3.034608e+003, 1.610156e+004
3.036537e+003, 1.611786e+004
3.038465e+003, 1.600408e+004
3.040394e+003, 1.603875e+004
3.042322e+003, 1.590747e+004
3.044250e+003, 1.583751e+004
3.046179e+003, 1.602429e+004
3.048107e+003, 1.590300e+004
3.050036e+003, 1.578364e+004
3.051964e+003, 1.573788e+004
3.053893e+003, 1.572751e+004
3.055821e+003, 1.562467e+004
3.057750e+003, 1.562601e+004
3.059678e+003, 1.574996e+004
3.061607e+003, 1.581241e+004
3.063535e+003, 1.593812e+004
3.065464e+003, 1.593337e+004
3.067392e+003, 1.573330e+004
3.069321e+003, 1.606086e+004
3.071249e+003, 1.617170e+004
3.073177e+003, 1.617142e+004
3.075106e+003, 1.632871e+004
3.077034e+003, 1.654347e+004
3.078963e+003, 1.666144e+004
3.080891e+003, 1.674647e+004
3.082820e+003, 1.697206e+004
3.084748e+003, 1.703630e+004
3.086677e+003, 1.717123e+004
3.088605e+003, 1.739936e+004
3.090534e+003, 1.749177e+004
3.092462e+003, 1.758847e+004
3.094391e+003, 1.780023e+004
3.096319e+003, 1.813330e+004
3.098248e+003, 1.842489e+004
3.100176e+003, 1.856013e+004
3.102104e+003, 1.866287e+004
3.104033e+003, 1.882590e+004
3.105961e+003, 1.896488e+004
3.107890e+003, 1.918963e+004
3.109818e+003, 1.952629e+004
3.111747e+003, 1.995648e+004
3.113675e+003, 2.015562e+004
3.115604e+003, 2.043224e+004
3.117532e+003, 2.079599e+004
3.119461e+003, 2.114949e+004
3.121389e+003, 2.148479e+004
3.123318e+003, 2.192797e+004
3.125246e+003, 2.239161e+004
3.127175e+003, 2.265206e+004
3.129103e+003, 2.307985e+004
3.131031e+003, 2.357524e+004
3.132960e+003, 2.409512e+004
3.134888e+003, 2.463309e+004
3.136817e+003, 2.521957e+004
3.138745e+003, 2.588206e+004
3.140674e+003, 2.662760e+004
3.142602e+003, 2.746505e+004
3.144531e+003, 2.804907e+004
3.146459e+003, 2.877450e+004
3.148388e+003, 2.972233e+004
3.150316e+003, 3.048119e+004
3.152245e+003, 3.122612e+004
3.154173e+003, 3.197954e+004
3.156102e+003, 3.279707e+004
3.158030e+003, 3.388832e+004
3.159958e+003, 3.488709e+004
3.161887e+003, 3.602676e+004
3.163815e+003, 3.732232e+004
3.165744e+003, 3.830522e+004
3.167672e+003, 3.939921e+004
3.169601e+003, 4.050934e+004
3.171529e+003, 4.162842e+004
3.173458e+003, 4.317596e+004
3.175386e+003, 4.405232e+004
3.177315e+003, 4.491879e+004
3.179243e+003, 4.616220e+004
3.181172e+003, 4.738182e+004
3.183100e+003, 4.856715e+004
3.185029e+003, 4.968662e+004
3.186957e+003, 5.071217e+004
3.188885e+003, 5.160406e+004
3.190814e+003, 5.246423e+004
3.192742e+003, 5.353214e+004
3.194671e+003, 5.474784e+004
3.196599e+003, 5.551186e+004
3.198528e+003, 5.618016e+004
3.200456e+003, 5.692286e+004
3.202385e+003, 5.772139e+004
3.204313e+003, 5.834247e+004
3.206242e+003, 5.913076e+004
3.208170e+003, 5.978830e+004
3.210099e+003, 6.028105e+004
3.212027e+003, 6.085223e+004
3.213956e+003, 6.152489e+004
3.215884e+003, 6.190376e+004
3.217813e+003, 6.207107e+004
3.219741e+003, 6.247727e+004
3.221669e+003, 6.267891e+004
3.223598e+003, 6.282120e+004
3.225526e+003, 6.304783e+004
3.227455e+003, 6.354008e+004
3.229383e+003, 6.348032e+004
3.231312e+003, 6.349451e+004
3.233240e+003, 6.360699e+004
3.235169e+003, 6.365963e+004
3.237097e+003, 6.369133e+004
3.239026e+003, 6.383293e+004
3.240954e+003, 6.387632e+004
3.242883e+003, 6.368128e+004
3.244811e+003, 6.387308e+004
3.246740e+003, 6.368767e+004
3.248668e+003, 6.354905e+004
3.250596e+003, 6.366736e+004
3.252525e+003, 6.344303e+004
3.254453e+003, 6.319753e+004
3.256382e+003, 6.285125e+004
3.258310e+003, 6.241175e+004
3.260239e+003, 6.201562e+004
3.262167e+003, 6.186032e+004
3.264096e+003, 6.168530e+004
3.266024e+003, 6.145255e+004
3.267953e+003, 6.125482e+004
3.269881e+003, 6.100680e+004
3.271810e+003, 6.099053e+004
3.273738e+003, 6.101185e+004
3.275667e+003, 6.082193e+004
3.277595e+003, 6.054254e+004
3.279523e+003, 6.062520e+004
3.281452e+003, 6.095675e+004
3.283380e+003, 6.136688e+004
3.285309e+003, 6.175985e+004
3.287237e+003, 6.200293e+004
3.289166e+003, 6.226376e+004
3.291094e+003, 6.262824e+004
3.293023e+003, 6.308998e+004
3.294951e+003, 6.389493e+004
3.296880e+003, 6.484881e+004
3.298808e+003, 6.601481e+004
3.300737e+003, 6.745295e+004
3.302665e+003, 6.828357e+004
3.304594e+003, 7.017982e+004
3.306522e+003, 7.224616e+004
3.308450e+003, 7.390962e+004
3.310379e+003, 7.602256e+004
3.312307e+003, 7.803251e+004
3.314236e+003, 8.012085e+004
3.316164e+003, 8.271602e+004
3.318093e+003, 8.631380e+004
3.320021e+003, 8.931884e+004
3.321950e+003, 9.247523e+004
3.323878e+003, 9.625165e+004
3.325807e+003, 1.005979e+005
3.327735e+003, 1.037779e+005
3.329664e+003, 1.078764e+005
3.331592e+003, 1.117388e+005
3.333521e+003, 1.151193e+005
3.335449e+003, 1.190636e+005
3.337377e+003, 1.229331e+005
3.339306e+003, 1.265536e+005
3.341234e+003, 1.301269e+005
3.343163e+003, 1.339016e+005
3.345091e+003, 1.380162e+005
3.347020e+003, 1.417453e+005
3.348948e+003, 1.447750e+005
3.350877e+003, 1.471733e+005
3.352805e+003, 1.493639e+005
3.354734e+003, 1.515105e+005
3.356662e+003, 1.526301e+005
3.358591e+003, 1.530189e+005
3.360519e+003, 1.531787e+005
3.362448e+003, 1.526195e+005
3.364376e+003, 1.522900e+005
3.366304e+003, 1.513311e+005
3.368233e+003, 1.496658e+005
3.370161e+003, 1.479755e+005
3.372090e+003, 1.454625e+005
3.374018e+003, 1.427587e+005
3.375947e+003, 1.399187e+005
3.377875e+003, 1.368263e+005
3.379804e+003, 1.332571e+005
3.381732e+003, 1.298375e+005
3.383661e+003, 1.264054e+005
3.385589e+003, 1.228118e+005
3.387518e+003, 1.189893e+005
3.389446e+003, 1.155532e+005
3.391375e+003, 1.119779e+005
3.393303e+003, 1.081417e+005
3.395231e+003, 1.043940e+005
3.397160e+003, 1.014788e+005
3.399088e+003, 9.805349e+004
3.401017e+003, 9.458440e+004
3.402945e+003, 9.145072e+004
3.404874e+003, 8.857315e+004
3.406802e+003, 8.490304e+004
3.408731e+003, 8.197591e+004
3.410659e+003, 7.918539e+004
3.412588e+003, 7.633847e+004
3.414516e+003, 7.358520e+004
3.416445e+003, 7.148121e+004
3.418373e+003, 6.884390e+004
3.420302e+003, 6.674566e+004
3.422230e+003, 6.523711e+004
3.424158e+003, 6.342311e+004
3.426087e+003, 6.190176e+004
3.428015e+003, 6.036878e+004
3.429944e+003, 5.877578e+004
3.431872e+003, 5.716387e+004
3.433801e+003, 5.559578e+004
3.435729e+003, 5.417510e+004
3.437658e+003, 5.290308e+004
3.439586e+003, 5.158911e+004
3.441515e+003, 5.015881e+004
3.443443e+003, 4.880100e+004
3.445372e+003, 4.749653e+004
3.447300e+003, 4.648139e+004
3.449229e+003, 4.557650e+004
3.451157e+003, 4.454729e+004
3.453085e+003, 4.318761e+004
3.455014e+003, 4.252196e+004
3.456942e+003, 4.154641e+004
##END=



