##NAMES=Gotzenite
##RRUFFID=R070449
##IDEAL CHEMISTRY=Ca_4_NaCa_2_Ti^4+^(Si_2_O_7_)_2_(OF)F_2_
##LOCALITY=Mont Saint-Hilaire, Rouville County, Quebec, Canada
##OWNER=RRUFF
##SOURCE=Michael Scott
##DESCRIPTION=Sprays of yellowish bladed crystals with green or colorless vesuvianite, white thick prismatic pectolite and brown phlogopite mica.
##STATUS=The identification of this mineral has been confirmed by single-crystal X-ray diffraction.
##URL=rruff.info/R070449
8.930109e+001, 0.000000e+000
8.978320e+001, 4.371832e+002
9.026532e+001, 4.350136e+002
9.074744e+001, 4.352293e+002
9.122955e+001, 4.389724e+002
9.171167e+001, 4.439721e+002
9.219379e+001, 4.471733e+002
9.267590e+001, 4.489925e+002
9.315802e+001, 4.501646e+002
9.364014e+001, 4.512189e+002
9.412225e+001, 4.521435e+002
9.460437e+001, 4.526415e+002
9.508649e+001, 4.526022e+002
9.556860e+001, 4.520187e+002
9.605072e+001, 4.511585e+002
9.653284e+001, 4.503807e+002
9.701495e+001, 4.498508e+002
9.749707e+001, 4.496815e+002
9.797919e+001, 4.498360e+002
9.846130e+001, 4.499890e+002
9.894342e+001, 4.500006e+002
9.942554e+001, 4.498939e+002
9.990765e+001, 4.499858e+002
1.003898e+002, 4.503172e+002
1.008719e+002, 4.507528e+002
1.013540e+002, 4.510568e+002
1.018361e+002, 4.511516e+002
1.023182e+002, 4.513925e+002
1.028004e+002, 4.519770e+002
1.032825e+002, 4.530254e+002
1.037646e+002, 4.538987e+002
1.042467e+002, 4.543358e+002
1.047288e+002, 4.547475e+002
1.052109e+002, 4.561332e+002
1.056931e+002, 4.588874e+002
1.061752e+002, 4.620382e+002
1.066573e+002, 4.652686e+002
1.071394e+002, 4.690682e+002
1.076215e+002, 4.721706e+002
1.081036e+002, 4.741214e+002
1.085858e+002, 4.752362e+002
1.090679e+002, 4.771437e+002
1.095500e+002, 4.810497e+002
1.100321e+002, 4.849079e+002
1.105142e+002, 4.876140e+002
1.109963e+002, 4.873742e+002
1.114785e+002, 4.880241e+002
1.119606e+002, 4.903202e+002
1.124427e+002, 4.941946e+002
1.129248e+002, 4.978397e+002
1.134069e+002, 5.009115e+002
1.138890e+002, 5.037086e+002
1.143712e+002, 5.065073e+002
1.148533e+002, 5.098410e+002
1.153354e+002, 5.127347e+002
1.158175e+002, 5.148214e+002
1.162996e+002, 5.160857e+002
1.167817e+002, 5.169915e+002
1.172639e+002, 5.173889e+002
1.177460e+002, 5.176179e+002
1.182281e+002, 5.181102e+002
1.187102e+002, 5.193238e+002
1.191923e+002, 5.206310e+002
1.196744e+002, 5.216227e+002
1.201566e+002, 5.222024e+002
1.206387e+002, 5.226854e+002
1.211208e+002, 5.232321e+002
1.216029e+002, 5.238046e+002
1.220850e+002, 5.243312e+002
1.225671e+002, 5.245981e+002
1.230493e+002, 5.248552e+002
1.235314e+002, 5.254207e+002
1.240135e+002, 5.264604e+002
1.244956e+002, 5.274802e+002
1.249777e+002, 5.278602e+002
1.254598e+002, 5.277416e+002
1.259420e+002, 5.276848e+002
1.264241e+002, 5.281844e+002
1.269062e+002, 5.289665e+002
1.273883e+002, 5.294943e+002
1.278704e+002, 5.295115e+002
1.283525e+002, 5.294069e+002
1.288347e+002, 5.299140e+002
1.293168e+002, 5.309952e+002
1.297989e+002, 5.319569e+002
1.302810e+002, 5.320735e+002
1.307631e+002, 5.315507e+002
1.312452e+002, 5.312628e+002
1.317274e+002, 5.315609e+002
1.322095e+002, 5.321806e+002
1.326916e+002, 5.324206e+002
1.331737e+002, 5.322653e+002
1.336558e+002, 5.318682e+002
1.341379e+002, 5.312065e+002
1.346201e+002, 5.302929e+002
1.351022e+002, 5.297250e+002
1.355843e+002, 5.298236e+002
1.360664e+002, 5.304771e+002
1.365485e+002, 5.307933e+002
1.370306e+002, 5.306852e+002
1.375128e+002, 5.304474e+002
1.379949e+002, 5.303637e+002
1.384770e+002, 5.303974e+002
1.389591e+002, 5.307836e+002
1.394412e+002, 5.318370e+002
1.399233e+002, 5.336544e+002
1.404055e+002, 5.344934e+002
1.408876e+002, 5.339657e+002
1.413697e+002, 5.328356e+002
1.418518e+002, 5.324105e+002
1.423339e+002, 5.329927e+002
1.428160e+002, 5.335807e+002
1.432982e+002, 5.337753e+002
1.437803e+002, 5.333857e+002
1.442624e+002, 5.332048e+002
1.447445e+002, 5.332706e+002
1.452266e+002, 5.335386e+002
1.457087e+002, 5.339221e+002
1.461909e+002, 5.346033e+002
1.466730e+002, 5.351878e+002
1.471551e+002, 5.355258e+002
1.476372e+002, 5.355220e+002
1.481193e+002, 5.354314e+002
1.486014e+002, 5.350513e+002
1.490836e+002, 5.345626e+002
1.495657e+002, 5.345890e+002
1.500478e+002, 5.358516e+002
1.505299e+002, 5.370507e+002
1.510120e+002, 5.376227e+002
1.514941e+002, 5.366176e+002
1.519763e+002, 5.360897e+002
1.524584e+002, 5.363007e+002
1.529405e+002, 5.371033e+002
1.534226e+002, 5.377655e+002
1.539047e+002, 5.382729e+002
1.543868e+002, 5.385935e+002
1.548690e+002, 5.387090e+002
1.553511e+002, 5.386388e+002
1.558332e+002, 5.383370e+002
1.563153e+002, 5.374599e+002
1.567974e+002, 5.361461e+002
1.572795e+002, 5.354999e+002
1.577617e+002, 5.365171e+002
1.582438e+002, 5.378956e+002
1.587259e+002, 5.386964e+002
1.592080e+002, 5.381072e+002
1.596901e+002, 5.375014e+002
1.601722e+002, 5.371834e+002
1.606544e+002, 5.371707e+002
1.611365e+002, 5.375449e+002
1.616186e+002, 5.388889e+002
1.621007e+002, 5.403990e+002
1.625828e+002, 5.413634e+002
1.630649e+002, 5.407311e+002
1.635471e+002, 5.401641e+002
1.640292e+002, 5.406537e+002
1.645113e+002, 5.422294e+002
1.649934e+002, 5.435375e+002
1.654755e+002, 5.437557e+002
1.659576e+002, 5.433492e+002
1.664398e+002, 5.428954e+002
1.669219e+002, 5.424558e+002
1.674040e+002, 5.421419e+002
1.678861e+002, 5.420271e+002
1.683682e+002, 5.421137e+002
1.688503e+002, 5.423774e+002
1.693325e+002, 5.429531e+002
1.698146e+002, 5.436857e+002
1.702967e+002, 5.443150e+002
1.707788e+002, 5.449319e+002
1.712609e+002, 5.452974e+002
1.717430e+002, 5.449905e+002
1.722252e+002, 5.438993e+002
1.727073e+002, 5.429544e+002
1.731894e+002, 5.430564e+002
1.736715e+002, 5.438805e+002
1.741536e+002, 5.446854e+002
1.746357e+002, 5.449564e+002
1.751179e+002, 5.450867e+002
1.756000e+002, 5.456501e+002
1.760821e+002, 5.467667e+002
1.765642e+002, 5.478699e+002
1.770463e+002, 5.484551e+002
1.775284e+002, 5.485815e+002
1.780106e+002, 5.484269e+002
1.784927e+002, 5.477930e+002
1.789748e+002, 5.470073e+002
1.794569e+002, 5.466573e+002
1.799390e+002, 5.468375e+002
1.804211e+002, 5.473052e+002
1.809033e+002, 5.478922e+002
1.813854e+002, 5.485703e+002
1.818675e+002, 5.491781e+002
1.823496e+002, 5.494435e+002
1.828317e+002, 5.495809e+002
1.833138e+002, 5.502479e+002
1.837960e+002, 5.516708e+002
1.842781e+002, 5.531664e+002
1.847602e+002, 5.535267e+002
1.852423e+002, 5.528854e+002
1.857244e+002, 5.523544e+002
1.862065e+002, 5.527971e+002
1.866887e+002, 5.539377e+002
1.871708e+002, 5.547332e+002
1.876529e+002, 5.550140e+002
1.881350e+002, 5.550164e+002
1.886171e+002, 5.550099e+002
1.890992e+002, 5.549996e+002
1.895814e+002, 5.552297e+002
1.900635e+002, 5.560167e+002
1.905456e+002, 5.572722e+002
1.910277e+002, 5.583295e+002
1.915098e+002, 5.591429e+002
1.919919e+002, 5.596996e+002
1.924741e+002, 5.597913e+002
1.929562e+002, 5.593906e+002
1.934383e+002, 5.591205e+002
1.939204e+002, 5.594891e+002
1.944025e+002, 5.604572e+002
1.948846e+002, 5.613381e+002
1.953668e+002, 5.619826e+002
1.958489e+002, 5.625710e+002
1.963310e+002, 5.637214e+002
1.968131e+002, 5.655412e+002
1.972952e+002, 5.670889e+002
1.977773e+002, 5.674492e+002
1.982595e+002, 5.665701e+002
1.987416e+002, 5.663851e+002
1.992237e+002, 5.673118e+002
1.997058e+002, 5.689203e+002
2.001879e+002, 5.699510e+002
2.006700e+002, 5.702929e+002
2.011522e+002, 5.706229e+002
2.016343e+002, 5.715458e+002
2.021164e+002, 5.731642e+002
2.025985e+002, 5.743134e+002
2.030806e+002, 5.747079e+002
2.035627e+002, 5.746130e+002
2.040449e+002, 5.749317e+002
2.045270e+002, 5.757960e+002
2.050091e+002, 5.766262e+002
2.054912e+002, 5.768249e+002
2.059733e+002, 5.761656e+002
2.064554e+002, 5.762792e+002
2.069376e+002, 5.775811e+002
2.074197e+002, 5.797202e+002
2.079018e+002, 5.814383e+002
2.083839e+002, 5.826953e+002
2.088660e+002, 5.836458e+002
2.093481e+002, 5.842904e+002
2.098303e+002, 5.845197e+002
2.103124e+002, 5.850076e+002
2.107945e+002, 5.859365e+002
2.112766e+002, 5.871689e+002
2.117587e+002, 5.881364e+002
2.122408e+002, 5.887515e+002
2.127230e+002, 5.892979e+002
2.132051e+002, 5.899949e+002
2.136872e+002, 5.909244e+002
2.141693e+002, 5.916633e+002
2.146514e+002, 5.919890e+002
2.151335e+002, 5.920753e+002
2.156157e+002, 5.928658e+002
2.160978e+002, 5.947791e+002
2.165799e+002, 5.966010e+002
2.170620e+002, 5.974647e+002
2.175441e+002, 5.969822e+002
2.180262e+002, 5.966298e+002
2.185084e+002, 5.965113e+002
2.189905e+002, 5.966274e+002
2.194726e+002, 5.970714e+002
2.199547e+002, 5.981796e+002
2.204368e+002, 5.990713e+002
2.209189e+002, 5.990777e+002
2.214011e+002, 5.977557e+002
2.218832e+002, 5.967192e+002
2.223653e+002, 5.959745e+002
2.228474e+002, 5.956172e+002
2.233295e+002, 5.962647e+002
2.238116e+002, 5.987781e+002
2.242938e+002, 6.009299e+002
2.247759e+002, 6.010955e+002
2.252580e+002, 5.979313e+002
2.257401e+002, 5.960898e+002
2.262222e+002, 5.963788e+002
2.267043e+002, 5.982283e+002
2.271865e+002, 5.992574e+002
2.276686e+002, 5.991166e+002
2.281507e+002, 5.986368e+002
2.286328e+002, 5.982693e+002
2.291149e+002, 5.980591e+002
2.295970e+002, 5.978600e+002
2.300792e+002, 5.976950e+002
2.305613e+002, 5.975399e+002
2.310434e+002, 5.972506e+002
2.315255e+002, 5.966105e+002
2.320076e+002, 5.961785e+002
2.324897e+002, 5.963849e+002
2.329719e+002, 5.978636e+002
2.334540e+002, 5.985212e+002
2.339361e+002, 5.978348e+002
2.344182e+002, 5.963121e+002
2.349003e+002, 5.957639e+002
2.353824e+002, 5.967151e+002
2.358646e+002, 5.978906e+002
2.363467e+002, 5.985986e+002
2.368288e+002, 5.983497e+002
2.373109e+002, 5.987534e+002
2.377930e+002, 6.002076e+002
2.382751e+002, 6.022741e+002
2.387573e+002, 6.035759e+002
2.392394e+002, 6.038191e+002
2.397215e+002, 6.036921e+002
2.402036e+002, 6.034526e+002
2.406857e+002, 6.029620e+002
2.411678e+002, 6.026535e+002
2.416500e+002, 6.025814e+002
2.421321e+002, 6.026689e+002
2.426142e+002, 6.027219e+002
2.430963e+002, 6.026844e+002
2.435784e+002, 6.026942e+002
2.440605e+002, 6.028014e+002
2.445427e+002, 6.029960e+002
2.450248e+002, 6.033444e+002
2.455069e+002, 6.039798e+002
2.459890e+002, 6.047266e+002
2.464711e+002, 6.051815e+002
2.469532e+002, 6.052625e+002
2.474354e+002, 6.052101e+002
2.479175e+002, 6.050687e+002
2.483996e+002, 6.047265e+002
2.488817e+002, 6.047166e+002
2.493638e+002, 6.052528e+002
2.498459e+002, 6.060155e+002
2.503281e+002, 6.063919e+002
2.508102e+002, 6.062079e+002
2.512923e+002, 6.059598e+002
2.517744e+002, 6.058246e+002
2.522565e+002, 6.058528e+002
2.527386e+002, 6.057633e+002
2.532208e+002, 6.053345e+002
2.537029e+002, 6.049527e+002
2.541850e+002, 6.052855e+002
2.546671e+002, 6.066956e+002
2.551492e+002, 6.081027e+002
2.556313e+002, 6.091575e+002
2.561135e+002, 6.097966e+002
2.565956e+002, 6.104278e+002
2.570777e+002, 6.110651e+002
2.575598e+002, 6.116500e+002
2.580419e+002, 6.121107e+002
2.585240e+002, 6.124434e+002
2.590062e+002, 6.126174e+002
2.594883e+002, 6.125568e+002
2.599704e+002, 6.122327e+002
2.604525e+002, 6.120843e+002
2.609346e+002, 6.121068e+002
2.614167e+002, 6.123147e+002
2.618989e+002, 6.127695e+002
2.623810e+002, 6.135753e+002
2.628631e+002, 6.143778e+002
2.633452e+002, 6.151670e+002
2.638273e+002, 6.159576e+002
2.643094e+002, 6.163006e+002
2.647916e+002, 6.159703e+002
2.652737e+002, 6.155917e+002
2.657558e+002, 6.158708e+002
2.662379e+002, 6.170954e+002
2.667200e+002, 6.180372e+002
2.672021e+002, 6.183870e+002
2.676843e+002, 6.182120e+002
2.681664e+002, 6.181911e+002
2.686485e+002, 6.183411e+002
2.691306e+002, 6.185958e+002
2.696127e+002, 6.188425e+002
2.700948e+002, 6.189967e+002
2.705770e+002, 6.194772e+002
2.710591e+002, 6.203781e+002
2.715412e+002, 6.216343e+002
2.720233e+002, 6.231433e+002
2.725054e+002, 6.250833e+002
2.729875e+002, 6.266898e+002
2.734697e+002, 6.272299e+002
2.739518e+002, 6.265040e+002
2.744339e+002, 6.260531e+002
2.749160e+002, 6.261338e+002
2.753981e+002, 6.265632e+002
2.758802e+002, 6.267576e+002
2.763624e+002, 6.266511e+002
2.768445e+002, 6.265797e+002
2.773266e+002, 6.268120e+002
2.778087e+002, 6.273803e+002
2.782908e+002, 6.278077e+002
2.787729e+002, 6.280183e+002
2.792551e+002, 6.281219e+002
2.797372e+002, 6.284246e+002
2.802193e+002, 6.289843e+002
2.807014e+002, 6.293871e+002
2.811835e+002, 6.289532e+002
2.816656e+002, 6.277175e+002
2.821478e+002, 6.284803e+002
2.826299e+002, 6.320561e+002
2.831120e+002, 6.362494e+002
2.835941e+002, 6.369622e+002
2.840762e+002, 6.340264e+002
2.845583e+002, 6.309435e+002
2.850405e+002, 6.290930e+002
2.855226e+002, 6.284290e+002
2.860047e+002, 6.287949e+002
2.864868e+002, 6.304353e+002
2.869689e+002, 6.322794e+002
2.874510e+002, 6.326812e+002
2.879332e+002, 6.317126e+002
2.884153e+002, 6.308947e+002
2.888974e+002, 6.309655e+002
2.893795e+002, 6.316696e+002
2.898616e+002, 6.320319e+002
2.903438e+002, 6.320133e+002
2.908259e+002, 6.319130e+002
2.913080e+002, 6.320948e+002
2.917901e+002, 6.325061e+002
2.922722e+002, 6.328382e+002
2.927543e+002, 6.329197e+002
2.932365e+002, 6.328857e+002
2.937186e+002, 6.330107e+002
2.942007e+002, 6.332928e+002
2.946828e+002, 6.337814e+002
2.951649e+002, 6.348420e+002
2.956470e+002, 6.362004e+002
2.961292e+002, 6.369344e+002
2.966113e+002, 6.365768e+002
2.970934e+002, 6.357215e+002
2.975755e+002, 6.352853e+002
2.980576e+002, 6.352401e+002
2.985397e+002, 6.352830e+002
2.990219e+002, 6.350723e+002
2.995040e+002, 6.347996e+002
2.999861e+002, 6.349225e+002
3.004682e+002, 6.356487e+002
3.009503e+002, 6.365662e+002
3.014324e+002, 6.372841e+002
3.019146e+002, 6.378014e+002
3.023967e+002, 6.381282e+002
3.028788e+002, 6.380375e+002
3.033609e+002, 6.378319e+002
3.038430e+002, 6.379962e+002
3.043251e+002, 6.386682e+002
3.048073e+002, 6.394344e+002
3.052894e+002, 6.398333e+002
3.057715e+002, 6.400155e+002
3.062536e+002, 6.403661e+002
3.067357e+002, 6.412119e+002
3.072178e+002, 6.422391e+002
3.077000e+002, 6.430920e+002
3.081821e+002, 6.437148e+002
3.086642e+002, 6.443450e+002
3.091463e+002, 6.450326e+002
3.096284e+002, 6.458477e+002
3.101105e+002, 6.469186e+002
3.105927e+002, 6.488535e+002
3.110748e+002, 6.506423e+002
3.115569e+002, 6.513290e+002
3.120390e+002, 6.509096e+002
3.125211e+002, 6.507190e+002
3.130032e+002, 6.521677e+002
3.134854e+002, 6.540078e+002
3.139675e+002, 6.548932e+002
3.144496e+002, 6.531465e+002
3.149317e+002, 6.514730e+002
3.154138e+002, 6.513080e+002
3.158959e+002, 6.524553e+002
3.163781e+002, 6.536514e+002
3.168602e+002, 6.543337e+002
3.173423e+002, 6.548660e+002
3.178244e+002, 6.555446e+002
3.183065e+002, 6.568180e+002
3.187886e+002, 6.577013e+002
3.192708e+002, 6.573251e+002
3.197529e+002, 6.562275e+002
3.202350e+002, 6.559260e+002
3.207171e+002, 6.577582e+002
3.211992e+002, 6.598205e+002
3.216813e+002, 6.611103e+002
3.221635e+002, 6.610816e+002
3.226456e+002, 6.612109e+002
3.231277e+002, 6.620969e+002
3.236098e+002, 6.632557e+002
3.240919e+002, 6.638841e+002
3.245740e+002, 6.632803e+002
3.250562e+002, 6.626386e+002
3.255383e+002, 6.622272e+002
3.260204e+002, 6.619835e+002
3.265025e+002, 6.622946e+002
3.269846e+002, 6.635535e+002
3.274667e+002, 6.652382e+002
3.279489e+002, 6.668155e+002
3.284310e+002, 6.687496e+002
3.289131e+002, 6.700704e+002
3.293952e+002, 6.704654e+002
3.298773e+002, 6.699147e+002
3.303594e+002, 6.694923e+002
3.308416e+002, 6.689587e+002
3.313237e+002, 6.687642e+002
3.318058e+002, 6.692953e+002
3.322879e+002, 6.712529e+002
3.327700e+002, 6.727199e+002
3.332521e+002, 6.733124e+002
3.337343e+002, 6.732591e+002
3.342164e+002, 6.737307e+002
3.346985e+002, 6.750457e+002
3.351806e+002, 6.763645e+002
3.356627e+002, 6.771699e+002
3.361448e+002, 6.771621e+002
3.366270e+002, 6.775753e+002
3.371091e+002, 6.786596e+002
3.375912e+002, 6.800074e+002
3.380733e+002, 6.806968e+002
3.385554e+002, 6.804794e+002
3.390375e+002, 6.804070e+002
3.395197e+002, 6.810891e+002
3.400018e+002, 6.826013e+002
3.404839e+002, 6.832409e+002
3.409660e+002, 6.826969e+002
3.414481e+002, 6.819330e+002
3.419302e+002, 6.823391e+002
3.424124e+002, 6.840125e+002
3.428945e+002, 6.855300e+002
3.433766e+002, 6.864594e+002
3.438587e+002, 6.868941e+002
3.443408e+002, 6.872708e+002
3.448229e+002, 6.875776e+002
3.453051e+002, 6.878800e+002
3.457872e+002, 6.882384e+002
3.462693e+002, 6.886450e+002
3.467514e+002, 6.890569e+002
3.472335e+002, 6.894509e+002
3.477156e+002, 6.898688e+002
3.481978e+002, 6.904230e+002
3.486799e+002, 6.911067e+002
3.491620e+002, 6.917626e+002
3.496441e+002, 6.922217e+002
3.501262e+002, 6.925883e+002
3.506083e+002, 6.931652e+002
3.510905e+002, 6.940710e+002
3.515726e+002, 6.949203e+002
3.520547e+002, 6.949573e+002
3.525368e+002, 6.945051e+002
3.530189e+002, 6.945449e+002
3.535010e+002, 6.960605e+002
3.539832e+002, 6.981037e+002
3.544653e+002, 6.994832e+002
3.549474e+002, 7.001395e+002
3.554295e+002, 7.006389e+002
3.559116e+002, 7.012986e+002
3.563937e+002, 7.021165e+002
3.568759e+002, 7.030800e+002
3.573580e+002, 7.041533e+002
3.578401e+002, 7.054021e+002
3.583222e+002, 7.071229e+002
3.588043e+002, 7.092000e+002
3.592864e+002, 7.108394e+002
3.597686e+002, 7.110639e+002
3.602507e+002, 7.109681e+002
3.607328e+002, 7.115197e+002
3.612149e+002, 7.133011e+002
3.616970e+002, 7.151320e+002
3.621791e+002, 7.165947e+002
3.626613e+002, 7.177532e+002
3.631434e+002, 7.187621e+002
3.636255e+002, 7.193037e+002
3.641076e+002, 7.199857e+002
3.645897e+002, 7.211797e+002
3.650718e+002, 7.230953e+002
3.655540e+002, 7.248361e+002
3.660361e+002, 7.262405e+002
3.665182e+002, 7.273882e+002
3.670003e+002, 7.283766e+002
3.674824e+002, 7.292265e+002
3.679645e+002, 7.299225e+002
3.684467e+002, 7.302869e+002
3.689288e+002, 7.302874e+002
3.694109e+002, 7.308771e+002
3.698930e+002, 7.326438e+002
3.703751e+002, 7.345711e+002
3.708572e+002, 7.359767e+002
3.713394e+002, 7.365323e+002
3.718215e+002, 7.371246e+002
3.723036e+002, 7.379138e+002
3.727857e+002, 7.387802e+002
3.732678e+002, 7.392610e+002
3.737499e+002, 7.391059e+002
3.742321e+002, 7.389974e+002
3.747142e+002, 7.393182e+002
3.751963e+002, 7.402447e+002
3.756784e+002, 7.407795e+002
3.761605e+002, 7.407658e+002
3.766426e+002, 7.405392e+002
3.771248e+002, 7.406698e+002
3.776069e+002, 7.412337e+002
3.780890e+002, 7.416832e+002
3.785711e+002, 7.418439e+002
3.790532e+002, 7.417361e+002
3.795353e+002, 7.414808e+002
3.800175e+002, 7.410693e+002
3.804996e+002, 7.405557e+002
3.809817e+002, 7.399601e+002
3.814638e+002, 7.392964e+002
3.819459e+002, 7.386376e+002
3.824280e+002, 7.379901e+002
3.829102e+002, 7.373705e+002
3.833923e+002, 7.369802e+002
3.838744e+002, 7.367609e+002
3.843565e+002, 7.362013e+002
3.848386e+002, 7.345944e+002
3.853207e+002, 7.324675e+002
3.858029e+002, 7.310235e+002
3.862850e+002, 7.304443e+002
3.867671e+002, 7.301183e+002
3.872492e+002, 7.294431e+002
3.877313e+002, 7.285355e+002
3.882134e+002, 7.276746e+002
3.886956e+002, 7.271788e+002
3.891777e+002, 7.266827e+002
3.896598e+002, 7.257532e+002
3.901419e+002, 7.244243e+002
3.906240e+002, 7.231927e+002
3.911061e+002, 7.224534e+002
3.915883e+002, 7.219337e+002
3.920704e+002, 7.213679e+002
3.925525e+002, 7.208741e+002
3.930346e+002, 7.200789e+002
3.935167e+002, 7.183470e+002
3.939988e+002, 7.161184e+002
3.944810e+002, 7.145992e+002
3.949631e+002, 7.146649e+002
3.954452e+002, 7.151893e+002
3.959273e+002, 7.156494e+002
3.964094e+002, 7.159786e+002
3.968915e+002, 7.162557e+002
3.973737e+002, 7.167155e+002
3.978558e+002, 7.170472e+002
3.983379e+002, 7.168683e+002
3.988200e+002, 7.155787e+002
3.993021e+002, 7.143435e+002
3.997842e+002, 7.130654e+002
4.002664e+002, 7.117422e+002
4.007485e+002, 7.116967e+002
4.012306e+002, 7.140216e+002
4.017127e+002, 7.165399e+002
4.021948e+002, 7.178181e+002
4.026769e+002, 7.171869e+002
4.031591e+002, 7.167552e+002
4.036412e+002, 7.167321e+002
4.041233e+002, 7.169313e+002
4.046054e+002, 7.168152e+002
4.050875e+002, 7.162001e+002
4.055696e+002, 7.158315e+002
4.060518e+002, 7.161779e+002
4.065339e+002, 7.172794e+002
4.070160e+002, 7.178970e+002
4.074981e+002, 7.180196e+002
4.079802e+002, 7.177168e+002
4.084623e+002, 7.168129e+002
4.089445e+002, 7.153332e+002
4.094266e+002, 7.143340e+002
4.099087e+002, 7.141500e+002
4.103908e+002, 7.145855e+002
4.108729e+002, 7.153054e+002
4.113550e+002, 7.163109e+002
4.118372e+002, 7.173242e+002
4.123193e+002, 7.182897e+002
4.128014e+002, 7.191134e+002
4.132835e+002, 7.194567e+002
4.137656e+002, 7.191447e+002
4.142477e+002, 7.188648e+002
4.147299e+002, 7.194680e+002
4.152120e+002, 7.206772e+002
4.156941e+002, 7.218199e+002
4.161762e+002, 7.224052e+002
4.166583e+002, 7.228839e+002
4.171404e+002, 7.236193e+002
4.176226e+002, 7.246143e+002
4.181047e+002, 7.257836e+002
4.185868e+002, 7.275221e+002
4.190689e+002, 7.291932e+002
4.195510e+002, 7.301995e+002
4.200331e+002, 7.300647e+002
4.205153e+002, 7.296429e+002
4.209974e+002, 7.292158e+002
4.214795e+002, 7.287480e+002
4.219616e+002, 7.281602e+002
4.224437e+002, 7.274269e+002
4.229258e+002, 7.265892e+002
4.234080e+002, 7.256328e+002
4.238901e+002, 7.244894e+002
4.243722e+002, 7.235059e+002
4.248543e+002, 7.225307e+002
4.253364e+002, 7.218405e+002
4.258185e+002, 7.217446e+002
4.263007e+002, 7.229324e+002
4.267828e+002, 7.237151e+002
4.272649e+002, 7.237225e+002
4.277470e+002, 7.230834e+002
4.282291e+002, 7.226161e+002
4.287112e+002, 7.222984e+002
4.291934e+002, 7.221830e+002
4.296755e+002, 7.224051e+002
4.301576e+002, 7.231106e+002
4.306397e+002, 7.232695e+002
4.311218e+002, 7.226444e+002
4.316039e+002, 7.217914e+002
4.320861e+002, 7.217825e+002
4.325682e+002, 7.227008e+002
4.330503e+002, 7.231274e+002
4.335324e+002, 7.221736e+002
4.340145e+002, 7.204346e+002
4.344966e+002, 7.202021e+002
4.349788e+002, 7.215250e+002
4.354609e+002, 7.230657e+002
4.359430e+002, 7.237219e+002
4.364251e+002, 7.237286e+002
4.369072e+002, 7.236851e+002
4.373893e+002, 7.236350e+002
4.378715e+002, 7.237448e+002
4.383536e+002, 7.242896e+002
4.388357e+002, 7.251601e+002
4.393178e+002, 7.260507e+002
4.397999e+002, 7.269033e+002
4.402820e+002, 7.276324e+002
4.407642e+002, 7.281563e+002
4.412463e+002, 7.284662e+002
4.417284e+002, 7.285627e+002
4.422105e+002, 7.282454e+002
4.426926e+002, 7.277936e+002
4.431747e+002, 7.274687e+002
4.436569e+002, 7.271896e+002
4.441390e+002, 7.272128e+002
4.446211e+002, 7.278132e+002
4.451032e+002, 7.288016e+002
4.455853e+002, 7.296137e+002
4.460674e+002, 7.297294e+002
4.465496e+002, 7.300389e+002
4.470317e+002, 7.310006e+002
4.475138e+002, 7.329900e+002
4.479959e+002, 7.345070e+002
4.484780e+002, 7.356623e+002
4.489601e+002, 7.363142e+002
4.494423e+002, 7.362051e+002
4.499244e+002, 7.346684e+002
4.504065e+002, 7.338423e+002
4.508886e+002, 7.343174e+002
4.513707e+002, 7.357281e+002
4.518528e+002, 7.364772e+002
4.523350e+002, 7.363738e+002
4.528171e+002, 7.361656e+002
4.532992e+002, 7.361567e+002
4.537813e+002, 7.363366e+002
4.542634e+002, 7.369833e+002
4.547455e+002, 7.382057e+002
4.552277e+002, 7.395193e+002
4.557098e+002, 7.401141e+002
4.561919e+002, 7.401260e+002
4.566740e+002, 7.406321e+002
4.571561e+002, 7.423082e+002
4.576382e+002, 7.443896e+002
4.581204e+002, 7.454048e+002
4.586025e+002, 7.454877e+002
4.590846e+002, 7.455168e+002
4.595667e+002, 7.462965e+002
4.600488e+002, 7.473104e+002
4.605309e+002, 7.478752e+002
4.610131e+002, 7.478571e+002
4.614952e+002, 7.475969e+002
4.619773e+002, 7.469992e+002
4.624594e+002, 7.463879e+002
4.629415e+002, 7.462302e+002
4.634236e+002, 7.469789e+002
4.639058e+002, 7.479591e+002
4.643879e+002, 7.491446e+002
4.648700e+002, 7.504312e+002
4.653521e+002, 7.511415e+002
4.658342e+002, 7.504455e+002
4.663163e+002, 7.496117e+002
4.667985e+002, 7.493564e+002
4.672806e+002, 7.500952e+002
4.677627e+002, 7.507512e+002
4.682448e+002, 7.513015e+002
4.687269e+002, 7.517506e+002
4.692090e+002, 7.521154e+002
4.696912e+002, 7.524131e+002
4.701733e+002, 7.525971e+002
4.706554e+002, 7.526672e+002
4.711375e+002, 7.526172e+002
4.716196e+002, 7.523441e+002
4.721017e+002, 7.517497e+002
4.725839e+002, 7.511985e+002
4.730660e+002, 7.509277e+002
4.735481e+002, 7.509418e+002
4.740302e+002, 7.511298e+002
4.745123e+002, 7.515506e+002
4.749944e+002, 7.519853e+002
4.754766e+002, 7.520901e+002
4.759587e+002, 7.519100e+002
4.764408e+002, 7.516767e+002
4.769229e+002, 7.513920e+002
4.774050e+002, 7.511849e+002
4.778871e+002, 7.513392e+002
4.783693e+002, 7.518278e+002
4.788514e+002, 7.523459e+002
4.793335e+002, 7.526478e+002
4.798156e+002, 7.528757e+002
4.802977e+002, 7.531840e+002
4.807798e+002, 7.535905e+002
4.812620e+002, 7.540887e+002
4.817441e+002, 7.546261e+002
4.822262e+002, 7.552494e+002
4.827083e+002, 7.560301e+002
4.831904e+002, 7.572325e+002
4.836725e+002, 7.583429e+002
4.841547e+002, 7.590997e+002
4.846368e+002, 7.595165e+002
4.851189e+002, 7.599743e+002
4.856010e+002, 7.604555e+002
4.860831e+002, 7.610378e+002
4.865652e+002, 7.617809e+002
4.870474e+002, 7.628967e+002
4.875295e+002, 7.637110e+002
4.880116e+002, 7.641142e+002
4.884937e+002, 7.642861e+002
4.889758e+002, 7.644607e+002
4.894579e+002, 7.646225e+002
4.899401e+002, 7.648316e+002
4.904222e+002, 7.650686e+002
4.909043e+002, 7.653685e+002
4.913864e+002, 7.660616e+002
4.918685e+002, 7.672490e+002
4.923506e+002, 7.681406e+002
4.928328e+002, 7.679850e+002
4.933149e+002, 7.670252e+002
4.937970e+002, 7.663375e+002
4.942791e+002, 7.660079e+002
4.947612e+002, 7.659493e+002
4.952433e+002, 7.661408e+002
4.957255e+002, 7.665324e+002
4.962076e+002, 7.669922e+002
4.966897e+002, 7.675062e+002
4.971718e+002, 7.680482e+002
4.976539e+002, 7.685364e+002
4.981360e+002, 7.690115e+002
4.986182e+002, 7.696341e+002
4.991003e+002, 7.709895e+002
4.995824e+002, 7.721771e+002
5.000645e+002, 7.723935e+002
5.005466e+002, 7.713021e+002
5.010287e+002, 7.704006e+002
5.015109e+002, 7.700507e+002
5.019930e+002, 7.701210e+002
5.024751e+002, 7.704874e+002
5.029572e+002, 7.716115e+002
5.034393e+002, 7.724424e+002
5.039214e+002, 7.726826e+002
5.044036e+002, 7.725273e+002
5.048857e+002, 7.727010e+002
5.053678e+002, 7.734545e+002
5.058499e+002, 7.741100e+002
5.063320e+002, 7.743733e+002
5.068141e+002, 7.742208e+002
5.072963e+002, 7.739872e+002
5.077784e+002, 7.735392e+002
5.082605e+002, 7.733743e+002
5.087426e+002, 7.743604e+002
5.092247e+002, 7.763773e+002
5.097068e+002, 7.774573e+002
5.101890e+002, 7.769416e+002
5.106711e+002, 7.758762e+002
5.111532e+002, 7.761178e+002
5.116353e+002, 7.774286e+002
5.121174e+002, 7.786708e+002
5.125995e+002, 7.790371e+002
5.130817e+002, 7.791282e+002
5.135638e+002, 7.797953e+002
5.140459e+002, 7.810197e+002
5.145280e+002, 7.820420e+002
5.150101e+002, 7.822222e+002
5.154922e+002, 7.820634e+002
5.159744e+002, 7.820840e+002
5.164565e+002, 7.826957e+002
5.169386e+002, 7.829148e+002
5.174207e+002, 7.816903e+002
5.179028e+002, 7.800214e+002
5.183849e+002, 7.795414e+002
5.188671e+002, 7.819197e+002
5.193492e+002, 7.840043e+002
5.198313e+002, 7.850583e+002
5.203134e+002, 7.851356e+002
5.207955e+002, 7.851784e+002
5.212776e+002, 7.851544e+002
5.217598e+002, 7.851285e+002
5.222419e+002, 7.849803e+002
5.227240e+002, 7.844995e+002
5.232061e+002, 7.852034e+002
5.236882e+002, 7.875776e+002
5.241703e+002, 7.901504e+002
5.246525e+002, 7.906256e+002
5.251346e+002, 7.891680e+002
5.256167e+002, 7.883748e+002
5.260988e+002, 7.892150e+002
5.265809e+002, 7.908266e+002
5.270630e+002, 7.916790e+002
5.275452e+002, 7.918737e+002
5.280273e+002, 7.919869e+002
5.285094e+002, 7.923382e+002
5.289915e+002, 7.928132e+002
5.294736e+002, 7.932489e+002
5.299557e+002, 7.936276e+002
5.304379e+002, 7.941495e+002
5.309200e+002, 7.951286e+002
5.314021e+002, 7.962108e+002
5.318842e+002, 7.970435e+002
5.323663e+002, 7.973633e+002
5.328484e+002, 7.976570e+002
5.333306e+002, 7.981384e+002
5.338127e+002, 7.986556e+002
5.342948e+002, 7.988765e+002
5.347769e+002, 7.982144e+002
5.352590e+002, 7.979185e+002
5.357411e+002, 7.984804e+002
5.362233e+002, 7.998621e+002
5.367054e+002, 8.005549e+002
5.371875e+002, 8.002344e+002
5.376696e+002, 7.998735e+002
5.381517e+002, 8.001782e+002
5.386339e+002, 8.012167e+002
5.391160e+002, 8.021010e+002
5.395981e+002, 8.028046e+002
5.400802e+002, 8.033016e+002
5.405623e+002, 8.033702e+002
5.410444e+002, 8.031283e+002
5.415266e+002, 8.032790e+002
5.420087e+002, 8.042432e+002
5.424908e+002, 8.054627e+002
5.429729e+002, 8.060407e+002
5.434550e+002, 8.061232e+002
5.439371e+002, 8.063278e+002
5.444193e+002, 8.072561e+002
5.449014e+002, 8.082791e+002
5.453835e+002, 8.087992e+002
5.458656e+002, 8.087360e+002
5.463477e+002, 8.087366e+002
5.468298e+002, 8.089050e+002
5.473120e+002, 8.093375e+002
5.477941e+002, 8.101287e+002
5.482762e+002, 8.121067e+002
5.487583e+002, 8.133145e+002
5.492404e+002, 8.132184e+002
5.497225e+002, 8.123828e+002
5.502047e+002, 8.117374e+002
5.506868e+002, 8.113218e+002
5.511689e+002, 8.110284e+002
5.516510e+002, 8.108985e+002
5.521331e+002, 8.108873e+002
5.526152e+002, 8.107104e+002
5.530974e+002, 8.103837e+002
5.535795e+002, 8.098661e+002
5.540616e+002, 8.089957e+002
5.545437e+002, 8.078786e+002
5.550258e+002, 8.071498e+002
5.555079e+002, 8.068978e+002
5.559901e+002, 8.067155e+002
5.564722e+002, 8.058956e+002
5.569543e+002, 8.048560e+002
5.574364e+002, 8.045801e+002
5.579185e+002, 8.059792e+002
5.584006e+002, 8.071965e+002
5.588828e+002, 8.062064e+002
5.593649e+002, 8.038923e+002
5.598470e+002, 8.022890e+002
5.603291e+002, 8.027003e+002
5.608112e+002, 8.035270e+002
5.612933e+002, 8.040587e+002
5.617755e+002, 8.042444e+002
5.622576e+002, 8.045826e+002
5.627397e+002, 8.056308e+002
5.632218e+002, 8.064149e+002
5.637039e+002, 8.064166e+002
5.641860e+002, 8.052981e+002
5.646682e+002, 8.042610e+002
5.651503e+002, 8.032946e+002
5.656324e+002, 8.024335e+002
5.661145e+002, 8.016536e+002
5.665966e+002, 8.009173e+002
5.670787e+002, 8.007631e+002
5.675609e+002, 8.014991e+002
5.680430e+002, 8.026754e+002
5.685251e+002, 8.032287e+002
5.690072e+002, 8.032501e+002
5.694893e+002, 8.033699e+002
5.699714e+002, 8.040955e+002
5.704536e+002, 8.050548e+002
5.709357e+002, 8.055917e+002
5.714178e+002, 8.057303e+002
5.718999e+002, 8.061148e+002
5.723820e+002, 8.077820e+002
5.728641e+002, 8.095128e+002
5.733463e+002, 8.099973e+002
5.738284e+002, 8.083018e+002
5.743105e+002, 8.072751e+002
5.747926e+002, 8.081566e+002
5.752747e+002, 8.100240e+002
5.757568e+002, 8.117249e+002
5.762390e+002, 8.133959e+002
5.767211e+002, 8.145778e+002
5.772032e+002, 8.149471e+002
5.776853e+002, 8.148144e+002
5.781674e+002, 8.152242e+002
5.786495e+002, 8.162473e+002
5.791317e+002, 8.176355e+002
5.796138e+002, 8.194839e+002
5.800959e+002, 8.216844e+002
5.805780e+002, 8.232750e+002
5.810601e+002, 8.242465e+002
5.815422e+002, 8.249091e+002
5.820244e+002, 8.255099e+002
5.825065e+002, 8.260143e+002
5.829886e+002, 8.260799e+002
5.834707e+002, 8.254730e+002
5.839528e+002, 8.254974e+002
5.844349e+002, 8.279230e+002
5.849171e+002, 8.315819e+002
5.853992e+002, 8.347493e+002
5.858813e+002, 8.372844e+002
5.863634e+002, 8.387013e+002
5.868455e+002, 8.380381e+002
5.873276e+002, 8.360246e+002
5.878098e+002, 8.346840e+002
5.882919e+002, 8.346705e+002
5.887740e+002, 8.351085e+002
5.892561e+002, 8.357703e+002
5.897382e+002, 8.366527e+002
5.902203e+002, 8.378553e+002
5.907025e+002, 8.398542e+002
5.911846e+002, 8.412927e+002
5.916667e+002, 8.408909e+002
5.921488e+002, 8.384435e+002
5.926309e+002, 8.372719e+002
5.931130e+002, 8.376707e+002
5.935952e+002, 8.386675e+002
5.940773e+002, 8.394388e+002
5.945594e+002, 8.398839e+002
5.950415e+002, 8.394907e+002
5.955236e+002, 8.378412e+002
5.960057e+002, 8.358864e+002
5.964879e+002, 8.346967e+002
5.969700e+002, 8.340381e+002
5.974521e+002, 8.333708e+002
5.979342e+002, 8.320986e+002
5.984163e+002, 8.310519e+002
5.988984e+002, 8.309212e+002
5.993806e+002, 8.315867e+002
5.998627e+002, 8.318894e+002
6.003448e+002, 8.311176e+002
6.008269e+002, 8.302988e+002
6.013090e+002, 8.300455e+002
6.017911e+002, 8.307302e+002
6.022733e+002, 8.304211e+002
6.027554e+002, 8.287508e+002
6.032375e+002, 8.266022e+002
6.037196e+002, 8.246215e+002
6.042017e+002, 8.227274e+002
6.046838e+002, 8.218452e+002
6.051660e+002, 8.223137e+002
6.056481e+002, 8.232906e+002
6.061302e+002, 8.234106e+002
6.066123e+002, 8.228260e+002
6.070944e+002, 8.222281e+002
6.075765e+002, 8.218193e+002
6.080587e+002, 8.215692e+002
6.085408e+002, 8.215861e+002
6.090229e+002, 8.217594e+002
6.095050e+002, 8.217006e+002
6.099871e+002, 8.208824e+002
6.104692e+002, 8.200223e+002
6.109514e+002, 8.194782e+002
6.114335e+002, 8.192650e+002
6.119156e+002, 8.194342e+002
6.123977e+002, 8.205803e+002
6.128798e+002, 8.216563e+002
6.133619e+002, 8.220395e+002
6.138441e+002, 8.214938e+002
6.143262e+002, 8.207874e+002
6.148083e+002, 8.197953e+002
6.152904e+002, 8.188193e+002
6.157725e+002, 8.182432e+002
6.162546e+002, 8.180833e+002
6.167368e+002, 8.182424e+002
6.172189e+002, 8.188763e+002
6.177010e+002, 8.195368e+002
6.181831e+002, 8.192349e+002
6.186652e+002, 8.181947e+002
6.191473e+002, 8.173018e+002
6.196295e+002, 8.169559e+002
6.201116e+002, 8.169960e+002
6.205937e+002, 8.174659e+002
6.210758e+002, 8.182524e+002
6.215579e+002, 8.188134e+002
6.220400e+002, 8.184930e+002
6.225222e+002, 8.181601e+002
6.230043e+002, 8.184389e+002
6.234864e+002, 8.195692e+002
6.239685e+002, 8.202224e+002
6.244506e+002, 8.198397e+002
6.249327e+002, 8.192966e+002
6.254149e+002, 8.191464e+002
6.258970e+002, 8.194568e+002
6.263791e+002, 8.200012e+002
6.268612e+002, 8.208865e+002
6.273433e+002, 8.218095e+002
6.278254e+002, 8.222316e+002
6.283076e+002, 8.221852e+002
6.287897e+002, 8.223853e+002
6.292718e+002, 8.230299e+002
6.297539e+002, 8.239797e+002
6.302360e+002, 8.253392e+002
6.307181e+002, 8.268742e+002
6.312003e+002, 8.278136e+002
6.316824e+002, 8.272119e+002
6.321645e+002, 8.263103e+002
6.326466e+002, 8.259837e+002
6.331287e+002, 8.262084e+002
6.336108e+002, 8.266964e+002
6.340930e+002, 8.275114e+002
6.345751e+002, 8.284316e+002
6.350572e+002, 8.293380e+002
6.355393e+002, 8.302129e+002
6.360214e+002, 8.311443e+002
6.365035e+002, 8.321070e+002
6.369857e+002, 8.331536e+002
6.374678e+002, 8.343907e+002
6.379499e+002, 8.358828e+002
6.384320e+002, 8.370356e+002
6.389141e+002, 8.377759e+002
6.393962e+002, 8.382357e+002
6.398784e+002, 8.382518e+002
6.403605e+002, 8.380449e+002
6.408426e+002, 8.387133e+002
6.413247e+002, 8.410204e+002
6.418068e+002, 8.434724e+002
6.422889e+002, 8.443362e+002
6.427711e+002, 8.441129e+002
6.432532e+002, 8.439562e+002
6.437353e+002, 8.441795e+002
6.442174e+002, 8.447775e+002
6.446995e+002, 8.459276e+002
6.451816e+002, 8.475358e+002
6.456638e+002, 8.490068e+002
6.461459e+002, 8.498563e+002
6.466280e+002, 8.509724e+002
6.471101e+002, 8.529024e+002
6.475922e+002, 8.557307e+002
6.480743e+002, 8.572989e+002
6.485565e+002, 8.570916e+002
6.490386e+002, 8.569003e+002
6.495207e+002, 8.583104e+002
6.500028e+002, 8.610992e+002
6.504849e+002, 8.633613e+002
6.509670e+002, 8.648795e+002
6.514492e+002, 8.662729e+002
6.519313e+002, 8.682402e+002
6.524134e+002, 8.705313e+002
6.528955e+002, 8.726523e+002
6.533776e+002, 8.745214e+002
6.538597e+002, 8.762012e+002
6.543419e+002, 8.778720e+002
6.548240e+002, 8.793676e+002
6.553061e+002, 8.804014e+002
6.557882e+002, 8.800094e+002
6.562703e+002, 8.801949e+002
6.567524e+002, 8.816523e+002
6.572346e+002, 8.840268e+002
6.577167e+002, 8.863676e+002
6.581988e+002, 8.888952e+002
6.586809e+002, 8.908912e+002
6.591630e+002, 8.919377e+002
6.596451e+002, 8.922342e+002
6.601273e+002, 8.929122e+002
6.606094e+002, 8.939799e+002
6.610915e+002, 8.953047e+002
6.615736e+002, 8.971345e+002
6.620557e+002, 8.990602e+002
6.625378e+002, 9.000427e+002
6.630200e+002, 9.000299e+002
6.635021e+002, 9.002620e+002
6.639842e+002, 9.025949e+002
6.644663e+002, 9.050260e+002
6.649484e+002, 9.053625e+002
6.654305e+002, 9.022403e+002
6.659127e+002, 8.999814e+002
6.663948e+002, 9.004560e+002
6.668769e+002, 9.018668e+002
6.673590e+002, 9.024116e+002
6.678411e+002, 9.019388e+002
6.683232e+002, 9.009128e+002
6.688054e+002, 8.993401e+002
6.692875e+002, 8.972848e+002
6.697696e+002, 8.946041e+002
6.702517e+002, 8.912739e+002
6.707338e+002, 8.885106e+002
6.712159e+002, 8.868364e+002
6.716981e+002, 8.857330e+002
6.721802e+002, 8.842762e+002
6.726623e+002, 8.826180e+002
6.731444e+002, 8.812560e+002
6.736265e+002, 8.812023e+002
6.741086e+002, 8.809536e+002
6.745908e+002, 8.790139e+002
6.750729e+002, 8.756837e+002
6.755550e+002, 8.729235e+002
6.760371e+002, 8.714198e+002
6.765192e+002, 8.705842e+002
6.770013e+002, 8.703077e+002
6.774835e+002, 8.706649e+002
6.779656e+002, 8.706733e+002
6.784477e+002, 8.702519e+002
6.789298e+002, 8.696325e+002
6.794119e+002, 8.688605e+002
6.798940e+002, 8.679203e+002
6.803762e+002, 8.674424e+002
6.808583e+002, 8.674884e+002
6.813404e+002, 8.676299e+002
6.818225e+002, 8.673416e+002
6.823046e+002, 8.668271e+002
6.827867e+002, 8.665104e+002
6.832689e+002, 8.664942e+002
6.837510e+002, 8.666398e+002
6.842331e+002, 8.669933e+002
6.847152e+002, 8.674039e+002
6.851973e+002, 8.676716e+002
6.856794e+002, 8.677130e+002
6.861616e+002, 8.676589e+002
6.866437e+002, 8.673031e+002
6.871258e+002, 8.669326e+002
6.876079e+002, 8.671383e+002
6.880900e+002, 8.682062e+002
6.885721e+002, 8.691017e+002
6.890543e+002, 8.695922e+002
6.895364e+002, 8.697179e+002
6.900185e+002, 8.691976e+002
6.905006e+002, 8.680836e+002
6.909827e+002, 8.679434e+002
6.914648e+002, 8.708389e+002
6.919470e+002, 8.745344e+002
6.924291e+002, 8.753513e+002
6.929112e+002, 8.736856e+002
6.933933e+002, 8.717531e+002
6.938754e+002, 8.700995e+002
6.943575e+002, 8.691174e+002
6.948397e+002, 8.694072e+002
6.953218e+002, 8.711487e+002
6.958039e+002, 8.722093e+002
6.962860e+002, 8.713873e+002
6.967681e+002, 8.707258e+002
6.972502e+002, 8.713811e+002
6.977324e+002, 8.737369e+002
6.982145e+002, 8.756202e+002
6.986966e+002, 8.770828e+002
6.991787e+002, 8.779430e+002
6.996608e+002, 8.775186e+002
7.001429e+002, 8.761931e+002
7.006251e+002, 8.759595e+002
7.011072e+002, 8.771816e+002
7.015893e+002, 8.788705e+002
7.020714e+002, 8.805207e+002
7.025535e+002, 8.818489e+002
7.030356e+002, 8.823478e+002
7.035178e+002, 8.811546e+002
7.039999e+002, 8.803399e+002
7.044820e+002, 8.808912e+002
7.049641e+002, 8.822427e+002
7.054462e+002, 8.835563e+002
7.059283e+002, 8.851198e+002
7.064105e+002, 8.860393e+002
7.068926e+002, 8.858378e+002
7.073747e+002, 8.851515e+002
7.078568e+002, 8.857426e+002
7.083389e+002, 8.877561e+002
7.088210e+002, 8.891461e+002
7.093032e+002, 8.889288e+002
7.097853e+002, 8.879506e+002
7.102674e+002, 8.879468e+002
7.107495e+002, 8.887294e+002
7.112316e+002, 8.895001e+002
7.117137e+002, 8.897010e+002
7.121959e+002, 8.898252e+002
7.126780e+002, 8.901707e+002
7.131601e+002, 8.907465e+002
7.136422e+002, 8.915256e+002
7.141243e+002, 8.925119e+002
7.146064e+002, 8.937103e+002
7.150886e+002, 8.953096e+002
7.155707e+002, 8.973550e+002
7.160528e+002, 8.984611e+002
7.165349e+002, 8.983504e+002
7.170170e+002, 8.980405e+002
7.174991e+002, 8.981596e+002
7.179813e+002, 8.986650e+002
7.184634e+002, 8.991990e+002
7.189455e+002, 8.997499e+002
7.194276e+002, 9.004273e+002
7.199097e+002, 9.014317e+002
7.203918e+002, 9.025752e+002
7.208740e+002, 9.035944e+002
7.213561e+002, 9.044525e+002
7.218382e+002, 9.052138e+002
7.223203e+002, 9.056688e+002
7.228024e+002, 9.061775e+002
7.232845e+002, 9.071022e+002
7.237667e+002, 9.092035e+002
7.242488e+002, 9.103602e+002
7.247309e+002, 9.100925e+002
7.252130e+002, 9.093903e+002
7.256951e+002, 9.094167e+002
7.261772e+002, 9.102131e+002
7.266594e+002, 9.110993e+002
7.271415e+002, 9.119766e+002
7.276236e+002, 9.128738e+002
7.281057e+002, 9.141392e+002
7.285878e+002, 9.154640e+002
7.290699e+002, 9.159717e+002
7.295521e+002, 9.147595e+002
7.300342e+002, 9.136492e+002
7.305163e+002, 9.140056e+002
7.309984e+002, 9.152952e+002
7.314805e+002, 9.165644e+002
7.319626e+002, 9.178450e+002
7.324448e+002, 9.187509e+002
7.329269e+002, 9.189862e+002
7.334090e+002, 9.188689e+002
7.338911e+002, 9.192972e+002
7.343732e+002, 9.203941e+002
7.348553e+002, 9.215370e+002
7.353375e+002, 9.225956e+002
7.358196e+002, 9.235209e+002
7.363017e+002, 9.240730e+002
7.367838e+002, 9.243192e+002
7.372659e+002, 9.246691e+002
7.377480e+002, 9.249904e+002
7.382302e+002, 9.257800e+002
7.387123e+002, 9.281927e+002
7.391944e+002, 9.317372e+002
7.396765e+002, 9.340276e+002
7.401586e+002, 9.325085e+002
7.406407e+002, 9.311371e+002
7.411229e+002, 9.320635e+002
7.416050e+002, 9.351569e+002
7.420871e+002, 9.369387e+002
7.425692e+002, 9.368695e+002
7.430513e+002, 9.367946e+002
7.435334e+002, 9.377971e+002
7.440156e+002, 9.397225e+002
7.444977e+002, 9.412017e+002
7.449798e+002, 9.422443e+002
7.454619e+002, 9.431138e+002
7.459440e+002, 9.438547e+002
7.464261e+002, 9.446088e+002
7.469083e+002, 9.456111e+002
7.473904e+002, 9.468824e+002
7.478725e+002, 9.481047e+002
7.483546e+002, 9.488622e+002
7.488367e+002, 9.496836e+002
7.493188e+002, 9.509410e+002
7.498010e+002, 9.527018e+002
7.502831e+002, 9.547014e+002
7.507652e+002, 9.574090e+002
7.512473e+002, 9.596104e+002
7.517294e+002, 9.599680e+002
7.522115e+002, 9.585146e+002
7.526937e+002, 9.580565e+002
7.531758e+002, 9.588033e+002
7.536579e+002, 9.602824e+002
7.541400e+002, 9.627118e+002
7.546221e+002, 9.653346e+002
7.551042e+002, 9.667736e+002
7.555864e+002, 9.664827e+002
7.560685e+002, 9.661699e+002
7.565506e+002, 9.669195e+002
7.570327e+002, 9.680234e+002
7.575148e+002, 9.687343e+002
7.579969e+002, 9.677764e+002
7.584791e+002, 9.684464e+002
7.589612e+002, 9.717330e+002
7.594433e+002, 9.755436e+002
7.599254e+002, 9.769592e+002
7.604075e+002, 9.758446e+002
7.608896e+002, 9.755422e+002
7.613718e+002, 9.766016e+002
7.618539e+002, 9.784489e+002
7.623360e+002, 9.809403e+002
7.628181e+002, 9.835722e+002
7.633002e+002, 9.852328e+002
7.637823e+002, 9.852164e+002
7.642645e+002, 9.848839e+002
7.647466e+002, 9.845667e+002
7.652287e+002, 9.845391e+002
7.657108e+002, 9.852234e+002
7.661929e+002, 9.876226e+002
7.666750e+002, 9.894139e+002
7.671572e+002, 9.901503e+002
7.676393e+002, 9.903827e+002
7.681214e+002, 9.911188e+002
7.686035e+002, 9.923838e+002
7.690856e+002, 9.938976e+002
7.695677e+002, 9.957070e+002
7.700499e+002, 9.975164e+002
7.705320e+002, 9.989648e+002
7.710141e+002, 1.000037e+003
7.714962e+002, 1.000698e+003
7.719783e+002, 1.000279e+003
7.724604e+002, 1.000123e+003
7.729426e+002, 1.001460e+003
7.734247e+002, 1.003539e+003
7.739068e+002, 1.004566e+003
7.743889e+002, 1.003129e+003
7.748710e+002, 1.002365e+003
7.753531e+002, 1.002967e+003
7.758353e+002, 1.004521e+003
7.763174e+002, 1.005852e+003
7.767995e+002, 1.006941e+003
7.772816e+002, 1.008237e+003
7.777637e+002, 1.010125e+003
7.782458e+002, 1.012091e+003
7.787280e+002, 1.013326e+003
7.792101e+002, 1.013915e+003
7.796922e+002, 1.014105e+003
7.801743e+002, 1.013633e+003
7.806564e+002, 1.013180e+003
7.811385e+002, 1.013092e+003
7.816207e+002, 1.013319e+003
7.821028e+002, 1.013615e+003
7.825849e+002, 1.013771e+003
7.830670e+002, 1.014265e+003
7.835491e+002, 1.015265e+003
7.840313e+002, 1.016674e+003
7.845134e+002, 1.018404e+003
7.849955e+002, 1.020476e+003
7.854776e+002, 1.021705e+003
7.859597e+002, 1.020913e+003
7.864418e+002, 1.019397e+003
7.869240e+002, 1.019303e+003
7.874061e+002, 1.020313e+003
7.878882e+002, 1.021273e+003
7.883703e+002, 1.021625e+003
7.888524e+002, 1.021750e+003
7.893345e+002, 1.021579e+003
7.898167e+002, 1.021245e+003
7.902988e+002, 1.021618e+003
7.907809e+002, 1.023047e+003
7.912630e+002, 1.024644e+003
7.917451e+002, 1.026431e+003
7.922272e+002, 1.028105e+003
7.927094e+002, 1.028042e+003
7.931915e+002, 1.026318e+003
7.936736e+002, 1.024755e+003
7.941557e+002, 1.024632e+003
7.946378e+002, 1.025117e+003
7.951199e+002, 1.024925e+003
7.956021e+002, 1.024315e+003
7.960842e+002, 1.024502e+003
7.965663e+002, 1.027372e+003
7.970484e+002, 1.029843e+003
7.975305e+002, 1.029728e+003
7.980126e+002, 1.027509e+003
7.984948e+002, 1.027714e+003
7.989769e+002, 1.031329e+003
7.994590e+002, 1.034983e+003
7.999411e+002, 1.037281e+003
8.004232e+002, 1.038516e+003
8.009053e+002, 1.039500e+003
8.013875e+002, 1.040270e+003
8.018696e+002, 1.041140e+003
8.023517e+002, 1.042310e+003
8.028338e+002, 1.043684e+003
8.033159e+002, 1.045081e+003
8.037980e+002, 1.046551e+003
8.042802e+002, 1.048388e+003
8.047623e+002, 1.050879e+003
8.052444e+002, 1.053541e+003
8.057265e+002, 1.056178e+003
8.062086e+002, 1.058792e+003
8.066907e+002, 1.061541e+003
8.071729e+002, 1.064492e+003
8.076550e+002, 1.067250e+003
8.081371e+002, 1.069602e+003
8.086192e+002, 1.071653e+003
8.091013e+002, 1.073699e+003
8.095834e+002, 1.075722e+003
8.100656e+002, 1.077625e+003
8.105477e+002, 1.079238e+003
8.110298e+002, 1.080821e+003
8.115119e+002, 1.082296e+003
8.119940e+002, 1.083804e+003
8.124761e+002, 1.086292e+003
8.129583e+002, 1.091190e+003
8.134404e+002, 1.095445e+003
8.139225e+002, 1.097817e+003
8.144046e+002, 1.098741e+003
8.148867e+002, 1.101045e+003
8.153688e+002, 1.104768e+003
8.158510e+002, 1.108755e+003
8.163331e+002, 1.112664e+003
8.168152e+002, 1.116306e+003
8.172973e+002, 1.118897e+003
8.177794e+002, 1.120778e+003
8.182615e+002, 1.123319e+003
8.187437e+002, 1.127899e+003
8.192258e+002, 1.132552e+003
8.197079e+002, 1.136313e+003
8.201900e+002, 1.139285e+003
8.206721e+002, 1.142508e+003
8.211542e+002, 1.146463e+003
8.216364e+002, 1.149578e+003
8.221185e+002, 1.151061e+003
8.226006e+002, 1.151457e+003
8.230827e+002, 1.152682e+003
8.235648e+002, 1.154649e+003
8.240469e+002, 1.156684e+003
8.245291e+002, 1.158273e+003
8.250112e+002, 1.159922e+003
8.254933e+002, 1.162678e+003
8.259754e+002, 1.166001e+003
8.264575e+002, 1.168184e+003
8.269396e+002, 1.167673e+003
8.274218e+002, 1.167105e+003
8.279039e+002, 1.167008e+003
8.283860e+002, 1.167406e+003
8.288681e+002, 1.168627e+003
8.293502e+002, 1.170950e+003
8.298323e+002, 1.172481e+003
8.303145e+002, 1.172467e+003
8.307966e+002, 1.171425e+003
8.312787e+002, 1.170051e+003
8.317608e+002, 1.168446e+003
8.322429e+002, 1.166984e+003
8.327250e+002, 1.165838e+003
8.332072e+002, 1.164848e+003
8.336893e+002, 1.164072e+003
8.341714e+002, 1.163383e+003
8.346535e+002, 1.162457e+003
8.351356e+002, 1.161444e+003
8.356177e+002, 1.159934e+003
8.360999e+002, 1.157786e+003
8.365820e+002, 1.155157e+003
8.370641e+002, 1.152087e+003
8.375462e+002, 1.148666e+003
8.380283e+002, 1.146053e+003
8.385104e+002, 1.145033e+003
8.389926e+002, 1.144190e+003
8.394747e+002, 1.142000e+003
8.399568e+002, 1.138868e+003
8.404389e+002, 1.135465e+003
8.409210e+002, 1.131735e+003
8.414031e+002, 1.128100e+003
8.418853e+002, 1.124593e+003
8.423674e+002, 1.121270e+003
8.428495e+002, 1.118336e+003
8.433316e+002, 1.115917e+003
8.438137e+002, 1.113234e+003
8.442958e+002, 1.110200e+003
8.447780e+002, 1.106745e+003
8.452601e+002, 1.102160e+003
8.457422e+002, 1.097131e+003
8.462243e+002, 1.093307e+003
8.467064e+002, 1.091521e+003
8.471885e+002, 1.090045e+003
8.476707e+002, 1.088084e+003
8.481528e+002, 1.085810e+003
8.486349e+002, 1.083441e+003
8.491170e+002, 1.081569e+003
8.495991e+002, 1.078473e+003
8.500812e+002, 1.073408e+003
8.505634e+002, 1.068290e+003
8.510455e+002, 1.065561e+003
8.515276e+002, 1.064893e+003
8.520097e+002, 1.063661e+003
8.524918e+002, 1.061486e+003
8.529739e+002, 1.059061e+003
8.534561e+002, 1.056669e+003
8.539382e+002, 1.054563e+003
8.544203e+002, 1.053107e+003
8.549024e+002, 1.052542e+003
8.553845e+002, 1.051993e+003
8.558666e+002, 1.051647e+003
8.563488e+002, 1.050887e+003
8.568309e+002, 1.049065e+003
8.573130e+002, 1.045866e+003
8.577951e+002, 1.043846e+003
8.582772e+002, 1.043104e+003
8.587593e+002, 1.042893e+003
8.592415e+002, 1.042916e+003
8.597236e+002, 1.042889e+003
8.602057e+002, 1.042325e+003
8.606878e+002, 1.041183e+003
8.611699e+002, 1.039717e+003
8.616520e+002, 1.037642e+003
8.621342e+002, 1.035620e+003
8.626163e+002, 1.034013e+003
8.630984e+002, 1.032832e+003
8.635805e+002, 1.032063e+003
8.640626e+002, 1.031766e+003
8.645447e+002, 1.031798e+003
8.650269e+002, 1.032466e+003
8.655090e+002, 1.033380e+003
8.659911e+002, 1.033046e+003
8.664732e+002, 1.031588e+003
8.669553e+002, 1.029755e+003
8.674374e+002, 1.027111e+003
8.679196e+002, 1.025041e+003
8.684017e+002, 1.024891e+003
8.688838e+002, 1.026408e+003
8.693659e+002, 1.027613e+003
8.698480e+002, 1.028349e+003
8.703301e+002, 1.028692e+003
8.708123e+002, 1.028667e+003
8.712944e+002, 1.028231e+003
8.717765e+002, 1.026829e+003
8.722586e+002, 1.024621e+003
8.727407e+002, 1.023388e+003
8.732228e+002, 1.024588e+003
8.737050e+002, 1.026362e+003
8.741871e+002, 1.026853e+003
8.746692e+002, 1.026457e+003
8.751513e+002, 1.026036e+003
8.756334e+002, 1.025743e+003
8.761155e+002, 1.025646e+003
8.765977e+002, 1.025928e+003
8.770798e+002, 1.026317e+003
8.775619e+002, 1.026227e+003
8.780440e+002, 1.025615e+003
8.785261e+002, 1.025269e+003
8.790082e+002, 1.025392e+003
8.794904e+002, 1.025716e+003
8.799725e+002, 1.026068e+003
8.804546e+002, 1.026325e+003
8.809367e+002, 1.026185e+003
8.814188e+002, 1.025155e+003
8.819009e+002, 1.024619e+003
8.823831e+002, 1.025498e+003
8.828652e+002, 1.026842e+003
8.833473e+002, 1.027656e+003
8.838294e+002, 1.027773e+003
8.843115e+002, 1.028099e+003
8.847936e+002, 1.028738e+003
8.852758e+002, 1.029350e+003
8.857579e+002, 1.029408e+003
8.862400e+002, 1.029223e+003
8.867221e+002, 1.029489e+003
8.872042e+002, 1.030302e+003
8.876863e+002, 1.031384e+003
8.881685e+002, 1.032691e+003
8.886506e+002, 1.034122e+003
8.891327e+002, 1.035698e+003
8.896148e+002, 1.037489e+003
8.900969e+002, 1.038703e+003
8.905790e+002, 1.039097e+003
8.910612e+002, 1.039508e+003
8.915433e+002, 1.040579e+003
8.920254e+002, 1.042038e+003
8.925075e+002, 1.042684e+003
8.929896e+002, 1.042640e+003
8.934717e+002, 1.042967e+003
8.939539e+002, 1.044714e+003
8.944360e+002, 1.046705e+003
8.949181e+002, 1.048140e+003
8.954002e+002, 1.049100e+003
8.958823e+002, 1.050223e+003
8.963644e+002, 1.051826e+003
8.968466e+002, 1.053132e+003
8.973287e+002, 1.053896e+003
8.978108e+002, 1.054314e+003
8.982929e+002, 1.054752e+003
8.987750e+002, 1.055276e+003
8.992571e+002, 1.056257e+003
8.997393e+002, 1.058001e+003
9.002214e+002, 1.060011e+003
9.007035e+002, 1.062024e+003
9.011856e+002, 1.063962e+003
9.016677e+002, 1.065655e+003
9.021498e+002, 1.067087e+003
9.026320e+002, 1.068158e+003
9.031141e+002, 1.068576e+003
9.035962e+002, 1.068951e+003
9.040783e+002, 1.070397e+003
9.045604e+002, 1.072781e+003
9.050425e+002, 1.074038e+003
9.055247e+002, 1.073698e+003
9.060068e+002, 1.073305e+003
9.064889e+002, 1.074557e+003
9.069710e+002, 1.076452e+003
9.074531e+002, 1.077929e+003
9.079352e+002, 1.078832e+003
9.084174e+002, 1.079285e+003
9.088995e+002, 1.078823e+003
9.093816e+002, 1.078546e+003
9.098637e+002, 1.079333e+003
9.103458e+002, 1.081187e+003
9.108279e+002, 1.082121e+003
9.113101e+002, 1.082123e+003
9.117922e+002, 1.081600e+003
9.122743e+002, 1.080547e+003
9.127564e+002, 1.079316e+003
9.132385e+002, 1.078509e+003
9.137206e+002, 1.077999e+003
9.142028e+002, 1.076803e+003
9.146849e+002, 1.073429e+003
9.151670e+002, 1.070727e+003
9.156491e+002, 1.069708e+003
9.161312e+002, 1.069968e+003
9.166133e+002, 1.070135e+003
9.170955e+002, 1.070222e+003
9.175776e+002, 1.069713e+003
9.180597e+002, 1.068240e+003
9.185418e+002, 1.066366e+003
9.190239e+002, 1.064867e+003
9.195060e+002, 1.063465e+003
9.199882e+002, 1.061651e+003
9.204703e+002, 1.058401e+003
9.209524e+002, 1.055819e+003
9.214345e+002, 1.054592e+003
9.219166e+002, 1.053877e+003
9.223987e+002, 1.052669e+003
9.228809e+002, 1.050921e+003
9.233630e+002, 1.049039e+003
9.238451e+002, 1.046997e+003
9.243272e+002, 1.045119e+003
9.248093e+002, 1.043712e+003
9.252914e+002, 1.042711e+003
9.257736e+002, 1.042156e+003
9.262557e+002, 1.042131e+003
9.267378e+002, 1.042017e+003
9.272199e+002, 1.041830e+003
9.277020e+002, 1.041342e+003
9.281841e+002, 1.040422e+003
9.286663e+002, 1.039081e+003
9.291484e+002, 1.037422e+003
9.296305e+002, 1.035413e+003
9.301126e+002, 1.033575e+003
9.305947e+002, 1.032489e+003
9.310768e+002, 1.031569e+003
9.315590e+002, 1.029751e+003
9.320411e+002, 1.027341e+003
9.325232e+002, 1.025741e+003
9.330053e+002, 1.025964e+003
9.334874e+002, 1.026396e+003
9.339695e+002, 1.026795e+003
9.344517e+002, 1.027025e+003
9.349338e+002, 1.026674e+003
9.354159e+002, 1.025739e+003
9.358980e+002, 1.024794e+003
9.363801e+002, 1.024033e+003
9.368622e+002, 1.023289e+003
9.373444e+002, 1.022026e+003
9.378265e+002, 1.020789e+003
9.383086e+002, 1.020445e+003
9.387907e+002, 1.021955e+003
9.392728e+002, 1.022921e+003
9.397549e+002, 1.022715e+003
9.402371e+002, 1.022062e+003
9.407192e+002, 1.021381e+003
9.412013e+002, 1.020654e+003
9.416834e+002, 1.020580e+003
9.421655e+002, 1.021207e+003
9.426476e+002, 1.021813e+003
9.431298e+002, 1.021460e+003
9.436119e+002, 1.020964e+003
9.440940e+002, 1.021373e+003
9.445761e+002, 1.022705e+003
9.450582e+002, 1.023663e+003
9.455403e+002, 1.023685e+003
9.460225e+002, 1.023615e+003
9.465046e+002, 1.023802e+003
9.469867e+002, 1.024081e+003
9.474688e+002, 1.023575e+003
9.479509e+002, 1.022355e+003
9.484330e+002, 1.021395e+003
9.489152e+002, 1.021120e+003
9.493973e+002, 1.021262e+003
9.498794e+002, 1.022049e+003
9.503615e+002, 1.022958e+003
9.508436e+002, 1.023063e+003
9.513257e+002, 1.021000e+003
9.518079e+002, 1.019856e+003
9.522900e+002, 1.020470e+003
9.527721e+002, 1.021151e+003
9.532542e+002, 1.019334e+003
9.537363e+002, 1.015471e+003
9.542184e+002, 1.013104e+003
9.547006e+002, 1.012714e+003
9.551827e+002, 1.012795e+003
9.556648e+002, 1.012281e+003
9.561469e+002, 1.011579e+003
9.566290e+002, 1.011149e+003
9.571111e+002, 1.011117e+003
9.575933e+002, 1.010479e+003
9.580754e+002, 1.008827e+003
9.585575e+002, 1.007356e+003
9.590396e+002, 1.006874e+003
9.595217e+002, 1.006932e+003
9.600038e+002, 1.005668e+003
9.604860e+002, 1.003367e+003
9.609681e+002, 1.001507e+003
9.614502e+002, 1.000929e+003
9.619323e+002, 1.000982e+003
9.624144e+002, 1.001564e+003
9.628965e+002, 1.002461e+003
9.633787e+002, 1.003241e+003
9.638608e+002, 1.004070e+003
9.643429e+002, 1.004273e+003
9.648250e+002, 1.003692e+003
9.653071e+002, 1.002643e+003
9.657892e+002, 1.000958e+003
9.662714e+002, 9.992351e+002
9.667535e+002, 9.994240e+002
9.672356e+002, 1.002212e+003
9.677177e+002, 1.004140e+003
9.681998e+002, 1.002065e+003
9.686819e+002, 9.994131e+002
9.691641e+002, 9.989153e+002
9.696462e+002, 1.000831e+003
9.701283e+002, 1.001055e+003
9.706104e+002, 9.992708e+002
9.710925e+002, 9.975622e+002
9.715746e+002, 9.970551e+002
9.720568e+002, 9.974457e+002
9.725389e+002, 9.985634e+002
9.730210e+002, 1.000144e+003
9.735031e+002, 1.001290e+003
9.739852e+002, 1.001350e+003
9.744673e+002, 1.001244e+003
9.749495e+002, 1.001256e+003
9.754316e+002, 1.001266e+003
9.759137e+002, 1.000945e+003
9.763958e+002, 1.000252e+003
9.768779e+002, 1.000202e+003
9.773600e+002, 1.001127e+003
9.778422e+002, 1.002067e+003
9.783243e+002, 1.001742e+003
9.788064e+002, 1.000958e+003
9.792885e+002, 1.000879e+003
9.797706e+002, 1.001966e+003
9.802527e+002, 1.002339e+003
9.807349e+002, 1.001008e+003
9.812170e+002, 9.998497e+002
9.816991e+002, 9.999872e+002
9.821812e+002, 1.001208e+003
9.826633e+002, 1.002086e+003
9.831454e+002, 1.002597e+003
9.836276e+002, 1.002598e+003
9.841097e+002, 1.000948e+003
9.845918e+002, 9.996987e+002
9.850739e+002, 1.001101e+003
9.855560e+002, 1.004097e+003
9.860381e+002, 1.005786e+003
9.865203e+002, 1.005386e+003
9.870024e+002, 1.004846e+003
9.874845e+002, 1.004270e+003
9.879666e+002, 1.003927e+003
9.884487e+002, 1.004562e+003
9.889308e+002, 1.005745e+003
9.894130e+002, 1.006055e+003
9.898951e+002, 1.005130e+003
9.903772e+002, 1.004388e+003
9.908593e+002, 1.005313e+003
9.913414e+002, 1.006208e+003
9.918235e+002, 1.005406e+003
9.923057e+002, 1.002742e+003
9.927878e+002, 1.002301e+003
9.932699e+002, 1.004421e+003
9.937520e+002, 1.006613e+003
9.942341e+002, 1.007574e+003
9.947162e+002, 1.007739e+003
9.951984e+002, 1.007500e+003
9.956805e+002, 1.007066e+003
9.961626e+002, 1.007012e+003
9.966447e+002, 1.008079e+003
9.971268e+002, 1.008880e+003
9.976089e+002, 1.009162e+003
9.980911e+002, 1.009019e+003
9.985732e+002, 1.008251e+003
9.990553e+002, 1.006867e+003
9.995374e+002, 1.006867e+003
1.000020e+003, 1.008620e+003
1.000502e+003, 1.010610e+003
1.000984e+003, 1.011946e+003
1.001466e+003, 1.012477e+003
1.001948e+003, 1.011571e+003
1.002430e+003, 1.008965e+003
1.002912e+003, 1.007915e+003
1.003394e+003, 1.009375e+003
1.003876e+003, 1.010903e+003
1.004359e+003, 1.011524e+003
1.004841e+003, 1.011476e+003
1.005323e+003, 1.011352e+003
1.005805e+003, 1.011171e+003
1.006287e+003, 1.011001e+003
1.006769e+003, 1.010923e+003
1.007251e+003, 1.010805e+003
1.007733e+003, 1.010311e+003
1.008216e+003, 1.009877e+003
1.008698e+003, 1.010118e+003
1.009180e+003, 1.011234e+003
1.009662e+003, 1.012334e+003
1.010144e+003, 1.013412e+003
1.010626e+003, 1.014250e+003
1.011108e+003, 1.014414e+003
1.011590e+003, 1.014275e+003
1.012072e+003, 1.014383e+003
1.012555e+003, 1.014766e+003
1.013037e+003, 1.015158e+003
1.013519e+003, 1.015594e+003
1.014001e+003, 1.015848e+003
1.014483e+003, 1.015770e+003
1.014965e+003, 1.015492e+003
1.015447e+003, 1.015535e+003
1.015929e+003, 1.015856e+003
1.016411e+003, 1.015923e+003
1.016894e+003, 1.015400e+003
1.017376e+003, 1.014965e+003
1.017858e+003, 1.015350e+003
1.018340e+003, 1.016114e+003
1.018822e+003, 1.016705e+003
1.019304e+003, 1.017000e+003
1.019786e+003, 1.017363e+003
1.020268e+003, 1.018003e+003
1.020751e+003, 1.018188e+003
1.021233e+003, 1.016636e+003
1.021715e+003, 1.014365e+003
1.022197e+003, 1.014425e+003
1.022679e+003, 1.016509e+003
1.023161e+003, 1.018517e+003
1.023643e+003, 1.019645e+003
1.024125e+003, 1.020201e+003
1.024607e+003, 1.019988e+003
1.025090e+003, 1.019400e+003
1.025572e+003, 1.019140e+003
1.026054e+003, 1.019185e+003
1.026536e+003, 1.019967e+003
1.027018e+003, 1.021751e+003
1.027500e+003, 1.023413e+003
1.027982e+003, 1.023736e+003
1.028464e+003, 1.023269e+003
1.028947e+003, 1.022450e+003
1.029429e+003, 1.021143e+003
1.029911e+003, 1.020801e+003
1.030393e+003, 1.021997e+003
1.030875e+003, 1.023225e+003
1.031357e+003, 1.023670e+003
1.031839e+003, 1.023611e+003
1.032321e+003, 1.023882e+003
1.032803e+003, 1.024471e+003
1.033286e+003, 1.025299e+003
1.033768e+003, 1.026871e+003
1.034250e+003, 1.028053e+003
1.034732e+003, 1.027836e+003
1.035214e+003, 1.027177e+003
1.035696e+003, 1.027560e+003
1.036178e+003, 1.029285e+003
1.036660e+003, 1.030273e+003
1.037143e+003, 1.030312e+003
1.037625e+003, 1.030030e+003
1.038107e+003, 1.029755e+003
1.038589e+003, 1.029641e+003
1.039071e+003, 1.030046e+003
1.039553e+003, 1.030932e+003
1.040035e+003, 1.031469e+003
1.040517e+003, 1.031604e+003
1.041000e+003, 1.031096e+003
1.041482e+003, 1.029517e+003
1.041964e+003, 1.027629e+003
1.042446e+003, 1.027518e+003
1.042928e+003, 1.028807e+003
1.043410e+003, 1.029970e+003
1.043892e+003, 1.030627e+003
1.044374e+003, 1.030927e+003
1.044856e+003, 1.030829e+003
1.045339e+003, 1.030501e+003
1.045821e+003, 1.030064e+003
1.046303e+003, 1.029497e+003
1.046785e+003, 1.029007e+003
1.047267e+003, 1.028558e+003
1.047749e+003, 1.028507e+003
1.048231e+003, 1.029482e+003
1.048713e+003, 1.030709e+003
1.049195e+003, 1.031243e+003
1.049677e+003, 1.031191e+003
1.050160e+003, 1.030873e+003
1.050642e+003, 1.030096e+003
1.051124e+003, 1.029408e+003
1.051606e+003, 1.028789e+003
1.052088e+003, 1.028381e+003
1.052570e+003, 1.028608e+003
1.053052e+003, 1.029227e+003
1.053534e+003, 1.029190e+003
1.054017e+003, 1.028350e+003
1.054499e+003, 1.027515e+003
1.054981e+003, 1.026687e+003
1.055463e+003, 1.026493e+003
1.055945e+003, 1.027841e+003
1.056427e+003, 1.030298e+003
1.056909e+003, 1.031279e+003
1.057391e+003, 1.030676e+003
1.057874e+003, 1.029936e+003
1.058356e+003, 1.029531e+003
1.058838e+003, 1.029273e+003
1.059320e+003, 1.028997e+003
1.059802e+003, 1.028702e+003
1.060284e+003, 1.028338e+003
1.060766e+003, 1.027668e+003
1.061248e+003, 1.027513e+003
1.061730e+003, 1.027900e+003
1.062213e+003, 1.028789e+003
1.062695e+003, 1.030642e+003
1.063177e+003, 1.032929e+003
1.063659e+003, 1.033641e+003
1.064141e+003, 1.032991e+003
1.064623e+003, 1.032010e+003
1.065105e+003, 1.030489e+003
1.065587e+003, 1.029542e+003
1.066070e+003, 1.030086e+003
1.066552e+003, 1.031186e+003
1.067034e+003, 1.031328e+003
1.067516e+003, 1.030454e+003
1.067998e+003, 1.030407e+003
1.068480e+003, 1.031467e+003
1.068962e+003, 1.032671e+003
1.069444e+003, 1.033453e+003
1.069927e+003, 1.033761e+003
1.070409e+003, 1.033390e+003
1.070891e+003, 1.032352e+003
1.071373e+003, 1.031532e+003
1.071855e+003, 1.030876e+003
1.072337e+003, 1.030761e+003
1.072819e+003, 1.031537e+003
1.073301e+003, 1.032547e+003
1.073783e+003, 1.032549e+003
1.074266e+003, 1.031896e+003
1.074748e+003, 1.031274e+003
1.075230e+003, 1.030730e+003
1.075712e+003, 1.030628e+003
1.076194e+003, 1.031488e+003
1.076676e+003, 1.032342e+003
1.077158e+003, 1.032650e+003
1.077640e+003, 1.032433e+003
1.078122e+003, 1.031716e+003
1.078604e+003, 1.030595e+003
1.079087e+003, 1.029887e+003
1.079569e+003, 1.030706e+003
1.080051e+003, 1.031378e+003
1.080533e+003, 1.030377e+003
1.081015e+003, 1.028753e+003
1.081497e+003, 1.028513e+003
1.081979e+003, 1.030101e+003
1.082461e+003, 1.030997e+003
1.082944e+003, 1.030970e+003
1.083426e+003, 1.030547e+003
1.083908e+003, 1.029898e+003
1.084390e+003, 1.029359e+003
1.084872e+003, 1.029617e+003
1.085354e+003, 1.030583e+003
1.085836e+003, 1.030762e+003
1.086318e+003, 1.029602e+003
1.086801e+003, 1.028303e+003
1.087283e+003, 1.027009e+003
1.087765e+003, 1.025945e+003
1.088247e+003, 1.025627e+003
1.088729e+003, 1.025860e+003
1.089211e+003, 1.026173e+003
1.089693e+003, 1.026494e+003
1.090175e+003, 1.026738e+003
1.090657e+003, 1.026934e+003
1.091140e+003, 1.026948e+003
1.091622e+003, 1.026602e+003
1.092104e+003, 1.025980e+003
1.092586e+003, 1.026012e+003
1.093068e+003, 1.026605e+003
1.093550e+003, 1.026667e+003
1.094032e+003, 1.025323e+003
1.094514e+003, 1.023867e+003
1.094997e+003, 1.023265e+003
1.095479e+003, 1.023111e+003
1.095961e+003, 1.022815e+003
1.096443e+003, 1.022211e+003
1.096925e+003, 1.022037e+003
1.097407e+003, 1.022379e+003
1.097889e+003, 1.022610e+003
1.098371e+003, 1.021916e+003
1.098854e+003, 1.021053e+003
1.099336e+003, 1.021306e+003
1.099818e+003, 1.022294e+003
1.100300e+003, 1.022457e+003
1.100782e+003, 1.020893e+003
1.101264e+003, 1.019352e+003
1.101746e+003, 1.017856e+003
1.102228e+003, 1.016851e+003
1.102710e+003, 1.017569e+003
1.103193e+003, 1.019136e+003
1.103675e+003, 1.018987e+003
1.104157e+003, 1.016832e+003
1.104639e+003, 1.015602e+003
1.105121e+003, 1.017756e+003
1.105603e+003, 1.019764e+003
1.106085e+003, 1.020290e+003
1.106567e+003, 1.019708e+003
1.107049e+003, 1.019048e+003
1.107531e+003, 1.018305e+003
1.108014e+003, 1.017472e+003
1.108496e+003, 1.016428e+003
1.108978e+003, 1.015628e+003
1.109460e+003, 1.015186e+003
1.109942e+003, 1.015275e+003
1.110424e+003, 1.016401e+003
1.110906e+003, 1.018645e+003
1.111388e+003, 1.018918e+003
1.111871e+003, 1.017083e+003
1.112353e+003, 1.015193e+003
1.112835e+003, 1.014149e+003
1.113317e+003, 1.013719e+003
1.113799e+003, 1.014245e+003
1.114281e+003, 1.015050e+003
1.114763e+003, 1.014931e+003
1.115245e+003, 1.012683e+003
1.115728e+003, 1.011810e+003
1.116210e+003, 1.012639e+003
1.116692e+003, 1.013828e+003
1.117174e+003, 1.014471e+003
1.117656e+003, 1.014617e+003
1.118138e+003, 1.014014e+003
1.118620e+003, 1.012914e+003
1.119102e+003, 1.012312e+003
1.119584e+003, 1.013062e+003
1.120067e+003, 1.013559e+003
1.120549e+003, 1.013335e+003
1.121031e+003, 1.013061e+003
1.121513e+003, 1.014171e+003
1.121995e+003, 1.015971e+003
1.122477e+003, 1.015700e+003
1.122959e+003, 1.013144e+003
1.123441e+003, 1.010941e+003
1.123924e+003, 1.010971e+003
1.124406e+003, 1.011110e+003
1.124888e+003, 1.010305e+003
1.125370e+003, 1.009009e+003
1.125852e+003, 1.008729e+003
1.126334e+003, 1.009327e+003
1.126816e+003, 1.008800e+003
1.127298e+003, 1.006313e+003
1.127781e+003, 1.004626e+003
1.128263e+003, 1.007370e+003
1.128745e+003, 1.010553e+003
1.129227e+003, 1.010449e+003
1.129709e+003, 1.007223e+003
1.130191e+003, 1.005370e+003
1.130673e+003, 1.004933e+003
1.131155e+003, 1.005018e+003
1.131637e+003, 1.005456e+003
1.132120e+003, 1.005880e+003
1.132602e+003, 1.005496e+003
1.133084e+003, 1.005019e+003
1.133566e+003, 1.005621e+003
1.134048e+003, 1.008054e+003
1.134530e+003, 1.009332e+003
1.135012e+003, 1.009311e+003
1.135494e+003, 1.008660e+003
1.135976e+003, 1.007178e+003
1.136458e+003, 1.005756e+003
1.136941e+003, 1.006337e+003
1.137423e+003, 1.008120e+003
1.137905e+003, 1.009142e+003
1.138387e+003, 1.008522e+003
1.138869e+003, 1.007350e+003
1.139351e+003, 1.005027e+003
1.139833e+003, 1.003580e+003
1.140315e+003, 1.005999e+003
1.140798e+003, 1.010522e+003
1.141280e+003, 1.013152e+003
1.141762e+003, 1.013847e+003
1.142244e+003, 1.013495e+003
1.142726e+003, 1.011000e+003
1.143208e+003, 1.009444e+003
1.143690e+003, 1.009627e+003
1.144172e+003, 1.010849e+003
1.144655e+003, 1.012558e+003
1.145137e+003, 1.014415e+003
1.145619e+003, 1.015034e+003
1.146101e+003, 1.014237e+003
1.146583e+003, 1.013044e+003
1.147065e+003, 1.011594e+003
1.147547e+003, 1.010369e+003
1.148029e+003, 1.009625e+003
1.148511e+003, 1.009237e+003
1.148994e+003, 1.008826e+003
1.149476e+003, 1.008416e+003
1.149958e+003, 1.008164e+003
1.150440e+003, 1.008070e+003
1.150922e+003, 1.008294e+003
1.151404e+003, 1.009376e+003
1.151886e+003, 1.010434e+003
1.152368e+003, 1.010656e+003
1.152851e+003, 1.010155e+003
1.153333e+003, 1.010078e+003
1.153815e+003, 1.010412e+003
1.154297e+003, 1.011068e+003
1.154779e+003, 1.012037e+003
1.155261e+003, 1.013226e+003
1.155743e+003, 1.015205e+003
1.156225e+003, 1.016954e+003
1.156708e+003, 1.017007e+003
1.157190e+003, 1.015069e+003
1.157672e+003, 1.013758e+003
1.158154e+003, 1.013121e+003
1.158636e+003, 1.012793e+003
1.159118e+003, 1.012835e+003
1.159600e+003, 1.012833e+003
1.160082e+003, 1.012102e+003
1.160564e+003, 1.011092e+003
1.161047e+003, 1.010598e+003
1.161529e+003, 1.010933e+003
1.162011e+003, 1.011354e+003
1.162493e+003, 1.011893e+003
1.162975e+003, 1.012437e+003
1.163457e+003, 1.013098e+003
1.163939e+003, 1.013574e+003
1.164421e+003, 1.012944e+003
1.164903e+003, 1.011750e+003
1.165385e+003, 1.011683e+003
1.165868e+003, 1.014184e+003
1.166350e+003, 1.015715e+003
1.166832e+003, 1.015768e+003
1.167314e+003, 1.015416e+003
1.167796e+003, 1.016115e+003
1.168278e+003, 1.017009e+003
1.168760e+003, 1.016029e+003
1.169242e+003, 1.013507e+003
1.169725e+003, 1.012208e+003
1.170207e+003, 1.013860e+003
1.170689e+003, 1.015617e+003
1.171171e+003, 1.017249e+003
1.171653e+003, 1.018473e+003
1.172135e+003, 1.018548e+003
1.172617e+003, 1.017984e+003
1.173099e+003, 1.018127e+003
1.173582e+003, 1.019095e+003
1.174064e+003, 1.019427e+003
1.174546e+003, 1.017117e+003
1.175028e+003, 1.016174e+003
1.175510e+003, 1.018296e+003
1.175992e+003, 1.021499e+003
1.176474e+003, 1.021352e+003
1.176956e+003, 1.018997e+003
1.177438e+003, 1.017813e+003
1.177921e+003, 1.018549e+003
1.178403e+003, 1.019328e+003
1.178885e+003, 1.019351e+003
1.179367e+003, 1.019301e+003
1.179849e+003, 1.019465e+003
1.180331e+003, 1.019752e+003
1.180813e+003, 1.019848e+003
1.181295e+003, 1.019805e+003
1.181778e+003, 1.019761e+003
1.182260e+003, 1.019676e+003
1.182742e+003, 1.019894e+003
1.183224e+003, 1.020760e+003
1.183706e+003, 1.021822e+003
1.184188e+003, 1.023019e+003
1.184670e+003, 1.024181e+003
1.185152e+003, 1.023868e+003
1.185635e+003, 1.022464e+003
1.186117e+003, 1.022025e+003
1.186599e+003, 1.023826e+003
1.187081e+003, 1.025670e+003
1.187563e+003, 1.026651e+003
1.188045e+003, 1.027070e+003
1.188527e+003, 1.027150e+003
1.189009e+003, 1.026893e+003
1.189491e+003, 1.025808e+003
1.189974e+003, 1.024132e+003
1.190456e+003, 1.023602e+003
1.190938e+003, 1.026219e+003
1.191420e+003, 1.028647e+003
1.191902e+003, 1.029004e+003
1.192384e+003, 1.028541e+003
1.192866e+003, 1.028552e+003
1.193348e+003, 1.029054e+003
1.193830e+003, 1.028845e+003
1.194313e+003, 1.028003e+003
1.194795e+003, 1.027532e+003
1.195277e+003, 1.028757e+003
1.195759e+003, 1.029699e+003
1.196241e+003, 1.028769e+003
1.196723e+003, 1.027233e+003
1.197205e+003, 1.026692e+003
1.197687e+003, 1.027174e+003
1.198169e+003, 1.028011e+003
1.198652e+003, 1.029149e+003
1.199134e+003, 1.029871e+003
1.199616e+003, 1.029221e+003
1.200098e+003, 1.028513e+003
1.200580e+003, 1.028736e+003
1.201062e+003, 1.029332e+003
1.201544e+003, 1.029214e+003
1.202026e+003, 1.028349e+003
1.202509e+003, 1.028298e+003
1.202991e+003, 1.029201e+003
1.203473e+003, 1.030385e+003
1.203955e+003, 1.031790e+003
1.204437e+003, 1.032881e+003
1.204919e+003, 1.033149e+003
1.205401e+003, 1.032872e+003
1.205883e+003, 1.032659e+003
1.206365e+003, 1.032503e+003
1.206848e+003, 1.031921e+003
1.207330e+003, 1.030785e+003
1.207812e+003, 1.030220e+003
1.208294e+003, 1.031680e+003
1.208776e+003, 1.033462e+003
1.209258e+003, 1.034416e+003
1.209740e+003, 1.034730e+003
1.210222e+003, 1.034852e+003
1.210705e+003, 1.034789e+003
1.211187e+003, 1.034790e+003
1.211669e+003, 1.034919e+003
1.212151e+003, 1.035058e+003
1.212633e+003, 1.035049e+003
1.213115e+003, 1.035096e+003
1.213597e+003, 1.035493e+003
1.214079e+003, 1.036082e+003
1.214562e+003, 1.036050e+003
1.215044e+003, 1.035431e+003
1.215526e+003, 1.035817e+003
1.216008e+003, 1.037819e+003
1.216490e+003, 1.039502e+003
1.216972e+003, 1.039043e+003
1.217454e+003, 1.037885e+003
1.217936e+003, 1.036703e+003
1.218418e+003, 1.035747e+003
1.218901e+003, 1.036807e+003
1.219383e+003, 1.039748e+003
1.219865e+003, 1.041539e+003
1.220347e+003, 1.041024e+003
1.220829e+003, 1.040325e+003
1.221311e+003, 1.041441e+003
1.221793e+003, 1.042608e+003
1.222275e+003, 1.042365e+003
1.222757e+003, 1.040953e+003
1.223240e+003, 1.040084e+003
1.223722e+003, 1.039754e+003
1.224204e+003, 1.039872e+003
1.224686e+003, 1.040610e+003
1.225168e+003, 1.041230e+003
1.225650e+003, 1.041250e+003
1.226132e+003, 1.040944e+003
1.226614e+003, 1.040372e+003
1.227096e+003, 1.039656e+003
1.227579e+003, 1.040096e+003
1.228061e+003, 1.041521e+003
1.228543e+003, 1.042332e+003
1.229025e+003, 1.041556e+003
1.229507e+003, 1.040853e+003
1.229989e+003, 1.041388e+003
1.230471e+003, 1.042189e+003
1.230953e+003, 1.042341e+003
1.231436e+003, 1.041990e+003
1.231918e+003, 1.042994e+003
1.232400e+003, 1.045073e+003
1.232882e+003, 1.046329e+003
1.233364e+003, 1.045676e+003
1.233846e+003, 1.044633e+003
1.234328e+003, 1.043198e+003
1.234810e+003, 1.042379e+003
1.235292e+003, 1.043179e+003
1.235775e+003, 1.045332e+003
1.236257e+003, 1.046664e+003
1.236739e+003, 1.047293e+003
1.237221e+003, 1.047862e+003
1.237703e+003, 1.048841e+003
1.238185e+003, 1.049515e+003
1.238667e+003, 1.049364e+003
1.239149e+003, 1.049039e+003
1.239632e+003, 1.048945e+003
1.240114e+003, 1.049066e+003
1.240596e+003, 1.049350e+003
1.241078e+003, 1.049763e+003
1.241560e+003, 1.050172e+003
1.242042e+003, 1.050520e+003
1.242524e+003, 1.050836e+003
1.243006e+003, 1.051090e+003
1.243489e+003, 1.051353e+003
1.243971e+003, 1.051500e+003
1.244453e+003, 1.051708e+003
1.244935e+003, 1.053115e+003
1.245417e+003, 1.055317e+003
1.245899e+003, 1.056761e+003
1.246381e+003, 1.055928e+003
1.246863e+003, 1.055637e+003
1.247345e+003, 1.056643e+003
1.247828e+003, 1.057633e+003
1.248310e+003, 1.057041e+003
1.248792e+003, 1.055712e+003
1.249274e+003, 1.056160e+003
1.249756e+003, 1.057922e+003
1.250238e+003, 1.059308e+003
1.250720e+003, 1.059359e+003
1.251202e+003, 1.059549e+003
1.251684e+003, 1.060080e+003
1.252167e+003, 1.060551e+003
1.252649e+003, 1.060424e+003
1.253131e+003, 1.060076e+003
1.253613e+003, 1.060438e+003
1.254095e+003, 1.061231e+003
1.254577e+003, 1.061519e+003
1.255059e+003, 1.060701e+003
1.255541e+003, 1.059909e+003
1.256023e+003, 1.059021e+003
1.256506e+003, 1.058758e+003
1.256988e+003, 1.060175e+003
1.257470e+003, 1.062328e+003
1.257952e+003, 1.064301e+003
1.258434e+003, 1.065870e+003
1.258916e+003, 1.066299e+003
1.259398e+003, 1.065033e+003
1.259880e+003, 1.064247e+003
1.260363e+003, 1.064108e+003
1.260845e+003, 1.064253e+003
1.261327e+003, 1.064893e+003
1.261809e+003, 1.065226e+003
1.262291e+003, 1.063759e+003
1.262773e+003, 1.061422e+003
1.263255e+003, 1.060814e+003
1.263737e+003, 1.062526e+003
1.264219e+003, 1.063217e+003
1.264702e+003, 1.062575e+003
1.265184e+003, 1.062243e+003
1.265666e+003, 1.064300e+003
1.266148e+003, 1.066389e+003
1.266630e+003, 1.066322e+003
1.267112e+003, 1.065068e+003
1.267594e+003, 1.064722e+003
1.268076e+003, 1.065331e+003
1.268559e+003, 1.066301e+003
1.269041e+003, 1.067592e+003
1.269523e+003, 1.068751e+003
1.270005e+003, 1.069593e+003
1.270487e+003, 1.070089e+003
1.270969e+003, 1.069939e+003
1.271451e+003, 1.069575e+003
1.271933e+003, 1.069615e+003
1.272416e+003, 1.070008e+003
1.272898e+003, 1.070107e+003
1.273380e+003, 1.069896e+003
1.273862e+003, 1.069783e+003
1.274344e+003, 1.069886e+003
1.274826e+003, 1.070297e+003
1.275308e+003, 1.071145e+003
1.275790e+003, 1.072183e+003
1.276272e+003, 1.073404e+003
1.276755e+003, 1.074550e+003
1.277237e+003, 1.074426e+003
1.277719e+003, 1.073138e+003
1.278201e+003, 1.071862e+003
1.278683e+003, 1.070872e+003
1.279165e+003, 1.070335e+003
1.279647e+003, 1.070213e+003
1.280129e+003, 1.070620e+003
1.280611e+003, 1.072372e+003
1.281094e+003, 1.074460e+003
1.281576e+003, 1.074059e+003
1.282058e+003, 1.071750e+003
1.282540e+003, 1.071066e+003
1.283022e+003, 1.074251e+003
1.283504e+003, 1.076595e+003
1.283986e+003, 1.077622e+003
1.284468e+003, 1.077768e+003
1.284950e+003, 1.076798e+003
1.285433e+003, 1.075674e+003
1.285915e+003, 1.075841e+003
1.286397e+003, 1.077016e+003
1.286879e+003, 1.077961e+003
1.287361e+003, 1.078684e+003
1.287843e+003, 1.078582e+003
1.288325e+003, 1.077469e+003
1.288807e+003, 1.076691e+003
1.289290e+003, 1.077779e+003
1.289772e+003, 1.079370e+003
1.290254e+003, 1.080747e+003
1.290736e+003, 1.081531e+003
1.291218e+003, 1.080709e+003
1.291700e+003, 1.077993e+003
1.292182e+003, 1.078059e+003
1.292664e+003, 1.081194e+003
1.293146e+003, 1.083944e+003
1.293629e+003, 1.083297e+003
1.294111e+003, 1.082212e+003
1.294593e+003, 1.082546e+003
1.295075e+003, 1.083286e+003
1.295557e+003, 1.082933e+003
1.296039e+003, 1.081726e+003
1.296521e+003, 1.081990e+003
1.297003e+003, 1.083600e+003
1.297486e+003, 1.084570e+003
1.297968e+003, 1.083224e+003
1.298450e+003, 1.082136e+003
1.298932e+003, 1.082117e+003
1.299414e+003, 1.082428e+003
1.299896e+003, 1.082167e+003
1.300378e+003, 1.081643e+003
1.300860e+003, 1.081573e+003
1.301343e+003, 1.082068e+003
1.301825e+003, 1.083313e+003
##END=



