##NAMES=Gotzenite
##RRUFFID=R070449
##IDEAL CHEMISTRY=Ca_4_NaCa_2_Ti^4+^(Si_2_O_7_)_2_(OF)F_2_
##LOCALITY=Mont Saint-Hilaire, Rouville County, Quebec, Canada
##OWNER=RRUFF
##SOURCE=Michael Scott
##DESCRIPTION=Sprays of yellowish bladed crystals with green or colorless vesuvianite, white thick prismatic pectolite and brown phlogopite mica.
##STATUS=The identification of this mineral has been confirmed by single-crystal X-ray diffraction.
##URL=rruff.info/R070449
9.059570e+001, 1.727071e+003
9.107782e+001, 1.665019e+003
9.155994e+001, 1.643037e+003
9.204205e+001, 1.691042e+003
9.252417e+001, 1.758806e+003
9.300629e+001, 1.829208e+003
9.348840e+001, 1.886941e+003
9.397052e+001, 1.920451e+003
9.445264e+001, 1.926329e+003
9.493475e+001, 1.930760e+003
9.541687e+001, 1.930947e+003
9.589898e+001, 1.926904e+003
9.638110e+001, 1.921709e+003
9.686321e+001, 1.918375e+003
9.734533e+001, 1.916899e+003
9.782745e+001, 1.912438e+003
9.830956e+001, 1.906532e+003
9.879168e+001, 1.898231e+003
9.927380e+001, 1.891021e+003
9.975591e+001, 1.885104e+003
1.002380e+002, 1.880317e+003
1.007201e+002, 1.876959e+003
1.012023e+002, 1.875520e+003
1.016844e+002, 1.875531e+003
1.021665e+002, 1.874767e+003
1.026486e+002, 1.870775e+003
1.031307e+002, 1.867307e+003
1.036128e+002, 1.868340e+003
1.040950e+002, 1.874418e+003
1.045771e+002, 1.881410e+003
1.050592e+002, 1.886503e+003
1.055413e+002, 1.890123e+003
1.060234e+002, 1.892755e+003
1.065055e+002, 1.894398e+003
1.069877e+002, 1.895105e+003
1.074698e+002, 1.895005e+003
1.079519e+002, 1.891884e+003
1.084340e+002, 1.890622e+003
1.089161e+002, 1.893690e+003
1.093982e+002, 1.900110e+003
1.098804e+002, 1.907532e+003
1.103625e+002, 1.914532e+003
1.108446e+002, 1.921681e+003
1.113267e+002, 1.924909e+003
1.118088e+002, 1.919810e+003
1.122909e+002, 1.914667e+003
1.127731e+002, 1.913067e+003
1.132552e+002, 1.915627e+003
1.137373e+002, 1.921031e+003
1.142194e+002, 1.927678e+003
1.147015e+002, 1.938683e+003
1.151836e+002, 1.944840e+003
1.156658e+002, 1.942523e+003
1.161479e+002, 1.937287e+003
1.166300e+002, 1.934488e+003
1.171121e+002, 1.936057e+003
1.175942e+002, 1.940417e+003
1.180763e+002, 1.944031e+003
1.185584e+002, 1.946492e+003
1.190406e+002, 1.949214e+003
1.195227e+002, 1.952879e+003
1.200048e+002, 1.957150e+003
1.204869e+002, 1.961168e+003
1.209690e+002, 1.964596e+003
1.214511e+002, 1.967388e+003
1.219333e+002, 1.969338e+003
1.224154e+002, 1.969216e+003
1.228975e+002, 1.970293e+003
1.233796e+002, 1.977453e+003
1.238617e+002, 1.991860e+003
1.243438e+002, 2.002473e+003
1.248260e+002, 1.998326e+003
1.253081e+002, 1.989521e+003
1.257902e+002, 1.985218e+003
1.262723e+002, 1.989548e+003
1.267544e+002, 1.998911e+003
1.272365e+002, 2.005196e+003
1.277187e+002, 2.006814e+003
1.282008e+002, 2.007777e+003
1.286829e+002, 2.008753e+003
1.291650e+002, 2.010069e+003
1.296471e+002, 2.012235e+003
1.301292e+002, 2.015734e+003
1.306114e+002, 2.020434e+003
1.310935e+002, 2.024272e+003
1.315756e+002, 2.026690e+003
1.320577e+002, 2.028773e+003
1.325398e+002, 2.029936e+003
1.330219e+002, 2.030859e+003
1.335041e+002, 2.033048e+003
1.339862e+002, 2.038060e+003
1.344683e+002, 2.046658e+003
1.349504e+002, 2.053106e+003
1.354325e+002, 2.056431e+003
1.359146e+002, 2.058868e+003
1.363968e+002, 2.061449e+003
1.368789e+002, 2.064356e+003
1.373610e+002, 2.067456e+003
1.378431e+002, 2.070576e+003
1.383252e+002, 2.073725e+003
1.388073e+002, 2.076900e+003
1.392895e+002, 2.078931e+003
1.397716e+002, 2.081438e+003
1.402537e+002, 2.087225e+003
1.407358e+002, 2.097619e+003
1.412179e+002, 2.108411e+003
1.417000e+002, 2.112907e+003
1.421821e+002, 2.111681e+003
1.426643e+002, 2.111669e+003
1.431464e+002, 2.116860e+003
1.436285e+002, 2.125819e+003
1.441106e+002, 2.133446e+003
1.445927e+002, 2.138685e+003
1.450748e+002, 2.141977e+003
1.455570e+002, 2.143624e+003
1.460391e+002, 2.143660e+003
1.465212e+002, 2.143589e+003
1.470033e+002, 2.144339e+003
1.474854e+002, 2.145848e+003
1.479675e+002, 2.148858e+003
1.484497e+002, 2.155396e+003
1.489318e+002, 2.162384e+003
1.494139e+002, 2.168305e+003
1.498960e+002, 2.172792e+003
1.503781e+002, 2.176343e+003
1.508602e+002, 2.179382e+003
1.513424e+002, 2.181068e+003
1.518245e+002, 2.184262e+003
1.523066e+002, 2.191052e+003
1.527887e+002, 2.198162e+003
1.532708e+002, 2.202509e+003
1.537529e+002, 2.203010e+003
1.542351e+002, 2.201624e+003
1.547172e+002, 2.203269e+003
1.551993e+002, 2.211551e+003
1.556814e+002, 2.218807e+003
1.561635e+002, 2.224390e+003
1.566456e+002, 2.228853e+003
1.571278e+002, 2.232414e+003
1.576099e+002, 2.235063e+003
1.580920e+002, 2.237467e+003
1.585741e+002, 2.242663e+003
1.590562e+002, 2.253746e+003
1.595383e+002, 2.263727e+003
1.600205e+002, 2.270671e+003
1.605026e+002, 2.275210e+003
1.609847e+002, 2.278529e+003
1.614668e+002, 2.280717e+003
1.619489e+002, 2.282573e+003
1.624310e+002, 2.287168e+003
1.629131e+002, 2.296317e+003
1.633953e+002, 2.306171e+003
1.638774e+002, 2.315311e+003
1.643595e+002, 2.323646e+003
1.648416e+002, 2.329910e+003
1.653237e+002, 2.332241e+003
1.658058e+002, 2.332063e+003
1.662880e+002, 2.332740e+003
1.667701e+002, 2.333717e+003
1.672522e+002, 2.336417e+003
1.677343e+002, 2.343636e+003
1.682164e+002, 2.356543e+003
1.686985e+002, 2.368364e+003
1.691807e+002, 2.373359e+003
1.696628e+002, 2.375258e+003
1.701449e+002, 2.378635e+003
1.706270e+002, 2.386047e+003
1.711091e+002, 2.395454e+003
1.715912e+002, 2.401993e+003
1.720734e+002, 2.404330e+003
1.725555e+002, 2.406069e+003
1.730376e+002, 2.407559e+003
1.735197e+002, 2.409659e+003
1.740018e+002, 2.413855e+003
1.744839e+002, 2.421559e+003
1.749661e+002, 2.432007e+003
1.754482e+002, 2.440367e+003
1.759303e+002, 2.444688e+003
1.764124e+002, 2.448960e+003
1.768945e+002, 2.454294e+003
1.773766e+002, 2.460349e+003
1.778588e+002, 2.466229e+003
1.783409e+002, 2.471134e+003
1.788230e+002, 2.475053e+003
1.793051e+002, 2.480928e+003
1.797872e+002, 2.490362e+003
1.802693e+002, 2.500148e+003
1.807515e+002, 2.509942e+003
1.812336e+002, 2.519365e+003
1.817157e+002, 2.527742e+003
1.821978e+002, 2.534446e+003
1.826799e+002, 2.539292e+003
1.831620e+002, 2.543923e+003
1.836441e+002, 2.546150e+003
1.841263e+002, 2.550031e+003
1.846084e+002, 2.559302e+003
1.850905e+002, 2.572992e+003
1.855726e+002, 2.585854e+003
1.860547e+002, 2.592693e+003
1.865368e+002, 2.592417e+003
1.870190e+002, 2.594075e+003
1.875011e+002, 2.598937e+003
1.879832e+002, 2.604728e+003
1.884653e+002, 2.609364e+003
1.889474e+002, 2.612690e+003
1.894296e+002, 2.616911e+003
1.899117e+002, 2.625018e+003
1.903938e+002, 2.636829e+003
1.908759e+002, 2.646397e+003
1.913580e+002, 2.650724e+003
1.918401e+002, 2.653554e+003
1.923223e+002, 2.659451e+003
1.928044e+002, 2.669343e+003
1.932865e+002, 2.680191e+003
1.937686e+002, 2.689488e+003
1.942507e+002, 2.697516e+003
1.947328e+002, 2.704540e+003
1.952150e+002, 2.710273e+003
1.956971e+002, 2.715125e+003
1.961792e+002, 2.719557e+003
1.966613e+002, 2.722879e+003
1.971434e+002, 2.727438e+003
1.976255e+002, 2.735965e+003
1.981077e+002, 2.747142e+003
1.985898e+002, 2.757480e+003
1.990719e+002, 2.764226e+003
1.995540e+002, 2.768449e+003
2.000361e+002, 2.774883e+003
2.005182e+002, 2.785203e+003
2.010004e+002, 2.795671e+003
2.014825e+002, 2.803771e+003
2.019646e+002, 2.810329e+003
2.024467e+002, 2.817329e+003
2.029288e+002, 2.826385e+003
2.034109e+002, 2.837376e+003
2.038930e+002, 2.847918e+003
2.043752e+002, 2.858125e+003
2.048573e+002, 2.867641e+003
2.053394e+002, 2.876069e+003
2.058215e+002, 2.883655e+003
2.063036e+002, 2.890943e+003
2.067857e+002, 2.898022e+003
2.072679e+002, 2.904791e+003
2.077500e+002, 2.913430e+003
2.082321e+002, 2.927595e+003
2.087142e+002, 2.940374e+003
2.091963e+002, 2.947246e+003
2.096784e+002, 2.950337e+003
2.101606e+002, 2.955718e+003
2.106427e+002, 2.969709e+003
2.111248e+002, 2.993943e+003
2.116069e+002, 3.011313e+003
2.120890e+002, 3.015877e+003
2.125711e+002, 3.019785e+003
2.130533e+002, 3.028040e+003
2.135354e+002, 3.040150e+003
2.140175e+002, 3.052670e+003
2.144996e+002, 3.062146e+003
2.149817e+002, 3.067617e+003
2.154638e+002, 3.077255e+003
2.159460e+002, 3.095685e+003
2.164281e+002, 3.113276e+003
2.169102e+002, 3.123931e+003
2.173923e+002, 3.128568e+003
2.178744e+002, 3.133285e+003
2.183565e+002, 3.143814e+003
2.188387e+002, 3.161094e+003
2.193208e+002, 3.176272e+003
2.198029e+002, 3.188542e+003
2.202850e+002, 3.199721e+003
2.207671e+002, 3.210577e+003
2.212492e+002, 3.221273e+003
2.217314e+002, 3.232021e+003
2.222135e+002, 3.242909e+003
2.226956e+002, 3.253973e+003
2.231777e+002, 3.265728e+003
2.236598e+002, 3.279592e+003
2.241419e+002, 3.293128e+003
2.246240e+002, 3.303240e+003
2.251062e+002, 3.310076e+003
2.255883e+002, 3.318543e+003
2.260704e+002, 3.334303e+003
2.265525e+002, 3.355943e+003
2.270346e+002, 3.372372e+003
2.275167e+002, 3.377362e+003
2.279989e+002, 3.380307e+003
2.284810e+002, 3.391194e+003
2.289631e+002, 3.410734e+003
2.294452e+002, 3.429226e+003
2.299273e+002, 3.437203e+003
2.304094e+002, 3.438578e+003
2.308916e+002, 3.444404e+003
2.313737e+002, 3.459802e+003
2.318558e+002, 3.478569e+003
2.323379e+002, 3.494461e+003
2.328200e+002, 3.507483e+003
2.333021e+002, 3.517503e+003
2.337843e+002, 3.520825e+003
2.342664e+002, 3.521696e+003
2.347485e+002, 3.526945e+003
2.352306e+002, 3.540106e+003
2.357127e+002, 3.556833e+003
2.361948e+002, 3.571635e+003
2.366770e+002, 3.584428e+003
2.371591e+002, 3.595950e+003
2.376412e+002, 3.607835e+003
2.381233e+002, 3.618332e+003
2.386054e+002, 3.624574e+003
2.390875e+002, 3.624044e+003
2.395697e+002, 3.621272e+003
2.400518e+002, 3.623896e+003
2.405339e+002, 3.633581e+003
2.410160e+002, 3.643444e+003
2.414981e+002, 3.650540e+003
2.419802e+002, 3.656623e+003
2.424624e+002, 3.663317e+003
2.429445e+002, 3.671216e+003
2.434266e+002, 3.679714e+003
2.439087e+002, 3.687850e+003
2.443908e+002, 3.695591e+003
2.448729e+002, 3.702950e+003
2.453550e+002, 3.710016e+003
2.458372e+002, 3.716665e+003
2.463193e+002, 3.722596e+003
2.468014e+002, 3.727680e+003
2.472835e+002, 3.732436e+003
2.477656e+002, 3.738345e+003
2.482477e+002, 3.747101e+003
2.487299e+002, 3.752672e+003
2.492120e+002, 3.751823e+003
2.496941e+002, 3.749099e+003
2.501762e+002, 3.747672e+003
2.506583e+002, 3.748552e+003
2.511404e+002, 3.751065e+003
2.516226e+002, 3.754503e+003
2.521047e+002, 3.760166e+003
2.525868e+002, 3.763665e+003
2.530689e+002, 3.763220e+003
2.535510e+002, 3.761790e+003
2.540331e+002, 3.761308e+003
2.545153e+002, 3.762321e+003
2.549974e+002, 3.764302e+003
2.554795e+002, 3.766505e+003
2.559616e+002, 3.768955e+003
2.564437e+002, 3.771629e+003
2.569258e+002, 3.774887e+003
2.574080e+002, 3.778089e+003
2.578901e+002, 3.780900e+003
2.583722e+002, 3.783226e+003
2.588543e+002, 3.785080e+003
2.593364e+002, 3.786213e+003
2.598185e+002, 3.785336e+003
2.603007e+002, 3.787216e+003
2.607828e+002, 3.794515e+003
2.612649e+002, 3.801943e+003
2.617470e+002, 3.806102e+003
2.622291e+002, 3.806758e+003
2.627112e+002, 3.805824e+003
2.631934e+002, 3.805217e+003
2.636755e+002, 3.804308e+003
2.641576e+002, 3.806353e+003
2.646397e+002, 3.812538e+003
2.651218e+002, 3.820009e+003
2.656039e+002, 3.827912e+003
2.660861e+002, 3.835763e+003
2.665682e+002, 3.842781e+003
2.670503e+002, 3.847994e+003
2.675324e+002, 3.850868e+003
2.680145e+002, 3.855338e+003
2.684966e+002, 3.862682e+003
2.689788e+002, 3.870110e+003
2.694609e+002, 3.876337e+003
2.699430e+002, 3.881385e+003
2.704251e+002, 3.885898e+003
2.709072e+002, 3.890439e+003
2.713893e+002, 3.895007e+003
2.718715e+002, 3.898626e+003
2.723536e+002, 3.899756e+003
2.728357e+002, 3.901628e+003
2.733178e+002, 3.905650e+003
2.737999e+002, 3.911553e+003
2.742820e+002, 3.918455e+003
2.747642e+002, 3.925882e+003
2.752463e+002, 3.933779e+003
2.757284e+002, 3.941320e+003
2.762105e+002, 3.948888e+003
2.766926e+002, 3.955815e+003
2.771747e+002, 3.961240e+003
2.776568e+002, 3.965859e+003
2.781389e+002, 3.971428e+003
2.786211e+002, 3.979175e+003
2.791032e+002, 3.988203e+003
2.795853e+002, 3.994549e+003
2.800674e+002, 3.993183e+003
2.805495e+002, 3.995529e+003
2.810316e+002, 4.008152e+003
2.815138e+002, 4.025993e+003
2.819959e+002, 4.040087e+003
2.824780e+002, 4.046477e+003
2.829601e+002, 4.047346e+003
2.834422e+002, 4.047401e+003
2.839243e+002, 4.043897e+003
2.844065e+002, 4.044645e+003
2.848886e+002, 4.054608e+003
2.853707e+002, 4.068925e+003
2.858528e+002, 4.080318e+003
2.863349e+002, 4.086282e+003
2.868170e+002, 4.089565e+003
2.872992e+002, 4.094948e+003
2.877813e+002, 4.103364e+003
2.882634e+002, 4.110464e+003
2.887455e+002, 4.114558e+003
2.892276e+002, 4.117345e+003
2.897097e+002, 4.120212e+003
2.901919e+002, 4.123393e+003
2.906740e+002, 4.128252e+003
2.911561e+002, 4.137533e+003
2.916382e+002, 4.152098e+003
2.921203e+002, 4.163835e+003
2.926024e+002, 4.170720e+003
2.930846e+002, 4.175110e+003
2.935667e+002, 4.178742e+003
2.940488e+002, 4.181901e+003
2.945309e+002, 4.185320e+003
2.950130e+002, 4.189944e+003
2.954951e+002, 4.195755e+003
2.959773e+002, 4.200470e+003
2.964594e+002, 4.201520e+003
2.969415e+002, 4.203224e+003
2.974236e+002, 4.210538e+003
2.979057e+002, 4.222961e+003
2.983878e+002, 4.233700e+003
2.988700e+002, 4.237149e+003
2.993521e+002, 4.234538e+003
2.998342e+002, 4.235327e+003
3.003163e+002, 4.241120e+003
3.007984e+002, 4.248710e+003
3.012805e+002, 4.257718e+003
3.017627e+002, 4.267460e+003
3.022448e+002, 4.274948e+003
3.027269e+002, 4.278132e+003
3.032090e+002, 4.278306e+003
3.036911e+002, 4.279656e+003
3.041732e+002, 4.282929e+003
3.046554e+002, 4.286100e+003
3.051375e+002, 4.286886e+003
3.056196e+002, 4.286812e+003
3.061017e+002, 4.290751e+003
3.065838e+002, 4.301954e+003
3.070659e+002, 4.315419e+003
3.075481e+002, 4.320268e+003
3.080302e+002, 4.314431e+003
3.085123e+002, 4.310463e+003
3.089944e+002, 4.313421e+003
3.094765e+002, 4.320657e+003
3.099586e+002, 4.327937e+003
3.104408e+002, 4.334288e+003
3.109229e+002, 4.339938e+003
3.114050e+002, 4.344047e+003
3.118871e+002, 4.346261e+003
3.123692e+002, 4.352299e+003
3.128513e+002, 4.367302e+003
3.133335e+002, 4.384829e+003
3.138156e+002, 4.397311e+003
3.142977e+002, 4.403546e+003
3.147798e+002, 4.406624e+003
3.152619e+002, 4.407661e+003
3.157440e+002, 4.407155e+003
3.162262e+002, 4.411219e+003
3.167083e+002, 4.425893e+003
3.171904e+002, 4.441384e+003
3.176725e+002, 4.447116e+003
3.181546e+002, 4.443739e+003
3.186367e+002, 4.443666e+003
3.191188e+002, 4.456522e+003
3.196010e+002, 4.479585e+003
3.200831e+002, 4.497808e+003
3.205652e+002, 4.508569e+003
3.210473e+002, 4.517395e+003
3.215294e+002, 4.526596e+003
3.220115e+002, 4.536194e+003
3.224937e+002, 4.546669e+003
3.229758e+002, 4.558628e+003
3.234579e+002, 4.571056e+003
3.239400e+002, 4.580782e+003
3.244221e+002, 4.586166e+003
3.249042e+002, 4.592950e+003
3.253864e+002, 4.603895e+003
3.258685e+002, 4.617542e+003
3.263506e+002, 4.631709e+003
3.268327e+002, 4.646069e+003
3.273148e+002, 4.659548e+003
3.277969e+002, 4.669874e+003
3.282791e+002, 4.676462e+003
3.287612e+002, 4.684043e+003
3.292433e+002, 4.693886e+003
3.297254e+002, 4.704963e+003
3.302075e+002, 4.716194e+003
3.306896e+002, 4.727395e+003
3.311718e+002, 4.738693e+003
3.316539e+002, 4.750381e+003
3.321360e+002, 4.762481e+003
3.326181e+002, 4.774113e+003
3.331002e+002, 4.783258e+003
3.335823e+002, 4.793351e+003
3.340645e+002, 4.808478e+003
3.345466e+002, 4.827845e+003
3.350287e+002, 4.845826e+003
3.355108e+002, 4.858237e+003
3.359929e+002, 4.865704e+003
3.364750e+002, 4.873644e+003
3.369572e+002, 4.882388e+003
3.374393e+002, 4.891229e+003
3.379214e+002, 4.899163e+003
3.384035e+002, 4.906941e+003
3.388856e+002, 4.917129e+003
3.393677e+002, 4.931674e+003
3.398499e+002, 4.947526e+003
3.403320e+002, 4.955511e+003
3.408141e+002, 4.950089e+003
3.412962e+002, 4.948019e+003
3.417783e+002, 4.954374e+003
3.422604e+002, 4.965127e+003
3.427426e+002, 4.975493e+003
3.432247e+002, 4.984073e+003
3.437068e+002, 4.991480e+003
3.441889e+002, 4.998396e+003
3.446710e+002, 5.004477e+003
3.451531e+002, 5.011204e+003
3.456353e+002, 5.020757e+003
3.461174e+002, 5.029434e+003
3.465995e+002, 5.033881e+003
3.470816e+002, 5.034131e+003
3.475637e+002, 5.032834e+003
3.480458e+002, 5.031995e+003
3.485280e+002, 5.031593e+003
3.490101e+002, 5.033358e+003
3.494922e+002, 5.039519e+003
3.499743e+002, 5.045247e+003
3.504564e+002, 5.047364e+003
3.509385e+002, 5.047375e+003
3.514207e+002, 5.049056e+003
3.519028e+002, 5.054721e+003
3.523849e+002, 5.063442e+003
3.528670e+002, 5.071321e+003
3.533491e+002, 5.080954e+003
3.538312e+002, 5.086556e+003
3.543134e+002, 5.082632e+003
3.547955e+002, 5.076195e+003
3.552776e+002, 5.076226e+003
3.557597e+002, 5.085717e+003
3.562418e+002, 5.099540e+003
3.567239e+002, 5.109015e+003
3.572061e+002, 5.111075e+003
3.576882e+002, 5.114804e+003
3.581703e+002, 5.119851e+003
3.586524e+002, 5.126607e+003
3.591345e+002, 5.136799e+003
3.596166e+002, 5.149640e+003
3.600987e+002, 5.161330e+003
3.605808e+002, 5.168008e+003
3.610630e+002, 5.169085e+003
3.615451e+002, 5.170573e+003
3.620272e+002, 5.172042e+003
3.625093e+002, 5.174293e+003
3.629914e+002, 5.177862e+003
3.634735e+002, 5.182411e+003
3.639557e+002, 5.187113e+003
3.644378e+002, 5.191408e+003
3.649199e+002, 5.195703e+003
3.654020e+002, 5.201719e+003
3.658841e+002, 5.209987e+003
3.663662e+002, 5.219519e+003
3.668484e+002, 5.231557e+003
3.673305e+002, 5.244031e+003
3.678126e+002, 5.254928e+003
3.682947e+002, 5.263580e+003
3.687768e+002, 5.270891e+003
3.692589e+002, 5.278308e+003
3.697411e+002, 5.286206e+003
3.702232e+002, 5.293119e+003
3.707053e+002, 5.296229e+003
3.711874e+002, 5.300704e+003
3.716695e+002, 5.310494e+003
3.721516e+002, 5.324755e+003
3.726338e+002, 5.339333e+003
3.731159e+002, 5.350861e+003
3.735980e+002, 5.359343e+003
3.740801e+002, 5.365334e+003
3.745622e+002, 5.363846e+003
3.750443e+002, 5.366220e+003
3.755265e+002, 5.378590e+003
3.760086e+002, 5.396450e+003
3.764907e+002, 5.412442e+003
3.769728e+002, 5.422595e+003
3.774549e+002, 5.430071e+003
3.779370e+002, 5.442173e+003
3.784192e+002, 5.460313e+003
3.789013e+002, 5.479146e+003
3.793834e+002, 5.498539e+003
3.798655e+002, 5.517277e+003
3.803476e+002, 5.533555e+003
3.808297e+002, 5.547086e+003
3.813119e+002, 5.561223e+003
3.817940e+002, 5.580355e+003
3.822761e+002, 5.604388e+003
3.827582e+002, 5.625644e+003
3.832403e+002, 5.641105e+003
3.837224e+002, 5.655993e+003
3.842046e+002, 5.673845e+003
3.846867e+002, 5.694106e+003
3.851688e+002, 5.715138e+003
3.856509e+002, 5.735490e+003
3.861330e+002, 5.755900e+003
3.866151e+002, 5.779009e+003
3.870973e+002, 5.805890e+003
3.875794e+002, 5.831226e+003
3.880615e+002, 5.849740e+003
3.885436e+002, 5.865425e+003
3.890257e+002, 5.883953e+003
3.895078e+002, 5.906784e+003
3.899900e+002, 5.931858e+003
3.904721e+002, 5.957944e+003
3.909542e+002, 5.984980e+003
3.914363e+002, 6.011556e+003
3.919184e+002, 6.036332e+003
3.924005e+002, 6.061605e+003
3.928827e+002, 6.091987e+003
3.933648e+002, 6.128186e+003
3.938469e+002, 6.160593e+003
3.943290e+002, 6.182793e+003
3.948111e+002, 6.199719e+003
3.952932e+002, 6.218523e+003
3.957754e+002, 6.240419e+003
3.962575e+002, 6.264146e+003
3.967396e+002, 6.289286e+003
3.972217e+002, 6.315753e+003
3.977038e+002, 6.341940e+003
3.981859e+002, 6.366907e+003
3.986681e+002, 6.392660e+003
3.991501e+002, 6.421161e+003
3.996323e+002, 6.451767e+003
4.001144e+002, 6.482278e+003
4.005965e+002, 6.511715e+003
4.010786e+002, 6.540089e+003
4.015607e+002, 6.566791e+003
4.020428e+002, 6.590272e+003
4.025250e+002, 6.615009e+003
4.030071e+002, 6.640209e+003
4.034892e+002, 6.667755e+003
4.039713e+002, 6.701980e+003
4.044534e+002, 6.743104e+003
4.049355e+002, 6.783537e+003
4.054177e+002, 6.813575e+003
4.058998e+002, 6.829733e+003
4.063819e+002, 6.851970e+003
4.068640e+002, 6.884724e+003
4.073461e+002, 6.918412e+003
4.078282e+002, 6.948229e+003
4.083104e+002, 6.975149e+003
4.087925e+002, 7.002860e+003
4.092746e+002, 7.034153e+003
4.097567e+002, 7.067738e+003
4.102388e+002, 7.098065e+003
4.107209e+002, 7.118729e+003
4.112031e+002, 7.144498e+003
4.116852e+002, 7.179299e+003
4.121673e+002, 7.218134e+003
4.126494e+002, 7.257600e+003
4.131315e+002, 7.296277e+003
4.136136e+002, 7.332624e+003
4.140958e+002, 7.363777e+003
4.145779e+002, 7.388040e+003
4.150600e+002, 7.414526e+003
4.155421e+002, 7.444362e+003
4.160242e+002, 7.475368e+003
4.165063e+002, 7.505841e+003
4.169885e+002, 7.536944e+003
4.174706e+002, 7.571276e+003
4.179527e+002, 7.611785e+003
4.184348e+002, 7.655886e+003
4.189169e+002, 7.694642e+003
4.193990e+002, 7.724530e+003
4.198812e+002, 7.756516e+003
4.203633e+002, 7.796509e+003
4.208454e+002, 7.838419e+003
4.213275e+002, 7.875604e+003
4.218096e+002, 7.906267e+003
4.222917e+002, 7.936470e+003
4.227739e+002, 7.972233e+003
4.232560e+002, 8.013297e+003
4.237381e+002, 8.056796e+003
4.242202e+002, 8.105646e+003
4.247023e+002, 8.151879e+003
4.251844e+002, 8.187935e+003
4.256666e+002, 8.216270e+003
4.261487e+002, 8.246153e+003
4.266308e+002, 8.282188e+003
4.271129e+002, 8.321711e+003
4.275950e+002, 8.361309e+003
4.280771e+002, 8.401301e+003
4.285593e+002, 8.439516e+003
4.290414e+002, 8.474007e+003
4.295235e+002, 8.506173e+003
4.300056e+002, 8.539436e+003
4.304877e+002, 8.574979e+003
4.309698e+002, 8.609162e+003
4.314520e+002, 8.638456e+003
4.319341e+002, 8.665275e+003
4.324162e+002, 8.695339e+003
4.328983e+002, 8.730312e+003
4.333804e+002, 8.765901e+003
4.338625e+002, 8.796824e+003
4.343447e+002, 8.822253e+003
4.348268e+002, 8.848800e+003
4.353089e+002, 8.878494e+003
4.357910e+002, 8.907790e+003
4.362731e+002, 8.933782e+003
4.367552e+002, 8.957081e+003
4.372374e+002, 8.980359e+003
4.377195e+002, 9.005289e+003
4.382016e+002, 9.031063e+003
4.386837e+002, 9.054206e+003
4.391658e+002, 9.073990e+003
4.396479e+002, 9.092053e+003
4.401301e+002, 9.106479e+003
4.406122e+002, 9.120347e+003
4.410943e+002, 9.137468e+003
4.415764e+002, 9.158033e+003
4.420585e+002, 9.178355e+003
4.425406e+002, 9.194420e+003
4.430227e+002, 9.206373e+003
4.435049e+002, 9.213505e+003
4.439870e+002, 9.211112e+003
4.444691e+002, 9.208760e+003
4.449512e+002, 9.211555e+003
4.454333e+002, 9.215935e+003
4.459154e+002, 9.214765e+003
4.463976e+002, 9.203724e+003
4.468797e+002, 9.188592e+003
4.473618e+002, 9.184301e+003
4.478439e+002, 9.197626e+003
4.483260e+002, 9.201429e+003
4.488081e+002, 9.183769e+003
4.492903e+002, 9.159919e+003
4.497724e+002, 9.138444e+003
4.502545e+002, 9.120053e+003
4.507366e+002, 9.101295e+003
4.512187e+002, 9.079862e+003
4.517008e+002, 9.055911e+003
4.521830e+002, 9.030986e+003
4.526651e+002, 9.005974e+003
4.531472e+002, 8.978033e+003
4.536293e+002, 8.940353e+003
4.541114e+002, 8.899874e+003
4.545935e+002, 8.867701e+003
4.550757e+002, 8.850015e+003
4.555578e+002, 8.833758e+003
4.560399e+002, 8.808291e+003
4.565220e+002, 8.775018e+003
4.570041e+002, 8.738740e+003
4.574862e+002, 8.699337e+003
4.579684e+002, 8.660442e+003
4.584505e+002, 8.628006e+003
4.589326e+002, 8.602006e+003
4.594147e+002, 8.574175e+003
4.598968e+002, 8.543720e+003
4.603789e+002, 8.510552e+003
4.608611e+002, 8.474070e+003
4.613432e+002, 8.434623e+003
4.618253e+002, 8.393409e+003
4.623074e+002, 8.350257e+003
4.627895e+002, 8.306543e+003
4.632716e+002, 8.266991e+003
4.637538e+002, 8.229382e+003
4.642359e+002, 8.198468e+003
4.647180e+002, 8.180146e+003
4.652001e+002, 8.165580e+003
4.656822e+002, 8.144053e+003
4.661643e+002, 8.114310e+003
4.666465e+002, 8.085687e+003
4.671286e+002, 8.069613e+003
4.676107e+002, 8.068142e+003
4.680928e+002, 8.057684e+003
4.685749e+002, 8.026631e+003
4.690570e+002, 7.998773e+003
4.695392e+002, 7.981308e+003
4.700213e+002, 7.970854e+003
4.705034e+002, 7.962239e+003
4.709855e+002, 7.953197e+003
4.714676e+002, 7.944722e+003
4.719497e+002, 7.938935e+003
4.724319e+002, 7.936576e+003
4.729140e+002, 7.933723e+003
4.733961e+002, 7.927505e+003
4.738782e+002, 7.922854e+003
4.743603e+002, 7.923593e+003
4.748424e+002, 7.928792e+003
4.753246e+002, 7.934058e+003
4.758067e+002, 7.935776e+003
4.762888e+002, 7.936197e+003
4.767709e+002, 7.941032e+003
4.772530e+002, 7.951118e+003
4.777351e+002, 7.960039e+003
4.782173e+002, 7.961341e+003
4.786994e+002, 7.961824e+003
4.791815e+002, 7.972277e+003
4.796636e+002, 7.995091e+003
4.801457e+002, 8.020491e+003
4.806278e+002, 8.044792e+003
4.811100e+002, 8.068054e+003
4.815920e+002, 8.089586e+003
4.820742e+002, 8.109095e+003
4.825563e+002, 8.130183e+003
4.830384e+002, 8.156987e+003
4.835205e+002, 8.189295e+003
4.840026e+002, 8.218216e+003
4.844847e+002, 8.241444e+003
4.849669e+002, 8.263888e+003
4.854490e+002, 8.287572e+003
4.859311e+002, 8.311914e+003
4.864132e+002, 8.334717e+003
4.868953e+002, 8.355278e+003
4.873774e+002, 8.377138e+003
4.878596e+002, 8.406847e+003
4.883417e+002, 8.450979e+003
4.888238e+002, 8.485268e+003
4.893059e+002, 8.501690e+003
4.897880e+002, 8.517626e+003
4.902701e+002, 8.541672e+003
4.907523e+002, 8.572033e+003
4.912344e+002, 8.603236e+003
4.917165e+002, 8.632178e+003
4.921986e+002, 8.658994e+003
4.926807e+002, 8.683713e+003
4.931628e+002, 8.705451e+003
4.936450e+002, 8.727438e+003
4.941271e+002, 8.746745e+003
4.946092e+002, 8.769048e+003
4.950913e+002, 8.803544e+003
4.955734e+002, 8.848127e+003
4.960555e+002, 8.884536e+003
4.965377e+002, 8.894658e+003
4.970198e+002, 8.887229e+003
4.975019e+002, 8.885441e+003
4.979840e+002, 8.890236e+003
4.984661e+002, 8.898705e+003
4.989482e+002, 8.913434e+003
4.994304e+002, 8.929241e+003
4.999125e+002, 8.935852e+003
5.003946e+002, 8.929435e+003
5.008767e+002, 8.922062e+003
5.013588e+002, 8.920266e+003
5.018409e+002, 8.921404e+003
5.023231e+002, 8.921730e+003
5.028052e+002, 8.920537e+003
5.032873e+002, 8.915762e+003
5.037694e+002, 8.905293e+003
5.042515e+002, 8.888803e+003
5.047336e+002, 8.870026e+003
5.052158e+002, 8.845899e+003
5.056979e+002, 8.823199e+003
5.061800e+002, 8.807846e+003
5.066621e+002, 8.794389e+003
5.071442e+002, 8.774236e+003
5.076263e+002, 8.744402e+003
5.081085e+002, 8.709297e+003
5.085906e+002, 8.676147e+003
5.090727e+002, 8.646685e+003
5.095548e+002, 8.612664e+003
5.100369e+002, 8.570347e+003
5.105190e+002, 8.527215e+003
5.110012e+002, 8.487319e+003
5.114833e+002, 8.448345e+003
5.119654e+002, 8.405168e+003
5.124475e+002, 8.354538e+003
5.129296e+002, 8.300557e+003
5.134117e+002, 8.251051e+003
5.138939e+002, 8.206649e+003
5.143760e+002, 8.160722e+003
5.148581e+002, 8.112989e+003
5.153402e+002, 8.061557e+003
5.158223e+002, 8.003988e+003
5.163044e+002, 7.941227e+003
5.167866e+002, 7.879461e+003
5.172687e+002, 7.820854e+003
5.177508e+002, 7.764630e+003
5.182329e+002, 7.710194e+003
5.187150e+002, 7.657407e+003
5.191971e+002, 7.604980e+003
5.196793e+002, 7.552910e+003
5.201614e+002, 7.500038e+003
5.206435e+002, 7.444946e+003
5.211256e+002, 7.388509e+003
5.216077e+002, 7.327508e+003
5.220898e+002, 7.256484e+003
5.225720e+002, 7.184324e+003
5.230541e+002, 7.119008e+003
5.235362e+002, 7.061011e+003
5.240183e+002, 7.006595e+003
5.245004e+002, 6.953705e+003
5.249825e+002, 6.902119e+003
5.254647e+002, 6.849255e+003
5.259468e+002, 6.795341e+003
5.264289e+002, 6.740291e+003
5.269110e+002, 6.682936e+003
5.273931e+002, 6.625099e+003
5.278752e+002, 6.568324e+003
5.283574e+002, 6.512845e+003
5.288395e+002, 6.458177e+003
5.293216e+002, 6.403756e+003
5.298037e+002, 6.349859e+003
5.302858e+002, 6.297143e+003
5.307679e+002, 6.245150e+003
5.312501e+002, 6.195783e+003
5.317322e+002, 6.154170e+003
5.322143e+002, 6.113633e+003
5.326964e+002, 6.065431e+003
5.331785e+002, 6.007195e+003
5.336606e+002, 5.949255e+003
5.341428e+002, 5.897598e+003
5.346249e+002, 5.851016e+003
5.351070e+002, 5.807001e+003
5.355891e+002, 5.765377e+003
5.360712e+002, 5.724323e+003
5.365533e+002, 5.682199e+003
5.370355e+002, 5.639555e+003
5.375176e+002, 5.600366e+003
5.379997e+002, 5.569099e+003
5.384818e+002, 5.535380e+003
5.389639e+002, 5.495485e+003
5.394460e+002, 5.451739e+003
5.399282e+002, 5.405367e+003
5.404103e+002, 5.357434e+003
5.408924e+002, 5.311278e+003
5.413745e+002, 5.270899e+003
5.418566e+002, 5.236453e+003
5.423387e+002, 5.202208e+003
5.428209e+002, 5.166686e+003
5.433029e+002, 5.133507e+003
5.437850e+002, 5.106147e+003
5.442672e+002, 5.080262e+003
5.447493e+002, 5.050938e+003
5.452314e+002, 5.016919e+003
5.457135e+002, 4.981029e+003
5.461956e+002, 4.946629e+003
5.466777e+002, 4.913444e+003
5.471599e+002, 4.879430e+003
5.476420e+002, 4.843509e+003
5.481241e+002, 4.808974e+003
5.486062e+002, 4.776533e+003
5.490883e+002, 4.747223e+003
5.495704e+002, 4.723505e+003
5.500526e+002, 4.707773e+003
5.505347e+002, 4.693676e+003
5.510168e+002, 4.679102e+003
5.514989e+002, 4.662904e+003
5.519810e+002, 4.642062e+003
5.524631e+002, 4.615877e+003
5.529453e+002, 4.587300e+003
5.534274e+002, 4.558519e+003
5.539095e+002, 4.529435e+003
5.543916e+002, 4.503223e+003
5.548737e+002, 4.481373e+003
5.553558e+002, 4.460117e+003
5.558380e+002, 4.438930e+003
5.563201e+002, 4.417378e+003
5.568022e+002, 4.394183e+003
5.572843e+002, 4.369399e+003
5.577664e+002, 4.346579e+003
5.582485e+002, 4.330608e+003
5.587307e+002, 4.321940e+003
5.592128e+002, 4.309610e+003
5.596949e+002, 4.292544e+003
5.601770e+002, 4.273233e+003
5.606591e+002, 4.250499e+003
5.611412e+002, 4.227185e+003
5.616234e+002, 4.206770e+003
5.621055e+002, 4.190337e+003
5.625876e+002, 4.175249e+003
5.630697e+002, 4.159897e+003
5.635518e+002, 4.144083e+003
5.640339e+002, 4.126435e+003
5.645161e+002, 4.106057e+003
5.649982e+002, 4.087359e+003
5.654803e+002, 4.074404e+003
5.659624e+002, 4.065801e+003
5.664445e+002, 4.054815e+003
5.669266e+002, 4.039821e+003
5.674088e+002, 4.024784e+003
5.678909e+002, 4.010042e+003
5.683730e+002, 3.996492e+003
5.688551e+002, 3.987073e+003
5.693372e+002, 3.981374e+003
5.698193e+002, 3.972480e+003
5.703015e+002, 3.952885e+003
5.707836e+002, 3.923498e+003
5.712657e+002, 3.903567e+003
5.717478e+002, 3.900789e+003
5.722299e+002, 3.897457e+003
5.727120e+002, 3.893048e+003
5.731942e+002, 3.885502e+003
5.736763e+002, 3.870574e+003
5.741584e+002, 3.848798e+003
5.746405e+002, 3.828802e+003
5.751226e+002, 3.819636e+003
5.756047e+002, 3.818660e+003
5.760869e+002, 3.815057e+003
5.765690e+002, 3.808561e+003
5.770511e+002, 3.800572e+003
5.775332e+002, 3.792080e+003
5.780153e+002, 3.782208e+003
5.784974e+002, 3.769108e+003
5.789796e+002, 3.751605e+003
5.794617e+002, 3.736117e+003
5.799438e+002, 3.727027e+003
5.804259e+002, 3.720073e+003
5.809080e+002, 3.709447e+003
5.813901e+002, 3.695491e+003
5.818723e+002, 3.683346e+003
5.823544e+002, 3.676514e+003
5.828365e+002, 3.673425e+003
5.833186e+002, 3.668665e+003
5.838007e+002, 3.660775e+003
5.842828e+002, 3.653403e+003
5.847650e+002, 3.649059e+003
5.852471e+002, 3.643180e+003
5.857292e+002, 3.630814e+003
5.862113e+002, 3.613973e+003
5.866934e+002, 3.599353e+003
5.871755e+002, 3.591518e+003
5.876577e+002, 3.587810e+003
5.881398e+002, 3.582414e+003
5.886219e+002, 3.575100e+003
5.891040e+002, 3.567466e+003
5.895861e+002, 3.559243e+003
5.900682e+002, 3.551497e+003
5.905504e+002, 3.545629e+003
5.910325e+002, 3.541303e+003
5.915146e+002, 3.536418e+003
5.919967e+002, 3.529778e+003
5.924788e+002, 3.522803e+003
5.929609e+002, 3.516995e+003
5.934431e+002, 3.511934e+003
5.939252e+002, 3.506409e+003
5.944073e+002, 3.500038e+003
5.948894e+002, 3.492651e+003
5.953715e+002, 3.483657e+003
5.958536e+002, 3.472120e+003
5.963358e+002, 3.463273e+003
5.968179e+002, 3.459118e+003
5.973000e+002, 3.455023e+003
5.977821e+002, 3.449224e+003
5.982642e+002, 3.442493e+003
5.987463e+002, 3.435927e+003
5.992285e+002, 3.429909e+003
5.997106e+002, 3.424398e+003
6.001927e+002, 3.419253e+003
6.006748e+002, 3.414459e+003
6.011569e+002, 3.410775e+003
6.016390e+002, 3.409525e+003
6.021212e+002, 3.406621e+003
6.026033e+002, 3.397557e+003
6.030854e+002, 3.385978e+003
6.035675e+002, 3.377564e+003
6.040496e+002, 3.373381e+003
6.045317e+002, 3.371042e+003
6.050139e+002, 3.371352e+003
6.054960e+002, 3.371858e+003
6.059781e+002, 3.368247e+003
6.064602e+002, 3.360413e+003
6.069423e+002, 3.352360e+003
6.074244e+002, 3.347020e+003
6.079066e+002, 3.343780e+003
6.083887e+002, 3.339780e+003
6.088708e+002, 3.334551e+003
6.093529e+002, 3.329246e+003
6.098350e+002, 3.324630e+003
6.103171e+002, 3.319404e+003
6.107993e+002, 3.311806e+003
6.112814e+002, 3.302626e+003
6.117635e+002, 3.294361e+003
6.122456e+002, 3.288214e+003
6.127277e+002, 3.284557e+003
6.132098e+002, 3.285419e+003
6.136920e+002, 3.291411e+003
6.141741e+002, 3.294508e+003
6.146562e+002, 3.291959e+003
6.151383e+002, 3.286895e+003
6.156204e+002, 3.282135e+003
6.161025e+002, 3.277573e+003
6.165847e+002, 3.272582e+003
6.170668e+002, 3.266129e+003
6.175489e+002, 3.260099e+003
6.180310e+002, 3.255689e+003
6.185131e+002, 3.252585e+003
6.189952e+002, 3.250379e+003
6.194774e+002, 3.248901e+003
6.199595e+002, 3.247303e+003
6.204416e+002, 3.244255e+003
6.209237e+002, 3.239457e+003
6.214058e+002, 3.237816e+003
6.218879e+002, 3.244756e+003
6.223701e+002, 3.248160e+003
6.228522e+002, 3.242721e+003
6.233343e+002, 3.234211e+003
6.238164e+002, 3.228447e+003
6.242985e+002, 3.226578e+003
6.247806e+002, 3.226092e+003
6.252628e+002, 3.225289e+003
6.257448e+002, 3.224284e+003
6.262269e+002, 3.223497e+003
6.267090e+002, 3.222979e+003
6.271912e+002, 3.222198e+003
6.276733e+002, 3.221179e+003
6.281554e+002, 3.219500e+003
6.286375e+002, 3.215832e+003
6.291196e+002, 3.209529e+003
6.296017e+002, 3.204659e+003
6.300839e+002, 3.202831e+003
6.305660e+002, 3.201682e+003
6.310481e+002, 3.199766e+003
6.315302e+002, 3.197144e+003
6.320123e+002, 3.194392e+003
6.324944e+002, 3.191784e+003
6.329766e+002, 3.188854e+003
6.334587e+002, 3.184514e+003
6.339408e+002, 3.178192e+003
6.344229e+002, 3.173259e+003
6.349050e+002, 3.169894e+003
6.353871e+002, 3.167877e+003
6.358693e+002, 3.168813e+003
6.363514e+002, 3.170341e+003
6.368335e+002, 3.168439e+003
6.373156e+002, 3.161527e+003
6.377977e+002, 3.154110e+003
6.382798e+002, 3.148871e+003
6.387620e+002, 3.145539e+003
6.392441e+002, 3.144099e+003
6.397262e+002, 3.144468e+003
6.402083e+002, 3.144847e+003
6.406904e+002, 3.144245e+003
6.411725e+002, 3.142594e+003
6.416547e+002, 3.139631e+003
6.421368e+002, 3.134619e+003
6.426189e+002, 3.129265e+003
6.431010e+002, 3.121797e+003
6.435831e+002, 3.115549e+003
6.440652e+002, 3.114318e+003
6.445474e+002, 3.116011e+003
6.450295e+002, 3.114869e+003
6.455116e+002, 3.107479e+003
6.459937e+002, 3.097820e+003
6.464758e+002, 3.092939e+003
6.469579e+002, 3.092785e+003
6.474401e+002, 3.090480e+003
6.479222e+002, 3.084252e+003
6.484043e+002, 3.077416e+003
6.488864e+002, 3.072875e+003
6.493685e+002, 3.069761e+003
6.498506e+002, 3.065366e+003
6.503328e+002, 3.058046e+003
6.508149e+002, 3.051707e+003
6.512970e+002, 3.049684e+003
6.517791e+002, 3.048526e+003
6.522612e+002, 3.042820e+003
6.527433e+002, 3.032940e+003
6.532255e+002, 3.025000e+003
6.537076e+002, 3.023900e+003
6.541897e+002, 3.027422e+003
6.546718e+002, 3.026944e+003
6.551539e+002, 3.020067e+003
6.556360e+002, 3.014962e+003
6.561182e+002, 3.016352e+003
6.566003e+002, 3.016587e+003
6.570824e+002, 3.009972e+003
6.575645e+002, 2.998493e+003
6.580466e+002, 2.988627e+003
6.585287e+002, 2.982596e+003
6.590109e+002, 2.979299e+003
6.594930e+002, 2.979935e+003
6.599751e+002, 2.982409e+003
6.604572e+002, 2.980612e+003
6.609393e+002, 2.973179e+003
6.614214e+002, 2.962788e+003
6.619036e+002, 2.950830e+003
6.623857e+002, 2.937842e+003
6.628678e+002, 2.929733e+003
6.633499e+002, 2.931164e+003
6.638320e+002, 2.931447e+003
6.643141e+002, 2.929934e+003
6.647963e+002, 2.926791e+003
6.652784e+002, 2.921794e+003
6.657605e+002, 2.915279e+003
6.662426e+002, 2.908165e+003
6.667247e+002, 2.900847e+003
6.672068e+002, 2.893484e+003
6.676890e+002, 2.886133e+003
6.681711e+002, 2.878815e+003
6.686532e+002, 2.872257e+003
6.691353e+002, 2.867123e+003
6.696174e+002, 2.861617e+003
6.700995e+002, 2.853600e+003
6.705817e+002, 2.843404e+003
6.710638e+002, 2.834929e+003
6.715459e+002, 2.829667e+003
6.720280e+002, 2.824339e+003
6.725101e+002, 2.817588e+003
6.729922e+002, 2.810495e+003
6.734744e+002, 2.804150e+003
6.739565e+002, 2.798716e+003
6.744386e+002, 2.793854e+003
6.749207e+002, 2.789388e+003
6.754028e+002, 2.785113e+003
6.758849e+002, 2.780353e+003
6.763671e+002, 2.775091e+003
6.768492e+002, 2.769411e+003
6.773313e+002, 2.763092e+003
6.778134e+002, 2.756564e+003
6.782955e+002, 2.750076e+003
6.787776e+002, 2.743668e+003
6.792598e+002, 2.737503e+003
6.797419e+002, 2.731401e+003
6.802240e+002, 2.725842e+003
6.807061e+002, 2.721240e+003
6.811882e+002, 2.717325e+003
6.816703e+002, 2.714360e+003
6.821525e+002, 2.712039e+003
6.826346e+002, 2.707860e+003
6.831167e+002, 2.699325e+003
6.835988e+002, 2.687779e+003
6.840809e+002, 2.679808e+003
6.845630e+002, 2.676416e+003
6.850452e+002, 2.674448e+003
6.855273e+002, 2.675173e+003
6.860094e+002, 2.675751e+003
6.864915e+002, 2.675352e+003
6.869736e+002, 2.673459e+003
6.874557e+002, 2.668709e+003
6.879379e+002, 2.659450e+003
6.884200e+002, 2.649177e+003
6.889021e+002, 2.640312e+003
6.893842e+002, 2.632919e+003
6.898663e+002, 2.627365e+003
6.903484e+002, 2.623665e+003
6.908306e+002, 2.621456e+003
6.913127e+002, 2.620899e+003
6.917948e+002, 2.621236e+003
6.922769e+002, 2.618527e+003
6.927590e+002, 2.610241e+003
6.932411e+002, 2.602919e+003
6.937233e+002, 2.597291e+003
6.942054e+002, 2.592348e+003
6.946875e+002, 2.587503e+003
6.951696e+002, 2.582834e+003
6.956517e+002, 2.578886e+003
6.961339e+002, 2.576260e+003
6.966160e+002, 2.573344e+003
6.970981e+002, 2.566905e+003
6.975802e+002, 2.558566e+003
6.980623e+002, 2.554780e+003
6.985444e+002, 2.556820e+003
6.990266e+002, 2.559148e+003
6.995087e+002, 2.557976e+003
6.999908e+002, 2.554026e+003
7.004729e+002, 2.550096e+003
7.009550e+002, 2.546333e+003
7.014371e+002, 2.542323e+003
7.019193e+002, 2.537678e+003
7.024014e+002, 2.533114e+003
7.028835e+002, 2.528492e+003
7.033656e+002, 2.524396e+003
7.038477e+002, 2.522426e+003
7.043298e+002, 2.523570e+003
7.048120e+002, 2.524456e+003
7.052941e+002, 2.519456e+003
7.057762e+002, 2.510252e+003
7.062583e+002, 2.505667e+003
7.067404e+002, 2.507165e+003
7.072225e+002, 2.508934e+003
7.077046e+002, 2.507779e+003
7.081867e+002, 2.504494e+003
7.086688e+002, 2.500792e+003
7.091509e+002, 2.495584e+003
7.096331e+002, 2.492708e+003
7.101152e+002, 2.495513e+003
7.105973e+002, 2.497649e+003
7.110794e+002, 2.494057e+003
7.115615e+002, 2.487438e+003
7.120436e+002, 2.483281e+003
7.125258e+002, 2.483498e+003
7.130079e+002, 2.484584e+003
7.134900e+002, 2.482510e+003
7.139721e+002, 2.477726e+003
7.144542e+002, 2.472245e+003
7.149363e+002, 2.465836e+003
7.154185e+002, 2.460771e+003
7.159006e+002, 2.458358e+003
7.163827e+002, 2.457658e+003
7.168648e+002, 2.457146e+003
7.173469e+002, 2.456718e+003
7.178290e+002, 2.457071e+003
7.183112e+002, 2.460662e+003
7.187933e+002, 2.462495e+003
7.192754e+002, 2.457999e+003
7.197575e+002, 2.451052e+003
7.202396e+002, 2.447962e+003
7.207217e+002, 2.449958e+003
7.212039e+002, 2.452050e+003
7.216860e+002, 2.448896e+003
7.221681e+002, 2.441989e+003
7.226502e+002, 2.436984e+003
7.231323e+002, 2.433850e+003
7.236144e+002, 2.433019e+003
7.240966e+002, 2.436194e+003
7.245787e+002, 2.439396e+003
7.250608e+002, 2.436960e+003
7.255429e+002, 2.429041e+003
7.260250e+002, 2.424190e+003
7.265071e+002, 2.425698e+003
7.269893e+002, 2.426945e+003
7.274714e+002, 2.424569e+003
7.279535e+002, 2.421267e+003
7.284356e+002, 2.419709e+003
7.289177e+002, 2.420479e+003
7.293998e+002, 2.423644e+003
7.298820e+002, 2.430088e+003
7.303641e+002, 2.437408e+003
7.308462e+002, 2.439665e+003
7.313283e+002, 2.436675e+003
7.318104e+002, 2.432958e+003
7.322925e+002, 2.428387e+003
7.327747e+002, 2.425644e+003
7.332568e+002, 2.428717e+003
7.337389e+002, 2.435751e+003
7.342210e+002, 2.437036e+003
7.347031e+002, 2.426891e+003
7.351852e+002, 2.419781e+003
7.356674e+002, 2.420279e+003
7.361495e+002, 2.423555e+003
7.366316e+002, 2.426404e+003
7.371137e+002, 2.428420e+003
7.375958e+002, 2.429843e+003
7.380779e+002, 2.430742e+003
7.385601e+002, 2.431749e+003
7.390422e+002, 2.434314e+003
7.395243e+002, 2.438139e+003
7.400064e+002, 2.439877e+003
7.404885e+002, 2.438668e+003
7.409706e+002, 2.438274e+003
7.414528e+002, 2.441637e+003
7.419349e+002, 2.446551e+003
7.424170e+002, 2.447644e+003
7.428991e+002, 2.443274e+003
7.433812e+002, 2.441160e+003
7.438633e+002, 2.444250e+003
7.443455e+002, 2.447343e+003
7.448276e+002, 2.447310e+003
7.453097e+002, 2.445634e+003
7.457918e+002, 2.444698e+003
7.462739e+002, 2.445211e+003
7.467560e+002, 2.446476e+003
7.472382e+002, 2.447947e+003
7.477203e+002, 2.449630e+003
7.482024e+002, 2.451612e+003
7.486845e+002, 2.453913e+003
7.491666e+002, 2.456377e+003
7.496487e+002, 2.459549e+003
7.501309e+002, 2.461235e+003
7.506130e+002, 2.457373e+003
7.510951e+002, 2.447320e+003
7.515772e+002, 2.445169e+003
7.520593e+002, 2.458995e+003
7.525414e+002, 2.469506e+003
7.530236e+002, 2.469308e+003
7.535057e+002, 2.466274e+003
7.539878e+002, 2.467854e+003
7.544699e+002, 2.473833e+003
7.549520e+002, 2.479512e+003
7.554341e+002, 2.482639e+003
7.559163e+002, 2.483346e+003
7.563984e+002, 2.479983e+003
7.568805e+002, 2.474028e+003
7.573626e+002, 2.472953e+003
7.578447e+002, 2.478280e+003
7.583268e+002, 2.483596e+003
7.588090e+002, 2.484522e+003
7.592911e+002, 2.481921e+003
7.597732e+002, 2.478546e+003
7.602553e+002, 2.472699e+003
7.607374e+002, 2.469323e+003
7.612195e+002, 2.469859e+003
7.617017e+002, 2.471258e+003
7.621838e+002, 2.472399e+003
7.626659e+002, 2.473380e+003
7.631480e+002, 2.474750e+003
7.636301e+002, 2.476714e+003
7.641122e+002, 2.477906e+003
7.645944e+002, 2.476479e+003
7.650765e+002, 2.474076e+003
7.655586e+002, 2.473602e+003
7.660407e+002, 2.474739e+003
7.665228e+002, 2.475173e+003
7.670049e+002, 2.473980e+003
7.674871e+002, 2.471909e+003
7.679692e+002, 2.469669e+003
7.684513e+002, 2.467124e+003
7.689334e+002, 2.467086e+003
7.694155e+002, 2.471732e+003
7.698976e+002, 2.475266e+003
7.703798e+002, 2.475505e+003
7.708619e+002, 2.474905e+003
7.713440e+002, 2.476273e+003
7.718261e+002, 2.478839e+003
7.723082e+002, 2.478162e+003
7.727903e+002, 2.468876e+003
7.732725e+002, 2.461039e+003
7.737546e+002, 2.464803e+003
7.742367e+002, 2.473201e+003
7.747188e+002, 2.474336e+003
7.752009e+002, 2.467714e+003
7.756830e+002, 2.461747e+003
7.761652e+002, 2.462123e+003
7.766473e+002, 2.465930e+003
7.771294e+002, 2.466015e+003
7.776115e+002, 2.461672e+003
7.780936e+002, 2.458363e+003
7.785757e+002, 2.456454e+003
7.790579e+002, 2.455605e+003
7.795400e+002, 2.456938e+003
7.800221e+002, 2.458667e+003
7.805042e+002, 2.457805e+003
7.809863e+002, 2.453978e+003
7.814684e+002, 2.448990e+003
7.819506e+002, 2.440745e+003
7.824327e+002, 2.434000e+003
7.829148e+002, 2.432861e+003
7.833969e+002, 2.434928e+003
7.838790e+002, 2.436355e+003
7.843611e+002, 2.436015e+003
7.848433e+002, 2.434668e+003
7.853254e+002, 2.432579e+003
7.858075e+002, 2.430276e+003
7.862896e+002, 2.429828e+003
7.867717e+002, 2.431275e+003
7.872538e+002, 2.431688e+003
7.877360e+002, 2.430405e+003
7.882181e+002, 2.427644e+003
7.887002e+002, 2.423170e+003
7.891823e+002, 2.417274e+003
7.896644e+002, 2.412589e+003
7.901465e+002, 2.409741e+003
7.906286e+002, 2.407125e+003
7.911107e+002, 2.403678e+003
7.915928e+002, 2.401312e+003
7.920750e+002, 2.402078e+003
7.925571e+002, 2.404728e+003
7.930392e+002, 2.406432e+003
7.935213e+002, 2.406061e+003
7.940034e+002, 2.405619e+003
7.944855e+002, 2.407675e+003
7.949677e+002, 2.410521e+003
7.954498e+002, 2.410830e+003
7.959319e+002, 2.408647e+003
7.964140e+002, 2.405137e+003
7.968961e+002, 2.400552e+003
7.973782e+002, 2.397234e+003
7.978604e+002, 2.399228e+003
7.983425e+002, 2.406983e+003
7.988246e+002, 2.408418e+003
7.993067e+002, 2.398692e+003
7.997888e+002, 2.391376e+003
8.002709e+002, 2.392373e+003
8.007531e+002, 2.394964e+003
8.012352e+002, 2.393552e+003
8.017173e+002, 2.389073e+003
8.021994e+002, 2.386964e+003
8.026815e+002, 2.390482e+003
8.031636e+002, 2.393966e+003
8.036458e+002, 2.393587e+003
8.041279e+002, 2.392138e+003
8.046100e+002, 2.393489e+003
8.050921e+002, 2.397126e+003
8.055742e+002, 2.399541e+003
8.060563e+002, 2.398749e+003
8.065385e+002, 2.396968e+003
8.070206e+002, 2.398177e+003
8.075027e+002, 2.402072e+003
8.079848e+002, 2.403921e+003
8.084669e+002, 2.403019e+003
8.089490e+002, 2.403046e+003
8.094312e+002, 2.406613e+003
8.099133e+002, 2.410600e+003
8.103954e+002, 2.410009e+003
8.108775e+002, 2.403946e+003
8.113596e+002, 2.398976e+003
8.118417e+002, 2.395971e+003
8.123239e+002, 2.392966e+003
8.128060e+002, 2.387155e+003
8.132881e+002, 2.382757e+003
8.137702e+002, 2.385065e+003
8.142523e+002, 2.393015e+003
8.147344e+002, 2.400556e+003
8.152166e+002, 2.404957e+003
8.156987e+002, 2.407191e+003
8.161808e+002, 2.408004e+003
8.166629e+002, 2.407414e+003
8.171450e+002, 2.404368e+003
8.176271e+002, 2.399292e+003
8.181093e+002, 2.396247e+003
8.185914e+002, 2.397579e+003
8.190735e+002, 2.402072e+003
8.195556e+002, 2.408226e+003
8.200377e+002, 2.417065e+003
8.205198e+002, 2.420695e+003
8.210020e+002, 2.417012e+003
8.214841e+002, 2.412005e+003
8.219662e+002, 2.405667e+003
8.224483e+002, 2.400692e+003
8.229304e+002, 2.401368e+003
8.234125e+002, 2.407435e+003
8.238947e+002, 2.410733e+003
8.243768e+002, 2.407677e+003
8.248589e+002, 2.403950e+003
8.253410e+002, 2.400565e+003
8.258231e+002, 2.398780e+003
8.263052e+002, 2.401333e+003
8.267874e+002, 2.407044e+003
8.272695e+002, 2.411004e+003
8.277516e+002, 2.410234e+003
8.282337e+002, 2.407741e+003
8.287158e+002, 2.408265e+003
8.291979e+002, 2.410798e+003
8.296801e+002, 2.410792e+003
8.301622e+002, 2.407840e+003
8.306443e+002, 2.404578e+003
8.311264e+002, 2.402091e+003
8.316085e+002, 2.400624e+003
8.320906e+002, 2.400656e+003
8.325728e+002, 2.402336e+003
8.330549e+002, 2.404351e+003
8.335370e+002, 2.408222e+003
8.340191e+002, 2.410117e+003
8.345012e+002, 2.409031e+003
8.349833e+002, 2.405885e+003
8.354655e+002, 2.399936e+003
8.359476e+002, 2.392249e+003
8.364297e+002, 2.387296e+003
8.369118e+002, 2.386967e+003
8.373939e+002, 2.388786e+003
8.378760e+002, 2.394031e+003
8.383582e+002, 2.398986e+003
8.388403e+002, 2.398652e+003
8.393224e+002, 2.393871e+003
8.398045e+002, 2.388337e+003
8.402866e+002, 2.383784e+003
8.407687e+002, 2.380865e+003
8.412509e+002, 2.381383e+003
8.417330e+002, 2.384580e+003
8.422151e+002, 2.385986e+003
8.426972e+002, 2.385443e+003
8.431793e+002, 2.384269e+003
8.436614e+002, 2.382641e+003
8.441436e+002, 2.381452e+003
8.446257e+002, 2.382260e+003
8.451078e+002, 2.384938e+003
8.455899e+002, 2.384306e+003
8.460720e+002, 2.376511e+003
8.465541e+002, 2.371001e+003
8.470363e+002, 2.369751e+003
8.475184e+002, 2.369818e+003
8.480005e+002, 2.370010e+003
8.484826e+002, 2.369954e+003
8.489647e+002, 2.368703e+003
8.494468e+002, 2.365336e+003
8.499290e+002, 2.363848e+003
8.504111e+002, 2.368635e+003
8.508932e+002, 2.374570e+003
8.513753e+002, 2.377316e+003
8.518574e+002, 2.376753e+003
8.523395e+002, 2.372206e+003
8.528217e+002, 2.364105e+003
8.533038e+002, 2.357094e+003
8.537859e+002, 2.356423e+003
8.542680e+002, 2.359846e+003
8.547501e+002, 2.360175e+003
8.552322e+002, 2.357423e+003
8.557144e+002, 2.355007e+003
8.561965e+002, 2.353637e+003
8.566786e+002, 2.352409e+003
8.571607e+002, 2.350131e+003
8.576428e+002, 2.347874e+003
8.581249e+002, 2.349462e+003
8.586071e+002, 2.359034e+003
8.590892e+002, 2.363362e+003
8.595713e+002, 2.358614e+003
8.600534e+002, 2.353227e+003
8.605355e+002, 2.349289e+003
8.610176e+002, 2.346786e+003
8.614998e+002, 2.346245e+003
8.619819e+002, 2.347502e+003
8.624640e+002, 2.347563e+003
8.629461e+002, 2.344475e+003
8.634282e+002, 2.340595e+003
8.639103e+002, 2.336332e+003
8.643925e+002, 2.332931e+003
8.648746e+002, 2.333216e+003
8.653567e+002, 2.336452e+003
8.658388e+002, 2.338396e+003
8.663209e+002, 2.336519e+003
8.668030e+002, 2.332729e+003
8.672852e+002, 2.329204e+003
8.677673e+002, 2.326227e+003
8.682494e+002, 2.325844e+003
8.687315e+002, 2.328273e+003
8.692136e+002, 2.329997e+003
8.696957e+002, 2.329488e+003
8.701779e+002, 2.327892e+003
8.706600e+002, 2.326672e+003
8.711421e+002, 2.325828e+003
8.716242e+002, 2.325101e+003
8.721063e+002, 2.325862e+003
8.725884e+002, 2.324309e+003
8.730705e+002, 2.315323e+003
8.735526e+002, 2.308054e+003
8.740347e+002, 2.310371e+003
8.745168e+002, 2.318353e+003
8.749990e+002, 2.321927e+003
8.754811e+002, 2.317857e+003
8.759632e+002, 2.314305e+003
8.764453e+002, 2.316707e+003
8.769274e+002, 2.318153e+003
8.774095e+002, 2.311625e+003
8.778917e+002, 2.301236e+003
8.783738e+002, 2.293839e+003
8.788559e+002, 2.291198e+003
8.793380e+002, 2.291585e+003
8.798201e+002, 2.295054e+003
8.803022e+002, 2.299145e+003
8.807844e+002, 2.298933e+003
8.812665e+002, 2.295805e+003
8.817486e+002, 2.295587e+003
8.822307e+002, 2.298971e+003
8.827128e+002, 2.300829e+003
8.831949e+002, 2.297765e+003
8.836771e+002, 2.291843e+003
8.841592e+002, 2.287184e+003
8.846413e+002, 2.283820e+003
8.851234e+002, 2.281577e+003
8.856055e+002, 2.281323e+003
8.860876e+002, 2.279895e+003
8.865698e+002, 2.275130e+003
8.870519e+002, 2.269799e+003
8.875340e+002, 2.267481e+003
8.880161e+002, 2.267893e+003
8.884982e+002, 2.266536e+003
8.889803e+002, 2.261764e+003
8.894625e+002, 2.257370e+003
8.899446e+002, 2.253850e+003
8.904267e+002, 2.251046e+003
8.909088e+002, 2.249123e+003
8.913909e+002, 2.247775e+003
8.918730e+002, 2.246500e+003
8.923552e+002, 2.245159e+003
8.928373e+002, 2.243877e+003
8.933194e+002, 2.243604e+003
8.938015e+002, 2.242718e+003
8.942836e+002, 2.238072e+003
8.947657e+002, 2.231863e+003
8.952479e+002, 2.229930e+003
8.957300e+002, 2.232624e+003
8.962121e+002, 2.233353e+003
8.966942e+002, 2.226741e+003
8.971763e+002, 2.216856e+003
8.976584e+002, 2.212418e+003
8.981406e+002, 2.212770e+003
8.986227e+002, 2.210734e+003
8.991048e+002, 2.205388e+003
8.995869e+002, 2.201381e+003
9.000690e+002, 2.201386e+003
9.005511e+002, 2.202345e+003
9.010333e+002, 2.199347e+003
9.015154e+002, 2.192084e+003
9.019975e+002, 2.187961e+003
9.024796e+002, 2.190106e+003
9.029617e+002, 2.189510e+003
9.034438e+002, 2.181303e+003
9.039260e+002, 2.173011e+003
9.044081e+002, 2.170302e+003
9.048902e+002, 2.171384e+003
9.053723e+002, 2.171615e+003
9.058544e+002, 2.170046e+003
9.063365e+002, 2.168991e+003
9.068187e+002, 2.170784e+003
9.073008e+002, 2.171365e+003
9.077829e+002, 2.167311e+003
9.082650e+002, 2.161036e+003
9.087471e+002, 2.155397e+003
9.092292e+002, 2.151158e+003
9.097114e+002, 2.148576e+003
9.101935e+002, 2.148972e+003
9.106756e+002, 2.149240e+003
9.111577e+002, 2.145579e+003
9.116398e+002, 2.139773e+003
9.121219e+002, 2.134620e+003
9.126041e+002, 2.130651e+003
9.130862e+002, 2.128849e+003
9.135683e+002, 2.129699e+003
9.140504e+002, 2.129598e+003
9.145325e+002, 2.121830e+003
9.150146e+002, 2.108710e+003
9.154968e+002, 2.105139e+003
9.159789e+002, 2.111589e+003
9.164610e+002, 2.113282e+003
9.169431e+002, 2.105581e+003
9.174252e+002, 2.096699e+003
9.179073e+002, 2.093439e+003
9.183895e+002, 2.094302e+003
9.188716e+002, 2.093825e+003
9.193537e+002, 2.091566e+003
9.198358e+002, 2.089073e+003
9.203179e+002, 2.087044e+003
9.208000e+002, 2.083726e+003
9.212822e+002, 2.076577e+003
9.217643e+002, 2.068943e+003
9.222464e+002, 2.065057e+003
9.227285e+002, 2.064761e+003
9.232106e+002, 2.063260e+003
9.236927e+002, 2.058037e+003
9.241749e+002, 2.054033e+003
9.246570e+002, 2.054307e+003
9.251391e+002, 2.054830e+003
9.256212e+002, 2.051669e+003
9.261033e+002, 2.046466e+003
9.265854e+002, 2.043312e+003
9.270676e+002, 2.043465e+003
9.275497e+002, 2.043679e+003
9.280318e+002, 2.041613e+003
9.285139e+002, 2.038804e+003
9.289960e+002, 2.035628e+003
9.294781e+002, 2.033303e+003
9.299603e+002, 2.035533e+003
9.304424e+002, 2.041652e+003
9.309245e+002, 2.045207e+003
9.314066e+002, 2.041912e+003
9.318887e+002, 2.035046e+003
9.323708e+002, 2.028447e+003
9.328530e+002, 2.022680e+003
9.333351e+002, 2.021378e+003
9.338172e+002, 2.024326e+003
9.342993e+002, 2.024257e+003
9.347814e+002, 2.018175e+003
9.352635e+002, 2.011416e+003
9.357457e+002, 2.010024e+003
9.362278e+002, 2.012906e+003
9.367099e+002, 2.013404e+003
9.371920e+002, 2.010601e+003
9.376741e+002, 2.009546e+003
9.381563e+002, 2.011684e+003
9.386384e+002, 2.013616e+003
9.391205e+002, 2.013082e+003
9.396026e+002, 2.011547e+003
9.400847e+002, 2.011980e+003
9.405668e+002, 2.015152e+003
9.410490e+002, 2.015737e+003
9.415311e+002, 2.012441e+003
9.420132e+002, 2.008465e+003
9.424953e+002, 2.003190e+003
9.429774e+002, 1.998549e+003
9.434595e+002, 1.997231e+003
9.439417e+002, 1.997516e+003
9.444238e+002, 1.993999e+003
9.449059e+002, 1.983314e+003
9.453880e+002, 1.977796e+003
9.458701e+002, 1.987100e+003
9.463522e+002, 1.997355e+003
9.468344e+002, 1.998859e+003
9.473165e+002, 1.995893e+003
9.477986e+002, 1.994850e+003
9.482807e+002, 1.996285e+003
9.487628e+002, 1.996394e+003
9.492449e+002, 1.992259e+003
9.497271e+002, 1.988417e+003
9.502092e+002, 1.990823e+003
9.506913e+002, 1.995376e+003
9.511734e+002, 1.995236e+003
9.516555e+002, 1.991274e+003
9.521376e+002, 1.987393e+003
9.526198e+002, 1.985164e+003
9.531019e+002, 1.985692e+003
9.535840e+002, 1.990776e+003
9.540661e+002, 1.998450e+003
9.545482e+002, 2.005194e+003
9.550303e+002, 2.010497e+003
9.555124e+002, 2.009527e+003
9.559945e+002, 2.001631e+003
9.564766e+002, 1.995286e+003
9.569587e+002, 1.995126e+003
9.574409e+002, 1.998411e+003
9.579230e+002, 2.001115e+003
9.584051e+002, 2.003235e+003
9.588872e+002, 2.003593e+003
9.593693e+002, 2.001477e+003
9.598514e+002, 2.000692e+003
9.603336e+002, 2.002265e+003
9.608157e+002, 2.004963e+003
9.612978e+002, 2.008533e+003
9.617799e+002, 2.012125e+003
9.622620e+002, 2.013167e+003
9.627441e+002, 2.010484e+003
9.632263e+002, 2.008885e+003
9.637084e+002, 2.008522e+003
9.641905e+002, 2.009081e+003
9.646726e+002, 2.010802e+003
9.651547e+002, 2.013122e+003
9.656368e+002, 2.015960e+003
9.661190e+002, 2.019053e+003
9.666011e+002, 2.021230e+003
9.670832e+002, 2.021610e+003
9.675653e+002, 2.022590e+003
9.680474e+002, 2.025781e+003
9.685295e+002, 2.028511e+003
9.690117e+002, 2.027572e+003
9.694938e+002, 2.026185e+003
9.699759e+002, 2.030350e+003
9.704580e+002, 2.039528e+003
9.709401e+002, 2.044405e+003
9.714222e+002, 2.037538e+003
9.719044e+002, 2.030788e+003
9.723865e+002, 2.031970e+003
9.728686e+002, 2.036780e+003
9.733507e+002, 2.041916e+003
9.738328e+002, 2.046494e+003
9.743149e+002, 2.049349e+003
9.747971e+002, 2.050334e+003
9.752792e+002, 2.051617e+003
9.757613e+002, 2.055233e+003
9.762434e+002, 2.059708e+003
9.767255e+002, 2.063214e+003
9.772076e+002, 2.066010e+003
9.776898e+002, 2.068466e+003
9.781719e+002, 2.070782e+003
9.786540e+002, 2.073827e+003
9.791361e+002, 2.078016e+003
9.796182e+002, 2.081256e+003
9.801003e+002, 2.079832e+003
9.805825e+002, 2.075767e+003
9.810646e+002, 2.076381e+003
9.815467e+002, 2.081095e+003
9.820288e+002, 2.084999e+003
9.825109e+002, 2.087119e+003
9.829930e+002, 2.090228e+003
9.834752e+002, 2.096313e+003
9.839573e+002, 2.103541e+003
9.844394e+002, 2.108310e+003
9.849215e+002, 2.110598e+003
9.854036e+002, 2.113180e+003
9.858857e+002, 2.116033e+003
9.863679e+002, 2.119450e+003
9.868500e+002, 2.123778e+003
9.873321e+002, 2.127875e+003
9.878142e+002, 2.130893e+003
9.882963e+002, 2.132874e+003
9.887784e+002, 2.133645e+003
9.892606e+002, 2.132042e+003
9.897427e+002, 2.133488e+003
9.902248e+002, 2.139620e+003
9.907069e+002, 2.145676e+003
9.911890e+002, 2.150580e+003
9.916711e+002, 2.154389e+003
9.921533e+002, 2.156656e+003
9.926354e+002, 2.157760e+003
9.931175e+002, 2.159895e+003
9.935996e+002, 2.162458e+003
9.940817e+002, 2.167132e+003
9.945638e+002, 2.176899e+003
9.950460e+002, 2.185288e+003
9.955281e+002, 2.188413e+003
9.960102e+002, 2.189873e+003
9.964923e+002, 2.193715e+003
9.969744e+002, 2.199771e+003
9.974565e+002, 2.205069e+003
9.979387e+002, 2.208745e+003
9.984208e+002, 2.212112e+003
9.989029e+002, 2.214957e+003
9.993850e+002, 2.218126e+003
9.998671e+002, 2.222083e+003
1.000349e+003, 2.226708e+003
1.000831e+003, 2.232385e+003
1.001313e+003, 2.238815e+003
1.001796e+003, 2.243381e+003
1.002278e+003, 2.242504e+003
1.002760e+003, 2.243306e+003
1.003242e+003, 2.251462e+003
1.003724e+003, 2.261478e+003
1.004206e+003, 2.269354e+003
1.004688e+003, 2.274704e+003
1.005170e+003, 2.276900e+003
1.005653e+003, 2.276332e+003
1.006135e+003, 2.277426e+003
1.006617e+003, 2.284345e+003
1.007099e+003, 2.292262e+003
1.007581e+003, 2.296569e+003
1.008063e+003, 2.299057e+003
1.008545e+003, 2.301696e+003
1.009027e+003, 2.304918e+003
1.009509e+003, 2.309227e+003
1.009992e+003, 2.314691e+003
1.010474e+003, 2.320218e+003
1.010956e+003, 2.324643e+003
1.011438e+003, 2.328755e+003
1.011920e+003, 2.334011e+003
1.012402e+003, 2.339801e+003
1.012884e+003, 2.344308e+003
1.013366e+003, 2.347769e+003
1.013849e+003, 2.352486e+003
1.014331e+003, 2.359449e+003
1.014813e+003, 2.366624e+003
1.015295e+003, 2.371182e+003
1.015777e+003, 2.374707e+003
1.016259e+003, 2.381811e+003
1.016741e+003, 2.391606e+003
1.017223e+003, 2.400582e+003
1.017705e+003, 2.407924e+003
1.018188e+003, 2.410994e+003
1.018670e+003, 2.408212e+003
1.019152e+003, 2.404348e+003
1.019634e+003, 2.406265e+003
1.020116e+003, 2.412707e+003
1.020598e+003, 2.417864e+003
1.021080e+003, 2.421731e+003
1.021562e+003, 2.424054e+003
1.022044e+003, 2.424629e+003
1.022527e+003, 2.426781e+003
1.023009e+003, 2.432415e+003
1.023491e+003, 2.440868e+003
1.023973e+003, 2.452160e+003
1.024455e+003, 2.465789e+003
1.024937e+003, 2.472194e+003
1.025419e+003, 2.470399e+003
1.025901e+003, 2.469098e+003
1.026384e+003, 2.469388e+003
1.026866e+003, 2.472945e+003
1.027348e+003, 2.481645e+003
1.027830e+003, 2.492471e+003
1.028312e+003, 2.499674e+003
1.028794e+003, 2.503143e+003
1.029276e+003, 2.506888e+003
1.029758e+003, 2.510324e+003
1.030240e+003, 2.516617e+003
1.030723e+003, 2.528039e+003
1.031205e+003, 2.538305e+003
1.031687e+003, 2.542165e+003
1.032169e+003, 2.543526e+003
1.032651e+003, 2.551086e+003
1.033133e+003, 2.566267e+003
1.033615e+003, 2.574971e+003
1.034097e+003, 2.572436e+003
1.034579e+003, 2.573913e+003
1.035062e+003, 2.583911e+003
1.035544e+003, 2.596102e+003
1.036026e+003, 2.607504e+003
1.036508e+003, 2.617456e+003
1.036990e+003, 2.624279e+003
1.037472e+003, 2.627369e+003
1.037954e+003, 2.630590e+003
1.038436e+003, 2.634192e+003
1.038919e+003, 2.637438e+003
1.039401e+003, 2.638708e+003
1.039883e+003, 2.641224e+003
1.040365e+003, 2.649028e+003
1.040847e+003, 2.658955e+003
1.041329e+003, 2.663316e+003
1.041811e+003, 2.660142e+003
1.042293e+003, 2.662087e+003
1.042776e+003, 2.673802e+003
1.043258e+003, 2.684514e+003
1.043740e+003, 2.693395e+003
1.044222e+003, 2.699587e+003
1.044704e+003, 2.699804e+003
1.045186e+003, 2.697834e+003
1.045668e+003, 2.701327e+003
1.046150e+003, 2.711552e+003
1.046632e+003, 2.721442e+003
1.047115e+003, 2.730749e+003
1.047597e+003, 2.738926e+003
1.048079e+003, 2.746072e+003
1.048561e+003, 2.751753e+003
1.049043e+003, 2.755100e+003
1.049525e+003, 2.756992e+003
1.050007e+003, 2.758243e+003
1.050489e+003, 2.758540e+003
1.050971e+003, 2.763041e+003
1.051454e+003, 2.777451e+003
1.051936e+003, 2.789718e+003
1.052418e+003, 2.794009e+003
1.052900e+003, 2.797109e+003
1.053382e+003, 2.803566e+003
1.053864e+003, 2.812584e+003
1.054346e+003, 2.822471e+003
1.054828e+003, 2.833051e+003
1.055311e+003, 2.843136e+003
1.055793e+003, 2.854313e+003
1.056275e+003, 2.862394e+003
1.056757e+003, 2.862288e+003
1.057239e+003, 2.862127e+003
1.057721e+003, 2.869675e+003
1.058203e+003, 2.880786e+003
1.058685e+003, 2.886627e+003
1.059167e+003, 2.886049e+003
1.059650e+003, 2.889315e+003
1.060132e+003, 2.902289e+003
1.060614e+003, 2.916275e+003
1.061096e+003, 2.930171e+003
1.061578e+003, 2.941751e+003
1.062060e+003, 2.947742e+003
1.062542e+003, 2.951055e+003
1.063024e+003, 2.956515e+003
1.063506e+003, 2.964768e+003
1.063989e+003, 2.972943e+003
1.064471e+003, 2.979412e+003
1.064953e+003, 2.986465e+003
1.065435e+003, 2.996383e+003
1.065917e+003, 3.005905e+003
1.066399e+003, 3.010228e+003
1.066881e+003, 3.013631e+003
1.067363e+003, 3.024535e+003
1.067846e+003, 3.042843e+003
1.068328e+003, 3.057277e+003
1.068810e+003, 3.061204e+003
1.069292e+003, 3.064821e+003
1.069774e+003, 3.072738e+003
1.070256e+003, 3.082038e+003
1.070738e+003, 3.091281e+003
1.071220e+003, 3.100108e+003
1.071703e+003, 3.108031e+003
1.072185e+003, 3.115244e+003
1.072667e+003, 3.123319e+003
1.073149e+003, 3.133470e+003
1.073631e+003, 3.143046e+003
1.074113e+003, 3.147757e+003
1.074595e+003, 3.154651e+003
1.075077e+003, 3.172623e+003
1.075559e+003, 3.193517e+003
1.076042e+003, 3.205833e+003
1.076524e+003, 3.209869e+003
1.077006e+003, 3.214309e+003
1.077488e+003, 3.222040e+003
1.077970e+003, 3.230767e+003
1.078452e+003, 3.239084e+003
1.078934e+003, 3.248481e+003
1.079416e+003, 3.259287e+003
1.079898e+003, 3.272294e+003
1.080380e+003, 3.291091e+003
1.080863e+003, 3.312968e+003
1.081345e+003, 3.327983e+003
1.081827e+003, 3.331143e+003
1.082309e+003, 3.336984e+003
1.082791e+003, 3.354740e+003
1.083273e+003, 3.374040e+003
1.083755e+003, 3.388637e+003
1.084237e+003, 3.401318e+003
1.084720e+003, 3.415265e+003
1.085202e+003, 3.430132e+003
1.085684e+003, 3.443882e+003
1.086166e+003, 3.455736e+003
1.086648e+003, 3.468490e+003
1.087130e+003, 3.483323e+003
1.087612e+003, 3.499299e+003
1.088094e+003, 3.519005e+003
1.088577e+003, 3.537148e+003
1.089059e+003, 3.546077e+003
1.089541e+003, 3.550397e+003
1.090023e+003, 3.559966e+003
1.090505e+003, 3.576920e+003
1.090987e+003, 3.596497e+003
1.091469e+003, 3.621017e+003
1.091951e+003, 3.642562e+003
1.092433e+003, 3.657542e+003
1.092916e+003, 3.668544e+003
1.093398e+003, 3.674380e+003
1.093880e+003, 3.679046e+003
1.094362e+003, 3.689431e+003
1.094844e+003, 3.706045e+003
1.095326e+003, 3.721571e+003
1.095808e+003, 3.730758e+003
1.096290e+003, 3.742852e+003
1.096772e+003, 3.765360e+003
1.097255e+003, 3.786872e+003
1.097737e+003, 3.798111e+003
1.098219e+003, 3.805324e+003
1.098701e+003, 3.815681e+003
1.099183e+003, 3.830404e+003
1.099665e+003, 3.851296e+003
1.100147e+003, 3.884266e+003
1.100629e+003, 3.911834e+003
1.101112e+003, 3.923708e+003
1.101594e+003, 3.935852e+003
1.102076e+003, 3.958443e+003
1.102558e+003, 3.983577e+003
1.103040e+003, 4.002375e+003
1.103522e+003, 4.015835e+003
1.104004e+003, 4.029952e+003
1.104486e+003, 4.045598e+003
1.104969e+003, 4.062020e+003
1.105451e+003, 4.074912e+003
1.105933e+003, 4.093956e+003
1.106415e+003, 4.129494e+003
1.106897e+003, 4.166145e+003
1.107379e+003, 4.191669e+003
1.107861e+003, 4.208726e+003
1.108343e+003, 4.224483e+003
1.108825e+003, 4.239271e+003
1.109307e+003, 4.254185e+003
1.109790e+003, 4.268890e+003
1.110272e+003, 4.284354e+003
1.110754e+003, 4.300872e+003
1.111236e+003, 4.318013e+003
1.111718e+003, 4.335344e+003
1.112200e+003, 4.353320e+003
1.112682e+003, 4.372658e+003
1.113164e+003, 4.393371e+003
1.113647e+003, 4.414864e+003
1.114129e+003, 4.438328e+003
1.114611e+003, 4.460486e+003
1.115093e+003, 4.479017e+003
1.115575e+003, 4.499042e+003
1.116057e+003, 4.523104e+003
1.116539e+003, 4.549480e+003
1.117021e+003, 4.577360e+003
1.117504e+003, 4.606062e+003
1.117986e+003, 4.630301e+003
1.118468e+003, 4.646743e+003
1.118950e+003, 4.666624e+003
1.119432e+003, 4.693020e+003
1.119914e+003, 4.716331e+003
1.120396e+003, 4.730854e+003
1.120878e+003, 4.745840e+003
1.121360e+003, 4.769371e+003
1.121843e+003, 4.799566e+003
1.122325e+003, 4.831604e+003
1.122807e+003, 4.867005e+003
1.123289e+003, 4.893798e+003
1.123771e+003, 4.907829e+003
1.124253e+003, 4.928803e+003
1.124735e+003, 4.963783e+003
1.125217e+003, 4.997382e+003
1.125699e+003, 5.018801e+003
1.126182e+003, 5.035224e+003
1.126664e+003, 5.058624e+003
1.127146e+003, 5.088723e+003
1.127628e+003, 5.120823e+003
1.128110e+003, 5.155024e+003
1.128592e+003, 5.189227e+003
1.129074e+003, 5.223268e+003
1.129556e+003, 5.254186e+003
1.130039e+003, 5.279942e+003
1.130521e+003, 5.304984e+003
1.131003e+003, 5.334288e+003
1.131485e+003, 5.367024e+003
1.131967e+003, 5.400306e+003
1.132449e+003, 5.434118e+003
1.132931e+003, 5.469306e+003
1.133413e+003, 5.505979e+003
1.133896e+003, 5.537251e+003
1.134378e+003, 5.561071e+003
1.134860e+003, 5.584636e+003
1.135342e+003, 5.613487e+003
1.135824e+003, 5.645642e+003
1.136306e+003, 5.677580e+003
1.136788e+003, 5.709741e+003
1.137270e+003, 5.744125e+003
1.137752e+003, 5.780368e+003
1.138234e+003, 5.817067e+003
1.138717e+003, 5.853768e+003
1.139199e+003, 5.889087e+003
1.139681e+003, 5.922498e+003
1.140163e+003, 5.954358e+003
1.140645e+003, 5.984616e+003
1.141127e+003, 6.014639e+003
1.141609e+003, 6.047282e+003
1.142091e+003, 6.081697e+003
1.142574e+003, 6.115297e+003
1.143056e+003, 6.148745e+003
1.143538e+003, 6.186415e+003
1.144020e+003, 6.228922e+003
1.144502e+003, 6.268772e+003
1.144984e+003, 6.298132e+003
1.145466e+003, 6.329271e+003
1.145948e+003, 6.380323e+003
1.146431e+003, 6.436363e+003
1.146913e+003, 6.479892e+003
1.147395e+003, 6.513295e+003
1.147877e+003, 6.540887e+003
1.148359e+003, 6.565327e+003
1.148841e+003, 6.590847e+003
1.149323e+003, 6.618712e+003
1.149805e+003, 6.651568e+003
1.150287e+003, 6.691900e+003
1.150770e+003, 6.736965e+003
1.151252e+003, 6.787553e+003
1.151734e+003, 6.839556e+003
1.152216e+003, 6.890801e+003
1.152698e+003, 6.939166e+003
1.153180e+003, 6.979762e+003
1.153662e+003, 7.011663e+003
1.154144e+003, 7.046819e+003
1.154626e+003, 7.092608e+003
1.155109e+003, 7.137840e+003
1.155591e+003, 7.179788e+003
1.156073e+003, 7.219036e+003
1.156555e+003, 7.251244e+003
1.157037e+003, 7.284250e+003
1.157519e+003, 7.330259e+003
1.158001e+003, 7.387843e+003
1.158483e+003, 7.441871e+003
1.158966e+003, 7.490560e+003
1.159448e+003, 7.537329e+003
1.159930e+003, 7.580413e+003
1.160412e+003, 7.624499e+003
1.160894e+003, 7.669725e+003
1.161376e+003, 7.718061e+003
1.161858e+003, 7.773813e+003
1.162340e+003, 7.831813e+003
1.162822e+003, 7.879307e+003
1.163305e+003, 7.914530e+003
1.163787e+003, 7.959862e+003
1.164269e+003, 8.019698e+003
1.164751e+003, 8.076656e+003
1.165233e+003, 8.128058e+003
1.165715e+003, 8.176397e+003
1.166197e+003, 8.221543e+003
1.166679e+003, 8.267865e+003
1.167161e+003, 8.320389e+003
1.167644e+003, 8.378713e+003
1.168126e+003, 8.444017e+003
1.168608e+003, 8.516747e+003
1.169090e+003, 8.581541e+003
1.169572e+003, 8.637365e+003
1.170054e+003, 8.690029e+003
1.170536e+003, 8.740709e+003
1.171018e+003, 8.795275e+003
1.171500e+003, 8.858068e+003
1.171983e+003, 8.925275e+003
1.172465e+003, 8.993543e+003
1.172947e+003, 9.060300e+003
1.173429e+003, 9.114019e+003
1.173911e+003, 9.159069e+003
1.174393e+003, 9.212104e+003
1.174875e+003, 9.274497e+003
1.175357e+003, 9.340983e+003
1.175840e+003, 9.409604e+003
1.176322e+003, 9.477747e+003
1.176804e+003, 9.543120e+003
1.177286e+003, 9.608427e+003
1.177768e+003, 9.675580e+003
1.178250e+003, 9.745873e+003
1.178732e+003, 9.824531e+003
1.179214e+003, 9.906438e+003
1.179697e+003, 9.980903e+003
1.180179e+003, 1.004826e+004
1.180661e+003, 1.011648e+004
1.181143e+003, 1.018930e+004
1.181625e+003, 1.025932e+004
1.182107e+003, 1.031640e+004
1.182589e+003, 1.037545e+004
1.183071e+003, 1.044495e+004
1.183553e+003, 1.052178e+004
1.184036e+003, 1.061022e+004
1.184518e+003, 1.070016e+004
1.185000e+003, 1.076847e+004
1.185482e+003, 1.081423e+004
1.185964e+003, 1.087987e+004
1.186446e+003, 1.099408e+004
1.186928e+003, 1.109834e+004
1.187410e+003, 1.117403e+004
1.187892e+003, 1.124932e+004
1.188375e+003, 1.133850e+004
1.188857e+003, 1.143010e+004
1.189339e+003, 1.150982e+004
1.189821e+003, 1.158422e+004
1.190303e+003, 1.167135e+004
1.190785e+003, 1.177474e+004
1.191267e+003, 1.186882e+004
1.191749e+003, 1.194780e+004
1.192232e+003, 1.203296e+004
1.192714e+003, 1.212808e+004
1.193196e+003, 1.222820e+004
1.193678e+003, 1.233219e+004
1.194160e+003, 1.243525e+004
1.194642e+003, 1.253009e+004
1.195124e+003, 1.261964e+004
1.195606e+003, 1.271444e+004
1.196089e+003, 1.281431e+004
1.196571e+003, 1.291824e+004
1.197053e+003, 1.302523e+004
1.197535e+003, 1.312701e+004
1.198017e+003, 1.322161e+004
1.198499e+003, 1.332097e+004
1.198981e+003, 1.343275e+004
1.199463e+003, 1.354809e+004
1.199945e+003, 1.365395e+004
1.200427e+003, 1.375512e+004
1.200910e+003, 1.386592e+004
1.201392e+003, 1.397910e+004
1.201874e+003, 1.407567e+004
1.202356e+003, 1.416050e+004
1.202838e+003, 1.425023e+004
1.203320e+003, 1.435108e+004
1.203802e+003, 1.446624e+004
1.204284e+003, 1.460218e+004
1.204767e+003, 1.473921e+004
1.205249e+003, 1.486303e+004
1.205731e+003, 1.498017e+004
1.206213e+003, 1.509345e+004
1.206695e+003, 1.520409e+004
1.207177e+003, 1.530866e+004
1.207659e+003, 1.541332e+004
1.208141e+003, 1.553657e+004
1.208624e+003, 1.568325e+004
1.209106e+003, 1.581875e+004
1.209588e+003, 1.592369e+004
1.210070e+003, 1.603237e+004
1.210552e+003, 1.615418e+004
1.211034e+003, 1.628014e+004
1.211516e+003, 1.640698e+004
1.211998e+003, 1.653483e+004
1.212480e+003, 1.666508e+004
1.212963e+003, 1.679613e+004
1.213445e+003, 1.691872e+004
1.213927e+003, 1.702750e+004
1.214409e+003, 1.715605e+004
1.214891e+003, 1.731180e+004
1.215373e+003, 1.745568e+004
1.215855e+003, 1.757792e+004
1.216337e+003, 1.769953e+004
1.216819e+003, 1.783073e+004
1.217302e+003, 1.796841e+004
1.217784e+003, 1.810871e+004
1.218266e+003, 1.825250e+004
1.218748e+003, 1.840567e+004
1.219230e+003, 1.856384e+004
1.219712e+003, 1.869966e+004
1.220194e+003, 1.881830e+004
1.220676e+003, 1.895203e+004
1.221159e+003, 1.910670e+004
1.221641e+003, 1.926518e+004
1.222123e+003, 1.941900e+004
1.222605e+003, 1.957224e+004
1.223087e+003, 1.972958e+004
1.223569e+003, 1.988813e+004
1.224051e+003, 2.004140e+004
1.224533e+003, 2.019624e+004
1.225016e+003, 2.035996e+004
1.225498e+003, 2.053080e+004
1.225980e+003, 2.070574e+004
1.226462e+003, 2.088178e+004
1.226944e+003, 2.105463e+004
1.227426e+003, 2.122057e+004
1.227908e+003, 2.138480e+004
1.228390e+003, 2.154263e+004
1.228872e+003, 2.170582e+004
1.229354e+003, 2.188523e+004
1.229837e+003, 2.206611e+004
1.230319e+003, 2.223226e+004
1.230801e+003, 2.239473e+004
1.231283e+003, 2.257600e+004
1.231765e+003, 2.277595e+004
1.232247e+003, 2.296418e+004
1.232729e+003, 2.313626e+004
1.233211e+003, 2.331057e+004
1.233694e+003, 2.348894e+004
1.234176e+003, 2.366851e+004
1.234658e+003, 2.384838e+004
1.235140e+003, 2.403257e+004
1.235622e+003, 2.422617e+004
1.236104e+003, 2.442016e+004
1.236586e+003, 2.459541e+004
1.237068e+003, 2.475950e+004
1.237551e+003, 2.495499e+004
1.238033e+003, 2.517049e+004
1.238515e+003, 2.535471e+004
1.238997e+003, 2.551047e+004
1.239479e+003, 2.568003e+004
1.239961e+003, 2.587516e+004
1.240443e+003, 2.608290e+004
1.240925e+003, 2.629673e+004
1.241407e+003, 2.651232e+004
1.241890e+003, 2.672807e+004
1.242372e+003, 2.694113e+004
1.242854e+003, 2.715074e+004
1.243336e+003, 2.735753e+004
1.243818e+003, 2.755888e+004
1.244300e+003, 2.776037e+004
1.244782e+003, 2.797212e+004
1.245264e+003, 2.819633e+004
1.245746e+003, 2.842151e+004
1.246229e+003, 2.864978e+004
1.246711e+003, 2.886810e+004
1.247193e+003, 2.906688e+004
1.247675e+003, 2.926625e+004
1.248157e+003, 2.947231e+004
1.248639e+003, 2.968143e+004
1.249121e+003, 2.988639e+004
1.249603e+003, 3.009761e+004
1.250085e+003, 3.033980e+004
1.250568e+003, 3.060944e+004
1.251050e+003, 3.085329e+004
1.251532e+003, 3.106943e+004
1.252014e+003, 3.127466e+004
1.252496e+003, 3.147012e+004
1.252978e+003, 3.167849e+004
1.253460e+003, 3.190661e+004
1.253942e+003, 3.213989e+004
1.254425e+003, 3.236730e+004
1.254907e+003, 3.259133e+004
1.255389e+003, 3.281129e+004
1.255871e+003, 3.302921e+004
1.256353e+003, 3.324613e+004
1.256835e+003, 3.346355e+004
1.257317e+003, 3.367647e+004
1.257799e+003, 3.389038e+004
1.258281e+003, 3.412720e+004
1.258764e+003, 3.438345e+004
1.259246e+003, 3.461941e+004
1.259728e+003, 3.481220e+004
1.260210e+003, 3.500366e+004
1.260692e+003, 3.521795e+004
1.261174e+003, 3.542921e+004
1.261656e+003, 3.561335e+004
1.262138e+003, 3.580304e+004
1.262620e+003, 3.603768e+004
1.263103e+003, 3.628665e+004
1.263585e+003, 3.649554e+004
1.264067e+003, 3.667045e+004
1.264549e+003, 3.685264e+004
1.265031e+003, 3.704298e+004
1.265513e+003, 3.723862e+004
1.265995e+003, 3.744016e+004
1.266477e+003, 3.764170e+004
1.266960e+003, 3.784430e+004
1.267442e+003, 3.802855e+004
1.267924e+003, 3.818273e+004
1.268406e+003, 3.832244e+004
1.268888e+003, 3.846526e+004
1.269370e+003, 3.861327e+004
1.269852e+003, 3.877117e+004
1.270334e+003, 3.893919e+004
1.270817e+003, 3.912853e+004
1.271299e+003, 3.932709e+004
1.271781e+003, 3.950429e+004
1.272263e+003, 3.965623e+004
1.272745e+003, 3.979002e+004
1.273227e+003, 3.990823e+004
1.273709e+003, 4.002574e+004
1.274191e+003, 4.014998e+004
1.274673e+003, 4.027904e+004
1.275156e+003, 4.040347e+004
1.275638e+003, 4.054349e+004
1.276120e+003, 4.074160e+004
1.276602e+003, 4.094060e+004
1.277084e+003, 4.106503e+004
1.277566e+003, 4.113699e+004
1.278048e+003, 4.123520e+004
1.278530e+003, 4.136433e+004
1.279012e+003, 4.147811e+004
1.279495e+003, 4.156488e+004
1.279977e+003, 4.167575e+004
1.280459e+003, 4.182649e+004
1.280941e+003, 4.195281e+004
1.281423e+003, 4.202932e+004
1.281905e+003, 4.209159e+004
1.282387e+003, 4.216734e+004
1.282869e+003, 4.225372e+004
1.283352e+003, 4.235525e+004
1.283834e+003, 4.245390e+004
1.284316e+003, 4.250754e+004
1.284798e+003, 4.251824e+004
##END=



