##NAMES=Graphite
##RRUFFID=R050503
##IDEAL CHEMISTRY=C
##LOCALITY=Sterling mine, Ogdensburg, New Jersey, USA
##OWNER=RRUFF
##SOURCE=Marcus Origlieri
##DESCRIPTION=Black hexagonal platy crystals
##STATUS=The identification of this mineral has been confirmed by X-ray diffraction.
##URL=rruff.info/R050503
149.8794, 23.89193
150.3615, 24.03690
150.8436, 24.08765
151.3257, 23.78759
151.8078, 23.29922
152.2900, 22.99075
152.7721, 22.93607
153.2542, 22.94538
153.7363, 22.96983
154.2184, 22.99008
154.7005, 22.98447
155.1827, 22.96048
155.6648, 22.90542
156.1469, 22.68744
156.6290, 22.13028
157.1111, 21.57079
157.5932, 21.07882
158.0754, 20.65208
158.5575, 20.26922
159.0396, 19.91390
159.5217, 19.58762
160.0038, 19.27765
160.4859, 18.80765
160.9681, 18.50165
161.4502, 18.63206
161.9323, 19.11750
162.4144, 19.60518
162.8965, 19.71859
163.3786, 19.33176
163.8608, 19.09317
164.3429, 18.99821
164.8250, 19.03518
165.3071, 19.30665
165.7892, 19.80240
166.2713, 20.22367
166.7535, 20.10172
167.2356, 19.31244
167.7177, 18.93749
168.1998, 19.38032
168.6819, 20.19844
169.1640, 20.86463
169.6462, 21.28401
170.1283, 21.49944
170.6104, 21.56008
171.0925, 21.48867
171.5746, 21.20186
172.0567, 20.43731
172.5389, 19.40839
173.0210, 18.77624
173.5031, 18.85866
173.9852, 19.09767
174.4673, 18.91512
174.9494, 18.35964
175.4316, 17.89669
175.9137, 17.97000
176.3958, 18.55704
176.8779, 18.90096
177.3600, 18.63696
177.8421, 18.31625
178.3243, 18.34579
178.8064, 18.70044
179.2885, 18.98199
179.7706, 18.61380
180.2527, 17.32182
180.7348, 16.62585
181.2169, 17.21121
181.6991, 17.97661
182.1812, 18.36728
182.6633, 18.29578
183.1454, 18.00993
183.6275, 17.85627
184.1096, 17.92252
184.5918, 17.93964
185.0739, 17.75385
185.5560, 17.62339
186.0381, 17.81938
186.5202, 18.37414
187.0023, 19.01644
187.4845, 19.28113
187.9666, 18.83562
188.4487, 18.50694
188.9308, 18.44494
189.4129, 18.42034
189.8951, 18.14640
190.3772, 17.53369
190.8593, 16.84274
191.3414, 16.59558
191.8235, 17.08188
192.3056, 17.46693
192.7878, 17.58922
193.2699, 17.58594
193.7520, 17.68981
194.2341, 18.01282
194.7162, 18.35410
195.1983, 18.22178
195.6805, 17.51684
196.1626, 16.85034
196.6447, 16.35499
197.1268, 16.02951
197.6089, 15.86901
198.0910, 15.87448
198.5732, 16.05647
199.0553, 16.50203
199.5374, 17.30063
200.0195, 17.89189
200.5016, 17.86593
200.9837, 17.33028
201.4659, 16.82371
201.9480, 16.54681
202.4301, 16.31506
202.9122, 15.83442
203.3943, 15.05902
203.8764, 14.46165
204.3586, 14.59188
204.8407, 15.43852
205.3228, 16.00305
205.8049, 15.76116
206.2870, 15.34970
206.7691, 15.23374
207.2513, 15.46159
207.7334, 15.77490
208.2155, 15.90579
208.6976, 15.82873
209.1797, 15.71955
209.6618, 15.58048
210.1440, 15.43400
210.6261, 15.28370
211.1082, 15.13363
211.5903, 14.99863
212.0724, 14.88671
212.5545, 14.77554
213.0367, 14.76260
213.5188, 14.91294
214.0009, 15.11177
214.4830, 15.34553
214.9651, 15.58855
215.4472, 15.74910
215.9294, 15.67488
216.4115, 15.22292
216.8936, 14.82378
217.3757, 14.32002
217.8578, 13.96543
218.3399, 13.98382
218.8221, 14.40243
219.3042, 15.02315
219.7863, 15.56272
220.2684, 16.05894
220.7505, 16.36552
221.2326, 16.42163
221.7148, 16.35223
222.1969, 16.18770
222.6790, 15.95761
223.1611, 15.78071
223.6432, 15.85151
224.1253, 16.42100
224.6075, 16.70995
225.0896, 16.53531
225.5717, 16.18741
226.0538, 15.92224
226.5359, 15.80111
227.0180, 15.70546
227.5002, 15.43640
227.9823, 14.84925
228.4644, 14.58104
228.9465, 14.98537
229.4286, 15.57700
229.9107, 15.82117
230.3929, 15.59407
230.8750, 15.17172
231.3571, 14.84477
231.8392, 14.59875
232.3213, 14.56636
232.8034, 14.95256
233.2856, 15.49645
233.7677, 15.94014
234.2498, 16.26614
234.7319, 16.32268
235.2140, 15.67476
235.6961, 14.42854
236.1783, 13.54673
236.6604, 13.45825
237.1425, 13.81851
237.6246, 14.07798
238.1067, 14.12207
238.5888, 14.24199
239.0710, 14.99318
239.5531, 16.13146
240.0352, 16.77888
240.5173, 16.21471
240.9994, 15.06232
241.4815, 14.55736
241.9637, 14.97287
242.4458, 15.51902
242.9279, 15.64282
243.4100, 15.46918
243.8921, 15.22316
244.3742, 14.91180
244.8563, 14.60484
245.3385, 14.48715
245.8206, 14.63888
246.3027, 14.80174
246.7848, 14.79628
247.2669, 14.70813
247.7490, 14.67553
248.2312, 14.78191
248.7133, 14.97282
249.1954, 15.14018
249.6775, 15.34091
250.1596, 15.38374
250.6417, 15.11216
251.1239, 14.68022
251.6060, 14.25089
252.0881, 13.86011
252.5702, 13.57018
253.0523, 13.59718
253.5344, 14.18362
254.0166, 14.60535
254.4987, 14.65628
254.9808, 14.45604
255.4629, 14.07127
255.9450, 13.49384
256.4272, 12.88529
256.9093, 12.66764
257.3914, 13.17767
257.8735, 13.43923
258.3556, 13.00246
258.8377, 12.39285
259.3199, 12.15350
259.8020, 12.50288
260.2841, 13.12729
260.7662, 13.33640
261.2483, 12.74900
261.7304, 12.48700
262.2126, 12.99772
262.6947, 13.64998
263.1768, 13.88523
263.6589, 13.53775
264.1410, 12.90938
264.6231, 12.53882
265.1053, 12.57244
265.5874, 12.58671
266.0695, 12.48936
266.5516, 12.41396
267.0337, 12.49709
267.5158, 12.75170
267.9980, 13.04360
268.4801, 13.15852
268.9622, 12.96891
269.4443, 12.88174
269.9264, 13.00363
270.4085, 13.12876
270.8907, 13.10367
271.3728, 12.92117
271.8549, 12.70169
272.3370, 12.60181
272.8191, 12.69687
273.3012, 12.65591
273.7833, 12.25839
274.2654, 11.93383
274.7476, 12.08887
275.2297, 12.62795
275.7118, 13.00543
276.1939, 12.61262
276.6760, 11.22358
277.1581, 10.52018
277.6403, 10.83468
278.1224, 11.35902
278.6045, 11.78769
279.0866, 12.10060
279.5687, 12.40460
280.0508, 12.80825
280.5330, 13.31892
281.0151, 13.52929
281.4972, 13.20328
281.9793, 12.88306
282.4614, 12.80380
282.9435, 12.89174
283.4257, 12.93381
283.9078, 12.78090
284.3899, 12.46859
284.8720, 12.31931
285.3541, 12.54865
285.8362, 12.67417
286.3184, 12.51256
286.8005, 12.16505
287.2826, 11.77214
287.7647, 11.38457
288.2468, 11.07279
288.7289, 11.10991
289.2111, 11.96158
289.6932, 12.56011
290.1753, 12.64231
290.6574, 12.40460
291.1395, 12.04741
291.6216, 11.63011
292.1038, 11.28876
292.5859, 11.34255
293.0680, 12.13200
293.5501, 12.65750
294.0322, 12.66245
294.5143, 12.42922
294.9965, 12.27159
295.4786, 12.27399
295.9607, 12.30714
296.4428, 12.16105
296.9249, 11.69327
297.4070, 11.50765
297.8892, 11.87231
298.3713, 12.37610
298.8534, 12.69368
299.3355, 12.76805
299.8176, 12.66086
300.2997, 12.41227
300.7819, 11.99160
301.2640, 11.58583
301.7461, 11.03426
302.2282, 10.62105
302.7103, 10.64293
303.1924, 11.05320
303.6746, 11.46145
304.1567, 11.55307
304.6388, 11.34749
305.1209, 11.29311
305.6030, 11.54906
306.0851, 11.78758
306.5673, 11.85542
307.0494, 11.77022
307.5315, 11.58502
308.0136, 11.29664
308.4957, 10.95770
308.9778, 10.80600
309.4600, 10.97390
309.9421, 11.12773
310.4242, 11.02853
310.9063, 10.85250
311.3884, 11.04831
311.8705, 11.88105
312.3527, 12.92060
312.8348, 13.14018
313.3169, 12.18947
313.7990, 11.39430
314.2811, 10.96768
314.7632, 10.85707
315.2454, 11.11899
315.7275, 11.78642
316.2096, 12.49018
316.6917, 12.70497
317.1738, 12.32332
317.6559, 11.88713
318.1381, 11.26176
318.6202, 10.70246
319.1023, 10.40292
319.5844, 10.39597
320.0665, 10.74605
320.5486, 11.71486
321.0308, 13.35889
321.5129, 13.89709
321.9950, 12.29241
322.4771, 10.49592
322.9592, 9.750190
323.4413, 9.970830
323.9235, 10.41886
324.4056, 10.65238
324.8877, 10.69001
325.3698, 10.69359
325.8519, 10.45904
326.3340, 10.41080
326.8162, 10.93775
327.2983, 11.76120
327.7804, 12.26378
328.2625, 12.12042
328.7446, 11.56895
329.2267, 11.22995
329.7089, 11.16619
330.1910, 11.16021
330.6731, 11.24631
331.1552, 11.34344
331.6373, 11.36660
332.1194, 11.29215
332.6016, 11.08024
333.0837, 10.59081
333.5658, 9.523562
334.0479, 9.173263
334.5300, 10.42568
335.0121, 11.85142
335.4943, 12.16023
335.9764, 11.26410
336.4585, 10.07888
336.9406, 9.413935
337.4227, 9.320884
337.9048, 9.354054
338.3870, 9.531952
338.8691, 9.801282
339.3512, 10.25060
339.8333, 10.78703
340.3154, 11.15631
340.7975, 11.19011
341.2797, 10.93118
341.7618, 10.64789
342.2439, 10.07819
342.7260, 9.791133
343.2081, 10.17693
343.6902, 10.85853
344.1724, 11.25357
344.6545, 11.11888
345.1366, 10.68213
345.6187, 10.41229
346.1008, 10.39836
346.5829, 10.44220
347.0651, 10.63588
347.5472, 10.83345
348.0293, 10.90225
348.5114, 10.82044
348.9935, 10.65685
349.4756, 10.48074
349.9578, 10.26964
350.4399, 10.15568
350.9220, 10.22604
351.4041, 10.29895
351.8862, 10.25606
352.3683, 10.12593
352.8505, 10.00561
353.3326, 9.953840
353.8147, 9.978045
354.2968, 10.20886
354.7789, 11.11448
355.2610, 11.69197
355.7432, 11.60116
356.2253, 11.09108
356.7074, 10.42592
357.1895, 9.725959
357.6716, 9.130183
358.1537, 9.034043
358.6359, 10.13626
359.1180, 10.65059
359.6001, 9.929257
360.0822, 9.019766
360.5643, 8.930042
361.0464, 9.772496
361.5286, 10.72729
362.0107, 10.67591
362.4928, 9.211047
362.9749, 8.322164
363.4570, 8.257251
363.9391, 8.488772
364.4213, 8.979342
364.9034, 9.597686
365.3855, 10.11140
365.8676, 10.34963
366.3497, 10.32715
366.8318, 10.17080
367.3140, 9.738452
367.7961, 9.349316
368.2782, 8.987424
368.7603, 8.735826
369.2424, 8.721060
369.7245, 9.003803
370.2067, 9.454649
370.6888, 9.839835
371.1709, 10.18851
371.6530, 10.38758
372.1351, 10.29107
372.6172, 10.14234
373.0994, 10.15201
373.5815, 10.32236
374.0636, 10.42693
374.5457, 10.10532
375.0278, 9.317310
375.5099, 8.994368
375.9921, 9.692204
376.4742, 10.27066
376.9563, 10.08386
377.4384, 9.376388
377.9205, 8.740581
378.4026, 8.535633
378.8848, 8.614726
379.3669, 8.541533
379.8490, 8.205487
380.3311, 8.011226
380.8132, 8.253170
381.2953, 8.658978
381.7775, 8.959913
382.2596, 9.076841
382.7417, 9.124760
383.2238, 9.248111
383.7059, 9.444873
384.1880, 9.519240
384.6702, 9.249819
385.1523, 9.031676
385.6344, 9.367417
386.1165, 10.20082
386.5986, 10.75311
387.0807, 10.34898
387.5629, 9.379551
388.0450, 8.812185
388.5271, 8.794249
389.0092, 8.926893
389.4913, 8.943477
389.9734, 8.892456
390.4556, 8.879850
390.9377, 8.923623
391.4198, 9.016565
391.9019, 9.227375
392.3840, 9.529620
392.8661, 9.634198
393.3483, 9.304111
393.8304, 8.814340
394.3125, 8.759092
394.7946, 9.328535
395.2767, 9.687711
395.7589, 9.316758
396.2410, 8.578352
396.7231, 8.075090
397.2052, 7.946193
397.6873, 7.996244
398.1694, 8.014257
398.6515, 7.993346
399.1336, 8.094171
399.6158, 8.386814
400.0979, 8.752973
400.5800, 9.239360
401.0621, 9.765538
401.5442, 9.991168
402.0263, 9.643020
402.5085, 8.877423
402.9906, 8.498445
403.4727, 8.811398
403.9548, 9.069355
404.4369, 9.172604
404.9190, 9.129381
405.4012, 8.872034
405.8833, 8.395430
406.3654, 7.928205
406.8475, 7.836091
407.3296, 8.338917
407.8117, 8.576807
408.2939, 8.296009
408.7760, 8.005332
409.2581, 8.050603
409.7402, 8.355802
410.2223, 8.600734
410.7044, 8.529552
411.1866, 8.196650
411.6687, 8.060563
412.1508, 8.327443
412.6329, 8.549905
413.1150, 8.688453
413.5971, 8.739581
414.0793, 8.688156
414.5614, 8.532566
415.0435, 8.320912
415.5256, 8.114961
416.0077, 7.898822
416.4898, 7.742279
416.9720, 7.631381
417.4541, 7.599096
417.9362, 7.723081
418.4183, 7.955256
418.9004, 8.148872
419.3825, 8.195788
419.8647, 8.118738
420.3468, 7.976381
420.8289, 7.633696
421.3110, 7.516593
421.7931, 8.018925
422.2752, 8.729199
422.7574, 9.211089
423.2395, 9.353962
423.7216, 9.231708
424.2037, 8.741717
424.6858, 7.915611
425.1679, 7.507167
425.6501, 7.872506
426.1322, 8.476274
426.6143, 8.939219
427.0964, 9.243508
427.5785, 9.201351
428.0606, 8.336888
428.5428, 7.242307
429.0249, 6.876885
429.5070, 7.319908
429.9891, 7.972506
430.4712, 8.610102
430.9533, 9.133473
431.4355, 9.302120
431.9176, 8.823737
432.3997, 8.428053
432.8818, 8.583547
433.3639, 9.072173
433.8460, 9.446780
434.3282, 9.576523
434.8103, 9.526933
435.2924, 9.367908
435.7745, 9.067978
436.2566, 8.776066
436.7387, 8.482166
437.2209, 8.209918
437.7030, 7.944853
438.1851, 7.709807
438.6672, 7.584709
439.1493, 7.632844
439.6314, 7.825536
440.1136, 7.991770
440.5957, 8.354224
441.0778, 8.408342
441.5599, 7.711214
442.0420, 6.878664
442.5241, 6.587572
443.0063, 6.987764
443.4884, 7.674147
443.9705, 8.128064
444.4526, 8.277979
444.9347, 8.525533
445.4168, 9.240487
445.8990, 9.682745
446.3811, 9.330490
446.8632, 8.532642
447.3453, 8.009661
447.8274, 8.219848
448.3095, 8.819741
448.7917, 8.911366
449.2738, 8.285750
449.7559, 7.748317
450.2380, 7.524500
450.7201, 7.440254
451.2022, 7.366654
451.6844, 7.293852
452.1665, 7.322860
452.6486, 7.624223
453.1307, 8.116289
453.6128, 8.385732
454.0949, 8.306149
454.5771, 8.250876
455.0592, 8.646750
455.5413, 9.222449
456.0234, 9.469513
456.5055, 9.165938
456.9876, 8.660869
457.4698, 8.093718
457.9519, 7.533555
458.4340, 7.336259
458.9161, 7.722270
459.3982, 8.322242
459.8803, 8.569727
460.3625, 8.445785
460.8446, 8.315824
461.3267, 8.240542
461.8088, 8.187242
462.2909, 8.107458
462.7730, 8.011347
463.2552, 7.980727
463.7373, 8.088622
464.2194, 8.297330
464.7015, 8.385983
465.1836, 8.312517
465.6657, 8.181615
466.1479, 7.919455
466.6300, 7.651160
467.1121, 7.494906
467.5942, 7.484143
468.0763, 7.604543
468.5584, 7.867800
469.0406, 8.319467
469.5227, 8.613478
470.0048, 8.792851
470.4869, 8.760027
470.9690, 8.221505
471.4511, 7.506346
471.9333, 7.203612
472.4154, 7.638667
472.8975, 8.331961
473.3796, 8.225926
473.8617, 7.004614
474.3438, 6.338234
474.8260, 7.150809
475.3081, 8.107543
475.7902, 8.345313
476.2723, 7.921455
476.7544, 7.434207
477.2365, 7.238533
477.7187, 7.234034
478.2008, 7.182359
478.6829, 7.064262
479.1650, 7.012717
479.6471, 7.139074
480.1292, 7.357855
480.6114, 7.525143
481.0935, 7.653765
481.5756, 7.681859
482.0577, 7.437834
482.5398, 7.104908
483.0219, 7.080880
483.5041, 7.456859
483.9862, 7.883359
484.4683, 8.019379
484.9504, 7.849068
485.4325, 7.758202
485.9146, 7.712526
486.3968, 7.776023
486.8789, 8.198635
487.3610, 8.706804
487.8431, 8.712437
488.3252, 7.977391
488.8073, 7.010414
489.2895, 6.735565
489.7716, 7.563446
490.2537, 8.088355
490.7358, 8.335634
491.2179, 8.315942
491.7000, 7.742707
492.1822, 6.903413
492.6643, 6.477571
493.1464, 6.943202
493.6285, 7.982216
494.1106, 8.703458
494.5927, 9.123106
495.0749, 9.174949
495.5570, 8.449535
496.0391, 7.621154
496.5212, 7.173745
497.0033, 7.130450
497.4854, 7.164590
497.9676, 6.954369
498.4497, 6.656352
498.9318, 6.779480
499.4139, 7.428529
499.8960, 8.076598
500.3781, 8.524961
500.8603, 8.721969
501.3424, 8.558078
501.8245, 7.831116
502.3066, 7.173209
502.7887, 6.935026
503.2708, 6.968852
503.7530, 7.005622
504.2351, 6.987268
504.7172, 7.033331
505.1993, 7.284086
505.6814, 7.755219
506.1635, 8.119598
506.6457, 8.442890
507.1278, 8.602232
507.6099, 8.435082
508.0920, 8.109737
508.5741, 7.884865
509.0562, 7.854432
509.5384, 7.911897
510.0205, 7.881013
510.5026, 7.709576
510.9847, 7.628045
511.4668, 7.657420
511.9489, 7.756728
512.4310, 7.943343
512.9131, 8.184951
513.3953, 8.462602
513.8774, 8.803971
514.3595, 9.056029
514.8416, 8.863151
515.3237, 8.153371
515.8058, 7.559159
516.2880, 7.182682
516.7701, 7.023738
517.2522, 7.107867
517.7343, 7.408404
518.2164, 7.743112
518.6985, 8.111333
519.1807, 8.432790
519.6628, 8.638280
520.1449, 8.719149
520.6270, 8.582976
521.1091, 8.132658
521.5912, 7.502169
522.0734, 6.954066
522.5555, 6.366932
523.0376, 6.159181
523.5197, 6.815108
524.0018, 7.587254
524.4839, 7.751357
524.9661, 7.338292
525.4482, 6.855279
525.9303, 6.660731
526.4124, 6.698789
526.8945, 6.666213
527.3766, 6.366529
527.8588, 6.289224
528.3409, 6.702400
528.8230, 7.183516
529.3051, 7.315590
529.7872, 7.108909
530.2693, 6.962739
530.7515, 7.294677
531.2336, 7.998786
531.7157, 8.414185
532.1978, 8.419330
532.6799, 8.424487
533.1620, 8.755537
533.6442, 9.098550
534.1263, 9.056789
534.6084, 8.523088
535.0905, 8.026783
535.5726, 8.070035
536.0547, 8.365917
536.5369, 8.194324
537.0190, 7.426124
537.5011, 6.781702
537.9832, 6.874391
538.4653, 7.536425
538.9474, 7.799574
539.4296, 7.274011
539.9117, 6.883003
540.3938, 6.940217
540.8759, 7.246343
541.3580, 7.693856
541.8401, 8.197992
542.3223, 8.446099
542.8044, 8.051416
543.2865, 7.000427
543.7686, 6.320990
544.2507, 6.142322
544.7328, 6.215864
545.2150, 6.729274
545.6971, 7.351420
546.1792, 7.723076
546.6613, 7.755444
547.1434, 7.650755
547.6255, 7.573922
548.1077, 7.530981
548.5898, 7.593291
549.0719, 7.784845
549.5540, 8.035542
550.0361, 8.315265
550.5182, 8.627810
551.0004, 9.016145
551.4825, 9.571359
551.9646, 9.992703
552.4467, 9.935333
552.9288, 9.639074
553.4109, 9.658176
553.8931, 10.10696
554.3752, 10.57257
554.8573, 10.69254
555.3394, 10.47303
555.8215, 10.18135
556.3036, 9.652350
556.7858, 9.262600
557.2679, 9.158915
557.7500, 9.221920
558.2321, 9.361914
558.7142, 9.531735
559.1964, 9.636289
559.6785, 9.537769
560.1606, 9.232240
560.6427, 9.095869
561.1248, 9.306993
561.6069, 9.424619
562.0891, 9.208754
562.5712, 8.890091
563.0533, 8.779656
563.5354, 8.962508
564.0175, 9.073404
564.4996, 8.663937
564.9818, 7.926069
565.4639, 7.530901
565.9460, 7.592658
566.4281, 7.717161
566.9102, 7.609993
567.3923, 7.367887
567.8745, 7.335196
568.3566, 7.665237
568.8387, 7.945584
569.3208, 8.035002
569.8029, 8.001619
570.2850, 7.895508
570.7672, 7.740597
571.2493, 7.584605
571.7314, 7.449819
572.2135, 7.353233
572.6956, 7.480098
573.1777, 8.127638
573.6599, 8.593688
574.1420, 8.761625
574.6241, 8.738907
575.1062, 8.527209
575.5883, 8.181532
576.0704, 7.925501
576.5526, 8.022427
577.0347, 8.351614
577.5168, 8.427647
577.9989, 8.173141
578.4810, 8.023253
578.9631, 8.306040
579.4453, 8.694810
579.9274, 8.715624
580.4095, 8.319032
580.8916, 7.874273
581.3737, 7.348807
581.8558, 6.954383
582.3380, 7.010584
582.8201, 7.469595
583.3022, 8.001482
583.7843, 8.449325
584.2664, 8.766541
584.7485, 8.818621
585.2307, 8.475809
585.7128, 8.064563
586.1949, 7.337298
586.6770, 6.759452
587.1591, 6.735794
587.6412, 7.110782
588.1234, 7.417437
588.6055, 7.364960
589.0876, 7.153504
589.5697, 7.209414
590.0518, 7.566133
590.5339, 7.959581
591.0161, 8.489582
591.4982, 8.855880
591.9803, 8.771941
592.4624, 8.321029
592.9445, 7.843193
593.4266, 7.251566
593.9088, 6.837899
594.3909, 6.992346
594.8730, 7.520143
595.3551, 7.862427
595.8372, 7.838447
596.3193, 7.689786
596.8015, 7.727211
597.2836, 8.000891
597.7657, 8.089758
598.2478, 7.823851
598.7299, 7.598004
599.2120, 7.548464
599.6942, 7.600672
600.1763, 7.675978
600.6584, 7.743153
601.1405, 7.766582
601.6226, 7.638057
602.1047, 7.374584
602.5869, 7.383949
603.0690, 7.805339
603.5511, 8.193974
604.0332, 8.373220
604.5153, 8.375897
604.9974, 8.163105
605.4796, 7.656799
605.9617, 7.301949
606.4438, 7.477676
606.9259, 7.860547
607.4080, 7.931611
607.8901, 7.691834
608.3723, 7.647827
608.8544, 8.191942
609.3365, 9.026372
609.8186, 9.198608
610.3007, 7.985069
610.7828, 7.186205
611.2650, 6.985224
611.7471, 7.019019
612.2292, 7.120118
612.7113, 7.257058
613.1934, 7.456362
613.6755, 7.763403
614.1577, 8.044188
614.6398, 7.997674
615.1219, 7.597599
615.6040, 7.218461
616.0861, 6.771675
616.5682, 6.597845
617.0504, 7.290987
617.5325, 8.538444
618.0146, 9.262528
618.4967, 8.970596
618.9788, 8.406487
619.4609, 7.857543
619.9431, 7.382070
620.4252, 7.098502
620.9073, 7.030540
621.3894, 7.104039
621.8715, 7.268810
622.3536, 7.521151
622.8358, 7.634882
623.3179, 7.483026
623.8000, 7.352210
624.2821, 7.189746
624.7642, 7.126960
625.2463, 7.426612
625.7285, 8.032529
626.2106, 8.421556
626.6927, 7.999563
627.1748, 7.153901
627.6569, 6.865626
628.1390, 7.169761
628.6212, 7.580536
629.1033, 8.020922
629.5854, 8.355004
630.0675, 8.262124
630.5496, 7.705907
631.0317, 7.428426
631.5139, 7.826047
631.9960, 8.259411
632.4781, 8.222719
632.9602, 7.935790
633.4423, 7.947114
633.9244, 8.449880
634.4066, 9.035526
634.8887, 9.077500
635.3708, 8.485889
635.8529, 8.126844
636.3350, 8.089662
636.8171, 8.172812
637.2993, 8.519035
637.7814, 8.832173
638.2635, 8.666347
638.7456, 7.906767
639.2277, 7.168245
639.7098, 6.774342
640.1920, 6.714950
640.6741, 7.155986
641.1562, 8.063964
641.6383, 8.706544
642.1204, 8.635680
642.6025, 8.153975
643.0847, 7.948618
643.5668, 8.166003
644.0489, 8.376875
644.5310, 8.725376
645.0131, 8.928701
645.4952, 8.771498
645.9774, 8.360951
646.4595, 7.878609
646.9416, 7.397740
647.4237, 7.011619
647.9058, 6.881337
648.3879, 7.001549
648.8701, 7.184595
649.3522, 7.488444
649.8343, 7.686453
650.3164, 7.500265
650.7985, 7.150287
651.2806, 7.114482
651.7628, 7.598864
652.2449, 7.948319
652.7270, 7.681472
653.2091, 7.297738
653.6912, 7.466661
654.1733, 8.109333
654.6555, 8.557013
655.1376, 8.379014
655.6197, 7.853570
656.1018, 7.740138
656.5839, 8.302664
657.0660, 8.586065
657.5482, 8.264260
658.0303, 7.917579
658.5124, 7.819870
658.9945, 7.875708
659.4766, 7.876851
659.9587, 7.746251
660.4409, 7.572148
660.9230, 7.382303
661.4051, 7.216078
661.8872, 7.174494
662.3693, 7.271745
662.8514, 7.509929
663.3336, 7.949936
663.8157, 8.496921
664.2978, 8.761847
664.7799, 8.466819
665.2620, 8.275373
665.7441, 8.328066
666.2263, 8.377470
666.7084, 8.179961
667.1905, 7.837542
667.6726, 7.650190
668.1547, 7.787869
668.6368, 8.074032
669.1190, 8.266866
669.6011, 8.365088
670.0832, 8.338528
670.5653, 8.148572
671.0474, 7.917171
671.5295, 7.646843
672.0117, 7.415283
672.4938, 7.483719
672.9759, 8.131484
673.4580, 8.597376
673.9401, 8.525286
674.4222, 8.264112
674.9044, 8.157458
675.3865, 8.201267
675.8686, 8.175549
676.3507, 7.925814
676.8328, 7.622736
677.3149, 7.738568
677.7971, 8.413112
678.2792, 8.804517
678.7613, 8.695235
679.2434, 8.457376
679.7255, 8.224918
680.2076, 8.045834
680.6898, 7.281765
681.1719, 8.258410
681.6540, 8.816918
682.1361, 8.979753
682.6182, 7.561832
683.1003, 8.185126
683.5825, 7.990401
684.0646, 7.762125
684.5467, 8.672714
685.0288, 7.484711
685.5109, 8.377239
685.9930, 8.439256
686.4752, 8.881383
686.9573, 8.500423
687.4394, 8.373690
687.9215, 9.070299
688.4036, 9.311016
688.8857, 8.835307
689.3679, 9.301597
689.8500, 8.084839
690.3321, 8.344974
690.8142, 9.242320
691.2963, 8.807998
691.7784, 9.289329
692.2606, 9.421934
692.7427, 7.969691
693.2248, 9.273648
693.7069, 9.385640
694.1890, 8.273745
694.6711, 9.483260
695.1533, 8.540096
695.6354, 8.365302
696.1175, 8.768764
696.5996, 8.569418
697.0817, 9.320470
697.5638, 9.155931
698.0460, 8.909598
698.5281, 9.020250
699.0102, 8.801677
699.4923, 9.095081
699.9744, 8.788894
700.4565, 9.119946
700.9387, 9.595443
701.4208, 8.964967
701.9029, 9.505358
702.3850, 8.230013
702.8671, 8.473960
703.3492, 8.554305
703.8314, 9.605758
704.3135, 8.339260
704.7956, 8.540997
705.2777, 9.367883
705.7598, 9.320040
706.2419, 9.637921
706.7240, 8.873096
707.2061, 9.125396
707.6882, 9.097334
708.1703, 10.03807
708.6525, 10.21399
709.1346, 9.467535
709.6167, 8.724988
710.0988, 9.735447
710.5809, 8.988916
711.0630, 8.640200
711.5452, 8.327259
712.0273, 8.102203
712.5094, 7.994015
712.9915, 7.986418
713.4736, 8.088806
713.9557, 8.285516
714.4379, 8.471830
714.9200, 8.494655
715.4021, 8.442062
715.8842, 8.760557
716.3663, 9.544018
716.8484, 9.992130
717.3306, 9.778242
717.8127, 9.246013
718.2948, 8.629216
718.7769, 7.954387
719.2590, 7.713701
719.7411, 8.379856
720.2233, 8.976030
720.7054, 9.004274
721.1875, 8.819627
721.6696, 8.933475
722.1517, 9.340756
722.6339, 9.518494
723.1160, 8.976842
723.5981, 8.109717
724.0802, 8.065089
724.5623, 8.941914
725.0444, 9.627229
725.5266, 9.988863
726.0087, 9.970115
726.4908, 9.227759
726.9729, 8.032486
727.4550, 7.452804
727.9371, 7.953288
728.4193, 8.433170
728.9014, 8.518456
729.3835, 8.483373
729.8656, 8.597601
730.3477, 8.838471
730.8298, 9.031199
731.3120, 9.076750
731.7941, 9.036717
732.2762, 9.000169
732.7583, 8.966648
733.2404, 8.969800
733.7225, 8.988706
734.2047, 9.122477
734.6868, 9.626679
735.1689, 10.19785
735.6510, 10.12576
736.1331, 9.170102
736.6152, 8.423012
737.0974, 8.142118
737.5795, 8.108020
738.0616, 8.272254
738.5437, 8.543736
739.0258, 8.807200
739.5079, 9.016781
739.9901, 9.147294
740.4722, 9.059049
740.9543, 8.829981
741.4364, 9.197032
741.9185, 10.37431
742.4006, 10.96247
742.8828, 10.12940
743.3649, 8.836539
743.8470, 8.401082
744.3291, 8.830246
744.8112, 9.119191
745.2933, 9.041105
745.7755, 8.982340
746.2576, 9.147222
746.7397, 9.385247
747.2218, 9.509876
747.7039, 9.506165
748.1860, 9.477120
748.6682, 9.501541
749.1503, 9.522513
749.6324, 9.359793
750.1145, 9.013650
750.5966, 8.887707
751.0787, 9.108745
751.5609, 9.436255
752.0430, 9.740146
752.5251, 9.981474
753.0072, 9.963804
753.4893, 9.290806
753.9714, 8.959016
754.4536, 9.517436
754.9357, 10.08188
755.4178, 9.851457
755.8999, 9.129267
756.3820, 8.742484
756.8641, 9.057229
757.3463, 9.557620
757.8284, 9.505116
758.3105, 9.125468
758.7926, 9.420414
759.2747, 10.48701
759.7568, 11.32700
760.2390, 11.42434
760.7211, 11.07078
761.2032, 10.75499
761.6853, 10.49993
762.1674, 10.20083
762.6495, 9.515539
763.1317, 9.198354
763.6138, 9.877331
764.0959, 10.80614
764.5780, 11.13988
765.0601, 10.79923
765.5422, 10.35085
766.0244, 10.17354
766.5065, 10.08346
766.9886, 9.779876
767.4707, 9.327560
767.9528, 8.955945
768.4349, 8.716318
768.9171, 8.711020
769.3992, 9.094857
769.8813, 9.757407
770.3634, 10.04463
770.8455, 9.716642
771.3276, 9.452250
771.8098, 9.301885
772.2919, 9.234878
772.7740, 9.219461
773.2561, 9.230606
773.7382, 9.306451
774.2203, 9.486082
774.7025, 9.680302
775.1846, 9.763661
775.6667, 9.856379
776.1488, 10.32021
776.6309, 11.00124
777.1130, 11.09492
777.5952, 10.22348
778.0773, 9.132685
778.5594, 8.991904
779.0415, 9.858239
779.5236, 10.38824
780.0057, 10.48619
780.4879, 10.49296
780.9700, 10.42653
781.4521, 10.32076
781.9342, 10.27147
782.4163, 10.28502
782.8984, 10.32330
783.3806, 10.42406
783.8627, 10.50508
784.3448, 10.45431
784.8269, 10.33116
785.3090, 10.28456
785.7911, 10.32935
786.2733, 10.42157
786.7554, 10.59361
787.2375, 10.73567
787.7196, 10.45685
788.2017, 9.729836
788.6838, 9.279477
789.1660, 9.236912
789.6481, 9.418927
790.1302, 9.869045
790.6123, 10.39962
791.0944, 10.50671
791.5765, 9.939226
792.0587, 9.765077
792.5408, 10.44283
793.0229, 10.96573
793.5050, 10.96640
793.9871, 10.75431
794.4692, 10.44978
794.9514, 10.02245
795.4335, 9.667842
795.9156, 9.739951
796.3977, 10.04639
796.8798, 9.992602
797.3619, 9.604273
797.8441, 9.570608
798.3262, 10.16111
798.8083, 10.88106
799.2904, 11.27957
799.7725, 11.38305
800.2546, 11.37407
800.7368, 11.26694
801.2189, 11.02576
801.7010, 10.15786
802.1831, 9.497820
802.6652, 9.795962
803.1473, 10.59132
803.6295, 10.93343
804.1116, 10.54012
804.5937, 10.11562
805.0758, 10.00722
805.5579, 10.06024
806.0400, 10.24594
806.5222, 10.48442
807.0043, 10.49749
807.4864, 10.19254
807.9685, 9.893265
808.4506, 9.978300
808.9327, 10.39050
809.4149, 10.89766
809.8970, 11.58627
810.3791, 11.89997
810.8612, 11.50946
811.3433, 10.85048
811.8254, 10.28636
812.3076, 10.00706
812.7897, 10.30437
813.2718, 11.38757
813.7539, 12.06243
814.2360, 11.99755
814.7181, 11.72165
815.2003, 11.59668
815.6824, 11.54140
816.1645, 11.26191
816.6466, 10.71569
817.1287, 10.29952
817.6108, 10.28196
818.0930, 10.45636
818.5751, 10.64516
819.0572, 10.87941
819.5393, 11.11321
820.0214, 11.30130
820.5035, 11.31532
820.9857, 11.01906
821.4678, 11.12525
821.9499, 11.10897
822.4320, 10.91267
822.9141, 11.11917
823.3962, 10.81520
823.8784, 10.53414
824.3605, 10.55661
824.8426, 10.57318
825.3247, 10.52279
825.8068, 10.39680
826.2889, 10.50161
826.7711, 11.29253
827.2532, 12.06406
827.7353, 12.10658
828.2174, 11.68369
828.6995, 11.41142
829.1816, 11.38094
829.6638, 11.31437
830.1459, 11.13407
830.6280, 10.95848
831.1101, 10.82757
831.5922, 10.70595
832.0743, 10.50830
832.5565, 10.20028
833.0386, 10.09882
833.5207, 10.42613
834.0028, 10.97293
834.4849, 11.24077
834.9670, 11.19410
835.4492, 11.10311
835.9313, 10.95472
836.4134, 10.76044
836.8955, 10.48467
837.3776, 10.29655
837.8597, 10.39522
838.3419, 10.83048
838.8240, 11.18533
839.3061, 11.21821
839.7882, 11.14852
840.2703, 11.16185
840.7524, 11.20861
841.2346, 11.24306
841.7167, 11.28485
842.1988, 11.30253
842.6809, 11.24385
843.1630, 11.10192
843.6451, 10.80585
844.1273, 10.34622
844.6094, 10.15747
845.0915, 10.37649
845.5736, 10.59538
846.0557, 10.50989
846.5378, 10.25955
847.0200, 10.26384
847.5021, 10.72639
847.9842, 10.99385
848.4663, 10.83954
848.9484, 10.76209
849.4305, 11.15896
849.9127, 11.61711
850.3948, 11.53787
850.8769, 10.87790
851.3590, 10.32105
851.8411, 10.23179
852.3232, 10.35832
852.8054, 10.55867
853.2875, 10.81423
853.7696, 11.10993
854.2517, 11.37952
854.7338, 11.49700
855.2159, 11.39986
855.6981, 11.12524
856.1802, 10.67215
856.6623, 10.05567
857.1444, 9.642724
857.6265, 9.431623
858.1086, 9.602961
858.5908, 10.39635
859.0729, 11.36695
859.5550, 11.70273
860.0371, 11.26790
860.5192, 11.05186
861.0013, 11.36498
861.4835, 11.57141
861.9656, 11.46496
862.4477, 11.32990
862.9298, 11.21586
863.4119, 10.95931
863.8940, 10.66994
864.3762, 10.45539
864.8583, 10.36709
865.3404, 10.39301
865.8225, 10.35202
866.3046, 10.16235
866.7867, 10.04786
867.2689, 10.08483
867.7510, 10.11599
868.2331, 10.10871
868.7152, 10.18752
869.1973, 10.30433
869.6794, 10.11078
870.1616, 9.659814
870.6437, 9.510907
871.1258, 9.641638
871.6079, 9.771830
872.0900, 9.649264
872.5721, 9.270335
873.0543, 9.052404
873.5364, 9.317945
874.0185, 9.620724
874.5006, 9.564310
874.9827, 9.355485
875.4648, 9.414094
875.9470, 9.904132
876.4291, 10.44017
876.9112, 10.66490
877.3933, 10.49419
877.8754, 10.21829
878.3575, 10.13410
878.8397, 9.873079
879.3218, 9.549340
879.8039, 9.732369
880.2860, 10.31408
880.7681, 10.52984
881.2502, 9.958753
881.7324, 9.182246
882.2145, 8.889428
882.6966, 8.899468
883.1787, 8.903205
883.6608, 8.979612
884.1429, 8.991589
884.6251, 8.771982
885.1072, 8.521093
885.5893, 8.578658
886.0714, 8.922672
886.5535, 8.981535
887.0356, 8.648751
887.5178, 8.392942
887.9999, 8.284110
888.4820, 8.447676
888.9641, 8.940460
889.4462, 9.535967
889.9283, 10.06608
890.4105, 10.57152
890.8926, 10.45015
891.3747, 9.614620
891.8568, 9.039919
892.3389, 8.859807
892.8210, 8.763682
893.3032, 8.662454
893.7853, 8.716104
894.2674, 8.984797
894.7495, 9.288096
895.2316, 9.300369
895.7137, 8.807269
896.1959, 8.270763
896.6780, 8.281522
897.1601, 8.587171
897.6422, 8.409861
898.1243, 7.597903
898.6064, 6.843276
899.0886, 6.742798
899.5707, 7.124333
900.0528, 7.330602
900.5349, 7.310021
901.0170, 7.590774
901.4991, 8.411672
901.9813, 9.139187
902.4634, 9.216002
902.9455, 8.879329
903.4276, 8.705409
903.9097, 8.572601
904.3918, 8.385159
904.8740, 8.204876
905.3561, 8.051854
905.8382, 7.880997
906.3203, 7.695899
906.8024, 7.548243
907.2845, 7.638528
907.7667, 7.906563
908.2488, 8.005711
908.7309, 7.829690
909.2130, 7.302850
909.6951, 6.898520
910.1772, 6.903574
910.6594, 7.079019
911.1415, 7.255084
911.6236, 7.428648
912.1057, 7.623079
912.5878, 7.831233
913.0699, 8.041353
913.5521, 8.314009
914.0342, 8.588113
914.5163, 8.626959
914.9984, 8.395919
915.4805, 8.142489
915.9626, 8.059729
916.4448, 8.047553
916.9269, 7.732512
917.4090, 7.083516
917.8911, 6.742647
918.3732, 6.803476
918.8553, 7.037765
919.3375, 7.345299
919.8196, 7.604949
920.3017, 7.636452
920.7838, 7.420210
921.2659, 7.311491
921.7480, 7.443240
922.2302, 7.448526
922.7123, 7.083445
923.1944, 6.775498
923.6765, 6.786114
924.1586, 7.030210
924.6407, 7.311379
925.1229, 7.625219
925.6050, 7.866992
926.0871, 8.142487
926.5692, 8.180882
927.0513, 7.536339
927.5334, 6.794443
928.0156, 6.705957
928.4977, 7.274748
928.9798, 7.843871
929.4619, 8.110949
929.9440, 8.158235
930.4261, 7.932901
930.9083, 7.614683
931.3904, 7.550765
931.8725, 7.278525
932.3546, 7.354440
932.8367, 6.889369
933.3188, 6.548394
933.8010, 6.379451
934.2831, 6.336789
934.7652, 6.624635
935.2473, 7.278317
935.7294, 7.620917
936.2115, 7.397741
936.6937, 7.084459
937.1758, 7.058836
937.6579, 7.054770
938.1400, 6.612351
938.6221, 5.672940
939.1042, 5.464959
939.5864, 6.215155
940.0685, 6.857224
940.5506, 7.344903
941.0327, 7.686437
941.5148, 7.729893
941.9969, 7.928973
942.4791, 7.481481
942.9612, 7.165833
943.4433, 6.999730
943.9254, 6.932256
944.4075, 7.090439
944.8896, 7.344387
945.3718, 7.537878
945.8539, 7.508909
946.3360, 7.171508
946.8181, 6.890397
947.3002, 6.943695
947.7823, 7.162545
948.2645, 7.492735
948.7466, 8.111884
949.2287, 8.346864
949.7108, 7.654947
950.1929, 6.691802
950.6750, 6.216936
951.1572, 6.271339
951.6393, 6.490144
952.1213, 6.532714
952.6035, 6.655738
953.0856, 7.034083
953.5677, 7.124835
954.0498, 6.739326
954.5319, 6.433516
955.0140, 6.568173
955.4962, 6.900092
955.9783, 7.045979
956.4604, 6.998429
956.9425, 6.889486
957.4246, 6.780866
957.9067, 6.808802
958.3889, 7.062165
958.8710, 7.247531
959.3531, 6.981887
959.8352, 6.341961
960.3173, 6.028502
960.7994, 6.696824
961.2816, 7.764363
961.7637, 8.103989
962.2458, 7.724154
962.7279, 7.414075
963.2100, 7.302717
963.6921, 6.997794
964.1743, 6.437548
964.6564, 6.301039
965.1385, 6.936530
965.6206, 7.310226
966.1027, 6.707803
966.5848, 6.200192
967.0670, 6.471514
967.5491, 6.979060
968.0312, 7.024642
968.5133, 6.881012
968.9954, 6.994872
969.4775, 6.776672
969.9597, 6.359599
970.4418, 6.137018
970.9239, 6.183131
971.4060, 6.484468
971.8881, 6.881369
972.3702, 7.291476
972.8524, 7.475348
973.3345, 7.451683
973.8166, 7.392643
974.2987, 7.321970
974.7808, 7.383981
975.2629, 7.506866
975.7451, 7.433143
976.2272, 7.069563
976.7093, 6.586553
977.1914, 6.262147
977.6735, 6.161980
978.1556, 6.236670
978.6378, 6.475667
979.1199, 6.826048
979.6020, 7.124084
980.0841, 7.259679
980.5662, 7.318113
981.0483, 7.119637
981.5305, 6.433672
982.0126, 5.868792
982.4947, 6.083180
982.9768, 6.611398
983.4589, 6.683031
983.9410, 6.488833
984.4232, 6.641422
984.9053, 7.079521
985.3874, 6.985695
985.8695, 6.372476
986.3516, 5.846796
986.8337, 5.498194
987.3159, 5.211171
987.7980, 5.317033
988.2801, 5.919810
988.7622, 6.455200
989.2443, 6.887057
989.7264, 7.213395
990.2086, 7.368500
990.6907, 7.477148
991.1728, 7.313322
991.6549, 6.527756
992.1370, 6.132723
992.6191, 6.430059
993.1013, 6.789627
993.5834, 6.965545
994.0655, 6.946543
994.5476, 6.780919
995.0297, 6.521614
995.5118, 6.446305
995.9940, 6.828775
996.4761, 6.993080
996.9582, 6.661027
997.4403, 6.302641
997.9224, 6.198468
998.4045, 6.228913
998.8867, 6.155978
999.3688, 5.934447
999.8509, 5.936389
1000.333, 6.578049
1000.815, 7.038270
1001.297, 6.876992
1001.779, 6.516875
1002.261, 6.164610
1002.744, 5.950291
1003.226, 6.154406
1003.708, 6.952289
1004.190, 7.537405
1004.672, 7.314234
1005.154, 6.907340
1005.636, 6.722793
1006.118, 6.686239
1006.601, 6.724764
1007.083, 6.917529
1007.565, 7.081441
1008.047, 6.895698
1008.529, 6.961483
1009.011, 6.644025
1009.493, 6.760695
1009.975, 6.630469
1010.457, 6.463138
1010.940, 6.679296
1011.422, 7.061065
1011.904, 7.054896
1012.386, 6.516014
1012.868, 5.965690
1013.350, 5.823770
1013.832, 5.971689
1014.314, 6.640388
1014.797, 7.670140
1015.279, 7.901954
1015.761, 6.893713
1016.243, 5.749830
1016.725, 5.592666
1017.207, 6.064431
1017.689, 6.365771
1018.171, 6.409464
1018.653, 6.542929
1019.136, 6.986018
1019.618, 7.541219
1020.100, 7.885721
1020.582, 7.866238
1021.064, 7.410738
1021.546, 6.832504
1022.028, 6.759180
1022.510, 7.087083
1022.992, 7.050814
1023.475, 6.804164
1023.957, 6.605487
1024.439, 6.379372
1024.921, 6.270146
1025.403, 6.405102
1025.885, 6.676568
1026.367, 6.711481
1026.849, 6.363560
1027.332, 5.926629
1027.814, 5.866400
1028.296, 5.742529
1028.778, 5.888832
1029.260, 5.874730
1029.742, 6.160895
1030.224, 6.422936
1030.706, 6.437935
1031.188, 6.699672
1031.671, 7.329267
1032.153, 7.550468
1032.635, 7.298124
1033.117, 6.870610
1033.599, 6.470893
1034.081, 6.134420
1034.563, 5.871672
1035.045, 5.825555
1035.528, 6.151959
1036.010, 6.473630
1036.492, 6.524413
1036.974, 6.444457
1037.456, 6.401999
1037.938, 6.397558
1038.420, 6.505132
1038.902, 6.760698
1039.385, 6.998206
1039.867, 6.617424
1040.349, 6.550173
1040.831, 6.899025
1041.313, 6.517250
1041.795, 5.735589
1042.277, 5.609765
1042.759, 6.315759
1043.241, 6.888251
1043.724, 7.230647
1044.206, 7.504369
1044.688, 6.957396
1045.170, 6.006018
1045.652, 5.613978
1046.134, 5.849943
1046.616, 6.353507
1047.098, 7.160238
1047.580, 7.504053
1048.063, 6.767827
1048.545, 6.080512
1049.027, 6.124960
1049.509, 6.480674
1049.991, 6.731872
1050.473, 6.891388
1050.955, 7.054029
1051.437, 7.315599
1051.920, 7.458791
1052.402, 7.202820
1052.884, 6.675775
1053.366, 6.237700
1053.848, 6.088540
1054.330, 6.129194
1054.812, 6.290834
1055.294, 6.393584
1055.776, 6.491423
1056.259, 6.494877
1056.741, 6.265779
1057.223, 6.197668
1057.705, 6.366820
1058.187, 6.538706
1058.669, 6.636502
1059.151, 6.680046
1059.633, 6.770033
1060.115, 6.921614
1060.598, 6.919856
1061.080, 6.737917
1061.562, 6.689301
1062.044, 6.755723
1062.526, 6.742747
1063.008, 6.647771
1063.490, 6.454391
1063.972, 6.282210
1064.455, 6.157761
1064.937, 6.028327
1065.419, 5.771290
1065.901, 5.476709
1066.383, 5.417498
1066.865, 5.701228
1067.347, 5.933260
1067.829, 5.782817
1068.312, 5.711902
1068.794, 6.193582
1069.276, 6.875917
1069.758, 7.226737
1070.240, 7.183945
1070.722, 6.948083
1071.204, 6.363009
1071.686, 5.947770
1072.168, 6.089235
1072.651, 6.373451
1073.133, 6.456204
1073.615, 6.399664
1074.097, 6.471460
1074.579, 6.734001
1075.061, 6.798717
1075.543, 6.249405
1076.025, 5.788547
1076.507, 5.929784
1076.990, 6.240473
1077.472, 6.271554
1077.954, 6.044826
1078.436, 5.861397
1078.918, 5.773024
1079.400, 5.731922
1079.882, 5.736398
1080.364, 5.790090
1080.846, 5.928708
1081.329, 6.125670
1081.811, 6.284922
1082.293, 6.203097
1082.775, 5.824638
1083.257, 5.046538
1083.739, 4.685555
1084.221, 5.515149
1084.703, 6.310774
1085.186, 5.898961
1085.668, 4.954238
1086.150, 4.635814
1086.632, 5.298849
1087.114, 6.050439
1087.596, 6.473186
1088.078, 6.527863
1088.560, 6.059255
1089.042, 5.430221
1089.525, 4.803474
1090.007, 4.469404
1090.489, 4.572143
1090.971, 4.991402
1091.453, 5.350996
1091.935, 5.614250
1092.417, 5.808202
1092.899, 5.840428
1093.381, 5.730597
1093.864, 5.627767
1094.346, 5.632552
1094.828, 5.525793
1095.310, 5.425210
1095.792, 5.480049
1096.274, 5.475560
1096.756, 5.684872
1097.238, 6.645351
1097.721, 7.657712
1098.203, 7.444171
1098.685, 6.108221
1099.167, 5.347948
1099.649, 5.824516
1100.131, 6.279756
1100.613, 6.363497
1101.095, 6.319920
1101.578, 6.096163
1102.060, 5.578307
1102.542, 4.983867
1103.024, 5.054258
1103.506, 5.682137
1103.988, 6.645226
1104.470, 6.972559
1104.952, 6.207437
1105.434, 5.296483
1105.917, 5.071615
1106.399, 5.382000
1106.881, 5.642216
1107.363, 5.656175
1107.845, 5.514821
1108.327, 5.512526
1108.809, 5.713719
1109.291, 6.289559
1109.773, 6.952604
1110.256, 6.998380
1110.738, 6.083609
1111.220, 5.426001
1111.702, 5.559950
1112.184, 5.382627
1112.666, 4.843615
1113.148, 4.606042
1113.630, 4.921858
1114.113, 5.581600
1114.595, 6.072328
1115.077, 6.228415
1115.559, 6.049671
1116.041, 5.790596
1116.523, 5.939139
1117.005, 6.225688
1117.487, 6.244361
1117.969, 5.965729
1118.452, 5.620623
1118.934, 5.512317
1119.416, 5.527907
1119.898, 5.524842
1120.380, 5.769272
1120.862, 6.165971
1121.344, 6.635429
1121.826, 6.996178
1122.308, 6.845204
1122.791, 6.193248
1123.273, 5.763604
1123.755, 5.653146
1124.237, 5.474906
1124.719, 5.189787
1125.201, 5.173882
1125.683, 5.625584
1126.165, 6.184861
1126.648, 6.461188
1127.130, 6.526994
1127.612, 6.364884
1128.094, 5.783347
1128.576, 5.029894
1129.058, 4.204167
1129.540, 3.864972
1130.022, 4.523489
1130.505, 5.613955
1130.987, 5.760740
1131.469, 4.954066
1131.951, 4.635596
1132.433, 4.782763
1132.915, 4.737146
1133.397, 4.454039
1133.879, 4.341329
1134.361, 4.639844
1134.844, 4.719703
1135.326, 5.414269
1135.808, 5.463758
1136.290, 5.826423
1136.772, 6.454540
1137.254, 6.708253
1137.736, 6.419424
1138.218, 6.101305
1138.700, 6.238333
1139.183, 6.565498
1139.665, 6.538081
1140.147, 6.251696
1140.629, 5.986403
1141.111, 5.762813
1141.593, 5.534421
1142.075, 5.299533
1142.557, 5.166720
1143.040, 5.269922
1143.522, 5.434081
1144.004, 5.307229
1144.486, 5.082792
1144.968, 5.209007
1145.450, 5.637805
1145.932, 6.076069
1146.414, 6.405563
1146.896, 6.442740
1147.379, 5.804158
1147.861, 5.044641
1148.343, 4.674654
1148.825, 4.600008
1149.307, 4.745189
1149.789, 5.048194
1150.271, 5.490534
1150.753, 6.083716
1151.235, 6.374667
1151.718, 5.851010
1152.200, 5.297202
1152.682, 5.360032
1153.164, 5.580677
1153.646, 5.420249
1154.128, 5.079857
1154.610, 5.020402
1155.092, 5.425861
1155.575, 5.786678
1156.057, 5.749552
1156.539, 5.573115
1157.021, 5.319791
1157.503, 5.320946
1157.985, 5.607589
1158.467, 5.837759
1158.949, 5.823169
1159.432, 5.454522
1159.914, 5.288775
1160.396, 5.447688
1160.878, 5.495567
1161.360, 5.078255
1161.842, 4.932288
1162.324, 5.532280
1162.806, 6.300775
1163.288, 6.303666
1163.771, 5.534437
1164.253, 5.355491
1164.735, 5.778924
1165.217, 6.085497
1165.699, 6.175096
1166.181, 6.284468
1166.663, 6.270896
1167.145, 5.949127
1167.627, 5.726903
1168.110, 5.693770
1168.592, 5.608750
1169.074, 5.475331
1169.556, 5.498879
1170.038, 5.727293
1170.520, 5.937150
1171.002, 6.025062
1171.484, 6.111277
1171.967, 6.099149
1172.449, 5.894598
1172.931, 5.690375
1173.413, 5.599963
1173.895, 5.667986
1174.377, 5.860548
1174.859, 6.044391
1175.341, 6.051272
1175.823, 5.934176
1176.306, 5.939783
1176.788, 6.055077
1177.270, 6.149889
1177.752, 6.249603
1178.234, 6.399730
1178.716, 6.511735
1179.198, 6.484001
1179.680, 6.580030
1180.162, 6.421474
1180.645, 6.675067
1181.127, 6.094130
1181.609, 5.594888
1182.091, 5.456264
1182.573, 5.605074
1183.055, 5.876003
1183.537, 6.097568
1184.019, 6.517960
1184.502, 6.969455
1184.984, 7.019455
1185.466, 6.599771
1185.948, 5.867281
1186.430, 5.258590
1186.912, 5.204565
1187.394, 5.694900
1187.876, 5.817158
1188.359, 5.525656
1188.841, 5.474427
1189.323, 5.522208
1189.805, 5.712980
1190.287, 6.271678
1190.769, 6.943112
1191.251, 7.045199
1191.733, 6.396826
1192.215, 5.833864
1192.698, 5.337718
1193.180, 5.289578
1193.662, 5.778302
1194.144, 6.258072
1194.626, 6.369262
1195.108, 6.229716
1195.590, 6.168703
1196.072, 6.215749
1196.554, 6.235640
1197.037, 6.149674
1197.519, 6.099244
1198.001, 6.249570
1198.483, 6.475794
1198.965, 6.465696
1199.447, 6.204213
1199.929, 5.771771
1200.411, 5.366370
1200.894, 5.459837
1201.376, 5.910540
1201.858, 6.346314
1202.340, 6.657544
1202.822, 6.745126
1203.304, 6.461216
1203.786, 6.145495
1204.268, 6.279399
1204.750, 6.179356
1205.233, 6.558148
1205.715, 6.464694
1206.197, 6.721390
1206.679, 7.134095
1207.161, 6.997171
1207.643, 5.783813
1208.125, 4.845772
1208.607, 5.122083
1209.089, 5.605692
1209.572, 5.629089
1210.054, 5.440489
1210.536, 5.494394
1211.018, 5.766543
1211.500, 5.873468
1211.982, 5.732286
1212.464, 5.513633
1212.946, 4.763446
1213.429, 4.615779
1213.911, 5.945245
1214.393, 7.304803
1214.875, 7.404663
1215.357, 6.601731
1215.839, 6.011421
1216.321, 5.653653
1216.803, 5.357740
1217.286, 5.101175
1217.768, 5.110591
1218.250, 5.457897
1218.732, 5.834669
1219.214, 6.105082
1219.696, 6.269581
1220.178, 6.035005
1220.660, 5.541733
1221.142, 5.838648
1221.625, 6.701173
1222.107, 6.762273
1222.589, 5.830031
1223.071, 4.913719
1223.553, 4.671180
1224.035, 4.914288
1224.517, 5.648122
1224.999, 6.320022
1225.481, 6.027254
1225.964, 5.382131
1226.446, 5.437345
1226.928, 6.130580
1227.410, 6.610673
1227.892, 6.462004
1228.374, 6.320472
1228.856, 6.713386
1229.338, 7.017511
1229.821, 6.772225
1230.303, 6.356546
1230.785, 6.041837
1231.267, 5.933464
1231.749, 6.271248
1232.231, 7.325957
1232.713, 7.514415
1233.195, 6.376397
1233.677, 5.480440
1234.160, 5.000647
1234.642, 4.989198
1235.124, 5.697418
1235.606, 6.632306
1236.088, 6.843234
1236.570, 6.400527
1237.052, 6.257715
1237.534, 6.361929
1238.016, 6.484407
1238.499, 6.642251
1238.981, 6.750032
1239.463, 6.707252
1239.945, 6.464011
1240.427, 5.805632
1240.909, 4.996429
1241.391, 4.866292
1241.873, 5.258742
1242.356, 5.518427
1242.838, 5.451792
1243.320, 5.229172
1243.802, 5.089673
1244.284, 5.113661
1244.766, 5.224999
1245.248, 5.205892
1245.730, 4.812098
1246.213, 4.685484
1246.695, 5.597127
1247.177, 6.854386
1247.659, 7.232372
1248.141, 6.591918
1248.623, 6.049239
1249.105, 6.039566
1249.587, 5.997477
1250.069, 5.552107
1250.552, 5.236808
1251.034, 5.418708
1251.516, 5.740014
1251.998, 5.777411
1252.480, 5.615935
1252.962, 5.541162
1253.444, 5.485299
1253.926, 5.431688
1254.408, 5.441201
1254.891, 5.588821
1255.373, 5.882777
1255.855, 6.149160
1256.337, 6.241930
1256.819, 6.245738
1257.301, 6.240648
1257.783, 6.186826
1258.265, 6.182118
1258.748, 6.303606
1259.230, 6.403220
1259.712, 6.375299
1260.194, 6.371434
1260.676, 6.607240
1261.158, 6.675447
1261.640, 6.044960
1262.122, 5.383711
1262.604, 5.072615
1263.087, 5.070042
1263.569, 5.511269
1264.051, 6.179933
1264.533, 6.255739
1265.015, 5.384184
1265.497, 5.090695
1265.979, 5.720996
1266.461, 6.128787
1266.943, 5.975350
1267.426, 6.025485
1267.908, 6.833059
1268.390, 7.737918
1268.872, 7.543070
1269.354, 6.499293
1269.836, 6.222577
1270.318, 6.576913
1270.800, 6.684395
1271.283, 6.472671
1271.765, 6.193932
1272.247, 5.936223
1272.729, 5.802639
1273.211, 5.996073
1273.693, 6.223847
1274.175, 6.047346
1274.657, 5.825323
1275.140, 6.189829
1275.622, 6.744714
1276.104, 6.471769
1276.586, 5.333107
1277.068, 4.900299
1277.550, 6.384192
1278.032, 7.414885
1278.514, 7.406829
1278.996, 7.039127
1279.479, 6.194728
1279.961, 5.579571
1280.443, 6.012268
1280.925, 7.141187
1281.407, 7.655417
1281.889, 7.451255
1282.371, 7.587235
1282.853, 8.109556
1283.335, 8.168225
1283.818, 7.562322
1284.300, 6.986827
1284.782, 6.907984
1285.264, 6.885381
1285.746, 6.037820
1286.228, 6.264443
1286.710, 5.279443
1287.192, 6.138598
1287.675, 6.482265
1288.157, 6.302701
1288.639, 6.100676
1289.121, 6.036119
1289.603, 5.795668
1290.085, 4.657784
1290.567, 4.123667
1291.049, 5.430879
1291.531, 6.821558
1292.014, 7.095820
1292.496, 6.761691
1292.978, 6.507039
1293.460, 6.336012
1293.942, 6.316504
1294.424, 6.533862
1294.906, 6.413473
1295.388, 5.820618
1295.870, 5.767992
1296.353, 6.629826
1296.835, 7.385345
1297.317, 7.148642
1297.799, 6.461336
1298.281, 6.170173
1298.763, 6.165682
1299.245, 6.294099
1299.727, 6.485738
1300.210, 6.593448
1300.692, 6.625709
1301.174, 6.711032
1301.656, 6.897970
1302.138, 7.146953
1302.620, 7.545939
1303.102, 7.862107
1303.584, 8.187628
1304.067, 8.191713
1304.549, 7.174073
1305.031, 5.898361
1305.513, 5.784553
1305.995, 6.810797
1306.477, 7.198134
1306.959, 6.728428
1307.441, 6.893906
1307.923, 7.964431
1308.406, 8.205361
1308.888, 6.923280
1309.370, 5.660142
1309.852, 5.861829
1310.334, 6.796562
1310.816, 7.522816
1311.298, 7.891778
1311.780, 7.322354
1312.262, 6.285017
1312.745, 5.712564
1313.227, 5.710785
1313.709, 5.944188
1314.191, 6.343837
1314.673, 6.712578
1315.155, 6.983396
1315.637, 7.194253
1316.119, 7.423627
1316.602, 7.518358
1317.084, 7.279875
1317.566, 6.923922
1318.048, 6.786917
1318.530, 6.868001
1319.012, 7.244692
1319.494, 7.972541
1319.976, 8.071132
1320.458, 7.461450
1320.941, 6.837962
1321.423, 6.451042
1321.905, 6.286638
1322.387, 6.365825
1322.869, 6.563814
1323.351, 6.803504
1323.833, 6.993620
1324.315, 6.810867
1324.797, 6.616305
1325.280, 7.294441
1325.762, 8.533123
1326.244, 8.760357
1326.726, 7.248348
1327.208, 6.241450
1327.690, 6.484059
1328.172, 6.753029
1328.654, 6.827240
1329.136, 6.892120
1329.619, 7.054214
1330.101, 7.254035
1330.583, 7.434467
1331.065, 7.563282
1331.547, 7.461790
1332.029, 7.168063
1332.511, 6.799135
1332.993, 6.453811
1333.476, 6.596711
1333.958, 7.278193
1334.440, 7.912783
1334.922, 8.206914
1335.404, 8.169116
1335.886, 7.391617
1336.368, 6.763725
1336.850, 7.366217
1337.333, 8.073605
1337.815, 7.345345
1338.297, 5.819864
1338.779, 5.533776
1339.261, 6.687985
1339.743, 7.226950
1340.225, 6.886187
1340.707, 7.057055
1341.189, 7.999946
1341.672, 8.754485
1342.154, 8.933803
1342.636, 8.730243
1343.118, 8.252761
1343.600, 7.704819
1344.082, 7.310506
1344.564, 7.165436
1345.046, 7.716778
1345.528, 8.498917
1346.011, 8.529601
1346.493, 7.887564
1346.975, 7.546216
1347.457, 7.942748
1347.939, 7.905653
1348.421, 6.525994
1348.903, 5.611129
1349.385, 5.644834
1349.868, 6.088583
1350.350, 6.880605
1350.832, 7.534460
1351.314, 7.325207
1351.796, 6.520179
1352.278, 6.187681
1352.760, 6.263775
1353.242, 6.470766
1353.724, 6.725596
1354.207, 6.712738
1354.689, 6.434997
1355.171, 6.376451
1355.653, 6.826022
1356.135, 7.353891
1356.617, 8.081880
1357.099, 8.302195
1357.581, 6.862717
1358.063, 5.440803
1358.546, 5.711104
1359.028, 6.892475
1359.510, 7.576896
1359.992, 7.780266
1360.474, 7.689419
1360.956, 7.243573
1361.438, 7.113958
1361.920, 7.347362
1362.403, 7.437394
1362.885, 7.241786
1363.367, 7.037254
1363.849, 7.010585
1364.331, 7.070569
1364.813, 7.204256
1365.295, 7.281616
1365.777, 7.214181
1366.260, 6.974454
1366.742, 6.292169
1367.224, 5.491539
1367.706, 5.357185
1368.188, 6.031898
1368.670, 6.605505
1369.152, 7.148830
1369.634, 7.277331
1370.116, 6.800667
1370.599, 6.694046
1371.081, 7.339988
1371.563, 7.893379
1372.045, 7.668375
1372.527, 7.075990
1373.009, 6.574439
1373.491, 6.278455
1373.973, 6.619036
1374.455, 7.160704
1374.938, 7.043650
1375.420, 6.514654
1375.902, 6.495379
1376.384, 7.186541
1376.866, 7.698214
1377.348, 7.757164
1377.830, 7.752234
1378.312, 7.817755
1378.795, 7.537465
1379.277, 6.564656
1379.759, 5.933809
1380.241, 6.609060
1380.723, 7.731683
1381.205, 7.510549
1381.687, 6.500334
1382.169, 6.285776
1382.651, 6.574937
1383.134, 6.763062
1383.616, 6.776408
1384.098, 6.582782
1384.580, 6.210539
1385.062, 6.204916
1385.544, 7.112004
1386.026, 7.860260
1386.508, 8.367007
1386.990, 8.447291
1387.473, 7.841555
1387.955, 7.153346
1388.437, 6.776878
1388.919, 6.746689
1389.401, 7.321673
1389.883, 8.235996
1390.365, 8.205617
1390.847, 7.566711
1391.330, 7.322647
1391.812, 7.465169
1392.294, 7.599335
1392.776, 7.614669
1393.258, 7.565585
1393.740, 7.395411
1394.222, 7.344455
1394.704, 7.631399
1395.187, 7.858630
1395.669, 7.924644
1396.151, 7.813311
1396.633, 7.421266
1397.115, 7.022623
1397.597, 7.135053
1398.079, 7.582305
1398.561, 7.505831
1399.043, 7.054780
1399.526, 6.704644
1400.008, 6.519120
1400.490, 6.541138
1400.972, 6.764929
1401.454, 7.141177
1401.936, 7.748518
1402.418, 8.149950
1402.900, 8.063378
1403.382, 7.891686
1403.865, 7.765032
1404.347, 7.595257
1404.829, 7.288352
1405.311, 7.002456
1405.793, 6.976874
1406.275, 7.103025
1406.757, 6.898115
1407.239, 7.160311
1407.722, 6.784299
1408.204, 7.446514
1408.686, 7.765441
1409.168, 7.642206
1409.650, 7.320790
1410.132, 6.856842
1410.614, 6.520117
1411.096, 6.271465
1411.578, 6.389088
1412.061, 7.456086
1412.543, 8.140471
1413.025, 7.724276
1413.507, 7.087155
1413.989, 7.087754
1414.471, 7.480621
1414.953, 7.796274
1415.435, 7.974317
1415.917, 7.707439
1416.400, 7.171325
1416.882, 6.709753
1417.364, 6.425405
1417.846, 6.521204
1418.328, 7.026664
1418.810, 7.230590
1419.292, 6.332764
1419.774, 6.043655
1420.257, 7.099831
1420.739, 7.852269
1421.221, 7.718257
1421.703, 7.552098
1422.185, 8.001331
1422.667, 7.670123
1423.149, 8.211955
1423.631, 7.431612
1424.114, 7.060423
1424.596, 6.989040
1425.078, 7.080072
1425.560, 7.277051
1426.042, 7.600260
1426.524, 7.980745
1427.006, 8.070556
1427.488, 7.731009
1427.970, 7.226364
1428.453, 6.388317
1428.935, 5.844100
1429.417, 5.676565
1429.899, 6.008726
1430.381, 6.946454
1430.863, 7.886502
1431.345, 8.232959
1431.827, 8.249608
1432.309, 8.307023
1432.792, 8.296666
1433.274, 8.017867
1433.756, 7.623930
1434.238, 7.268731
1434.720, 7.006104
1435.202, 6.948276
1435.684, 7.118382
1436.166, 7.225985
1436.649, 7.287309
1437.131, 7.169354
1437.613, 6.847832
1438.095, 6.670305
1438.577, 6.730883
1439.059, 6.919283
1439.541, 7.196735
1440.023, 7.293684
1440.505, 6.703077
1440.988, 6.129360
1441.470, 6.225250
1441.952, 5.955193
1442.434, 6.359430
1442.916, 6.184016
1443.398, 6.438714
1443.880, 6.969421
1444.362, 7.177231
1444.844, 7.429315
1445.327, 7.689383
1445.809, 7.742249
1446.291, 8.005258
1446.773, 8.027173
1447.255, 8.097220
1447.737, 8.289645
1448.219, 8.253398
1448.701, 7.488034
1449.184, 7.127751
1449.666, 8.351434
1450.148, 9.038241
1450.630, 8.015528
1451.112, 6.889280
1451.594, 6.643519
1452.076, 6.819100
1452.558, 6.802316
1453.041, 6.636116
1453.523, 6.309238
1454.005, 5.996964
1454.487, 6.253181
1454.969, 6.795951
1455.451, 6.996726
1455.933, 6.848662
1456.415, 6.675085
1456.897, 6.506066
1457.380, 6.653604
1457.862, 7.245077
1458.344, 7.961833
1458.826, 8.934594
1459.308, 9.180849
1459.790, 8.358031
1460.272, 7.500234
1460.754, 7.319891
1461.236, 7.468823
1461.719, 7.674285
1462.201, 7.850692
1462.683, 7.990998
1463.165, 7.982236
1463.647, 7.501577
1464.129, 6.942259
1464.611, 7.101708
1465.093, 7.650627
1465.576, 7.238529
1466.058, 5.793500
1466.540, 5.410329
1467.022, 5.968840
1467.504, 6.214808
1467.986, 6.137898
1468.468, 6.740476
1468.950, 8.206266
1469.432, 9.212786
1469.915, 8.976941
1470.397, 8.474082
1470.879, 7.834554
1471.361, 7.372643
1471.843, 7.267402
1472.325, 7.174058
1472.807, 6.872458
1473.289, 6.664529
1473.771, 6.988220
1474.254, 7.418542
1474.736, 6.809589
1475.218, 7.035489
1475.700, 6.019586
1476.182, 6.660760
1476.664, 6.735186
1477.146, 6.402411
1477.628, 6.398321
1478.111, 6.834010
1478.593, 7.234311
1479.075, 7.604399
1479.557, 7.905198
1480.039, 8.139016
1480.521, 8.208699
1481.003, 8.090521
1481.485, 7.747397
1481.968, 7.165032
1482.450, 6.525356
1482.932, 5.644617
1483.414, 5.281171
1483.896, 6.320821
1484.378, 7.451318
1484.860, 8.032123
1485.342, 8.276743
1485.824, 8.293530
1486.307, 8.124779
1486.789, 7.816534
1487.271, 7.403962
1487.753, 6.912125
1488.235, 6.454753
1488.717, 6.225534
1489.199, 6.286224
1489.681, 6.891943
1490.163, 7.862015
1490.646, 8.613917
1491.128, 9.081998
1491.610, 8.641814
1492.092, 6.697230
1492.574, 5.974196
1493.056, 6.771964
1493.538, 7.389883
1494.020, 7.383133
1494.503, 7.249068
1494.985, 7.254525
1495.467, 7.432290
1495.949, 8.259611
1496.431, 8.654263
1496.913, 7.402448
1497.395, 6.132431
1497.877, 5.820914
1498.359, 6.082159
1498.842, 6.812942
1499.324, 7.569961
1499.806, 7.399254
1500.288, 7.664541
1500.770, 6.696120
1501.252, 7.054079
1501.734, 6.368135
1502.216, 5.272097
1502.698, 5.376111
1503.181, 6.567662
1503.663, 7.349128
1504.145, 7.378584
1504.627, 7.448797
1505.109, 7.571516
1505.591, 7.751615
1506.073, 7.996194
1506.555, 7.817287
1507.038, 7.139449
1507.520, 6.681352
1508.002, 6.847712
1508.484, 7.118669
1508.966, 7.148242
1509.448, 7.130118
1509.930, 7.005812
1510.412, 7.087052
1510.895, 7.676227
1511.377, 8.199557
1511.859, 8.210472
1512.341, 7.873045
1512.823, 7.322042
1513.305, 6.773766
1513.787, 6.759554
1514.269, 7.052985
1514.751, 7.540223
1515.234, 7.912333
1515.716, 7.523736
1516.198, 6.611232
1516.680, 6.295302
1517.162, 6.619711
1517.644, 6.711198
1518.126, 6.558450
1518.608, 6.419074
1519.090, 6.349837
1519.573, 6.738477
1520.055, 7.518486
1520.537, 7.806986
1521.019, 7.199489
1521.501, 6.861621
1521.983, 7.816553
1522.465, 8.235900
1522.947, 7.235595
1523.430, 6.981562
1523.912, 8.329265
1524.394, 9.207378
1524.876, 8.259791
1525.358, 6.987115
1525.840, 7.347059
1526.322, 7.937679
1526.804, 6.574542
1527.286, 5.279813
1527.769, 6.424424
1528.251, 8.147698
1528.733, 8.387185
1529.215, 7.705764
1529.697, 6.928251
1530.179, 6.164655
1530.661, 5.929139
1531.143, 6.147667
1531.625, 6.745503
1532.108, 7.477663
1532.590, 7.756305
1533.072, 7.665582
1533.554, 7.694710
1534.036, 7.945025
1534.518, 8.293914
1535.000, 8.978460
1535.482, 8.828678
1535.965, 7.758306
1536.447, 6.743932
1536.929, 6.001611
1537.411, 5.737528
1537.893, 6.008090
1538.375, 6.410683
1538.857, 6.690458
1539.339, 7.065328
1539.822, 8.136320
1540.304, 8.471059
1540.786, 7.236634
1541.268, 6.282929
1541.750, 6.518954
1542.232, 7.209781
1542.714, 7.752218
1543.196, 7.962564
1543.678, 7.245829
1544.161, 6.422759
1544.643, 6.556099
1545.125, 6.069934
1545.607, 6.542392
1546.089, 5.998934
1546.571, 5.937634
1547.053, 6.291010
1547.535, 6.944856
1548.017, 7.828826
1548.500, 8.705734
1548.982, 9.401548
1549.464, 9.278481
1549.946, 8.653432
1550.428, 8.360997
1550.910, 8.423971
1551.392, 8.176012
1551.874, 7.453710
1552.357, 7.024903
1552.839, 6.889412
1553.321, 7.181821
1553.803, 7.844684
1554.285, 8.130416
1554.767, 7.938588
1555.249, 7.868072
1555.731, 8.186986
1556.214, 8.399824
1556.696, 8.025031
1557.178, 7.982948
1557.660, 8.656274
1558.142, 9.029440
1558.624, 8.820611
1559.106, 8.381298
1559.588, 7.882974
1560.070, 7.760787
1560.552, 8.702635
1561.035, 9.587474
1561.517, 9.266840
1561.999, 8.738291
1562.481, 8.646291
1562.963, 8.589569
1563.445, 8.189551
1563.927, 7.919614
1564.409, 8.372642
1564.892, 9.199973
1565.374, 9.844061
1565.856, 10.20850
1566.338, 9.791128
1566.820, 9.279117
1567.302, 9.908523
1567.784, 9.335614
1568.266, 10.50205
1568.749, 9.278840
1569.231, 9.013862
1569.713, 9.670301
1570.195, 11.27546
1570.677, 13.27183
1571.159, 13.36496
1571.641, 12.13159
1572.123, 11.38056
1572.605, 11.41537
1573.088, 11.90664
1573.570, 12.87843
1574.052, 13.75171
1574.534, 14.50931
1575.016, 15.39515
1575.498, 16.36571
1575.980, 16.27313
1576.462, 15.17929
1576.944, 14.91122
1577.427, 16.12593
1577.909, 17.08871
1578.391, 16.96604
1578.873, 16.57399
1579.355, 15.72242
1579.837, 15.55522
1580.319, 16.38312
1580.801, 16.91151
1581.283, 16.59633
1581.766, 16.00663
1582.248, 15.52933
1582.730, 15.04105
1583.212, 14.31542
1583.694, 13.74648
1584.176, 13.56454
1584.658, 13.56631
1585.140, 13.71525
1585.623, 13.95088
1586.105, 14.29019
1586.587, 14.31342
1587.069, 13.20517
1587.551, 11.74789
1588.033, 10.44479
1588.515, 9.619479
1588.997, 9.892753
1589.479, 10.45820
1589.962, 10.58111
1590.444, 10.48293
1590.926, 10.52840
1591.408, 10.57354
1591.890, 10.17080
1592.372, 9.555491
1592.854, 8.958392
1593.336, 8.588717
1593.818, 9.045489
1594.301, 8.445720
1594.783, 9.316478
1595.265, 8.168240
1595.747, 7.789599
1596.229, 8.104512
1596.711, 8.698902
1597.193, 9.299334
1597.675, 8.957510
1598.158, 8.044805
1598.640, 7.543329
1599.122, 7.531184
1599.604, 7.575510
1600.086, 7.643609
1600.568, 7.560600
1601.050, 7.327597
1601.532, 7.027837
1602.015, 6.753522
1602.497, 6.928268
1602.979, 7.520265
1603.461, 8.220993
1603.943, 8.934876
1604.425, 9.017125
1604.907, 7.865407
1605.389, 7.457545
1605.871, 7.885908
1606.354, 8.066122
1606.836, 7.868199
1607.318, 7.679837
1607.800, 7.645178
1608.282, 7.856681
1608.764, 8.499789
1609.246, 8.773966
1609.728, 8.094134
1610.210, 7.743918
1610.693, 7.904075
1611.175, 7.990415
1611.657, 7.844274
1612.139, 7.749321
1612.621, 7.854945
1613.103, 7.933735
1613.585, 7.729784
1614.067, 7.624965
1614.550, 8.098684
1615.032, 8.036729
1615.514, 7.003702
1615.996, 6.268048
1616.478, 6.425756
1616.960, 6.603366
1617.442, 6.029337
1617.924, 5.503129
1618.406, 5.585757
1618.889, 6.106292
1619.371, 7.389137
1619.853, 8.507074
1620.335, 9.152621
1620.817, 9.288041
1621.299, 8.843639
1621.781, 8.189252
1622.263, 7.616689
1622.745, 7.305954
1623.228, 7.657019
1623.710, 8.085347
1624.192, 8.314597
1624.674, 8.231434
1625.156, 7.683960
1625.638, 7.047872
1626.120, 6.719388
1626.602, 6.632902
1627.085, 6.771422
1627.567, 6.992441
1628.049, 7.258354
1628.531, 7.389182
1629.013, 7.130439
1629.495, 6.722749
1629.977, 6.312670
1630.459, 6.079488
1630.942, 6.503850
1631.424, 7.053369
1631.906, 6.218818
1632.388, 6.790570
1632.870, 5.781161
1633.352, 6.888504
1633.834, 7.147575
1634.316, 6.973432
1634.798, 6.929121
1635.281, 7.026068
1635.763, 7.425661
1636.245, 7.900293
1636.727, 8.012208
1637.209, 7.737847
1637.691, 6.602354
1638.173, 5.388610
1638.655, 5.554857
1639.137, 6.415481
1639.620, 6.596724
1640.102, 6.357452
1640.584, 6.914412
1641.066, 7.765822
1641.548, 7.690206
1642.030, 7.074471
1642.512, 6.373259
1642.994, 5.848353
1643.477, 5.820916
1643.959, 6.268024
1644.441, 7.439544
1644.923, 7.275958
1645.405, 8.803852
1645.887, 7.582212
1646.369, 6.997811
1646.851, 6.947889
1647.333, 7.036972
1647.816, 7.189066
1648.298, 7.420861
1648.780, 7.657979
1649.262, 7.257673
1649.744, 7.465290
1650.226, 7.396491
1650.708, 7.289457
1651.190, 7.363162
1651.672, 7.036906
1652.155, 6.984006
1652.637, 7.226040
1653.119, 7.533557
1653.601, 7.864440
1654.083, 7.458203
1654.565, 6.600968
1655.047, 6.254532
1655.529, 6.397354
1656.012, 7.057955
1656.494, 7.918844
1656.976, 8.182050
1657.458, 7.859689
1657.940, 7.078040
1658.422, 7.535653
1658.904, 6.348143
1659.386, 7.670469
1659.869, 8.014151
1660.351, 7.564303
1660.833, 6.938025
1661.315, 6.439006
1661.797, 6.818353
1662.279, 7.942304
1662.761, 8.069064
1663.243, 7.408015
1663.725, 7.333874
1664.208, 7.592290
1664.690, 7.328651
1665.172, 6.723798
1665.654, 6.458235
1666.136, 6.577171
1666.618, 6.757973
1667.100, 6.994248
1667.582, 7.239616
1668.064, 7.389813
1668.547, 6.821005
1669.029, 5.953877
1669.511, 5.802810
1669.993, 6.238146
1670.475, 6.456588
1670.957, 6.478273
1671.439, 6.817300
1671.921, 7.395051
1672.404, 7.350532
1672.886, 6.890604
1673.368, 6.343030
1673.850, 5.971992
1674.332, 6.359345
1674.814, 7.277047
1675.296, 7.790534
1675.778, 7.886319
1676.260, 7.310271
1676.743, 6.331204
1677.225, 5.978479
1677.707, 6.136131
1678.189, 6.664510
1678.671, 7.325004
1679.153, 7.822311
1679.635, 8.045081
1680.117, 7.635655
1680.599, 6.764040
1681.082, 6.426086
1681.564, 6.453296
1682.046, 6.476721
1682.528, 6.536669
1683.010, 6.869576
1683.492, 7.249793
1683.974, 7.114554
1684.456, 6.719438
1684.939, 7.092882
1685.421, 6.559167
1685.903, 7.225241
1686.385, 6.152214
1686.867, 6.100364
1687.349, 6.564733
1687.831, 6.603174
1688.313, 6.481589
1688.796, 6.786565
1689.278, 7.218779
1689.760, 6.718744
1690.242, 5.865552
1690.724, 5.685598
1691.206, 5.961678
1691.688, 6.685015
1692.170, 7.378397
1692.652, 7.500947
1693.135, 7.265905
1693.617, 6.934736
1694.099, 6.685813
1694.581, 7.267508
1695.063, 7.780733
1695.545, 6.667181
1696.027, 5.370842
1696.509, 5.389969
1696.991, 6.035437
1697.474, 6.842906
1697.956, 7.323836
1698.438, 6.299647
1698.920, 5.070774
1699.402, 5.537652
1699.884, 6.493808
1700.366, 7.202235
1700.848, 7.626330
1701.331, 7.819136
1701.813, 7.558441
1702.295, 6.512298
1702.777, 5.589686
1703.259, 6.411304
1703.741, 7.293851
1704.223, 6.552152
1704.705, 5.956306
1705.188, 6.537386
1705.670, 7.041888
1706.152, 6.787970
1706.634, 6.503273
1707.116, 6.864942
1707.598, 7.233117
1708.080, 6.999929
1708.562, 6.698539
1709.044, 6.380574
1709.526, 6.492072
1710.009, 7.255939
1710.491, 7.472341
1710.973, 6.550241
1711.455, 5.841384
1711.937, 6.460618
1712.419, 7.043699
1712.901, 6.939629
1713.383, 6.718226
1713.866, 6.438542
1714.348, 6.133609
1714.830, 5.840406
1715.312, 5.979899
1715.794, 6.720265
1716.276, 7.174204
1716.758, 6.653319
1717.240, 6.519263
1717.723, 7.022437
1718.205, 7.099614
1718.687, 6.698187
1719.169, 6.923146
1719.651, 6.795583
1720.133, 6.660106
1720.615, 6.924799
1721.097, 6.355829
1721.579, 6.739244
1722.062, 6.416601
1722.544, 5.475178
1723.026, 5.553313
1723.508, 5.388922
1723.990, 6.580285
1724.472, 5.977420
1724.954, 6.159960
1725.436, 7.271307
1725.918, 7.293131
1726.401, 6.315233
1726.883, 6.214248
1727.365, 6.741998
1727.847, 7.197218
1728.329, 7.498343
1728.811, 7.792137
1729.293, 7.904980
1729.775, 7.244331
1730.258, 7.467359
1730.740, 7.278926
1731.222, 7.191838
1731.704, 7.275589
1732.186, 7.033399
1732.668, 7.263933
1733.150, 7.128164
1733.632, 7.438717
1734.115, 7.069983
1734.597, 6.945532
1735.079, 7.025956
1735.561, 7.630469
1736.043, 7.936419
1736.525, 6.489210
1737.007, 5.034044
1737.489, 4.920647
1737.971, 5.345145
1738.453, 5.728140
1738.936, 6.118979
1739.418, 6.710163
1739.900, 7.046185
1740.382, 6.393100
1740.864, 5.848599
1741.346, 5.862394
1741.828, 6.307033
1742.310, 7.192607
1742.793, 7.447012
1743.275, 6.393365
1743.757, 5.442407
1744.239, 5.561971
1744.721, 6.134970
1745.203, 7.582956
1745.685, 7.693677
1746.167, 6.123250
1746.650, 4.899070
1747.132, 4.603600
1747.614, 4.916388
1748.096, 5.737414
1748.578, 6.275886
1749.060, 6.128236
1749.542, 6.479464
1750.024, 7.310790
1750.506, 7.430882
1750.989, 6.918436
1751.471, 6.621147
1751.953, 6.626465
1752.435, 6.353625
1752.917, 5.809959
1753.399, 6.460159
1753.881, 6.236005
1754.363, 6.314171
1754.845, 6.699947
1755.328, 6.503232
1755.810, 6.979257
1756.292, 7.168694
1756.774, 7.138586
1757.256, 7.283881
1757.738, 7.366084
1758.220, 6.353679
1758.702, 5.124912
1759.185, 5.350677
1759.667, 6.075664
1760.149, 6.447067
1760.631, 6.516355
1761.113, 6.313141
1761.595, 6.110446
1762.077, 6.271513
1762.559, 6.369438
1763.042, 5.631604
1763.524, 5.018051
1764.006, 5.356142
1764.488, 5.584027
1764.970, 5.334333
1765.452, 5.241497
1765.934, 5.601557
1766.416, 5.640581
1766.898, 4.648813
1767.380, 4.038409
1767.863, 4.554930
1768.345, 5.385599
1768.827, 6.532882
1769.309, 6.872037
1769.791, 6.386493
1770.273, 6.529274
1770.755, 6.395325
1771.237, 6.203687
1771.720, 6.362528
1772.202, 5.927072
1772.684, 6.379426
1773.166, 6.241241
1773.648, 5.637568
1774.130, 4.889335
1774.612, 4.416795
1775.094, 5.490351
1775.577, 7.378840
1776.059, 7.590547
1776.541, 6.653718
1777.023, 6.735430
1777.505, 7.230289
1777.987, 6.864346
1778.469, 6.447077
1778.951, 7.395838
1779.433, 8.340199
1779.916, 8.071254
1780.398, 7.194507
1780.880, 6.290813
1781.362, 5.692358
1781.844, 5.998643
1782.326, 6.410724
1782.808, 6.630311
1783.290, 6.482517
1783.772, 5.861569
1784.255, 5.619678
1784.737, 6.198943
1785.219, 6.751967
1785.701, 6.749842
1786.183, 6.623810
1786.665, 6.372793
1787.147, 6.369506
1787.629, 6.635658
1788.112, 7.084031
1788.594, 7.540906
1789.076, 7.184300
1789.558, 5.976869
1790.040, 6.201786
1790.522, 5.729128
1791.004, 5.590218
1791.486, 5.795743
1791.969, 5.582084
1792.451, 5.592004
1792.933, 6.212716
1793.415, 5.590476
1793.897, 5.416106
1794.379, 5.638164
1794.861, 6.263853
1795.343, 6.955993
1795.825, 7.102152
1796.307, 6.878110
1796.790, 6.092422
1797.272, 5.563181
1797.754, 5.836481
1798.236, 6.089240
1798.718, 5.738392
1799.200, 5.423826
1799.682, 5.766847
1800.164, 6.181464
##END=



