##NAMES=Greenockite
##RRUFFID=R070017
##IDEAL CHEMISTRY=Cd^2+^S^2-^
##LOCALITY=Siglo XX Mine, Llallagua, Potosi Department, Bolivia
##OWNER=RRUFF
##SOURCE=Mark Mauthner
##DESCRIPTION=Hexagonal tabular brick-red crystals
##STATUS=The identification of this mineral has been confirmed only by single crystal X-ray diffraction.
##URL=rruff.info/R070017
9.001007e+001, 0.000000e+000
9.049219e+001, 1.662174e+003
9.097430e+001, 1.667844e+003
9.145642e+001, 1.663454e+003
9.193854e+001, 1.650603e+003
9.242065e+001, 1.642610e+003
9.290277e+001, 1.657357e+003
9.338489e+001, 1.685463e+003
9.386700e+001, 1.704795e+003
9.434912e+001, 1.703113e+003
9.483124e+001, 1.689024e+003
9.531335e+001, 1.679234e+003
9.579547e+001, 1.673818e+003
9.627759e+001, 1.672055e+003
9.675970e+001, 1.675540e+003
9.724182e+001, 1.683701e+003
9.772394e+001, 1.688891e+003
9.820605e+001, 1.684994e+003
9.868817e+001, 1.673149e+003
9.917029e+001, 1.668567e+003
9.965240e+001, 1.673216e+003
1.001345e+002, 1.682172e+003
1.006166e+002, 1.685041e+003
1.010988e+002, 1.680229e+003
1.015809e+002, 1.676418e+003
1.020630e+002, 1.679082e+003
1.025451e+002, 1.689913e+003
1.030272e+002, 1.699222e+003
1.035093e+002, 1.707396e+003
1.039915e+002, 1.713534e+003
1.044736e+002, 1.712688e+003
1.049557e+002, 1.699327e+003
1.054378e+002, 1.687007e+003
1.059199e+002, 1.686510e+003
1.064020e+002, 1.709058e+003
1.068842e+002, 1.722353e+003
1.073663e+002, 1.718816e+003
1.078484e+002, 1.698172e+003
1.083305e+002, 1.685029e+003
1.088126e+002, 1.681521e+003
1.092947e+002, 1.684437e+003
1.097769e+002, 1.690892e+003
1.102590e+002, 1.707641e+003
1.107411e+002, 1.721078e+003
1.112232e+002, 1.727340e+003
1.117053e+002, 1.723970e+003
1.121874e+002, 1.724031e+003
1.126696e+002, 1.732848e+003
1.131517e+002, 1.744419e+003
1.136338e+002, 1.750968e+003
1.141159e+002, 1.744629e+003
1.145980e+002, 1.738580e+003
1.150801e+002, 1.737469e+003
1.155623e+002, 1.742832e+003
1.160444e+002, 1.750847e+003
1.165265e+002, 1.764074e+003
1.170086e+002, 1.779437e+003
1.174907e+002, 1.790065e+003
1.179728e+002, 1.788658e+003
1.184550e+002, 1.784868e+003
1.189371e+002, 1.785193e+003
1.194192e+002, 1.794165e+003
1.199013e+002, 1.802540e+003
1.203834e+002, 1.803291e+003
1.208655e+002, 1.798584e+003
1.213477e+002, 1.796892e+003
1.218298e+002, 1.810296e+003
1.223119e+002, 1.826535e+003
1.227940e+002, 1.832056e+003
1.232761e+002, 1.814039e+003
1.237582e+002, 1.791617e+003
1.242404e+002, 1.779535e+003
1.247225e+002, 1.777516e+003
1.252046e+002, 1.782140e+003
1.256867e+002, 1.794924e+003
1.261688e+002, 1.812297e+003
1.266509e+002, 1.827688e+003
1.271331e+002, 1.836076e+003
1.276152e+002, 1.841864e+003
1.280973e+002, 1.854478e+003
1.285794e+002, 1.874817e+003
1.290615e+002, 1.891058e+003
1.295436e+002, 1.885357e+003
1.300258e+002, 1.862585e+003
1.305079e+002, 1.844268e+003
1.309900e+002, 1.841219e+003
1.314721e+002, 1.850271e+003
1.319542e+002, 1.863562e+003
1.324363e+002, 1.882382e+003
1.329185e+002, 1.900523e+003
1.334006e+002, 1.906465e+003
1.338827e+002, 1.900257e+003
1.343648e+002, 1.894704e+003
1.348469e+002, 1.899020e+003
1.353290e+002, 1.912180e+003
1.358112e+002, 1.918397e+003
1.362933e+002, 1.914552e+003
1.367754e+002, 1.905561e+003
1.372575e+002, 1.903104e+003
1.377396e+002, 1.908377e+003
1.382217e+002, 1.914826e+003
1.387039e+002, 1.917744e+003
1.391860e+002, 1.916277e+003
1.396681e+002, 1.917389e+003
1.401502e+002, 1.921888e+003
1.406323e+002, 1.929507e+003
1.411144e+002, 1.940350e+003
1.415966e+002, 1.956815e+003
1.420787e+002, 1.971983e+003
1.425608e+002, 1.978999e+003
1.430429e+002, 1.972840e+003
1.435250e+002, 1.973060e+003
1.440071e+002, 1.985659e+003
1.444893e+002, 2.009742e+003
1.449714e+002, 2.024428e+003
1.454535e+002, 2.024464e+003
1.459356e+002, 2.020099e+003
1.464177e+002, 2.021102e+003
1.468998e+002, 2.031927e+003
1.473820e+002, 2.040996e+003
1.478641e+002, 2.044418e+003
1.483462e+002, 2.040270e+003
1.488283e+002, 2.044139e+003
1.493104e+002, 2.063132e+003
1.497925e+002, 2.086815e+003
1.502747e+002, 2.103315e+003
1.507568e+002, 2.102203e+003
1.512389e+002, 2.104262e+003
1.517210e+002, 2.114876e+003
1.522031e+002, 2.137041e+003
1.526852e+002, 2.157921e+003
1.531674e+002, 2.175283e+003
1.536495e+002, 2.191833e+003
1.541316e+002, 2.211578e+003
1.546137e+002, 2.226655e+003
1.550958e+002, 2.251977e+003
1.555779e+002, 2.292500e+003
1.560601e+002, 2.350604e+003
1.565422e+002, 2.418828e+003
1.570243e+002, 2.491274e+003
1.575064e+002, 2.573097e+003
1.579885e+002, 2.674278e+003
1.584706e+002, 2.799299e+003
1.589528e+002, 2.942452e+003
1.594349e+002, 3.100598e+003
1.599170e+002, 3.270037e+003
1.603991e+002, 3.460185e+003
1.608812e+002, 3.668861e+003
1.613633e+002, 3.899555e+003
1.618455e+002, 4.161421e+003
1.623276e+002, 4.451669e+003
1.628097e+002, 4.775947e+003
1.632918e+002, 5.142343e+003
1.637739e+002, 5.537705e+003
1.642560e+002, 5.991845e+003
1.647382e+002, 6.520637e+003
1.652203e+002, 7.119965e+003
1.657024e+002, 7.774052e+003
1.661845e+002, 8.471595e+003
1.666666e+002, 9.225547e+003
1.671487e+002, 1.003917e+004
1.676309e+002, 1.093466e+004
1.681130e+002, 1.188044e+004
1.685951e+002, 1.286141e+004
1.690772e+002, 1.387690e+004
1.695593e+002, 1.489798e+004
1.700414e+002, 1.591459e+004
1.705236e+002, 1.692938e+004
1.710057e+002, 1.793227e+004
1.714878e+002, 1.894515e+004
1.719699e+002, 1.994059e+004
1.724520e+002, 2.088417e+004
1.729341e+002, 2.178111e+004
1.734163e+002, 2.264299e+004
1.738984e+002, 2.347811e+004
1.743805e+002, 2.429055e+004
1.748626e+002, 2.506194e+004
1.753447e+002, 2.578477e+004
1.758268e+002, 2.647943e+004
1.763090e+002, 2.716378e+004
1.767911e+002, 2.783179e+004
1.772732e+002, 2.850375e+004
1.777553e+002, 2.905795e+004
1.782374e+002, 2.949112e+004
1.787195e+002, 2.993271e+004
1.792017e+002, 3.045447e+004
1.796838e+002, 3.101877e+004
1.801659e+002, 3.153881e+004
1.806480e+002, 3.201362e+004
1.811301e+002, 3.252396e+004
1.816122e+002, 3.317377e+004
1.820944e+002, 3.393800e+004
1.825765e+002, 3.471797e+004
1.830586e+002, 3.547187e+004
1.835407e+002, 3.621259e+004
1.840228e+002, 3.701082e+004
1.845049e+002, 3.786571e+004
1.849871e+002, 3.874860e+004
1.854692e+002, 3.962355e+004
1.859513e+002, 4.049522e+004
1.864334e+002, 4.133931e+004
1.869155e+002, 4.215034e+004
1.873976e+002, 4.293059e+004
1.878798e+002, 4.370347e+004
1.883619e+002, 4.447017e+004
1.888440e+002, 4.521913e+004
1.893261e+002, 4.591931e+004
1.898082e+002, 4.657795e+004
1.902903e+002, 4.720463e+004
1.907725e+002, 4.779768e+004
1.912546e+002, 4.836764e+004
1.917367e+002, 4.892823e+004
1.922188e+002, 4.948703e+004
1.927009e+002, 5.002723e+004
1.931830e+002, 5.050373e+004
1.936652e+002, 5.091491e+004
1.941473e+002, 5.130766e+004
1.946294e+002, 5.169854e+004
1.951115e+002, 5.208757e+004
1.955936e+002, 5.247822e+004
1.960757e+002, 5.287301e+004
1.965579e+002, 5.326530e+004
1.970400e+002, 5.364345e+004
1.975221e+002, 5.400752e+004
1.980042e+002, 5.435755e+004
1.984863e+002, 5.469024e+004
1.989684e+002, 5.500396e+004
1.994506e+002, 5.533612e+004
1.999327e+002, 5.568918e+004
2.004148e+002, 5.605749e+004
2.008969e+002, 5.642663e+004
2.013790e+002, 5.680129e+004
2.018611e+002, 5.717326e+004
2.023433e+002, 5.753846e+004
2.028254e+002, 5.789679e+004
2.033075e+002, 5.825349e+004
2.037896e+002, 5.860146e+004
2.042717e+002, 5.894996e+004
2.047538e+002, 5.932482e+004
2.052360e+002, 5.973380e+004
2.057181e+002, 6.013693e+004
2.062002e+002, 6.050557e+004
2.066823e+002, 6.083258e+004
2.071644e+002, 6.116822e+004
2.076465e+002, 6.152622e+004
2.081287e+002, 6.188792e+004
2.086108e+002, 6.220537e+004
2.090929e+002, 6.246832e+004
2.095750e+002, 6.271506e+004
2.100571e+002, 6.297085e+004
2.105392e+002, 6.324620e+004
2.110214e+002, 6.348630e+004
2.115035e+002, 6.367818e+004
2.119856e+002, 6.383513e+004
2.124677e+002, 6.401227e+004
2.129498e+002, 6.422490e+004
2.134319e+002, 6.442870e+004
2.139140e+002, 6.459739e+004
2.143962e+002, 6.472402e+004
2.148783e+002, 6.484714e+004
2.153604e+002, 6.497239e+004
2.158425e+002, 6.509680e+004
2.163246e+002, 6.520030e+004
2.168067e+002, 6.527667e+004
2.172889e+002, 6.534488e+004
2.177710e+002, 6.541117e+004
2.182531e+002, 6.546311e+004
2.187352e+002, 6.554864e+004
2.192173e+002, 6.567841e+004
2.196994e+002, 6.584463e+004
2.201816e+002, 6.600728e+004
2.206637e+002, 6.616805e+004
2.211458e+002, 6.632336e+004
2.216279e+002, 6.646521e+004
2.221100e+002, 6.658148e+004
2.225921e+002, 6.671879e+004
2.230743e+002, 6.688939e+004
2.235564e+002, 6.708456e+004
2.240385e+002, 6.727238e+004
2.245206e+002, 6.744941e+004
2.250027e+002, 6.762089e+004
2.254848e+002, 6.779135e+004
2.259670e+002, 6.796570e+004
2.264491e+002, 6.812830e+004
2.269312e+002, 6.827911e+004
2.274133e+002, 6.841873e+004
2.278954e+002, 6.855570e+004
2.283775e+002, 6.869145e+004
2.288597e+002, 6.881978e+004
2.293418e+002, 6.893632e+004
2.298239e+002, 6.904348e+004
2.303060e+002, 6.912964e+004
2.307881e+002, 6.918091e+004
2.312702e+002, 6.920733e+004
2.317524e+002, 6.925910e+004
2.322345e+002, 6.934643e+004
2.327166e+002, 6.943987e+004
2.331987e+002, 6.952177e+004
2.336808e+002, 6.959006e+004
2.341629e+002, 6.964712e+004
2.346451e+002, 6.969218e+004
2.351272e+002, 6.972502e+004
2.356093e+002, 6.974765e+004
2.360914e+002, 6.975863e+004
2.365735e+002, 6.976152e+004
2.370556e+002, 6.975652e+004
2.375378e+002, 6.973509e+004
2.380199e+002, 6.972722e+004
2.385020e+002, 6.973722e+004
2.389841e+002, 6.976396e+004
2.394662e+002, 6.980155e+004
2.399483e+002, 6.986287e+004
2.404305e+002, 6.992196e+004
2.409126e+002, 6.996403e+004
2.413947e+002, 6.997605e+004
2.418768e+002, 7.000483e+004
2.423589e+002, 7.006187e+004
2.428410e+002, 7.013723e+004
2.433232e+002, 7.019128e+004
2.438053e+002, 7.019463e+004
2.442874e+002, 7.021608e+004
2.447695e+002, 7.029329e+004
2.452516e+002, 7.045458e+004
2.457337e+002, 7.060452e+004
2.462159e+002, 7.073555e+004
2.466980e+002, 7.085213e+004
2.471801e+002, 7.096980e+004
2.476622e+002, 7.109663e+004
2.481443e+002, 7.121124e+004
2.486264e+002, 7.129789e+004
2.491086e+002, 7.133505e+004
2.495907e+002, 7.139673e+004
2.500728e+002, 7.149135e+004
2.505549e+002, 7.160983e+004
2.510370e+002, 7.173069e+004
2.515191e+002, 7.186611e+004
2.520013e+002, 7.198761e+004
2.524834e+002, 7.208208e+004
2.529655e+002, 7.213739e+004
2.534476e+002, 7.219912e+004
2.539297e+002, 7.227126e+004
2.544118e+002, 7.234917e+004
2.548940e+002, 7.242287e+004
2.553761e+002, 7.248939e+004
2.558582e+002, 7.255666e+004
2.563403e+002, 7.262417e+004
2.568224e+002, 7.268442e+004
2.573046e+002, 7.276691e+004
2.577867e+002, 7.288059e+004
2.582688e+002, 7.300755e+004
2.587509e+002, 7.311347e+004
2.592330e+002, 7.319177e+004
2.597151e+002, 7.325722e+004
2.601973e+002, 7.331243e+004
2.606794e+002, 7.335234e+004
2.611615e+002, 7.339817e+004
2.616436e+002, 7.344730e+004
2.621257e+002, 7.350480e+004
2.626078e+002, 7.358400e+004
2.630900e+002, 7.369914e+004
2.635721e+002, 7.380443e+004
2.640542e+002, 7.387754e+004
2.645363e+002, 7.391170e+004
2.650184e+002, 7.397950e+004
2.655005e+002, 7.409654e+004
2.659827e+002, 7.423327e+004
2.664648e+002, 7.434535e+004
2.669469e+002, 7.441999e+004
2.674290e+002, 7.450717e+004
2.679111e+002, 7.463298e+004
2.683932e+002, 7.480123e+004
2.688754e+002, 7.491947e+004
2.693575e+002, 7.496758e+004
2.698396e+002, 7.499345e+004
2.703217e+002, 7.505430e+004
2.708038e+002, 7.515173e+004
2.712859e+002, 7.527070e+004
2.717681e+002, 7.541245e+004
2.722502e+002, 7.557423e+004
2.727323e+002, 7.571877e+004
2.732144e+002, 7.583977e+004
2.736965e+002, 7.594996e+004
2.741786e+002, 7.606345e+004
2.746608e+002, 7.618379e+004
2.751429e+002, 7.629391e+004
2.756250e+002, 7.638633e+004
2.761071e+002, 7.646405e+004
2.765892e+002, 7.655186e+004
2.770714e+002, 7.664896e+004
2.775535e+002, 7.675502e+004
2.780356e+002, 7.687145e+004
2.785177e+002, 7.699880e+004
2.789998e+002, 7.712449e+004
2.794819e+002, 7.724175e+004
2.799641e+002, 7.735589e+004
2.804462e+002, 7.749484e+004
2.809283e+002, 7.766742e+004
2.814104e+002, 7.782708e+004
2.818925e+002, 7.792667e+004
2.823746e+002, 7.796551e+004
2.828568e+002, 7.802308e+004
2.833389e+002, 7.811892e+004
2.838210e+002, 7.823949e+004
2.843031e+002, 7.834352e+004
2.847852e+002, 7.843108e+004
2.852673e+002, 7.852259e+004
2.857495e+002, 7.863578e+004
2.862316e+002, 7.877064e+004
2.867137e+002, 7.890960e+004
2.871958e+002, 7.904944e+004
2.876779e+002, 7.919608e+004
2.881600e+002, 7.936209e+004
2.886422e+002, 7.954737e+004
2.891243e+002, 7.974330e+004
2.896064e+002, 7.994327e+004
2.900885e+002, 8.014645e+004
2.905706e+002, 8.034014e+004
2.910527e+002, 8.051708e+004
2.915349e+002, 8.069348e+004
2.920170e+002, 8.091198e+004
2.924991e+002, 8.116390e+004
2.929812e+002, 8.138772e+004
2.934633e+002, 8.153548e+004
2.939454e+002, 8.162548e+004
2.944276e+002, 8.171448e+004
2.949097e+002, 8.180606e+004
2.953918e+002, 8.189140e+004
2.958739e+002, 8.196306e+004
2.963560e+002, 8.201997e+004
2.968381e+002, 8.205863e+004
2.973203e+002, 8.208219e+004
2.978024e+002, 8.208571e+004
2.982845e+002, 8.206371e+004
2.987666e+002, 8.201748e+004
2.992487e+002, 8.193182e+004
2.997308e+002, 8.176734e+004
3.002130e+002, 8.154610e+004
3.006951e+002, 8.133424e+004
3.011772e+002, 8.116684e+004
3.016593e+002, 8.101981e+004
3.021414e+002, 8.085780e+004
3.026235e+002, 8.068206e+004
3.031057e+002, 8.049798e+004
3.035878e+002, 8.031486e+004
3.040699e+002, 8.012719e+004
3.045520e+002, 7.992658e+004
3.050341e+002, 7.968972e+004
3.055162e+002, 7.945893e+004
3.059984e+002, 7.928509e+004
3.064805e+002, 7.916299e+004
3.069626e+002, 7.904495e+004
3.074447e+002, 7.890435e+004
3.079268e+002, 7.874780e+004
3.084089e+002, 7.858464e+004
3.088911e+002, 7.841237e+004
3.093732e+002, 7.824184e+004
3.098553e+002, 7.808673e+004
3.103374e+002, 7.794277e+004
3.108195e+002, 7.779162e+004
3.113016e+002, 7.761180e+004
3.117838e+002, 7.742789e+004
3.122659e+002, 7.726062e+004
3.127480e+002, 7.711841e+004
3.132301e+002, 7.698364e+004
3.137122e+002, 7.684470e+004
3.141943e+002, 7.670348e+004
3.146765e+002, 7.656723e+004
3.151586e+002, 7.643517e+004
3.156407e+002, 7.631238e+004
3.161228e+002, 7.620302e+004
3.166049e+002, 7.611143e+004
3.170870e+002, 7.602123e+004
3.175692e+002, 7.593506e+004
3.180513e+002, 7.584481e+004
3.185334e+002, 7.573948e+004
3.190155e+002, 7.559023e+004
3.194976e+002, 7.544709e+004
3.199797e+002, 7.533216e+004
3.204619e+002, 7.524761e+004
3.209440e+002, 7.517960e+004
3.214261e+002, 7.512664e+004
3.219082e+002, 7.508664e+004
3.223903e+002, 7.505793e+004
3.228724e+002, 7.504180e+004
3.233546e+002, 7.503338e+004
3.238367e+002, 7.503177e+004
3.243188e+002, 7.503670e+004
3.248009e+002, 7.504633e+004
3.252830e+002, 7.506498e+004
3.257651e+002, 7.508645e+004
3.262473e+002, 7.510713e+004
3.267294e+002, 7.514715e+004
3.272115e+002, 7.516602e+004
3.276936e+002, 7.514517e+004
3.281757e+002, 7.509692e+004
3.286578e+002, 7.507655e+004
3.291400e+002, 7.509639e+004
3.296221e+002, 7.513736e+004
3.301042e+002, 7.519404e+004
3.305863e+002, 7.528908e+004
3.310684e+002, 7.536308e+004
3.315505e+002, 7.540159e+004
3.320327e+002, 7.542003e+004
3.325148e+002, 7.545186e+004
3.329969e+002, 7.549453e+004
3.334790e+002, 7.554906e+004
3.339611e+002, 7.561595e+004
3.344432e+002, 7.569501e+004
3.349254e+002, 7.577804e+004
3.354075e+002, 7.587098e+004
3.358896e+002, 7.595781e+004
3.363717e+002, 7.601333e+004
3.368538e+002, 7.602306e+004
3.373359e+002, 7.603299e+004
3.378180e+002, 7.605975e+004
3.383001e+002, 7.610302e+004
3.387823e+002, 7.612373e+004
3.392644e+002, 7.612038e+004
3.397465e+002, 7.610098e+004
3.402286e+002, 7.607695e+004
3.407107e+002, 7.605379e+004
3.411928e+002, 7.600151e+004
3.416750e+002, 7.590615e+004
3.421571e+002, 7.578274e+004
3.426392e+002, 7.569811e+004
3.431213e+002, 7.565930e+004
3.436034e+002, 7.562223e+004
3.440855e+002, 7.554855e+004
3.445677e+002, 7.544104e+004
3.450498e+002, 7.534451e+004
3.455319e+002, 7.526187e+004
3.460140e+002, 7.519797e+004
3.464961e+002, 7.517409e+004
3.469782e+002, 7.518842e+004
3.474604e+002, 7.519403e+004
3.479425e+002, 7.514750e+004
3.484246e+002, 7.506792e+004
3.489067e+002, 7.502948e+004
3.493888e+002, 7.503982e+004
3.498709e+002, 7.507252e+004
3.503531e+002, 7.509896e+004
3.508352e+002, 7.512123e+004
3.513173e+002, 7.514726e+004
3.517994e+002, 7.518277e+004
3.522815e+002, 7.522272e+004
3.527636e+002, 7.525377e+004
3.532458e+002, 7.527517e+004
3.537279e+002, 7.530680e+004
3.542100e+002, 7.536991e+004
3.546921e+002, 7.545301e+004
3.551742e+002, 7.553922e+004
3.556563e+002, 7.564564e+004
3.561385e+002, 7.572902e+004
3.566206e+002, 7.572683e+004
3.571027e+002, 7.565525e+004
3.575848e+002, 7.559648e+004
3.580669e+002, 7.561816e+004
3.585490e+002, 7.566653e+004
3.590312e+002, 7.568873e+004
3.595133e+002, 7.566506e+004
3.599954e+002, 7.563818e+004
3.604775e+002, 7.563045e+004
3.609596e+002, 7.563861e+004
3.614417e+002, 7.565495e+004
3.619239e+002, 7.568005e+004
3.624060e+002, 7.571123e+004
3.628881e+002, 7.575196e+004
3.633702e+002, 7.580727e+004
3.638523e+002, 7.584877e+004
3.643344e+002, 7.584992e+004
3.648166e+002, 7.583868e+004
3.652987e+002, 7.584711e+004
3.657808e+002, 7.590270e+004
3.662629e+002, 7.595869e+004
3.667450e+002, 7.599830e+004
3.672271e+002, 7.602123e+004
3.677093e+002, 7.605688e+004
3.681914e+002, 7.611930e+004
3.686735e+002, 7.618758e+004
3.691556e+002, 7.624842e+004
3.696377e+002, 7.630473e+004
3.701198e+002, 7.634529e+004
3.706020e+002, 7.635408e+004
3.710841e+002, 7.634345e+004
3.715662e+002, 7.636148e+004
3.720483e+002, 7.643219e+004
3.725304e+002, 7.650040e+004
3.730125e+002, 7.654392e+004
3.734947e+002, 7.655813e+004
3.739768e+002, 7.655541e+004
3.744589e+002, 7.652183e+004
3.749410e+002, 7.648234e+004
3.754231e+002, 7.648398e+004
3.759052e+002, 7.654800e+004
3.763874e+002, 7.659661e+004
3.768695e+002, 7.660130e+004
3.773516e+002, 7.656484e+004
3.778337e+002, 7.655204e+004
3.783158e+002, 7.656916e+004
3.787979e+002, 7.659691e+004
3.792801e+002, 7.661713e+004
3.797622e+002, 7.663039e+004
3.802443e+002, 7.664145e+004
3.807264e+002, 7.664751e+004
3.812085e+002, 7.665535e+004
3.816906e+002, 7.668530e+004
3.821728e+002, 7.673673e+004
3.826549e+002, 7.679396e+004
3.831370e+002, 7.684389e+004
3.836191e+002, 7.688845e+004
3.841012e+002, 7.693767e+004
3.845833e+002, 7.699309e+004
3.850655e+002, 7.704647e+004
3.855476e+002, 7.708166e+004
3.860297e+002, 7.710348e+004
3.865118e+002, 7.713009e+004
3.869939e+002, 7.717389e+004
3.874760e+002, 7.722686e+004
3.879582e+002, 7.728262e+004
3.884403e+002, 7.734217e+004
3.889224e+002, 7.739185e+004
3.894045e+002, 7.741913e+004
3.898866e+002, 7.743122e+004
3.903687e+002, 7.743677e+004
3.908509e+002, 7.742442e+004
3.913330e+002, 7.742419e+004
3.918151e+002, 7.747334e+004
3.922972e+002, 7.755892e+004
3.927793e+002, 7.762696e+004
3.932614e+002, 7.763269e+004
3.937436e+002, 7.762219e+004
3.942257e+002, 7.762734e+004
3.947078e+002, 7.765471e+004
3.951899e+002, 7.769371e+004
3.956720e+002, 7.774873e+004
3.961541e+002, 7.781037e+004
3.966363e+002, 7.786416e+004
3.971184e+002, 7.790136e+004
3.976005e+002, 7.793396e+004
3.980826e+002, 7.796277e+004
3.985647e+002, 7.798636e+004
3.990468e+002, 7.801837e+004
3.995290e+002, 7.807320e+004
4.000111e+002, 7.812960e+004
4.004932e+002, 7.817036e+004
4.009753e+002, 7.817559e+004
4.014574e+002, 7.819298e+004
4.019395e+002, 7.823334e+004
4.024217e+002, 7.829102e+004
4.029038e+002, 7.833520e+004
4.033859e+002, 7.834819e+004
4.038680e+002, 7.837452e+004
4.043501e+002, 7.844489e+004
4.048322e+002, 7.858433e+004
4.053144e+002, 7.867423e+004
4.057965e+002, 7.869705e+004
4.062786e+002, 7.868983e+004
4.067607e+002, 7.871174e+004
4.072428e+002, 7.876716e+004
4.077249e+002, 7.882625e+004
4.082071e+002, 7.887661e+004
4.086892e+002, 7.892114e+004
4.091713e+002, 7.898120e+004
4.096534e+002, 7.905911e+004
4.101355e+002, 7.913792e+004
4.106176e+002, 7.920013e+004
4.110998e+002, 7.924832e+004
4.115819e+002, 7.929855e+004
4.120640e+002, 7.935597e+004
4.125461e+002, 7.941263e+004
4.130282e+002, 7.945388e+004
4.135103e+002, 7.948176e+004
4.139925e+002, 7.951011e+004
4.144746e+002, 7.955320e+004
4.149567e+002, 7.959989e+004
4.154388e+002, 7.963041e+004
4.159209e+002, 7.964215e+004
4.164030e+002, 7.965034e+004
4.168852e+002, 7.967534e+004
4.173673e+002, 7.970481e+004
4.178494e+002, 7.971873e+004
4.183315e+002, 7.970208e+004
4.188136e+002, 7.967521e+004
4.192957e+002, 7.964283e+004
4.197779e+002, 7.960902e+004
4.202600e+002, 7.959325e+004
4.207421e+002, 7.962588e+004
4.212242e+002, 7.966889e+004
4.217063e+002, 7.969172e+004
4.221884e+002, 7.967019e+004
4.226706e+002, 7.966655e+004
4.231527e+002, 7.970167e+004
4.236348e+002, 7.976460e+004
4.241169e+002, 7.983417e+004
4.245990e+002, 7.992324e+004
4.250811e+002, 8.000292e+004
4.255633e+002, 8.005572e+004
4.260454e+002, 8.007313e+004
4.265275e+002, 8.011624e+004
4.270096e+002, 8.019179e+004
4.274917e+002, 8.028551e+004
4.279738e+002, 8.039127e+004
4.284560e+002, 8.053464e+004
4.289381e+002, 8.063021e+004
4.294202e+002, 8.065143e+004
4.299023e+002, 8.061990e+004
4.303844e+002, 8.061417e+004
4.308665e+002, 8.064445e+004
4.313487e+002, 8.067130e+004
4.318308e+002, 8.066238e+004
4.323129e+002, 8.061377e+004
4.327950e+002, 8.062620e+004
4.332771e+002, 8.071614e+004
4.337592e+002, 8.082828e+004
4.342414e+002, 8.089120e+004
4.347235e+002, 8.090900e+004
4.352056e+002, 8.092423e+004
4.356877e+002, 8.094973e+004
4.361698e+002, 8.098274e+004
4.366519e+002, 8.101919e+004
4.371341e+002, 8.105937e+004
4.376162e+002, 8.109984e+004
4.380983e+002, 8.114181e+004
4.385804e+002, 8.118248e+004
4.390625e+002, 8.121409e+004
4.395446e+002, 8.123189e+004
4.400268e+002, 8.125314e+004
4.405089e+002, 8.129018e+004
4.409910e+002, 8.134213e+004
4.414731e+002, 8.140638e+004
4.419552e+002, 8.150386e+004
4.424373e+002, 8.159544e+004
4.429195e+002, 8.165384e+004
4.434016e+002, 8.167809e+004
4.438837e+002, 8.169275e+004
4.443658e+002, 8.168080e+004
4.448479e+002, 8.167657e+004
4.453300e+002, 8.170763e+004
4.458122e+002, 8.181407e+004
4.462943e+002, 8.190865e+004
4.467764e+002, 8.196664e+004
4.472585e+002, 8.200160e+004
4.477406e+002, 8.204898e+004
4.482227e+002, 8.212958e+004
4.487049e+002, 8.220508e+004
4.491870e+002, 8.226866e+004
4.496691e+002, 8.232220e+004
4.501512e+002, 8.235141e+004
4.506333e+002, 8.234267e+004
4.511154e+002, 8.232635e+004
4.515976e+002, 8.233180e+004
4.520797e+002, 8.236511e+004
4.525618e+002, 8.240698e+004
4.530439e+002, 8.246255e+004
4.535260e+002, 8.252255e+004
4.540081e+002, 8.255185e+004
4.544903e+002, 8.254483e+004
4.549724e+002, 8.254791e+004
4.554545e+002, 8.258563e+004
4.559366e+002, 8.265545e+004
4.564187e+002, 8.275105e+004
4.569008e+002, 8.287524e+004
4.573830e+002, 8.300017e+004
4.578651e+002, 8.309400e+004
4.583472e+002, 8.315944e+004
4.588293e+002, 8.320017e+004
4.593114e+002, 8.320030e+004
4.597935e+002, 8.319214e+004
4.602757e+002, 8.321134e+004
4.607578e+002, 8.325634e+004
4.612399e+002, 8.332255e+004
4.617220e+002, 8.344887e+004
4.622041e+002, 8.357217e+004
4.626862e+002, 8.361941e+004
4.631684e+002, 8.356327e+004
4.636505e+002, 8.351184e+004
4.641326e+002, 8.353894e+004
4.646147e+002, 8.359970e+004
4.650968e+002, 8.363630e+004
4.655789e+002, 8.361088e+004
4.660611e+002, 8.358191e+004
4.665432e+002, 8.356293e+004
4.670253e+002, 8.355574e+004
4.675074e+002, 8.356284e+004
4.679895e+002, 8.359156e+004
4.684716e+002, 8.363050e+004
4.689538e+002, 8.367265e+004
4.694359e+002, 8.370727e+004
4.699180e+002, 8.376745e+004
4.704001e+002, 8.386448e+004
4.708822e+002, 8.397820e+004
4.713643e+002, 8.408270e+004
4.718465e+002, 8.418187e+004
4.723286e+002, 8.425445e+004
4.728107e+002, 8.428246e+004
4.732928e+002, 8.427688e+004
4.737749e+002, 8.431288e+004
4.742570e+002, 8.439677e+004
4.747392e+002, 8.448540e+004
4.752213e+002, 8.454184e+004
4.757034e+002, 8.457190e+004
4.761855e+002, 8.461823e+004
4.766676e+002, 8.468917e+004
4.771497e+002, 8.476644e+004
4.776319e+002, 8.482420e+004
4.781140e+002, 8.486779e+004
4.785961e+002, 8.491207e+004
4.790782e+002, 8.496552e+004
4.795603e+002, 8.502252e+004
4.800424e+002, 8.507673e+004
4.805246e+002, 8.512852e+004
4.810067e+002, 8.517913e+004
4.814888e+002, 8.523764e+004
4.819709e+002, 8.528998e+004
4.824530e+002, 8.531541e+004
4.829352e+002, 8.528573e+004
4.834173e+002, 8.528785e+004
4.838994e+002, 8.539123e+004
4.843815e+002, 8.553938e+004
4.848636e+002, 8.564565e+004
4.853457e+002, 8.565880e+004
4.858279e+002, 8.565970e+004
4.863100e+002, 8.565827e+004
4.867921e+002, 8.565623e+004
4.872742e+002, 8.568717e+004
4.877563e+002, 8.577859e+004
4.882384e+002, 8.587845e+004
4.887206e+002, 8.595852e+004
4.892027e+002, 8.601469e+004
4.896848e+002, 8.606673e+004
4.901669e+002, 8.611867e+004
4.906490e+002, 8.616455e+004
4.911311e+002, 8.618847e+004
4.916133e+002, 8.618463e+004
4.920954e+002, 8.619752e+004
4.925775e+002, 8.623884e+004
4.930596e+002, 8.630711e+004
4.935417e+002, 8.640774e+004
4.940238e+002, 8.653984e+004
4.945060e+002, 8.666800e+004
4.949881e+002, 8.676509e+004
4.954702e+002, 8.683545e+004
4.959523e+002, 8.689036e+004
4.964344e+002, 8.692661e+004
4.969165e+002, 8.696090e+004
4.973987e+002, 8.700666e+004
4.978808e+002, 8.706265e+004
4.983629e+002, 8.712610e+004
4.988450e+002, 8.721135e+004
4.993271e+002, 8.729172e+004
4.998092e+002, 8.734966e+004
5.002914e+002, 8.738834e+004
5.007735e+002, 8.741759e+004
5.012556e+002, 8.743845e+004
5.017377e+002, 8.745652e+004
5.022198e+002, 8.747561e+004
5.027019e+002, 8.749832e+004
5.031841e+002, 8.752117e+004
5.036662e+002, 8.753063e+004
5.041483e+002, 8.754731e+004
5.046304e+002, 8.759832e+004
5.051125e+002, 8.773086e+004
5.055946e+002, 8.781812e+004
5.060768e+002, 8.782045e+004
5.065589e+002, 8.775980e+004
5.070410e+002, 8.774959e+004
5.075231e+002, 8.779896e+004
5.080052e+002, 8.786997e+004
5.084873e+002, 8.794620e+004
5.089695e+002, 8.802605e+004
5.094516e+002, 8.811177e+004
5.099337e+002, 8.820427e+004
5.104158e+002, 8.829518e+004
5.108979e+002, 8.838088e+004
5.113800e+002, 8.845857e+004
5.118622e+002, 8.851163e+004
5.123443e+002, 8.852788e+004
5.128264e+002, 8.852898e+004
5.133085e+002, 8.852880e+004
5.137906e+002, 8.853505e+004
5.142728e+002, 8.857465e+004
5.147549e+002, 8.872498e+004
5.152370e+002, 8.887612e+004
5.157191e+002, 8.891110e+004
5.162012e+002, 8.881539e+004
5.166833e+002, 8.874667e+004
5.171655e+002, 8.880586e+004
5.176476e+002, 8.891058e+004
5.181297e+002, 8.899052e+004
5.186118e+002, 8.901717e+004
5.190939e+002, 8.903691e+004
5.195760e+002, 8.903667e+004
5.200582e+002, 8.903564e+004
5.205403e+002, 8.907929e+004
5.210224e+002, 8.919577e+004
5.215045e+002, 8.931594e+004
5.219866e+002, 8.941966e+004
5.224688e+002, 8.950684e+004
5.229509e+002, 8.960578e+004
5.234330e+002, 8.972508e+004
5.239151e+002, 8.983454e+004
5.243972e+002, 8.989914e+004
5.248793e+002, 8.991637e+004
5.253615e+002, 8.996558e+004
5.258436e+002, 9.005699e+004
5.263257e+002, 9.017133e+004
5.268078e+002, 9.029671e+004
5.272899e+002, 9.042500e+004
5.277720e+002, 9.051515e+004
5.282542e+002, 9.053105e+004
5.287363e+002, 9.051408e+004
5.292184e+002, 9.051557e+004
5.297005e+002, 9.053337e+004
5.301826e+002, 9.055605e+004
5.306647e+002, 9.058161e+004
5.311469e+002, 9.060698e+004
5.316290e+002, 9.063227e+004
5.321111e+002, 9.066009e+004
5.325932e+002, 9.067939e+004
5.330753e+002, 9.066573e+004
5.335574e+002, 9.065197e+004
5.340396e+002, 9.067236e+004
5.345217e+002, 9.077536e+004
5.350038e+002, 9.086517e+004
5.354859e+002, 9.091917e+004
5.359680e+002, 9.095119e+004
5.364501e+002, 9.100686e+004
5.369323e+002, 9.110452e+004
5.374144e+002, 9.119482e+004
5.378965e+002, 9.125463e+004
5.383786e+002, 9.128221e+004
5.388607e+002, 9.132723e+004
5.393428e+002, 9.139283e+004
5.398250e+002, 9.146148e+004
5.403071e+002, 9.150802e+004
5.407892e+002, 9.153563e+004
5.412713e+002, 9.159031e+004
5.417534e+002, 9.168273e+004
5.422355e+002, 9.179084e+004
5.427177e+002, 9.189404e+004
5.431998e+002, 9.198958e+004
5.436819e+002, 9.206616e+004
5.441640e+002, 9.211396e+004
5.446461e+002, 9.214333e+004
5.451282e+002, 9.214830e+004
5.456104e+002, 9.213641e+004
5.460925e+002, 9.215205e+004
5.465746e+002, 9.223117e+004
5.470567e+002, 9.233705e+004
5.475388e+002, 9.245272e+004
5.480209e+002, 9.258527e+004
5.485031e+002, 9.269411e+004
5.489852e+002, 9.274418e+004
5.494673e+002, 9.277952e+004
5.499494e+002, 9.284893e+004
5.504315e+002, 9.300470e+004
5.509136e+002, 9.311055e+004
5.513958e+002, 9.313202e+004
5.518779e+002, 9.309846e+004
5.523600e+002, 9.309783e+004
5.528421e+002, 9.313608e+004
5.533242e+002, 9.318477e+004
5.538063e+002, 9.323932e+004
5.542885e+002, 9.329644e+004
5.547706e+002, 9.331923e+004
5.552527e+002, 9.330380e+004
5.557348e+002, 9.329866e+004
5.562169e+002, 9.335311e+004
5.566990e+002, 9.345098e+004
5.571812e+002, 9.356034e+004
5.576633e+002, 9.368610e+004
5.581454e+002, 9.378680e+004
5.586275e+002, 9.380013e+004
5.591096e+002, 9.376424e+004
5.595917e+002, 9.374605e+004
5.600739e+002, 9.377654e+004
5.605560e+002, 9.382832e+004
5.610381e+002, 9.389308e+004
5.615202e+002, 9.396861e+004
5.620023e+002, 9.404896e+004
5.624844e+002, 9.414109e+004
5.629666e+002, 9.422914e+004
5.634487e+002, 9.430498e+004
5.639308e+002, 9.436714e+004
5.644129e+002, 9.442088e+004
5.648950e+002, 9.446477e+004
5.653771e+002, 9.450008e+004
5.658593e+002, 9.452191e+004
5.663414e+002, 9.451972e+004
5.668235e+002, 9.455338e+004
5.673056e+002, 9.464409e+004
5.677877e+002, 9.474965e+004
5.682698e+002, 9.478117e+004
5.687520e+002, 9.474441e+004
5.692341e+002, 9.472592e+004
5.697162e+002, 9.476408e+004
5.701983e+002, 9.483923e+004
5.706804e+002, 9.493284e+004
5.711625e+002, 9.504016e+004
5.716447e+002, 9.512396e+004
5.721268e+002, 9.512838e+004
5.726089e+002, 9.511773e+004
5.730910e+002, 9.515894e+004
5.735731e+002, 9.526614e+004
5.740552e+002, 9.537984e+004
5.745374e+002, 9.546702e+004
5.750195e+002, 9.555158e+004
5.755016e+002, 9.565584e+004
5.759837e+002, 9.581836e+004
5.764658e+002, 9.595395e+004
5.769479e+002, 9.603289e+004
5.774301e+002, 9.608252e+004
5.779122e+002, 9.615813e+004
5.783943e+002, 9.626660e+004
5.788764e+002, 9.638195e+004
5.793585e+002, 9.649580e+004
5.798406e+002, 9.660821e+004
5.803228e+002, 9.673370e+004
5.808049e+002, 9.687669e+004
5.812870e+002, 9.700157e+004
5.817691e+002, 9.707405e+004
5.822512e+002, 9.710870e+004
5.827333e+002, 9.717253e+004
5.832155e+002, 9.727534e+004
5.836975e+002, 9.736639e+004
5.841796e+002, 9.737553e+004
5.846617e+002, 9.734970e+004
5.851439e+002, 9.736478e+004
5.856260e+002, 9.744403e+004
5.861081e+002, 9.756792e+004
5.865902e+002, 9.778639e+004
5.870723e+002, 9.803588e+004
5.875544e+002, 9.818984e+004
5.880366e+002, 9.810037e+004
5.885187e+002, 9.802515e+004
5.890008e+002, 9.805246e+004
5.894829e+002, 9.817835e+004
5.899650e+002, 9.829642e+004
5.904471e+002, 9.841418e+004
5.909293e+002, 9.850865e+004
5.914114e+002, 9.855893e+004
5.918935e+002, 9.855411e+004
5.923756e+002, 9.857777e+004
5.928577e+002, 9.863518e+004
5.933398e+002, 9.870563e+004
5.938220e+002, 9.877816e+004
5.943041e+002, 9.885010e+004
5.947862e+002, 9.889440e+004
5.952683e+002, 9.890154e+004
5.957504e+002, 9.889573e+004
5.962325e+002, 9.891170e+004
5.967147e+002, 9.894164e+004
5.971968e+002, 9.896329e+004
5.976789e+002, 9.896130e+004
5.981610e+002, 9.895453e+004
5.986431e+002, 9.895230e+004
5.991252e+002, 9.895627e+004
5.996074e+002, 9.897145e+004
6.000895e+002, 9.902116e+004
6.005716e+002, 9.906399e+004
6.010537e+002, 9.907445e+004
6.015358e+002, 9.904004e+004
6.020179e+002, 9.902386e+004
6.025001e+002, 9.903665e+004
6.029822e+002, 9.905771e+004
6.034643e+002, 9.907111e+004
6.039464e+002, 9.907309e+004
6.044285e+002, 9.908550e+004
6.049106e+002, 9.911500e+004
6.053928e+002, 9.914603e+004
6.058749e+002, 9.913709e+004
6.063570e+002, 9.909445e+004
6.068391e+002, 9.910610e+004
6.073212e+002, 9.922394e+004
6.078033e+002, 9.937638e+004
6.082855e+002, 9.944810e+004
6.087676e+002, 9.945699e+004
6.092497e+002, 9.947341e+004
6.097318e+002, 9.955984e+004
6.102139e+002, 9.964963e+004
6.106960e+002, 9.967742e+004
6.111782e+002, 9.964252e+004
6.116603e+002, 9.962684e+004
6.121424e+002, 9.968158e+004
6.126245e+002, 9.974820e+004
6.131066e+002, 9.978977e+004
6.135887e+002, 9.979057e+004
6.140709e+002, 9.980208e+004
6.145530e+002, 9.984188e+004
6.150351e+002, 9.987971e+004
6.155172e+002, 9.987523e+004
6.159993e+002, 9.981183e+004
6.164814e+002, 9.978892e+004
6.169636e+002, 9.982986e+004
6.174457e+002, 9.990438e+004
6.179278e+002, 9.995594e+004
6.184099e+002, 9.998611e+004
6.188920e+002, 1.000166e+005
6.193741e+002, 1.000581e+005
6.198563e+002, 1.001018e+005
6.203384e+002, 1.001273e+005
6.208205e+002, 1.001390e+005
6.213026e+002, 1.001625e+005
6.217847e+002, 1.002328e+005
6.222668e+002, 1.003052e+005
6.227490e+002, 1.003407e+005
6.232311e+002, 1.003330e+005
6.237132e+002, 1.003305e+005
6.241953e+002, 1.003567e+005
6.246774e+002, 1.003880e+005
6.251595e+002, 1.004081e+005
6.256417e+002, 1.004100e+005
6.261238e+002, 1.004208e+005
6.266059e+002, 1.004467e+005
6.270880e+002, 1.004784e+005
6.275701e+002, 1.004949e+005
6.280522e+002, 1.004915e+005
6.285344e+002, 1.005292e+005
6.290165e+002, 1.006322e+005
6.294986e+002, 1.007654e+005
6.299807e+002, 1.008569e+005
6.304628e+002, 1.009140e+005
6.309449e+002, 1.009773e+005
6.314271e+002, 1.010725e+005
6.319092e+002, 1.011784e+005
6.323913e+002, 1.012708e+005
6.328734e+002, 1.013504e+005
6.333555e+002, 1.014273e+005
6.338376e+002, 1.014894e+005
6.343198e+002, 1.015619e+005
6.348019e+002, 1.016736e+005
6.352840e+002, 1.018446e+005
6.357661e+002, 1.019601e+005
6.362482e+002, 1.019773e+005
6.367303e+002, 1.019634e+005
6.372125e+002, 1.019612e+005
6.376946e+002, 1.019702e+005
6.381767e+002, 1.019997e+005
6.386588e+002, 1.020607e+005
6.391409e+002, 1.021264e+005
6.396230e+002, 1.021448e+005
6.401052e+002, 1.021214e+005
6.405873e+002, 1.021362e+005
6.410694e+002, 1.022253e+005
6.415515e+002, 1.023359e+005
6.420336e+002, 1.023774e+005
6.425157e+002, 1.023714e+005
6.429979e+002, 1.023821e+005
6.434800e+002, 1.024489e+005
6.439621e+002, 1.025359e+005
6.444442e+002, 1.026223e+005
6.449263e+002, 1.027073e+005
6.454084e+002, 1.027897e+005
6.458906e+002, 1.028817e+005
6.463727e+002, 1.029594e+005
6.468548e+002, 1.030031e+005
6.473369e+002, 1.030055e+005
6.478190e+002, 1.030368e+005
6.483011e+002, 1.031150e+005
6.487833e+002, 1.031953e+005
6.492654e+002, 1.032374e+005
6.497475e+002, 1.032368e+005
6.502296e+002, 1.032601e+005
6.507117e+002, 1.033122e+005
6.511938e+002, 1.033847e+005
6.516760e+002, 1.034641e+005
6.521581e+002, 1.035548e+005
6.526402e+002, 1.036751e+005
6.531223e+002, 1.038507e+005
6.536044e+002, 1.040116e+005
6.540865e+002, 1.040816e+005
6.545687e+002, 1.040947e+005
6.550508e+002, 1.041177e+005
6.555329e+002, 1.041812e+005
6.560150e+002, 1.042534e+005
6.564971e+002, 1.043189e+005
6.569792e+002, 1.043818e+005
6.574614e+002, 1.044653e+005
6.579435e+002, 1.045963e+005
6.584256e+002, 1.047102e+005
6.589077e+002, 1.047806e+005
6.593898e+002, 1.048093e+005
6.598719e+002, 1.048547e+005
6.603541e+002, 1.049224e+005
6.608362e+002, 1.049799e+005
6.613183e+002, 1.049942e+005
6.618004e+002, 1.049782e+005
6.622825e+002, 1.049846e+005
6.627646e+002, 1.050169e+005
6.632468e+002, 1.050634e+005
6.637289e+002, 1.051297e+005
6.642110e+002, 1.051986e+005
6.646931e+002, 1.052434e+005
6.651752e+002, 1.052470e+005
6.656573e+002, 1.052600e+005
6.661395e+002, 1.053114e+005
6.666216e+002, 1.053834e+005
6.671037e+002, 1.054543e+005
6.675858e+002, 1.055203e+005
6.680679e+002, 1.055853e+005
6.685500e+002, 1.056347e+005
6.690322e+002, 1.056896e+005
6.695143e+002, 1.058100e+005
6.699964e+002, 1.060197e+005
6.704785e+002, 1.061779e+005
6.709606e+002, 1.062277e+005
6.714427e+002, 1.062055e+005
6.719249e+002, 1.061916e+005
6.724070e+002, 1.061893e+005
6.728891e+002, 1.062299e+005
6.733712e+002, 1.063722e+005
6.738533e+002, 1.065432e+005
6.743354e+002, 1.066517e+005
6.748176e+002, 1.067013e+005
6.752997e+002, 1.067507e+005
6.757818e+002, 1.068373e+005
6.762639e+002, 1.069268e+005
6.767460e+002, 1.069966e+005
6.772281e+002, 1.070363e+005
6.777103e+002, 1.070837e+005
6.781924e+002, 1.071360e+005
6.786745e+002, 1.072009e+005
6.791566e+002, 1.072856e+005
6.796387e+002, 1.073928e+005
6.801208e+002, 1.075089e+005
6.806030e+002, 1.076366e+005
6.810851e+002, 1.077653e+005
6.815672e+002, 1.078958e+005
6.820493e+002, 1.080201e+005
6.825314e+002, 1.081063e+005
6.830135e+002, 1.081312e+005
6.834957e+002, 1.081482e+005
6.839778e+002, 1.082209e+005
6.844599e+002, 1.083250e+005
6.849420e+002, 1.084126e+005
6.854241e+002, 1.084591e+005
6.859063e+002, 1.084952e+005
6.863884e+002, 1.085212e+005
6.868705e+002, 1.085452e+005
6.873526e+002, 1.085943e+005
6.878347e+002, 1.086838e+005
6.883168e+002, 1.087819e+005
6.887990e+002, 1.088848e+005
6.892811e+002, 1.089917e+005
6.897632e+002, 1.090829e+005
6.902453e+002, 1.091564e+005
6.907274e+002, 1.092299e+005
6.912095e+002, 1.093092e+005
6.916917e+002, 1.093953e+005
6.921738e+002, 1.095058e+005
6.926559e+002, 1.096364e+005
6.931380e+002, 1.097400e+005
6.936201e+002, 1.097540e+005
6.941022e+002, 1.097379e+005
6.945844e+002, 1.097438e+005
6.950665e+002, 1.097766e+005
6.955486e+002, 1.098361e+005
6.960307e+002, 1.099379e+005
6.965128e+002, 1.100544e+005
6.969949e+002, 1.101673e+005
6.974771e+002, 1.102870e+005
6.979592e+002, 1.103792e+005
6.984413e+002, 1.104399e+005
6.989234e+002, 1.104805e+005
6.994055e+002, 1.105160e+005
6.998876e+002, 1.105481e+005
7.003698e+002, 1.105659e+005
7.008519e+002, 1.105664e+005
7.013340e+002, 1.105617e+005
7.018161e+002, 1.105646e+005
7.022982e+002, 1.105768e+005
7.027803e+002, 1.106002e+005
7.032625e+002, 1.106305e+005
7.037446e+002, 1.106801e+005
7.042267e+002, 1.107675e+005
7.047088e+002, 1.108791e+005
7.051909e+002, 1.109842e+005
7.056730e+002, 1.110565e+005
7.061552e+002, 1.111378e+005
7.066373e+002, 1.112370e+005
7.071194e+002, 1.113502e+005
7.076015e+002, 1.114681e+005
7.080836e+002, 1.115942e+005
7.085657e+002, 1.117023e+005
7.090479e+002, 1.117683e+005
7.095300e+002, 1.118076e+005
7.100121e+002, 1.119018e+005
7.104942e+002, 1.120479e+005
7.109763e+002, 1.121815e+005
7.114584e+002, 1.122509e+005
7.119406e+002, 1.122889e+005
7.124227e+002, 1.123379e+005
7.129048e+002, 1.124005e+005
7.133869e+002, 1.124550e+005
7.138690e+002, 1.124951e+005
7.143511e+002, 1.125229e+005
7.148333e+002, 1.125383e+005
7.153154e+002, 1.125352e+005
7.157975e+002, 1.125487e+005
7.162796e+002, 1.125937e+005
7.167617e+002, 1.126424e+005
7.172438e+002, 1.126707e+005
7.177260e+002, 1.126767e+005
7.182081e+002, 1.126970e+005
7.186902e+002, 1.127342e+005
7.191723e+002, 1.127876e+005
7.196544e+002, 1.128587e+005
7.201365e+002, 1.129442e+005
7.206187e+002, 1.130349e+005
7.211008e+002, 1.131278e+005
7.215829e+002, 1.132267e+005
7.220650e+002, 1.133339e+005
7.225471e+002, 1.134476e+005
7.230292e+002, 1.135681e+005
7.235114e+002, 1.136884e+005
7.239935e+002, 1.138171e+005
7.244756e+002, 1.139616e+005
7.249577e+002, 1.141108e+005
7.254398e+002, 1.142508e+005
7.259219e+002, 1.143793e+005
7.264041e+002, 1.144966e+005
7.268862e+002, 1.145959e+005
7.273683e+002, 1.146903e+005
7.278504e+002, 1.148208e+005
7.283325e+002, 1.149791e+005
7.288146e+002, 1.151088e+005
7.292968e+002, 1.151648e+005
7.297789e+002, 1.151947e+005
7.302610e+002, 1.152549e+005
7.307431e+002, 1.153351e+005
7.312252e+002, 1.154013e+005
7.317073e+002, 1.154223e+005
7.321895e+002, 1.154424e+005
7.326716e+002, 1.154749e+005
7.331537e+002, 1.155227e+005
7.336358e+002, 1.155988e+005
7.341179e+002, 1.157385e+005
7.346000e+002, 1.158496e+005
7.350822e+002, 1.158813e+005
7.355643e+002, 1.158456e+005
7.360464e+002, 1.158586e+005
7.365285e+002, 1.159230e+005
7.370106e+002, 1.159908e+005
7.374927e+002, 1.160122e+005
7.379749e+002, 1.160206e+005
7.384570e+002, 1.160752e+005
7.389391e+002, 1.161781e+005
7.394212e+002, 1.162972e+005
7.399033e+002, 1.164620e+005
7.403854e+002, 1.166005e+005
7.408676e+002, 1.166395e+005
7.413497e+002, 1.165250e+005
7.418318e+002, 1.164992e+005
7.423139e+002, 1.166274e+005
7.427960e+002, 1.167865e+005
7.432781e+002, 1.168943e+005
7.437603e+002, 1.169420e+005
7.442424e+002, 1.169988e+005
7.447245e+002, 1.170677e+005
7.452066e+002, 1.171451e+005
7.456887e+002, 1.172365e+005
7.461708e+002, 1.173354e+005
7.466530e+002, 1.174180e+005
7.471351e+002, 1.174761e+005
7.476172e+002, 1.175443e+005
7.480993e+002, 1.176660e+005
7.485814e+002, 1.178052e+005
7.490635e+002, 1.179178e+005
7.495457e+002, 1.179558e+005
7.500278e+002, 1.180299e+005
7.505099e+002, 1.181550e+005
7.509920e+002, 1.183175e+005
7.514741e+002, 1.185180e+005
7.519562e+002, 1.187794e+005
7.524384e+002, 1.189533e+005
7.529205e+002, 1.189933e+005
7.534026e+002, 1.189838e+005
7.538847e+002, 1.190516e+005
7.543668e+002, 1.191840e+005
7.548489e+002, 1.193409e+005
7.553311e+002, 1.195335e+005
7.558132e+002, 1.197003e+005
7.562953e+002, 1.197600e+005
7.567774e+002, 1.197599e+005
7.572595e+002, 1.197817e+005
7.577416e+002, 1.198897e+005
7.582238e+002, 1.199797e+005
7.587059e+002, 1.200186e+005
7.591880e+002, 1.200304e+005
7.596701e+002, 1.200652e+005
7.601522e+002, 1.201373e+005
7.606343e+002, 1.201930e+005
7.611165e+002, 1.202108e+005
7.615986e+002, 1.202157e+005
7.620807e+002, 1.202694e+005
7.625628e+002, 1.203671e+005
7.630449e+002, 1.204775e+005
7.635270e+002, 1.206016e+005
7.640092e+002, 1.207176e+005
7.644913e+002, 1.207935e+005
7.649734e+002, 1.208426e+005
7.654555e+002, 1.209090e+005
7.659376e+002, 1.210134e+005
7.664197e+002, 1.211296e+005
7.669019e+002, 1.212575e+005
7.673840e+002, 1.213896e+005
7.678661e+002, 1.214960e+005
7.683482e+002, 1.215740e+005
7.688303e+002, 1.216282e+005
7.693124e+002, 1.216430e+005
7.697946e+002, 1.216399e+005
7.702767e+002, 1.217060e+005
7.707588e+002, 1.218347e+005
7.712409e+002, 1.219663e+005
7.717230e+002, 1.220531e+005
7.722051e+002, 1.221341e+005
7.726873e+002, 1.222630e+005
7.731694e+002, 1.224313e+005
7.736515e+002, 1.225657e+005
7.741336e+002, 1.226176e+005
7.746157e+002, 1.226548e+005
7.750978e+002, 1.227008e+005
7.755800e+002, 1.227569e+005
7.760621e+002, 1.228404e+005
7.765442e+002, 1.229676e+005
7.770263e+002, 1.230774e+005
7.775084e+002, 1.231129e+005
7.779905e+002, 1.230997e+005
7.784727e+002, 1.231659e+005
7.789548e+002, 1.233074e+005
7.794369e+002, 1.234660e+005
7.799190e+002, 1.236146e+005
7.804011e+002, 1.237482e+005
7.808832e+002, 1.238653e+005
7.813654e+002, 1.239636e+005
7.818475e+002, 1.240397e+005
7.823296e+002, 1.240680e+005
7.828117e+002, 1.240941e+005
7.832938e+002, 1.241387e+005
7.837759e+002, 1.242019e+005
7.842581e+002, 1.242915e+005
7.847402e+002, 1.244181e+005
7.852223e+002, 1.245415e+005
7.857044e+002, 1.246519e+005
7.861865e+002, 1.247400e+005
7.866686e+002, 1.247422e+005
7.871508e+002, 1.246595e+005
7.876329e+002, 1.246035e+005
7.881150e+002, 1.246609e+005
7.885971e+002, 1.247831e+005
7.890792e+002, 1.249317e+005
7.895613e+002, 1.251068e+005
7.900435e+002, 1.252715e+005
7.905256e+002, 1.254091e+005
7.910077e+002, 1.255374e+005
7.914898e+002, 1.256636e+005
7.919719e+002, 1.257830e+005
7.924540e+002, 1.259139e+005
7.929362e+002, 1.260580e+005
7.934183e+002, 1.261881e+005
7.939004e+002, 1.262775e+005
7.943825e+002, 1.263332e+005
7.948646e+002, 1.263623e+005
7.953467e+002, 1.263656e+005
7.958289e+002, 1.263864e+005
7.963110e+002, 1.264809e+005
7.967931e+002, 1.265929e+005
7.972752e+002, 1.266749e+005
7.977573e+002, 1.267179e+005
7.982394e+002, 1.267570e+005
7.987216e+002, 1.268057e+005
7.992037e+002, 1.268468e+005
7.996858e+002, 1.268507e+005
8.001679e+002, 1.268004e+005
8.006500e+002, 1.268891e+005
8.011321e+002, 1.271416e+005
8.016143e+002, 1.273885e+005
8.020964e+002, 1.274367e+005
8.025785e+002, 1.273810e+005
8.030606e+002, 1.274073e+005
8.035427e+002, 1.275397e+005
8.040248e+002, 1.276925e+005
8.045070e+002, 1.278135e+005
8.049891e+002, 1.279346e+005
8.054712e+002, 1.280865e+005
8.059533e+002, 1.282968e+005
8.064354e+002, 1.284506e+005
8.069175e+002, 1.285029e+005
8.073997e+002, 1.285612e+005
8.078818e+002, 1.287300e+005
8.083639e+002, 1.290034e+005
8.088460e+002, 1.291884e+005
8.093281e+002, 1.292765e+005
8.098102e+002, 1.293008e+005
8.102924e+002, 1.292300e+005
8.107745e+002, 1.291423e+005
8.112566e+002, 1.291549e+005
8.117387e+002, 1.292923e+005
8.122208e+002, 1.294429e+005
8.127029e+002, 1.295504e+005
8.131851e+002, 1.296653e+005
8.136672e+002, 1.298288e+005
8.141493e+002, 1.300578e+005
8.146314e+002, 1.302705e+005
8.151135e+002, 1.304743e+005
8.155956e+002, 1.306388e+005
8.160778e+002, 1.307074e+005
8.165599e+002, 1.307074e+005
8.170420e+002, 1.307725e+005
8.175241e+002, 1.309100e+005
8.180062e+002, 1.310605e+005
8.184883e+002, 1.311769e+005
8.189705e+002, 1.312829e+005
8.194526e+002, 1.313982e+005
8.199347e+002, 1.315235e+005
8.204168e+002, 1.316592e+005
8.208989e+002, 1.318478e+005
8.213810e+002, 1.320062e+005
8.218632e+002, 1.320865e+005
8.223453e+002, 1.320808e+005
8.228274e+002, 1.320892e+005
8.233095e+002, 1.321176e+005
8.237916e+002, 1.321383e+005
8.242737e+002, 1.321043e+005
8.247559e+002, 1.320567e+005
8.252380e+002, 1.320882e+005
8.257201e+002, 1.322030e+005
8.262022e+002, 1.323290e+005
8.266843e+002, 1.324341e+005
8.271664e+002, 1.325263e+005
8.276486e+002, 1.326027e+005
8.281307e+002, 1.326574e+005
8.286128e+002, 1.327446e+005
8.290949e+002, 1.328748e+005
8.295770e+002, 1.330182e+005
8.300591e+002, 1.331652e+005
8.305413e+002, 1.333126e+005
8.310234e+002, 1.334409e+005
8.315055e+002, 1.335491e+005
8.319876e+002, 1.336431e+005
8.324697e+002, 1.337337e+005
8.329518e+002, 1.338082e+005
8.334340e+002, 1.338240e+005
8.339161e+002, 1.337888e+005
8.343982e+002, 1.338299e+005
8.348803e+002, 1.341081e+005
8.353624e+002, 1.343570e+005
8.358445e+002, 1.344457e+005
8.363267e+002, 1.343826e+005
8.368088e+002, 1.343739e+005
8.372909e+002, 1.344281e+005
8.377730e+002, 1.345008e+005
8.382551e+002, 1.345469e+005
8.387372e+002, 1.346010e+005
8.392194e+002, 1.347889e+005
8.397015e+002, 1.350839e+005
8.401836e+002, 1.353295e+005
8.406657e+002, 1.353845e+005
8.411478e+002, 1.354072e+005
8.416299e+002, 1.355003e+005
8.421121e+002, 1.356566e+005
8.425942e+002, 1.357699e+005
8.430763e+002, 1.357897e+005
8.435584e+002, 1.358452e+005
8.440405e+002, 1.359920e+005
8.445226e+002, 1.361992e+005
8.450048e+002, 1.363493e+005
8.454869e+002, 1.364437e+005
8.459690e+002, 1.365153e+005
8.464511e+002, 1.365610e+005
8.469332e+002, 1.366077e+005
8.474153e+002, 1.366983e+005
8.478975e+002, 1.368161e+005
8.483796e+002, 1.369127e+005
8.488617e+002, 1.369483e+005
8.493438e+002, 1.369908e+005
8.498259e+002, 1.370585e+005
8.503080e+002, 1.371485e+005
8.507902e+002, 1.372474e+005
8.512723e+002, 1.373502e+005
8.517544e+002, 1.375034e+005
8.522365e+002, 1.377486e+005
8.527186e+002, 1.380080e+005
8.532007e+002, 1.381177e+005
8.536829e+002, 1.381259e+005
8.541650e+002, 1.381662e+005
8.546471e+002, 1.383056e+005
8.551292e+002, 1.384676e+005
8.556113e+002, 1.386239e+005
8.560934e+002, 1.387733e+005
8.565756e+002, 1.389184e+005
8.570577e+002, 1.390594e+005
8.575398e+002, 1.391936e+005
8.580219e+002, 1.393206e+005
8.585040e+002, 1.394425e+005
8.589861e+002, 1.395526e+005
8.594683e+002, 1.396563e+005
8.599504e+002, 1.397909e+005
8.604325e+002, 1.399774e+005
8.609146e+002, 1.401500e+005
8.613967e+002, 1.402395e+005
8.618788e+002, 1.402817e+005
8.623610e+002, 1.403196e+005
8.628431e+002, 1.403461e+005
8.633252e+002, 1.404024e+005
8.638073e+002, 1.405244e+005
8.642894e+002, 1.406446e+005
8.647715e+002, 1.406782e+005
8.652537e+002, 1.406190e+005
8.657358e+002, 1.406491e+005
8.662179e+002, 1.407974e+005
8.667000e+002, 1.409512e+005
8.671821e+002, 1.409725e+005
8.676642e+002, 1.409405e+005
8.681464e+002, 1.409614e+005
8.686285e+002, 1.410533e+005
8.691106e+002, 1.412018e+005
8.695927e+002, 1.414766e+005
8.700748e+002, 1.417451e+005
8.705569e+002, 1.419045e+005
8.710391e+002, 1.419253e+005
8.715212e+002, 1.420203e+005
8.720033e+002, 1.421958e+005
8.724854e+002, 1.423992e+005
8.729675e+002, 1.425939e+005
8.734496e+002, 1.427792e+005
8.739318e+002, 1.429569e+005
8.744139e+002, 1.431228e+005
8.748960e+002, 1.432601e+005
8.753781e+002, 1.433405e+005
8.758602e+002, 1.434038e+005
8.763423e+002, 1.434832e+005
8.768245e+002, 1.435793e+005
8.773066e+002, 1.436300e+005
8.777887e+002, 1.436228e+005
8.782708e+002, 1.436144e+005
8.787529e+002, 1.436315e+005
8.792350e+002, 1.436719e+005
8.797172e+002, 1.437108e+005
8.801993e+002, 1.437560e+005
8.806814e+002, 1.438389e+005
8.811635e+002, 1.440171e+005
8.816456e+002, 1.442051e+005
8.821277e+002, 1.443173e+005
8.826099e+002, 1.443845e+005
8.830920e+002, 1.445013e+005
8.835741e+002, 1.447181e+005
8.840562e+002, 1.449325e+005
8.845383e+002, 1.451315e+005
8.850204e+002, 1.453104e+005
8.855026e+002, 1.454500e+005
8.859847e+002, 1.455512e+005
8.864668e+002, 1.456709e+005
8.869489e+002, 1.458251e+005
8.874310e+002, 1.459991e+005
8.879131e+002, 1.461932e+005
8.883953e+002, 1.463908e+005
8.888774e+002, 1.465713e+005
8.893595e+002, 1.467708e+005
8.898416e+002, 1.468902e+005
8.903237e+002, 1.468708e+005
8.908058e+002, 1.468118e+005
8.912880e+002, 1.468128e+005
8.917701e+002, 1.468776e+005
8.922522e+002, 1.469720e+005
8.927343e+002, 1.470987e+005
8.932164e+002, 1.472226e+005
8.936985e+002, 1.472864e+005
8.941807e+002, 1.473317e+005
8.946628e+002, 1.474345e+005
8.951449e+002, 1.476180e+005
8.956270e+002, 1.477626e+005
8.961091e+002, 1.477828e+005
8.965912e+002, 1.477887e+005
8.970734e+002, 1.478468e+005
8.975555e+002, 1.479613e+005
8.980376e+002, 1.480985e+005
8.985197e+002, 1.482681e+005
8.990018e+002, 1.484111e+005
8.994839e+002, 1.484522e+005
8.999661e+002, 1.484536e+005
9.004482e+002, 1.485358e+005
9.009303e+002, 1.486920e+005
9.014124e+002, 1.488532e+005
9.018945e+002, 1.489839e+005
9.023766e+002, 1.491137e+005
9.028588e+002, 1.492559e+005
9.033409e+002, 1.494070e+005
9.038230e+002, 1.495613e+005
9.043051e+002, 1.497157e+005
9.047872e+002, 1.498805e+005
9.052693e+002, 1.500657e+005
9.057515e+002, 1.502531e+005
9.062336e+002, 1.504087e+005
9.067157e+002, 1.505365e+005
9.071978e+002, 1.506491e+005
9.076799e+002, 1.507270e+005
9.081620e+002, 1.508214e+005
9.086442e+002, 1.509829e+005
9.091263e+002, 1.511689e+005
9.096084e+002, 1.513071e+005
9.100905e+002, 1.513741e+005
9.105726e+002, 1.514616e+005
9.110547e+002, 1.515850e+005
9.115369e+002, 1.517235e+005
9.120190e+002, 1.518568e+005
9.125011e+002, 1.519842e+005
9.129832e+002, 1.520975e+005
9.134653e+002, 1.521920e+005
9.139474e+002, 1.522955e+005
9.144296e+002, 1.524269e+005
9.149117e+002, 1.525725e+005
9.153938e+002, 1.527213e+005
9.158759e+002, 1.528713e+005
9.163580e+002, 1.530209e+005
9.168401e+002, 1.531730e+005
9.173223e+002, 1.533113e+005
9.178044e+002, 1.534276e+005
9.182865e+002, 1.535201e+005
9.187686e+002, 1.535734e+005
9.192507e+002, 1.535937e+005
9.197328e+002, 1.536327e+005
9.202150e+002, 1.537502e+005
9.206971e+002, 1.538745e+005
9.211792e+002, 1.539551e+005
9.216613e+002, 1.540003e+005
9.221434e+002, 1.540732e+005
9.226255e+002, 1.541839e+005
9.231077e+002, 1.543068e+005
9.235898e+002, 1.544342e+005
9.240719e+002, 1.545702e+005
9.245540e+002, 1.547424e+005
9.250361e+002, 1.549373e+005
9.255182e+002, 1.550995e+005
9.260004e+002, 1.551935e+005
9.264825e+002, 1.552688e+005
9.269646e+002, 1.553259e+005
9.274467e+002, 1.553922e+005
9.279288e+002, 1.555160e+005
9.284109e+002, 1.557597e+005
9.288931e+002, 1.559275e+005
9.293752e+002, 1.559933e+005
9.298573e+002, 1.560136e+005
9.303394e+002, 1.560458e+005
9.308215e+002, 1.560879e+005
9.313036e+002, 1.561277e+005
9.317858e+002, 1.561647e+005
9.322679e+002, 1.562206e+005
9.327500e+002, 1.563323e+005
9.332321e+002, 1.564581e+005
9.337142e+002, 1.565782e+005
9.341964e+002, 1.566960e+005
9.346785e+002, 1.567598e+005
9.351606e+002, 1.567381e+005
9.356427e+002, 1.567448e+005
9.361248e+002, 1.568497e+005
9.366069e+002, 1.570260e+005
9.370891e+002, 1.571715e+005
9.375712e+002, 1.572968e+005
9.380533e+002, 1.574495e+005
9.385354e+002, 1.576863e+005
9.390175e+002, 1.579233e+005
9.394996e+002, 1.581053e+005
9.399818e+002, 1.582454e+005
9.404639e+002, 1.583833e+005
9.409460e+002, 1.585099e+005
9.414281e+002, 1.586453e+005
9.419102e+002, 1.587871e+005
9.423923e+002, 1.589429e+005
9.428745e+002, 1.591532e+005
9.433566e+002, 1.593886e+005
9.438387e+002, 1.595421e+005
9.443208e+002, 1.595535e+005
9.448029e+002, 1.596070e+005
9.452850e+002, 1.598907e+005
9.457672e+002, 1.602161e+005
9.462493e+002, 1.603956e+005
9.467314e+002, 1.603812e+005
9.472135e+002, 1.604159e+005
9.476956e+002, 1.605118e+005
9.481777e+002, 1.606219e+005
9.486599e+002, 1.607080e+005
9.491420e+002, 1.607808e+005
9.496241e+002, 1.608542e+005
9.501062e+002, 1.609320e+005
9.505883e+002, 1.610402e+005
9.510704e+002, 1.612064e+005
9.515526e+002, 1.613917e+005
9.520347e+002, 1.615846e+005
9.525168e+002, 1.617790e+005
9.529989e+002, 1.619590e+005
9.534810e+002, 1.621320e+005
9.539631e+002, 1.622470e+005
9.544453e+002, 1.622741e+005
9.549274e+002, 1.622632e+005
9.554095e+002, 1.622799e+005
9.558916e+002, 1.623248e+005
9.563737e+002, 1.624034e+005
9.568558e+002, 1.625492e+005
9.573380e+002, 1.626721e+005
9.578201e+002, 1.627167e+005
9.583022e+002, 1.627450e+005
9.587843e+002, 1.628094e+005
9.592664e+002, 1.629102e+005
9.597485e+002, 1.630713e+005
9.602307e+002, 1.633031e+005
9.607128e+002, 1.635212e+005
9.611949e+002, 1.636143e+005
9.616770e+002, 1.636650e+005
9.621591e+002, 1.637954e+005
9.626412e+002, 1.640101e+005
9.631234e+002, 1.642234e+005
9.636055e+002, 1.643716e+005
9.640876e+002, 1.645534e+005
9.645697e+002, 1.648331e+005
9.650518e+002, 1.651672e+005
9.655339e+002, 1.653687e+005
9.660161e+002, 1.654365e+005
9.664982e+002, 1.654674e+005
9.669803e+002, 1.654578e+005
9.674624e+002, 1.654914e+005
9.679445e+002, 1.657255e+005
9.684266e+002, 1.660518e+005
9.689088e+002, 1.662869e+005
9.693909e+002, 1.663270e+005
9.698730e+002, 1.663502e+005
9.703551e+002, 1.663606e+005
9.708372e+002, 1.663751e+005
9.713193e+002, 1.664199e+005
9.718015e+002, 1.664917e+005
9.722836e+002, 1.665326e+005
9.727657e+002, 1.665378e+005
9.732478e+002, 1.665815e+005
9.737299e+002, 1.667471e+005
9.742120e+002, 1.669592e+005
9.746942e+002, 1.671706e+005
9.751763e+002, 1.673761e+005
9.756584e+002, 1.675295e+005
9.761405e+002, 1.675770e+005
9.766226e+002, 1.676930e+005
9.771047e+002, 1.679755e+005
9.775869e+002, 1.683390e+005
9.780690e+002, 1.685190e+005
9.785511e+002, 1.685605e+005
9.790332e+002, 1.686455e+005
9.795153e+002, 1.689026e+005
9.799974e+002, 1.691381e+005
9.804796e+002, 1.692018e+005
9.809617e+002, 1.692011e+005
9.814438e+002, 1.692953e+005
9.819259e+002, 1.695412e+005
9.824080e+002, 1.697193e+005
9.828901e+002, 1.698131e+005
9.833723e+002, 1.698730e+005
9.838544e+002, 1.699420e+005
9.843365e+002, 1.700183e+005
9.848186e+002, 1.700879e+005
9.853007e+002, 1.701526e+005
9.857828e+002, 1.702565e+005
9.862650e+002, 1.704452e+005
9.867471e+002, 1.706542e+005
9.872292e+002, 1.708623e+005
9.877113e+002, 1.710648e+005
9.881934e+002, 1.712270e+005
9.886755e+002, 1.713444e+005
9.891577e+002, 1.714983e+005
9.896398e+002, 1.717391e+005
9.901219e+002, 1.719901e+005
9.906040e+002, 1.721438e+005
9.910861e+002, 1.722445e+005
9.915682e+002, 1.723693e+005
9.920504e+002, 1.725796e+005
9.925325e+002, 1.727481e+005
9.930146e+002, 1.728414e+005
9.934967e+002, 1.729243e+005
9.939788e+002, 1.730827e+005
9.944609e+002, 1.733013e+005
9.949431e+002, 1.734233e+005
9.954252e+002, 1.734424e+005
9.959073e+002, 1.734576e+005
9.963894e+002, 1.735405e+005
9.968715e+002, 1.736505e+005
9.973536e+002, 1.737703e+005
9.978358e+002, 1.738945e+005
9.983179e+002, 1.739837e+005
9.988000e+002, 1.740023e+005
9.992821e+002, 1.740870e+005
9.997642e+002, 1.743021e+005
1.000246e+003, 1.745731e+005
1.000728e+003, 1.747515e+005
1.001211e+003, 1.748593e+005
1.001693e+003, 1.749396e+005
1.002175e+003, 1.749846e+005
1.002657e+003, 1.750557e+005
1.003139e+003, 1.751921e+005
1.003621e+003, 1.753594e+005
1.004103e+003, 1.755211e+005
1.004585e+003, 1.756708e+005
1.005068e+003, 1.758510e+005
1.005550e+003, 1.760635e+005
1.006032e+003, 1.762882e+005
1.006514e+003, 1.765272e+005
1.006996e+003, 1.767570e+005
1.007478e+003, 1.769508e+005
1.007960e+003, 1.771086e+005
1.008442e+003, 1.772445e+005
1.008924e+003, 1.773123e+005
1.009407e+003, 1.774292e+005
1.009889e+003, 1.776533e+005
1.010371e+003, 1.779068e+005
1.010853e+003, 1.780167e+005
1.011335e+003, 1.780051e+005
1.011817e+003, 1.779977e+005
1.012299e+003, 1.780213e+005
1.012781e+003, 1.780811e+005
1.013263e+003, 1.782167e+005
1.013746e+003, 1.783762e+005
1.014228e+003, 1.785054e+005
1.014710e+003, 1.785925e+005
1.015192e+003, 1.787295e+005
1.015674e+003, 1.789405e+005
1.016156e+003, 1.791297e+005
1.016638e+003, 1.791995e+005
1.017120e+003, 1.792256e+005
1.017603e+003, 1.793724e+005
1.018085e+003, 1.796197e+005
1.018567e+003, 1.798964e+005
1.019049e+003, 1.801948e+005
1.019531e+003, 1.804783e+005
1.020013e+003, 1.807284e+005
1.020495e+003, 1.809550e+005
1.020977e+003, 1.811772e+005
1.021459e+003, 1.813927e+005
1.021942e+003, 1.815676e+005
1.022424e+003, 1.816948e+005
1.022906e+003, 1.817972e+005
1.023388e+003, 1.819039e+005
1.023870e+003, 1.819972e+005
1.024352e+003, 1.820436e+005
1.024834e+003, 1.820367e+005
1.025316e+003, 1.821100e+005
1.025799e+003, 1.823250e+005
1.026281e+003, 1.825144e+005
1.026763e+003, 1.825865e+005
1.027245e+003, 1.826159e+005
1.027727e+003, 1.828405e+005
1.028209e+003, 1.831987e+005
1.028691e+003, 1.834758e+005
1.029173e+003, 1.835329e+005
1.029656e+003, 1.835805e+005
1.030138e+003, 1.837049e+005
1.030620e+003, 1.838715e+005
1.031102e+003, 1.840414e+005
1.031584e+003, 1.842098e+005
1.032066e+003, 1.844017e+005
1.032548e+003, 1.846191e+005
1.033030e+003, 1.848291e+005
1.033512e+003, 1.849571e+005
1.033995e+003, 1.850897e+005
1.034477e+003, 1.853753e+005
1.034959e+003, 1.857803e+005
1.035441e+003, 1.860735e+005
1.035923e+003, 1.861517e+005
1.036405e+003, 1.861813e+005
1.036887e+003, 1.861663e+005
1.037369e+003, 1.861565e+005
1.037851e+003, 1.862863e+005
1.038334e+003, 1.865116e+005
1.038816e+003, 1.866552e+005
1.039298e+003, 1.866597e+005
1.039780e+003, 1.866705e+005
1.040262e+003, 1.867963e+005
1.040744e+003, 1.869548e+005
1.041226e+003, 1.870730e+005
1.041708e+003, 1.871473e+005
1.042191e+003, 1.872811e+005
1.042673e+003, 1.874831e+005
1.043155e+003, 1.876892e+005
1.043637e+003, 1.878793e+005
1.044119e+003, 1.880443e+005
1.044601e+003, 1.881335e+005
1.045083e+003, 1.881925e+005
1.045565e+003, 1.883221e+005
1.046047e+003, 1.886639e+005
1.046530e+003, 1.889069e+005
1.047012e+003, 1.889751e+005
1.047494e+003, 1.890094e+005
1.047976e+003, 1.891777e+005
1.048458e+003, 1.894537e+005
1.048940e+003, 1.897060e+005
1.049422e+003, 1.899248e+005
1.049904e+003, 1.901244e+005
1.050386e+003, 1.903298e+005
1.050869e+003, 1.905054e+005
1.051351e+003, 1.905719e+005
1.051833e+003, 1.905831e+005
1.052315e+003, 1.907963e+005
1.052797e+003, 1.912505e+005
1.053279e+003, 1.916021e+005
1.053761e+003, 1.917464e+005
1.054243e+003, 1.917982e+005
1.054726e+003, 1.918425e+005
1.055208e+003, 1.919145e+005
1.055690e+003, 1.920760e+005
1.056172e+003, 1.923852e+005
1.056654e+003, 1.926352e+005
1.057136e+003, 1.927874e+005
1.057618e+003, 1.929236e+005
1.058100e+003, 1.931033e+005
1.058583e+003, 1.933053e+005
1.059065e+003, 1.934343e+005
1.059547e+003, 1.935035e+005
1.060029e+003, 1.935725e+005
1.060511e+003, 1.936700e+005
1.060993e+003, 1.937747e+005
1.061475e+003, 1.938491e+005
1.061957e+003, 1.939424e+005
1.062439e+003, 1.941398e+005
1.062922e+003, 1.944606e+005
1.063404e+003, 1.947152e+005
1.063886e+003, 1.948853e+005
1.064368e+003, 1.950186e+005
1.064850e+003, 1.951552e+005
1.065332e+003, 1.952798e+005
1.065814e+003, 1.953520e+005
1.066296e+003, 1.953780e+005
1.066778e+003, 1.954911e+005
1.067261e+003, 1.957643e+005
1.067743e+003, 1.959653e+005
1.068225e+003, 1.959987e+005
1.068707e+003, 1.959864e+005
1.069189e+003, 1.961702e+005
1.069671e+003, 1.964814e+005
1.070153e+003, 1.967740e+005
1.070635e+003, 1.970268e+005
1.071118e+003, 1.971917e+005
1.071600e+003, 1.971669e+005
1.072082e+003, 1.971210e+005
1.072564e+003, 1.971565e+005
1.073046e+003, 1.972662e+005
1.073528e+003, 1.973185e+005
1.074010e+003, 1.973238e+005
1.074492e+003, 1.974085e+005
1.074974e+003, 1.977485e+005
1.075457e+003, 1.980726e+005
1.075939e+003, 1.980947e+005
1.076421e+003, 1.979940e+005
1.076903e+003, 1.980940e+005
1.077385e+003, 1.985134e+005
1.077867e+003, 1.987880e+005
1.078349e+003, 1.988685e+005
1.078831e+003, 1.989129e+005
1.079313e+003, 1.990647e+005
1.079796e+003, 1.992711e+005
1.080278e+003, 1.994636e+005
1.080760e+003, 1.996369e+005
1.081242e+003, 1.997880e+005
1.081724e+003, 1.998593e+005
1.082206e+003, 1.999883e+005
1.082688e+003, 2.002284e+005
1.083170e+003, 2.005062e+005
1.083652e+003, 2.006675e+005
1.084135e+003, 2.007491e+005
1.084617e+003, 2.008955e+005
1.085099e+003, 2.011488e+005
1.085581e+003, 2.013673e+005
1.086063e+003, 2.014727e+005
1.086545e+003, 2.015100e+005
1.087027e+003, 2.014742e+005
1.087509e+003, 2.013866e+005
1.087992e+003, 2.014712e+005
1.088474e+003, 2.017301e+005
1.088956e+003, 2.020171e+005
1.089438e+003, 2.023025e+005
1.089920e+003, 2.025401e+005
1.090402e+003, 2.026150e+005
1.090884e+003, 2.026475e+005
1.091366e+003, 2.028183e+005
1.091849e+003, 2.032467e+005
1.092331e+003, 2.035411e+005
1.092813e+003, 2.036691e+005
1.093295e+003, 2.037731e+005
1.093777e+003, 2.039586e+005
1.094259e+003, 2.041887e+005
1.094741e+003, 2.044127e+005
1.095223e+003, 2.046237e+005
1.095705e+003, 2.048054e+005
1.096188e+003, 2.048583e+005
1.096670e+003, 2.050107e+005
1.097152e+003, 2.053500e+005
1.097634e+003, 2.057248e+005
1.098116e+003, 2.059194e+005
1.098598e+003, 2.059762e+005
1.099080e+003, 2.060907e+005
1.099562e+003, 2.062810e+005
1.100044e+003, 2.065125e+005
1.100527e+003, 2.068471e+005
1.101009e+003, 2.071375e+005
1.101491e+003, 2.073005e+005
1.101973e+003, 2.073654e+005
1.102455e+003, 2.073819e+005
1.102937e+003, 2.073519e+005
1.103419e+003, 2.073830e+005
1.103901e+003, 2.075147e+005
1.104384e+003, 2.076701e+005
1.104866e+003, 2.077373e+005
1.105348e+003, 2.078139e+005
1.105830e+003, 2.080333e+005
1.106312e+003, 2.084363e+005
1.106794e+003, 2.086691e+005
1.107276e+003, 2.086841e+005
1.107758e+003, 2.087154e+005
1.108240e+003, 2.088800e+005
1.108723e+003, 2.091078e+005
1.109205e+003, 2.092774e+005
1.109687e+003, 2.094320e+005
1.110169e+003, 2.096577e+005
1.110651e+003, 2.100182e+005
1.111133e+003, 2.103925e+005
1.111615e+003, 2.108342e+005
1.112097e+003, 2.111780e+005
1.112579e+003, 2.112099e+005
1.113062e+003, 2.110482e+005
1.113544e+003, 2.111442e+005
1.114026e+003, 2.114507e+005
1.114508e+003, 2.117213e+005
1.114990e+003, 2.117975e+005
1.115472e+003, 2.118680e+005
1.115954e+003, 2.119910e+005
1.116436e+003, 2.121407e+005
1.116919e+003, 2.122840e+005
1.117401e+003, 2.124254e+005
1.117883e+003, 2.125861e+005
1.118365e+003, 2.127702e+005
1.118847e+003, 2.129605e+005
1.119329e+003, 2.131420e+005
1.119811e+003, 2.133302e+005
1.120293e+003, 2.135463e+005
1.120776e+003, 2.137769e+005
1.121258e+003, 2.139701e+005
1.121740e+003, 2.141193e+005
1.122222e+003, 2.142831e+005
1.122704e+003, 2.144818e+005
1.123186e+003, 2.146478e+005
1.123668e+003, 2.146531e+005
1.124150e+003, 2.146262e+005
1.124632e+003, 2.147250e+005
1.125115e+003, 2.149819e+005
1.125597e+003, 2.151263e+005
1.126079e+003, 2.150940e+005
1.126561e+003, 2.151689e+005
1.127043e+003, 2.155295e+005
1.127525e+003, 2.159478e+005
1.128007e+003, 2.159988e+005
1.128489e+003, 2.158606e+005
1.128971e+003, 2.158428e+005
1.129454e+003, 2.160882e+005
1.129936e+003, 2.162884e+005
1.130418e+003, 2.164057e+005
1.130900e+003, 2.165015e+005
1.131382e+003, 2.166034e+005
1.131864e+003, 2.167190e+005
1.132346e+003, 2.168692e+005
1.132828e+003, 2.170518e+005
1.133311e+003, 2.172616e+005
1.133793e+003, 2.174744e+005
1.134275e+003, 2.177389e+005
1.134757e+003, 2.180982e+005
1.135239e+003, 2.184686e+005
1.135721e+003, 2.187715e+005
1.136203e+003, 2.190065e+005
1.136685e+003, 2.192170e+005
1.137167e+003, 2.194036e+005
1.137650e+003, 2.195814e+005
1.138132e+003, 2.197298e+005
1.138614e+003, 2.199017e+005
1.139096e+003, 2.201966e+005
1.139578e+003, 2.205010e+005
1.140060e+003, 2.205895e+005
1.140542e+003, 2.204588e+005
1.141024e+003, 2.204813e+005
1.141506e+003, 2.207054e+005
1.141989e+003, 2.209712e+005
1.142471e+003, 2.212052e+005
1.142953e+003, 2.213923e+005
1.143435e+003, 2.214970e+005
1.143917e+003, 2.215443e+005
1.144399e+003, 2.216402e+005
1.144881e+003, 2.217834e+005
1.145363e+003, 2.219930e+005
1.145846e+003, 2.222798e+005
1.146328e+003, 2.225790e+005
1.146810e+003, 2.228391e+005
1.147292e+003, 2.230504e+005
1.147774e+003, 2.231644e+005
1.148256e+003, 2.231613e+005
1.148738e+003, 2.233470e+005
1.149220e+003, 2.238036e+005
1.149703e+003, 2.241466e+005
1.150185e+003, 2.242010e+005
1.150667e+003, 2.241551e+005
1.151149e+003, 2.242697e+005
1.151631e+003, 2.244838e+005
1.152113e+003, 2.247093e+005
1.152595e+003, 2.249425e+005
1.153077e+003, 2.251367e+005
1.153559e+003, 2.252943e+005
1.154042e+003, 2.254080e+005
1.154524e+003, 2.254397e+005
1.155006e+003, 2.254569e+005
1.155488e+003, 2.256577e+005
1.155970e+003, 2.259626e+005
1.156452e+003, 2.261673e+005
1.156934e+003, 2.261240e+005
1.157416e+003, 2.261341e+005
1.157898e+003, 2.262486e+005
1.158381e+003, 2.264037e+005
1.158863e+003, 2.265602e+005
1.159345e+003, 2.267183e+005
1.159827e+003, 2.268633e+005
1.160309e+003, 2.270025e+005
1.160791e+003, 2.271639e+005
1.161273e+003, 2.273379e+005
1.161755e+003, 2.275641e+005
1.162238e+003, 2.278698e+005
1.162720e+003, 2.282023e+005
1.163202e+003, 2.285247e+005
1.163684e+003, 2.288268e+005
1.164166e+003, 2.290452e+005
1.164648e+003, 2.291843e+005
1.165130e+003, 2.293143e+005
1.165612e+003, 2.294865e+005
1.166094e+003, 2.296430e+005
1.166577e+003, 2.297300e+005
1.167059e+003, 2.298096e+005
1.167541e+003, 2.300140e+005
1.168023e+003, 2.303280e+005
1.168505e+003, 2.304818e+005
1.168987e+003, 2.304496e+005
1.169469e+003, 2.304324e+005
1.169951e+003, 2.305638e+005
1.170433e+003, 2.307625e+005
1.170916e+003, 2.310262e+005
1.171398e+003, 2.313094e+005
1.171880e+003, 2.314853e+005
1.172362e+003, 2.315558e+005
1.172844e+003, 2.316657e+005
1.173326e+003, 2.318371e+005
1.173808e+003, 2.320653e+005
1.174290e+003, 2.324057e+005
1.174773e+003, 2.327446e+005
1.175255e+003, 2.329653e+005
1.175737e+003, 2.330965e+005
1.176219e+003, 2.333022e+005
1.176701e+003, 2.335909e+005
1.177183e+003, 2.338036e+005
1.177665e+003, 2.338827e+005
1.178147e+003, 2.339397e+005
1.178630e+003, 2.340598e+005
1.179112e+003, 2.342280e+005
1.179594e+003, 2.344415e+005
1.180076e+003, 2.346992e+005
1.180558e+003, 2.349815e+005
1.181040e+003, 2.353020e+005
1.181522e+003, 2.355446e+005
1.182004e+003, 2.356388e+005
1.182486e+003, 2.356960e+005
1.182969e+003, 2.358032e+005
1.183451e+003, 2.359587e+005
1.183933e+003, 2.361659e+005
1.184415e+003, 2.364235e+005
1.184897e+003, 2.367365e+005
1.185379e+003, 2.371306e+005
1.185861e+003, 2.374054e+005
1.186343e+003, 2.373618e+005
1.186825e+003, 2.372722e+005
1.187308e+003, 2.375015e+005
1.187790e+003, 2.378884e+005
1.188272e+003, 2.381822e+005
1.188754e+003, 2.383473e+005
1.189236e+003, 2.383960e+005
1.189718e+003, 2.382975e+005
1.190200e+003, 2.382493e+005
1.190682e+003, 2.383907e+005
1.191165e+003, 2.386492e+005
1.191647e+003, 2.390195e+005
1.192129e+003, 2.394174e+005
1.192611e+003, 2.396631e+005
1.193093e+003, 2.396142e+005
1.193575e+003, 2.396815e+005
1.194057e+003, 2.399011e+005
1.194539e+003, 2.401191e+005
1.195021e+003, 2.401528e+005
1.195504e+003, 2.401564e+005
1.195986e+003, 2.403646e+005
1.196468e+003, 2.407186e+005
1.196950e+003, 2.410380e+005
1.197432e+003, 2.412827e+005
1.197914e+003, 2.415078e+005
1.198396e+003, 2.417147e+005
1.198878e+003, 2.419003e+005
1.199360e+003, 2.420515e+005
1.199843e+003, 2.421845e+005
1.200325e+003, 2.423085e+005
1.200807e+003, 2.424342e+005
1.201289e+003, 2.426009e+005
1.201771e+003, 2.428669e+005
1.202253e+003, 2.430517e+005
1.202735e+003, 2.431087e+005
1.203217e+003, 2.431853e+005
1.203700e+003, 2.434582e+005
1.204182e+003, 2.438445e+005
1.204664e+003, 2.442490e+005
1.205146e+003, 2.446556e+005
1.205628e+003, 2.450415e+005
1.206110e+003, 2.454328e+005
1.206592e+003, 2.457082e+005
1.207074e+003, 2.458114e+005
1.207557e+003, 2.458868e+005
1.208039e+003, 2.461262e+005
1.208521e+003, 2.464436e+005
1.209003e+003, 2.467265e+005
1.209485e+003, 2.469635e+005
1.209967e+003, 2.471806e+005
1.210449e+003, 2.473808e+005
1.210931e+003, 2.475706e+005
1.211413e+003, 2.477545e+005
1.211896e+003, 2.479331e+005
1.212378e+003, 2.481113e+005
1.212860e+003, 2.482911e+005
1.213342e+003, 2.485009e+005
1.213824e+003, 2.487468e+005
1.214306e+003, 2.488448e+005
1.214788e+003, 2.487038e+005
1.215270e+003, 2.486521e+005
1.215752e+003, 2.488045e+005
1.216235e+003, 2.490181e+005
1.216717e+003, 2.490902e+005
1.217199e+003, 2.490930e+005
1.217681e+003, 2.491224e+005
1.218163e+003, 2.491944e+005
1.218645e+003, 2.493069e+005
1.219127e+003, 2.494660e+005
1.219609e+003, 2.496418e+005
1.220092e+003, 2.498235e+005
1.220574e+003, 2.500239e+005
1.221056e+003, 2.502876e+005
1.221538e+003, 2.505688e+005
1.222020e+003, 2.507882e+005
1.222502e+003, 2.509134e+005
1.222984e+003, 2.511127e+005
1.223466e+003, 2.514138e+005
1.223948e+003, 2.516908e+005
1.224431e+003, 2.518768e+005
1.224913e+003, 2.520509e+005
1.225395e+003, 2.523700e+005
1.225877e+003, 2.527296e+005
1.226359e+003, 2.529767e+005
1.226841e+003, 2.530520e+005
1.227323e+003, 2.531983e+005
1.227805e+003, 2.534471e+005
1.228287e+003, 2.536384e+005
1.228770e+003, 2.536779e+005
1.229252e+003, 2.536787e+005
1.229734e+003, 2.537813e+005
1.230216e+003, 2.539492e+005
1.230698e+003, 2.541402e+005
1.231180e+003, 2.543563e+005
1.231662e+003, 2.545705e+005
1.232144e+003, 2.547956e+005
1.232627e+003, 2.549590e+005
1.233109e+003, 2.550103e+005
1.233591e+003, 2.550198e+005
1.234073e+003, 2.550721e+005
1.234555e+003, 2.551399e+005
1.235037e+003, 2.551794e+005
1.235519e+003, 2.551781e+005
1.236001e+003, 2.552173e+005
1.236484e+003, 2.552903e+005
1.236966e+003, 2.555049e+005
1.237448e+003, 2.560291e+005
1.237930e+003, 2.565402e+005
1.238412e+003, 2.565927e+005
1.238894e+003, 2.564932e+005
1.239376e+003, 2.566842e+005
1.239858e+003, 2.572245e+005
1.240340e+003, 2.576579e+005
1.240823e+003, 2.579677e+005
1.241305e+003, 2.582859e+005
1.241787e+003, 2.587164e+005
1.242269e+003, 2.591145e+005
1.242751e+003, 2.592653e+005
1.243233e+003, 2.593563e+005
1.243715e+003, 2.596572e+005
1.244197e+003, 2.602131e+005
1.244679e+003, 2.604754e+005
1.245162e+003, 2.604533e+005
1.245644e+003, 2.604528e+005
1.246126e+003, 2.606698e+005
1.246608e+003, 2.609334e+005
1.247090e+003, 2.611949e+005
1.247572e+003, 2.614063e+005
1.248054e+003, 2.615024e+005
1.248536e+003, 2.614836e+005
1.249019e+003, 2.615615e+005
1.249501e+003, 2.617335e+005
1.249983e+003, 2.619327e+005
1.250465e+003, 2.620730e+005
1.250947e+003, 2.622932e+005
1.251429e+003, 2.627929e+005
1.251911e+003, 2.632999e+005
1.252393e+003, 2.635092e+005
1.252875e+003, 2.634408e+005
1.253358e+003, 2.636152e+005
1.253840e+003, 2.639954e+005
1.254322e+003, 2.643681e+005
1.254804e+003, 2.646264e+005
1.255286e+003, 2.648400e+005
1.255768e+003, 2.650229e+005
1.256250e+003, 2.651791e+005
1.256732e+003, 2.652598e+005
1.257214e+003, 2.653065e+005
1.257697e+003, 2.656458e+005
1.258179e+003, 2.662073e+005
1.258661e+003, 2.666439e+005
1.259143e+003, 2.667019e+005
1.259625e+003, 2.667733e+005
1.260107e+003, 2.669336e+005
1.260589e+003, 2.671389e+005
1.261071e+003, 2.673341e+005
1.261554e+003, 2.675479e+005
1.262036e+003, 2.679427e+005
1.262518e+003, 2.684395e+005
1.263000e+003, 2.687853e+005
1.263482e+003, 2.687119e+005
1.263964e+003, 2.687359e+005
1.264446e+003, 2.689180e+005
1.264928e+003, 2.691485e+005
1.265411e+003, 2.693582e+005
1.265893e+003, 2.695365e+005
1.266375e+003, 2.696083e+005
1.266857e+003, 2.696388e+005
1.267339e+003, 2.698063e+005
1.267821e+003, 2.702848e+005
1.268303e+003, 2.706926e+005
1.268785e+003, 2.710286e+005
1.269267e+003, 2.712977e+005
1.269750e+003, 2.714708e+005
1.270232e+003, 2.716055e+005
1.270714e+003, 2.717685e+005
1.271196e+003, 2.719553e+005
1.271678e+003, 2.721485e+005
1.272160e+003, 2.723377e+005
1.272642e+003, 2.725399e+005
1.273124e+003, 2.727449e+005
1.273606e+003, 2.730119e+005
1.274089e+003, 2.734365e+005
1.274571e+003, 2.738812e+005
1.275053e+003, 2.742700e+005
1.275535e+003, 2.745622e+005
1.276017e+003, 2.746856e+005
1.276499e+003, 2.745953e+005
1.276981e+003, 2.746515e+005
1.277463e+003, 2.748606e+005
1.277946e+003, 2.751092e+005
1.278428e+003, 2.753908e+005
1.278910e+003, 2.756210e+005
1.279392e+003, 2.757259e+005
1.279874e+003, 2.757668e+005
1.280356e+003, 2.757793e+005
1.280838e+003, 2.757703e+005
1.281320e+003, 2.760207e+005
1.281802e+003, 2.764946e+005
1.282285e+003, 2.768566e+005
1.282767e+003, 2.767448e+005
1.283249e+003, 2.767247e+005
1.283731e+003, 2.770748e+005
1.284213e+003, 2.775108e+005
1.284695e+003, 2.777586e+005
1.285177e+003, 2.778749e+005
1.285659e+003, 2.781679e+005
1.286141e+003, 2.785954e+005
1.286624e+003, 2.789743e+005
1.287106e+003, 2.791736e+005
1.287588e+003, 2.793959e+005
1.288070e+003, 2.796842e+005
1.288552e+003, 2.799636e+005
1.289034e+003, 2.801513e+005
1.289516e+003, 2.802922e+005
1.289998e+003, 2.804747e+005
1.290481e+003, 2.806970e+005
1.290963e+003, 2.809533e+005
1.291445e+003, 2.813450e+005
1.291927e+003, 2.815494e+005
1.292409e+003, 2.815041e+005
1.292891e+003, 2.815141e+005
1.293373e+003, 2.818898e+005
1.293855e+003, 2.823717e+005
1.294338e+003, 2.826008e+005
1.294820e+003, 2.827017e+005
1.295302e+003, 2.829267e+005
1.295784e+003, 2.833638e+005
1.296266e+003, 2.835909e+005
1.296748e+003, 2.835922e+005
1.297230e+003, 2.836640e+005
1.297712e+003, 2.840616e+005
1.298194e+003, 2.845081e+005
1.298677e+003, 2.847805e+005
1.299159e+003, 2.849642e+005
1.299641e+003, 2.851658e+005
1.300123e+003, 2.853848e+005
1.300605e+003, 2.854463e+005
1.301087e+003, 2.853637e+005
1.301569e+003, 2.852758e+005
1.302051e+003, 2.852543e+005
1.302533e+003, 2.851676e+005
1.303016e+003, 2.849613e+005
##END=



