##NAMES=Greenockite
##RRUFFID=R070017
##IDEAL CHEMISTRY=Cd^2+^S^2-^
##LOCALITY=Siglo XX Mine, Llallagua, Potosi Department, Bolivia
##OWNER=RRUFF
##SOURCE=Mark Mauthner
##DESCRIPTION=Hexagonal tabular brick-red crystals
##STATUS=The identification of this mineral has been confirmed only by single crystal X-ray diffraction.
##URL=rruff.info/R070017
9.112140e+001, 0.000000e+000
9.160352e+001, 1.827621e+003
9.208563e+001, 1.781576e+003
9.256775e+001, 1.776253e+003
9.304987e+001, 1.834794e+003
9.353198e+001, 1.903198e+003
9.401410e+001, 1.942328e+003
9.449622e+001, 1.955530e+003
9.497833e+001, 1.956121e+003
9.546045e+001, 1.954272e+003
9.594257e+001, 1.949768e+003
9.642468e+001, 1.945303e+003
9.690680e+001, 1.944996e+003
9.738892e+001, 1.943372e+003
9.787103e+001, 1.938193e+003
9.835315e+001, 1.927671e+003
9.883527e+001, 1.913061e+003
9.931738e+001, 1.901042e+003
9.979950e+001, 1.892802e+003
1.002816e+002, 1.885725e+003
1.007637e+002, 1.879260e+003
1.012458e+002, 1.873340e+003
1.017280e+002, 1.867630e+003
1.022101e+002, 1.861797e+003
1.026922e+002, 1.856859e+003
1.031743e+002, 1.854978e+003
1.036564e+002, 1.855950e+003
1.041385e+002, 1.856897e+003
1.046207e+002, 1.856663e+003
1.051028e+002, 1.855464e+003
1.055849e+002, 1.854002e+003
1.060670e+002, 1.851520e+003
1.065491e+002, 1.849082e+003
1.070313e+002, 1.848111e+003
1.075134e+002, 1.848847e+003
1.079955e+002, 1.849625e+003
1.084776e+002, 1.848621e+003
1.089597e+002, 1.845417e+003
1.094418e+002, 1.841955e+003
1.099240e+002, 1.838537e+003
1.104061e+002, 1.835142e+003
1.108882e+002, 1.831716e+003
1.113703e+002, 1.828209e+003
1.118524e+002, 1.824773e+003
1.123345e+002, 1.821837e+003
1.128167e+002, 1.819557e+003
1.132988e+002, 1.817668e+003
1.137809e+002, 1.816260e+003
1.142630e+002, 1.815140e+003
1.147451e+002, 1.814097e+003
1.152272e+002, 1.813023e+003
1.157094e+002, 1.811890e+003
1.161915e+002, 1.810477e+003
1.166736e+002, 1.808782e+003
1.171557e+002, 1.806821e+003
1.176378e+002, 1.804197e+003
1.181199e+002, 1.801157e+003
1.186021e+002, 1.798537e+003
1.190842e+002, 1.797151e+003
1.195663e+002, 1.797103e+003
1.200484e+002, 1.796538e+003
1.205305e+002, 1.794771e+003
1.210126e+002, 1.792870e+003
1.214948e+002, 1.792102e+003
1.219769e+002, 1.792757e+003
1.224590e+002, 1.793211e+003
1.229411e+002, 1.791200e+003
1.234232e+002, 1.787405e+003
1.239053e+002, 1.783999e+003
1.243875e+002, 1.781688e+003
1.248696e+002, 1.780307e+003
1.253517e+002, 1.779561e+003
1.258338e+002, 1.779939e+003
1.263159e+002, 1.780209e+003
1.267980e+002, 1.779509e+003
1.272802e+002, 1.777954e+003
1.277623e+002, 1.776105e+003
1.282444e+002, 1.774279e+003
1.287265e+002, 1.772462e+003
1.292086e+002, 1.770918e+003
1.296907e+002, 1.770476e+003
1.301729e+002, 1.769722e+003
1.306550e+002, 1.767731e+003
1.311371e+002, 1.764515e+003
1.316192e+002, 1.760972e+003
1.321013e+002, 1.758462e+003
1.325834e+002, 1.757918e+003
1.330656e+002, 1.756512e+003
1.335477e+002, 1.753627e+003
1.340298e+002, 1.750374e+003
1.345119e+002, 1.747419e+003
1.349940e+002, 1.745032e+003
1.354761e+002, 1.743277e+003
1.359583e+002, 1.742352e+003
1.364404e+002, 1.743551e+003
1.369225e+002, 1.744025e+003
1.374046e+002, 1.743298e+003
1.378867e+002, 1.741831e+003
1.383688e+002, 1.740351e+003
1.388510e+002, 1.739256e+003
1.393331e+002, 1.738204e+003
1.398152e+002, 1.735994e+003
1.402973e+002, 1.731560e+003
1.407794e+002, 1.727712e+003
1.412615e+002, 1.725754e+003
1.417437e+002, 1.725440e+003
1.422258e+002, 1.725737e+003
1.427079e+002, 1.726560e+003
1.431900e+002, 1.727410e+003
1.436721e+002, 1.727353e+003
1.441542e+002, 1.726068e+003
1.446364e+002, 1.724197e+003
1.451185e+002, 1.722162e+003
1.456006e+002, 1.719877e+003
1.460827e+002, 1.717957e+003
1.465648e+002, 1.717027e+003
1.470469e+002, 1.716537e+003
1.475291e+002, 1.716008e+003
1.480112e+002, 1.715367e+003
1.484933e+002, 1.714504e+003
1.489754e+002, 1.713124e+003
1.494575e+002, 1.710932e+003
1.499396e+002, 1.708695e+003
1.504218e+002, 1.706227e+003
1.509039e+002, 1.703952e+003
1.513860e+002, 1.702521e+003
1.518681e+002, 1.702433e+003
1.523502e+002, 1.703498e+003
1.528323e+002, 1.704058e+003
1.533145e+002, 1.702942e+003
1.537966e+002, 1.702452e+003
1.542787e+002, 1.703726e+003
1.547608e+002, 1.706000e+003
1.552429e+002, 1.707646e+003
1.557250e+002, 1.707219e+003
1.562072e+002, 1.704447e+003
1.566893e+002, 1.703662e+003
1.571714e+002, 1.706457e+003
1.576535e+002, 1.709327e+003
1.581356e+002, 1.710748e+003
1.586177e+002, 1.710790e+003
1.590999e+002, 1.710469e+003
1.595820e+002, 1.710702e+003
1.600641e+002, 1.711604e+003
1.605462e+002, 1.712378e+003
1.610283e+002, 1.712669e+003
1.615104e+002, 1.713072e+003
1.619926e+002, 1.714256e+003
1.624747e+002, 1.716290e+003
1.629568e+002, 1.718319e+003
1.634389e+002, 1.719344e+003
1.639210e+002, 1.719423e+003
1.644031e+002, 1.719453e+003
1.648853e+002, 1.719625e+003
1.653674e+002, 1.719828e+003
1.658495e+002, 1.719726e+003
1.663316e+002, 1.719044e+003
1.668137e+002, 1.718737e+003
1.672958e+002, 1.719871e+003
1.677780e+002, 1.722156e+003
1.682601e+002, 1.724703e+003
1.687422e+002, 1.727671e+003
1.692243e+002, 1.730717e+003
1.697064e+002, 1.732180e+003
1.701885e+002, 1.730612e+003
1.706707e+002, 1.729039e+003
1.711528e+002, 1.729484e+003
1.716349e+002, 1.731667e+003
1.721170e+002, 1.734295e+003
1.725991e+002, 1.736412e+003
1.730812e+002, 1.737992e+003
1.735634e+002, 1.739621e+003
1.740455e+002, 1.741288e+003
1.745276e+002, 1.743053e+003
1.750097e+002, 1.744816e+003
1.754918e+002, 1.746644e+003
1.759739e+002, 1.748778e+003
1.764561e+002, 1.751560e+003
1.769382e+002, 1.755283e+003
1.774203e+002, 1.758713e+003
1.779024e+002, 1.762016e+003
1.783845e+002, 1.764929e+003
1.788666e+002, 1.766787e+003
1.793488e+002, 1.767770e+003
1.798309e+002, 1.769023e+003
1.803130e+002, 1.772242e+003
1.807951e+002, 1.778982e+003
1.812772e+002, 1.784152e+003
1.817593e+002, 1.786806e+003
1.822415e+002, 1.788722e+003
1.827236e+002, 1.791033e+003
1.832057e+002, 1.794057e+003
1.836878e+002, 1.797611e+003
1.841699e+002, 1.801469e+003
1.846520e+002, 1.806069e+003
1.851342e+002, 1.810084e+003
1.856163e+002, 1.812953e+003
1.860984e+002, 1.815459e+003
1.865805e+002, 1.818375e+003
1.870626e+002, 1.821926e+003
1.875447e+002, 1.825984e+003
1.880269e+002, 1.830315e+003
1.885090e+002, 1.834738e+003
1.889911e+002, 1.839988e+003
1.894732e+002, 1.846736e+003
1.899553e+002, 1.854339e+003
1.904374e+002, 1.861695e+003
1.909196e+002, 1.868636e+003
1.914017e+002, 1.875019e+003
1.918838e+002, 1.880203e+003
1.923659e+002, 1.883912e+003
1.928480e+002, 1.888891e+003
1.933301e+002, 1.897182e+003
1.938123e+002, 1.907939e+003
1.942944e+002, 1.918177e+003
1.947765e+002, 1.927152e+003
1.952586e+002, 1.935235e+003
1.957407e+002, 1.943002e+003
1.962228e+002, 1.950433e+003
1.967050e+002, 1.957474e+003
1.971871e+002, 1.964165e+003
1.976692e+002, 1.970498e+003
1.981513e+002, 1.976096e+003
1.986334e+002, 1.979534e+003
1.991155e+002, 1.983431e+003
1.995977e+002, 1.989798e+003
2.000798e+002, 1.998690e+003
2.005619e+002, 2.008302e+003
2.010440e+002, 2.017124e+003
2.015261e+002, 2.025198e+003
2.020082e+002, 2.032601e+003
2.024904e+002, 2.038829e+003
2.029725e+002, 2.044777e+003
2.034546e+002, 2.050702e+003
2.039367e+002, 2.056719e+003
2.044188e+002, 2.063073e+003
2.049009e+002, 2.070211e+003
2.053831e+002, 2.078604e+003
2.058652e+002, 2.086283e+003
2.063473e+002, 2.093021e+003
2.068294e+002, 2.099209e+003
2.073115e+002, 2.105265e+003
2.077936e+002, 2.111124e+003
2.082758e+002, 2.116182e+003
2.087579e+002, 2.119331e+003
2.092400e+002, 2.119069e+003
2.097221e+002, 2.120173e+003
2.102042e+002, 2.123813e+003
2.106863e+002, 2.127741e+003
2.111685e+002, 2.130828e+003
2.116506e+002, 2.132686e+003
2.121327e+002, 2.133184e+003
2.126148e+002, 2.132050e+003
2.130969e+002, 2.128490e+003
2.135790e+002, 2.124734e+003
2.140612e+002, 2.121300e+003
2.145433e+002, 2.117394e+003
2.150254e+002, 2.112216e+003
2.155075e+002, 2.105651e+003
2.159896e+002, 2.098216e+003
2.164717e+002, 2.090623e+003
2.169539e+002, 2.082569e+003
2.174360e+002, 2.075065e+003
2.179181e+002, 2.068610e+003
2.184002e+002, 2.062458e+003
2.188823e+002, 2.055632e+003
2.193644e+002, 2.047912e+003
2.198466e+002, 2.040161e+003
2.203287e+002, 2.033424e+003
2.208108e+002, 2.027574e+003
2.212929e+002, 2.023257e+003
2.217750e+002, 2.021753e+003
2.222571e+002, 2.021389e+003
2.227393e+002, 2.019754e+003
2.232214e+002, 2.016141e+003
2.237035e+002, 2.012540e+003
2.241856e+002, 2.011668e+003
2.246677e+002, 2.013262e+003
2.251498e+002, 2.015533e+003
2.256320e+002, 2.018644e+003
2.261141e+002, 2.022010e+003
2.265962e+002, 2.024577e+003
2.270783e+002, 2.026020e+003
2.275604e+002, 2.027127e+003
2.280425e+002, 2.028745e+003
2.285247e+002, 2.030736e+003
2.290068e+002, 2.032565e+003
2.294889e+002, 2.034407e+003
2.299710e+002, 2.035898e+003
2.304531e+002, 2.036325e+003
2.309352e+002, 2.035780e+003
2.314174e+002, 2.033701e+003
2.318995e+002, 2.029022e+003
2.323816e+002, 2.022513e+003
2.328637e+002, 2.016214e+003
2.333458e+002, 2.011558e+003
2.338279e+002, 2.007911e+003
2.343101e+002, 2.002851e+003
2.347922e+002, 1.995182e+003
2.352743e+002, 1.988145e+003
2.357564e+002, 1.983738e+003
2.362385e+002, 1.981202e+003
2.367206e+002, 1.979071e+003
2.372028e+002, 1.976957e+003
2.376849e+002, 1.974635e+003
2.381670e+002, 1.971027e+003
2.386491e+002, 1.965552e+003
2.391312e+002, 1.959539e+003
2.396133e+002, 1.953147e+003
2.400955e+002, 1.946708e+003
2.405776e+002, 1.940706e+003
2.410597e+002, 1.935573e+003
2.415418e+002, 1.931090e+003
2.420239e+002, 1.926341e+003
2.425060e+002, 1.921408e+003
2.429882e+002, 1.916001e+003
2.434703e+002, 1.909300e+003
2.439524e+002, 1.902250e+003
2.444345e+002, 1.896173e+003
2.449166e+002, 1.891856e+003
2.453987e+002, 1.889050e+003
2.458809e+002, 1.886661e+003
2.463630e+002, 1.884502e+003
2.468451e+002, 1.883114e+003
2.473272e+002, 1.883181e+003
2.478093e+002, 1.883867e+003
2.482914e+002, 1.884211e+003
2.487736e+002, 1.883717e+003
2.492557e+002, 1.882405e+003
2.497378e+002, 1.880318e+003
2.502199e+002, 1.875984e+003
2.507020e+002, 1.872722e+003
2.511841e+002, 1.871185e+003
2.516663e+002, 1.870858e+003
2.521484e+002, 1.871530e+003
2.526305e+002, 1.873140e+003
2.531126e+002, 1.874957e+003
2.535947e+002, 1.874629e+003
2.540768e+002, 1.868946e+003
2.545590e+002, 1.864929e+003
2.550411e+002, 1.864292e+003
2.555232e+002, 1.865023e+003
2.560053e+002, 1.864837e+003
2.564874e+002, 1.862777e+003
2.569695e+002, 1.859588e+003
2.574517e+002, 1.857075e+003
2.579338e+002, 1.855371e+003
2.584159e+002, 1.854295e+003
2.588980e+002, 1.854023e+003
2.593801e+002, 1.854287e+003
2.598622e+002, 1.854986e+003
2.603444e+002, 1.856060e+003
2.608265e+002, 1.857142e+003
2.613086e+002, 1.857518e+003
2.617907e+002, 1.856323e+003
2.622728e+002, 1.855758e+003
2.627549e+002, 1.856204e+003
2.632371e+002, 1.857106e+003
2.637192e+002, 1.857867e+003
2.642013e+002, 1.858335e+003
2.646834e+002, 1.858854e+003
2.651655e+002, 1.859982e+003
2.656476e+002, 1.862128e+003
2.661298e+002, 1.863907e+003
2.666119e+002, 1.865512e+003
2.670940e+002, 1.866638e+003
2.675761e+002, 1.866702e+003
2.680582e+002, 1.865651e+003
2.685403e+002, 1.864486e+003
2.690225e+002, 1.864438e+003
2.695046e+002, 1.865870e+003
2.699867e+002, 1.866934e+003
2.704688e+002, 1.867905e+003
2.709509e+002, 1.868306e+003
2.714330e+002, 1.867447e+003
2.719152e+002, 1.865320e+003
2.723973e+002, 1.862918e+003
2.728794e+002, 1.861078e+003
2.733615e+002, 1.859871e+003
2.738436e+002, 1.859190e+003
2.743257e+002, 1.859193e+003
2.748079e+002, 1.859596e+003
2.752900e+002, 1.860312e+003
2.757721e+002, 1.861298e+003
2.762542e+002, 1.862284e+003
2.767363e+002, 1.863219e+003
2.772184e+002, 1.863955e+003
2.777006e+002, 1.863956e+003
2.781827e+002, 1.862149e+003
2.786648e+002, 1.860450e+003
2.791469e+002, 1.860677e+003
2.796290e+002, 1.862565e+003
2.801111e+002, 1.863817e+003
2.805933e+002, 1.862619e+003
2.810754e+002, 1.859887e+003
2.815575e+002, 1.858916e+003
2.820396e+002, 1.861254e+003
2.825217e+002, 1.863471e+003
2.830038e+002, 1.863195e+003
2.834860e+002, 1.860833e+003
2.839681e+002, 1.858476e+003
2.844502e+002, 1.856952e+003
2.849323e+002, 1.856125e+003
2.854144e+002, 1.855656e+003
2.858965e+002, 1.855797e+003
2.863787e+002, 1.855689e+003
2.868608e+002, 1.854322e+003
2.873429e+002, 1.852191e+003
2.878250e+002, 1.851174e+003
2.883071e+002, 1.852222e+003
2.887892e+002, 1.854218e+003
2.892714e+002, 1.855639e+003
2.897535e+002, 1.856507e+003
2.902356e+002, 1.856854e+003
2.907177e+002, 1.856305e+003
2.911998e+002, 1.855229e+003
2.916819e+002, 1.854661e+003
2.921641e+002, 1.854983e+003
2.926462e+002, 1.855560e+003
2.931283e+002, 1.855713e+003
2.936104e+002, 1.855490e+003
2.940925e+002, 1.855160e+003
2.945746e+002, 1.854438e+003
2.950568e+002, 1.853745e+003
2.955389e+002, 1.854155e+003
2.960210e+002, 1.856145e+003
2.965031e+002, 1.858183e+003
2.969852e+002, 1.858974e+003
2.974673e+002, 1.858788e+003
2.979495e+002, 1.858135e+003
2.984316e+002, 1.857280e+003
2.989137e+002, 1.856015e+003
2.993958e+002, 1.853705e+003
2.998779e+002, 1.850051e+003
3.003600e+002, 1.846763e+003
3.008422e+002, 1.845493e+003
3.013243e+002, 1.845305e+003
3.018064e+002, 1.844679e+003
3.022885e+002, 1.843266e+003
3.027706e+002, 1.841287e+003
3.032527e+002, 1.838781e+003
3.037349e+002, 1.835687e+003
3.042170e+002, 1.832838e+003
3.046991e+002, 1.830776e+003
3.051812e+002, 1.829136e+003
3.056633e+002, 1.827336e+003
3.061454e+002, 1.825112e+003
3.066276e+002, 1.823232e+003
3.071097e+002, 1.822681e+003
3.075918e+002, 1.823370e+003
3.080739e+002, 1.823647e+003
3.085560e+002, 1.822792e+003
3.090381e+002, 1.821428e+003
3.095203e+002, 1.820311e+003
3.100024e+002, 1.819476e+003
3.104845e+002, 1.818618e+003
3.109666e+002, 1.817479e+003
3.114487e+002, 1.816116e+003
3.119308e+002, 1.814792e+003
3.124130e+002, 1.813434e+003
3.128951e+002, 1.812319e+003
3.133772e+002, 1.811732e+003
3.138593e+002, 1.811605e+003
3.143414e+002, 1.811575e+003
3.148235e+002, 1.811875e+003
3.153057e+002, 1.812121e+003
3.157878e+002, 1.811373e+003
3.162699e+002, 1.809588e+003
3.167520e+002, 1.806687e+003
3.172341e+002, 1.801693e+003
3.177162e+002, 1.795570e+003
3.181984e+002, 1.790420e+003
3.186805e+002, 1.787252e+003
3.191626e+002, 1.785401e+003
3.196447e+002, 1.783985e+003
3.201268e+002, 1.783089e+003
3.206089e+002, 1.782254e+003
3.210911e+002, 1.781269e+003
3.215732e+002, 1.780172e+003
3.220553e+002, 1.778937e+003
3.225374e+002, 1.777329e+003
3.230195e+002, 1.775959e+003
3.235016e+002, 1.775672e+003
3.239838e+002, 1.776475e+003
3.244659e+002, 1.777116e+003
3.249480e+002, 1.776980e+003
3.254301e+002, 1.776534e+003
3.259122e+002, 1.776369e+003
3.263943e+002, 1.776556e+003
3.268765e+002, 1.776793e+003
3.273586e+002, 1.776814e+003
3.278407e+002, 1.776672e+003
3.283228e+002, 1.776653e+003
3.288049e+002, 1.776781e+003
3.292870e+002, 1.777122e+003
3.297692e+002, 1.777769e+003
3.302513e+002, 1.778693e+003
3.307334e+002, 1.779657e+003
3.312155e+002, 1.780789e+003
3.316976e+002, 1.781853e+003
3.321797e+002, 1.782075e+003
3.326619e+002, 1.780996e+003
3.331440e+002, 1.780131e+003
3.336261e+002, 1.780995e+003
3.341082e+002, 1.783039e+003
3.345903e+002, 1.785115e+003
3.350724e+002, 1.786519e+003
3.355546e+002, 1.787939e+003
3.360367e+002, 1.790817e+003
3.365188e+002, 1.795386e+003
3.370009e+002, 1.798857e+003
3.374830e+002, 1.799309e+003
3.379651e+002, 1.797601e+003
3.384473e+002, 1.795379e+003
3.389294e+002, 1.792635e+003
3.394115e+002, 1.789700e+003
3.398936e+002, 1.787076e+003
3.403757e+002, 1.784633e+003
3.408578e+002, 1.781402e+003
3.413400e+002, 1.776653e+003
3.418221e+002, 1.771272e+003
3.423042e+002, 1.766741e+003
3.427863e+002, 1.763239e+003
3.432684e+002, 1.759458e+003
3.437505e+002, 1.754810e+003
3.442327e+002, 1.749405e+003
3.447148e+002, 1.743341e+003
3.451969e+002, 1.736434e+003
3.456790e+002, 1.729425e+003
3.461611e+002, 1.723220e+003
3.466432e+002, 1.717692e+003
3.471254e+002, 1.712275e+003
3.476075e+002, 1.706865e+003
3.480896e+002, 1.701475e+003
3.485717e+002, 1.696203e+003
3.490538e+002, 1.691035e+003
3.495359e+002, 1.685924e+003
3.500181e+002, 1.680485e+003
3.505002e+002, 1.675072e+003
3.509823e+002, 1.671005e+003
3.514644e+002, 1.669814e+003
3.519465e+002, 1.668768e+003
3.524286e+002, 1.665919e+003
3.529108e+002, 1.661555e+003
3.533929e+002, 1.656824e+003
3.538750e+002, 1.651904e+003
3.543571e+002, 1.647382e+003
3.548392e+002, 1.644781e+003
3.553214e+002, 1.644798e+003
3.558035e+002, 1.644824e+003
3.562856e+002, 1.644088e+003
3.567677e+002, 1.642712e+003
3.572498e+002, 1.640757e+003
3.577319e+002, 1.638150e+003
3.582141e+002, 1.635451e+003
3.586962e+002, 1.633516e+003
3.591783e+002, 1.632540e+003
3.596604e+002, 1.631101e+003
3.601425e+002, 1.628333e+003
3.606246e+002, 1.625467e+003
3.611068e+002, 1.623830e+003
3.615889e+002, 1.623472e+003
3.620710e+002, 1.623424e+003
3.625531e+002, 1.623076e+003
3.630352e+002, 1.622351e+003
3.635173e+002, 1.620455e+003
3.639995e+002, 1.615872e+003
3.644816e+002, 1.611716e+003
3.649637e+002, 1.609726e+003
3.654458e+002, 1.609370e+003
3.659279e+002, 1.609302e+003
3.664100e+002, 1.608913e+003
3.668922e+002, 1.608125e+003
3.673743e+002, 1.606621e+003
3.678564e+002, 1.603118e+003
3.683385e+002, 1.600737e+003
3.688206e+002, 1.600745e+003
3.693027e+002, 1.601700e+003
3.697849e+002, 1.602265e+003
3.702670e+002, 1.602003e+003
3.707491e+002, 1.600609e+003
3.712312e+002, 1.597461e+003
3.717133e+002, 1.591558e+003
3.721954e+002, 1.587020e+003
3.726776e+002, 1.584961e+003
3.731597e+002, 1.583239e+003
3.736418e+002, 1.580380e+003
3.741239e+002, 1.576536e+003
3.746060e+002, 1.572839e+003
3.750881e+002, 1.570160e+003
3.755703e+002, 1.568490e+003
3.760524e+002, 1.566920e+003
3.765345e+002, 1.565578e+003
3.770166e+002, 1.564191e+003
3.774987e+002, 1.562588e+003
3.779808e+002, 1.560928e+003
3.784630e+002, 1.559392e+003
3.789451e+002, 1.558060e+003
3.794272e+002, 1.556982e+003
3.799093e+002, 1.556301e+003
3.803914e+002, 1.556364e+003
3.808735e+002, 1.556250e+003
3.813557e+002, 1.555767e+003
3.818378e+002, 1.555222e+003
3.823199e+002, 1.554967e+003
3.828020e+002, 1.554972e+003
3.832841e+002, 1.554767e+003
3.837662e+002, 1.553660e+003
3.842484e+002, 1.551372e+003
3.847305e+002, 1.550077e+003
3.852126e+002, 1.550875e+003
3.856947e+002, 1.551626e+003
3.861768e+002, 1.551661e+003
3.866589e+002, 1.551127e+003
3.871411e+002, 1.550424e+003
3.876232e+002, 1.549777e+003
3.881053e+002, 1.549154e+003
3.885874e+002, 1.548449e+003
3.890695e+002, 1.547618e+003
3.895516e+002, 1.546784e+003
3.900338e+002, 1.546014e+003
3.905159e+002, 1.545233e+003
3.909980e+002, 1.544274e+003
3.914801e+002, 1.543102e+003
3.919622e+002, 1.542085e+003
3.924443e+002, 1.541890e+003
3.929265e+002, 1.542672e+003
3.934086e+002, 1.542802e+003
3.938907e+002, 1.541359e+003
3.943728e+002, 1.539905e+003
3.948549e+002, 1.539513e+003
3.953370e+002, 1.539963e+003
3.958192e+002, 1.540289e+003
3.963013e+002, 1.539784e+003
3.967834e+002, 1.538687e+003
3.972655e+002, 1.537831e+003
3.977476e+002, 1.537366e+003
3.982297e+002, 1.536751e+003
3.987119e+002, 1.535371e+003
3.991940e+002, 1.533760e+003
3.996761e+002, 1.532616e+003
4.001582e+002, 1.532138e+003
4.006403e+002, 1.532100e+003
4.011224e+002, 1.532599e+003
4.016046e+002, 1.533566e+003
4.020867e+002, 1.533740e+003
4.025688e+002, 1.532264e+003
4.030509e+002, 1.530356e+003
4.035330e+002, 1.529260e+003
4.040151e+002, 1.528949e+003
4.044973e+002, 1.529558e+003
4.049794e+002, 1.532269e+003
4.054615e+002, 1.535626e+003
4.059436e+002, 1.536995e+003
4.064257e+002, 1.535966e+003
4.069078e+002, 1.533803e+003
4.073900e+002, 1.531048e+003
4.078721e+002, 1.527927e+003
4.083542e+002, 1.525504e+003
4.088363e+002, 1.523820e+003
4.093184e+002, 1.522903e+003
4.098005e+002, 1.523389e+003
4.102827e+002, 1.524809e+003
4.107648e+002, 1.525412e+003
4.112469e+002, 1.524237e+003
4.117290e+002, 1.522204e+003
4.122111e+002, 1.521546e+003
4.126932e+002, 1.523016e+003
4.131754e+002, 1.523758e+003
4.136575e+002, 1.522321e+003
4.141396e+002, 1.520430e+003
4.146217e+002, 1.520212e+003
4.151038e+002, 1.521900e+003
4.155859e+002, 1.523736e+003
4.160681e+002, 1.523973e+003
4.165502e+002, 1.522451e+003
4.170323e+002, 1.520830e+003
4.175144e+002, 1.518702e+003
4.179965e+002, 1.516902e+003
4.184786e+002, 1.515629e+003
4.189608e+002, 1.514949e+003
4.194429e+002, 1.515012e+003
4.199250e+002, 1.515922e+003
4.204071e+002, 1.517413e+003
4.208892e+002, 1.518791e+003
4.213713e+002, 1.520600e+003
4.218535e+002, 1.521381e+003
4.223356e+002, 1.520251e+003
4.228177e+002, 1.518756e+003
4.232998e+002, 1.518111e+003
4.237819e+002, 1.518441e+003
4.242640e+002, 1.519090e+003
4.247462e+002, 1.519477e+003
4.252283e+002, 1.519624e+003
4.257104e+002, 1.519166e+003
4.261925e+002, 1.517568e+003
4.266746e+002, 1.515897e+003
4.271567e+002, 1.514357e+003
4.276389e+002, 1.512963e+003
4.281210e+002, 1.511635e+003
4.286031e+002, 1.510280e+003
4.290852e+002, 1.509196e+003
4.295673e+002, 1.509273e+003
4.300494e+002, 1.511085e+003
4.305316e+002, 1.512003e+003
4.310137e+002, 1.510503e+003
4.314958e+002, 1.508508e+003
4.319779e+002, 1.507211e+003
4.324600e+002, 1.506685e+003
4.329421e+002, 1.506278e+003
4.334243e+002, 1.505256e+003
4.339064e+002, 1.503894e+003
4.343885e+002, 1.503561e+003
4.348706e+002, 1.504811e+003
4.353527e+002, 1.505944e+003
4.358348e+002, 1.505487e+003
4.363170e+002, 1.504234e+003
4.367991e+002, 1.503565e+003
4.372812e+002, 1.504281e+003
4.377633e+002, 1.505020e+003
4.382454e+002, 1.504445e+003
4.387275e+002, 1.502689e+003
4.392097e+002, 1.500589e+003
4.396918e+002, 1.498113e+003
4.401739e+002, 1.495894e+003
4.406560e+002, 1.494949e+003
4.411381e+002, 1.495251e+003
4.416202e+002, 1.496062e+003
4.421024e+002, 1.497913e+003
4.425845e+002, 1.499771e+003
4.430666e+002, 1.500323e+003
4.435487e+002, 1.499502e+003
4.440308e+002, 1.498248e+003
4.445129e+002, 1.497181e+003
4.449951e+002, 1.496300e+003
4.454772e+002, 1.495530e+003
4.459593e+002, 1.494797e+003
4.464414e+002, 1.494246e+003
4.469235e+002, 1.493867e+003
4.474056e+002, 1.493717e+003
4.478878e+002, 1.494047e+003
4.483699e+002, 1.494927e+003
4.488520e+002, 1.495817e+003
4.493341e+002, 1.495923e+003
4.498162e+002, 1.495191e+003
4.502983e+002, 1.493705e+003
4.507805e+002, 1.490005e+003
4.512626e+002, 1.487005e+003
4.517447e+002, 1.486928e+003
4.522268e+002, 1.488895e+003
4.527089e+002, 1.490308e+003
4.531910e+002, 1.489330e+003
4.536732e+002, 1.486658e+003
4.541553e+002, 1.485274e+003
4.546374e+002, 1.485986e+003
4.551195e+002, 1.486657e+003
4.556016e+002, 1.487180e+003
4.560837e+002, 1.487373e+003
4.565659e+002, 1.486874e+003
4.570480e+002, 1.485696e+003
4.575301e+002, 1.484539e+003
4.580122e+002, 1.484202e+003
4.584943e+002, 1.484666e+003
4.589764e+002, 1.485074e+003
4.594586e+002, 1.485833e+003
4.599407e+002, 1.485832e+003
4.604228e+002, 1.483649e+003
4.609049e+002, 1.480542e+003
4.613870e+002, 1.478876e+003
4.618691e+002, 1.479939e+003
4.623513e+002, 1.481998e+003
4.628334e+002, 1.483109e+003
4.633155e+002, 1.483291e+003
4.637976e+002, 1.483054e+003
4.642797e+002, 1.482565e+003
4.647618e+002, 1.481684e+003
4.652440e+002, 1.479982e+003
4.657261e+002, 1.477420e+003
4.662082e+002, 1.475512e+003
4.666903e+002, 1.474950e+003
4.671724e+002, 1.475209e+003
4.676545e+002, 1.476044e+003
4.681367e+002, 1.477344e+003
4.686188e+002, 1.477960e+003
4.691009e+002, 1.476877e+003
4.695830e+002, 1.474547e+003
4.700651e+002, 1.473266e+003
4.705472e+002, 1.473904e+003
4.710294e+002, 1.474334e+003
4.715115e+002, 1.473683e+003
4.719936e+002, 1.472664e+003
4.724757e+002, 1.472342e+003
4.729578e+002, 1.472935e+003
4.734399e+002, 1.473568e+003
4.739221e+002, 1.473159e+003
4.744042e+002, 1.471498e+003
4.748863e+002, 1.469976e+003
4.753684e+002, 1.468611e+003
4.758505e+002, 1.467329e+003
4.763326e+002, 1.465758e+003
4.768148e+002, 1.464324e+003
4.772969e+002, 1.463932e+003
4.777790e+002, 1.465065e+003
4.782611e+002, 1.466819e+003
4.787432e+002, 1.467128e+003
4.792253e+002, 1.465297e+003
4.797075e+002, 1.464001e+003
4.801896e+002, 1.464146e+003
4.806717e+002, 1.464406e+003
4.811538e+002, 1.463920e+003
4.816359e+002, 1.462831e+003
4.821180e+002, 1.461966e+003
4.826002e+002, 1.462004e+003
4.830823e+002, 1.462636e+003
4.835644e+002, 1.463227e+003
4.840465e+002, 1.464073e+003
4.845286e+002, 1.463709e+003
4.850107e+002, 1.459815e+003
4.854929e+002, 1.455225e+003
4.859750e+002, 1.453699e+003
4.864571e+002, 1.456227e+003
4.869392e+002, 1.458666e+003
4.874213e+002, 1.458193e+003
4.879034e+002, 1.455866e+003
4.883856e+002, 1.453875e+003
4.888677e+002, 1.452507e+003
4.893498e+002, 1.451826e+003
4.898319e+002, 1.452185e+003
4.903140e+002, 1.453455e+003
4.907961e+002, 1.453906e+003
4.912783e+002, 1.453311e+003
4.917604e+002, 1.452154e+003
4.922425e+002, 1.450009e+003
4.927246e+002, 1.447575e+003
4.932067e+002, 1.446300e+003
4.936888e+002, 1.446697e+003
4.941710e+002, 1.447740e+003
4.946531e+002, 1.447804e+003
4.951352e+002, 1.446361e+003
4.956173e+002, 1.445619e+003
4.960994e+002, 1.446188e+003
4.965815e+002, 1.446763e+003
4.970637e+002, 1.446747e+003
4.975458e+002, 1.446234e+003
4.980279e+002, 1.445513e+003
4.985100e+002, 1.444726e+003
4.989921e+002, 1.443924e+003
4.994742e+002, 1.443226e+003
4.999564e+002, 1.442669e+003
5.004385e+002, 1.442108e+003
5.009206e+002, 1.441381e+003
5.014027e+002, 1.440737e+003
5.018848e+002, 1.440237e+003
5.023669e+002, 1.439938e+003
5.028491e+002, 1.440040e+003
5.033312e+002, 1.440982e+003
5.038133e+002, 1.442358e+003
5.042954e+002, 1.443100e+003
5.047775e+002, 1.443199e+003
5.052596e+002, 1.442703e+003
5.057418e+002, 1.441204e+003
5.062239e+002, 1.439354e+003
5.067060e+002, 1.437956e+003
5.071881e+002, 1.436986e+003
5.076702e+002, 1.436792e+003
5.081523e+002, 1.438519e+003
5.086345e+002, 1.440825e+003
5.091166e+002, 1.441167e+003
5.095987e+002, 1.439163e+003
5.100808e+002, 1.436802e+003
5.105629e+002, 1.435570e+003
5.110450e+002, 1.435438e+003
5.115272e+002, 1.435795e+003
5.120093e+002, 1.438122e+003
5.124914e+002, 1.439116e+003
5.129735e+002, 1.436532e+003
5.134556e+002, 1.432587e+003
5.139377e+002, 1.430163e+003
5.144199e+002, 1.430042e+003
5.149020e+002, 1.431090e+003
5.153841e+002, 1.432043e+003
5.158662e+002, 1.432996e+003
5.163483e+002, 1.433220e+003
5.168304e+002, 1.432616e+003
5.173126e+002, 1.431354e+003
5.177947e+002, 1.428788e+003
5.182768e+002, 1.425794e+003
5.187589e+002, 1.423557e+003
5.192410e+002, 1.422543e+003
5.197231e+002, 1.422410e+003
5.202053e+002, 1.422955e+003
5.206874e+002, 1.424262e+003
5.211695e+002, 1.424920e+003
5.216516e+002, 1.424512e+003
5.221337e+002, 1.423674e+003
5.226158e+002, 1.422591e+003
5.230980e+002, 1.421438e+003
5.235801e+002, 1.420750e+003
5.240622e+002, 1.421045e+003
5.245443e+002, 1.421568e+003
5.250264e+002, 1.421506e+003
5.255085e+002, 1.420950e+003
5.259907e+002, 1.420464e+003
5.264728e+002, 1.420324e+003
5.269549e+002, 1.420169e+003
5.274370e+002, 1.419322e+003
5.279191e+002, 1.417591e+003
5.284012e+002, 1.416428e+003
5.288834e+002, 1.416162e+003
5.293655e+002, 1.416358e+003
5.298476e+002, 1.417173e+003
5.303297e+002, 1.418222e+003
5.308118e+002, 1.418475e+003
5.312939e+002, 1.417334e+003
5.317761e+002, 1.415315e+003
5.322582e+002, 1.413699e+003
5.327403e+002, 1.412416e+003
5.332224e+002, 1.411676e+003
5.337045e+002, 1.411455e+003
5.341866e+002, 1.411688e+003
5.346688e+002, 1.412821e+003
5.351509e+002, 1.414412e+003
5.356330e+002, 1.415250e+003
5.361151e+002, 1.414343e+003
5.365972e+002, 1.412418e+003
5.370793e+002, 1.411481e+003
5.375615e+002, 1.411775e+003
5.380436e+002, 1.412098e+003
5.385257e+002, 1.412111e+003
5.390078e+002, 1.412034e+003
5.394899e+002, 1.412069e+003
5.399720e+002, 1.412225e+003
5.404542e+002, 1.412374e+003
5.409363e+002, 1.412648e+003
5.414184e+002, 1.412797e+003
5.419005e+002, 1.412412e+003
5.423826e+002, 1.411499e+003
5.428647e+002, 1.410312e+003
5.433469e+002, 1.408797e+003
5.438290e+002, 1.407277e+003
5.443111e+002, 1.406726e+003
5.447932e+002, 1.407797e+003
5.452753e+002, 1.408150e+003
5.457574e+002, 1.406598e+003
5.462396e+002, 1.404798e+003
5.467217e+002, 1.404276e+003
5.472038e+002, 1.404952e+003
5.476859e+002, 1.405809e+003
5.481680e+002, 1.406146e+003
5.486501e+002, 1.406064e+003
5.491323e+002, 1.406009e+003
5.496144e+002, 1.405866e+003
5.500965e+002, 1.405965e+003
5.505786e+002, 1.406603e+003
5.510607e+002, 1.407269e+003
5.515428e+002, 1.407651e+003
5.520250e+002, 1.407705e+003
5.525071e+002, 1.407492e+003
5.529892e+002, 1.406956e+003
5.534713e+002, 1.406222e+003
5.539534e+002, 1.405561e+003
5.544355e+002, 1.404910e+003
5.549177e+002, 1.404699e+003
5.553998e+002, 1.405568e+003
5.558819e+002, 1.406617e+003
5.563640e+002, 1.406548e+003
5.568461e+002, 1.405202e+003
5.573282e+002, 1.403921e+003
5.578104e+002, 1.402961e+003
5.582925e+002, 1.402489e+003
5.587746e+002, 1.402999e+003
5.592567e+002, 1.404362e+003
5.597388e+002, 1.405646e+003
5.602209e+002, 1.406441e+003
5.607031e+002, 1.406539e+003
5.611852e+002, 1.405269e+003
5.616673e+002, 1.400305e+003
5.621494e+002, 1.397261e+003
5.626315e+002, 1.397906e+003
5.631136e+002, 1.399168e+003
5.635958e+002, 1.398543e+003
5.640779e+002, 1.396328e+003
5.645600e+002, 1.394523e+003
5.650421e+002, 1.394572e+003
5.655242e+002, 1.395997e+003
5.660063e+002, 1.397419e+003
5.664885e+002, 1.399225e+003
5.669706e+002, 1.399857e+003
5.674527e+002, 1.397288e+003
5.679348e+002, 1.394644e+003
5.684169e+002, 1.394271e+003
5.688990e+002, 1.396042e+003
5.693812e+002, 1.398053e+003
5.698633e+002, 1.400042e+003
5.703454e+002, 1.401307e+003
5.708275e+002, 1.400337e+003
5.713096e+002, 1.397289e+003
5.717917e+002, 1.394467e+003
5.722739e+002, 1.392774e+003
5.727560e+002, 1.391882e+003
5.732381e+002, 1.391253e+003
5.737202e+002, 1.390908e+003
5.742023e+002, 1.390733e+003
5.746844e+002, 1.391014e+003
5.751666e+002, 1.391215e+003
5.756487e+002, 1.390750e+003
5.761308e+002, 1.389894e+003
5.766129e+002, 1.389444e+003
5.770950e+002, 1.389830e+003
5.775771e+002, 1.390653e+003
5.780593e+002, 1.391023e+003
5.785414e+002, 1.390773e+003
5.790235e+002, 1.390511e+003
5.795056e+002, 1.389688e+003
5.799877e+002, 1.389396e+003
5.804698e+002, 1.390870e+003
5.809520e+002, 1.393226e+003
5.814341e+002, 1.394362e+003
5.819162e+002, 1.392974e+003
5.823983e+002, 1.390724e+003
5.828804e+002, 1.389594e+003
5.833625e+002, 1.389558e+003
5.838447e+002, 1.390584e+003
5.843268e+002, 1.393072e+003
5.848089e+002, 1.395703e+003
5.852910e+002, 1.397208e+003
5.857731e+002, 1.397633e+003
5.862552e+002, 1.397363e+003
5.867374e+002, 1.395548e+003
5.872195e+002, 1.393977e+003
5.877016e+002, 1.394012e+003
5.881837e+002, 1.394820e+003
5.886658e+002, 1.394855e+003
5.891479e+002, 1.393674e+003
5.896301e+002, 1.392051e+003
5.901122e+002, 1.390798e+003
5.905943e+002, 1.389835e+003
5.910764e+002, 1.390074e+003
5.915585e+002, 1.393272e+003
5.920406e+002, 1.395612e+003
5.925228e+002, 1.395940e+003
5.930049e+002, 1.395045e+003
5.934870e+002, 1.393717e+003
5.939691e+002, 1.392178e+003
5.944512e+002, 1.390649e+003
5.949333e+002, 1.389111e+003
5.954155e+002, 1.387710e+003
5.958976e+002, 1.387314e+003
5.963797e+002, 1.388241e+003
5.968618e+002, 1.388986e+003
5.973439e+002, 1.388818e+003
5.978260e+002, 1.387778e+003
5.983082e+002, 1.386035e+003
5.987903e+002, 1.383133e+003
5.992724e+002, 1.380703e+003
5.997545e+002, 1.379550e+003
6.002366e+002, 1.378961e+003
6.007188e+002, 1.378257e+003
6.012009e+002, 1.377361e+003
6.016830e+002, 1.376556e+003
6.021651e+002, 1.376120e+003
6.026472e+002, 1.375694e+003
6.031293e+002, 1.373794e+003
6.036115e+002, 1.368782e+003
6.040936e+002, 1.365330e+003
6.045757e+002, 1.364644e+003
6.050578e+002, 1.364645e+003
6.055399e+002, 1.364494e+003
6.060220e+002, 1.363936e+003
6.065042e+002, 1.362631e+003
6.069863e+002, 1.360153e+003
6.074684e+002, 1.357199e+003
6.079505e+002, 1.354863e+003
6.084326e+002, 1.353133e+003
6.089147e+002, 1.351576e+003
6.093969e+002, 1.350053e+003
6.098790e+002, 1.348722e+003
6.103611e+002, 1.347773e+003
6.108432e+002, 1.347185e+003
6.113253e+002, 1.346844e+003
6.118074e+002, 1.347492e+003
6.122896e+002, 1.347604e+003
6.127717e+002, 1.345863e+003
6.132538e+002, 1.343185e+003
6.137359e+002, 1.341056e+003
6.142180e+002, 1.339930e+003
6.147001e+002, 1.339469e+003
6.151823e+002, 1.339333e+003
6.156644e+002, 1.339534e+003
6.161465e+002, 1.339743e+003
6.166286e+002, 1.340512e+003
6.171107e+002, 1.340467e+003
6.175928e+002, 1.338652e+003
6.180750e+002, 1.336260e+003
6.185571e+002, 1.334556e+003
6.190392e+002, 1.333766e+003
6.195213e+002, 1.333120e+003
6.200034e+002, 1.331796e+003
6.204855e+002, 1.330262e+003
6.209677e+002, 1.329848e+003
6.214498e+002, 1.330663e+003
6.219319e+002, 1.330950e+003
6.224140e+002, 1.329621e+003
6.228961e+002, 1.327492e+003
6.233782e+002, 1.326416e+003
6.238604e+002, 1.326951e+003
6.243425e+002, 1.326665e+003
6.248246e+002, 1.324144e+003
6.253067e+002, 1.321736e+003
6.257888e+002, 1.321391e+003
6.262709e+002, 1.322451e+003
6.267531e+002, 1.322979e+003
6.272352e+002, 1.322005e+003
6.277173e+002, 1.320447e+003
6.281994e+002, 1.320185e+003
6.286815e+002, 1.321632e+003
6.291636e+002, 1.322003e+003
6.296458e+002, 1.320478e+003
6.301279e+002, 1.318688e+003
6.306100e+002, 1.317376e+003
6.310921e+002, 1.316387e+003
6.315742e+002, 1.315430e+003
6.320563e+002, 1.314360e+003
6.325385e+002, 1.313526e+003
6.330206e+002, 1.313306e+003
6.335027e+002, 1.313470e+003
6.339848e+002, 1.313639e+003
6.344669e+002, 1.313750e+003
6.349490e+002, 1.313658e+003
6.354312e+002, 1.313239e+003
6.359133e+002, 1.312548e+003
6.363954e+002, 1.311811e+003
6.368775e+002, 1.311074e+003
6.373596e+002, 1.310238e+003
6.378417e+002, 1.309240e+003
6.383239e+002, 1.308198e+003
6.388060e+002, 1.307092e+003
6.392881e+002, 1.306009e+003
6.397702e+002, 1.305187e+003
6.402523e+002, 1.304814e+003
6.407344e+002, 1.304652e+003
6.412166e+002, 1.304270e+003
6.416987e+002, 1.303656e+003
6.421808e+002, 1.302960e+003
6.426629e+002, 1.302244e+003
6.431450e+002, 1.301381e+003
6.436271e+002, 1.299786e+003
6.441093e+002, 1.297836e+003
6.445914e+002, 1.297104e+003
6.450735e+002, 1.299254e+003
6.455556e+002, 1.301008e+003
6.460377e+002, 1.300698e+003
6.465198e+002, 1.299121e+003
6.470020e+002, 1.296988e+003
6.474841e+002, 1.294652e+003
6.479662e+002, 1.292971e+003
6.484483e+002, 1.292779e+003
6.489304e+002, 1.293891e+003
6.494125e+002, 1.295100e+003
6.498947e+002, 1.296911e+003
6.503768e+002, 1.297821e+003
6.508589e+002, 1.297249e+003
6.513410e+002, 1.295990e+003
6.518231e+002, 1.294358e+003
6.523052e+002, 1.292485e+003
6.527874e+002, 1.290702e+003
6.532695e+002, 1.289164e+003
6.537516e+002, 1.287797e+003
6.542337e+002, 1.286394e+003
6.547158e+002, 1.285051e+003
6.551979e+002, 1.284305e+003
6.556801e+002, 1.284362e+003
6.561622e+002, 1.284775e+003
6.566443e+002, 1.285230e+003
6.571264e+002, 1.285785e+003
6.576085e+002, 1.285168e+003
6.580906e+002, 1.281846e+003
6.585728e+002, 1.279444e+003
6.590549e+002, 1.279387e+003
6.595370e+002, 1.280318e+003
6.600191e+002, 1.281220e+003
6.605012e+002, 1.281688e+003
6.609833e+002, 1.281156e+003
6.614655e+002, 1.278765e+003
6.619476e+002, 1.275245e+003
6.624297e+002, 1.272777e+003
6.629118e+002, 1.271354e+003
6.633939e+002, 1.271267e+003
6.638760e+002, 1.273669e+003
6.643582e+002, 1.276178e+003
6.648403e+002, 1.275203e+003
6.653224e+002, 1.271091e+003
6.658045e+002, 1.268669e+003
6.662866e+002, 1.270304e+003
6.667687e+002, 1.272135e+003
6.672509e+002, 1.271807e+003
6.677330e+002, 1.270309e+003
6.682151e+002, 1.269435e+003
6.686972e+002, 1.269606e+003
6.691793e+002, 1.269786e+003
6.696614e+002, 1.268789e+003
6.701436e+002, 1.266740e+003
6.706257e+002, 1.265435e+003
6.711078e+002, 1.265059e+003
6.715899e+002, 1.265037e+003
6.720720e+002, 1.265789e+003
6.725541e+002, 1.266422e+003
6.730363e+002, 1.266020e+003
6.735184e+002, 1.264650e+003
6.740005e+002, 1.263482e+003
6.744826e+002, 1.262909e+003
6.749647e+002, 1.262832e+003
6.754468e+002, 1.263762e+003
6.759290e+002, 1.265123e+003
6.764111e+002, 1.264834e+003
6.768932e+002, 1.262210e+003
6.773753e+002, 1.259384e+003
6.778574e+002, 1.259028e+003
6.783395e+002, 1.261289e+003
6.788217e+002, 1.262293e+003
6.793038e+002, 1.261165e+003
6.797859e+002, 1.259854e+003
6.802680e+002, 1.258943e+003
6.807501e+002, 1.257832e+003
6.812322e+002, 1.255334e+003
6.817144e+002, 1.251764e+003
6.821965e+002, 1.249468e+003
6.826786e+002, 1.250828e+003
6.831607e+002, 1.253829e+003
6.836428e+002, 1.255405e+003
6.841249e+002, 1.255618e+003
6.846071e+002, 1.254736e+003
6.850892e+002, 1.252599e+003
6.855713e+002, 1.250260e+003
6.860534e+002, 1.248880e+003
6.865355e+002, 1.248506e+003
6.870176e+002, 1.248375e+003
6.874998e+002, 1.248797e+003
6.879819e+002, 1.249032e+003
6.884640e+002, 1.248683e+003
6.889461e+002, 1.248188e+003
6.894282e+002, 1.247958e+003
6.899103e+002, 1.248063e+003
6.903925e+002, 1.248430e+003
6.908746e+002, 1.249285e+003
6.913567e+002, 1.250105e+003
6.918388e+002, 1.249418e+003
6.923209e+002, 1.247166e+003
6.928030e+002, 1.245029e+003
6.932852e+002, 1.243486e+003
6.937673e+002, 1.242130e+003
6.942494e+002, 1.240383e+003
6.947315e+002, 1.238326e+003
6.952136e+002, 1.237046e+003
6.956957e+002, 1.237042e+003
6.961779e+002, 1.237268e+003
6.966600e+002, 1.237376e+003
6.971421e+002, 1.237519e+003
6.976242e+002, 1.237955e+003
6.981063e+002, 1.238651e+003
6.985884e+002, 1.239276e+003
6.990706e+002, 1.239561e+003
6.995527e+002, 1.239620e+003
7.000348e+002, 1.239976e+003
7.005169e+002, 1.240826e+003
7.009990e+002, 1.240580e+003
7.014811e+002, 1.238437e+003
7.019633e+002, 1.235798e+003
7.024454e+002, 1.233309e+003
7.029275e+002, 1.231211e+003
7.034096e+002, 1.230496e+003
7.038917e+002, 1.232559e+003
7.043738e+002, 1.234276e+003
7.048560e+002, 1.234009e+003
7.053381e+002, 1.232887e+003
7.058202e+002, 1.232216e+003
7.063023e+002, 1.232122e+003
7.067844e+002, 1.232067e+003
7.072665e+002, 1.231684e+003
7.077487e+002, 1.231081e+003
7.082308e+002, 1.230574e+003
7.087129e+002, 1.230201e+003
7.091950e+002, 1.229734e+003
7.096771e+002, 1.229079e+003
7.101592e+002, 1.228418e+003
7.106414e+002, 1.228163e+003
7.111235e+002, 1.227954e+003
7.116056e+002, 1.226903e+003
7.120877e+002, 1.224454e+003
7.125698e+002, 1.222147e+003
7.130519e+002, 1.220629e+003
7.135341e+002, 1.219742e+003
7.140162e+002, 1.219504e+003
7.144983e+002, 1.219768e+003
7.149804e+002, 1.220146e+003
7.154625e+002, 1.220459e+003
7.159446e+002, 1.220445e+003
7.164268e+002, 1.219296e+003
7.169089e+002, 1.216479e+003
7.173910e+002, 1.214944e+003
7.178731e+002, 1.215438e+003
7.183552e+002, 1.216315e+003
7.188373e+002, 1.217234e+003
7.193195e+002, 1.217863e+003
7.198016e+002, 1.217554e+003
7.202837e+002, 1.216029e+003
7.207658e+002, 1.214647e+003
7.212479e+002, 1.214554e+003
7.217300e+002, 1.214578e+003
7.222122e+002, 1.213064e+003
7.226943e+002, 1.210454e+003
7.231764e+002, 1.208514e+003
7.236585e+002, 1.208014e+003
7.241406e+002, 1.208355e+003
7.246227e+002, 1.208674e+003
7.251049e+002, 1.208968e+003
7.255870e+002, 1.209357e+003
7.260691e+002, 1.210441e+003
7.265512e+002, 1.210617e+003
7.270333e+002, 1.208093e+003
7.275154e+002, 1.205193e+003
7.279976e+002, 1.204510e+003
7.284797e+002, 1.206214e+003
7.289618e+002, 1.207876e+003
7.294439e+002, 1.208219e+003
7.299260e+002, 1.208300e+003
7.304081e+002, 1.209270e+003
7.308903e+002, 1.210713e+003
7.313724e+002, 1.211654e+003
7.318545e+002, 1.211797e+003
7.323366e+002, 1.211300e+003
7.328187e+002, 1.210315e+003
7.333008e+002, 1.208840e+003
7.337830e+002, 1.206717e+003
7.342651e+002, 1.203479e+003
7.347472e+002, 1.200610e+003
7.352293e+002, 1.198052e+003
7.357114e+002, 1.196330e+003
7.361935e+002, 1.196325e+003
7.366757e+002, 1.197632e+003
7.371578e+002, 1.198426e+003
7.376399e+002, 1.197750e+003
7.381220e+002, 1.196932e+003
7.386041e+002, 1.197106e+003
7.390862e+002, 1.197618e+003
7.395684e+002, 1.197459e+003
7.400505e+002, 1.196482e+003
7.405326e+002, 1.194853e+003
7.410147e+002, 1.192516e+003
7.414968e+002, 1.190104e+003
7.419789e+002, 1.189861e+003
7.424611e+002, 1.192735e+003
7.429432e+002, 1.194229e+003
7.434253e+002, 1.193195e+003
7.439074e+002, 1.191600e+003
7.443895e+002, 1.190349e+003
7.448716e+002, 1.189393e+003
7.453538e+002, 1.188701e+003
7.458359e+002, 1.188374e+003
7.463180e+002, 1.187966e+003
7.468001e+002, 1.187094e+003
7.472822e+002, 1.186185e+003
7.477643e+002, 1.185732e+003
7.482465e+002, 1.185651e+003
7.487286e+002, 1.185613e+003
7.492107e+002, 1.185471e+003
7.496928e+002, 1.185129e+003
7.501749e+002, 1.184305e+003
7.506570e+002, 1.182947e+003
7.511392e+002, 1.182282e+003
7.516213e+002, 1.182681e+003
7.521034e+002, 1.182900e+003
7.525855e+002, 1.182260e+003
7.530676e+002, 1.181308e+003
7.535497e+002, 1.180823e+003
7.540319e+002, 1.180834e+003
7.545140e+002, 1.180420e+003
7.549961e+002, 1.179091e+003
7.554782e+002, 1.177548e+003
7.559603e+002, 1.175969e+003
7.564424e+002, 1.174550e+003
7.569246e+002, 1.173498e+003
7.574067e+002, 1.172881e+003
7.578888e+002, 1.172827e+003
7.583709e+002, 1.173668e+003
7.588530e+002, 1.174896e+003
7.593351e+002, 1.174511e+003
7.598173e+002, 1.172247e+003
7.602994e+002, 1.170773e+003
7.607815e+002, 1.171043e+003
7.612636e+002, 1.171543e+003
7.617457e+002, 1.170816e+003
7.622278e+002, 1.169205e+003
7.627100e+002, 1.168396e+003
7.631921e+002, 1.169173e+003
7.636742e+002, 1.169607e+003
7.641563e+002, 1.168627e+003
7.646384e+002, 1.167657e+003
7.651205e+002, 1.168291e+003
7.656027e+002, 1.169942e+003
7.660848e+002, 1.170680e+003
7.665669e+002, 1.169568e+003
7.670490e+002, 1.168028e+003
7.675311e+002, 1.168194e+003
7.680132e+002, 1.169669e+003
7.684954e+002, 1.170230e+003
7.689775e+002, 1.169695e+003
7.694596e+002, 1.168568e+003
7.699417e+002, 1.166874e+003
7.704238e+002, 1.165012e+003
7.709059e+002, 1.163623e+003
7.713881e+002, 1.162668e+003
7.718702e+002, 1.162440e+003
7.723523e+002, 1.164087e+003
7.728344e+002, 1.165063e+003
7.733165e+002, 1.163687e+003
7.737986e+002, 1.161650e+003
7.742808e+002, 1.161039e+003
7.747629e+002, 1.161998e+003
7.752450e+002, 1.162887e+003
7.757271e+002, 1.162630e+003
7.762092e+002, 1.161667e+003
7.766913e+002, 1.160173e+003
7.771735e+002, 1.158466e+003
7.776556e+002, 1.158286e+003
7.781377e+002, 1.160105e+003
7.786198e+002, 1.161472e+003
7.791019e+002, 1.160041e+003
7.795840e+002, 1.156571e+003
7.800662e+002, 1.155049e+003
7.805483e+002, 1.156982e+003
7.810304e+002, 1.158002e+003
7.815125e+002, 1.157505e+003
7.819946e+002, 1.156402e+003
7.824767e+002, 1.154578e+003
7.829589e+002, 1.152597e+003
7.834410e+002, 1.151545e+003
7.839231e+002, 1.151826e+003
7.844052e+002, 1.152303e+003
7.848873e+002, 1.152536e+003
7.853694e+002, 1.152431e+003
7.858516e+002, 1.151696e+003
7.863337e+002, 1.150503e+003
7.868158e+002, 1.149416e+003
7.872979e+002, 1.148664e+003
7.877800e+002, 1.148040e+003
7.882621e+002, 1.147120e+003
7.887443e+002, 1.145957e+003
7.892264e+002, 1.146103e+003
7.897085e+002, 1.148056e+003
7.901906e+002, 1.149970e+003
7.906727e+002, 1.151534e+003
7.911548e+002, 1.152645e+003
7.916370e+002, 1.153115e+003
7.921191e+002, 1.153015e+003
7.926012e+002, 1.152803e+003
7.930833e+002, 1.152321e+003
7.935654e+002, 1.152008e+003
7.940475e+002, 1.152601e+003
7.945297e+002, 1.153041e+003
7.950118e+002, 1.152036e+003
7.954939e+002, 1.149781e+003
7.959760e+002, 1.147310e+003
7.964581e+002, 1.145112e+003
7.969402e+002, 1.143471e+003
7.974224e+002, 1.143069e+003
7.979045e+002, 1.143701e+003
7.983866e+002, 1.144053e+003
7.988687e+002, 1.143997e+003
7.993508e+002, 1.143833e+003
7.998329e+002, 1.143767e+003
8.003151e+002, 1.143592e+003
8.007972e+002, 1.142865e+003
8.012793e+002, 1.141307e+003
8.017614e+002, 1.140291e+003
8.022435e+002, 1.140689e+003
8.027256e+002, 1.140518e+003
8.032078e+002, 1.138583e+003
8.036899e+002, 1.136212e+003
8.041720e+002, 1.134608e+003
8.046541e+002, 1.133973e+003
8.051362e+002, 1.134150e+003
8.056183e+002, 1.135548e+003
8.061005e+002, 1.137161e+003
8.065826e+002, 1.138280e+003
8.070647e+002, 1.138744e+003
8.075468e+002, 1.137783e+003
8.080289e+002, 1.135452e+003
8.085110e+002, 1.133364e+003
8.089932e+002, 1.132639e+003
8.094753e+002, 1.133000e+003
8.099574e+002, 1.133890e+003
8.104395e+002, 1.135612e+003
8.109216e+002, 1.136505e+003
8.114037e+002, 1.136359e+003
8.118859e+002, 1.135584e+003
8.123680e+002, 1.133823e+003
8.128501e+002, 1.131807e+003
8.133322e+002, 1.130698e+003
8.138143e+002, 1.130690e+003
8.142964e+002, 1.130494e+003
8.147786e+002, 1.129244e+003
8.152607e+002, 1.128326e+003
8.157428e+002, 1.129022e+003
8.162249e+002, 1.130328e+003
8.167070e+002, 1.130788e+003
8.171891e+002, 1.130172e+003
8.176713e+002, 1.129168e+003
8.181534e+002, 1.128074e+003
8.186355e+002, 1.127252e+003
8.191176e+002, 1.127593e+003
8.195997e+002, 1.128949e+003
8.200818e+002, 1.130265e+003
8.205640e+002, 1.131395e+003
8.210461e+002, 1.132116e+003
8.215282e+002, 1.132294e+003
8.220103e+002, 1.131906e+003
8.224924e+002, 1.130844e+003
8.229745e+002, 1.128605e+003
8.234567e+002, 1.126791e+003
8.239388e+002, 1.125891e+003
8.244209e+002, 1.124850e+003
8.249030e+002, 1.122949e+003
8.253851e+002, 1.120874e+003
8.258672e+002, 1.119495e+003
8.263494e+002, 1.118939e+003
8.268315e+002, 1.118813e+003
8.273136e+002, 1.119694e+003
8.277957e+002, 1.120230e+003
8.282778e+002, 1.118540e+003
8.287599e+002, 1.115937e+003
8.292421e+002, 1.114986e+003
8.297242e+002, 1.116030e+003
8.302063e+002, 1.117547e+003
8.306884e+002, 1.118491e+003
8.311705e+002, 1.118807e+003
8.316526e+002, 1.118184e+003
8.321348e+002, 1.116586e+003
8.326169e+002, 1.115043e+003
8.330990e+002, 1.113512e+003
8.335811e+002, 1.112570e+003
8.340632e+002, 1.112785e+003
8.345453e+002, 1.113616e+003
8.350275e+002, 1.113858e+003
8.355096e+002, 1.113205e+003
8.359917e+002, 1.112823e+003
8.364738e+002, 1.113045e+003
8.369559e+002, 1.113140e+003
8.374380e+002, 1.112708e+003
8.379202e+002, 1.112090e+003
8.384023e+002, 1.111706e+003
8.388844e+002, 1.111579e+003
8.393665e+002, 1.111408e+003
8.398486e+002, 1.111288e+003
8.403307e+002, 1.110746e+003
8.408129e+002, 1.108737e+003
8.412950e+002, 1.106142e+003
8.417771e+002, 1.104800e+003
8.422592e+002, 1.104882e+003
8.427413e+002, 1.105490e+003
8.432234e+002, 1.106113e+003
8.437056e+002, 1.106604e+003
8.441877e+002, 1.106681e+003
8.446698e+002, 1.106348e+003
8.451519e+002, 1.105466e+003
8.456340e+002, 1.103751e+003
8.461161e+002, 1.102284e+003
8.465983e+002, 1.101622e+003
8.470804e+002, 1.101321e+003
8.475625e+002, 1.100579e+003
8.480446e+002, 1.099304e+003
8.485267e+002, 1.099031e+003
8.490089e+002, 1.101211e+003
8.494910e+002, 1.102596e+003
8.499731e+002, 1.101466e+003
8.504552e+002, 1.099792e+003
8.509373e+002, 1.099275e+003
8.514194e+002, 1.099877e+003
8.519016e+002, 1.100906e+003
8.523837e+002, 1.102318e+003
8.528658e+002, 1.103160e+003
8.533479e+002, 1.102104e+003
8.538300e+002, 1.100106e+003
8.543121e+002, 1.098739e+003
8.547943e+002, 1.098082e+003
8.552764e+002, 1.098015e+003
8.557585e+002, 1.098504e+003
8.562406e+002, 1.098556e+003
8.567227e+002, 1.096514e+003
8.572048e+002, 1.092671e+003
8.576870e+002, 1.091019e+003
8.581691e+002, 1.092173e+003
8.586512e+002, 1.093122e+003
8.591333e+002, 1.093173e+003
8.596154e+002, 1.092717e+003
8.600975e+002, 1.091984e+003
8.605797e+002, 1.091011e+003
8.610618e+002, 1.089996e+003
8.615439e+002, 1.088250e+003
8.620260e+002, 1.087612e+003
8.625081e+002, 1.089385e+003
8.629902e+002, 1.091206e+003
8.634724e+002, 1.091506e+003
8.639545e+002, 1.090965e+003
8.644366e+002, 1.090855e+003
8.649187e+002, 1.091482e+003
8.654008e+002, 1.092106e+003
8.658829e+002, 1.092411e+003
8.663651e+002, 1.092326e+003
8.668472e+002, 1.091576e+003
8.673293e+002, 1.090404e+003
8.678114e+002, 1.089281e+003
8.682935e+002, 1.088349e+003
8.687756e+002, 1.087800e+003
8.692578e+002, 1.087858e+003
8.697399e+002, 1.088130e+003
8.702220e+002, 1.087500e+003
8.707041e+002, 1.085899e+003
8.711862e+002, 1.084724e+003
8.716683e+002, 1.084097e+003
8.721505e+002, 1.083918e+003
8.726326e+002, 1.084443e+003
8.731147e+002, 1.085028e+003
8.735968e+002, 1.084414e+003
8.740789e+002, 1.082172e+003
8.745610e+002, 1.081050e+003
8.750432e+002, 1.082345e+003
8.755253e+002, 1.083005e+003
8.760074e+002, 1.081500e+003
8.764895e+002, 1.079767e+003
8.769716e+002, 1.079734e+003
8.774537e+002, 1.081004e+003
8.779359e+002, 1.081590e+003
8.784180e+002, 1.080486e+003
8.789001e+002, 1.079440e+003
8.793822e+002, 1.080098e+003
8.798643e+002, 1.080978e+003
8.803464e+002, 1.080063e+003
8.808286e+002, 1.077901e+003
8.813107e+002, 1.076228e+003
8.817928e+002, 1.075696e+003
8.822749e+002, 1.075921e+003
8.827570e+002, 1.076915e+003
8.832391e+002, 1.078158e+003
8.837213e+002, 1.077542e+003
8.842034e+002, 1.075233e+003
8.846855e+002, 1.074156e+003
8.851676e+002, 1.075102e+003
8.856497e+002, 1.076732e+003
8.861318e+002, 1.078404e+003
8.866140e+002, 1.079496e+003
8.870961e+002, 1.077594e+003
8.875782e+002, 1.070712e+003
8.880603e+002, 1.065930e+003
8.885424e+002, 1.064019e+003
8.890245e+002, 1.063202e+003
8.895067e+002, 1.063416e+003
8.899888e+002, 1.063940e+003
8.904709e+002, 1.063952e+003
8.909530e+002, 1.063418e+003
8.914351e+002, 1.062791e+003
8.919172e+002, 1.062407e+003
8.923994e+002, 1.061640e+003
8.928815e+002, 1.059435e+003
8.933636e+002, 1.057331e+003
8.938457e+002, 1.057350e+003
8.943278e+002, 1.058836e+003
8.948099e+002, 1.059468e+003
8.952921e+002, 1.058215e+003
8.957742e+002, 1.056333e+003
8.962563e+002, 1.054740e+003
8.967384e+002, 1.053454e+003
8.972205e+002, 1.052461e+003
8.977026e+002, 1.051817e+003
8.981848e+002, 1.051825e+003
8.986669e+002, 1.052556e+003
8.991490e+002, 1.053565e+003
8.996311e+002, 1.054495e+003
9.001132e+002, 1.055257e+003
9.005953e+002, 1.055695e+003
9.010775e+002, 1.055910e+003
9.015596e+002, 1.054240e+003
9.020417e+002, 1.049614e+003
9.025238e+002, 1.045905e+003
9.030059e+002, 1.045741e+003
9.034880e+002, 1.047614e+003
9.039702e+002, 1.048413e+003
9.044523e+002, 1.047696e+003
9.049344e+002, 1.047634e+003
9.054165e+002, 1.049114e+003
9.058986e+002, 1.050079e+003
9.063807e+002, 1.049571e+003
9.068629e+002, 1.048765e+003
9.073450e+002, 1.048998e+003
9.078271e+002, 1.049909e+003
9.083092e+002, 1.049768e+003
9.087913e+002, 1.047610e+003
9.092734e+002, 1.045434e+003
9.097556e+002, 1.044093e+003
9.102377e+002, 1.043149e+003
9.107198e+002, 1.042224e+003
9.112019e+002, 1.041390e+003
9.116840e+002, 1.040873e+003
9.121661e+002, 1.040736e+003
9.126483e+002, 1.040826e+003
9.131304e+002, 1.041248e+003
9.136125e+002, 1.041619e+003
9.140946e+002, 1.041241e+003
9.145767e+002, 1.040280e+003
9.150588e+002, 1.039090e+003
9.155410e+002, 1.037802e+003
9.160231e+002, 1.036991e+003
9.165052e+002, 1.037041e+003
9.169873e+002, 1.037637e+003
9.174694e+002, 1.038379e+003
9.179515e+002, 1.039303e+003
9.184337e+002, 1.039125e+003
9.189158e+002, 1.037562e+003
9.193979e+002, 1.036135e+003
9.198800e+002, 1.035292e+003
9.203621e+002, 1.034960e+003
9.208442e+002, 1.035366e+003
9.213264e+002, 1.036331e+003
9.218085e+002, 1.035930e+003
9.222906e+002, 1.032499e+003
9.227727e+002, 1.030430e+003
9.232548e+002, 1.031080e+003
9.237369e+002, 1.031808e+003
9.242191e+002, 1.031564e+003
9.247012e+002, 1.030540e+003
9.251833e+002, 1.028723e+003
9.256654e+002, 1.026042e+003
9.261475e+002, 1.024474e+003
9.266296e+002, 1.025666e+003
9.271118e+002, 1.026872e+003
9.275939e+002, 1.026480e+003
9.280760e+002, 1.025534e+003
9.285581e+002, 1.025151e+003
9.290402e+002, 1.025351e+003
9.295223e+002, 1.025568e+003
9.300045e+002, 1.025501e+003
9.304866e+002, 1.025754e+003
9.309687e+002, 1.027638e+003
9.314508e+002, 1.029736e+003
9.319329e+002, 1.029292e+003
9.324150e+002, 1.027087e+003
9.328972e+002, 1.026043e+003
9.333793e+002, 1.026856e+003
9.338614e+002, 1.027629e+003
9.343435e+002, 1.026641e+003
9.348256e+002, 1.024641e+003
9.353077e+002, 1.023408e+003
9.357899e+002, 1.022907e+003
9.362720e+002, 1.022705e+003
9.367541e+002, 1.022809e+003
9.372362e+002, 1.022563e+003
9.377183e+002, 1.021560e+003
9.382004e+002, 1.020331e+003
9.386826e+002, 1.019739e+003
9.391647e+002, 1.019810e+003
9.396468e+002, 1.019247e+003
9.401289e+002, 1.017571e+003
9.406110e+002, 1.016475e+003
9.410931e+002, 1.016852e+003
9.415753e+002, 1.017139e+003
9.420574e+002, 1.015858e+003
9.425395e+002, 1.013728e+003
9.430216e+002, 1.012811e+003
9.435037e+002, 1.013797e+003
9.439858e+002, 1.013911e+003
9.444680e+002, 1.011991e+003
9.449501e+002, 1.010322e+003
9.454322e+002, 1.009854e+003
9.459143e+002, 1.009984e+003
9.463964e+002, 1.010174e+003
9.468785e+002, 1.010346e+003
9.473607e+002, 1.010528e+003
9.478428e+002, 1.010848e+003
9.483249e+002, 1.010920e+003
9.488070e+002, 1.010367e+003
9.492891e+002, 1.009608e+003
9.497712e+002, 1.008844e+003
9.502534e+002, 1.008238e+003
9.507355e+002, 1.008135e+003
9.512176e+002, 1.008562e+003
9.516997e+002, 1.009031e+003
9.521818e+002, 1.009274e+003
9.526639e+002, 1.009224e+003
9.531461e+002, 1.008523e+003
9.536282e+002, 1.007532e+003
9.541103e+002, 1.007246e+003
9.545924e+002, 1.007644e+003
9.550745e+002, 1.007934e+003
9.555566e+002, 1.007731e+003
9.560388e+002, 1.007022e+003
9.565209e+002, 1.005569e+003
9.570030e+002, 1.003609e+003
9.574851e+002, 1.002295e+003
9.579672e+002, 1.001627e+003
9.584493e+002, 1.001526e+003
9.589315e+002, 1.002052e+003
9.594136e+002, 1.002582e+003
9.598957e+002, 1.002735e+003
9.603778e+002, 1.002411e+003
9.608599e+002, 1.001094e+003
9.613420e+002, 9.982389e+002
9.618242e+002, 9.973773e+002
9.623063e+002, 9.995298e+002
9.627884e+002, 1.001176e+003
9.632705e+002, 1.001182e+003
9.637526e+002, 1.000196e+003
9.642347e+002, 9.984185e+002
9.647169e+002, 9.960931e+002
9.651990e+002, 9.950217e+002
9.656811e+002, 9.961832e+002
9.661632e+002, 9.971172e+002
9.666453e+002, 9.980958e+002
9.671274e+002, 9.985334e+002
9.676096e+002, 9.979775e+002
9.680917e+002, 9.968669e+002
9.685738e+002, 9.955800e+002
9.690559e+002, 9.941906e+002
9.695380e+002, 9.932128e+002
9.700201e+002, 9.930375e+002
9.705023e+002, 9.929236e+002
9.709844e+002, 9.929033e+002
9.714665e+002, 9.925749e+002
9.719486e+002, 9.912064e+002
9.724307e+002, 9.893994e+002
9.729128e+002, 9.883941e+002
9.733950e+002, 9.885042e+002
9.738771e+002, 9.888056e+002
9.743592e+002, 9.892079e+002
9.748413e+002, 9.891066e+002
9.753234e+002, 9.870964e+002
9.758055e+002, 9.847250e+002
9.762877e+002, 9.848796e+002
9.767698e+002, 9.870383e+002
9.772519e+002, 9.880827e+002
9.777340e+002, 9.865313e+002
9.782161e+002, 9.842156e+002
9.786982e+002, 9.828469e+002
9.791804e+002, 9.822100e+002
9.796625e+002, 9.819364e+002
9.801446e+002, 9.820482e+002
9.806267e+002, 9.826356e+002
9.811088e+002, 9.837208e+002
9.815909e+002, 9.855259e+002
9.820731e+002, 9.883508e+002
9.825552e+002, 9.911003e+002
9.830373e+002, 9.916541e+002
9.835194e+002, 9.902607e+002
9.840015e+002, 9.885588e+002
9.844836e+002, 9.866030e+002
9.849658e+002, 9.849545e+002
9.854479e+002, 9.837706e+002
9.859300e+002, 9.832123e+002
9.864121e+002, 9.836060e+002
9.868942e+002, 9.844705e+002
9.873763e+002, 9.837820e+002
9.878585e+002, 9.810857e+002
9.883406e+002, 9.799927e+002
9.888227e+002, 9.811765e+002
9.893048e+002, 9.823151e+002
9.897869e+002, 9.826310e+002
9.902690e+002, 9.821238e+002
9.907512e+002, 9.804925e+002
9.912333e+002, 9.779122e+002
9.917154e+002, 9.767313e+002
9.921975e+002, 9.779667e+002
9.926796e+002, 9.784102e+002
9.931617e+002, 9.771229e+002
9.936439e+002, 9.760265e+002
9.941260e+002, 9.763571e+002
9.946081e+002, 9.772069e+002
9.950902e+002, 9.772272e+002
9.955723e+002, 9.763878e+002
9.960544e+002, 9.757219e+002
9.965366e+002, 9.756490e+002
9.970187e+002, 9.752087e+002
9.975008e+002, 9.736696e+002
9.979829e+002, 9.723133e+002
9.984650e+002, 9.719822e+002
9.989471e+002, 9.723369e+002
9.994293e+002, 9.730219e+002
9.999114e+002, 9.740465e+002
1.000393e+003, 9.740668e+002
1.000876e+003, 9.716612e+002
1.001358e+003, 9.695151e+002
1.001840e+003, 9.686770e+002
1.002322e+003, 9.686543e+002
1.002804e+003, 9.695256e+002
1.003286e+003, 9.707021e+002
1.003768e+003, 9.709804e+002
1.004250e+003, 9.699944e+002
1.004733e+003, 9.688469e+002
1.005215e+003, 9.680130e+002
1.005697e+003, 9.673669e+002
1.006179e+003, 9.669658e+002
1.006661e+003, 9.666086e+002
1.007143e+003, 9.658717e+002
1.007625e+003, 9.649349e+002
1.008107e+003, 9.645445e+002
1.008589e+003, 9.650612e+002
1.009072e+003, 9.654933e+002
1.009554e+003, 9.646453e+002
1.010036e+003, 9.635508e+002
1.010518e+003, 9.635790e+002
1.011000e+003, 9.642639e+002
1.011482e+003, 9.647590e+002
1.011964e+003, 9.648548e+002
1.012446e+003, 9.644623e+002
1.012929e+003, 9.634804e+002
1.013411e+003, 9.624709e+002
1.013893e+003, 9.622253e+002
1.014375e+003, 9.623815e+002
1.014857e+003, 9.621303e+002
1.015339e+003, 9.616188e+002
1.015821e+003, 9.614792e+002
1.016303e+003, 9.618123e+002
1.016785e+003, 9.622131e+002
1.017268e+003, 9.624572e+002
1.017750e+003, 9.623067e+002
1.018232e+003, 9.610546e+002
1.018714e+003, 9.590706e+002
1.019196e+003, 9.580280e+002
1.019678e+003, 9.578505e+002
1.020160e+003, 9.572020e+002
1.020642e+003, 9.557186e+002
1.021125e+003, 9.545980e+002
1.021607e+003, 9.548770e+002
1.022089e+003, 9.558517e+002
1.022571e+003, 9.558676e+002
1.023053e+003, 9.549799e+002
1.023535e+003, 9.542871e+002
1.024017e+003, 9.538337e+002
1.024499e+003, 9.534905e+002
1.024981e+003, 9.532621e+002
1.025464e+003, 9.527404e+002
1.025946e+003, 9.514224e+002
1.026428e+003, 9.497751e+002
1.026910e+003, 9.494742e+002
1.027392e+003, 9.507510e+002
1.027874e+003, 9.508569e+002
1.028356e+003, 9.491970e+002
1.028838e+003, 9.490338e+002
1.029321e+003, 9.520006e+002
1.029803e+003, 9.553879e+002
1.030285e+003, 9.566365e+002
1.030767e+003, 9.560397e+002
1.031249e+003, 9.548015e+002
1.031731e+003, 9.525789e+002
1.032213e+003, 9.510080e+002
1.032695e+003, 9.502521e+002
1.033177e+003, 9.498389e+002
1.033660e+003, 9.497005e+002
1.034142e+003, 9.496645e+002
1.034624e+003, 9.495366e+002
1.035106e+003, 9.493514e+002
1.035588e+003, 9.493330e+002
1.036070e+003, 9.495046e+002
1.036552e+003, 9.498291e+002
1.037034e+003, 9.506780e+002
1.037516e+003, 9.510390e+002
1.037999e+003, 9.503903e+002
1.038481e+003, 9.492389e+002
1.038963e+003, 9.480826e+002
1.039445e+003, 9.469051e+002
1.039927e+003, 9.455524e+002
1.040409e+003, 9.433993e+002
1.040891e+003, 9.421911e+002
1.041373e+003, 9.427444e+002
1.041855e+003, 9.432180e+002
1.042338e+003, 9.426807e+002
1.042820e+003, 9.419387e+002
1.043302e+003, 9.419923e+002
1.043784e+003, 9.426844e+002
1.044266e+003, 9.427688e+002
1.044748e+003, 9.419918e+002
1.045230e+003, 9.409828e+002
1.045712e+003, 9.393229e+002
1.046195e+003, 9.379885e+002
1.046677e+003, 9.376432e+002
1.047159e+003, 9.376161e+002
1.047641e+003, 9.370928e+002
1.048123e+003, 9.361616e+002
1.048605e+003, 9.356159e+002
1.049087e+003, 9.357576e+002
1.049569e+003, 9.358792e+002
1.050052e+003, 9.362301e+002
1.050534e+003, 9.361207e+002
1.051016e+003, 9.344428e+002
1.051498e+003, 9.326870e+002
1.051980e+003, 9.328297e+002
1.052462e+003, 9.345817e+002
1.052944e+003, 9.356022e+002
1.053426e+003, 9.350197e+002
1.053908e+003, 9.346215e+002
1.054391e+003, 9.346730e+002
1.054873e+003, 9.351537e+002
1.055355e+003, 9.367112e+002
1.055837e+003, 9.382382e+002
1.056319e+003, 9.382963e+002
1.056801e+003, 9.370825e+002
1.057283e+003, 9.361198e+002
1.057765e+003, 9.358201e+002
1.058248e+003, 9.356733e+002
1.058730e+003, 9.357906e+002
1.059212e+003, 9.357334e+002
1.059694e+003, 9.353187e+002
1.060176e+003, 9.345603e+002
1.060658e+003, 9.331714e+002
1.061140e+003, 9.314280e+002
1.061622e+003, 9.305040e+002
1.062104e+003, 9.312042e+002
1.062587e+003, 9.313473e+002
1.063069e+003, 9.292850e+002
1.063551e+003, 9.274293e+002
1.064033e+003, 9.274388e+002
1.064515e+003, 9.282438e+002
1.064997e+003, 9.287048e+002
1.065479e+003, 9.287211e+002
1.065961e+003, 9.285888e+002
1.066443e+003, 9.284620e+002
1.066926e+003, 9.279208e+002
1.067408e+003, 9.262574e+002
1.067890e+003, 9.247370e+002
1.068372e+003, 9.241307e+002
1.068854e+003, 9.240556e+002
1.069336e+003, 9.240321e+002
1.069818e+003, 9.240945e+002
1.070300e+003, 9.246954e+002
1.070782e+003, 9.262022e+002
1.071265e+003, 9.270683e+002
1.071747e+003, 9.262151e+002
1.072229e+003, 9.249846e+002
1.072711e+003, 9.242795e+002
1.073193e+003, 9.235566e+002
1.073675e+003, 9.215902e+002
1.074157e+003, 9.191334e+002
1.074639e+003, 9.187348e+002
1.075122e+003, 9.214962e+002
1.075604e+003, 9.232200e+002
1.076086e+003, 9.210087e+002
1.076568e+003, 9.183768e+002
1.077050e+003, 9.173342e+002
1.077532e+003, 9.169491e+002
1.078014e+003, 9.162891e+002
1.078496e+003, 9.153873e+002
1.078979e+003, 9.145290e+002
1.079461e+003, 9.137617e+002
1.079943e+003, 9.135245e+002
1.080425e+003, 9.144097e+002
1.080907e+003, 9.154041e+002
1.081389e+003, 9.161815e+002
1.081871e+003, 9.166027e+002
1.082353e+003, 9.164636e+002
1.082835e+003, 9.158951e+002
1.083318e+003, 9.150502e+002
1.083800e+003, 9.139777e+002
1.084282e+003, 9.132555e+002
1.084764e+003, 9.135300e+002
1.085246e+003, 9.137098e+002
1.085728e+003, 9.128386e+002
1.086210e+003, 9.120204e+002
1.086692e+003, 9.124465e+002
1.087175e+003, 9.135429e+002
1.087657e+003, 9.140920e+002
1.088139e+003, 9.139225e+002
1.088621e+003, 9.140491e+002
1.089103e+003, 9.156295e+002
1.089585e+003, 9.165182e+002
1.090067e+003, 9.154711e+002
1.090549e+003, 9.136872e+002
1.091031e+003, 9.111606e+002
1.091514e+003, 9.090008e+002
1.091996e+003, 9.090741e+002
1.092478e+003, 9.113303e+002
1.092960e+003, 9.134020e+002
1.093442e+003, 9.146708e+002
1.093924e+003, 9.153203e+002
1.094406e+003, 9.156630e+002
1.094888e+003, 9.151555e+002
1.095370e+003, 9.127581e+002
1.095853e+003, 9.097560e+002
1.096335e+003, 9.078834e+002
1.096817e+003, 9.070540e+002
1.097299e+003, 9.057783e+002
1.097781e+003, 9.031475e+002
1.098263e+003, 9.014089e+002
1.098745e+003, 9.017156e+002
1.099227e+003, 9.025862e+002
1.099709e+003, 9.039708e+002
1.100192e+003, 9.049764e+002
1.100674e+003, 9.040620e+002
1.101156e+003, 9.019824e+002
1.101638e+003, 9.016426e+002
1.102120e+003, 9.043877e+002
1.102602e+003, 9.057828e+002
1.103084e+003, 9.036768e+002
1.103566e+003, 9.013835e+002
1.104049e+003, 9.001273e+002
1.104531e+003, 8.992737e+002
1.105013e+003, 8.980422e+002
1.105495e+003, 8.967845e+002
1.105977e+003, 8.964280e+002
1.106459e+003, 8.971574e+002
1.106941e+003, 8.982278e+002
1.107423e+003, 8.999644e+002
1.107906e+003, 9.014055e+002
1.108388e+003, 9.028195e+002
1.108870e+003, 9.033327e+002
1.109352e+003, 9.014890e+002
1.109834e+003, 8.987492e+002
1.110316e+003, 8.978981e+002
1.110798e+003, 8.992100e+002
1.111280e+003, 8.995193e+002
1.111762e+003, 8.983681e+002
1.112245e+003, 8.965416e+002
1.112727e+003, 8.926671e+002
1.113209e+003, 8.898240e+002
1.113691e+003, 8.905635e+002
1.114173e+003, 8.925010e+002
1.114655e+003, 8.923307e+002
1.115137e+003, 8.902704e+002
1.115619e+003, 8.894679e+002
1.116102e+003, 8.909139e+002
1.116584e+003, 8.918505e+002
1.117066e+003, 8.919525e+002
1.117548e+003, 8.919679e+002
1.118030e+003, 8.923834e+002
1.118512e+003, 8.925487e+002
1.118994e+003, 8.916906e+002
1.119476e+003, 8.900818e+002
1.119958e+003, 8.887693e+002
1.120441e+003, 8.875328e+002
1.120923e+003, 8.873546e+002
1.121405e+003, 8.886855e+002
1.121887e+003, 8.902074e+002
1.122369e+003, 8.922183e+002
1.122851e+003, 8.930753e+002
1.123333e+003, 8.909655e+002
1.123815e+003, 8.874781e+002
1.124297e+003, 8.862268e+002
1.124780e+003, 8.874316e+002
1.125262e+003, 8.880611e+002
1.125744e+003, 8.879023e+002
1.126226e+003, 8.880294e+002
1.126708e+003, 8.888216e+002
1.127190e+003, 8.891790e+002
1.127672e+003, 8.883044e+002
1.128154e+003, 8.871855e+002
1.128636e+003, 8.874655e+002
1.129119e+003, 8.888107e+002
1.129601e+003, 8.881320e+002
1.130083e+003, 8.851315e+002
1.130565e+003, 8.832194e+002
1.131047e+003, 8.827127e+002
1.131529e+003, 8.839029e+002
1.132011e+003, 8.872367e+002
1.132493e+003, 8.898035e+002
1.132976e+003, 8.883428e+002
1.133458e+003, 8.845179e+002
1.133940e+003, 8.833077e+002
1.134422e+003, 8.844617e+002
1.134904e+003, 8.847815e+002
1.135386e+003, 8.841732e+002
1.135868e+003, 8.838347e+002
1.136350e+003, 8.840800e+002
1.136833e+003, 8.839744e+002
1.137315e+003, 8.827894e+002
1.137797e+003, 8.813202e+002
1.138279e+003, 8.809102e+002
1.138761e+003, 8.813273e+002
1.139243e+003, 8.819480e+002
1.139725e+003, 8.826681e+002
1.140207e+003, 8.830842e+002
1.140689e+003, 8.831367e+002
1.141172e+003, 8.829407e+002
1.141654e+003, 8.825521e+002
1.142136e+003, 8.819320e+002
1.142618e+003, 8.808008e+002
1.143100e+003, 8.796788e+002
1.143582e+003, 8.797820e+002
1.144064e+003, 8.804179e+002
1.144546e+003, 8.797782e+002
1.145029e+003, 8.783168e+002
1.145511e+003, 8.780570e+002
1.145993e+003, 8.794600e+002
1.146475e+003, 8.810974e+002
1.146957e+003, 8.822689e+002
1.147439e+003, 8.825818e+002
1.147921e+003, 8.811915e+002
1.148403e+003, 8.791022e+002
1.148885e+003, 8.769895e+002
1.149368e+003, 8.753658e+002
1.149850e+003, 8.754052e+002
1.150332e+003, 8.767526e+002
1.150814e+003, 8.773290e+002
1.151296e+003, 8.761120e+002
1.151778e+003, 8.751042e+002
1.152260e+003, 8.760319e+002
1.152742e+003, 8.769775e+002
1.153224e+003, 8.764579e+002
1.153707e+003, 8.754305e+002
1.154189e+003, 8.749934e+002
1.154671e+003, 8.749261e+002
1.155153e+003, 8.743324e+002
1.155635e+003, 8.730203e+002
1.156117e+003, 8.723517e+002
1.156599e+003, 8.736410e+002
1.157081e+003, 8.743762e+002
1.157563e+003, 8.733551e+002
1.158046e+003, 8.720082e+002
1.158528e+003, 8.708099e+002
1.159010e+003, 8.700791e+002
1.159492e+003, 8.705818e+002
1.159974e+003, 8.720748e+002
1.160456e+003, 8.723929e+002
1.160938e+003, 8.700323e+002
1.161420e+003, 8.690808e+002
1.161903e+003, 8.709929e+002
1.162385e+003, 8.724766e+002
1.162867e+003, 8.727120e+002
1.163349e+003, 8.720892e+002
1.163831e+003, 8.704807e+002
1.164313e+003, 8.684705e+002
1.164795e+003, 8.675491e+002
1.165277e+003, 8.678522e+002
1.165760e+003, 8.680859e+002
1.166242e+003, 8.682459e+002
1.166724e+003, 8.683474e+002
1.167206e+003, 8.683702e+002
1.167688e+003, 8.683973e+002
1.168170e+003, 8.684296e+002
1.168652e+003, 8.686736e+002
1.169134e+003, 8.695967e+002
1.169616e+003, 8.707824e+002
1.170099e+003, 8.697635e+002
1.170581e+003, 8.664930e+002
1.171063e+003, 8.653150e+002
1.171545e+003, 8.665048e+002
1.172027e+003, 8.676308e+002
1.172509e+003, 8.679540e+002
1.172991e+003, 8.683958e+002
1.173473e+003, 8.697647e+002
1.173956e+003, 8.710423e+002
1.174438e+003, 8.701025e+002
1.174920e+003, 8.677270e+002
1.175402e+003, 8.665149e+002
1.175884e+003, 8.661627e+002
1.176366e+003, 8.654007e+002
1.176848e+003, 8.641729e+002
1.177330e+003, 8.632820e+002
1.177813e+003, 8.630781e+002
1.178295e+003, 8.634122e+002
1.178777e+003, 8.644153e+002
1.179259e+003, 8.655026e+002
1.179741e+003, 8.661260e+002
1.180223e+003, 8.662398e+002
1.180705e+003, 8.653243e+002
1.181187e+003, 8.640078e+002
1.181669e+003, 8.640668e+002
1.182151e+003, 8.653228e+002
1.182634e+003, 8.649269e+002
1.183116e+003, 8.609581e+002
1.183598e+003, 8.575709e+002
1.184080e+003, 8.575365e+002
1.184562e+003, 8.585153e+002
1.185044e+003, 8.595224e+002
1.185526e+003, 8.602560e+002
1.186008e+003, 8.604106e+002
1.186490e+003, 8.601180e+002
1.186973e+003, 8.596762e+002
1.187455e+003, 8.591213e+002
1.187937e+003, 8.586442e+002
1.188419e+003, 8.581812e+002
1.188901e+003, 8.579443e+002
1.189383e+003, 8.583917e+002
1.189865e+003, 8.585845e+002
1.190347e+003, 8.577028e+002
1.190830e+003, 8.565974e+002
1.191312e+003, 8.561563e+002
1.191794e+003, 8.562891e+002
1.192276e+003, 8.565589e+002
1.192758e+003, 8.570262e+002
1.193240e+003, 8.575052e+002
1.193722e+003, 8.582850e+002
1.194204e+003, 8.580315e+002
1.194687e+003, 8.559579e+002
1.195169e+003, 8.544687e+002
1.195651e+003, 8.553331e+002
1.196133e+003, 8.569319e+002
1.196615e+003, 8.566024e+002
1.197097e+003, 8.547014e+002
1.197579e+003, 8.532883e+002
1.198061e+003, 8.523563e+002
1.198543e+003, 8.520132e+002
1.199026e+003, 8.522158e+002
1.199508e+003, 8.521520e+002
1.199990e+003, 8.515712e+002
1.200472e+003, 8.511699e+002
1.200954e+003, 8.515533e+002
1.201436e+003, 8.521592e+002
1.201918e+003, 8.521783e+002
1.202400e+003, 8.517801e+002
1.202883e+003, 8.508834e+002
1.203365e+003, 8.500062e+002
1.203847e+003, 8.506951e+002
1.204329e+003, 8.525842e+002
1.204811e+003, 8.537864e+002
1.205293e+003, 8.535959e+002
1.205775e+003, 8.525980e+002
1.206257e+003, 8.506974e+002
1.206740e+003, 8.488258e+002
1.207222e+003, 8.476432e+002
1.207704e+003, 8.468120e+002
1.208186e+003, 8.460085e+002
1.208668e+003, 8.453640e+002
1.209150e+003, 8.450812e+002
1.209632e+003, 8.451760e+002
1.210114e+003, 8.456616e+002
1.210596e+003, 8.468280e+002
1.211078e+003, 8.474258e+002
1.211561e+003, 8.469357e+002
1.212043e+003, 8.462223e+002
1.212525e+003, 8.451166e+002
1.213007e+003, 8.443270e+002
1.213489e+003, 8.445001e+002
1.213971e+003, 8.450948e+002
1.214453e+003, 8.452952e+002
1.214935e+003, 8.451139e+002
1.215417e+003, 8.449470e+002
1.215900e+003, 8.449925e+002
1.216382e+003, 8.440992e+002
1.216864e+003, 8.418261e+002
1.217346e+003, 8.403526e+002
1.217828e+003, 8.404373e+002
1.218310e+003, 8.411815e+002
1.218792e+003, 8.420325e+002
1.219274e+003, 8.426172e+002
1.219757e+003, 8.420392e+002
1.220239e+003, 8.406387e+002
1.220721e+003, 8.399733e+002
1.221203e+003, 8.399753e+002
1.221685e+003, 8.405553e+002
1.222167e+003, 8.414930e+002
1.222649e+003, 8.416498e+002
1.223131e+003, 8.407146e+002
1.223614e+003, 8.398456e+002
1.224096e+003, 8.398535e+002
1.224578e+003, 8.405016e+002
1.225060e+003, 8.418232e+002
1.225542e+003, 8.433715e+002
1.226024e+003, 8.453007e+002
1.226506e+003, 8.466467e+002
1.226988e+003, 8.455997e+002
1.227470e+003, 8.426917e+002
1.227953e+003, 8.399156e+002
1.228435e+003, 8.378341e+002
1.228917e+003, 8.357711e+002
1.229399e+003, 8.327111e+002
1.229881e+003, 8.307324e+002
1.230363e+003, 8.310124e+002
1.230845e+003, 8.319736e+002
1.231327e+003, 8.333714e+002
1.231810e+003, 8.344416e+002
1.232292e+003, 8.339243e+002
1.232774e+003, 8.323395e+002
1.233256e+003, 8.318401e+002
1.233738e+003, 8.328577e+002
1.234220e+003, 8.329752e+002
1.234702e+003, 8.316186e+002
1.235184e+003, 8.314625e+002
1.235667e+003, 8.335357e+002
1.236149e+003, 8.345595e+002
1.236631e+003, 8.325997e+002
1.237113e+003, 8.299969e+002
1.237595e+003, 8.296600e+002
1.238077e+003, 8.306569e+002
1.238559e+003, 8.299507e+002
1.239041e+003, 8.280068e+002
1.239523e+003, 8.273190e+002
1.240005e+003, 8.277244e+002
1.240488e+003, 8.278141e+002
1.240970e+003, 8.273675e+002
1.241452e+003, 8.271917e+002
1.241934e+003, 8.276906e+002
1.242416e+003, 8.279402e+002
1.242898e+003, 8.265021e+002
1.243380e+003, 8.250764e+002
1.243862e+003, 8.257748e+002
1.244344e+003, 8.270596e+002
1.244827e+003, 8.273250e+002
1.245309e+003, 8.268085e+002
1.245791e+003, 8.259377e+002
1.246273e+003, 8.249282e+002
1.246755e+003, 8.243463e+002
1.247237e+003, 8.245663e+002
1.247719e+003, 8.244028e+002
1.248201e+003, 8.230504e+002
1.248684e+003, 8.220359e+002
1.249166e+003, 8.221391e+002
1.249648e+003, 8.223071e+002
1.250130e+003, 8.215484e+002
1.250612e+003, 8.209641e+002
1.251094e+003, 8.223751e+002
1.251576e+003, 8.252760e+002
1.252058e+003, 8.263116e+002
1.252541e+003, 8.252790e+002
1.253023e+003, 8.236684e+002
1.253505e+003, 8.214111e+002
1.253987e+003, 8.198215e+002
1.254469e+003, 8.192003e+002
1.254951e+003, 8.192811e+002
1.255433e+003, 8.199407e+002
1.255915e+003, 8.206852e+002
1.256397e+003, 8.210035e+002
1.256880e+003, 8.208752e+002
1.257362e+003, 8.199079e+002
1.257844e+003, 8.186612e+002
1.258326e+003, 8.182501e+002
1.258808e+003, 8.185316e+002
1.259290e+003, 8.192111e+002
1.259772e+003, 8.200043e+002
1.260254e+003, 8.200068e+002
1.260737e+003, 8.186614e+002
1.261219e+003, 8.180823e+002
1.261701e+003, 8.206055e+002
1.262183e+003, 8.225335e+002
1.262665e+003, 8.210475e+002
1.263147e+003, 8.194100e+002
1.263629e+003, 8.203151e+002
1.264111e+003, 8.223505e+002
1.264594e+003, 8.238724e+002
1.265076e+003, 8.246288e+002
1.265558e+003, 8.234704e+002
1.266040e+003, 8.193086e+002
1.266522e+003, 8.172832e+002
1.267004e+003, 8.180091e+002
1.267486e+003, 8.187231e+002
1.267968e+003, 8.189407e+002
1.268450e+003, 8.189006e+002
1.268932e+003, 8.187155e+002
1.269415e+003, 8.183987e+002
1.269897e+003, 8.179827e+002
1.270379e+003, 8.173934e+002
1.270861e+003, 8.162464e+002
1.271343e+003, 8.148401e+002
1.271825e+003, 8.138976e+002
1.272307e+003, 8.135459e+002
1.272789e+003, 8.144016e+002
1.273271e+003, 8.161448e+002
1.273754e+003, 8.173072e+002
1.274236e+003, 8.173364e+002
1.274718e+003, 8.167297e+002
1.275200e+003, 8.152367e+002
1.275682e+003, 8.141033e+002
1.276164e+003, 8.144525e+002
1.276646e+003, 8.149919e+002
1.277128e+003, 8.147039e+002
1.277611e+003, 8.141686e+002
1.278093e+003, 8.143812e+002
1.278575e+003, 8.149430e+002
1.279057e+003, 8.141563e+002
1.279539e+003, 8.116617e+002
1.280021e+003, 8.108879e+002
1.280503e+003, 8.123571e+002
1.280985e+003, 8.136793e+002
1.281468e+003, 8.150019e+002
1.281950e+003, 8.155477e+002
1.282432e+003, 8.148495e+002
1.282914e+003, 8.141574e+002
1.283396e+003, 8.145322e+002
1.283878e+003, 8.155504e+002
1.284360e+003, 8.165824e+002
1.284842e+003, 8.171770e+002
1.285324e+003, 8.162023e+002
##END=



