##NAMES=Greigite
##RRUFFID=R120103
##IDEAL CHEMISTRY=Fe^2+^Fe^3+^_2_S_4_
##LOCALITY=Alacrán mine, Pampa Larga district, Tiara Maria, Copiapó, Chile
##OWNER=RRUFF
##SOURCE=Bob Jenkins
##DESCRIPTION=Druse of metallic, bronze-colored octahedra
##STATUS=The identification of this mineral has been confirmed only by single crystal X-ray diffraction.
##URL=rruff.info/R120103
8.975323e+001, 0.000000e+000
9.023535e+001, 1.372712e+002
9.071747e+001, 1.393299e+002
9.119958e+001, 1.395406e+002
9.168170e+001, 1.391705e+002
9.216382e+001, 1.372157e+002
9.264594e+001, 1.338549e+002
9.312805e+001, 1.298279e+002
9.361017e+001, 1.258364e+002
9.409229e+001, 1.221806e+002
9.457440e+001, 1.188020e+002
9.505651e+001, 1.158286e+002
9.553863e+001, 1.134431e+002
9.602074e+001, 1.113874e+002
9.650286e+001, 1.094340e+002
9.698498e+001, 1.074100e+002
9.746709e+001, 1.051711e+002
9.794921e+001, 1.031792e+002
9.843133e+001, 1.014805e+002
9.891344e+001, 9.990499e+001
9.939556e+001, 9.834213e+001
9.987768e+001, 9.681959e+001
1.003598e+002, 9.547840e+001
1.008419e+002, 9.442364e+001
1.013240e+002, 9.361626e+001
1.018061e+002, 9.280672e+001
1.022883e+002, 9.205823e+001
1.027704e+002, 9.125133e+001
1.032525e+002, 9.013247e+001
1.037346e+002, 8.857291e+001
1.042167e+002, 8.730708e+001
1.046988e+002, 8.725951e+001
1.051810e+002, 8.776897e+001
1.056631e+002, 8.783177e+001
1.061452e+002, 8.685368e+001
1.066273e+002, 8.505775e+001
1.071094e+002, 8.333018e+001
1.075915e+002, 8.153611e+001
1.080737e+002, 8.000320e+001
1.085558e+002, 7.893023e+001
1.090379e+002, 7.821032e+001
1.095200e+002, 7.758921e+001
1.100021e+002, 7.674443e+001
1.104842e+002, 7.550758e+001
1.109664e+002, 7.497688e+001
1.114485e+002, 7.574422e+001
1.119306e+002, 7.666978e+001
1.124127e+002, 7.724931e+001
1.128948e+002, 7.740160e+001
1.133769e+002, 7.734811e+001
1.138591e+002, 7.739476e+001
1.143412e+002, 7.755885e+001
1.148233e+002, 7.782309e+001
1.153054e+002, 7.823991e+001
1.157875e+002, 7.872691e+001
1.162696e+002, 7.918498e+001
1.167517e+002, 7.957488e+001
1.172339e+002, 7.996692e+001
1.177160e+002, 8.054516e+001
1.181981e+002, 8.135323e+001
1.186802e+002, 8.219704e+001
1.191623e+002, 8.303372e+001
1.196444e+002, 8.386304e+001
1.201266e+002, 8.469070e+001
1.206087e+002, 8.550698e+001
1.210908e+002, 8.632771e+001
1.215729e+002, 8.719096e+001
1.220550e+002, 8.813401e+001
1.225371e+002, 8.905416e+001
1.230193e+002, 8.981632e+001
1.235014e+002, 9.039851e+001
1.239835e+002, 9.102393e+001
1.244656e+002, 9.205029e+001
1.249477e+002, 9.308119e+001
1.254298e+002, 9.373099e+001
1.259120e+002, 9.382806e+001
1.263941e+002, 9.351046e+001
1.268762e+002, 9.311105e+001
1.273583e+002, 9.280298e+001
1.278404e+002, 9.206216e+001
1.283225e+002, 9.059313e+001
1.288047e+002, 8.870562e+001
1.292868e+002, 8.679121e+001
1.297689e+002, 8.507568e+001
1.302510e+002, 8.355502e+001
1.307331e+002, 8.217931e+001
1.312152e+002, 8.111501e+001
1.316974e+002, 8.003500e+001
1.321795e+002, 7.882633e+001
1.326616e+002, 7.752921e+001
1.331437e+002, 7.626408e+001
1.336258e+002, 7.513157e+001
1.341079e+002, 7.414474e+001
1.345901e+002, 7.320326e+001
1.350722e+002, 7.210733e+001
1.355543e+002, 7.119479e+001
1.360364e+002, 7.073571e+001
1.365185e+002, 7.072478e+001
1.370006e+002, 7.088670e+001
1.374828e+002, 7.091999e+001
1.379649e+002, 7.078867e+001
1.384470e+002, 7.070975e+001
1.389291e+002, 7.070289e+001
1.394112e+002, 7.075103e+001
1.398933e+002, 7.082676e+001
1.403755e+002, 7.091722e+001
1.408576e+002, 7.106268e+001
1.413397e+002, 7.133723e+001
1.418218e+002, 7.172581e+001
1.423039e+002, 7.213923e+001
1.427860e+002, 7.255360e+001
1.432681e+002, 7.296619e+001
1.437503e+002, 7.334915e+001
1.442324e+002, 7.359673e+001
1.447145e+002, 7.394240e+001
1.451966e+002, 7.457262e+001
1.456787e+002, 7.548801e+001
1.461608e+002, 7.654806e+001
1.466430e+002, 7.765952e+001
1.471251e+002, 7.882822e+001
1.476072e+002, 8.000744e+001
1.480893e+002, 8.116624e+001
1.485714e+002, 8.236101e+001
1.490535e+002, 8.365962e+001
1.495357e+002, 8.506390e+001
1.500178e+002, 8.649043e+001
1.504999e+002, 8.780039e+001
1.509820e+002, 8.897247e+001
1.514641e+002, 9.008638e+001
1.519462e+002, 9.117544e+001
1.524284e+002, 9.221482e+001
1.529105e+002, 9.324720e+001
1.533926e+002, 9.427396e+001
1.538747e+002, 9.519292e+001
1.543568e+002, 9.574561e+001
1.548389e+002, 9.587025e+001
1.553211e+002, 9.561523e+001
1.558032e+002, 9.489930e+001
1.562853e+002, 9.383952e+001
1.567674e+002, 9.255431e+001
1.572495e+002, 9.109671e+001
1.577316e+002, 8.948061e+001
1.582138e+002, 8.774910e+001
1.586959e+002, 8.552841e+001
1.591780e+002, 8.361519e+001
1.596601e+002, 8.230657e+001
1.601422e+002, 8.146438e+001
1.606243e+002, 8.076798e+001
1.611065e+002, 8.004118e+001
1.615886e+002, 7.933304e+001
1.620707e+002, 7.883218e+001
1.625528e+002, 7.856955e+001
1.630349e+002, 7.845899e+001
1.635170e+002, 7.852879e+001
1.639991e+002, 7.875907e+001
1.644813e+002, 7.894219e+001
1.649634e+002, 7.887632e+001
1.654455e+002, 7.869362e+001
1.659276e+002, 7.870007e+001
1.664097e+002, 7.902961e+001
1.668918e+002, 7.948087e+001
1.673740e+002, 7.978655e+001
1.678561e+002, 7.989137e+001
1.683382e+002, 8.011159e+001
1.688203e+002, 8.072005e+001
1.693024e+002, 8.153099e+001
1.697845e+002, 8.233199e+001
1.702667e+002, 8.298995e+001
1.707488e+002, 8.361787e+001
1.712309e+002, 8.450661e+001
1.717130e+002, 8.581303e+001
1.721951e+002, 8.710027e+001
1.726772e+002, 8.818708e+001
1.731594e+002, 8.915987e+001
1.736415e+002, 9.014223e+001
1.741236e+002, 9.119637e+001
1.746057e+002, 9.231730e+001
1.750878e+002, 9.346125e+001
1.755699e+002, 9.462270e+001
1.760521e+002, 9.582293e+001
1.765342e+002, 9.704325e+001
1.770163e+002, 9.830472e+001
1.774984e+002, 9.963167e+001
1.779805e+002, 1.010533e+002
1.784626e+002, 1.025734e+002
1.789448e+002, 1.041008e+002
1.794269e+002, 1.055249e+002
1.799090e+002, 1.070649e+002
1.803911e+002, 1.088390e+002
1.808732e+002, 1.107961e+002
1.813553e+002, 1.127719e+002
1.818375e+002, 1.146148e+002
1.823196e+002, 1.162896e+002
1.828017e+002, 1.181923e+002
1.832838e+002, 1.206650e+002
1.837659e+002, 1.230128e+002
1.842480e+002, 1.248008e+002
1.847301e+002, 1.260771e+002
1.852123e+002, 1.272472e+002
1.856944e+002, 1.286924e+002
1.861765e+002, 1.304683e+002
1.866586e+002, 1.320039e+002
1.871407e+002, 1.332627e+002
1.876228e+002, 1.343111e+002
1.881050e+002, 1.351531e+002
1.885871e+002, 1.357933e+002
1.890692e+002, 1.363488e+002
1.895513e+002, 1.370197e+002
1.900334e+002, 1.377742e+002
1.905155e+002, 1.380354e+002
1.909977e+002, 1.374397e+002
1.914798e+002, 1.364567e+002
1.919619e+002, 1.356326e+002
1.924440e+002, 1.350635e+002
1.929261e+002, 1.344606e+002
1.934082e+002, 1.334675e+002
1.938904e+002, 1.321936e+002
1.943725e+002, 1.309394e+002
1.948546e+002, 1.297456e+002
1.953367e+002, 1.286370e+002
1.958188e+002, 1.276837e+002
1.963009e+002, 1.269499e+002
1.967831e+002, 1.262466e+002
1.972652e+002, 1.254556e+002
1.977473e+002, 1.245850e+002
1.982294e+002, 1.236584e+002
1.987115e+002, 1.226004e+002
1.991936e+002, 1.214689e+002
1.996758e+002, 1.205407e+002
2.001579e+002, 1.199319e+002
2.006400e+002, 1.193819e+002
2.011221e+002, 1.187310e+002
2.016042e+002, 1.180191e+002
2.020863e+002, 1.173552e+002
2.025685e+002, 1.168035e+002
2.030506e+002, 1.163616e+002
2.035327e+002, 1.160311e+002
2.040148e+002, 1.160685e+002
2.044969e+002, 1.159420e+002
2.049790e+002, 1.153968e+002
2.054612e+002, 1.145234e+002
2.059433e+002, 1.135476e+002
2.064254e+002, 1.126317e+002
2.069075e+002, 1.117740e+002
2.073896e+002, 1.110058e+002
2.078717e+002, 1.104024e+002
2.083539e+002, 1.098249e+002
2.088360e+002, 1.092759e+002
2.093181e+002, 1.087251e+002
2.098002e+002, 1.081122e+002
2.102823e+002, 1.073686e+002
2.107644e+002, 1.064764e+002
2.112466e+002, 1.056560e+002
2.117287e+002, 1.048178e+002
2.122108e+002, 1.041250e+002
2.126929e+002, 1.036639e+002
2.131750e+002, 1.034153e+002
2.136571e+002, 1.033096e+002
2.141393e+002, 1.033087e+002
2.146214e+002, 1.034535e+002
2.151035e+002, 1.033958e+002
2.155856e+002, 1.030795e+002
2.160677e+002, 1.026633e+002
2.165498e+002, 1.020648e+002
2.170320e+002, 1.013806e+002
2.175141e+002, 1.009230e+002
2.179962e+002, 1.010035e+002
2.184783e+002, 1.016988e+002
2.189604e+002, 1.023897e+002
2.194425e+002, 1.030248e+002
2.199247e+002, 1.036988e+002
2.204068e+002, 1.045005e+002
2.208889e+002, 1.054181e+002
2.213710e+002, 1.063310e+002
2.218531e+002, 1.071068e+002
2.223352e+002, 1.077404e+002
2.228174e+002, 1.085761e+002
2.232995e+002, 1.097242e+002
2.237816e+002, 1.109898e+002
2.242637e+002, 1.122302e+002
2.247458e+002, 1.134394e+002
2.252279e+002, 1.146633e+002
2.257100e+002, 1.158950e+002
2.261922e+002, 1.171679e+002
2.266743e+002, 1.186692e+002
2.271564e+002, 1.205198e+002
2.276385e+002, 1.225340e+002
2.281206e+002, 1.245589e+002
2.286027e+002, 1.265857e+002
2.290849e+002, 1.285853e+002
2.295670e+002, 1.305496e+002
2.300491e+002, 1.324548e+002
2.305312e+002, 1.342477e+002
2.310133e+002, 1.358999e+002
2.314954e+002, 1.374394e+002
2.319776e+002, 1.388877e+002
2.324597e+002, 1.402413e+002
2.329418e+002, 1.415303e+002
2.334239e+002, 1.429180e+002
2.339060e+002, 1.442254e+002
2.343881e+002, 1.451242e+002
2.348703e+002, 1.453762e+002
2.353524e+002, 1.453142e+002
2.358345e+002, 1.454544e+002
2.363166e+002, 1.459050e+002
2.367987e+002, 1.461033e+002
2.372808e+002, 1.457716e+002
2.377630e+002, 1.450197e+002
2.382451e+002, 1.438706e+002
2.387272e+002, 1.422590e+002
2.392093e+002, 1.403550e+002
2.396914e+002, 1.384148e+002
2.401735e+002, 1.364214e+002
2.406557e+002, 1.344180e+002
2.411378e+002, 1.324973e+002
2.416199e+002, 1.305439e+002
2.421020e+002, 1.284358e+002
2.425841e+002, 1.261308e+002
2.430662e+002, 1.236801e+002
2.435484e+002, 1.211040e+002
2.440305e+002, 1.182663e+002
2.445126e+002, 1.156993e+002
2.449947e+002, 1.136530e+002
2.454768e+002, 1.118656e+002
2.459589e+002, 1.101769e+002
2.464410e+002, 1.085387e+002
2.469232e+002, 1.068806e+002
2.474053e+002, 1.049836e+002
2.478874e+002, 1.026071e+002
2.483695e+002, 1.005990e+002
2.488516e+002, 9.927477e+001
2.493337e+002, 9.822904e+001
2.498159e+002, 9.718096e+001
2.502980e+002, 9.603989e+001
2.507801e+002, 9.487791e+001
2.512622e+002, 9.380611e+001
2.517443e+002, 9.286031e+001
2.522264e+002, 9.194140e+001
2.527086e+002, 9.103047e+001
2.531907e+002, 9.014339e+001
2.536728e+002, 8.925434e+001
2.541549e+002, 8.837132e+001
2.546370e+002, 8.756554e+001
2.551191e+002, 8.696963e+001
2.556013e+002, 8.674748e+001
2.560834e+002, 8.638533e+001
2.565655e+002, 8.582275e+001
2.570476e+002, 8.518413e+001
2.575297e+002, 8.444304e+001
2.580118e+002, 8.364809e+001
2.584940e+002, 8.300046e+001
2.589761e+002, 8.282019e+001
2.594582e+002, 8.341267e+001
2.599403e+002, 8.370071e+001
2.604224e+002, 8.360377e+001
2.609045e+002, 8.333871e+001
2.613867e+002, 8.291804e+001
2.618688e+002, 8.241028e+001
2.623509e+002, 8.201617e+001
2.628330e+002, 8.196969e+001
2.633151e+002, 8.234270e+001
2.637972e+002, 8.284151e+001
2.642794e+002, 8.348040e+001
2.647615e+002, 8.420261e+001
2.652436e+002, 8.499230e+001
2.657257e+002, 8.583659e+001
2.662078e+002, 8.669997e+001
2.666899e+002, 8.751646e+001
2.671721e+002, 8.821726e+001
2.676542e+002, 8.936270e+001
2.681363e+002, 9.113100e+001
2.686184e+002, 9.307833e+001
2.691005e+002, 9.494376e+001
2.695826e+002, 9.676953e+001
2.700648e+002, 9.879429e+001
2.705469e+002, 1.012498e+002
2.710290e+002, 1.041412e+002
2.715111e+002, 1.068618e+002
2.719932e+002, 1.091275e+002
2.724753e+002, 1.115299e+002
2.729575e+002, 1.142692e+002
2.734396e+002, 1.173416e+002
2.739217e+002, 1.207136e+002
2.744038e+002, 1.244130e+002
2.748859e+002, 1.283996e+002
2.753680e+002, 1.320799e+002
2.758501e+002, 1.355001e+002
2.763322e+002, 1.386656e+002
2.768144e+002, 1.415456e+002
2.772965e+002, 1.441868e+002
2.777786e+002, 1.466884e+002
2.782607e+002, 1.491237e+002
2.787428e+002, 1.514352e+002
2.792249e+002, 1.533543e+002
2.797071e+002, 1.551037e+002
2.801892e+002, 1.563169e+002
2.806713e+002, 1.568436e+002
2.811534e+002, 1.567804e+002
2.816355e+002, 1.562976e+002
2.821176e+002, 1.554731e+002
2.825998e+002, 1.542587e+002
2.830819e+002, 1.524674e+002
2.835640e+002, 1.498364e+002
2.840461e+002, 1.472243e+002
2.845282e+002, 1.448811e+002
2.850103e+002, 1.426402e+002
2.854925e+002, 1.401783e+002
2.859746e+002, 1.373493e+002
2.864567e+002, 1.344977e+002
2.869388e+002, 1.322186e+002
2.874209e+002, 1.306316e+002
2.879030e+002, 1.291640e+002
2.883852e+002, 1.276584e+002
2.888673e+002, 1.262664e+002
2.893494e+002, 1.251696e+002
2.898315e+002, 1.244076e+002
2.903136e+002, 1.239462e+002
2.907957e+002, 1.237620e+002
2.912779e+002, 1.238655e+002
2.917600e+002, 1.242290e+002
2.922421e+002, 1.248510e+002
2.927242e+002, 1.257329e+002
2.932063e+002, 1.268735e+002
2.936884e+002, 1.282775e+002
2.941706e+002, 1.299531e+002
2.946527e+002, 1.319832e+002
2.951348e+002, 1.343796e+002
2.956169e+002, 1.366768e+002
2.960990e+002, 1.388031e+002
2.965811e+002, 1.408659e+002
2.970633e+002, 1.429152e+002
2.975454e+002, 1.449557e+002
2.980275e+002, 1.470780e+002
2.985096e+002, 1.494154e+002
2.989917e+002, 1.518874e+002
2.994738e+002, 1.540562e+002
2.999560e+002, 1.557654e+002
3.004381e+002, 1.573061e+002
3.009202e+002, 1.587953e+002
3.014023e+002, 1.602476e+002
3.018844e+002, 1.617738e+002
3.023665e+002, 1.635163e+002
3.028487e+002, 1.653111e+002
3.033308e+002, 1.666859e+002
3.038129e+002, 1.674025e+002
3.042950e+002, 1.681409e+002
3.047771e+002, 1.693521e+002
3.052592e+002, 1.708274e+002
3.057414e+002, 1.720315e+002
3.062235e+002, 1.727600e+002
3.067056e+002, 1.731247e+002
3.071877e+002, 1.733732e+002
3.076698e+002, 1.736440e+002
3.081519e+002, 1.734269e+002
3.086341e+002, 1.728294e+002
3.091162e+002, 1.715865e+002
3.095983e+002, 1.692387e+002
3.100804e+002, 1.656726e+002
3.105625e+002, 1.610182e+002
3.110446e+002, 1.552862e+002
3.115268e+002, 1.485107e+002
3.120089e+002, 1.411080e+002
3.124910e+002, 1.327633e+002
3.129731e+002, 1.240183e+002
3.134552e+002, 1.153210e+002
3.139373e+002, 1.067442e+002
3.144195e+002, 9.848837e+001
3.149016e+002, 9.064046e+001
3.153837e+002, 8.323312e+001
3.158658e+002, 7.655394e+001
3.163479e+002, 7.067611e+001
3.168300e+002, 6.550291e+001
3.173121e+002, 6.102485e+001
3.177943e+002, 5.720699e+001
3.182764e+002, 5.392298e+001
3.187585e+002, 5.114363e+001
3.192406e+002, 4.887560e+001
3.197227e+002, 4.684593e+001
3.202048e+002, 4.506665e+001
3.206870e+002, 4.349174e+001
3.211691e+002, 4.215897e+001
3.216512e+002, 4.102802e+001
3.221333e+002, 3.990944e+001
3.226154e+002, 3.867845e+001
3.230975e+002, 3.746598e+001
3.235797e+002, 3.665014e+001
3.240618e+002, 3.636694e+001
3.245439e+002, 3.609425e+001
3.250260e+002, 3.560917e+001
3.255081e+002, 3.501385e+001
3.259902e+002, 3.451134e+001
3.264724e+002, 3.417856e+001
3.269545e+002, 3.390231e+001
3.274366e+002, 3.346490e+001
3.279187e+002, 3.280839e+001
3.284008e+002, 3.233609e+001
3.288829e+002, 3.228089e+001
3.293651e+002, 3.237681e+001
3.298472e+002, 3.229347e+001
3.303293e+002, 3.197374e+001
3.308114e+002, 3.162082e+001
3.312935e+002, 3.144580e+001
3.317756e+002, 3.146648e+001
3.322578e+002, 3.142705e+001
3.327399e+002, 3.127979e+001
3.332220e+002, 3.110056e+001
3.337041e+002, 3.089440e+001
3.341862e+002, 3.068441e+001
3.346683e+002, 3.059691e+001
3.351505e+002, 3.076700e+001
3.356326e+002, 3.113720e+001
3.361147e+002, 3.128324e+001
3.365968e+002, 3.106330e+001
3.370789e+002, 3.079991e+001
3.375610e+002, 3.061571e+001
3.380432e+002, 3.049083e+001
3.385253e+002, 3.036854e+001
3.390074e+002, 3.021651e+001
3.394895e+002, 3.006565e+001
3.399716e+002, 3.001777e+001
3.404537e+002, 3.019281e+001
3.409359e+002, 3.024184e+001
3.414180e+002, 2.998078e+001
3.419001e+002, 2.959979e+001
3.423822e+002, 2.935978e+001
3.428643e+002, 2.933613e+001
3.433464e+002, 2.939598e+001
3.438286e+002, 2.936063e+001
3.443107e+002, 2.919739e+001
3.447928e+002, 2.901269e+001
3.452749e+002, 2.879623e+001
3.457570e+002, 2.856708e+001
3.462391e+002, 2.831449e+001
3.467213e+002, 2.805177e+001
3.472034e+002, 2.783715e+001
3.476855e+002, 2.773029e+001
3.481676e+002, 2.773709e+001
3.486497e+002, 2.774862e+001
3.491318e+002, 2.778908e+001
3.496140e+002, 2.780982e+001
3.500961e+002, 2.778469e+001
3.505782e+002, 2.772329e+001
3.510603e+002, 2.764822e+001
3.515424e+002, 2.757214e+001
3.520245e+002, 2.749432e+001
3.525067e+002, 2.741026e+001
3.529888e+002, 2.723492e+001
3.534709e+002, 2.715838e+001
3.539530e+002, 2.728654e+001
3.544351e+002, 2.749299e+001
3.549172e+002, 2.764237e+001
3.553994e+002, 2.768559e+001
3.558815e+002, 2.764425e+001
3.563636e+002, 2.755598e+001
3.568457e+002, 2.743253e+001
3.573278e+002, 2.722356e+001
3.578099e+002, 2.681473e+001
3.582920e+002, 2.641291e+001
3.587741e+002, 2.619564e+001
3.592563e+002, 2.615224e+001
3.597384e+002, 2.612577e+001
3.602205e+002, 2.596212e+001
3.607026e+002, 2.564848e+001
3.611847e+002, 2.531698e+001
3.616668e+002, 2.488177e+001
3.621490e+002, 2.451875e+001
3.626311e+002, 2.430368e+001
3.631132e+002, 2.420275e+001
3.635953e+002, 2.417442e+001
3.640774e+002, 2.420586e+001
3.645595e+002, 2.425177e+001
3.650417e+002, 2.411381e+001
3.655238e+002, 2.365218e+001
3.660059e+002, 2.318493e+001
3.664880e+002, 2.268402e+001
3.669701e+002, 2.222953e+001
3.674522e+002, 2.192200e+001
3.679344e+002, 2.178735e+001
3.684165e+002, 2.172687e+001
3.688986e+002, 2.158218e+001
3.693807e+002, 2.130864e+001
3.698628e+002, 2.107314e+001
3.703449e+002, 2.087301e+001
3.708271e+002, 2.071545e+001
3.713092e+002, 2.062681e+001
3.717913e+002, 2.059216e+001
3.722734e+002, 2.055489e+001
3.727555e+002, 2.046037e+001
3.732376e+002, 2.031124e+001
3.737198e+002, 2.018987e+001
3.742019e+002, 2.014618e+001
3.746840e+002, 2.006680e+001
3.751661e+002, 1.987746e+001
3.756482e+002, 1.963846e+001
3.761303e+002, 1.944522e+001
3.766125e+002, 1.934666e+001
3.770946e+002, 1.931049e+001
3.775767e+002, 1.926877e+001
3.780588e+002, 1.922275e+001
3.785409e+002, 1.916699e+001
3.790230e+002, 1.911148e+001
3.795052e+002, 1.903879e+001
3.799873e+002, 1.891445e+001
3.804694e+002, 1.873310e+001
3.809515e+002, 1.856968e+001
3.814336e+002, 1.853208e+001
3.819157e+002, 1.861633e+001
3.823979e+002, 1.861643e+001
3.828800e+002, 1.844515e+001
3.833621e+002, 1.825397e+001
3.838442e+002, 1.815676e+001
3.843263e+002, 1.813084e+001
3.848084e+002, 1.808842e+001
3.852906e+002, 1.795749e+001
3.857727e+002, 1.778242e+001
3.862548e+002, 1.766410e+001
3.867369e+002, 1.761056e+001
3.872190e+002, 1.758686e+001
3.877011e+002, 1.760817e+001
3.881833e+002, 1.763773e+001
3.886654e+002, 1.761948e+001
3.891475e+002, 1.753209e+001
3.896296e+002, 1.741477e+001
3.901117e+002, 1.727328e+001
3.905938e+002, 1.711722e+001
3.910760e+002, 1.704181e+001
3.915581e+002, 1.713120e+001
3.920402e+002, 1.724803e+001
3.925223e+002, 1.717718e+001
3.930044e+002, 1.690380e+001
3.934865e+002, 1.667478e+001
3.939687e+002, 1.659792e+001
3.944508e+002, 1.662170e+001
3.949329e+002, 1.668560e+001
3.954150e+002, 1.678699e+001
3.958971e+002, 1.687181e+001
3.963792e+002, 1.689497e+001
3.968614e+002, 1.685501e+001
3.973435e+002, 1.678295e+001
3.978256e+002, 1.666685e+001
3.983077e+002, 1.652956e+001
3.987898e+002, 1.635533e+001
3.992719e+002, 1.616527e+001
3.997540e+002, 1.603020e+001
4.002361e+002, 1.598610e+001
4.007183e+002, 1.601901e+001
4.012004e+002, 1.610607e+001
4.016825e+002, 1.635779e+001
4.021646e+002, 1.646560e+001
4.026467e+002, 1.620647e+001
4.031288e+002, 1.585304e+001
4.036110e+002, 1.576623e+001
4.040931e+002, 1.601444e+001
4.045752e+002, 1.632840e+001
4.050573e+002, 1.638259e+001
4.055394e+002, 1.610252e+001
4.060215e+002, 1.592615e+001
4.065037e+002, 1.589828e+001
4.069858e+002, 1.591718e+001
4.074679e+002, 1.597236e+001
4.079500e+002, 1.603405e+001
4.084321e+002, 1.602381e+001
4.089142e+002, 1.587655e+001
4.093964e+002, 1.565737e+001
4.098785e+002, 1.567168e+001
4.103606e+002, 1.632421e+001
4.108427e+002, 1.668103e+001
4.113248e+002, 1.645096e+001
4.118069e+002, 1.601468e+001
4.122891e+002, 1.572757e+001
4.127712e+002, 1.568390e+001
4.132533e+002, 1.575021e+001
4.137354e+002, 1.574464e+001
4.142175e+002, 1.563113e+001
4.146996e+002, 1.559100e+001
4.151818e+002, 1.570934e+001
4.156639e+002, 1.582378e+001
4.161460e+002, 1.588453e+001
4.166281e+002, 1.589052e+001
4.171102e+002, 1.584679e+001
4.175923e+002, 1.574075e+001
4.180745e+002, 1.560225e+001
4.185566e+002, 1.554162e+001
4.190387e+002, 1.560311e+001
4.195208e+002, 1.564516e+001
4.200029e+002, 1.559657e+001
4.204850e+002, 1.552491e+001
4.209672e+002, 1.548011e+001
4.214493e+002, 1.547275e+001
4.219314e+002, 1.552107e+001
4.224135e+002, 1.570880e+001
4.228956e+002, 1.602138e+001
4.233777e+002, 1.614725e+001
4.238599e+002, 1.593148e+001
4.243420e+002, 1.566631e+001
4.248241e+002, 1.559018e+001
4.253062e+002, 1.565816e+001
4.257883e+002, 1.570784e+001
4.262704e+002, 1.565505e+001
4.267526e+002, 1.555243e+001
4.272347e+002, 1.547183e+001
4.277168e+002, 1.541333e+001
4.281989e+002, 1.537442e+001
4.286810e+002, 1.535262e+001
4.291631e+002, 1.535285e+001
4.296453e+002, 1.538752e+001
4.301274e+002, 1.548935e+001
4.306095e+002, 1.555126e+001
4.310916e+002, 1.546506e+001
4.315737e+002, 1.530959e+001
4.320558e+002, 1.524480e+001
4.325380e+002, 1.531343e+001
4.330201e+002, 1.546011e+001
4.335022e+002, 1.565924e+001
4.339843e+002, 1.593041e+001
4.344664e+002, 1.602695e+001
4.349485e+002, 1.580062e+001
4.354307e+002, 1.551611e+001
4.359128e+002, 1.532997e+001
4.363949e+002, 1.523737e+001
4.368770e+002, 1.517908e+001
4.373591e+002, 1.512088e+001
4.378412e+002, 1.507087e+001
4.383234e+002, 1.506171e+001
4.388055e+002, 1.514765e+001
4.392876e+002, 1.520546e+001
4.397697e+002, 1.521199e+001
4.402518e+002, 1.519541e+001
4.407339e+002, 1.515358e+001
4.412160e+002, 1.510070e+001
4.416982e+002, 1.510870e+001
4.421803e+002, 1.529090e+001
4.426624e+002, 1.570232e+001
4.431445e+002, 1.588779e+001
4.436266e+002, 1.560395e+001
4.441087e+002, 1.534325e+001
4.445909e+002, 1.526874e+001
4.450730e+002, 1.531720e+001
4.455551e+002, 1.537156e+001
4.460372e+002, 1.537350e+001
4.465193e+002, 1.534261e+001
4.470014e+002, 1.532029e+001
4.474836e+002, 1.530745e+001
4.479657e+002, 1.530068e+001
4.484478e+002, 1.525241e+001
4.489299e+002, 1.524518e+001
4.494120e+002, 1.538453e+001
4.498941e+002, 1.565051e+001
4.503763e+002, 1.586299e+001
4.508584e+002, 1.585257e+001
4.513405e+002, 1.566818e+001
4.518226e+002, 1.550692e+001
4.523047e+002, 1.536147e+001
4.527868e+002, 1.526823e+001
4.532690e+002, 1.530559e+001
4.537511e+002, 1.539546e+001
4.542332e+002, 1.541804e+001
4.547153e+002, 1.531176e+001
4.551974e+002, 1.520453e+001
4.556795e+002, 1.520429e+001
4.561617e+002, 1.529457e+001
4.566438e+002, 1.541992e+001
4.571259e+002, 1.559220e+001
4.576080e+002, 1.573561e+001
4.580901e+002, 1.571647e+001
4.585722e+002, 1.553667e+001
4.590544e+002, 1.540341e+001
4.595365e+002, 1.539155e+001
4.600186e+002, 1.541403e+001
4.605007e+002, 1.539052e+001
4.609828e+002, 1.532584e+001
4.614649e+002, 1.527291e+001
4.619471e+002, 1.526267e+001
4.624292e+002, 1.529028e+001
4.629113e+002, 1.533680e+001
4.633934e+002, 1.544948e+001
4.638755e+002, 1.551827e+001
4.643576e+002, 1.549873e+001
4.648398e+002, 1.544719e+001
4.653219e+002, 1.542428e+001
4.658040e+002, 1.543981e+001
4.662861e+002, 1.545886e+001
4.667682e+002, 1.544204e+001
4.672503e+002, 1.538466e+001
4.677325e+002, 1.533406e+001
4.682146e+002, 1.528275e+001
4.686967e+002, 1.524651e+001
4.691788e+002, 1.525692e+001
4.696609e+002, 1.527786e+001
4.701430e+002, 1.525235e+001
4.706252e+002, 1.515405e+001
4.711073e+002, 1.501975e+001
4.715894e+002, 1.489487e+001
4.720715e+002, 1.475827e+001
4.725536e+002, 1.472620e+001
4.730357e+002, 1.492464e+001
4.735179e+002, 1.514244e+001
4.740000e+002, 1.527144e+001
4.744821e+002, 1.531341e+001
4.749642e+002, 1.531168e+001
4.754463e+002, 1.527375e+001
4.759284e+002, 1.521523e+001
4.764106e+002, 1.515970e+001
4.768927e+002, 1.510141e+001
4.773748e+002, 1.508927e+001
4.778569e+002, 1.520849e+001
4.783390e+002, 1.535203e+001
4.788211e+002, 1.533204e+001
4.793033e+002, 1.508566e+001
4.797854e+002, 1.488023e+001
4.802675e+002, 1.490345e+001
4.807496e+002, 1.504442e+001
4.812317e+002, 1.509420e+001
4.817138e+002, 1.501366e+001
4.821959e+002, 1.490115e+001
4.826780e+002, 1.483115e+001
4.831602e+002, 1.480760e+001
4.836423e+002, 1.483713e+001
4.841244e+002, 1.497897e+001
4.846065e+002, 1.510612e+001
4.850886e+002, 1.515067e+001
4.855707e+002, 1.514923e+001
4.860529e+002, 1.518658e+001
4.865350e+002, 1.529352e+001
4.870171e+002, 1.538933e+001
4.874992e+002, 1.533361e+001
4.879813e+002, 1.505469e+001
4.884634e+002, 1.481593e+001
4.889456e+002, 1.456452e+001
4.894277e+002, 1.439572e+001
4.899098e+002, 1.437969e+001
4.903919e+002, 1.448373e+001
4.908740e+002, 1.465170e+001
4.913561e+002, 1.486759e+001
4.918383e+002, 1.507338e+001
4.923204e+002, 1.508112e+001
4.928025e+002, 1.479372e+001
4.932846e+002, 1.457720e+001
4.937667e+002, 1.456162e+001
4.942488e+002, 1.460539e+001
4.947310e+002, 1.462853e+001
4.952131e+002, 1.462253e+001
4.956952e+002, 1.460644e+001
4.961773e+002, 1.459733e+001
4.966594e+002, 1.458776e+001
4.971415e+002, 1.453206e+001
4.976237e+002, 1.440273e+001
4.981058e+002, 1.435828e+001
4.985879e+002, 1.455041e+001
4.990700e+002, 1.486177e+001
4.995521e+002, 1.507471e+001
5.000342e+002, 1.518530e+001
5.005164e+002, 1.518210e+001
5.009985e+002, 1.496841e+001
5.014806e+002, 1.466135e+001
5.019627e+002, 1.447209e+001
5.024448e+002, 1.444482e+001
5.029269e+002, 1.448856e+001
5.034091e+002, 1.453151e+001
5.038912e+002, 1.457405e+001
5.043733e+002, 1.456311e+001
5.048554e+002, 1.448989e+001
5.053375e+002, 1.438015e+001
5.058196e+002, 1.415724e+001
5.063018e+002, 1.392914e+001
5.067839e+002, 1.388537e+001
5.072660e+002, 1.408724e+001
5.077481e+002, 1.438890e+001
5.082302e+002, 1.457623e+001
5.087123e+002, 1.464653e+001
5.091945e+002, 1.461199e+001
5.096766e+002, 1.431613e+001
5.101587e+002, 1.407205e+001
5.106408e+002, 1.402460e+001
5.111229e+002, 1.411294e+001
5.116050e+002, 1.421620e+001
5.120872e+002, 1.428066e+001
5.125693e+002, 1.431061e+001
5.130514e+002, 1.431090e+001
5.135335e+002, 1.427969e+001
5.140156e+002, 1.423138e+001
5.144977e+002, 1.415266e+001
5.149799e+002, 1.407377e+001
5.154620e+002, 1.400702e+001
5.159441e+002, 1.395681e+001
5.164262e+002, 1.394906e+001
5.169083e+002, 1.405443e+001
5.173904e+002, 1.417385e+001
5.178726e+002, 1.415406e+001
5.183547e+002, 1.400490e+001
5.188368e+002, 1.388608e+001
5.193189e+002, 1.388336e+001
5.198010e+002, 1.394349e+001
5.202831e+002, 1.394217e+001
5.207653e+002, 1.385549e+001
5.212474e+002, 1.379097e+001
5.217295e+002, 1.375655e+001
5.222116e+002, 1.375843e+001
5.226937e+002, 1.383423e+001
5.231758e+002, 1.396303e+001
5.236580e+002, 1.405581e+001
5.241401e+002, 1.404508e+001
5.246222e+002, 1.394948e+001
5.251043e+002, 1.386283e+001
5.255864e+002, 1.378435e+001
5.260685e+002, 1.371840e+001
5.265507e+002, 1.365320e+001
5.270328e+002, 1.360771e+001
5.275149e+002, 1.361837e+001
5.279970e+002, 1.367569e+001
5.284791e+002, 1.371192e+001
5.289612e+002, 1.364586e+001
5.294434e+002, 1.350351e+001
5.299255e+002, 1.346211e+001
5.304076e+002, 1.358830e+001
5.308897e+002, 1.366058e+001
5.313718e+002, 1.350552e+001
5.318539e+002, 1.328516e+001
5.323361e+002, 1.317033e+001
5.328182e+002, 1.319747e+001
5.333003e+002, 1.325188e+001
5.337824e+002, 1.325550e+001
5.342645e+002, 1.323345e+001
5.347466e+002, 1.324707e+001
5.352288e+002, 1.330712e+001
5.357109e+002, 1.336382e+001
5.361930e+002, 1.338342e+001
5.366751e+002, 1.336669e+001
5.371572e+002, 1.332749e+001
5.376393e+002, 1.320379e+001
5.381215e+002, 1.313482e+001
5.386036e+002, 1.322077e+001
5.390857e+002, 1.335497e+001
5.395678e+002, 1.340017e+001
5.400499e+002, 1.333097e+001
5.405320e+002, 1.321416e+001
5.410142e+002, 1.311016e+001
5.414963e+002, 1.301731e+001
5.419784e+002, 1.299512e+001
5.424604e+002, 1.311587e+001
5.429426e+002, 1.322418e+001
5.434247e+002, 1.331088e+001
5.439068e+002, 1.335846e+001
5.443889e+002, 1.332706e+001
5.448710e+002, 1.321161e+001
5.453531e+002, 1.309656e+001
5.458353e+002, 1.310112e+001
5.463174e+002, 1.321007e+001
5.467995e+002, 1.323013e+001
5.472816e+002, 1.310809e+001
5.477637e+002, 1.298859e+001
5.482458e+002, 1.299134e+001
5.487280e+002, 1.305005e+001
5.492101e+002, 1.305022e+001
5.496922e+002, 1.293587e+001
5.501743e+002, 1.284086e+001
5.506564e+002, 1.288391e+001
5.511385e+002, 1.300049e+001
5.516207e+002, 1.304187e+001
5.521028e+002, 1.297530e+001
5.525849e+002, 1.290445e+001
5.530670e+002, 1.292984e+001
5.535491e+002, 1.305229e+001
5.540313e+002, 1.315119e+001
5.545134e+002, 1.326524e+001
5.549955e+002, 1.331426e+001
5.554776e+002, 1.326520e+001
5.559597e+002, 1.314436e+001
5.564418e+002, 1.294016e+001
5.569240e+002, 1.266940e+001
5.574061e+002, 1.245583e+001
5.578882e+002, 1.247229e+001
5.583703e+002, 1.273107e+001
5.588524e+002, 1.286581e+001
5.593345e+002, 1.281566e+001
5.598167e+002, 1.272007e+001
5.602988e+002, 1.259013e+001
5.607809e+002, 1.246310e+001
5.612630e+002, 1.238541e+001
5.617451e+002, 1.237081e+001
5.622272e+002, 1.238586e+001
5.627094e+002, 1.243530e+001
5.631915e+002, 1.249305e+001
5.636736e+002, 1.244905e+001
5.641557e+002, 1.226826e+001
5.646378e+002, 1.210166e+001
5.651199e+002, 1.207300e+001
5.656021e+002, 1.214901e+001
5.660842e+002, 1.216747e+001
5.665663e+002, 1.206628e+001
5.670484e+002, 1.199650e+001
5.675305e+002, 1.203943e+001
5.680126e+002, 1.212803e+001
5.684948e+002, 1.217329e+001
5.689769e+002, 1.216288e+001
5.694590e+002, 1.215486e+001
5.699411e+002, 1.221396e+001
5.704232e+002, 1.233152e+001
5.709053e+002, 1.233382e+001
5.713875e+002, 1.210415e+001
5.718696e+002, 1.191289e+001
5.723517e+002, 1.178372e+001
5.728338e+002, 1.171975e+001
5.733159e+002, 1.174885e+001
5.737980e+002, 1.186182e+001
5.742802e+002, 1.197472e+001
5.747623e+002, 1.203447e+001
5.752444e+002, 1.203608e+001
5.757265e+002, 1.192045e+001
5.762086e+002, 1.163735e+001
5.766907e+002, 1.145331e+001
5.771729e+002, 1.156471e+001
5.776550e+002, 1.181328e+001
5.781371e+002, 1.193731e+001
5.786192e+002, 1.190937e+001
5.791013e+002, 1.186183e+001
5.795834e+002, 1.183888e+001
5.800656e+002, 1.182569e+001
5.805477e+002, 1.180805e+001
5.810298e+002, 1.178383e+001
5.815119e+002, 1.174739e+001
5.819940e+002, 1.169042e+001
5.824761e+002, 1.162781e+001
5.829583e+002, 1.161252e+001
5.834404e+002, 1.172470e+001
5.839225e+002, 1.176015e+001
5.844046e+002, 1.164009e+001
5.848867e+002, 1.151011e+001
5.853688e+002, 1.147022e+001
5.858510e+002, 1.150888e+001
5.863331e+002, 1.155884e+001
5.868152e+002, 1.157998e+001
5.872973e+002, 1.158236e+001
5.877794e+002, 1.159619e+001
5.882615e+002, 1.162900e+001
5.887437e+002, 1.161736e+001
5.892258e+002, 1.151375e+001
5.897079e+002, 1.139563e+001
5.901900e+002, 1.134572e+001
5.906721e+002, 1.135199e+001
5.911542e+002, 1.133636e+001
5.916364e+002, 1.124099e+001
5.921185e+002, 1.114358e+001
5.926006e+002, 1.111504e+001
5.930827e+002, 1.114013e+001
5.935648e+002, 1.117424e+001
5.940469e+002, 1.120213e+001
5.945291e+002, 1.122540e+001
5.950112e+002, 1.124666e+001
5.954933e+002, 1.126708e+001
5.959754e+002, 1.128026e+001
5.964575e+002, 1.131693e+001
5.969396e+002, 1.131405e+001
5.974218e+002, 1.120154e+001
5.979039e+002, 1.105303e+001
5.983860e+002, 1.098113e+001
5.988681e+002, 1.102213e+001
5.993502e+002, 1.109851e+001
5.998323e+002, 1.111797e+001
6.003145e+002, 1.108240e+001
6.007966e+002, 1.103999e+001
6.012787e+002, 1.098312e+001
6.017608e+002, 1.093987e+001
6.022429e+002, 1.093195e+001
6.027250e+002, 1.094652e+001
6.032072e+002, 1.096830e+001
6.036893e+002, 1.099976e+001
6.041714e+002, 1.102559e+001
6.046535e+002, 1.105638e+001
6.051356e+002, 1.106882e+001
6.056177e+002, 1.101582e+001
6.060999e+002, 1.089828e+001
6.065820e+002, 1.077058e+001
6.070641e+002, 1.066801e+001
6.075462e+002, 1.059159e+001
6.080283e+002, 1.054625e+001
6.085104e+002, 1.056965e+001
6.089926e+002, 1.057106e+001
6.094747e+002, 1.052492e+001
6.099568e+002, 1.047455e+001
6.104389e+002, 1.044104e+001
6.109210e+002, 1.043081e+001
6.114031e+002, 1.045525e+001
6.118853e+002, 1.053660e+001
6.123674e+002, 1.063218e+001
6.128495e+002, 1.064356e+001
6.133316e+002, 1.056326e+001
6.138137e+002, 1.048775e+001
6.142958e+002, 1.044537e+001
6.147780e+002, 1.040828e+001
6.152601e+002, 1.031660e+001
6.157422e+002, 1.018886e+001
6.162243e+002, 1.015778e+001
6.167064e+002, 1.035240e+001
6.171885e+002, 1.055031e+001
6.176707e+002, 1.062235e+001
6.181528e+002, 1.059177e+001
6.186349e+002, 1.048570e+001
6.191170e+002, 1.031673e+001
6.195991e+002, 1.015477e+001
6.200812e+002, 1.008444e+001
6.205634e+002, 1.011101e+001
6.210455e+002, 1.014573e+001
6.215276e+002, 1.018299e+001
6.220097e+002, 1.023662e+001
6.224918e+002, 1.036872e+001
6.229739e+002, 1.048477e+001
6.234561e+002, 1.046116e+001
6.239382e+002, 1.028503e+001
6.244203e+002, 1.009901e+001
6.249023e+002, 1.001235e+001
6.253845e+002, 1.000519e+001
6.258666e+002, 1.004461e+001
6.263487e+002, 1.013645e+001
6.268308e+002, 1.019205e+001
6.273129e+002, 1.015681e+001
6.277950e+002, 1.007583e+001
6.282772e+002, 1.003988e+001
6.287593e+002, 1.006362e+001
6.292414e+002, 1.005558e+001
6.297235e+002, 9.970167e+000
6.302056e+002, 9.877474e+000
6.306877e+002, 9.814892e+000
6.311699e+002, 9.785578e+000
6.316520e+002, 9.798507e+000
6.321341e+002, 9.857940e+000
6.326162e+002, 9.920435e+000
6.330983e+002, 9.898787e+000
6.335804e+002, 9.765712e+000
6.340626e+002, 9.689581e+000
6.345447e+002, 9.701638e+000
6.350268e+002, 9.735444e+000
6.355089e+002, 9.782822e+000
6.359910e+002, 9.824263e+000
6.364731e+002, 9.825448e+000
6.369553e+002, 9.771487e+000
6.374374e+002, 9.708125e+000
6.379195e+002, 9.650363e+000
6.384016e+002, 9.611164e+000
6.388837e+002, 9.647056e+000
6.393658e+002, 9.758119e+000
6.398480e+002, 9.797194e+000
6.403301e+002, 9.646547e+000
6.408122e+002, 9.378178e+000
6.412943e+002, 9.232426e+000
6.417764e+002, 9.287244e+000
6.422585e+002, 9.358847e+000
6.427407e+002, 9.503450e+000
6.432228e+002, 9.614812e+000
6.437049e+002, 9.592163e+000
6.441870e+002, 9.480552e+000
6.446691e+002, 9.406007e+000
6.451512e+002, 9.439979e+000
6.456334e+002, 9.516139e+000
6.461155e+002, 9.515653e+000
6.465976e+002, 9.439525e+000
6.470797e+002, 9.418702e+000
6.475618e+002, 9.508231e+000
6.480439e+002, 9.578958e+000
6.485261e+002, 9.486856e+000
6.490082e+002, 9.296212e+000
6.494903e+002, 9.215582e+000
6.499724e+002, 9.347065e+000
6.504545e+002, 9.456251e+000
6.509366e+002, 9.408239e+000
6.514188e+002, 9.311910e+000
6.519009e+002, 9.325301e+000
6.523830e+002, 9.444242e+000
6.528651e+002, 9.520411e+000
6.533472e+002, 9.438626e+000
6.538293e+002, 9.240805e+000
6.543115e+002, 9.065782e+000
6.547936e+002, 8.864914e+000
6.552757e+002, 8.806828e+000
6.557578e+002, 9.100086e+000
6.562399e+002, 9.384301e+000
6.567220e+002, 9.438123e+000
6.572042e+002, 9.315084e+000
6.576863e+002, 9.203761e+000
6.581684e+002, 9.178711e+000
6.586505e+002, 9.185165e+000
6.591326e+002, 9.170619e+000
6.596147e+002, 9.146330e+000
6.600969e+002, 9.150197e+000
6.605790e+002, 9.191269e+000
6.610611e+002, 9.230845e+000
6.615432e+002, 9.233115e+000
6.620253e+002, 9.202335e+000
6.625074e+002, 9.184392e+000
6.629896e+002, 9.176145e+000
6.634717e+002, 9.185705e+000
6.639538e+002, 9.288257e+000
6.644359e+002, 9.352090e+000
6.649180e+002, 9.189853e+000
6.654001e+002, 8.873468e+000
6.658823e+002, 8.706172e+000
6.663644e+002, 8.931123e+000
6.668465e+002, 9.315919e+000
6.673286e+002, 9.422826e+000
6.678107e+002, 9.260067e+000
6.682928e+002, 9.111615e+000
6.687750e+002, 9.038210e+000
6.692571e+002, 8.999233e+000
6.697392e+002, 8.956885e+000
6.702213e+002, 8.915293e+000
6.707034e+002, 8.907368e+000
6.711855e+002, 8.957938e+000
6.716677e+002, 9.012109e+000
6.721498e+002, 9.075243e+000
6.726319e+002, 9.119444e+000
6.731140e+002, 9.100595e+000
6.735961e+002, 9.024758e+000
6.740782e+002, 8.949930e+000
6.745604e+002, 8.923963e+000
6.750425e+002, 8.924989e+000
6.755246e+002, 8.864714e+000
6.760067e+002, 8.712019e+000
6.764888e+002, 8.641435e+000
6.769709e+002, 8.746205e+000
6.774531e+002, 8.876780e+000
6.779352e+002, 8.921695e+000
6.784173e+002, 8.894583e+000
6.788994e+002, 8.840300e+000
6.793815e+002, 8.753590e+000
6.798636e+002, 8.662042e+000
6.803458e+002, 8.573405e+000
6.808279e+002, 8.493753e+000
6.813100e+002, 8.420286e+000
6.817921e+002, 8.358647e+000
6.822742e+002, 8.348757e+000
6.827563e+002, 8.432233e+000
6.832385e+002, 8.584172e+000
6.837206e+002, 8.682210e+000
6.842027e+002, 8.710423e+000
6.846848e+002, 8.718991e+000
6.851669e+002, 8.708012e+000
6.856490e+002, 8.684191e+000
6.861312e+002, 8.658376e+000
6.866133e+002, 8.623029e+000
6.870954e+002, 8.547805e+000
6.875775e+002, 8.381596e+000
6.880596e+002, 8.243302e+000
6.885417e+002, 8.264497e+000
6.890239e+002, 8.390193e+000
6.895060e+002, 8.504758e+000
6.899881e+002, 8.586423e+000
6.904702e+002, 8.627042e+000
6.909523e+002, 8.612483e+000
6.914344e+002, 8.558137e+000
6.919166e+002, 8.543523e+000
6.923987e+002, 8.626023e+000
6.928808e+002, 8.655613e+000
6.933629e+002, 8.582617e+000
6.938450e+002, 8.497396e+000
6.943271e+002, 8.473032e+000
6.948093e+002, 8.480866e+000
6.952914e+002, 8.423398e+000
6.957735e+002, 8.225820e+000
6.962556e+002, 8.049275e+000
6.967377e+002, 8.128375e+000
6.972198e+002, 8.382206e+000
6.977020e+002, 8.524566e+000
6.981841e+002, 8.509258e+000
6.986662e+002, 8.415391e+000
6.991483e+002, 8.271031e+000
6.996304e+002, 8.107244e+000
7.001125e+002, 8.045587e+000
7.005947e+002, 8.176482e+000
7.010768e+002, 8.273464e+000
7.015589e+002, 8.345277e+000
7.020410e+002, 8.372037e+000
7.025231e+002, 8.313885e+000
7.030052e+002, 8.205589e+000
7.034874e+002, 8.115053e+000
7.039695e+002, 8.071547e+000
7.044516e+002, 8.056628e+000
7.049337e+002, 8.045751e+000
7.054158e+002, 8.043625e+000
7.058979e+002, 8.080126e+000
7.063801e+002, 8.163034e+000
7.068622e+002, 8.252316e+000
7.073442e+002, 8.337925e+000
7.078264e+002, 8.404774e+000
7.083085e+002, 8.404777e+000
7.087906e+002, 8.288680e+000
7.092727e+002, 8.234854e+000
7.097548e+002, 8.352605e+000
7.102369e+002, 8.440218e+000
7.107191e+002, 8.319967e+000
7.112012e+002, 8.099966e+000
7.116833e+002, 7.988179e+000
7.121654e+002, 8.058356e+000
7.126475e+002, 8.196621e+000
7.131296e+002, 8.299838e+000
7.136118e+002, 8.362125e+000
7.140939e+002, 8.323421e+000
7.145760e+002, 8.156531e+000
7.150581e+002, 8.057467e+000
7.155402e+002, 8.143951e+000
7.160223e+002, 8.318837e+000
7.165045e+002, 8.428935e+000
7.169866e+002, 8.474760e+000
7.174687e+002, 8.464940e+000
7.179508e+002, 8.361146e+000
7.184329e+002, 8.243055e+000
7.189150e+002, 8.124056e+000
7.193972e+002, 8.026784e+000
7.198793e+002, 7.986526e+000
7.203614e+002, 8.008232e+000
7.208435e+002, 8.052639e+000
7.213256e+002, 8.089271e+000
7.218077e+002, 8.115843e+000
7.222899e+002, 8.116498e+000
7.227720e+002, 8.086292e+000
7.232541e+002, 8.074746e+000
7.237362e+002, 8.112987e+000
7.242183e+002, 8.152853e+000
7.247004e+002, 8.128465e+000
7.251826e+002, 8.041281e+000
7.256647e+002, 7.979889e+000
7.261468e+002, 7.975390e+000
7.266289e+002, 7.965474e+000
7.271110e+002, 7.906562e+000
7.275931e+002, 7.842837e+000
7.280753e+002, 7.832878e+000
7.285574e+002, 7.876352e+000
7.290395e+002, 7.923669e+000
7.295216e+002, 7.938170e+000
7.300037e+002, 7.933624e+000
7.304858e+002, 7.931328e+000
7.309680e+002, 7.929895e+000
7.314501e+002, 7.988026e+000
7.319322e+002, 8.154113e+000
7.324143e+002, 8.294920e+000
7.328964e+002, 8.287804e+000
7.333785e+002, 8.158064e+000
7.338607e+002, 8.052903e+000
7.343428e+002, 7.940383e+000
7.348249e+002, 7.901811e+000
7.353070e+002, 8.015171e+000
7.357891e+002, 8.159315e+000
7.362712e+002, 8.256209e+000
7.367534e+002, 8.293933e+000
7.372355e+002, 8.268057e+000
7.377176e+002, 8.171892e+000
7.381997e+002, 8.053307e+000
7.386818e+002, 8.000279e+000
7.391639e+002, 8.000454e+000
7.396461e+002, 7.902115e+000
7.401282e+002, 7.654485e+000
7.406103e+002, 7.494906e+000
7.410924e+002, 7.594864e+000
7.415745e+002, 7.839602e+000
7.420566e+002, 7.978076e+000
7.425388e+002, 7.992829e+000
7.430209e+002, 7.975635e+000
7.435030e+002, 7.874711e+000
7.439851e+002, 7.804861e+000
7.444672e+002, 7.859413e+000
7.449493e+002, 7.972476e+000
7.454315e+002, 8.037718e+000
7.459136e+002, 8.026799e+000
7.463957e+002, 7.996623e+000
7.468778e+002, 8.007334e+000
7.473599e+002, 8.040609e+000
7.478420e+002, 8.035077e+000
7.483242e+002, 7.989673e+000
7.488063e+002, 7.946893e+000
7.492884e+002, 7.919905e+000
7.497705e+002, 7.902949e+000
7.502526e+002, 7.887931e+000
7.507347e+002, 7.874359e+000
7.512169e+002, 7.877428e+000
7.516990e+002, 7.902679e+000
7.521811e+002, 7.935777e+000
7.526632e+002, 7.997292e+000
7.531453e+002, 8.048334e+000
7.536274e+002, 8.037186e+000
7.541096e+002, 7.977952e+000
7.545917e+002, 7.944131e+000
7.550738e+002, 7.992405e+000
7.555559e+002, 8.053148e+000
7.560380e+002, 7.994881e+000
7.565201e+002, 7.857532e+000
7.570023e+002, 7.842784e+000
7.574844e+002, 7.991967e+000
7.579665e+002, 8.124561e+000
7.584486e+002, 8.112261e+000
7.589307e+002, 7.987708e+000
7.594128e+002, 7.856377e+000
7.598950e+002, 7.659895e+000
7.603771e+002, 7.565391e+000
7.608592e+002, 7.614080e+000
7.613413e+002, 7.713903e+000
7.618234e+002, 7.894735e+000
7.623055e+002, 8.071524e+000
7.627877e+002, 8.088699e+000
7.632698e+002, 7.896216e+000
7.637519e+002, 7.718556e+000
7.642340e+002, 7.761020e+000
7.647161e+002, 7.902908e+000
7.651982e+002, 7.966275e+000
7.656804e+002, 7.949396e+000
7.661625e+002, 7.876434e+000
7.666446e+002, 7.751696e+000
7.671267e+002, 7.636734e+000
7.676088e+002, 7.615366e+000
7.680909e+002, 7.690904e+000
7.685731e+002, 7.777280e+000
7.690552e+002, 7.916674e+000
7.695373e+002, 7.997190e+000
7.700194e+002, 7.965266e+000
7.705015e+002, 7.891383e+000
7.709836e+002, 7.813547e+000
7.714658e+002, 7.739881e+000
7.719479e+002, 7.688528e+000
7.724300e+002, 7.667473e+000
7.729121e+002, 7.668286e+000
7.733942e+002, 7.686141e+000
7.738763e+002, 7.721846e+000
7.743585e+002, 7.796882e+000
7.748406e+002, 7.899897e+000
7.753227e+002, 7.962473e+000
7.758048e+002, 7.937374e+000
7.762869e+002, 7.854505e+000
7.767690e+002, 7.779394e+000
7.772512e+002, 7.710426e+000
7.777333e+002, 7.659773e+000
7.782154e+002, 7.632304e+000
7.786975e+002, 7.615498e+000
7.791796e+002, 7.596415e+000
7.796617e+002, 7.587053e+000
7.801439e+002, 7.614761e+000
7.806260e+002, 7.692854e+000
7.811081e+002, 7.745856e+000
7.815902e+002, 7.729547e+000
7.820723e+002, 7.708491e+000
7.825544e+002, 7.747505e+000
7.830366e+002, 7.802120e+000
7.835187e+002, 7.782531e+000
7.840008e+002, 7.673792e+000
7.844829e+002, 7.557374e+000
7.849650e+002, 7.497668e+000
7.854471e+002, 7.494025e+000
7.859293e+002, 7.568480e+000
7.864114e+002, 7.722504e+000
7.868935e+002, 7.836523e+000
7.873756e+002, 7.884589e+000
7.878577e+002, 7.871772e+000
7.883398e+002, 7.786776e+000
7.888220e+002, 7.640166e+000
7.893040e+002, 7.524498e+000
7.897861e+002, 7.436262e+000
7.902682e+002, 7.381929e+000
7.907504e+002, 7.367882e+000
7.912325e+002, 7.382602e+000
7.917146e+002, 7.425999e+000
7.921967e+002, 7.490682e+000
7.926788e+002, 7.570094e+000
7.931609e+002, 7.664695e+000
7.936431e+002, 7.746737e+000
7.941252e+002, 7.823389e+000
7.946073e+002, 7.858058e+000
7.950894e+002, 7.718117e+000
7.955715e+002, 7.438275e+000
7.960536e+002, 7.296995e+000
7.965358e+002, 7.415991e+000
7.970179e+002, 7.646578e+000
7.975000e+002, 7.796777e+000
7.979821e+002, 7.867201e+000
7.984642e+002, 7.840014e+000
7.989464e+002, 7.619094e+000
7.994285e+002, 7.474541e+000
7.999106e+002, 7.551612e+000
8.003927e+002, 7.667535e+000
8.008748e+002, 7.685657e+000
8.013569e+002, 7.619960e+000
8.018391e+002, 7.561563e+000
8.023212e+002, 7.540299e+000
8.028033e+002, 7.522380e+000
8.032854e+002, 7.496023e+000
8.037675e+002, 7.460296e+000
8.042496e+002, 7.396271e+000
8.047318e+002, 7.319827e+000
8.052139e+002, 7.282570e+000
8.056960e+002, 7.313375e+000
8.061781e+002, 7.389106e+000
8.066602e+002, 7.495778e+000
8.071423e+002, 7.626736e+000
8.076245e+002, 7.676895e+000
8.081066e+002, 7.630270e+000
8.085887e+002, 7.558043e+000
8.090708e+002, 7.470159e+000
8.095529e+002, 7.403592e+000
8.100350e+002, 7.439813e+000
8.105172e+002, 7.615033e+000
8.109993e+002, 7.641918e+000
8.114814e+002, 7.314319e+000
8.119635e+002, 7.102608e+000
8.124456e+002, 7.237045e+000
8.129277e+002, 7.470894e+000
8.134099e+002, 7.574801e+000
8.138920e+002, 7.545216e+000
8.143741e+002, 7.502536e+000
8.148562e+002, 7.499690e+000
8.153383e+002, 7.521545e+000
8.158204e+002, 7.579994e+000
8.163026e+002, 7.644351e+000
8.167847e+002, 7.638880e+000
8.172668e+002, 7.560043e+000
8.177489e+002, 7.452114e+000
8.182310e+002, 7.334069e+000
8.187131e+002, 7.238907e+000
8.191953e+002, 7.244342e+000
8.196774e+002, 7.375453e+000
8.201595e+002, 7.445547e+000
8.206416e+002, 7.423631e+000
8.211237e+002, 7.399955e+000
8.216058e+002, 7.410929e+000
8.220880e+002, 7.434540e+000
8.225701e+002, 7.454741e+000
8.230522e+002, 7.470259e+000
8.235343e+002, 7.455656e+000
8.240164e+002, 7.359060e+000
8.244985e+002, 7.287579e+000
8.249807e+002, 7.304355e+000
8.254628e+002, 7.359733e+000
8.259449e+002, 7.416398e+000
8.264270e+002, 7.457479e+000
8.269091e+002, 7.450172e+000
8.273912e+002, 7.365536e+000
8.278734e+002, 7.275109e+000
8.283555e+002, 7.303213e+000
8.288376e+002, 7.415361e+000
8.293197e+002, 7.457993e+000
8.298018e+002, 7.417172e+000
8.302839e+002, 7.379042e+000
8.307661e+002, 7.384909e+000
8.312482e+002, 7.420601e+000
8.317303e+002, 7.467794e+000
8.322124e+002, 7.532036e+000
8.326945e+002, 7.566622e+000
8.331766e+002, 7.581625e+000
8.336588e+002, 7.550097e+000
8.341409e+002, 7.403039e+000
8.346230e+002, 7.260419e+000
8.351051e+002, 7.231725e+000
8.355872e+002, 7.301717e+000
8.360693e+002, 7.368851e+000
8.365515e+002, 7.416361e+000
8.370336e+002, 7.433256e+000
8.375157e+002, 7.366876e+000
8.379978e+002, 7.297775e+000
8.384799e+002, 7.358902e+000
8.389620e+002, 7.508767e+000
8.394442e+002, 7.576139e+000
8.399263e+002, 7.479780e+000
8.404084e+002, 7.331405e+000
8.408905e+002, 7.273612e+000
8.413726e+002, 7.297565e+000
8.418547e+002, 7.373438e+000
8.423369e+002, 7.506102e+000
8.428190e+002, 7.596579e+000
8.433011e+002, 7.609481e+000
8.437832e+002, 7.559529e+000
8.442653e+002, 7.435053e+000
8.447474e+002, 7.240895e+000
8.452296e+002, 7.205123e+000
8.457117e+002, 7.519585e+000
8.461938e+002, 7.710884e+000
8.466759e+002, 7.674092e+000
8.471580e+002, 7.566780e+000
8.476401e+002, 7.459450e+000
8.481223e+002, 7.363253e+000
8.486044e+002, 7.282688e+000
8.490865e+002, 7.214796e+000
8.495686e+002, 7.181203e+000
8.500507e+002, 7.215041e+000
8.505328e+002, 7.271605e+000
8.510150e+002, 7.327646e+000
8.514971e+002, 7.364698e+000
8.519792e+002, 7.320903e+000
8.524613e+002, 7.191471e+000
8.529434e+002, 7.104222e+000
8.534255e+002, 7.218846e+000
8.539077e+002, 7.443144e+000
8.543898e+002, 7.451364e+000
8.548719e+002, 7.243776e+000
8.553540e+002, 7.133162e+000
8.558361e+002, 7.197225e+000
8.563182e+002, 7.300185e+000
8.568004e+002, 7.346908e+000
8.572825e+002, 7.351194e+000
8.577646e+002, 7.357579e+000
8.582467e+002, 7.371294e+000
8.587288e+002, 7.375461e+000
8.592109e+002, 7.377295e+000
8.596931e+002, 7.361496e+000
8.601752e+002, 7.282413e+000
8.606573e+002, 7.205529e+000
8.611394e+002, 7.233399e+000
8.616215e+002, 7.368907e+000
8.621036e+002, 7.458261e+000
8.625858e+002, 7.403794e+000
8.630679e+002, 7.322551e+000
8.635500e+002, 7.290703e+000
8.640321e+002, 7.283939e+000
8.645142e+002, 7.271300e+000
8.649963e+002, 7.247554e+000
8.654785e+002, 7.214534e+000
8.659606e+002, 7.171233e+000
8.664427e+002, 7.135274e+000
8.669248e+002, 7.148389e+000
8.674069e+002, 7.196311e+000
8.678890e+002, 7.184370e+000
8.683712e+002, 7.103996e+000
8.688533e+002, 7.085151e+000
8.693354e+002, 7.196679e+000
8.698175e+002, 7.339730e+000
8.702996e+002, 7.375738e+000
8.707817e+002, 7.303477e+000
8.712639e+002, 7.286493e+000
8.717459e+002, 7.412650e+000
8.722280e+002, 7.439158e+000
8.727101e+002, 7.185315e+000
8.731923e+002, 6.952075e+000
8.736744e+002, 6.942575e+000
8.741565e+002, 7.090262e+000
8.746386e+002, 7.230782e+000
8.751207e+002, 7.348749e+000
8.756028e+002, 7.423778e+000
8.760850e+002, 7.457214e+000
8.765671e+002, 7.436489e+000
8.770492e+002, 7.297893e+000
8.775313e+002, 7.119092e+000
8.780134e+002, 7.029853e+000
8.784955e+002, 7.056207e+000
8.789777e+002, 7.128308e+000
8.794598e+002, 7.225194e+000
8.799419e+002, 7.297122e+000
8.804240e+002, 7.212682e+000
8.809061e+002, 7.030239e+000
8.813882e+002, 6.985837e+000
8.818704e+002, 7.109575e+000
8.823525e+002, 7.239156e+000
8.828346e+002, 7.273937e+000
8.833167e+002, 7.243143e+000
8.837988e+002, 7.201015e+000
8.842809e+002, 7.143614e+000
8.847631e+002, 7.096838e+000
8.852452e+002, 7.035943e+000
8.857273e+002, 7.056834e+000
8.862094e+002, 7.286523e+000
8.866915e+002, 7.515030e+000
8.871736e+002, 7.451663e+000
8.876558e+002, 7.123235e+000
8.881379e+002, 6.952028e+000
8.886200e+002, 7.087478e+000
8.891021e+002, 7.186117e+000
8.895842e+002, 7.169417e+000
8.900663e+002, 7.116290e+000
8.905485e+002, 7.064712e+000
8.910306e+002, 7.022954e+000
8.915127e+002, 6.990741e+000
8.919948e+002, 6.966634e+000
8.924769e+002, 6.978300e+000
8.929590e+002, 7.091084e+000
8.934412e+002, 7.208512e+000
8.939233e+002, 7.213729e+000
8.944054e+002, 7.146993e+000
8.948875e+002, 7.095960e+000
8.953696e+002, 7.078515e+000
8.958517e+002, 7.058464e+000
8.963339e+002, 7.005188e+000
8.968160e+002, 6.946730e+000
8.972981e+002, 6.946039e+000
8.977802e+002, 6.997243e+000
8.982623e+002, 7.044531e+000
8.987444e+002, 7.083524e+000
8.992266e+002, 7.111230e+000
8.997087e+002, 7.128495e+000
9.001908e+002, 7.125164e+000
9.006729e+002, 7.074546e+000
9.011550e+002, 6.970725e+000
9.016371e+002, 6.958497e+000
9.021193e+002, 7.104375e+000
9.026014e+002, 7.218573e+000
9.030835e+002, 7.264155e+000
9.035656e+002, 7.268723e+000
9.040477e+002, 7.242609e+000
9.045298e+002, 7.191681e+000
9.050120e+002, 7.123866e+000
9.054941e+002, 7.018191e+000
9.059762e+002, 6.959025e+000
9.064583e+002, 6.982512e+000
9.069404e+002, 7.041922e+000
9.074225e+002, 7.180429e+000
9.079047e+002, 7.300238e+000
9.083868e+002, 7.233025e+000
9.088689e+002, 6.984872e+000
9.093510e+002, 6.768885e+000
9.098331e+002, 6.699553e+000
9.103152e+002, 6.733571e+000
9.107974e+002, 6.893577e+000
9.112795e+002, 7.097891e+000
9.117616e+002, 7.176746e+000
9.122437e+002, 7.138206e+000
9.127258e+002, 7.112461e+000
9.132079e+002, 7.161092e+000
9.136901e+002, 7.237970e+000
9.141722e+002, 7.284960e+000
9.146543e+002, 7.305606e+000
9.151364e+002, 7.322223e+000
9.156185e+002, 7.334948e+000
9.161006e+002, 7.340422e+000
9.165828e+002, 7.339650e+000
9.170649e+002, 7.320067e+000
9.175470e+002, 7.262906e+000
9.180291e+002, 7.185813e+000
9.185112e+002, 7.154939e+000
9.189933e+002, 7.190894e+000
9.194755e+002, 7.223320e+000
9.199576e+002, 7.294230e+000
9.204397e+002, 7.300383e+000
9.209218e+002, 7.097628e+000
9.214039e+002, 6.876963e+000
9.218860e+002, 6.895003e+000
9.223682e+002, 7.139654e+000
9.228503e+002, 7.258815e+000
9.233324e+002, 7.085379e+000
9.238145e+002, 6.941898e+000
9.242966e+002, 6.926693e+000
9.247787e+002, 6.967505e+000
9.252609e+002, 7.023376e+000
9.257430e+002, 7.085185e+000
9.262251e+002, 7.162588e+000
9.267072e+002, 7.260364e+000
9.271893e+002, 7.301119e+000
9.276714e+002, 7.174721e+000
9.281536e+002, 7.019020e+000
9.286357e+002, 6.996865e+000
9.291178e+002, 7.042004e+000
9.295999e+002, 6.996552e+000
9.300820e+002, 6.857642e+000
9.305641e+002, 6.781299e+000
9.310463e+002, 6.876252e+000
9.315284e+002, 7.028954e+000
9.320105e+002, 7.039836e+000
9.324926e+002, 6.952613e+000
9.329747e+002, 6.975078e+000
9.334568e+002, 7.108266e+000
9.339390e+002, 7.148641e+000
9.344211e+002, 7.008819e+000
9.349032e+002, 6.884192e+000
9.353853e+002, 7.008351e+000
9.358674e+002, 7.321466e+000
9.363495e+002, 7.466739e+000
9.368317e+002, 7.414602e+000
9.373138e+002, 7.317085e+000
9.377959e+002, 7.168905e+000
9.382780e+002, 7.023444e+000
9.387601e+002, 6.889592e+000
9.392422e+002, 6.791480e+000
9.397244e+002, 6.778797e+000
9.402065e+002, 6.866806e+000
9.406886e+002, 6.949844e+000
9.411707e+002, 7.080545e+000
9.416528e+002, 7.134990e+000
9.421349e+002, 7.010375e+000
9.426171e+002, 6.873218e+000
9.430992e+002, 6.860552e+000
9.435813e+002, 6.931825e+000
9.440634e+002, 6.967525e+000
9.445455e+002, 6.935997e+000
9.450276e+002, 6.901855e+000
9.455098e+002, 6.885796e+000
9.459919e+002, 6.876843e+000
9.464740e+002, 6.863408e+000
9.469561e+002, 6.855269e+000
9.474382e+002, 6.873107e+000
9.479203e+002, 6.912958e+000
9.484025e+002, 6.943218e+000
9.488846e+002, 6.944431e+000
9.493667e+002, 6.937044e+000
9.498488e+002, 6.946896e+000
9.503309e+002, 6.957194e+000
9.508130e+002, 6.932012e+000
9.512952e+002, 6.882842e+000
9.517773e+002, 6.859583e+000
9.522594e+002, 6.876127e+000
9.527415e+002, 6.883020e+000
9.532236e+002, 6.817368e+000
9.537057e+002, 6.727754e+000
9.541878e+002, 6.752481e+000
9.546699e+002, 6.870285e+000
9.551520e+002, 6.942709e+000
9.556342e+002, 6.950411e+000
9.561163e+002, 6.913646e+000
9.565984e+002, 6.835362e+000
9.570805e+002, 6.763358e+000
9.575626e+002, 6.781802e+000
9.580447e+002, 6.888737e+000
9.585269e+002, 6.964272e+000
9.590090e+002, 7.007237e+000
9.594911e+002, 7.026078e+000
9.599732e+002, 7.026079e+000
9.604553e+002, 6.990068e+000
9.609374e+002, 6.877531e+000
9.614196e+002, 6.736551e+000
9.619017e+002, 6.711724e+000
9.623838e+002, 6.865298e+000
9.628659e+002, 6.941899e+000
9.633480e+002, 6.872885e+000
9.638301e+002, 6.819096e+000
9.643123e+002, 6.814169e+000
9.647944e+002, 6.848485e+000
9.652765e+002, 6.943406e+000
9.657586e+002, 7.075964e+000
9.662407e+002, 7.144252e+000
9.667228e+002, 7.104486e+000
9.672050e+002, 7.064317e+000
9.676871e+002, 7.071669e+000
9.681692e+002, 7.057473e+000
9.686513e+002, 6.942618e+000
9.691334e+002, 6.804830e+000
9.696155e+002, 6.763536e+000
9.700977e+002, 6.819517e+000
9.705798e+002, 6.849691e+000
9.710619e+002, 6.749023e+000
9.715440e+002, 6.692392e+000
9.720261e+002, 6.872612e+000
9.725082e+002, 7.087949e+000
9.729904e+002, 7.096327e+000
9.734725e+002, 6.962986e+000
9.739546e+002, 6.870761e+000
9.744367e+002, 6.874967e+000
9.749188e+002, 6.912391e+000
9.754009e+002, 6.948356e+000
9.758831e+002, 6.973495e+000
9.763652e+002, 6.973485e+000
9.768473e+002, 6.953569e+000
9.773294e+002, 6.919633e+000
9.778115e+002, 6.876147e+000
9.782936e+002, 6.836808e+000
9.787758e+002, 6.807906e+000
9.792579e+002, 6.786507e+000
9.797400e+002, 6.766138e+000
9.802221e+002, 6.751206e+000
9.807042e+002, 6.767186e+000
9.811863e+002, 6.807821e+000
9.816685e+002, 6.814157e+000
9.821506e+002, 6.774742e+000
9.826327e+002, 6.746472e+000
9.831148e+002, 6.768205e+000
9.835969e+002, 6.814822e+000
9.840790e+002, 6.841671e+000
9.845612e+002, 6.848773e+000
9.850433e+002, 6.833242e+000
9.855254e+002, 6.789360e+000
9.860075e+002, 6.756202e+000
9.864896e+002, 6.743182e+000
9.869717e+002, 6.747787e+000
9.874539e+002, 6.776891e+000
9.879360e+002, 6.813643e+000
9.884181e+002, 6.798705e+000
9.889002e+002, 6.702397e+000
9.893823e+002, 6.663411e+000
9.898644e+002, 6.719223e+000
9.903466e+002, 6.758461e+000
9.908287e+002, 6.723384e+000
9.913108e+002, 6.684426e+000
9.917929e+002, 6.731043e+000
9.922750e+002, 6.839246e+000
9.927571e+002, 6.862259e+000
9.932393e+002, 6.706586e+000
9.937214e+002, 6.634537e+000
9.942035e+002, 6.698555e+000
9.946856e+002, 6.788167e+000
9.951677e+002, 6.903102e+000
9.956498e+002, 6.993268e+000
9.961320e+002, 6.977678e+000
9.966141e+002, 6.874558e+000
9.970962e+002, 6.833894e+000
9.975783e+002, 6.960767e+000
9.980604e+002, 7.023335e+000
9.985425e+002, 6.881300e+000
9.990247e+002, 6.743319e+000
9.995068e+002, 6.752627e+000
9.999889e+002, 6.843033e+000
1.000471e+003, 6.925438e+000
1.000953e+003, 6.981843e+000
1.001435e+003, 7.007678e+000
1.001917e+003, 6.998060e+000
1.002399e+003, 6.961581e+000
1.002882e+003, 6.885514e+000
1.003364e+003, 6.800052e+000
1.003846e+003, 6.702289e+000
1.004328e+003, 6.627512e+000
1.004810e+003, 6.662270e+000
1.005292e+003, 6.811940e+000
1.005774e+003, 6.922455e+000
1.006256e+003, 6.864747e+000
1.006739e+003, 6.771263e+000
1.007221e+003, 6.783495e+000
1.007703e+003, 6.827351e+000
1.008185e+003, 6.777514e+000
1.008667e+003, 6.663139e+000
1.009149e+003, 6.600610e+000
1.009631e+003, 6.628936e+000
1.010113e+003, 6.686729e+000
1.010595e+003, 6.727108e+000
1.011078e+003, 6.757901e+000
1.011560e+003, 6.801722e+000
1.012042e+003, 6.841805e+000
1.012524e+003, 6.827098e+000
1.013006e+003, 6.764780e+000
1.013488e+003, 6.719035e+000
1.013970e+003, 6.717132e+000
1.014452e+003, 6.713944e+000
1.014935e+003, 6.635974e+000
1.015417e+003, 6.537090e+000
1.015899e+003, 6.575814e+000
1.016381e+003, 6.720344e+000
1.016863e+003, 6.825506e+000
1.017345e+003, 6.869718e+000
1.017827e+003, 6.886956e+000
1.018309e+003, 6.894973e+000
1.018791e+003, 6.873966e+000
1.019274e+003, 6.770059e+000
1.019756e+003, 6.621320e+000
1.020238e+003, 6.650702e+000
1.020720e+003, 6.848200e+000
1.021202e+003, 6.936363e+000
1.021684e+003, 6.863099e+000
1.022166e+003, 6.748973e+000
1.022648e+003, 6.655545e+000
1.023130e+003, 6.596187e+000
1.023613e+003, 6.587077e+000
1.024095e+003, 6.630344e+000
1.024577e+003, 6.804770e+000
1.025059e+003, 7.148940e+000
1.025541e+003, 7.261423e+000
1.026023e+003, 7.017580e+000
1.026505e+003, 6.761978e+000
1.026987e+003, 6.708657e+000
1.027469e+003, 6.776362e+000
1.027952e+003, 6.822625e+000
1.028434e+003, 6.847917e+000
1.028916e+003, 6.847541e+000
1.029398e+003, 6.825573e+000
1.029880e+003, 6.751107e+000
1.030362e+003, 6.572711e+000
1.030844e+003, 6.453576e+000
1.031326e+003, 6.530079e+000
1.031809e+003, 6.702734e+000
1.032291e+003, 6.766775e+000
1.032773e+003, 6.706690e+000
1.033255e+003, 6.667389e+000
1.033737e+003, 6.640613e+000
1.034219e+003, 6.657456e+000
1.034701e+003, 6.765639e+000
1.035183e+003, 6.854014e+000
1.035666e+003, 6.828885e+000
1.036148e+003, 6.745990e+000
1.036630e+003, 6.725089e+000
1.037112e+003, 6.780783e+000
1.037594e+003, 6.816789e+000
1.038076e+003, 6.839225e+000
1.038558e+003, 6.830277e+000
1.039040e+003, 6.733907e+000
1.039522e+003, 6.663197e+000
1.040005e+003, 6.741209e+000
1.040487e+003, 6.880384e+000
1.040969e+003, 6.879929e+000
1.041451e+003, 6.700140e+000
1.041933e+003, 6.591618e+000
1.042415e+003, 6.566872e+000
1.042897e+003, 6.602297e+000
1.043379e+003, 6.807745e+000
1.043861e+003, 6.958453e+000
1.044344e+003, 6.825207e+000
1.044826e+003, 6.562578e+000
1.045308e+003, 6.496580e+000
1.045790e+003, 6.686822e+000
1.046272e+003, 6.791665e+000
1.046754e+003, 6.717964e+000
1.047236e+003, 6.634001e+000
1.047718e+003, 6.569269e+000
1.048201e+003, 6.518651e+000
1.048683e+003, 6.472743e+000
1.049165e+003, 6.439485e+000
1.049647e+003, 6.439688e+000
1.050129e+003, 6.479501e+000
1.050611e+003, 6.505644e+000
1.051093e+003, 6.451818e+000
1.051575e+003, 6.459165e+000
1.052057e+003, 6.664151e+000
1.052540e+003, 6.853345e+000
1.053022e+003, 6.850912e+000
1.053504e+003, 6.729447e+000
1.053986e+003, 6.620819e+000
1.054468e+003, 6.542771e+000
1.054950e+003, 6.509647e+000
1.055432e+003, 6.565673e+000
1.055914e+003, 6.612335e+000
1.056396e+003, 6.600735e+000
1.056879e+003, 6.582410e+000
1.057361e+003, 6.590679e+000
1.057843e+003, 6.622338e+000
1.058325e+003, 6.672582e+000
1.058807e+003, 6.739672e+000
1.059289e+003, 6.797045e+000
1.059771e+003, 6.877276e+000
1.060253e+003, 6.890745e+000
1.060736e+003, 6.757659e+000
1.061218e+003, 6.590183e+000
1.061700e+003, 6.423298e+000
1.062182e+003, 6.304517e+000
1.062664e+003, 6.331445e+000
1.063146e+003, 6.503621e+000
1.063628e+003, 6.624963e+000
1.064110e+003, 6.592692e+000
1.064593e+003, 6.542544e+000
1.065075e+003, 6.516679e+000
1.065557e+003, 6.507537e+000
1.066039e+003, 6.518735e+000
1.066521e+003, 6.537987e+000
1.067003e+003, 6.552068e+000
1.067485e+003, 6.556979e+000
1.067967e+003, 6.542964e+000
1.068449e+003, 6.477572e+000
1.068932e+003, 6.443099e+000
1.069414e+003, 6.503211e+000
1.069896e+003, 6.580825e+000
1.070378e+003, 6.666613e+000
1.070860e+003, 6.705253e+000
1.071342e+003, 6.569844e+000
1.071824e+003, 6.293162e+000
1.072306e+003, 6.140562e+000
1.072788e+003, 6.257752e+000
1.073271e+003, 6.400146e+000
1.073753e+003, 6.493558e+000
1.074235e+003, 6.529817e+000
1.074717e+003, 6.439865e+000
1.075199e+003, 6.328819e+000
1.075681e+003, 6.370432e+000
1.076163e+003, 6.535799e+000
1.076645e+003, 6.596833e+000
1.077127e+003, 6.431301e+000
1.077610e+003, 6.299253e+000
1.078092e+003, 6.354264e+000
1.078574e+003, 6.447583e+000
1.079056e+003, 6.492504e+000
1.079538e+003, 6.508466e+000
1.080020e+003, 6.525476e+000
1.080502e+003, 6.542539e+000
1.080984e+003, 6.538109e+000
1.081467e+003, 6.498780e+000
1.081949e+003, 6.472456e+000
1.082431e+003, 6.469623e+000
1.082913e+003, 6.498993e+000
1.083395e+003, 6.612622e+000
1.083877e+003, 6.725091e+000
1.084359e+003, 6.722219e+000
1.084841e+003, 6.642145e+000
1.085323e+003, 6.614825e+000
1.085806e+003, 6.681405e+000
1.086288e+003, 6.725603e+000
1.086770e+003, 6.699802e+000
1.087252e+003, 6.637419e+000
1.087734e+003, 6.513973e+000
1.088216e+003, 6.397623e+000
1.088698e+003, 6.340769e+000
1.089180e+003, 6.344457e+000
1.089662e+003, 6.435447e+000
1.090145e+003, 6.620049e+000
1.090627e+003, 6.684288e+000
1.091109e+003, 6.404845e+000
1.091591e+003, 6.179844e+000
1.092073e+003, 6.209853e+000
1.092555e+003, 6.330705e+000
1.093037e+003, 6.457265e+000
1.093519e+003, 6.561545e+000
1.094002e+003, 6.613649e+000
1.094484e+003, 6.611704e+000
1.094966e+003, 6.591897e+000
1.095448e+003, 6.553860e+000
1.095930e+003, 6.516850e+000
1.096412e+003, 6.485836e+000
1.096894e+003, 6.459252e+000
1.097376e+003, 6.451949e+000
1.097859e+003, 6.438423e+000
1.098341e+003, 6.352275e+000
1.098823e+003, 6.214264e+000
1.099305e+003, 6.183626e+000
1.099787e+003, 6.361053e+000
1.100269e+003, 6.513082e+000
1.100751e+003, 6.599020e+000
1.101233e+003, 6.622647e+000
1.101715e+003, 6.520318e+000
1.102198e+003, 6.406880e+000
1.102680e+003, 6.436162e+000
1.103162e+003, 6.563383e+000
1.103644e+003, 6.587795e+000
1.104126e+003, 6.439703e+000
1.104608e+003, 6.319751e+000
1.105090e+003, 6.231515e+000
1.105572e+003, 6.218472e+000
1.106054e+003, 6.354962e+000
1.106537e+003, 6.517794e+000
1.107019e+003, 6.625422e+000
1.107501e+003, 6.678675e+000
1.107983e+003, 6.691852e+000
1.108465e+003, 6.667284e+000
1.108947e+003, 6.596183e+000
1.109429e+003, 6.378784e+000
1.109911e+003, 6.255710e+000
1.110394e+003, 6.339645e+000
1.110876e+003, 6.463312e+000
1.111358e+003, 6.549859e+000
1.111840e+003, 6.600644e+000
1.112322e+003, 6.629103e+000
1.112804e+003, 6.638014e+000
1.113286e+003, 6.562664e+000
1.113768e+003, 6.292209e+000
1.114250e+003, 6.121901e+000
1.114733e+003, 6.084898e+000
1.115215e+003, 6.136509e+000
1.115697e+003, 6.342955e+000
1.116179e+003, 6.549953e+000
1.116661e+003, 6.555311e+000
1.117143e+003, 6.391848e+000
1.117625e+003, 6.304429e+000
1.118107e+003, 6.332799e+000
1.118589e+003, 6.342735e+000
1.119072e+003, 6.320413e+000
1.119554e+003, 6.307685e+000
1.120036e+003, 6.332458e+000
1.120518e+003, 6.344449e+000
1.121000e+003, 6.285182e+000
1.121482e+003, 6.191093e+000
1.121964e+003, 6.175441e+000
1.122446e+003, 6.256623e+000
1.122929e+003, 6.301146e+000
1.123411e+003, 6.293874e+000
1.123893e+003, 6.297654e+000
1.124375e+003, 6.315713e+000
1.124857e+003, 6.388185e+000
1.125339e+003, 6.567746e+000
1.125821e+003, 6.756179e+000
1.126303e+003, 6.769041e+000
1.126786e+003, 6.619410e+000
1.127268e+003, 6.551623e+000
1.127750e+003, 6.574088e+000
1.128232e+003, 6.615746e+000
1.128714e+003, 6.675876e+000
1.129196e+003, 6.684730e+000
1.129678e+003, 6.605018e+000
1.130160e+003, 6.493165e+000
1.130642e+003, 6.409559e+000
1.131125e+003, 6.351666e+000
1.131607e+003, 6.310189e+000
1.132089e+003, 6.285603e+000
1.132571e+003, 6.292710e+000
1.133053e+003, 6.331245e+000
1.133535e+003, 6.359233e+000
1.134017e+003, 6.363897e+000
1.134499e+003, 6.365572e+000
1.134981e+003, 6.377543e+000
1.135464e+003, 6.408958e+000
1.135946e+003, 6.506225e+000
1.136428e+003, 6.633754e+000
1.136910e+003, 6.643344e+000
1.137392e+003, 6.551989e+000
1.137874e+003, 6.422240e+000
1.138356e+003, 6.282631e+000
1.138838e+003, 6.239321e+000
1.139321e+003, 6.346911e+000
1.139803e+003, 6.486000e+000
1.140285e+003, 6.526095e+000
1.140767e+003, 6.506461e+000
1.141249e+003, 6.494170e+000
1.141731e+003, 6.481216e+000
1.142213e+003, 6.422430e+000
1.142695e+003, 6.346464e+000
1.143177e+003, 6.381841e+000
1.143660e+003, 6.550264e+000
1.144142e+003, 6.678359e+000
1.144624e+003, 6.636438e+000
1.145106e+003, 6.521761e+000
1.145588e+003, 6.386815e+000
1.146070e+003, 6.278045e+000
1.146552e+003, 6.295873e+000
1.147034e+003, 6.365712e+000
1.147516e+003, 6.313207e+000
1.147999e+003, 6.156647e+000
1.148481e+003, 6.109987e+000
1.148963e+003, 6.282722e+000
1.149445e+003, 6.451986e+000
1.149927e+003, 6.451364e+000
1.150409e+003, 6.426506e+000
1.150891e+003, 6.513425e+000
1.151373e+003, 6.607112e+000
1.151856e+003, 6.558575e+000
1.152338e+003, 6.428126e+000
1.152820e+003, 6.383635e+000
1.153302e+003, 6.459831e+000
1.153784e+003, 6.519277e+000
1.154266e+003, 6.539361e+000
1.154748e+003, 6.502175e+000
1.155230e+003, 6.290582e+000
1.155713e+003, 6.142228e+000
1.156195e+003, 6.274028e+000
1.156677e+003, 6.510691e+000
1.157159e+003, 6.630028e+000
1.157641e+003, 6.629846e+000
1.158123e+003, 6.605098e+000
1.158605e+003, 6.539644e+000
1.159087e+003, 6.504023e+000
1.159569e+003, 6.529037e+000
1.160052e+003, 6.548293e+000
1.160534e+003, 6.554561e+000
1.161016e+003, 6.536775e+000
1.161498e+003, 6.466180e+000
1.161980e+003, 6.377511e+000
1.162462e+003, 6.351385e+000
1.162944e+003, 6.395608e+000
1.163426e+003, 6.413997e+000
1.163908e+003, 6.385712e+000
1.164391e+003, 6.395498e+000
1.164873e+003, 6.466125e+000
1.165355e+003, 6.546011e+000
1.165837e+003, 6.624345e+000
1.166319e+003, 6.665136e+000
1.166801e+003, 6.619831e+000
1.167283e+003, 6.507865e+000
1.167765e+003, 6.388066e+000
1.168247e+003, 6.256440e+000
1.168730e+003, 6.280386e+000
1.169212e+003, 6.473874e+000
1.169694e+003, 6.530203e+000
1.170176e+003, 6.361974e+000
1.170658e+003, 6.226635e+000
1.171140e+003, 6.309608e+000
1.171622e+003, 6.465453e+000
1.172104e+003, 6.446824e+000
1.172587e+003, 6.315360e+000
1.173069e+003, 6.279130e+000
1.173551e+003, 6.314296e+000
1.174033e+003, 6.321640e+000
1.174515e+003, 6.300911e+000
1.174997e+003, 6.334459e+000
1.175479e+003, 6.448156e+000
1.175961e+003, 6.553147e+000
1.176443e+003, 6.575713e+000
1.176926e+003, 6.555487e+000
1.177408e+003, 6.538790e+000
1.177890e+003, 6.512890e+000
1.178372e+003, 6.461791e+000
1.178854e+003, 6.385608e+000
1.179336e+003, 6.252897e+000
1.179818e+003, 6.093055e+000
1.180300e+003, 6.041480e+000
1.180782e+003, 6.167487e+000
1.181265e+003, 6.292839e+000
1.181747e+003, 6.293358e+000
1.182229e+003, 6.276630e+000
1.182711e+003, 6.315941e+000
1.183193e+003, 6.368502e+000
1.183675e+003, 6.408011e+000
1.184157e+003, 6.421546e+000
1.184639e+003, 6.370926e+000
1.185122e+003, 6.258629e+000
1.185604e+003, 6.213774e+000
1.186086e+003, 6.315554e+000
1.186568e+003, 6.405301e+000
1.187050e+003, 6.460504e+000
1.187532e+003, 6.494008e+000
1.188014e+003, 6.494955e+000
1.188496e+003, 6.490877e+000
1.188979e+003, 6.530539e+000
1.189461e+003, 6.578143e+000
1.189943e+003, 6.506759e+000
1.190425e+003, 6.263491e+000
1.190907e+003, 6.229780e+000
1.191389e+003, 6.511084e+000
1.191871e+003, 6.707758e+000
1.192353e+003, 6.754517e+000
1.192835e+003, 6.702139e+000
1.193318e+003, 6.542073e+000
1.193800e+003, 6.399694e+000
1.194282e+003, 6.450523e+000
1.194764e+003, 6.620960e+000
1.195246e+003, 6.588809e+000
1.195728e+003, 6.365978e+000
1.196210e+003, 6.287839e+000
1.196692e+003, 6.363055e+000
1.197174e+003, 6.440066e+000
1.197657e+003, 6.479410e+000
1.198139e+003, 6.502366e+000
1.198621e+003, 6.524139e+000
1.199103e+003, 6.503585e+000
1.199585e+003, 6.329850e+000
1.200067e+003, 6.119123e+000
1.200549e+003, 6.117873e+000
1.201031e+003, 6.255887e+000
1.201514e+003, 6.443481e+000
1.201996e+003, 6.612893e+000
1.202478e+003, 6.573334e+000
1.202960e+003, 6.314997e+000
1.203442e+003, 6.146585e+000
1.203924e+003, 6.268793e+000
1.204406e+003, 6.468368e+000
1.204888e+003, 6.666432e+000
1.205370e+003, 6.786385e+000
1.205853e+003, 6.691510e+000
1.206335e+003, 6.534632e+000
1.206817e+003, 6.514699e+000
1.207299e+003, 6.591177e+000
1.207781e+003, 6.599998e+000
1.208263e+003, 6.503751e+000
1.208745e+003, 6.439784e+000
1.209227e+003, 6.452941e+000
1.209709e+003, 6.483527e+000
1.210192e+003, 6.543207e+000
1.210674e+003, 6.588960e+000
1.211156e+003, 6.611219e+000
1.211638e+003, 6.597936e+000
1.212120e+003, 6.515734e+000
1.212602e+003, 6.391194e+000
1.213084e+003, 6.328391e+000
1.213566e+003, 6.338715e+000
1.214049e+003, 6.353389e+000
1.214531e+003, 6.369785e+000
1.215013e+003, 6.401826e+000
1.215495e+003, 6.453682e+000
1.215977e+003, 6.520481e+000
1.216459e+003, 6.606513e+000
1.216941e+003, 6.664859e+000
1.217423e+003, 6.624329e+000
1.217906e+003, 6.533158e+000
1.218388e+003, 6.573546e+000
1.218870e+003, 6.701787e+000
1.219352e+003, 6.667063e+000
1.219834e+003, 6.495070e+000
1.220316e+003, 6.382493e+000
1.220798e+003, 6.373644e+000
1.221280e+003, 6.426588e+000
1.221762e+003, 6.520919e+000
1.222245e+003, 6.615510e+000
1.222727e+003, 6.691912e+000
1.223209e+003, 6.723739e+000
1.223691e+003, 6.629388e+000
1.224173e+003, 6.511517e+000
1.224655e+003, 6.532731e+000
1.225137e+003, 6.627016e+000
1.225619e+003, 6.633821e+000
1.226101e+003, 6.542887e+000
1.226584e+003, 6.483588e+000
1.227066e+003, 6.506878e+000
1.227548e+003, 6.546767e+000
1.228030e+003, 6.617013e+000
1.228512e+003, 6.651736e+000
1.228994e+003, 6.599675e+000
1.229476e+003, 6.524580e+000
1.229958e+003, 6.465301e+000
1.230441e+003, 6.422721e+000
1.230923e+003, 6.388961e+000
1.231405e+003, 6.365062e+000
1.231887e+003, 6.393102e+000
1.232369e+003, 6.493100e+000
1.232851e+003, 6.587677e+000
1.233333e+003, 6.682940e+000
1.233815e+003, 6.738631e+000
1.234297e+003, 6.739545e+000
1.234780e+003, 6.705442e+000
1.235262e+003, 6.642259e+000
1.235744e+003, 6.587998e+000
1.236226e+003, 6.622001e+000
1.236708e+003, 6.713615e+000
1.237190e+003, 6.738667e+000
1.237672e+003, 6.704095e+000
1.238154e+003, 6.618434e+000
1.238636e+003, 6.501550e+000
1.239119e+003, 6.422743e+000
1.239601e+003, 6.405324e+000
1.240083e+003, 6.461434e+000
1.240565e+003, 6.618517e+000
1.241047e+003, 6.747439e+000
1.241529e+003, 6.682305e+000
1.242011e+003, 6.573169e+000
1.242493e+003, 6.544255e+000
1.242975e+003, 6.577052e+000
1.243458e+003, 6.696041e+000
1.243940e+003, 6.832866e+000
1.244422e+003, 6.832880e+000
1.244904e+003, 6.685217e+000
1.245386e+003, 6.597464e+000
1.245868e+003, 6.695669e+000
1.246350e+003, 6.723269e+000
1.246832e+003, 6.538602e+000
1.247315e+003, 6.411281e+000
1.247797e+003, 6.478870e+000
1.248279e+003, 6.577356e+000
1.248761e+003, 6.600886e+000
1.249243e+003, 6.570678e+000
1.249725e+003, 6.510954e+000
1.250207e+003, 6.428213e+000
1.250689e+003, 6.449801e+000
1.251172e+003, 6.589975e+000
1.251654e+003, 6.680614e+000
1.252136e+003, 6.708841e+000
1.252618e+003, 6.685822e+000
1.253100e+003, 6.615319e+000
1.253582e+003, 6.555718e+000
1.254064e+003, 6.546593e+000
1.254546e+003, 6.576674e+000
1.255028e+003, 6.667242e+000
1.255510e+003, 6.758573e+000
1.255993e+003, 6.693295e+000
1.256475e+003, 6.569801e+000
1.256957e+003, 6.601982e+000
1.257439e+003, 6.731344e+000
1.257921e+003, 6.756371e+000
1.258403e+003, 6.656758e+000
1.258885e+003, 6.604531e+000
1.259367e+003, 6.697774e+000
1.259850e+003, 6.748641e+000
1.260332e+003, 6.582006e+000
1.260814e+003, 6.468298e+000
1.261296e+003, 6.638764e+000
1.261778e+003, 6.806054e+000
1.262260e+003, 6.681617e+000
1.262742e+003, 6.446959e+000
1.263224e+003, 6.412485e+000
1.263707e+003, 6.553897e+000
1.264189e+003, 6.659476e+000
1.264671e+003, 6.737228e+000
1.265153e+003, 6.745694e+000
1.265635e+003, 6.668159e+000
1.266117e+003, 6.592744e+000
1.266599e+003, 6.537308e+000
1.267081e+003, 6.491237e+000
1.267563e+003, 6.444778e+000
1.268046e+003, 6.446216e+000
1.268528e+003, 6.581694e+000
1.269010e+003, 6.752488e+000
1.269492e+003, 6.689441e+000
1.269974e+003, 6.497335e+000
1.270456e+003, 6.430213e+000
1.270938e+003, 6.472208e+000
1.271420e+003, 6.571867e+000
1.271902e+003, 6.686641e+000
1.272385e+003, 6.700719e+000
1.272867e+003, 6.569394e+000
1.273349e+003, 6.492226e+000
1.273831e+003, 6.666663e+000
1.274313e+003, 6.815711e+000
1.274795e+003, 6.783683e+000
1.275277e+003, 6.700029e+000
1.275759e+003, 6.596882e+000
1.276242e+003, 6.531982e+000
1.276724e+003, 6.617579e+000
1.277206e+003, 6.783405e+000
1.277688e+003, 6.786446e+000
1.278170e+003, 6.599205e+000
1.278652e+003, 6.503732e+000
1.279134e+003, 6.523925e+000
1.279616e+003, 6.549945e+000
1.280099e+003, 6.569555e+000
1.280581e+003, 6.608504e+000
1.281063e+003, 6.682144e+000
1.281545e+003, 6.712604e+000
1.282027e+003, 6.628745e+000
1.282509e+003, 6.520669e+000
1.282991e+003, 6.547425e+000
1.283473e+003, 6.661491e+000
1.283955e+003, 6.762756e+000
##END=



