##NAMES=Grossular
##RRUFFID=R060453
##IDEAL CHEMISTRY=Ca_3_Al_2_(SiO_4_)_3_
##LOCALITY=unknown
##OWNER=RRUFF
##SOURCE=Gemological Institute of America
##DESCRIPTION=Green colored fragment
##STATUS=The identification of this mineral has been confirmed by X-ray diffraction and chemical analysis
##URL=rruff.info/R060453
##MEASURED CHEMISTRY=(Ca_2.91_Mg_0.05_Mn_0.04_)_Σ=3_(Al_1.96_Ti_0.02_[box]_0.02_)_Σ=2_(Si_1.00_O_4_)_3_; trace amounts of Fe and Cr
136.1626, 23585.05
136.6447, 24341.54
137.1268, 25123.92
137.6089, 25939.89
138.0910, 26733.92
138.5731, 27460.59
139.0553, 28123.32
139.5374, 28748.10
140.0195, 29346.18
140.5016, 29904.44
140.9837, 30333.87
141.4658, 30580.71
141.9480, 30789.90
142.4301, 31065.85
142.9122, 31467.71
143.3943, 31806.65
143.8764, 32037.29
144.3585, 32160.92
144.8407, 32344.00
145.3228, 32613.91
145.8049, 32921.42
146.2870, 33217.12
146.7691, 33458.75
147.2512, 33738.68
147.7334, 34072.62
148.2155, 34470.58
148.6976, 34893.07
149.1797, 35355.26
149.6618, 35838.93
150.1439, 36315.52
150.6261, 36758.58
151.1082, 37212.88
151.5903, 37688.66
152.0724, 38196.09
152.5545, 38700.12
153.0366, 39208.54
153.5188, 39709.09
154.0009, 40175.62
154.4830, 40617.11
154.9651, 41019.13
155.4472, 41377.84
155.9293, 41670.69
156.4115, 41951.26
156.8936, 42255.59
157.3757, 42563.14
157.8578, 42808.25
158.3399, 42912.56
158.8221, 42982.09
159.3042, 43087.19
159.7863, 43291.94
160.2684, 43488.22
160.7505, 43625.77
161.2326, 43714.59
161.7148, 43822.25
162.1969, 43994.30
162.6790, 44193.24
163.1611, 44380.62
163.6432, 44527.48
164.1253, 44674.43
164.6075, 44841.23
165.0896, 45028.57
165.5717, 45229.41
166.0538, 45452.74
166.5359, 45685.08
167.0180, 45907.60
167.5002, 46102.54
167.9823, 46292.89
168.4644, 46499.86
168.9465, 46727.96
169.4286, 46952.07
169.9107, 47148.77
170.3929, 47326.78
170.8750, 47509.63
171.3571, 47715.97
171.8392, 47928.18
172.3213, 48119.00
172.8034, 48272.21
173.2856, 48439.81
173.7677, 48691.67
174.2498, 49006.02
174.7319, 49303.33
175.2140, 49531.90
175.6961, 49714.54
176.1783, 49876.51
176.6604, 50003.30
177.1425, 50141.57
177.6246, 50348.68
178.1067, 50618.62
178.5888, 50927.33
179.0710, 51269.94
179.5531, 51634.07
180.0352, 51995.92
180.5173, 52375.71
180.9994, 52719.80
181.4815, 52944.96
181.9637, 53053.10
182.4458, 53043.48
182.9279, 52856.51
183.4100, 52535.31
183.8921, 52236.41
184.3742, 51986.91
184.8564, 51795.39
185.3385, 51702.76
185.8206, 51712.66
186.3027, 51767.76
186.7848, 51816.98
187.2669, 51861.88
187.7491, 51915.48
188.2312, 51980.07
188.7133, 52056.41
189.1954, 52154.34
189.6775, 52276.95
190.1596, 52404.54
190.6418, 52509.38
191.1239, 52591.84
191.6060, 52684.79
192.0881, 52817.48
192.5702, 52981.39
193.0524, 53090.44
193.5345, 53129.46
194.0166, 53152.41
194.4987, 53245.94
194.9808, 53414.02
195.4629, 53593.53
195.9451, 53763.56
196.4272, 53925.91
196.9093, 54049.64
197.3914, 54125.89
197.8735, 54175.94
198.3556, 54240.62
198.8378, 54322.54
199.3199, 54401.09
199.8020, 54448.98
200.2841, 54459.86
200.7662, 54537.67
201.2483, 54711.26
201.7305, 54934.06
202.2126, 55087.59
202.6947, 55158.66
203.1768, 55209.66
203.6589, 55273.94
204.1410, 55351.20
204.6232, 55443.00
205.1053, 55558.63
205.5874, 55684.91
206.0695, 55772.66
206.5516, 55809.67
207.0337, 55840.20
207.5159, 55894.97
207.9980, 55977.11
208.4801, 56063.38
208.9622, 56149.34
209.4443, 56237.26
209.9264, 56346.51
210.4086, 56496.26
210.8907, 56629.16
211.3728, 56687.60
211.8549, 56641.70
212.3370, 56626.06
212.8191, 56666.63
213.3013, 56756.43
213.7834, 56840.35
214.2655, 56915.23
214.7476, 56989.62
215.2297, 57068.16
215.7118, 57148.45
216.1940, 57242.14
216.6761, 57352.73
217.1582, 57480.04
217.6403, 57617.49
218.1224, 57784.45
218.6045, 57933.66
219.0867, 58008.00
219.5688, 57963.16
220.0509, 57947.13
220.5330, 57994.01
221.0151, 58105.55
221.4972, 58223.84
221.9794, 58354.62
222.4615, 58486.88
222.9436, 58612.72
223.4257, 58738.73
223.9078, 58844.75
224.3899, 58916.00
224.8721, 58948.40
225.3542, 59013.58
225.8363, 59126.86
226.3184, 59258.86
226.8005, 59376.56
227.2827, 59471.50
227.7648, 59566.32
228.2469, 59663.23
228.7290, 59759.44
229.2111, 59879.11
229.6932, 60039.46
230.1754, 60207.91
230.6575, 60340.88
231.1396, 60415.31
231.6217, 60493.29
232.1038, 60591.82
232.5859, 60714.09
233.0681, 60840.51
233.5502, 60972.59
234.0323, 61107.15
234.5144, 61238.71
234.9965, 61351.77
235.4786, 61487.38
235.9608, 61667.19
236.4429, 61905.00
236.9250, 62112.61
237.4071, 62285.09
237.8892, 62428.79
238.3713, 62548.65
238.8535, 62621.02
239.3356, 62709.62
239.8177, 62842.18
240.2998, 63039.47
240.7819, 63202.64
241.2640, 63332.92
241.7462, 63431.02
242.2283, 63486.76
242.7104, 63437.58
243.1925, 63449.88
243.6746, 63594.76
244.1567, 63926.55
244.6389, 64206.45
245.1210, 64410.88
245.6031, 64577.00
246.0852, 64771.76
246.5673, 65020.45
247.0494, 65255.37
247.5316, 65463.14
248.0137, 65663.45
248.4958, 65763.70
248.9779, 65726.42
249.4600, 65609.39
249.9421, 65518.39
250.4243, 65460.04
250.9064, 65414.35
251.3885, 65367.57
251.8706, 65301.91
252.3527, 65300.11
252.8348, 65388.64
253.3170, 65524.29
253.7991, 65621.66
254.2812, 65655.69
254.7633, 65697.77
255.2454, 65783.05
255.7275, 65934.07
256.2097, 66036.34
256.6918, 66060.67
257.1739, 66055.18
257.6560, 66120.25
258.1381, 66301.92
258.6202, 66459.50
259.1024, 66538.91
259.5845, 66525.34
260.0666, 66488.80
260.5487, 66417.65
261.0308, 66332.45
261.5129, 66268.20
261.9951, 66230.41
262.4772, 66201.63
262.9593, 66172.09
263.4414, 66135.34
263.9235, 66125.70
264.4056, 66139.53
264.8878, 66184.10
265.3699, 66288.55
265.8520, 66487.28
266.3341, 66649.88
266.8162, 66713.31
267.2983, 66656.34
267.7805, 66626.85
268.2626, 66614.21
268.7447, 66641.69
269.2268, 66773.14
269.7089, 67046.32
270.1910, 67286.91
270.6732, 67412.72
271.1553, 67406.82
271.6374, 67444.20
272.1195, 67528.09
272.6016, 67650.73
273.0837, 67801.70
273.5659, 67985.60
274.0480, 68176.92
274.5301, 68364.84
275.0122, 68547.78
275.4943, 68757.04
275.9764, 69003.11
276.4586, 69255.80
276.9407, 69470.78
277.4228, 69643.09
277.9049, 69799.84
278.3870, 69963.62
278.8691, 70130.99
279.3513, 70222.09
279.8334, 70232.80
280.3155, 70177.82
280.7976, 70060.39
281.2798, 69879.21
281.7619, 69689.73
282.2440, 69486.98
282.7261, 69283.45
283.2082, 69187.88
283.6903, 69215.32
284.1725, 69295.39
284.6546, 69340.00
285.1367, 69350.88
285.6188, 69384.03
286.1009, 69475.29
286.5830, 69606.38
287.0652, 69692.63
287.5473, 69727.55
288.0294, 69751.67
288.5115, 69805.84
288.9936, 69888.62
289.4757, 69986.25
289.9579, 70107.94
290.4400, 70238.18
290.9221, 70333.87
291.4042, 70393.30
291.8863, 70439.49
292.3684, 70490.75
292.8506, 70547.04
293.3327, 70609.49
293.8148, 70684.56
294.2969, 70762.88
294.7790, 70819.75
295.2611, 70855.38
295.7433, 70901.33
296.2254, 71001.88
296.7075, 71137.76
297.1896, 71249.30
297.6717, 71307.63
298.1538, 71345.93
298.6360, 71416.56
299.1181, 71517.49
299.6002, 71617.16
300.0823, 71683.39
300.5644, 71732.97
301.0465, 71802.05
301.5287, 71918.77
302.0108, 72035.17
302.4929, 72074.66
302.9750, 72052.45
303.4571, 72053.60
303.9392, 72170.55
304.4214, 72334.98
304.9035, 72454.81
305.3856, 72490.24
305.8677, 72500.17
306.3498, 72516.94
306.8319, 72545.17
307.3141, 72602.38
307.7962, 72736.45
308.2783, 72886.22
308.7604, 72982.84
309.2425, 72978.02
309.7246, 72990.13
310.2068, 73132.41
310.6889, 73355.73
311.1710, 73534.04
311.6531, 73543.95
312.1352, 73523.95
312.6173, 73585.27
313.0995, 73774.15
313.5816, 73958.86
314.0637, 74082.63
314.5458, 74159.76
315.0279, 74218.62
315.5100, 74237.27
315.9922, 74265.23
316.4743, 74335.47
316.9564, 74463.45
317.4385, 74585.26
317.9206, 74685.11
318.4027, 74764.95
318.8849, 74827.43
319.3670, 74816.02
319.8491, 74837.74
320.3312, 74959.91
320.8133, 75215.23
321.2954, 75400.99
321.7776, 75434.14
322.2597, 75396.94
322.7418, 75377.04
323.2239, 75349.38
323.7060, 75377.73
324.1881, 75517.63
324.6703, 75786.27
325.1524, 75958.48
325.6345, 75897.38
326.1166, 75796.42
326.5987, 75811.34
327.0808, 76063.89
327.5630, 76289.75
328.0451, 76443.58
328.5272, 76529.97
329.0093, 76655.26
329.4914, 76890.13
329.9735, 77097.20
330.4557, 77176.81
330.9378, 77020.66
331.4199, 76925.93
331.9020, 76926.27
332.3841, 77007.15
332.8662, 77101.71
333.3484, 77219.17
333.8305, 77334.95
334.3126, 77437.48
334.7947, 77525.16
335.2768, 77600.23
335.7589, 77658.05
336.2411, 77705.76
336.7232, 77757.02
337.2053, 77802.67
337.6874, 77877.75
338.1695, 78021.69
338.6516, 78249.36
339.1338, 78396.63
339.6159, 78438.86
340.0980, 78432.75
340.5801, 78466.46
341.0622, 78542.15
341.5443, 78643.67
342.0265, 78775.77
342.5086, 78933.37
342.9907, 79086.31
343.4728, 79237.54
343.9549, 79367.38
344.4370, 79427.55
344.9192, 79427.14
345.4013, 79457.98
345.8834, 79566.84
346.3655, 79725.52
346.8476, 79851.26
347.3297, 79942.24
347.8119, 80037.45
348.2940, 80185.57
348.7761, 80368.55
349.2582, 80527.48
349.7403, 80637.91
350.2225, 80728.80
350.7046, 80845.34
351.1867, 80984.80
351.6688, 81118.06
352.1509, 81208.89
352.6331, 81284.36
353.1152, 81382.66
353.5973, 81507.53
354.0794, 81666.30
354.5615, 81889.62
355.0436, 82157.41
355.5258, 82408.70
356.0079, 82606.00
356.4900, 82774.32
356.9721, 82922.11
357.4542, 83032.05
357.9363, 83184.76
358.4185, 83449.60
358.9006, 83785.30
359.3827, 84120.42
359.8648, 84373.91
360.3469, 84661.86
360.8290, 85057.57
361.3112, 85582.02
361.7933, 86116.82
362.2754, 86640.12
362.7575, 87152.43
363.2396, 87656.43
363.7217, 88095.72
364.2039, 88576.86
364.6860, 89120.17
365.1681, 89729.10
365.6502, 90404.00
366.1323, 91219.72
366.6144, 92060.84
367.0966, 92851.23
367.5787, 93609.65
368.0608, 94281.56
368.5429, 94875.64
369.0250, 95385.89
369.5071, 95765.91
369.9893, 95956.75
370.4714, 96085.33
370.9535, 96206.67
371.4356, 96309.58
371.9177, 96429.02
372.3998, 96572.73
372.8820, 96730.09
373.3641, 96878.22
373.8462, 97019.91
374.3283, 97147.08
374.8104, 97302.73
375.2925, 97513.23
375.7747, 97443.76
376.2568, 97068.32
376.7389, 96463.95
377.2210, 95691.02
377.7031, 94738.18
378.1852, 93782.02
378.6674, 92849.02
379.1495, 91955.83
379.6316, 91109.84
380.1137, 90309.74
380.5958, 89632.98
381.0779, 89218.06
381.5601, 89014.75
382.0422, 88802.78
382.5243, 88516.80
383.0064, 88210.95
383.4885, 87976.34
383.9706, 87805.00
384.4528, 87654.59
384.9349, 87468.25
385.4170, 87289.63
385.8991, 87197.52
386.3812, 87220.92
386.8633, 87272.34
387.3455, 87266.95
387.8276, 87226.77
388.3097, 87202.09
388.7918, 87207.84
389.2739, 87246.40
389.7560, 87335.85
390.2382, 87483.20
390.7203, 87612.44
391.2024, 87658.68
391.6845, 87672.08
392.1666, 87711.04
392.6487, 87819.42
393.1309, 87933.69
393.6130, 88035.98
394.0951, 88125.31
394.5772, 88191.98
395.0593, 88211.17
395.5414, 88221.20
396.0236, 88245.82
396.5057, 88295.53
396.9878, 88351.57
397.4699, 88398.09
397.9520, 88447.84
398.4341, 88540.73
398.9163, 88723.99
399.3984, 88901.62
399.8805, 89041.91
400.3626, 89143.79
400.8447, 89205.85
401.3268, 89191.27
401.8090, 89164.08
402.2911, 89223.60
402.7732, 89405.07
403.2553, 89578.54
403.7374, 89701.67
404.2195, 89778.92
404.7017, 89900.44
405.1838, 90082.91
405.6659, 90265.95
406.1480, 90380.40
406.6301, 90425.26
407.1122, 90503.97
407.5944, 90639.14
408.0765, 90815.30
408.5586, 90995.16
409.0407, 91179.54
409.5228, 91374.91
410.0049, 91585.37
410.4871, 91808.05
410.9692, 92036.91
411.4513, 92270.67
411.9334, 92516.14
412.4155, 92793.52
412.8976, 93095.57
413.3798, 93390.04
413.8619, 93659.16
414.3440, 93920.69
414.8261, 94212.98
415.3082, 94537.17
415.7903, 94821.70
416.2725, 95040.30
416.7546, 95188.38
417.2367, 95264.38
417.7188, 95264.21
418.2009, 95192.73
418.6830, 95019.66
419.1652, 94767.24
419.6473, 94523.94
420.1294, 94301.97
420.6115, 94107.62
421.0937, 93939.77
421.5758, 93796.96
422.0579, 93691.70
422.5400, 93622.51
423.0221, 93591.98
423.5042, 93604.72
423.9864, 93733.74
424.4685, 93822.70
424.9506, 93812.39
425.4327, 93688.91
425.9148, 93654.35
426.3969, 93760.78
426.8791, 93896.65
427.3612, 93957.80
427.8433, 93911.34
428.3254, 93894.38
428.8075, 93932.43
429.2896, 94010.38
429.7718, 94071.34
430.2539, 94109.05
430.7360, 94162.79
431.2181, 94277.34
431.7002, 94444.89
432.1823, 94538.27
432.6645, 94535.83
433.1466, 94510.51
433.6287, 94565.18
434.1108, 94687.05
434.5929, 94814.48
435.0750, 94919.41
435.5572, 95014.22
436.0393, 95126.85
436.5214, 95255.98
437.0035, 95373.63
437.4856, 95451.56
437.9677, 95505.34
438.4499, 95551.86
438.9320, 95579.02
439.4141, 95627.81
439.8962, 95756.93
440.3783, 95932.86
440.8604, 96072.98
441.3426, 96069.70
441.8247, 96072.30
442.3068, 96192.05
442.7889, 96480.48
443.2710, 96694.47
443.7531, 96723.52
444.2353, 96662.59
444.7174, 96617.16
445.1995, 96582.36
445.6816, 96585.88
446.1637, 96641.11
446.6458, 96743.67
447.1280, 96858.31
447.6101, 97002.56
448.0922, 97139.98
448.5743, 97245.05
449.0564, 97297.56
449.5385, 97374.48
450.0207, 97480.58
450.5028, 97608.87
450.9849, 97754.48
451.4670, 97923.55
451.9491, 98071.71
452.4312, 98174.09
452.9134, 98237.23
453.3955, 98315.16
453.8776, 98407.98
454.3597, 98511.98
454.8418, 98633.44
455.3239, 98765.56
455.8061, 98872.11
456.2882, 98936.60
456.7703, 98987.13
457.2524, 99058.81
457.7345, 99150.03
458.2166, 99256.45
458.6988, 99379.75
459.1809, 99514.00
459.6630, 99661.20
460.1451, 99828.73
460.6272, 99965.91
461.1093, 100028.4
461.5915, 100045.3
462.0736, 100051.3
462.5557, 99982.16
463.0378, 99978.04
463.5199, 100146.6
464.0020, 100456.9
464.4842, 100683.2
464.9663, 100671.5
465.4484, 100641.3
465.9305, 100715.3
466.4126, 101011.0
466.8947, 101210.7
467.3769, 101250.7
467.8590, 101222.4
468.3411, 101283.4
468.8232, 101494.4
469.3053, 101670.3
469.7874, 101736.3
470.2696, 101703.8
470.7517, 101809.5
471.2338, 102097.9
471.7159, 102386.4
472.1980, 102469.1
472.6801, 102353.6
473.1623, 102379.4
473.6444, 102633.3
474.1265, 102972.0
474.6086, 103140.6
475.0907, 103161.9
475.5728, 103181.9
476.0550, 103285.1
476.5371, 103434.4
477.0192, 103569.1
477.5013, 103687.5
477.9834, 103807.1
478.4655, 103956.5
478.9477, 104111.0
479.4298, 104235.6
479.9119, 104305.1
480.3940, 104363.2
480.8761, 104418.5
481.3582, 104478.0
481.8404, 104561.5
482.3225, 104709.3
482.8046, 104854.5
483.2867, 104965.9
483.7688, 105031.4
484.2509, 105094.7
484.7331, 105156.3
485.2152, 105218.5
485.6973, 105283.8
486.1794, 105342.7
486.6615, 105423.3
487.1436, 105545.0
487.6258, 105692.5
488.1079, 105778.1
488.5900, 105765.3
489.0721, 105791.2
489.5542, 105972.9
490.0363, 106313.6
490.5185, 106503.5
491.0006, 106501.7
491.4827, 106453.9
491.9648, 106557.8
492.4470, 106788.7
492.9291, 107010.6
493.4112, 107169.5
493.8933, 107296.9
494.3754, 107428.6
494.8575, 107566.3
495.3397, 107713.2
495.8218, 107885.0
496.3039, 108063.2
496.7860, 108227.1
497.2681, 108376.3
497.7502, 108510.2
498.2324, 108620.6
498.7145, 108718.9
499.1966, 108822.6
499.6787, 108866.4
500.1608, 108986.8
500.6429, 109304.5
501.1251, 109797.4
501.6072, 110109.2
502.0893, 110058.7
502.5714, 109964.9
503.0535, 109976.6
503.5356, 110138.9
504.0178, 110296.0
504.4999, 110431.2
504.9820, 110575.1
505.4641, 110796.9
505.9462, 111121.9
506.4283, 111387.0
506.9105, 111522.9
507.3926, 111566.5
507.8747, 111665.6
508.3568, 111822.9
508.8389, 111994.0
509.3210, 112168.3
509.8032, 112333.1
510.2853, 112457.0
510.7674, 112535.7
511.2495, 112575.0
511.7316, 112553.4
512.2137, 112497.8
512.6959, 112463.4
513.1780, 112466.7
513.6601, 112503.5
514.1422, 112584.9
514.6243, 112704.4
515.1064, 112818.6
515.5886, 112903.6
516.0707, 112983.3
516.5528, 113076.8
517.0349, 113217.8
517.5170, 113308.5
517.9991, 113265.5
518.4813, 113195.2
518.9634, 113234.6
519.4455, 113431.9
519.9276, 113660.4
520.4097, 113925.5
520.8918, 114205.4
521.3740, 114366.3
521.8561, 114373.4
522.3382, 114376.6
522.8203, 114478.7
523.3024, 114673.1
523.7845, 114870.1
524.2667, 115071.5
524.7488, 115254.1
525.2309, 115378.6
525.7130, 115462.4
526.1951, 115564.8
526.6772, 115721.7
527.1594, 115894.5
527.6415, 116047.3
528.1236, 116178.2
528.6057, 116282.2
529.0878, 116353.8
529.5699, 116397.8
530.0521, 116409.0
530.5342, 116377.2
531.0163, 116357.0
531.4984, 116342.3
531.9805, 116357.9
532.4626, 116429.8
532.9448, 116630.5
533.4269, 116804.2
533.9090, 116903.2
534.3911, 116959.3
534.8732, 117104.9
535.3553, 117411.7
535.8375, 117676.7
536.3196, 117784.3
536.8017, 117724.4
537.2838, 117755.7
537.7659, 117891.9
538.2480, 118075.8
538.7302, 118249.9
539.2123, 118418.6
539.6944, 118601.7
540.1765, 118808.8
540.6586, 119022.9
541.1407, 119230.1
541.6229, 119429.5
542.1050, 119620.5
542.5871, 119775.4
543.0692, 119940.1
543.5513, 120160.6
544.0334, 120437.0
544.5156, 120726.1
544.9977, 120974.4
545.4798, 121245.9
545.9619, 121595.0
546.4440, 122136.3
546.9261, 122599.9
547.4083, 122915.1
547.8904, 123137.0
548.3725, 123364.8
548.8546, 123648.6
549.3367, 123859.8
549.8188, 123968.8
550.3010, 123977.8
550.7831, 123897.6
551.2652, 123712.7
551.7473, 123490.4
552.2294, 123257.5
552.7115, 123019.5
553.1937, 122849.6
553.6758, 122761.5
554.1579, 122709.3
554.6400, 122631.3
555.1221, 122542.5
555.6042, 122488.0
556.0864, 122502.5
556.5685, 122538.6
557.0506, 122529.7
557.5327, 122497.7
558.0148, 122524.2
558.4969, 122733.6
558.9791, 122950.7
559.4612, 123045.9
559.9433, 122970.8
560.4254, 122957.8
560.9075, 123085.6
561.3896, 123273.9
561.8718, 123453.3
562.3539, 123630.0
562.8360, 123788.6
563.3181, 123931.1
563.8002, 124052.1
564.2823, 124126.8
564.7645, 124136.7
565.2466, 124182.3
565.7287, 124323.7
566.2108, 124534.3
566.6929, 124670.1
567.1750, 124726.6
567.6572, 124781.6
568.1393, 124913.5
568.6214, 125087.2
569.1035, 125218.9
569.5856, 125284.4
570.0677, 125359.2
570.5499, 125517.7
571.0320, 125725.5
571.5141, 125928.5
571.9962, 126152.0
572.4783, 126322.3
572.9604, 126363.3
573.4426, 126306.8
573.9247, 126318.2
574.4068, 126468.2
574.8889, 126651.9
575.3710, 126840.9
575.8531, 127044.8
576.3353, 127187.0
576.8174, 127234.3
577.2995, 127267.2
577.7816, 127373.7
578.2637, 127562.8
578.7458, 127719.3
579.2280, 127816.4
579.7101, 127892.7
580.1922, 128017.1
580.6743, 128184.0
581.1564, 128360.2
581.6385, 128541.1
582.1207, 128717.5
582.6028, 128878.6
583.0849, 129022.6
583.5670, 129146.2
584.0491, 129215.9
584.5313, 129284.0
585.0134, 129392.6
585.4955, 129554.8
585.9776, 129733.3
586.4597, 129938.0
586.9418, 130145.3
587.4240, 130325.1
587.9061, 130458.3
588.3882, 130594.4
588.8703, 130739.0
589.3524, 130889.7
589.8345, 131042.4
590.3167, 131199.4
590.7988, 131350.9
591.2809, 131498.0
591.7630, 131635.7
592.2451, 131705.0
592.7272, 131701.4
593.2094, 131734.2
593.6915, 131960.3
594.1736, 132273.9
594.6557, 132453.6
595.1378, 132430.7
595.6199, 132401.2
596.1021, 132541.9
596.5842, 132760.0
597.0663, 132923.8
597.5485, 132872.6
598.0306, 132881.2
598.5127, 133099.9
598.9948, 133467.8
599.4769, 133718.7
599.9590, 133737.7
600.4412, 133762.1
600.9233, 133874.7
601.4054, 134083.3
601.8875, 134266.0
602.3696, 134426.5
602.8517, 134548.3
603.3339, 134578.9
603.8160, 134530.9
604.2981, 134582.6
604.7802, 134769.1
605.2623, 135003.9
605.7444, 135180.8
606.2266, 135316.5
606.7087, 135446.0
607.1908, 135572.2
607.6729, 135711.2
608.1550, 135909.8
608.6371, 136138.4
609.1193, 136307.7
609.6014, 136315.2
610.0835, 136310.7
610.5656, 136352.3
611.0477, 136441.7
611.5298, 136603.3
612.0120, 136905.7
612.4941, 137210.0
612.9762, 137419.2
613.4583, 137508.9
613.9404, 137576.6
614.4225, 137598.0
614.9047, 137647.0
615.3868, 137878.8
615.8689, 138276.1
616.3510, 138580.2
616.8331, 138682.0
617.3152, 138696.0
617.7974, 138784.0
618.2795, 138934.8
618.7616, 139106.8
619.2437, 139261.9
619.7258, 139440.2
620.2079, 139705.7
620.6901, 140058.1
621.1722, 140343.4
621.6543, 140451.0
622.1364, 140514.6
622.6185, 140617.5
623.1006, 140775.3
623.5828, 140950.1
624.0649, 141138.6
624.5470, 141346.9
625.0291, 141591.9
625.5112, 141886.3
625.9933, 142149.1
626.4755, 142356.4
626.9576, 142533.0
627.4397, 142739.0
627.9218, 142967.0
628.4039, 143159.6
628.8860, 143249.4
629.3682, 143308.5
629.8503, 143450.7
630.3324, 143663.8
630.8145, 143850.0
631.2966, 143913.5
631.7787, 143954.4
632.2609, 144051.3
632.7430, 144235.7
633.2251, 144391.5
633.7072, 144466.8
634.1893, 144520.9
634.6714, 144604.5
635.1536, 144736.5
635.6357, 144854.7
636.1178, 144946.4
636.5999, 145029.5
637.0820, 145145.1
637.5641, 145294.8
638.0463, 145421.6
638.5284, 145503.1
639.0105, 145555.0
639.4926, 145583.5
639.9747, 145600.9
640.4568, 145674.3
640.9390, 145917.8
641.4211, 146189.5
641.9032, 146336.0
642.3853, 146346.2
642.8674, 146390.7
643.3495, 146587.8
643.8317, 146809.0
644.3138, 146962.6
644.7959, 146969.4
645.2780, 147041.4
645.7601, 147203.7
646.2422, 147408.6
646.7244, 147614.3
647.2065, 147828.5
647.6886, 147989.2
648.1707, 148069.8
648.6528, 148111.2
649.1349, 148191.7
649.6171, 148308.1
650.0992, 148439.6
650.5813, 148568.1
651.0634, 148711.7
651.5455, 148907.2
652.0276, 149145.6
652.5098, 149369.4
652.9919, 149583.0
653.4740, 149745.5
653.9561, 149801.8
654.4382, 149716.8
654.9203, 149713.7
655.4025, 149882.2
655.8846, 150090.0
656.3667, 150245.6
656.8488, 150320.8
657.3309, 150434.0
657.8130, 150601.9
658.2952, 150787.2
658.7773, 150924.5
659.2594, 151021.5
659.7415, 151158.3
660.2236, 151368.4
660.7057, 151607.9
661.1879, 151825.9
661.6700, 152021.6
662.1521, 152189.0
662.6342, 152314.8
663.1163, 152420.5
663.5984, 152499.4
664.0806, 152559.8
664.5627, 152662.5
665.0448, 152865.7
665.5269, 153074.2
666.0090, 153248.8
666.4911, 153385.0
666.9733, 153507.9
667.4554, 153608.3
667.9375, 153713.1
668.4196, 153850.9
668.9017, 154020.5
669.3839, 154170.5
669.8660, 154292.1
670.3481, 154409.8
670.8302, 154543.0
671.3123, 154694.0
671.7944, 154871.5
672.2766, 155093.6
672.7587, 155314.6
673.2408, 155503.3
673.7229, 155669.8
674.2050, 155838.1
674.6871, 156068.5
675.1693, 156241.1
675.6514, 156261.6
676.1335, 156180.7
676.6156, 156283.6
677.0977, 156663.5
677.5798, 157012.7
678.0620, 157166.3
678.5441, 157153.1
679.0262, 157257.1
679.5083, 157486.2
679.9904, 157716.9
680.4725, 157819.1
680.9547, 157864.8
681.4368, 157988.2
681.9189, 158208.8
682.4010, 158455.6
682.8831, 158726.1
683.3652, 158975.0
683.8474, 159148.8
684.3295, 159168.1
684.8116, 159219.6
685.2937, 159342.2
685.7758, 159506.5
686.2579, 159681.5
686.7401, 159885.0
687.2222, 160043.0
687.7043, 160118.0
688.1864, 160161.1
688.6685, 160306.4
689.1506, 160547.9
689.6328, 160791.8
690.1149, 161009.7
690.5970, 161198.9
691.0791, 161338.6
691.5612, 161440.5
692.0433, 161559.2
692.5255, 161730.7
693.0076, 161926.4
693.4897, 162138.0
693.9718, 162367.2
694.4539, 162574.8
694.9360, 162754.6
695.4182, 162911.7
695.9003, 163040.4
696.3824, 163119.7
696.8645, 163267.8
697.3466, 163511.1
697.8287, 163753.8
698.3109, 163880.6
698.7930, 163910.9
699.2751, 163929.4
699.7572, 163929.2
700.2393, 163999.0
700.7214, 164283.1
701.2036, 164690.1
701.6857, 165068.3
702.1678, 165398.4
702.6499, 165650.2
703.1320, 165735.9
703.6141, 165736.3
704.0963, 165861.6
704.5784, 166228.1
705.0605, 166559.8
705.5426, 166809.2
706.0247, 166978.8
706.5068, 167044.8
706.9890, 166990.2
707.4711, 166978.2
707.9532, 167136.5
708.4353, 167390.2
708.9174, 167514.4
709.3995, 167525.4
709.8817, 167578.0
710.3638, 167833.9
710.8459, 168142.0
711.3280, 168366.7
711.8101, 168488.7
712.2922, 168588.5
712.7744, 168626.8
713.2565, 168698.5
713.7386, 168876.6
714.2207, 169235.8
714.7028, 169505.2
715.1849, 169667.7
715.6671, 169774.5
716.1492, 169881.2
716.6313, 169986.5
717.1134, 170081.5
717.5955, 170160.3
718.0776, 170239.4
718.5598, 170324.4
719.0419, 170425.2
719.5240, 170561.8
720.0061, 170775.7
720.4882, 170986.5
720.9703, 171149.0
721.4525, 171283.5
721.9346, 171437.4
722.4167, 171661.9
722.8988, 171847.9
723.3809, 171955.2
723.8630, 172011.0
724.3452, 172129.2
724.8273, 172315.2
725.3094, 172519.3
725.7915, 172722.3
726.2736, 172923.5
726.7557, 173124.8
727.2379, 173324.9
727.7200, 173513.8
728.2021, 173715.9
728.6842, 173881.7
729.1663, 173932.3
729.6484, 173856.2
730.1306, 173871.4
730.6127, 174109.6
731.0948, 174400.9
731.5769, 174660.1
732.0590, 174894.6
732.5411, 175070.1
733.0233, 175174.5
733.5054, 175247.6
733.9875, 175287.2
734.4696, 175312.1
734.9517, 175490.3
735.4338, 175866.0
735.9160, 176244.8
736.3981, 176405.9
736.8802, 176449.9
737.3623, 176522.5
737.8444, 176663.5
738.3266, 176836.8
738.8087, 177057.5
739.2908, 177294.4
739.7729, 177497.7
740.2551, 177639.0
740.7372, 177796.1
741.2193, 177972.6
741.7014, 178173.9
742.1835, 178431.3
742.6656, 178744.9
743.1478, 179023.3
743.6299, 179261.7
744.1120, 179421.8
744.5941, 179343.3
745.0762, 179120.3
745.5583, 179042.4
746.0405, 179409.6
746.5226, 179816.7
747.0047, 180003.3
747.4868, 180014.0
747.9689, 180133.3
748.4510, 180498.1
748.9332, 180840.9
749.4153, 181080.5
749.8974, 181222.1
750.3795, 181313.7
750.8616, 181339.0
751.3438, 181432.5
751.8259, 181727.0
752.3080, 182141.4
752.7901, 182519.6
753.2722, 182853.0
753.7543, 183096.4
754.2365, 183165.1
754.7186, 183169.4
755.2007, 183165.1
755.6828, 183136.9
756.1649, 183241.0
756.6470, 183628.2
757.1292, 184046.8
757.6113, 184351.9
758.0934, 184527.3
758.5755, 184639.3
759.0576, 184661.0
759.5397, 184713.1
760.0219, 184976.5
760.5040, 185377.5
760.9861, 185654.1
761.4682, 185739.4
761.9503, 185831.5
762.4324, 186127.4
762.9146, 186503.0
763.3967, 186812.6
763.8788, 186988.4
764.3609, 187149.6
764.8430, 187335.1
765.3251, 187502.0
765.8073, 187576.0
766.2894, 187497.8
766.7715, 187574.9
767.2536, 187889.6
767.7357, 188300.5
768.2178, 188588.6
768.7000, 188769.7
769.1821, 188895.0
769.6642, 188932.9
770.1463, 189002.1
770.6284, 189238.4
771.1105, 189575.4
771.5927, 189884.9
772.0748, 190116.8
772.5569, 190329.9
773.0390, 190545.7
773.5211, 190750.4
774.0032, 190881.7
774.4854, 190893.9
774.9675, 191018.7
775.4496, 191385.3
775.9317, 191856.6
776.4138, 192059.5
776.8959, 192035.8
777.3781, 192021.3
777.8602, 192134.2
778.3423, 192312.6
778.8244, 192516.8
779.3065, 192745.0
779.7886, 192992.3
780.2708, 193317.7
780.7529, 193596.2
781.2350, 193770.2
781.7171, 193855.4
782.1992, 194005.0
782.6813, 194229.6
783.1635, 194471.0
783.6456, 194716.4
784.1277, 194952.3
784.6098, 195124.2
785.0919, 195238.8
785.5740, 195367.0
786.0562, 195576.2
786.5383, 195805.0
787.0204, 195996.9
787.5025, 196150.2
787.9846, 196311.5
788.4667, 196520.1
788.9489, 196710.4
789.4310, 196839.7
789.9131, 196899.3
790.3952, 197057.1
790.8773, 197331.1
791.3594, 197614.0
791.8416, 197811.6
792.3237, 197956.2
792.8058, 198129.4
793.2879, 198336.5
793.7700, 198563.8
794.2521, 198796.3
794.7343, 199049.1
795.2164, 199343.7
795.6985, 199704.8
796.1806, 200016.3
796.6627, 200237.9
797.1448, 200443.1
797.6270, 200681.6
798.1091, 200961.4
798.5912, 201216.4
799.0733, 201454.5
799.5554, 201632.7
800.0375, 201605.3
800.5197, 201514.2
801.0018, 201686.0
801.4839, 202199.5
801.9660, 202667.5
802.4481, 202777.7
802.9302, 202787.6
803.4124, 202920.2
803.8945, 203290.7
804.3766, 203588.3
804.8587, 203751.8
805.3408, 203922.8
805.8229, 204253.8
806.3051, 204743.3
806.7872, 205194.3
807.2693, 205597.2
807.7514, 205924.6
808.2335, 206067.2
808.7156, 206149.5
809.1978, 206375.7
809.6799, 206830.5
810.1620, 207286.4
810.6441, 207655.6
811.1262, 207978.1
811.6083, 208287.8
812.0905, 208577.4
812.5726, 208878.9
813.0547, 209189.3
813.5368, 209512.8
814.0189, 209852.8
814.5010, 210209.0
814.9832, 210586.3
815.4653, 210988.7
815.9474, 211385.2
816.4295, 211746.7
816.9116, 212089.1
817.3937, 212428.9
817.8759, 212738.7
818.3580, 213102.4
818.8401, 213608.4
819.3222, 214124.9
819.8043, 214508.8
820.2864, 214706.5
820.7686, 215044.2
821.2507, 215586.1
821.7328, 216156.6
822.2149, 216501.3
822.6970, 216689.4
823.1791, 216907.2
823.6613, 217211.8
824.1434, 217491.6
824.6255, 217629.0
825.1076, 217718.5
825.5897, 217863.5
826.0718, 218219.4
826.5540, 218424.9
827.0361, 218415.2
827.5182, 218332.3
828.0003, 218363.1
828.4824, 218505.3
828.9645, 218564.2
829.4467, 218497.9
829.9288, 218397.1
830.4109, 218339.3
830.8930, 218323.7
831.3751, 218354.3
831.8572, 218452.8
832.3394, 218549.1
832.8215, 218619.5
833.3036, 218675.4
833.7857, 218729.0
834.2678, 218773.0
834.7499, 218828.6
835.2321, 218887.2
835.7142, 218980.0
836.1963, 219155.9
836.6784, 219401.4
837.1605, 219683.5
837.6426, 220016.2
838.1248, 220280.0
838.6069, 220331.2
839.0890, 220286.0
839.5711, 220263.2
840.0532, 220221.5
840.5353, 220337.0
841.0175, 220700.5
841.4996, 221134.1
841.9817, 221452.0
842.4638, 221651.1
842.9459, 221849.0
843.4280, 222056.4
843.9102, 222265.9
844.3923, 222455.0
844.8744, 222646.2
845.3565, 222875.6
845.8386, 223157.4
846.3207, 223455.2
846.8029, 223793.9
847.2850, 224116.2
847.7671, 224369.6
848.2492, 224519.3
848.7313, 224695.5
849.2134, 224903.4
849.6956, 225121.0
850.1777, 225331.8
850.6598, 225535.5
851.1419, 225726.0
851.6240, 225901.2
852.1061, 226085.0
852.5883, 226327.4
853.0704, 226569.5
853.5525, 226752.7
854.0346, 226837.6
854.5167, 226947.8
854.9988, 227045.7
855.4810, 227225.8
855.9631, 227612.0
856.4452, 228211.3
856.9273, 228615.0
857.4094, 228803.5
857.8915, 228923.0
858.3737, 229072.9
858.8558, 229240.7
859.3379, 229391.1
859.8200, 229512.0
860.3021, 229721.1
860.7842, 230238.9
861.2664, 230694.0
861.7485, 230818.2
862.2306, 230550.9
862.7127, 230599.3
863.1948, 231001.4
863.6769, 231553.0
864.1591, 232201.6
864.6412, 232873.5
865.1233, 233380.7
865.6054, 233734.4
866.0875, 234099.6
866.5696, 234591.7
867.0518, 235119.6
867.5339, 235642.6
868.0160, 236163.2
868.4981, 236614.8
868.9802, 236963.8
869.4623, 237313.9
869.9445, 237669.0
870.4266, 238064.9
870.9087, 238701.3
871.3908, 239569.1
871.8729, 240479.5
872.3550, 241367.5
872.8372, 242220.8
873.3193, 242980.5
873.8014, 243681.9
874.2835, 244481.1
874.7656, 245532.5
875.2477, 246545.6
875.7299, 247438.0
876.2120, 248236.9
876.6941, 249083.9
877.1762, 249975.5
877.6583, 250865.1
878.1404, 251794.5
878.6226, 252633.7
879.1047, 253176.8
879.5869, 253487.8
880.0690, 253745.5
880.5511, 254118.2
881.0332, 254326.9
881.5153, 254253.9
881.9974, 253978.1
882.4796, 253618.9
882.9617, 253157.2
883.4438, 252733.7
883.9259, 252419.5
884.4080, 252090.7
884.8901, 251499.1
885.3723, 250744.0
885.8544, 250055.6
886.3365, 249549.1
886.8186, 249076.3
887.3007, 248528.5
887.7828, 248003.0
888.2650, 247642.8
888.7471, 247527.7
889.2292, 247373.2
889.7113, 247149.8
890.1934, 246895.6
890.6755, 246629.0
891.1577, 246370.5
891.6398, 246184.7
892.1219, 246096.7
892.6040, 246024.8
893.0861, 245853.0
893.5682, 245707.2
894.0504, 245729.9
894.5325, 246072.7
895.0146, 246231.3
895.4967, 246136.0
895.9788, 245985.0
896.4609, 245924.3
896.9431, 245950.1
897.4252, 246048.8
897.9073, 246220.7
898.3894, 246444.1
898.8715, 246753.2
899.3536, 247074.3
899.8358, 247357.8
900.3179, 247597.1
900.8000, 247779.1
901.2821, 247892.9
901.7642, 247964.2
902.2463, 247973.0
902.7285, 247941.3
903.2106, 248058.6
903.6927, 248320.2
904.1748, 248606.7
904.6569, 248831.7
905.1390, 249059.0
905.6212, 249398.5
906.1033, 249807.4
906.5854, 250118.3
907.0675, 250216.8
907.5496, 250281.1
908.0317, 250328.9
908.5139, 250381.2
908.9960, 250498.4
909.4781, 250680.4
909.9602, 250944.5
910.4423, 251339.6
910.9244, 251745.6
911.4066, 252014.3
911.8887, 252186.6
912.3708, 252341.2
912.8529, 252416.5
913.3350, 252590.7
913.8171, 252937.3
914.2993, 253361.8
914.7814, 253772.1
915.2635, 254178.7
915.7456, 254399.6
916.2277, 254373.4
916.7098, 254312.8
917.1920, 254439.8
917.6741, 254700.6
918.1562, 255042.7
918.6383, 255494.8
919.1204, 255869.6
919.6025, 256006.2
920.0847, 256131.3
920.5668, 256424.2
921.0489, 256934.1
921.5310, 257232.4
922.0131, 257293.7
922.4952, 257346.8
922.9774, 257629.9
923.4595, 257996.1
923.9416, 258182.9
924.4237, 258193.0
924.9058, 258309.5
925.3879, 258810.0
925.8701, 259272.4
926.3522, 259510.1
926.8343, 259551.7
927.3164, 259592.2
927.7985, 259618.8
928.2806, 259765.9
928.7628, 260156.5
929.2449, 260642.4
929.7270, 261012.6
930.2091, 261288.2
930.6912, 261536.7
931.1733, 261729.0
931.6555, 261961.4
932.1376, 262330.7
932.6197, 262726.9
933.1018, 262946.6
933.5839, 262965.4
934.0660, 262991.1
934.5482, 263044.2
935.0303, 263169.6
935.5124, 263517.1
935.9945, 263954.3
936.4766, 264222.3
936.9587, 264172.2
937.4409, 264211.4
937.9230, 264541.8
938.4051, 264962.2
938.8872, 265314.4
939.3693, 265579.2
939.8514, 265937.2
940.3336, 266406.2
940.8157, 266817.1
941.2978, 266965.0
941.7799, 267000.9
942.2620, 267162.3
942.7441, 267454.3
943.2263, 267706.6
943.7084, 267739.8
944.1905, 267839.1
944.6726, 268154.2
945.1547, 268637.2
945.6368, 268966.3
946.1190, 269133.6
946.6011, 269329.7
947.0832, 269674.7
947.5653, 270056.3
948.0474, 270328.8
948.5295, 270522.8
949.0117, 270709.7
949.4938, 270905.9
949.9759, 271104.9
950.4580, 271263.8
950.9401, 271455.6
951.4222, 271840.3
951.9044, 272425.3
952.3865, 272832.6
952.8686, 272978.4
953.3507, 273050.9
953.8328, 273217.7
954.3149, 273446.5
954.7971, 273695.3
955.2792, 273942.8
955.7613, 274253.9
956.2434, 274767.0
956.7255, 275188.4
957.2076, 275258.0
957.6898, 274994.7
958.1719, 275116.9
958.6540, 275620.0
959.1361, 276125.5
959.6182, 276327.3
960.1003, 276452.5
960.5825, 276748.2
961.0646, 277178.1
961.5467, 277480.8
962.0288, 277468.2
962.5109, 277543.9
962.9930, 277833.6
963.4752, 278238.8
963.9573, 278492.2
964.4394, 278620.9
964.9215, 278812.7
965.4036, 279160.3
965.8857, 279529.4
966.3679, 279838.6
966.8500, 280093.4
967.3321, 280299.9
967.8142, 280374.8
968.2963, 280562.3
968.7784, 280896.2
969.2606, 281274.3
969.7427, 281624.0
970.2248, 281929.7
970.7069, 282084.8
971.1890, 282083.7
971.6711, 282161.1
972.1533, 282539.5
972.6354, 282990.5
973.1175, 283361.2
973.5996, 283646.6
974.0817, 283949.7
974.5638, 284279.7
975.0460, 284591.5
975.5281, 284852.9
976.0102, 285101.4
976.4923, 285421.4
976.9744, 285797.8
977.4565, 286186.9
977.9387, 286693.4
978.4208, 287064.2
978.9029, 287032.5
979.3850, 286899.2
979.8671, 287116.8
980.3492, 287777.3
980.8314, 288228.6
981.3135, 288374.6
981.7956, 288422.8
982.2777, 288557.7
982.7598, 288762.9
983.2419, 289039.2
983.7241, 289401.2
984.2062, 289705.9
984.6883, 289806.0
985.1704, 289948.4
985.6525, 290262.4
986.1346, 290728.5
986.6168, 291144.8
987.0989, 291512.1
987.5810, 291848.9
988.0631, 292121.5
988.5452, 292407.1
989.0273, 292820.1
989.5095, 293300.6
989.9916, 293689.8
990.4737, 293926.2
990.9558, 294109.0
991.4379, 294218.6
991.9200, 294320.5
992.4022, 294509.9
992.8843, 294779.0
993.3664, 295108.2
993.8485, 295496.9
994.3306, 295906.6
994.8127, 296395.0
995.2949, 296835.5
995.7770, 297072.7
996.2591, 297058.5
996.7412, 297175.7
997.2233, 297431.3
997.7054, 297788.1
998.1876, 298304.0
998.6697, 298871.8
999.1518, 299241.0
999.6339, 299451.1
1000.116, 299665.1
1000.598, 300008.3
1001.080, 300309.2
1001.562, 300482.0
1002.044, 300590.3
1002.527, 300713.6
1003.009, 300838.8
1003.491, 301198.4
1003.973, 301882.3
1004.455, 302580.8
1004.937, 302892.8
1005.419, 303034.6
1005.901, 303282.1
1006.384, 303722.4
1006.866, 304096.0
1007.348, 304329.0
1007.830, 304556.8
1008.312, 304877.4
1008.794, 305260.3
1009.276, 305519.7
1009.758, 305665.9
1010.240, 305794.4
1010.723, 305923.7
1011.205, 306089.8
1011.687, 306341.5
1012.169, 306646.2
1012.651, 306911.4
1013.133, 307115.7
1013.615, 307351.0
1014.097, 307644.6
1014.580, 307938.3
1015.062, 308119.5
1015.544, 308247.5
1016.026, 308450.3
1016.508, 308767.0
1016.990, 309056.6
1017.472, 309190.8
1017.954, 309351.7
1018.436, 309670.0
1018.919, 310131.3
1019.401, 310467.6
1019.883, 310678.9
1020.365, 310833.1
1020.847, 310844.7
1021.329, 310921.7
1021.811, 311373.9
1022.293, 312046.8
1022.776, 312565.8
1023.258, 312761.9
1023.740, 312958.8
1024.222, 313183.8
1024.704, 313426.7
1025.186, 313699.2
1025.668, 313977.3
1026.150, 314119.8
1026.632, 314089.0
1027.115, 314189.2
1027.597, 314803.8
1028.079, 315442.6
1028.561, 315713.6
1029.043, 315638.6
1029.525, 315828.3
1030.007, 316306.0
1030.489, 316833.0
1030.972, 317348.6
1031.454, 317796.5
1031.936, 318084.5
1032.418, 318254.4
1032.900, 318392.8
1033.382, 318359.8
1033.864, 318561.6
1034.346, 319157.9
1034.828, 319827.7
1035.311, 320177.2
1035.793, 320258.5
1036.275, 320376.8
1036.757, 320557.9
1037.239, 320800.9
1037.721, 321186.5
1038.203, 321564.8
1038.685, 321788.6
1039.167, 321879.4
1039.650, 322103.4
1040.132, 322494.7
1040.614, 322859.5
1041.096, 323107.4
1041.578, 323326.0
1042.060, 323648.0
1042.542, 324036.9
1043.024, 324428.1
1043.507, 324782.8
1043.989, 325177.3
1044.471, 325718.2
1044.953, 326203.3
1045.435, 326449.6
1045.917, 326477.0
1046.399, 326502.9
1046.881, 326540.2
1047.364, 326758.6
1047.846, 327598.0
1048.328, 328357.6
1048.810, 328395.7
1049.292, 327908.6
1049.774, 327845.0
1050.256, 328342.5
1050.738, 328797.3
1051.220, 329078.4
1051.703, 329300.8
1052.185, 329618.5
1052.667, 329987.9
1053.149, 330324.7
1053.631, 330594.6
1054.113, 330917.9
1054.595, 331372.3
1055.077, 331840.4
1055.559, 332310.9
1056.042, 332750.0
1056.524, 332846.5
1057.006, 332654.3
1057.488, 332613.3
1057.970, 333104.0
1058.452, 333676.5
1058.934, 334022.1
1059.416, 334270.5
1059.899, 334695.4
1060.381, 335430.0
1060.863, 335844.5
1061.345, 335823.2
1061.827, 335759.3
1062.309, 336115.7
1062.791, 336666.4
1063.273, 337091.7
1063.755, 337365.6
1064.238, 337558.2
1064.720, 337554.2
1065.202, 337650.1
1065.684, 337933.9
1066.166, 338374.3
1066.648, 338982.1
1067.130, 339685.3
1067.612, 340184.9
1068.094, 340328.8
1068.577, 340381.7
1069.059, 340384.8
1069.541, 340458.3
1070.023, 340734.4
1070.505, 341262.4
1070.987, 341719.3
1071.469, 342110.2
1071.951, 342434.8
1072.434, 342669.2
1072.916, 342859.1
1073.398, 343037.1
1073.880, 343218.5
1074.362, 343448.9
1074.844, 343742.8
1075.326, 344086.1
1075.808, 344486.1
1076.291, 344926.4
1076.773, 345413.3
1077.255, 345922.2
1077.737, 346392.5
1078.219, 346814.9
1078.701, 347109.8
1079.183, 347043.9
1079.665, 347032.1
1080.147, 347323.9
1080.630, 347849.6
1081.112, 348179.5
1081.594, 348320.8
1082.076, 348499.3
1082.558, 348814.4
1083.040, 349169.9
1083.522, 349455.5
1084.004, 349739.7
1084.486, 350132.4
1084.969, 350755.8
1085.451, 351155.6
1085.933, 351271.8
1086.415, 351379.0
1086.897, 351714.5
1087.379, 352166.5
1087.861, 352549.4
1088.343, 352872.0
1088.826, 353191.8
1089.308, 353622.9
1089.790, 353892.7
1090.272, 353827.4
1090.754, 353736.6
1091.236, 354233.4
1091.718, 355157.8
1092.200, 355742.3
1092.682, 355850.4
1093.165, 355891.7
1093.647, 356118.2
1094.129, 356359.3
1094.611, 356452.2
1095.093, 356445.1
1095.575, 356740.4
1096.057, 357351.0
1096.539, 357960.4
1097.022, 358470.4
1097.504, 358869.9
1097.986, 359050.0
1098.468, 359149.8
1098.950, 359368.2
1099.432, 359814.8
1099.914, 360153.9
1100.396, 360338.4
1100.879, 360549.2
1101.361, 361034.2
1101.843, 361578.9
1102.325, 361638.4
1102.807, 361367.5
1103.289, 361352.2
1103.771, 362090.9
1104.253, 362726.7
1104.735, 363066.8
1105.218, 363309.8
1105.700, 363754.1
1106.182, 364349.6
1106.664, 364863.8
1107.146, 365277.7
1107.628, 365537.7
1108.110, 365352.4
1108.592, 365272.4
1109.074, 365710.1
1109.557, 366502.4
1110.039, 366961.4
1110.521, 367085.9
1111.003, 367255.3
1111.485, 367593.4
1111.967, 367963.8
1112.449, 368183.9
1112.931, 368390.0
1113.414, 368770.9
1113.896, 369409.9
1114.378, 369827.3
1114.860, 369965.8
1115.342, 370135.5
1115.824, 370577.1
1116.306, 371099.1
1116.788, 371337.0
1117.271, 371421.3
1117.753, 371647.0
1118.235, 372327.1
1118.717, 372805.3
1119.199, 372972.1
1119.681, 373067.1
1120.163, 373316.8
1120.645, 373686.5
1121.127, 374091.5
1121.609, 374525.1
1122.092, 374947.8
1122.574, 375357.5
1123.056, 375720.5
1123.538, 375986.1
1124.020, 376232.7
1124.502, 376660.3
1124.984, 377237.2
1125.466, 377695.5
1125.949, 377976.2
1126.431, 378168.1
1126.913, 378200.7
1127.395, 378278.0
1127.877, 378570.9
1128.359, 379052.7
1128.841, 379576.0
1129.323, 380153.0
1129.806, 380544.8
1130.288, 380546.4
1130.770, 380581.9
1131.252, 381261.7
1131.734, 382150.2
1132.216, 382631.6
1132.698, 382478.7
1133.180, 382551.9
1133.662, 382911.9
1134.145, 383240.0
1134.627, 383163.9
1135.109, 383046.7
1135.591, 383606.0
1136.073, 384584.2
1136.555, 385314.6
1137.037, 385365.1
1137.519, 385529.5
1138.001, 385886.9
1138.484, 386296.1
1138.966, 386563.8
1139.448, 386779.2
1139.930, 387203.7
1140.412, 387823.9
1140.894, 388344.0
1141.376, 388520.7
1141.858, 388755.9
1142.341, 389209.6
1142.823, 389723.4
1143.305, 389925.8
1143.787, 389920.9
1144.269, 390242.1
1144.751, 391013.6
1145.233, 391707.3
1145.715, 392023.5
1146.198, 392168.4
1146.680, 392194.7
1147.162, 392166.2
1147.644, 392398.1
1148.126, 392877.2
1148.608, 393415.5
1149.090, 393990.4
1149.572, 394530.6
1150.054, 395071.8
1150.536, 395485.0
1151.019, 395591.6
1151.501, 395355.8
1151.983, 395400.9
1152.465, 395736.5
1152.947, 396106.1
1153.429, 396369.8
1153.911, 396607.0
1154.393, 396830.6
1154.876, 397096.4
1155.358, 397521.8
1155.840, 398164.4
1156.322, 398811.3
1156.804, 399489.6
1157.286, 400001.9
1157.768, 399995.1
1158.250, 399866.8
1158.733, 400159.9
1159.215, 400778.4
1159.697, 401322.9
1160.179, 401758.2
1160.661, 402036.5
1161.143, 402095.7
1161.625, 402160.0
1162.107, 402531.8
1162.589, 403069.2
1163.072, 403566.8
1163.554, 404003.0
1164.036, 404315.5
1164.518, 404307.3
1165.000, 404486.5
1165.482, 405021.3
1165.964, 405729.1
1166.446, 406336.2
1166.928, 406839.3
1167.411, 407221.6
1167.893, 407468.3
1168.375, 407687.1
1168.857, 407926.5
1169.339, 408125.4
1169.821, 408234.7
1170.303, 408302.6
1170.785, 408471.8
1171.268, 408722.3
1171.750, 408990.5
1172.232, 409235.5
1172.714, 409544.8
1173.196, 409932.2
1173.678, 410427.6
1174.160, 411128.9
1174.642, 411965.1
1175.125, 412336.2
1175.607, 412321.5
1176.089, 412338.2
1176.571, 412621.7
1177.053, 412931.8
1177.535, 413065.3
1178.017, 413256.9
1178.499, 413813.5
1178.981, 414730.7
1179.464, 415196.8
1179.946, 415231.7
1180.428, 415251.1
1180.910, 415444.0
1181.392, 415771.0
1181.874, 416330.7
1182.356, 416958.9
1182.838, 417387.7
1183.320, 417611.3
1183.803, 417913.5
1184.285, 418319.8
1184.767, 418744.1
1185.249, 419104.1
1185.731, 419481.4
1186.213, 420017.7
1186.695, 420597.5
1187.177, 420838.4
1187.660, 420704.3
1188.142, 420821.8
1188.624, 421318.1
1189.106, 421856.9
1189.588, 422127.0
1190.070, 422326.9
1190.552, 422615.0
1191.034, 422988.8
1191.516, 423390.6
1191.999, 423834.8
1192.481, 424149.4
1192.963, 424230.6
1193.445, 424417.1
1193.927, 425339.2
1194.409, 426339.5
1194.891, 426606.8
1195.373, 426077.3
1195.855, 426127.2
1196.338, 426831.5
1196.820, 427459.2
1197.302, 427690.9
1197.784, 427792.1
1198.266, 427954.7
1198.748, 428208.8
1199.230, 428647.8
1199.712, 429336.9
1200.195, 429753.8
1200.677, 429865.9
1201.159, 429924.6
1201.641, 429971.7
1202.123, 430144.4
1202.605, 430766.7
1203.087, 431561.3
1203.569, 432071.8
1204.052, 432154.5
1204.534, 432229.4
1205.016, 432271.0
1205.498, 432462.0
1205.980, 433072.6
1206.462, 433787.8
1206.944, 434213.8
1207.426, 434470.0
1207.908, 434836.6
1208.391, 435436.2
1208.873, 435847.6
1209.355, 436016.9
1209.837, 436215.1
1210.319, 436789.5
1210.801, 437425.8
1211.283, 437679.3
1211.765, 437672.8
1212.247, 437890.1
1212.730, 438500.6
1213.212, 438855.8
1213.694, 438827.2
1214.176, 438832.4
1214.658, 439384.3
1215.140, 440120.7
1215.622, 440656.1
1216.104, 440989.7
1216.587, 441221.1
1217.069, 441258.9
1217.551, 441601.1
1218.033, 442402.4
1218.515, 443204.7
1218.997, 443428.1
1219.479, 443418.1
1219.961, 443532.3
1220.443, 443801.9
1220.926, 444126.9
1221.408, 444475.9
1221.890, 445027.3
1222.372, 445929.3
1222.854, 446668.7
1223.336, 446326.3
1223.818, 445670.8
1224.300, 445610.2
1224.782, 446283.6
1225.265, 446906.1
1225.747, 447476.6
1226.229, 447979.8
1226.711, 448400.0
1227.193, 448781.8
1227.675, 449112.6
1228.157, 449476.6
1228.639, 450020.7
1229.122, 450793.1
1229.604, 451327.3
1230.086, 451604.4
1230.568, 451782.1
1231.050, 451897.4
1231.532, 451988.8
1232.014, 452007.3
1232.496, 452079.5
1232.979, 452388.3
1233.461, 452962.6
1233.943, 453602.2
1234.425, 454318.4
1234.907, 454928.9
1235.389, 455323.1
1235.871, 455613.3
1236.353, 455823.1
1236.835, 456057.2
1237.318, 456501.1
1237.800, 457218.3
1238.282, 457639.9
1238.764, 457751.2
1239.246, 457799.5
1239.728, 457775.3
1240.210, 457922.7
1240.692, 458608.2
1241.175, 459508.8
1241.657, 460183.4
1242.139, 460611.7
1242.621, 460886.3
1243.103, 461008.6
1243.585, 461147.4
1244.067, 461426.3
1244.549, 461740.8
1245.031, 461890.8
1245.514, 462121.8
1245.996, 462852.2
1246.478, 464178.4
1246.960, 464789.5
1247.442, 464699.3
1247.924, 464627.8
1248.406, 465188.1
1248.888, 465727.2
1249.370, 465700.2
1249.853, 465552.4
1250.335, 465941.4
1250.817, 466837.2
1251.299, 467430.3
1251.781, 467699.0
1252.263, 467902.1
1252.745, 468127.9
1253.227, 468407.3
1253.710, 468750.1
1254.192, 469157.3
1254.674, 469702.9
1255.156, 470341.6
1255.638, 470689.1
1256.120, 470750.7
1256.602, 470863.1
1257.084, 471251.1
1257.567, 471671.3
1258.049, 472014.5
1258.531, 472375.6
1259.013, 472913.0
1259.495, 473579.8
1259.977, 474277.4
1260.459, 474972.7
1260.941, 475429.2
1261.423, 475219.9
1261.906, 475193.2
1262.388, 475585.1
1262.870, 476155.8
1263.352, 476556.3
1263.834, 476865.1
1264.316, 477317.6
1264.798, 477905.0
1265.280, 478288.4
1265.762, 478149.7
1266.245, 478160.9
1266.727, 478477.4
1267.209, 478902.5
1267.691, 479160.9
1268.173, 479347.2
1268.655, 479563.4
1269.137, 479835.0
1269.619, 480376.7
1270.102, 481304.9
1270.584, 482239.6
1271.066, 483147.6
1271.548, 483863.0
1272.030, 484014.9
1272.512, 483939.5
1272.994, 483985.3
1273.476, 484193.5
1273.958, 484549.9
1274.441, 485091.5
1274.923, 485561.9
1275.405, 485891.8
1275.887, 486182.4
1276.369, 486518.8
1276.851, 486882.3
1277.333, 487286.2
1277.815, 487703.8
1278.297, 487971.6
1278.780, 488077.8
1279.262, 488241.9
1279.744, 488513.7
1280.226, 488832.8
1280.708, 489104.3
1281.190, 489456.8
1281.672, 490059.5
1282.154, 490805.4
1282.637, 491239.5
1283.119, 491409.3
1283.601, 491795.4
1284.083, 492551.3
1284.565, 493186.3
1285.047, 493365.4
1285.529, 493367.3
1286.011, 493270.3
1286.494, 493162.9
1286.976, 493306.7
1287.458, 493655.8
1287.940, 494099.0
1288.422, 494639.8
1288.904, 495045.2
1289.386, 495024.8
1289.868, 495149.7
1290.350, 495675.8
1290.833, 496348.5
1291.315, 496574.4
1291.797, 496589.1
1292.279, 496902.3
1292.761, 497656.6
1293.243, 498228.2
1293.725, 498469.5
1294.207, 498748.9
1294.689, 499213.1
1295.172, 499716.2
1295.654, 500019.3
1296.136, 500244.6
1296.618, 500546.3
1297.100, 500956.3
1297.582, 501430.7
1298.064, 501993.1
1298.546, 502469.6
1299.029, 502761.9
1299.511, 503094.1
1299.993, 503847.5
1300.475, 504641.2
1300.957, 505071.3
1301.439, 505175.4
1301.921, 505188.3
1302.403, 505117.4
1302.885, 505167.9
1303.368, 505407.0
1303.850, 505732.0
1304.332, 506025.2
1304.814, 506442.3
1305.296, 507143.1
1305.778, 507993.3
1306.260, 508461.5
1306.742, 508659.1
1307.224, 509095.9
1307.707, 509956.1
1308.189, 510689.4
1308.671, 511007.8
1309.153, 511213.4
1309.635, 511377.6
1310.117, 511526.3
1310.599, 511668.4
1311.081, 511847.4
1311.564, 512156.2
1312.046, 512619.6
1312.528, 513148.0
1313.010, 513759.7
1313.492, 514328.5
1313.974, 514816.1
1314.456, 515220.2
1314.938, 515464.0
##END=



