##NAMES=Guanajuatite
##RRUFFID=R080140
##IDEAL CHEMISTRY=Bi^3+^_2_Se^2-^_3_
##LOCALITY=Falun, Dalarna, Sweden
##OWNER=RRUFF
##SOURCE=James Shigley
##DESCRIPTION=Compact mass of silver flattened crystals, exhibiting metallic luster
##STATUS=The identification of this mineral has been confirmed only by single crystal X-ray diffraction.
##URL=rruff.info/R080140
93.30109, 0.0000000E+00
93.78320, 84.46322
94.26532, 86.78835
94.74744, 86.93953
95.22955, 84.68253
95.71167, 81.68772
96.19379, 80.22437
96.67590, 80.99008
97.15802, 81.39383
97.64014, 80.99621
98.12225, 80.02798
98.60437, 78.89657
99.08649, 77.81006
99.56860, 76.55997
100.0507, 74.80116
100.5328, 72.30093
101.0150, 69.78307
101.4971, 67.90700
101.9792, 66.69407
102.4613, 65.31329
102.9434, 63.06062
103.4255, 60.66068
103.9077, 58.68026
104.3898, 57.33506
104.8719, 56.30868
105.3540, 54.87096
105.8361, 52.37921
106.3182, 50.60732
106.8004, 50.01736
107.2825, 50.20259
107.7646, 50.83799
108.2467, 51.82911
108.7288, 53.06844
109.2109, 53.00414
109.6931, 50.35455
110.1752, 47.70778
110.6573, 45.63670
111.1394, 44.13181
111.6215, 42.99111
112.1036, 42.12051
112.5858, 41.58925
113.0679, 40.52130
113.5500, 38.28598
114.0321, 36.00194
114.5142, 34.51334
114.9964, 33.95292
115.4785, 33.80712
115.9606, 33.59604
116.4427, 33.32516
116.9248, 32.94574
117.4069, 32.34309
117.8891, 31.63043
118.3712, 31.00900
118.8533, 30.46205
119.3354, 30.13359
119.8175, 30.07905
120.2996, 30.28912
120.7818, 30.76987
121.2639, 31.69840
121.7460, 33.10167
122.2281, 34.20240
122.7102, 34.52179
123.1923, 34.71062
123.6745, 34.97941
124.1566, 35.39735
124.6387, 36.08194
125.1208, 37.24105
125.6029, 39.06767
126.0850, 41.00615
126.5672, 43.97506
127.0493, 46.52960
127.5314, 47.31517
128.0135, 45.82417
128.4956, 42.76220
128.9777, 40.05687
129.4599, 37.72856
129.9420, 35.81899
130.4241, 34.50185
130.9062, 33.57758
131.3883, 32.76263
131.8704, 31.89969
132.3526, 31.02057
132.8347, 30.29478
133.3168, 29.83850
133.7989, 29.38013
134.2810, 28.65674
134.7632, 27.75625
135.2453, 27.14968
135.7274, 27.24436
136.2095, 27.88763
136.6916, 28.39520
137.1737, 28.79801
137.6559, 29.01506
138.1380, 28.84174
138.6201, 28.16791
139.1022, 27.62598
139.5843, 27.89132
140.0664, 28.52322
140.5486, 28.88687
141.0307, 28.62273
141.5128, 27.92129
141.9949, 27.33923
142.4770, 26.91409
142.9591, 26.56500
143.4413, 26.25755
143.9234, 25.98957
144.4055, 25.75751
144.8876, 25.56309
145.3697, 25.40673
145.8518, 25.26885
146.3340, 25.00566
146.8161, 24.89691
147.2982, 25.17983
147.7803, 25.73663
148.2624, 26.23475
148.7445, 26.32574
149.2267, 25.87957
149.7088, 25.54968
150.1909, 25.34810
150.6730, 25.22165
151.1551, 25.16305
151.6372, 25.16117
152.1194, 25.18172
152.6015, 25.18175
153.0836, 25.14647
153.5657, 25.13186
154.0478, 25.18871
154.5299, 25.24231
155.0121, 25.19954
155.4942, 25.03174
155.9763, 24.82532
156.4584, 24.73228
156.9405, 24.76865
157.4226, 24.74320
157.9048, 24.52059
158.3869, 24.20326
158.8690, 24.03124
159.3511, 24.12920
159.8332, 24.29280
160.3153, 24.23716
160.7975, 23.95465
161.2796, 23.71747
161.7617, 23.79442
162.2438, 24.14866
162.7259, 24.28237
163.2081, 23.90071
163.6902, 23.39072
164.1723, 23.03442
164.6544, 22.85658
165.1365, 22.75471
165.6186, 22.61577
166.1008, 22.42403
166.5829, 22.27017
167.0650, 22.17337
167.5471, 22.11539
168.0292, 22.08849
168.5113, 22.09074
168.9935, 22.12696
169.4756, 22.23996
169.9577, 22.61518
170.4398, 22.68432
170.9219, 22.22742
171.4040, 21.60009
171.8862, 21.06577
172.3683, 20.72749
172.8504, 20.54934
173.3325, 20.44685
173.8146, 20.51283
174.2967, 20.55134
174.7789, 20.54143
175.2610, 20.50655
175.7431, 20.47114
176.2252, 20.44536
176.7073, 20.43015
177.1894, 20.43101
177.6716, 20.60966
178.1537, 20.61186
178.6358, 20.21943
179.1179, 19.60905
179.6000, 19.10647
180.0821, 18.86815
180.5643, 18.85674
181.0464, 18.95020
181.5285, 19.24868
182.0106, 19.49137
182.4927, 19.56193
182.9748, 19.47420
183.4570, 19.27673
183.9391, 18.93873
184.4212, 18.53394
184.9033, 18.21531
185.3854, 17.98336
185.8675, 17.84012
186.3497, 17.83269
186.8318, 17.96607
187.3139, 18.05749
187.7960, 17.96065
188.2781, 17.80673
188.7602, 17.75653
189.2424, 17.87866
189.7245, 18.02626
190.2066, 17.95043
190.6887, 17.54378
191.1708, 17.31114
191.6530, 17.73504
192.1351, 18.26991
192.6172, 18.37492
193.0993, 17.80576
193.5814, 16.93707
194.0635, 16.55575
194.5457, 16.95296
195.0278, 17.27344
195.5099, 17.29900
195.9920, 17.18554
196.4741, 17.06111
196.9562, 16.97875
197.4384, 16.95153
197.9205, 17.02685
198.4026, 17.33334
198.8847, 17.56812
199.3668, 17.63583
199.8489, 17.63547
200.3311, 17.68725
200.8132, 17.85364
201.2953, 18.09594
201.7774, 18.25888
202.2595, 18.33973
202.7416, 18.33384
203.2238, 18.16678
203.7059, 17.92752
204.1880, 17.73573
204.6701, 17.65677
205.1522, 17.66884
205.6343, 17.67793
206.1165, 17.75445
206.5986, 17.75016
207.0807, 17.54318
207.5628, 17.23767
208.0449, 17.01406
208.5270, 16.95821
209.0092, 17.06584
209.4913, 17.33394
209.9734, 18.06158
210.4555, 18.56793
210.9376, 18.38500
211.4197, 17.75587
211.9019, 17.36896
212.3840, 17.61750
212.8661, 18.30633
213.3482, 18.86240
213.8303, 19.33584
214.3124, 19.62054
214.7946, 19.49473
215.2767, 19.05002
215.7588, 18.81110
216.2409, 19.13064
216.7230, 19.71292
217.2052, 19.97575
217.6873, 19.77493
218.1694, 19.54614
218.6515, 19.67192
219.1336, 20.13726
219.6157, 20.52487
220.0979, 20.61315
220.5800, 20.58461
221.0621, 20.64965
221.5442, 20.84862
222.0263, 21.06640
222.5084, 21.20440
222.9906, 21.26213
223.4727, 21.24710
223.9548, 21.00676
224.4369, 20.78910
224.9190, 20.81396
225.4011, 21.13079
225.8833, 21.53592
226.3654, 21.80132
226.8475, 21.90833
227.3296, 21.95792
227.8117, 21.90349
228.2938, 21.83996
228.7760, 21.81732
229.2581, 21.84764
229.7402, 21.92679
230.2223, 22.09407
230.7044, 22.44366
231.1865, 22.57189
231.6687, 22.12726
232.1508, 21.68086
232.6329, 21.66685
233.1150, 22.13093
233.5971, 22.71196
234.0792, 22.86027
234.5614, 22.29150
235.0435, 21.99593
235.5256, 22.14607
236.0077, 22.42077
236.4898, 22.68520
236.9719, 22.88562
237.4541, 22.98281
237.9362, 22.89580
238.4183, 22.47983
238.9004, 22.23901
239.3825, 22.29544
239.8646, 22.40267
240.3468, 22.44239
240.8289, 22.37945
241.3110, 22.20443
241.7931, 21.88096
242.2752, 21.29664
242.7573, 20.90845
243.2395, 20.75607
243.7216, 20.73614
244.2037, 20.83350
244.6858, 21.02174
245.1679, 21.22296
245.6501, 21.35803
246.1322, 21.42690
246.6143, 21.39190
247.0964, 21.20624
247.5785, 20.96437
248.0606, 20.67323
248.5428, 20.35964
249.0249, 20.14093
249.5070, 20.17221
249.9891, 20.51639
250.4712, 20.57991
250.9533, 20.14148
251.4355, 19.61364
251.9176, 19.23465
252.3997, 19.02710
252.8818, 18.94126
253.3639, 18.95716
253.8460, 19.08003
254.3282, 19.18456
254.8103, 19.36472
255.2924, 19.45526
255.7745, 19.26727
256.2566, 18.82739
256.7387, 18.41737
257.2209, 18.25219
257.7030, 18.30163
258.1851, 18.27568
258.6672, 18.16766
259.1493, 17.99031
259.6314, 17.72429
260.1136, 17.37888
260.5957, 17.03379
261.0778, 16.72854
261.5599, 16.46162
262.0420, 16.19976
262.5241, 15.86932
263.0063, 15.63060
263.4884, 15.70674
263.9705, 16.04876
264.4526, 16.22450
264.9347, 16.00920
265.4168, 15.49615
265.8990, 14.89182
266.3811, 14.09128
266.8632, 13.42214
267.3453, 13.20157
267.8274, 13.37434
268.3095, 13.50911
268.7917, 13.47012
269.2738, 13.29615
269.7559, 13.05361
270.2380, 12.73455
270.7201, 12.39557
271.2022, 12.02824
271.6844, 11.65205
272.1665, 11.41099
272.6486, 11.42113
273.1307, 11.49995
273.6128, 11.47008
274.0949, 11.33117
274.5771, 11.14570
275.0592, 10.91423
275.5413, 10.65429
276.0234, 10.48092
276.5055, 10.46578
276.9876, 10.46985
277.4698, 10.36116
277.9519, 10.16473
278.4340, 10.00627
278.9161, 9.982618
279.3982, 10.06535
279.8803, 10.12791
280.3625, 10.16058
280.8446, 10.17473
281.3267, 10.16437
281.8088, 10.14231
282.2909, 10.14077
282.7730, 10.20537
283.2552, 10.30257
283.7373, 10.30464
284.2194, 10.14117
284.7015, 10.01586
285.1836, 10.08193
285.6658, 10.23134
286.1479, 10.29713
286.6300, 10.18147
287.1121, 9.958270
287.5942, 9.780903
288.0764, 9.634094
288.5585, 9.575938
289.0406, 9.743939
289.5227, 9.956826
290.0048, 9.999749
290.4869, 9.772744
290.9691, 9.434892
291.4512, 9.273960
291.9333, 9.359324
292.4154, 9.401413
292.8975, 9.371216
293.3796, 9.243618
293.8618, 8.920753
294.3439, 8.379104
294.8260, 7.856914
295.3081, 7.689929
295.7902, 7.948561
296.2723, 8.228074
296.7545, 8.575963
297.2366, 8.845906
297.7187, 8.887319
298.2008, 8.714252
298.6829, 8.531999
299.1650, 8.615332
299.6472, 9.016191
300.1293, 9.189571
300.6114, 8.873540
301.0935, 8.517917
301.5756, 8.315377
302.0577, 8.250311
302.5399, 8.207767
303.0220, 8.069597
303.5041, 7.846032
303.9862, 7.776978
304.4683, 8.001931
304.9504, 8.229816
305.4326, 8.362105
305.9147, 8.420667
306.3968, 8.451648
306.8789, 8.477349
307.3610, 8.500424
307.8431, 8.539845
308.3253, 8.651238
308.8074, 8.684508
309.2895, 8.588148
309.7716, 8.407034
310.2537, 8.161161
310.7358, 7.840879
311.2180, 7.543699
311.7001, 7.524876
312.1822, 7.965253
312.6643, 8.283144
313.1464, 8.285115
313.6285, 8.184709
314.1107, 8.159954
314.5928, 8.257535
315.0749, 8.381355
315.5570, 8.387416
316.0391, 8.242593
316.5212, 8.099810
317.0034, 7.934988
317.4855, 7.805604
317.9676, 7.732752
318.4497, 7.724782
318.9318, 7.794948
319.4139, 8.018491
319.8961, 8.431703
320.3782, 8.636804
320.8603, 8.484809
321.3424, 8.243781
321.8245, 7.894125
322.3066, 7.528700
322.7888, 7.352980
323.2709, 7.594956
323.7530, 8.169980
324.2351, 8.426137
324.7172, 8.128915
325.1993, 7.824175
325.6815, 7.663078
326.1636, 7.605124
326.6457, 7.604555
327.1278, 7.655879
327.6099, 7.709074
328.0920, 7.612786
328.5742, 7.237609
329.0563, 6.997421
329.5384, 7.074118
330.0205, 7.262255
330.5026, 7.410189
330.9847, 7.473891
331.4669, 7.455821
331.9490, 7.318723
332.4311, 7.007431
332.9132, 6.820648
333.3953, 6.926813
333.8774, 7.080707
334.3596, 7.168025
334.8417, 7.175453
335.3238, 7.136233
335.8059, 7.039948
336.2880, 6.883679
336.7701, 6.866626
337.2523, 7.193664
337.7344, 7.432078
338.2165, 7.296762
338.6986, 6.922088
339.1807, 6.629155
339.6628, 6.635549
340.1450, 6.868616
340.6271, 7.054006
341.1092, 7.158323
341.5913, 7.278773
342.0735, 7.577889
342.5556, 7.871323
343.0377, 7.875311
343.5198, 7.416257
344.0019, 6.835422
344.4840, 6.752408
344.9662, 7.311780
345.4483, 7.729131
345.9304, 7.617404
346.4125, 7.358726
346.8946, 7.205087
347.3767, 7.196325
347.8589, 7.227095
348.3410, 7.186393
348.8231, 7.077064
349.3052, 7.025902
349.7873, 7.106503
350.2694, 7.185449
350.7516, 7.151437
351.2337, 7.029505
351.7158, 6.930697
352.1979, 6.933264
352.6800, 7.010711
353.1621, 7.087379
353.6443, 7.183939
354.1264, 7.227841
354.6085, 7.086650
355.0906, 6.882205
355.5727, 6.826329
356.0548, 7.062744
356.5370, 7.387757
357.0191, 7.537871
357.5012, 7.504364
357.9833, 7.383945
358.4654, 7.139658
358.9475, 6.871162
359.4297, 6.679689
359.9118, 6.565227
360.3939, 6.566269
360.8760, 6.852808
361.3581, 7.330986
361.8402, 7.483330
362.3224, 7.049332
362.8045, 6.474607
363.2866, 6.212409
363.7687, 6.234908
364.2508, 6.348333
364.7329, 6.588379
365.2151, 6.837338
365.6972, 6.834270
366.1793, 6.508453
366.6614, 6.236398
367.1435, 6.419084
367.6256, 6.886545
368.1078, 7.107752
368.5899, 6.850767
369.0720, 6.461275
369.5541, 6.173352
370.0362, 5.985445
370.5183, 5.907256
371.0005, 5.984057
371.4826, 6.138735
371.9647, 6.184464
372.4468, 6.064580
372.9289, 5.990282
373.4110, 6.109804
373.8932, 6.318273
374.3753, 6.404975
374.8574, 6.303767
375.3395, 6.144260
375.8216, 6.085501
376.3037, 6.136117
376.7859, 6.214791
377.2680, 6.426938
377.7501, 6.587523
378.2322, 6.455561
378.7143, 6.059860
379.1964, 5.729815
379.6786, 5.726675
380.1607, 6.020111
380.6428, 6.218848
381.1249, 6.330335
381.6070, 6.355126
382.0891, 6.235710
382.5713, 6.036113
383.0534, 5.857170
383.5355, 5.736236
384.0176, 5.696358
384.4997, 5.795312
384.9818, 6.210071
385.4640, 6.473547
385.9461, 6.449781
386.4282, 6.348632
386.9103, 6.366771
387.3924, 6.521945
387.8745, 6.684899
388.3567, 6.717772
388.8388, 6.607263
389.3209, 6.456097
389.8030, 6.137549
390.2851, 5.911716
390.7672, 5.949323
391.2494, 6.151033
391.7315, 6.310280
392.2136, 6.302838
392.6957, 6.175567
393.1778, 6.108111
393.6599, 6.135439
394.1421, 6.178981
394.6242, 6.334154
395.1063, 6.443857
395.5884, 6.286695
396.0706, 5.841553
396.5527, 5.384979
397.0348, 5.319276
397.5169, 5.773639
397.9990, 6.104598
398.4811, 6.288902
398.9633, 6.362028
399.4454, 6.253435
399.9275, 6.036699
400.4096, 5.884129
400.8917, 5.939084
401.3738, 6.137636
401.8560, 6.191916
402.3381, 6.011719
402.8202, 5.856985
403.3023, 5.799861
403.7844, 5.806778
404.2665, 5.867060
404.7487, 5.983455
405.2308, 6.081429
405.7129, 6.051765
406.1950, 5.886478
406.6771, 5.742455
407.1592, 5.671540
407.6414, 5.604483
408.1235, 5.459691
408.6056, 5.259450
409.0877, 5.126097
409.5698, 5.165033
410.0519, 5.315537
410.5341, 5.452751
411.0162, 5.586457
411.4983, 5.653550
411.9804, 5.525230
412.4625, 5.325513
412.9446, 5.277571
413.4268, 5.494635
413.9089, 5.737873
414.3910, 5.798051
414.8731, 5.711177
415.3552, 5.654648
415.8373, 5.695625
416.3195, 5.772363
416.8016, 5.791004
417.2837, 5.750517
417.7658, 5.712152
418.2479, 5.746043
418.7300, 5.762091
419.2122, 5.580345
419.6943, 5.198892
420.1764, 4.940099
420.6585, 5.122383
421.1406, 5.684823
421.6227, 5.913109
422.1049, 5.488348
422.5870, 5.116089
423.0691, 5.091907
423.5512, 5.309059
424.0333, 5.605874
424.5154, 5.924286
424.9976, 6.196029
425.4797, 6.285225
425.9618, 6.079649
426.4439, 5.901553
426.9260, 5.705138
427.4081, 5.568864
427.8903, 5.603561
428.3724, 5.772252
428.8545, 5.896532
429.3366, 5.811812
429.8187, 5.533837
430.3008, 5.420187
430.7830, 5.708353
431.2651, 5.903573
431.7472, 5.888791
432.2293, 5.753867
432.7114, 5.583966
433.1935, 5.414748
433.6757, 5.283323
434.1578, 5.259365
434.6399, 5.367192
435.1220, 5.495835
435.6041, 5.724174
436.0862, 5.896337
436.5684, 5.925282
437.0505, 5.826808
437.5326, 5.666182
438.0147, 5.453742
438.4968, 5.223325
438.9789, 5.091631
439.4611, 5.061182
439.9432, 5.125327
440.4253, 5.488864
440.9074, 5.851916
441.3895, 5.815228
441.8716, 5.228472
442.3538, 4.633516
442.8359, 4.556786
443.3180, 4.918782
443.8001, 5.261937
444.2822, 5.520974
444.7643, 5.703668
445.2465, 5.804342
445.7286, 5.835447
446.2107, 5.826721
446.6928, 5.749600
447.1749, 5.661105
447.6570, 5.639014
448.1392, 5.674173
448.6213, 5.661788
449.1034, 5.520290
449.5855, 5.318329
450.0677, 5.270998
450.5498, 5.510215
451.0319, 5.602523
451.5140, 5.242493
451.9961, 4.765296
452.4782, 4.609311
452.9604, 4.846267
453.4425, 5.226780
453.9246, 5.521742
454.4067, 5.737730
454.8888, 5.774046
455.3709, 5.467891
455.8531, 5.192434
456.3352, 5.056560
456.8173, 5.049096
457.2994, 5.181429
457.7815, 5.460765
458.2636, 5.758186
458.7458, 5.771461
459.2279, 5.259802
459.7100, 4.969894
460.1921, 5.070405
460.6742, 5.243686
461.1563, 5.309097
461.6385, 5.272102
462.1206, 5.240469
462.6027, 5.313148
463.0848, 5.456812
463.5669, 5.489297
464.0490, 5.358924
464.5312, 5.220257
465.0133, 5.104192
465.4954, 5.017216
465.9775, 4.966342
466.4596, 4.952985
466.9417, 4.975498
467.4239, 5.049907
467.9060, 5.166515
468.3881, 5.265104
468.8702, 5.346811
469.3523, 5.390183
469.8344, 5.340051
470.3166, 5.231990
470.7987, 5.172761
471.2808, 5.225805
471.7629, 5.309783
472.2450, 5.386254
472.7271, 5.442009
473.2093, 5.379010
473.6914, 5.106366
474.1735, 4.784642
474.6556, 4.770052
475.1377, 5.180357
475.6198, 5.447790
476.1020, 5.374626
476.5841, 5.201808
477.0662, 5.132452
477.5483, 5.181243
478.0304, 5.266896
478.5125, 5.331453
478.9947, 5.376449
479.4768, 5.413089
479.9589, 5.408060
480.4410, 5.436439
480.9231, 5.653402
481.4052, 5.832685
481.8874, 5.631080
482.3695, 5.017858
482.8516, 4.412129
483.3337, 4.373715
483.8158, 4.991054
484.2979, 5.422232
484.7801, 5.565391
485.2622, 5.622862
485.7443, 5.677898
486.2264, 5.692986
486.7085, 5.570794
487.1906, 5.234603
487.6728, 4.877671
488.1549, 4.831554
488.6370, 5.121908
489.1191, 5.298287
489.6012, 5.206476
490.0833, 5.028577
490.5655, 4.908633
491.0476, 4.845567
491.5297, 4.834910
492.0118, 4.929924
492.4939, 5.045474
492.9760, 5.046300
493.4582, 4.937765
493.9403, 4.877235
494.4224, 4.970568
494.9045, 5.139902
495.3866, 5.185918
495.8687, 5.095671
496.3509, 4.947639
496.8330, 4.617455
497.3151, 4.319101
497.7972, 4.362287
498.2793, 4.735853
498.7614, 5.091022
499.2436, 5.112037
499.7257, 4.823847
500.2078, 4.685487
500.6899, 4.830875
501.1720, 4.965059
501.6541, 5.090145
502.1363, 5.156739
502.6184, 5.068979
503.1005, 4.822102
503.5826, 4.574710
504.0647, 4.551370
504.5468, 4.784020
505.0290, 4.919434
505.5111, 4.917736
505.9932, 4.861527
506.4753, 4.739368
506.9575, 4.599677
507.4396, 4.528838
507.9217, 4.576508
508.4038, 4.641810
508.8859, 4.552905
509.3680, 4.325192
509.8502, 4.259713
510.3323, 4.499930
510.8144, 4.795207
511.2965, 4.905821
511.7786, 4.856176
512.2607, 4.749473
512.7429, 4.532584
513.2250, 4.331081
513.7071, 4.254306
514.1892, 4.289063
514.6713, 4.386818
515.1534, 4.545877
515.6356, 4.698701
516.1177, 4.697262
516.5998, 4.402503
517.0819, 4.270204
517.5640, 4.438694
518.0461, 4.669372
518.5283, 4.845041
519.0104, 4.938570
519.4925, 4.910800
519.9746, 4.717999
520.4567, 4.435800
520.9388, 4.364635
521.4210, 4.682388
521.9031, 4.878435
522.3852, 4.851946
522.8673, 4.731684
523.3494, 4.554871
523.8315, 4.356445
524.3137, 4.233214
524.7958, 4.325684
525.2779, 4.544370
525.7600, 4.524114
526.2421, 4.171248
526.7242, 3.937701
527.2064, 4.181904
527.6885, 4.568393
528.1706, 4.632299
528.6527, 4.275368
529.1348, 3.968474
529.6169, 4.008914
530.0991, 4.233062
530.5812, 4.385791
531.0633, 4.435376
531.5454, 4.425257
532.0275, 4.363685
532.5096, 4.269708
532.9918, 4.279282
533.4739, 4.490214
533.9560, 4.661582
534.4381, 4.723459
534.9202, 4.732475
535.4023, 4.756854
535.8845, 4.805107
536.3666, 4.828845
536.8487, 4.772589
537.3308, 4.636577
537.8129, 4.530808
538.2950, 4.468088
538.7772, 4.421239
539.2593, 4.085815
539.7414, 4.523941
540.2235, 4.769955
540.7056, 4.834180
541.1877, 4.172140
541.6699, 4.447921
542.1520, 4.347866
542.6341, 4.232399
543.1162, 4.640175
543.5983, 4.083768
544.0804, 4.483246
544.5626, 4.501152
545.0447, 4.693694
545.5268, 4.508079
546.0089, 4.439264
546.4910, 4.748728
546.9731, 4.848736
547.4553, 4.619588
547.9374, 4.823231
548.4195, 4.253614
548.9016, 4.362544
549.3837, 4.764235
549.8658, 4.554101
550.3480, 4.764658
550.8301, 4.814993
551.3122, 4.137185
551.7943, 4.725690
552.2764, 4.766556
552.7585, 4.245117
553.2407, 4.790232
553.7228, 4.346313
554.2049, 4.255419
554.6870, 4.430199
555.1691, 4.328022
555.6512, 4.662500
556.1334, 4.576317
556.6155, 4.452551
557.0976, 4.492803
557.5797, 4.068278
558.0618, 4.506008
558.5439, 4.354745
559.0261, 4.496257
559.5082, 4.704131
559.9903, 4.403877
560.4724, 4.641568
560.9545, 4.045033
561.4366, 4.146525
561.9188, 4.172852
562.4009, 4.645343
562.8830, 4.052875
563.3651, 4.134973
563.8472, 4.504292
564.3293, 4.471723
564.8115, 4.607185
565.2936, 4.410120
565.7757, 4.321405
566.2578, 4.136076
566.7399, 4.078251
567.2220, 4.339558
567.7042, 4.498426
568.1863, 4.406611
568.6684, 4.222762
569.1505, 4.097017
569.6326, 4.066142
570.1147, 4.089465
570.5969, 4.161689
571.0790, 4.265634
571.5611, 4.288866
572.0432, 4.219277
572.5253, 4.095890
573.0074, 3.861619
573.4896, 3.620299
573.9717, 3.538443
574.4538, 3.668357
574.9359, 3.817427
575.4180, 3.891551
575.9001, 3.932120
576.3823, 4.014326
576.8644, 4.139208
577.3465, 4.210511
577.8286, 4.139656
578.3107, 3.974817
578.7928, 3.953969
579.2750, 4.303216
579.7571, 4.499697
580.2392, 4.395541
580.7213, 4.218544
581.2034, 4.175805
581.6855, 4.250199
582.1677, 4.242463
582.6498, 3.952957
583.1319, 3.520044
583.6140, 3.502264
584.0961, 4.090013
584.5782, 4.429217
585.0604, 3.973257
585.5425, 3.424010
586.0246, 3.482573
586.5067, 4.107243
586.9889, 4.545832
587.4710, 4.232968
587.9531, 3.721730
588.4352, 3.721059
588.9174, 4.153968
589.3995, 4.503907
589.8816, 4.553633
590.3637, 4.389136
590.8458, 4.130789
591.3279, 3.677660
591.8101, 3.436588
592.2922, 3.494882
592.7743, 3.673540
593.2564, 3.999801
593.7385, 4.353321
594.2206, 4.510982
594.7028, 4.368920
595.1849, 4.086784
595.6670, 3.575005
596.1491, 4.041760
596.6312, 4.316403
597.1133, 4.409255
597.5955, 3.775851
598.0776, 4.080258
598.5597, 4.008832
599.0418, 3.921996
599.5239, 4.358401
600.0060, 3.830621
600.4882, 4.258737
600.9703, 4.305270
601.4524, 4.526442
601.9345, 4.369458
602.4166, 4.356477
602.8987, 4.193403
603.3809, 3.829522
603.8630, 3.602744
604.3451, 3.489740
604.8272, 3.521072
605.3093, 3.859968
605.7914, 4.248788
606.2736, 4.446423
606.7557, 4.419705
607.2378, 4.265732
607.7199, 4.029447
608.2020, 3.750471
608.6841, 3.645499
609.1663, 3.778068
609.6484, 3.902544
610.1305, 3.974088
610.6126, 3.985093
611.0947, 3.870196
611.5768, 3.642646
612.0590, 3.541733
612.5411, 3.834267
613.0232, 4.191154
613.5053, 4.193533
613.9874, 3.903611
614.4695, 3.638619
614.9517, 3.514639
615.4338, 3.543313
615.9159, 3.786326
616.3980, 4.412252
616.8801, 4.650820
617.3622, 4.155262
617.8444, 3.688066
618.3265, 3.595394
618.8086, 3.737904
619.2907, 3.872589
619.7728, 3.910614
620.2549, 3.932952
620.7371, 4.080781
621.2192, 4.344168
621.7013, 4.456250
622.1834, 4.362262
622.6655, 4.210685
623.1476, 4.014911
623.6298, 3.840058
624.1119, 3.814786
624.5940, 4.001780
625.0761, 4.177921
625.5582, 4.276308
626.0403, 4.288655
626.5225, 4.125903
627.0046, 3.828462
627.4867, 3.660714
627.9688, 3.809247
628.4509, 4.168332
628.9330, 4.402996
629.4152, 4.538307
629.8973, 4.489643
630.3794, 4.029200
630.8615, 3.617221
631.3436, 3.543057
631.8257, 3.730518
632.3079, 3.960481
632.7900, 4.158323
633.2721, 4.270735
633.7542, 4.153841
634.2363, 3.843085
634.7184, 3.680343
635.2006, 3.760867
635.6827, 3.912877
636.1648, 4.014189
636.6469, 4.059708
637.1290, 4.044401
637.6111, 3.890672
638.0933, 3.770328
638.5754, 3.734680
639.0575, 3.764273
639.5396, 3.862192
640.0217, 4.012044
640.5038, 4.151591
640.9860, 4.231605
641.4681, 4.258554
641.9502, 4.265952
642.4323, 4.253783
642.9144, 4.221592
643.3965, 4.105047
643.8787, 4.020427
644.3608, 4.100964
644.8429, 4.304386
645.3250, 4.411808
645.8071, 4.249422
646.2892, 4.026684
646.7714, 3.962301
647.2535, 4.016321
647.7356, 4.066893
648.2177, 4.079941
648.6998, 4.061080
649.1819, 4.000009
649.6641, 3.888866
650.1462, 3.900149
650.6283, 4.300914
651.1104, 4.485152
651.5925, 4.062471
652.0746, 3.529063
652.5568, 3.432873
653.0389, 3.810790
653.5210, 4.241786
654.0031, 4.401414
654.4852, 4.355114
654.9673, 4.260239
655.4495, 4.110034
655.9316, 3.994867
656.4137, 3.972407
656.8958, 3.964483
657.3779, 3.797409
657.8600, 3.472758
658.3422, 3.401955
658.8243, 3.939086
659.3064, 4.435221
659.7885, 4.489058
660.2706, 4.275284
660.7527, 4.052090
661.2349, 3.913269
661.7170, 3.901336
662.1991, 4.116543
662.6812, 4.539401
663.1633, 4.669479
663.6454, 4.307632
664.1276, 4.047503
664.6097, 4.242853
665.0918, 4.516938
665.5739, 4.503640
666.0560, 4.191026
666.5381, 3.921478
667.0203, 3.837780
667.5024, 3.880840
667.9845, 4.066969
668.4666, 4.334290
668.9487, 4.465916
669.4308, 4.375817
669.9130, 4.208381
670.3951, 4.157799
670.8772, 4.242603
671.3593, 4.293292
671.8414, 4.278911
672.3235, 4.266064
672.8057, 4.282278
673.2878, 4.299038
673.7699, 4.283785
674.2520, 4.232688
674.7341, 4.170230
675.2162, 4.099033
675.6984, 4.034887
676.1805, 4.006112
676.6626, 4.012927
677.1447, 4.074126
677.6268, 4.220116
678.1089, 4.369220
678.5911, 4.407094
679.0732, 4.314822
679.5553, 4.199822
680.0374, 3.983920
680.5195, 3.834621
681.0016, 3.796655
681.4838, 3.870040
681.9659, 4.148969
682.4480, 4.601552
682.9301, 4.907662
683.4122, 4.669942
683.8943, 4.058722
684.3765, 3.760472
684.8586, 3.811250
685.3407, 3.994160
685.8228, 4.338087
686.3049, 4.667960
686.7870, 4.710126
687.2692, 4.476174
687.7513, 4.329682
688.2334, 4.379100
688.7155, 4.471102
689.1976, 4.541879
689.6797, 4.594582
690.1619, 4.656283
690.6440, 4.725143
691.1261, 4.739255
691.6082, 4.616890
692.0903, 4.386611
692.5724, 4.259782
693.0546, 4.271842
693.5367, 4.282321
694.0188, 4.196026
694.5009, 4.145190
694.9830, 4.315446
695.4651, 4.665006
695.9473, 4.858750
696.4294, 4.681602
696.9116, 4.434934
697.3937, 4.278096
697.8758, 4.211374
698.3579, 4.256121
698.8400, 4.406176
699.3221, 4.585197
699.8043, 4.735437
700.2864, 4.843565
700.7685, 4.784862
701.2506, 4.425076
701.7327, 4.184053
702.2148, 4.352714
702.6970, 4.492811
703.1791, 4.184968
703.6612, 3.570740
704.1433, 3.241926
704.6254, 3.571918
705.1075, 4.055029
705.5897, 4.366796
706.0718, 4.508395
706.5539, 4.394747
707.0360, 4.035764
707.5181, 3.750579
708.0002, 3.811790
708.4824, 4.149507
708.9645, 4.423175
709.4466, 4.697246
709.9287, 4.780792
710.4108, 4.454285
710.8929, 4.130830
711.3751, 4.013164
711.8572, 4.086394
712.3393, 4.310133
712.8214, 4.756726
713.3035, 5.120877
713.7856, 5.059640
714.2678, 4.741466
714.7499, 4.502149
715.2320, 4.390919
715.7141, 4.371945
716.1962, 4.441362
716.6783, 4.549245
717.1605, 4.531870
717.6426, 4.219264
718.1247, 4.117314
718.6068, 4.397811
719.0889, 4.698462
719.5710, 4.911603
720.0532, 5.017659
720.5353, 4.969185
721.0174, 4.732103
721.4995, 4.517328
721.9816, 4.508950
722.4637, 4.636540
722.9459, 4.815611
723.4280, 5.022684
723.9101, 5.066066
724.3922, 4.814952
724.8743, 4.472458
725.3564, 4.445636
725.8386, 4.887238
726.3207, 5.092791
726.8028, 4.930166
727.2849, 4.692498
727.7670, 4.286061
728.2491, 3.946767
728.7313, 4.070350
729.2134, 4.692732
729.6955, 5.170854
730.1776, 4.872875
730.6597, 4.252465
731.1418, 4.039741
731.6240, 4.181429
732.1061, 4.294112
732.5882, 4.238465
733.0703, 4.170273
733.5524, 4.307931
734.0345, 4.669911
734.5167, 4.791179
734.9988, 4.420835
735.4809, 4.131812
735.9630, 4.028894
736.4451, 4.025808
736.9272, 4.071086
737.4094, 4.149740
737.8915, 4.240832
738.3736, 4.326490
738.8557, 4.428604
739.3378, 4.616231
739.8199, 4.841005
740.3021, 4.953125
740.7842, 4.922689
741.2663, 4.807979
741.7484, 4.636536
742.2305, 4.434798
742.7126, 4.333805
743.1948, 4.365660
743.6769, 4.442869
744.1590, 4.621276
744.6411, 4.781207
745.1232, 4.873860
745.6053, 4.897874
746.0875, 4.837095
746.5696, 4.657401
747.0517, 4.520960
747.5338, 4.592776
748.0159, 4.773674
748.4980, 4.927672
748.9802, 5.032348
749.4623, 5.027458
749.9444, 4.870212
750.4265, 4.657712
750.9086, 4.576960
751.3907, 4.667006
751.8729, 4.705393
752.3550, 4.701306
752.8371, 4.629613
753.3192, 4.331200
753.8013, 4.053577
754.2834, 4.115601
754.7656, 4.545223
755.2477, 4.975808
755.7298, 5.308860
756.2119, 5.504708
756.6940, 5.458268
757.1761, 5.252889
757.6583, 5.081216
758.1404, 4.996703
758.6225, 4.940038
759.1046, 4.842469
759.5867, 4.724221
760.0688, 4.753681
760.5510, 5.054533
761.0331, 5.165061
761.5152, 4.815610
761.9973, 4.435416
762.4794, 4.361376
762.9615, 4.510114
763.4437, 4.603574
763.9258, 4.536380
764.4079, 4.493586
764.8900, 4.583829
765.3721, 4.732895
765.8542, 4.873664
766.3364, 4.991534
766.8185, 5.082844
767.3006, 5.146319
767.7827, 5.172368
768.2648, 5.117936
768.7469, 4.977034
769.2291, 4.948812
769.7112, 5.112746
770.1933, 5.192797
770.6754, 4.980357
771.1575, 4.655059
771.6396, 4.527901
772.1218, 4.621195
772.6039, 4.721160
773.0860, 4.841682
773.5681, 4.909244
774.0502, 4.841402
774.5323, 4.716475
775.0145, 4.631844
775.4966, 4.614068
775.9787, 4.661691
776.4608, 4.826501
776.9429, 5.005761
777.4250, 4.861896
777.9072, 4.408549
778.3893, 4.249932
778.8714, 4.603697
779.3535, 4.978701
779.8356, 4.912743
780.3177, 4.487711
780.7999, 4.265368
781.2820, 4.393431
781.7641, 4.506277
782.2462, 4.596084
782.7283, 4.656798
783.2104, 4.641233
783.6926, 4.602541
784.1747, 4.661199
784.6568, 4.870911
785.1389, 5.079467
785.6210, 5.181315
786.1031, 5.176313
786.5853, 4.991218
787.0674, 4.663563
787.5495, 4.467335
788.0316, 4.525416
788.5137, 4.746670
788.9958, 5.045966
789.4780, 5.451787
789.9601, 5.501234
790.4422, 4.841949
790.9243, 4.394608
791.4064, 4.509301
791.8885, 4.806602
792.3707, 5.027449
792.8528, 5.159854
793.3349, 5.256812
793.8170, 5.385170
794.2991, 5.417350
794.7813, 5.201736
795.2634, 4.879588
795.7455, 4.592224
796.2276, 4.390336
796.7097, 4.383327
797.1918, 4.656321
797.6740, 5.025377
798.1561, 5.094612
798.6382, 4.848069
799.1203, 4.744367
799.6024, 4.852180
800.0845, 4.977265
800.5667, 5.020737
801.0488, 5.026818
801.5309, 5.094347
802.0130, 5.249949
802.4951, 5.298936
802.9772, 5.096415
803.4594, 4.931254
803.9415, 5.014838
804.4236, 5.153996
804.9057, 5.064938
805.3878, 4.749556
805.8699, 4.493305
806.3521, 4.487818
806.8342, 4.644948
807.3163, 4.932007
807.7985, 5.279854
808.2806, 5.345737
808.7627, 5.063454
809.2448, 4.751991
809.7269, 4.623853
810.2090, 4.653838
810.6912, 4.773798
811.1733, 5.041873
811.6554, 5.263817
812.1375, 5.510844
812.6196, 5.623900
813.1017, 5.467796
813.5839, 5.181237
814.0660, 4.924109
814.5481, 4.716291
815.0302, 4.588815
815.5123, 4.557941
815.9944, 4.610417
816.4766, 4.782932
816.9587, 5.015807
817.4408, 5.219038
817.9229, 5.364291
818.4050, 5.434747
818.8871, 5.403445
819.3693, 5.311417
819.8514, 5.263338
820.3335, 5.259923
820.8156, 5.290564
821.2977, 5.359367
821.7798, 5.453085
822.2620, 5.612893
822.7441, 5.768775
823.2262, 5.689993
823.7083, 5.160813
824.1904, 4.899678
824.6725, 5.192261
825.1547, 5.460907
825.6368, 5.402246
826.1189, 5.183794
826.6010, 5.042148
827.0831, 5.019313
827.5652, 4.996113
828.0474, 4.822515
828.5295, 4.664527
829.0116, 4.748808
829.4937, 5.006122
829.9758, 5.298367
830.4579, 5.582440
830.9401, 5.765527
831.4222, 5.769226
831.9043, 5.640872
832.3864, 5.520060
832.8685, 5.415230
833.3506, 5.258075
833.8328, 4.936556
834.3149, 4.768677
834.7970, 5.080013
835.2791, 5.583810
835.7612, 5.745109
836.2433, 5.498510
836.7255, 5.275548
837.2076, 5.064808
837.6897, 4.981705
838.1718, 5.223361
838.6539, 5.543020
839.1360, 5.620669
839.6182, 5.438068
840.1003, 5.226790
840.5824, 5.128419
841.0645, 5.086165
841.5466, 4.999669
842.0287, 4.904906
842.5109, 4.945570
842.9930, 5.133850
843.4751, 5.316757
843.9572, 5.401983
844.4393, 5.418427
844.9214, 5.425524
845.4036, 5.428030
845.8857, 5.392412
846.3678, 5.283162
846.8499, 5.198109
847.3320, 5.165341
847.8141, 5.180303
848.2963, 5.281028
848.7784, 5.456448
849.2605, 5.509173
849.7426, 5.259255
850.2247, 5.057760
850.7068, 5.104131
851.1890, 5.221006
851.6711, 5.208251
852.1532, 5.093957
852.6353, 5.053281
853.1174, 5.183615
853.5995, 5.319143
854.0817, 5.248642
854.5638, 5.040627
855.0459, 4.851103
855.5280, 4.695075
856.0101, 4.623789
856.4922, 4.662381
856.9744, 4.749425
857.4565, 4.810238
857.9386, 4.845366
858.4207, 4.857745
858.9028, 4.811960
859.3849, 4.830742
859.8671, 4.977508
860.3492, 5.152101
860.8313, 5.283618
861.3134, 5.384693
861.7955, 5.507693
862.2776, 5.748539
862.7598, 5.795964
863.2419, 5.373506
863.7240, 4.925117
864.2061, 4.742253
864.6882, 4.748596
865.1703, 4.787958
865.6525, 4.817078
866.1346, 4.873391
866.6167, 5.043199
867.0988, 5.212941
867.5809, 5.139885
868.0630, 4.909933
868.5452, 4.848845
869.0273, 5.012066
869.5094, 5.164210
869.9915, 5.128522
870.4736, 4.980551
870.9557, 4.917655
871.4379, 4.955488
871.9200, 4.986826
872.4021, 4.997753
872.8842, 5.026656
873.3663, 5.107917
873.8484, 5.202960
874.3306, 5.277259
874.8127, 5.337304
875.2948, 5.274691
875.7769, 4.960040
876.2590, 4.680792
876.7411, 4.503033
877.2233, 4.408827
877.7054, 4.410630
878.1875, 4.479260
878.6696, 4.559740
879.1517, 4.645147
879.6339, 4.668505
880.1160, 4.467013
880.5981, 4.239574
881.0802, 4.334404
881.5623, 4.662469
882.0444, 4.871843
882.5266, 4.843893
883.0087, 4.723029
883.4908, 4.664425
883.9729, 4.631820
884.4550, 4.429553
884.9371, 4.037620
885.4193, 3.858734
885.9014, 4.004464
886.3835, 4.239062
886.8656, 4.418063
887.3477, 4.553608
887.8298, 4.693347
888.3120, 4.918033
888.7941, 4.927713
889.2762, 4.446831
889.7583, 4.088212
890.2404, 4.156243
890.7225, 4.351075
891.2047, 4.356799
891.6868, 4.170877
892.1689, 4.000111
892.6510, 3.876791
893.1331, 3.828144
893.6152, 4.013193
894.0974, 4.174177
894.5795, 3.842894
895.0616, 3.247112
895.5437, 3.148776
896.0258, 3.860403
896.5079, 4.681295
896.9901, 4.829048
897.4722, 4.540445
897.9543, 4.310381
898.4364, 4.147783
898.9185, 4.049294
899.4006, 4.015169
899.8828, 4.012444
900.3649, 4.021657
900.8470, 4.023346
901.3291, 3.916673
901.8112, 3.646439
902.2933, 3.564074
902.7755, 3.790535
903.2576, 3.993521
903.7397, 3.991191
904.2218, 3.880951
904.7039, 3.804446
905.1860, 3.758894
905.6682, 3.775851
906.1503, 3.855897
906.6324, 3.998911
907.1145, 4.398695
907.5966, 4.698604
908.0787, 4.463920
908.5609, 3.890227
909.0430, 3.589703
909.5251, 3.813409
910.0072, 4.074826
910.4893, 4.096590
910.9714, 4.017764
911.4536, 3.956936
911.9357, 3.912245
912.4178, 3.843338
912.8999, 3.749428
913.3820, 3.702586
913.8641, 3.777916
914.3463, 3.908551
914.8284, 3.958768
915.3105, 3.950864
915.7926, 4.024195
916.2748, 4.190697
916.7569, 4.211864
917.2390, 3.929106
917.7211, 3.581110
918.2032, 3.607852
918.6854, 4.033078
919.1675, 4.151971
919.6496, 3.837270
920.1317, 3.614311
920.6138, 3.666929
921.0959, 3.778494
921.5781, 3.774760
922.0602, 3.671659
922.5423, 3.538665
923.0244, 3.252885
923.5065, 3.165153
923.9886, 3.491378
924.4708, 3.788772
924.9529, 3.817085
925.4350, 3.731866
925.9171, 3.741253
926.3992, 3.861578
926.8813, 3.951872
927.3635, 3.954261
927.8456, 3.915235
928.3277, 3.898263
928.8098, 3.827583
929.2919, 3.486046
929.7740, 3.024714
930.2562, 2.907754
930.7383, 3.323881
931.2204, 3.794042
931.7025, 3.807794
932.1846, 3.575797
932.6667, 3.446167
933.1489, 3.418665
933.6310, 3.485189
934.1131, 3.638815
934.5952, 3.848448
935.0773, 4.108417
935.5594, 4.338295
936.0416, 4.316367
936.5237, 4.040387
937.0058, 3.796149
937.4879, 3.585464
937.9700, 3.477295
938.4521, 3.518462
938.9343, 3.635116
939.4164, 3.775393
939.8985, 3.926295
940.3806, 3.839285
940.8627, 3.296157
941.3448, 2.948588
941.8270, 2.994134
942.3091, 3.085841
942.7912, 2.977515
943.2733, 2.825459
943.7554, 2.943619
944.2375, 3.407303
944.7197, 3.619411
945.2018, 3.157137
945.6839, 2.835445
946.1660, 3.128429
946.6481, 3.560781
947.1302, 3.689689
947.6124, 3.562229
948.0945, 3.471978
948.5766, 3.542091
949.0587, 3.533841
949.5408, 3.112952
950.0229, 2.703857
950.5051, 2.828820
950.9872, 3.249515
951.4693, 3.489403
951.9514, 3.462094
952.4335, 3.366900
952.9156, 3.328979
953.3978, 3.328145
953.8799, 3.347554
954.3620, 3.378217
954.8441, 3.390692
955.3262, 3.387132
955.8083, 3.402008
956.2905, 3.449039
956.7726, 3.499626
957.2547, 3.529002
957.7368, 3.528718
958.2189, 3.412361
958.7010, 3.164363
959.1832, 3.175498
959.6653, 3.566953
960.1474, 3.886502
960.6295, 3.839632
961.1116, 3.633956
961.5938, 3.690997
962.0759, 4.078532
962.5580, 4.031923
963.0401, 3.215365
963.5222, 2.680731
964.0043, 2.821114
964.4865, 3.105292
964.9686, 3.116575
965.4507, 2.956304
965.9328, 2.947266
966.4149, 3.145488
966.8970, 3.342514
967.3792, 3.664703
967.8613, 3.812092
968.3434, 3.546910
968.8255, 3.150872
969.3076, 2.816627
969.7897, 2.604090
970.2719, 2.670125
970.7540, 3.230835
971.2361, 3.693402
971.7182, 3.796911
972.2003, 3.724815
972.6824, 3.516167
973.1646, 3.278888
973.6467, 3.172092
974.1288, 3.213886
974.6109, 3.275038
975.0930, 3.296077
975.5751, 3.279644
976.0573, 3.156501
976.5394, 3.039312
977.0215, 3.123976
977.5036, 3.373225
977.9857, 3.650672
978.4678, 3.897563
978.9500, 4.041643
979.4321, 4.014315
979.9142, 3.835228
980.3963, 3.394975
980.8784, 2.835487
981.3605, 2.765305
981.8427, 3.221758
982.3248, 3.658731
982.8069, 3.787893
983.2890, 3.703651
983.7711, 3.503546
984.2532, 3.210328
984.7354, 2.957595
985.2175, 2.741831
985.6996, 2.734898
986.1817, 3.009194
986.6638, 3.260762
987.1459, 3.274422
987.6281, 3.124912
988.1102, 2.964639
988.5923, 2.780372
989.0744, 2.680870
989.5565, 2.674594
990.0386, 2.734347
990.5208, 2.886724
991.0029, 3.044499
991.4850, 3.138088
991.9671, 3.172190
992.4492, 3.155858
992.9313, 3.009103
993.4135, 3.007530
993.8956, 3.317574
994.3777, 3.548542
994.8598, 3.545165
995.3419, 3.435896
995.8240, 3.272170
996.3062, 3.090503
996.7883, 3.088110
997.2704, 3.472672
997.7525, 3.692739
998.2346, 3.518347
998.7167, 3.339702
999.1989, 3.457985
999.6810, 3.615469
1000.163, 3.392576
1000.645, 2.826462
1001.127, 2.503541
1001.609, 2.707004
1002.092, 3.005440
1002.574, 3.351207
1003.056, 3.606616
1003.538, 3.600626
1004.020, 3.450981
1004.502, 3.341439
1004.984, 3.313454
1005.466, 3.337735
1005.948, 3.461642
1006.431, 3.543144
1006.913, 3.399209
1007.395, 3.213397
1007.877, 3.206793
1008.359, 3.346465
1008.841, 3.547868
1009.323, 3.765538
1009.805, 3.848599
1010.288, 3.582856
1010.770, 3.236794
1011.252, 3.128119
1011.734, 3.178082
1012.216, 3.295914
1012.698, 3.433010
1013.180, 3.498134
1013.662, 3.452505
1014.144, 3.304519
1014.627, 2.976965
1015.109, 2.627242
1015.591, 2.625550
1016.073, 2.871171
1016.555, 3.069352
1017.037, 3.167768
1017.519, 3.128806
1018.001, 2.930168
1018.484, 2.741074
1018.966, 2.797893
1019.448, 3.038259
1019.930, 3.285195
1020.412, 3.522378
1020.894, 3.589634
1021.376, 3.461336
1021.858, 3.285512
1022.340, 3.139780
1022.823, 3.042359
1023.305, 3.045675
1023.787, 3.129819
1024.269, 3.069381
1024.751, 2.852250
1025.233, 2.735802
1025.715, 2.781865
1026.197, 2.849740
1026.680, 2.848198
1027.162, 2.821056
1027.644, 2.851779
1028.126, 2.941587
1028.608, 3.038544
1029.090, 3.148258
1029.572, 3.238860
1030.054, 3.309212
1030.536, 3.339261
1031.019, 3.306754
1031.501, 3.238822
1031.983, 3.209704
1032.465, 3.247160
1032.947, 3.068443
1033.429, 2.497238
1033.911, 2.180678
1034.393, 2.343916
1034.875, 2.647817
1035.358, 2.903498
1035.840, 3.093129
1036.322, 3.166748
1036.804, 3.101610
1037.286, 3.024782
1037.768, 2.873699
1038.250, 2.827872
1038.732, 3.006912
1039.215, 3.203591
1039.697, 3.252141
1040.179, 3.213562
1040.661, 3.249396
1041.143, 3.397063
1041.625, 3.480515
1042.107, 3.501506
1042.589, 3.455219
1043.072, 3.233119
1043.554, 3.045768
1044.036, 3.129334
1044.518, 3.341734
1045.000, 3.282243
1045.482, 2.781490
1045.964, 2.646733
1046.446, 3.344577
1046.928, 3.857129
1047.411, 3.893467
1047.893, 3.687121
1048.375, 3.161038
1048.857, 2.582597
1049.339, 2.668441
1049.821, 3.711722
1050.303, 4.236538
1050.785, 3.524171
1051.267, 2.914863
1051.750, 2.876243
1052.232, 3.063040
1052.714, 3.346305
1053.196, 3.598033
1053.678, 3.527017
1054.160, 3.020420
1054.642, 2.691455
1055.124, 2.798777
1055.607, 2.954808
1056.089, 3.072367
1056.571, 3.131939
1057.053, 3.053884
1057.535, 2.927899
1058.017, 2.974619
1058.499, 3.258389
1058.981, 3.421738
1059.464, 3.168558
1059.946, 3.017642
1060.428, 3.363851
1060.910, 3.734044
1061.392, 3.645271
1061.874, 3.294318
1062.356, 3.153723
1062.838, 3.323562
1063.320, 3.466523
1063.802, 3.427769
1064.285, 3.382046
1064.767, 3.444690
1065.249, 3.498537
1065.731, 3.421792
1066.213, 3.266060
1066.695, 3.118381
1067.177, 2.999045
1067.659, 2.987989
1068.142, 3.342494
1068.624, 3.520004
1069.106, 2.922133
1069.588, 2.362098
1070.070, 2.753673
1070.552, 3.596833
1071.034, 3.837245
1071.516, 3.319739
1071.999, 2.967843
1072.481, 3.339233
1072.963, 3.728929
1073.445, 3.900283
1073.927, 3.872665
1074.409, 3.533862
1074.891, 3.069152
1075.373, 2.739039
1075.855, 2.594205
1076.338, 2.590710
1076.820, 2.831365
1077.302, 3.009736
1077.784, 2.896077
1078.266, 2.744034
1078.748, 2.751700
1079.230, 2.854198
1079.712, 2.937192
1080.194, 2.987654
1080.677, 3.060084
1081.159, 3.199958
1081.641, 3.310094
1082.123, 3.271473
1082.605, 3.625838
1083.087, 3.788070
1083.569, 3.768537
1084.052, 3.022546
1084.534, 3.214549
1085.016, 3.030738
1085.498, 2.831495
1085.980, 3.155517
1086.462, 2.515337
1086.944, 2.659483
1087.426, 2.946935
1087.908, 3.302372
1088.391, 3.165786
1088.873, 2.675851
1089.355, 2.527729
1089.837, 3.037436
1090.319, 3.371300
1090.801, 2.911957
1091.283, 2.522471
1091.765, 2.841099
1092.247, 3.344026
1092.730, 3.507282
1093.212, 3.372311
1093.694, 3.178681
1094.176, 2.966430
1094.658, 2.820319
1095.140, 2.818790
1095.622, 2.829135
1096.104, 2.720190
1096.587, 2.661285
1097.069, 2.935326
1097.551, 3.329657
1098.033, 3.341580
1098.515, 2.867522
1098.997, 2.536393
1099.479, 2.636034
1099.961, 2.760169
1100.443, 2.754556
1100.926, 2.743236
1101.408, 2.833493
1101.890, 2.968837
1102.372, 3.059745
1102.854, 3.095561
1103.336, 3.094434
1103.818, 2.980628
1104.300, 2.947501
1104.782, 3.159401
1105.265, 3.324356
1105.747, 3.248010
1106.229, 3.058731
1106.711, 2.884358
1107.193, 2.746063
1107.675, 2.709997
1108.157, 2.871281
1108.639, 2.966102
1109.122, 2.861453
1109.604, 2.809097
1110.086, 3.026734
1110.568, 3.244523
1111.050, 3.152523
1111.532, 2.834840
1112.014, 2.632386
1112.496, 2.577450
1112.979, 2.590632
1113.461, 2.825723
1113.943, 2.913791
1114.425, 2.577224
1114.907, 2.256893
1115.389, 2.308424
1115.871, 2.586189
1116.353, 2.785188
1116.835, 2.918243
1117.318, 2.886663
1117.800, 2.510213
1118.282, 2.309673
1118.764, 2.496073
1119.246, 2.670412
1119.728, 2.260691
1120.210, 2.716131
1120.692, 2.979464
1121.174, 3.061003
1121.657, 2.416316
1122.139, 2.709415
1122.621, 2.626675
1123.103, 2.528528
1123.585, 3.033529
1124.067, 3.154253
1124.549, 3.135648
1125.031, 2.987109
1125.514, 2.744605
1125.996, 2.564280
1126.478, 2.431097
1126.960, 2.475871
1127.442, 2.764764
1127.924, 2.935979
1128.406, 2.862437
1128.888, 2.710881
1129.370, 2.601334
1129.853, 2.533776
1130.335, 2.500509
1130.817, 2.501634
1131.299, 2.648289
1131.781, 2.957531
1132.263, 3.010983
1132.745, 2.706765
1133.227, 2.470411
1133.709, 2.558388
1134.192, 2.749429
1134.674, 2.693634
1135.156, 2.490645
1135.638, 2.646111
1136.120, 3.081322
1136.602, 3.131208
1137.084, 2.756190
1137.566, 2.382139
1138.049, 2.180729
1138.531, 2.155663
1139.013, 2.341111
1139.495, 2.629059
1139.977, 2.859232
1140.459, 3.005380
1140.941, 2.928658
1141.423, 2.696855
1141.906, 2.587945
1142.388, 2.659719
1142.870, 2.770460
1143.352, 2.834706
1143.834, 2.883613
1144.316, 2.999960
1144.798, 3.090822
1145.280, 3.001201
1145.762, 2.782083
1146.245, 2.475659
1146.727, 2.149778
1147.209, 1.961098
1147.691, 1.970195
1148.173, 2.125804
1148.655, 2.496056
1149.137, 2.876609
1149.619, 3.122131
1150.101, 3.250917
1150.584, 3.275537
1151.066, 3.200948
1151.548, 2.993611
1152.030, 2.671791
1152.512, 2.391117
1152.994, 2.149994
1153.476, 2.108671
1153.958, 2.608011
1154.441, 3.044563
1154.923, 2.873657
1155.405, 2.506804
1155.887, 2.507897
1156.369, 2.794017
1156.851, 2.833277
1157.333, 2.399186
1157.815, 2.217499
1158.297, 2.761131
1158.780, 3.148453
1159.262, 2.962883
1159.744, 2.662154
1160.226, 2.564201
1160.708, 2.586490
1161.190, 2.520279
1161.672, 2.343992
1162.154, 2.409245
1162.636, 2.931238
1163.119, 3.291342
1163.601, 3.416975
1164.083, 3.430566
1164.565, 3.398136
1165.047, 3.233906
1165.529, 2.750698
1166.011, 2.107690
1166.493, 1.999444
1166.976, 2.574251
1167.458, 2.944469
1167.940, 3.097997
1168.422, 3.090838
1168.904, 2.919051
1169.386, 2.656714
1169.868, 2.318475
1170.350, 2.067275
1170.833, 2.229417
1171.315, 2.707167
1171.797, 2.918173
1172.279, 2.882680
1172.761, 2.814456
1173.243, 2.744810
1173.725, 2.724635
1174.207, 2.770782
1174.689, 2.770190
1175.172, 2.581915
1175.654, 2.402643
1176.136, 2.692322
1176.618, 3.194054
1177.100, 3.328507
1177.582, 3.149338
1178.064, 2.798679
1178.546, 2.384194
1179.028, 2.193008
1179.511, 2.372934
1179.993, 2.662061
1180.475, 2.894417
1180.957, 3.068559
1181.439, 3.166640
1181.921, 3.220638
1182.403, 3.289408
1182.885, 3.341751
1183.368, 3.277935
1183.850, 3.091956
1184.332, 2.953230
1184.814, 3.014636
1185.296, 2.982618
1185.778, 2.572914
1186.260, 2.223789
1186.742, 2.237013
1187.224, 2.420885
1187.707, 2.594350
1188.189, 2.742714
1188.671, 2.890534
1189.153, 3.079507
1189.635, 3.115896
1190.117, 2.844495
1190.599, 2.633744
1191.081, 2.502743
1191.564, 2.498624
1192.046, 2.699484
1192.528, 2.982491
1193.010, 3.193522
1193.492, 3.332149
1193.974, 3.415054
1194.456, 3.475380
1194.938, 3.256057
1195.421, 2.672368
1195.903, 2.234365
1196.385, 2.097919
1196.867, 2.132744
1197.349, 2.258423
1197.831, 2.426295
1198.313, 2.543727
1198.795, 2.625697
1199.277, 2.778217
1199.760, 2.966546
1200.242, 2.987011
1200.724, 2.834424
1201.206, 2.591870
1201.688, 2.314884
1202.170, 2.277021
1202.652, 2.825524
1203.134, 3.407230
1203.616, 3.214739
1204.099, 2.701010
1204.581, 2.401639
1205.063, 2.333933
1205.545, 2.548369
1206.027, 2.944390
1206.509, 3.225515
1206.991, 3.286641
1207.473, 3.200819
1207.956, 2.807990
1208.438, 2.538579
1208.920, 2.743831
1209.402, 3.031623
1209.884, 3.118667
1210.366, 3.063654
1210.848, 2.942251
1211.330, 2.779806
1211.813, 2.722011
1212.295, 2.918758
1212.777, 2.941548
1213.259, 2.544609
1213.741, 2.371175
1214.223, 2.745123
1214.705, 3.120514
1215.187, 3.074026
1215.669, 2.858237
1216.151, 2.973178
1216.634, 3.382149
1217.116, 3.397495
1217.598, 2.969765
1218.080, 2.795639
1218.562, 2.955844
1219.044, 3.067984
1219.526, 2.996846
1220.008, 2.905644
1220.491, 2.920969
1220.973, 3.025055
1221.455, 3.249724
1221.937, 3.511286
1222.419, 3.563116
1222.901, 3.477629
1223.383, 3.491324
1223.865, 3.577088
1224.348, 3.472304
1224.830, 3.106085
1225.312, 2.790434
1225.794, 2.732520
1226.276, 2.804777
1226.758, 2.982179
1227.240, 3.171683
1227.722, 3.292700
1228.204, 3.371675
1228.687, 3.482765
1229.169, 3.587373
1229.651, 3.522854
1230.133, 3.216456
1230.615, 2.998659
1231.097, 2.986835
1231.579, 2.981285
1232.061, 2.911412
1232.543, 2.888106
1233.026, 3.064499
1233.508, 3.179375
1233.990, 2.841740
1234.472, 2.237316
1234.954, 2.209245
1235.436, 2.887950
1235.918, 3.223063
1236.400, 3.185218
1236.883, 3.116090
1237.365, 3.084409
1237.847, 3.030907
1238.329, 2.921793
1238.811, 2.832664
1239.293, 2.866105
1239.775, 2.951084
1240.257, 2.937257
1240.740, 2.860424
1241.222, 2.791541
1241.704, 2.737498
1242.186, 2.702318
1242.668, 2.682791
1243.150, 2.664781
1243.632, 2.642225
1244.114, 2.618257
1244.596, 2.565243
1245.078, 2.549043
1245.561, 2.583465
1246.043, 2.700346
1246.525, 3.038239
1247.007, 3.408949
1247.489, 3.526399
1247.971, 3.398617
1248.453, 3.254386
1248.935, 3.132356
1249.418, 2.941297
1249.900, 2.524903
1250.382, 2.353645
1250.864, 2.616993
1251.346, 2.941257
1251.828, 3.129256
1252.310, 3.247537
1252.792, 3.399022
1253.275, 3.541448
1253.757, 3.447236
1254.239, 3.147494
1254.721, 3.064030
1255.203, 3.185988
1255.685, 3.264298
1256.167, 3.242221
1256.649, 3.154010
1257.131, 3.016270
1257.614, 2.917655
1258.096, 3.024232
1258.578, 3.116194
1259.060, 2.797356
1259.542, 2.430290
1260.024, 2.555571
1260.506, 2.922566
1260.988, 3.046820
1261.470, 2.915489
1261.953, 2.829765
1262.435, 2.894269
1262.917, 2.882747
1263.399, 2.636968
1263.881, 2.455148
1264.363, 2.397658
1264.845, 2.454048
1265.327, 2.706042
1265.810, 2.968959
1266.292, 3.031068
1266.774, 2.929832
1267.256, 2.774203
1267.738, 2.533022
1268.220, 2.653334
1268.702, 3.154769
1269.184, 3.295558
1269.667, 2.955596
1270.149, 2.770712
1270.631, 3.030068
1271.113, 3.324601
1271.595, 3.242228
1272.077, 3.035397
1272.559, 3.130260
1273.041, 3.305483
1273.523, 3.171318
1274.005, 2.899535
1274.488, 2.829864
1274.970, 2.939354
1275.452, 3.004244
1275.934, 2.964274
1276.416, 2.927994
1276.898, 2.900811
1277.380, 2.935902
1277.862, 3.121869
1278.345, 3.280917
1278.827, 3.318207
1279.309, 3.302122
1279.791, 3.276589
1280.273, 3.244857
1280.755, 3.216115
1281.237, 3.190097
1281.719, 3.125157
1282.202, 3.010432
1282.684, 3.056585
1283.166, 3.282258
1283.648, 3.391287
1284.130, 3.290104
1284.612, 3.044375
1285.094, 2.675809
1285.576, 2.388511
1286.058, 2.507550
1286.541, 2.798789
1287.023, 2.999369
##END=



