##NAMES=Gustavite
##RRUFFID=R110004
##IDEAL CHEMISTRY=Ag^1+^Pb^2+^Bi^3+^_3_S^2-^_6_
##LOCALITY=Rotgulden, Murwinkel, Lungau, Salzburg, Austria
##OWNER=RRUFF
##SOURCE=William W Pinch
##DESCRIPTION=Grayish white metallic massive, associated with pyrrhotite-4C and xilingolite R100060. Hard to visually distinguish gustavite and xilingolite.
##STATUS=The identification of this mineral is confirmed by single-crystal X-ray diffraction and chemical analysis.
##URL=rruff.info/R110004
##MEASURED CHEMISTRY=Ag_1.04_Pb_1.13_(Bi_2.80_Sb_0.18_)_Î£=2.98_S_6_
173.5295, 29.10560
174.0116, 28.97393
174.4937, 28.22056
174.9758, 26.84586
175.4579, 25.97054
175.9401, 26.57589
176.4222, 27.71263
176.9043, 28.31558
177.3864, 28.06556
177.8685, 27.55777
178.3506, 27.61665
178.8328, 28.44365
179.3149, 29.11574
179.7970, 29.16407
180.2791, 28.99298
180.7612, 28.95609
181.2433, 29.20041
181.7255, 29.56413
182.2076, 29.72058
182.6897, 29.68304
183.1718, 29.36942
183.6539, 28.40153
184.1360, 27.34262
184.6181, 26.88053
185.1003, 27.38300
185.5824, 28.48159
186.0645, 28.84280
186.5466, 27.50086
187.0287, 26.56962
187.5108, 26.49357
187.9930, 26.93274
188.4751, 27.49778
188.9572, 27.98115
189.4393, 28.36722
189.9214, 28.54974
190.4035, 28.17589
190.8857, 27.99002
191.3678, 28.29321
191.8499, 28.86713
192.3320, 29.34115
192.8141, 29.49486
193.2962, 29.35772
193.7784, 29.13811
194.2605, 28.68985
194.7426, 28.33162
195.2247, 28.19904
195.7068, 28.24920
196.1889, 28.36833
196.6711, 28.51932
197.1532, 28.66843
197.6353, 28.67595
198.1174, 28.49885
198.5995, 28.23776
199.0816, 27.87511
199.5638, 27.43676
200.0459, 27.08753
200.5280, 26.88625
201.0101, 26.87993
201.4922, 27.13408
201.9743, 28.01808
202.4565, 28.79562
202.9386, 28.59165
203.4207, 27.36947
203.9028, 26.48287
204.3849, 27.10468
204.8670, 28.37352
205.3492, 29.02935
205.8313, 28.63835
206.3134, 27.82761
206.7955, 27.28672
207.2776, 27.01254
207.7597, 27.02879
208.2419, 27.67998
208.7240, 28.50573
209.2061, 29.07794
209.6882, 29.26761
210.1703, 29.13266
210.6524, 28.66943
211.1346, 27.65574
211.6167, 26.90598
212.0988, 26.82825
212.5809, 27.04332
213.0630, 27.21838
213.5451, 27.22617
214.0273, 27.10700
214.5094, 26.96498
214.9915, 26.88955
215.4736, 26.60456
215.9557, 25.69644
216.4378, 24.74269
216.9200, 24.40439
217.4021, 24.99538
217.8842, 26.12901
218.3663, 26.68365
218.8484, 25.94366
219.3305, 25.65417
219.8127, 26.37701
220.2948, 27.46946
220.7769, 28.31889
221.2590, 28.64693
221.7411, 28.49930
222.2232, 27.98915
222.7054, 26.08994
223.1875, 25.10381
223.6696, 26.01465
224.1517, 27.60223
224.6338, 28.39743
225.1159, 27.74482
225.5980, 26.15301
226.0802, 25.08996
226.5623, 24.61955
227.0444, 24.64450
227.5265, 25.76071
228.0086, 27.20331
228.4907, 27.85165
228.9729, 27.19882
229.4550, 25.84408
229.9371, 25.37662
230.4192, 26.54050
230.9013, 27.37021
231.3834, 27.44927
231.8656, 27.04007
232.3477, 26.40710
232.8298, 25.58829
233.3119, 24.84169
233.7940, 24.86690
234.2761, 26.01726
234.7583, 26.88856
235.2404, 26.92513
235.7225, 26.48556
236.2046, 26.18440
236.6867, 26.22399
237.1688, 26.47051
237.6510, 26.75050
238.1331, 27.10326
238.6152, 27.31089
239.0973, 27.25055
239.5794, 26.99590
240.0615, 26.72054
240.5437, 26.49845
241.0258, 26.20082
241.5079, 25.46837
241.9900, 24.27446
242.4721, 23.54684
242.9542, 23.96644
243.4364, 25.15203
243.9185, 26.13890
244.4006, 26.72617
244.8827, 27.09620
245.3648, 27.52430
245.8469, 27.98160
246.3290, 28.11563
246.8112, 27.37495
247.2933, 26.14291
247.7754, 25.69285
248.2575, 26.60327
248.7396, 27.61378
249.2217, 27.74914
249.7039, 27.17926
250.1860, 26.42818
250.6681, 25.58594
251.1502, 24.75414
251.6323, 24.32055
252.1144, 24.42215
252.5966, 24.75971
253.0787, 25.25962
253.5608, 25.83253
254.0429, 26.28762
254.5250, 26.59796
255.0071, 26.70985
255.4893, 26.29413
255.9714, 24.77708
256.4535, 23.68587
256.9356, 23.78591
257.4177, 24.67260
257.8998, 25.75172
258.3820, 26.86215
258.8641, 27.85397
259.3462, 28.11024
259.8283, 27.08337
260.3104, 26.20376
260.7925, 25.99915
261.2747, 26.17526
261.7568, 26.33953
262.2389, 26.28348
262.7210, 26.12033
263.2031, 26.25538
263.6852, 27.17574
264.1674, 27.51785
264.6495, 26.43442
265.1316, 24.92109
265.6137, 24.01070
266.0958, 24.14799
266.5779, 25.08415
267.0601, 26.41663
267.5422, 29.05132
268.0243, 30.32957
268.5064, 29.08599
268.9885, 26.97667
269.4706, 25.38157
269.9528, 24.79678
270.4349, 24.90869
270.9170, 25.17562
271.3991, 25.74627
271.8812, 26.17180
272.3633, 26.50914
272.8455, 26.66517
273.3276, 26.40132
273.8097, 25.72826
274.2918, 25.06748
274.7739, 25.20168
275.2560, 27.04587
275.7382, 27.67656
276.2202, 26.13688
276.7024, 24.36385
277.1845, 23.67157
277.6666, 24.17355
278.1487, 25.01582
278.6308, 25.13515
279.1129, 24.22226
279.5951, 23.65175
280.0772, 23.70402
280.5593, 23.79111
281.0414, 23.64133
281.5235, 23.23146
282.0056, 22.63146
282.4878, 21.84714
282.9699, 20.77026
283.4520, 20.31085
283.9341, 21.08711
284.4162, 21.78658
284.8983, 21.85107
285.3805, 21.37790
285.8626, 20.74128
286.3447, 20.20988
286.8268, 19.78521
287.3089, 19.44934
287.7910, 19.16761
288.2732, 19.00169
288.7553, 19.11492
289.2374, 19.35165
289.7195, 19.40985
290.2016, 19.09303
290.6837, 18.48246
291.1659, 18.02099
291.6480, 17.91610
292.1301, 17.71970
292.6122, 17.11275
293.0943, 16.43223
293.5764, 16.27069
294.0586, 16.92066
294.5407, 17.96619
295.0228, 18.28027
295.5049, 17.01287
295.9870, 16.01901
296.4691, 15.47567
296.9513, 15.18823
297.4334, 14.94353
297.9155, 14.67502
298.3976, 14.47425
298.8797, 14.51184
299.3618, 15.03984
299.8440, 15.32997
300.3261, 15.22039
300.8082, 14.97864
301.2903, 14.79909
301.7724, 14.72571
302.2545, 14.71846
302.7367, 14.74818
303.2188, 14.85937
303.7009, 14.80074
304.1830, 14.46123
304.6651, 14.05968
305.1472, 13.63614
305.6294, 13.24704
306.1115, 13.06569
306.5936, 13.28022
307.0757, 13.92360
307.5578, 14.33037
308.0399, 14.42717
308.5221, 14.41011
309.0042, 14.30229
309.4863, 14.14404
309.9684, 14.03745
310.4505, 14.07008
310.9326, 14.19336
311.4148, 14.05353
311.8969, 13.15607
312.3790, 12.60262
312.8611, 13.01671
313.3432, 13.88292
313.8253, 14.32081
314.3075, 13.90754
314.7896, 12.98538
315.2717, 12.42348
315.7538, 12.38377
316.2359, 12.47556
316.7180, 12.90031
317.2001, 13.34175
317.6823, 13.33743
318.1644, 12.77149
318.6465, 12.10676
319.1286, 12.08152
319.6107, 13.21409
320.0928, 13.72058
320.5750, 12.96579
321.0571, 12.04303
321.5392, 11.93438
322.0213, 12.66852
322.5034, 13.43071
322.9855, 13.37716
323.4677, 12.35485
323.9498, 11.56647
324.4319, 10.76467
324.9140, 10.37470
325.3961, 11.05982
325.8782, 12.42330
326.3604, 13.22812
326.8425, 12.48028
327.3246, 10.39850
327.8067, 9.488444
328.2888, 10.73877
328.7709, 11.85791
329.2531, 12.18909
329.7352, 12.01920
330.2173, 11.83192
330.6994, 11.85298
331.1815, 12.01869
331.6636, 12.15866
332.1458, 12.37234
332.6279, 12.42674
333.1100, 12.28120
333.5921, 11.99024
334.0742, 11.53160
334.5563, 10.92337
335.0385, 10.33725
335.5206, 10.04504
336.0027, 10.22760
336.4848, 10.24394
336.9669, 9.659075
337.4490, 9.261502
337.9312, 9.814422
338.4133, 11.18589
338.8954, 12.46260
339.3775, 12.73410
339.8596, 11.87455
340.3417, 11.60306
340.8239, 12.75502
341.3060, 13.55225
341.7881, 13.05583
342.2702, 11.73208
342.7523, 10.58455
343.2344, 10.24251
343.7166, 10.54913
344.1987, 10.74751
344.6808, 10.58659
345.1629, 10.60779
345.6450, 11.03628
346.1271, 11.59947
346.6093, 11.99803
347.0914, 12.11990
347.5735, 12.06215
348.0556, 11.99709
348.5377, 11.90584
349.0198, 11.84304
349.5020, 11.96032
349.9841, 11.99314
350.4662, 11.62777
350.9483, 10.91510
351.4304, 10.27234
351.9125, 10.19855
352.3947, 10.81521
352.8768, 11.18881
353.3589, 11.12342
353.8410, 11.01218
354.3231, 10.96787
354.8052, 10.98479
355.2874, 11.02318
355.7695, 11.06005
356.2516, 11.09243
356.7337, 11.10225
357.2158, 11.05960
357.6979, 11.03511
358.1800, 11.11272
358.6621, 11.18424
359.1443, 11.12392
359.6264, 10.88361
360.1085, 10.53074
360.5906, 10.09950
361.0727, 9.346372
361.5548, 9.180248
362.0370, 10.31170
362.5191, 11.54772
363.0012, 12.13235
363.4833, 12.02157
363.9654, 11.67254
364.4475, 11.50852
364.9297, 11.53775
365.4118, 11.62263
365.8939, 11.91949
366.3760, 12.09212
366.8581, 11.87889
367.3402, 11.45079
367.8224, 11.18390
368.3045, 11.38626
368.7866, 11.82977
369.2687, 11.75273
369.7508, 10.80275
370.2329, 10.11963
370.7151, 10.29521
371.1972, 10.80359
371.6793, 11.18832
372.1614, 11.32794
372.6435, 11.24189
373.1256, 10.86623
373.6078, 10.17367
374.0899, 9.584060
374.5720, 9.063995
375.0541, 8.809030
375.5362, 9.113463
376.0183, 9.907838
376.5005, 10.57455
376.9826, 10.61135
377.4647, 10.18192
377.9468, 9.905168
378.4289, 9.880594
378.9110, 9.868161
379.3932, 9.560687
379.8753, 9.156986
380.3574, 9.086839
380.8395, 9.751050
381.3216, 10.56101
381.8037, 10.75042
382.2859, 10.30904
382.7680, 9.775561
383.2501, 9.254086
383.7322, 8.870742
384.2143, 8.844903
384.6964, 9.308788
385.1786, 9.676112
385.6607, 9.389002
386.1428, 8.742511
386.6249, 8.603165
387.1070, 9.293793
387.5891, 10.18461
388.0713, 10.55711
388.5534, 10.46166
389.0355, 10.21587
389.5176, 9.631431
389.9997, 9.081909
390.4818, 8.978726
390.9640, 9.327191
391.4461, 9.850752
391.9282, 10.46826
392.4103, 11.08760
392.8924, 11.28987
393.3745, 10.74235
393.8567, 10.18125
394.3388, 10.03658
394.8209, 10.06550
395.3030, 9.652965
395.7851, 8.497250
396.2672, 7.240773
396.7494, 7.089699
397.2315, 8.729239
397.7136, 9.857434
398.1957, 10.13477
398.6778, 10.03587
399.1599, 9.901636
399.6420, 9.789148
400.1241, 9.624769
400.6063, 9.315871
401.0884, 8.849740
401.5705, 8.654716
402.0526, 8.973132
402.5347, 9.253374
403.0168, 9.262005
403.4990, 9.134380
403.9811, 9.152088
404.4632, 9.455112
404.9453, 9.844484
405.4274, 9.789542
405.9095, 8.691682
406.3917, 8.180373
406.8738, 8.797317
407.3559, 9.596022
407.8380, 9.853000
408.3201, 9.523847
408.8022, 9.102609
409.2844, 9.144750
409.7665, 9.705912
410.2486, 9.813227
410.7307, 8.909616
411.2128, 8.141432
411.6949, 7.881215
412.1771, 7.971414
412.6592, 8.134450
413.1413, 8.233722
413.6234, 8.331719
414.1055, 8.610205
414.5876, 9.192032
415.0698, 9.580851
415.5519, 9.424941
416.0340, 9.190671
416.5161, 9.273973
416.9982, 9.695263
417.4803, 10.02280
417.9625, 9.734889
418.4446, 8.958286
418.9267, 8.616442
419.4088, 9.006573
419.8909, 9.412855
420.3730, 9.202218
420.8552, 8.680843
421.3373, 8.500066
421.8194, 9.077011
422.3015, 9.880278
422.7836, 10.35797
423.2657, 10.50828
423.7479, 10.24609
424.2300, 9.175083
424.7121, 8.003356
425.1942, 7.951162
425.6763, 9.285481
426.1584, 10.33351
426.6406, 10.04393
427.1227, 9.098593
427.6048, 8.692607
428.0869, 9.047304
428.5690, 9.589957
429.0511, 9.810652
429.5333, 9.702989
430.0154, 9.678181
430.4975, 9.806579
430.9796, 9.953221
431.4617, 10.06657
431.9438, 10.13830
432.4260, 10.16757
432.9081, 10.16035
433.3902, 10.08394
433.8723, 9.850786
434.3544, 9.295405
434.8365, 8.856751
435.3187, 8.603306
435.8008, 8.435383
436.2829, 8.200091
436.7650, 7.926392
437.2471, 7.885530
437.7292, 8.413105
438.2114, 9.542287
438.6935, 9.980865
439.1756, 8.709794
439.6577, 7.877079
440.1398, 8.287393
440.6219, 9.324930
441.1040, 10.19464
441.5862, 10.55784
442.0683, 10.53523
442.5504, 10.27641
443.0325, 9.644596
443.5146, 9.196054
443.9967, 8.922331
444.4789, 8.893430
444.9610, 9.337867
445.4431, 10.11515
445.9252, 10.77113
446.4073, 11.01331
446.8894, 10.86735
447.3716, 10.33597
447.8537, 9.186789
448.3358, 8.235641
448.8179, 7.973738
449.3000, 8.038251
449.7821, 8.047756
450.2643, 7.898623
450.7464, 7.814345
451.2285, 8.111542
451.7106, 8.683839
452.1927, 8.931224
452.6748, 8.598739
453.1570, 8.197171
453.6391, 8.377770
454.1212, 8.994916
454.6033, 9.355947
455.0854, 9.200244
455.5675, 8.795649
456.0497, 8.161407
456.5318, 7.404976
457.0139, 7.137558
457.4960, 7.796312
457.9781, 8.991598
458.4602, 9.672503
458.9424, 9.787477
459.4245, 9.619145
459.9066, 8.843130
460.3887, 8.014148
460.8708, 7.730814
461.3529, 8.060845
461.8351, 8.685559
462.3172, 9.367447
462.7993, 10.11622
463.2814, 10.47103
463.7635, 10.22902
464.2456, 9.857236
464.7278, 9.314268
465.2099, 8.760880
465.6920, 8.424411
466.1741, 8.386863
466.6562, 8.501750
467.1383, 8.493563
467.6205, 8.246736
468.1026, 8.240552
468.5847, 9.005918
469.0668, 9.548891
469.5489, 9.095155
470.0310, 8.007858
470.5132, 7.358043
470.9953, 8.027272
471.4774, 9.356459
471.9595, 9.464003
472.4416, 7.913806
472.9237, 6.770366
473.4059, 7.189284
473.8880, 8.101162
474.3701, 8.564825
474.8522, 8.467747
475.3343, 8.236036
475.8164, 8.155607
476.2986, 8.142388
476.7807, 7.880879
477.2628, 7.248546
477.7449, 6.857886
478.2270, 7.315665
478.7091, 8.428399
479.1913, 9.308987
479.6734, 9.945979
480.1555, 10.30603
480.6376, 10.29732
481.1197, 10.00493
481.6018, 9.536501
482.0839, 8.909244
482.5660, 8.329736
483.0482, 8.098314
483.5303, 8.328156
484.0124, 8.535963
484.4945, 8.913107
484.9766, 9.091949
485.4587, 8.743384
485.9409, 8.035135
486.4230, 7.337950
486.9051, 6.843859
487.3872, 6.581818
487.8693, 6.671235
488.3514, 7.396476
488.8336, 7.943589
489.3157, 8.218637
489.7978, 8.354235
490.2799, 8.511798
490.7620, 8.642470
491.2441, 8.452809
491.7263, 7.377143
492.2084, 5.805045
492.6905, 5.891066
493.1726, 8.536124
493.6547, 10.66716
494.1368, 10.48508
494.6190, 9.402180
495.1011, 8.783701
495.5832, 8.898714
496.0653, 9.212664
496.5474, 9.525319
497.0295, 9.725673
497.5117, 9.282361
497.9938, 7.914548
498.4759, 6.773803
498.9580, 7.096282
499.4401, 8.544208
499.9222, 9.238160
500.4044, 8.513227
500.8865, 7.584071
501.3686, 6.852145
501.8507, 6.395317
502.3328, 6.457529
502.8149, 7.139407
503.2971, 8.031740
503.7792, 8.559507
504.2613, 8.630688
504.7434, 8.644721
505.2255, 8.367674
505.7076, 8.268353
506.1898, 8.785757
506.6719, 9.629779
507.1540, 10.19619
507.6361, 10.16295
508.1182, 9.740192
508.6003, 9.391972
509.0825, 9.113564
509.5646, 8.922335
510.0467, 8.856171
510.5288, 8.847178
511.0109, 8.859712
511.4930, 8.897069
511.9752, 8.993602
512.4573, 9.246943
512.9394, 9.525434
513.4215, 9.521307
513.9036, 9.213420
514.3857, 8.732588
514.8679, 7.897923
515.3500, 7.087540
515.8321, 6.825101
516.3142, 7.178857
516.7963, 7.542706
517.2784, 7.578084
517.7606, 7.507592
518.2427, 7.676833
518.7248, 8.104789
519.2069, 8.567104
519.6890, 8.988854
520.1711, 9.298487
520.6533, 9.100473
521.1354, 7.750371
521.6175, 6.828961
522.0996, 6.755950
522.5817, 7.140132
523.0638, 7.818078
523.5460, 8.632553
524.0281, 9.117342
524.5102, 8.742593
524.9923, 7.544261
525.4744, 6.745666
525.9565, 6.519052
526.4387, 6.511786
526.9208, 6.729310
527.4029, 7.075769
527.8850, 7.530837
528.3671, 8.070966
528.8492, 8.478696
529.3314, 8.506802
529.8135, 8.181131
530.2956, 7.699066
530.7777, 6.933275
531.2598, 6.301569
531.7419, 6.055253
532.2241, 6.117562
532.7062, 6.444699
533.1883, 7.183058
533.6704, 7.871368
534.1525, 8.289289
534.6346, 8.415591
535.1168, 8.025059
535.5989, 7.005233
536.0810, 6.139371
536.5631, 6.294846
537.0452, 7.532807
537.5273, 8.465046
538.0095, 9.138227
538.4916, 9.489033
538.9737, 9.427868
539.4558, 9.053729
539.9379, 8.357290
540.4200, 7.382164
540.9022, 6.540848
541.3843, 6.471115
541.8664, 7.335376
542.3485, 8.060099
542.8306, 8.870416
543.3127, 9.262227
543.7948, 8.655091
544.2769, 7.650070
544.7590, 7.240986
545.2411, 7.857231
545.7233, 8.671082
546.2054, 8.507212
546.6875, 7.451497
547.1696, 6.823125
547.6517, 6.956972
548.1339, 7.292653
548.6160, 7.455267
549.0981, 7.456544
549.5802, 7.277550
550.0623, 6.516594
550.5444, 5.998072
551.0266, 6.492739
551.5087, 7.610682
551.9908, 8.517995
552.4729, 8.970500
552.9550, 9.004345
553.4371, 8.581375
553.9193, 7.550062
554.4014, 6.994201
554.8835, 7.274075
555.3656, 7.557668
555.8477, 7.477974
556.3298, 7.231673
556.8120, 7.159992
557.2941, 7.381000
557.7762, 7.683548
558.2583, 7.802362
558.7404, 7.741493
559.2225, 7.421889
559.7047, 6.420145
560.1868, 5.731081
560.6689, 5.911309
561.1510, 6.650712
561.6331, 7.507537
562.1152, 8.486222
562.5974, 9.156154
563.0795, 8.914477
563.5616, 8.003293
564.0437, 7.342643
564.5258, 7.161064
565.0079, 6.999974
565.4901, 6.302488
565.9722, 5.140045
566.4543, 4.683789
566.9364, 5.526631
567.4185, 6.390103
567.9006, 6.787183
568.3828, 6.909328
568.8649, 7.032973
569.3470, 7.232631
569.8291, 7.430491
570.3112, 7.531790
570.7933, 7.531509
571.2755, 7.530214
571.7576, 7.498136
572.2397, 7.504823
572.7218, 7.682119
573.2039, 7.848569
573.6860, 7.735294
574.1682, 7.285244
574.6503, 6.852130
575.1324, 6.774604
575.6145, 6.998914
576.0966, 7.378947
576.5787, 8.018277
577.0609, 8.353302
577.5430, 7.834703
578.0251, 6.824692
578.5072, 6.193229
578.9893, 5.989950
579.4714, 6.091879
579.9536, 6.681840
580.4357, 7.431794
580.9178, 8.041937
581.3999, 8.427657
581.8820, 8.403966
582.3641, 7.739987
582.8463, 6.621455
583.3284, 6.141804
583.8105, 7.001055
584.2926, 7.494020
584.7747, 7.229454
585.2568, 6.772349
585.7390, 6.490911
586.2211, 6.437110
586.7032, 6.531543
587.1853, 6.734437
587.6674, 7.032824
588.1495, 7.488256
588.6317, 8.186972
589.1138, 8.470911
589.5959, 7.830549
590.0780, 6.961614
590.5601, 6.766867
591.0422, 7.231808
591.5244, 7.514821
592.0065, 6.971549
592.4886, 6.441583
592.9707, 6.950234
593.4528, 8.179819
593.9349, 8.944090
594.4171, 8.694765
594.8992, 7.913019
595.3813, 7.429376
595.8634, 7.347569
596.3455, 7.265667
596.8276, 7.115767
597.3098, 7.036035
597.7919, 7.158697
598.2740, 7.372041
598.7561, 7.472208
599.2382, 7.371889
599.7203, 7.218844
600.2025, 7.209019
600.6846, 7.339383
601.1667, 7.550540
601.6488, 8.000271
602.1309, 8.199010
602.6130, 7.522079
603.0952, 6.388709
603.5773, 5.658241
604.0594, 5.535201
604.5415, 5.638848
605.0236, 5.845629
605.5057, 6.127139
605.9879, 6.566849
606.4700, 7.127497
606.9521, 7.331979
607.4342, 6.668137
607.9163, 5.337900
608.3984, 4.890283
608.8806, 6.256801
609.3627, 7.251494
609.8448, 7.542282
610.3269, 7.518218
610.8090, 7.399551
611.2911, 7.253064
611.7733, 7.125239
612.2554, 7.014491
612.7375, 6.974658
613.2196, 7.259126
613.7017, 7.936641
614.1838, 8.181036
614.6660, 7.547500
615.1481, 6.616494
615.6302, 5.941743
616.1123, 5.512256
616.5944, 5.511137
617.0765, 6.398089
617.5587, 7.324307
618.0408, 7.699477
618.5229, 7.676600
619.0050, 7.585374
619.4871, 7.546365
619.9692, 7.609381
620.4514, 7.888290
620.9335, 8.458094
621.4156, 8.677660
621.8977, 8.371020
622.3798, 7.898562
622.8619, 7.137712
623.3441, 6.368886
623.8262, 5.891274
624.3083, 5.778968
624.7904, 5.948097
625.2725, 6.535977
625.7546, 7.330063
626.2367, 7.693793
626.7188, 7.566645
627.2009, 7.350705
627.6830, 7.224127
628.1652, 7.164091
628.6473, 7.125120
629.1294, 7.114909
629.6115, 7.097194
630.0936, 7.071283
630.5757, 7.032173
631.0579, 7.034515
631.5400, 7.019057
632.0221, 6.784022
632.5042, 6.218061
632.9863, 5.590275
633.4684, 5.443467
633.9506, 5.883920
634.4327, 6.288108
634.9148, 6.706208
635.3969, 6.971714
635.8790, 6.934983
636.3611, 6.724226
636.8433, 6.550391
637.3254, 6.457899
637.8075, 6.436862
638.2896, 6.532913
638.7717, 6.681178
639.2538, 6.727664
639.7360, 6.656592
640.2181, 6.643672
640.7002, 6.839284
641.1823, 7.167211
641.6644, 7.316122
642.1465, 6.908354
642.6287, 6.850837
643.1108, 7.658666
643.5929, 8.385633
644.0750, 8.219857
644.5571, 7.410521
645.0392, 6.793259
645.5214, 6.850332
646.0035, 7.271153
646.4856, 7.668055
646.9677, 8.039389
647.4498, 7.872727
647.9319, 6.788680
648.4141, 5.750005
648.8962, 5.639916
649.3783, 6.248744
649.8604, 6.800100
650.3425, 7.379733
650.8246, 7.696218
651.3068, 7.464069
651.7889, 6.992793
652.2710, 6.642241
652.7531, 6.466607
653.2352, 6.334161
653.7173, 6.124714
654.1995, 5.904942
654.6816, 5.977359
655.1637, 6.466664
655.6458, 6.949625
656.1279, 7.513947
656.6100, 7.919614
657.0922, 7.906739
657.5743, 7.595092
658.0564, 7.419014
658.5385, 7.741005
659.0206, 7.988291
659.5027, 7.471456
659.9849, 6.442870
660.4670, 5.544205
660.9491, 4.917696
661.4312, 4.654735
661.9133, 4.914822
662.3954, 5.645633
662.8776, 6.091790
663.3597, 5.973921
663.8418, 5.933318
664.3239, 6.044984
664.8060, 6.246116
665.2881, 6.519300
665.7703, 6.836724
666.2524, 7.126381
666.7345, 7.322114
667.2166, 7.498512
667.6987, 7.858348
668.1808, 8.392008
668.6630, 8.757035
669.1451, 8.909822
669.6272, 8.773788
670.1093, 8.099008
670.5914, 6.960900
671.0735, 6.308687
671.5557, 6.529853
672.0378, 6.781346
672.5199, 6.632067
673.0020, 6.470329
673.4841, 6.978364
673.9662, 8.045630
674.4484, 8.660604
674.9305, 7.910380
675.4126, 6.332705
675.8947, 5.828404
676.3768, 6.702040
676.8589, 7.297271
677.3411, 7.167984
677.8232, 6.790255
678.3053, 6.431457
678.7874, 6.135033
679.2695, 6.080718
679.7516, 6.502089
680.2338, 6.931359
680.7159, 7.131070
681.1980, 7.146157
681.6801, 6.976966
682.1622, 6.660197
682.6443, 6.388250
683.1265, 6.306364
683.6086, 6.416360
684.0907, 6.802335
684.5728, 7.886771
685.0549, 8.318796
685.5370, 7.066449
686.0192, 5.865248
686.5013, 5.933167
686.9834, 6.889500
687.4655, 7.494275
687.9476, 7.129895
688.4297, 6.554060
688.9119, 6.387508
689.3940, 6.528812
689.8761, 6.816700
690.3582, 7.214735
690.8403, 7.502042
691.3224, 7.480371
691.8046, 7.233544
692.2867, 7.168044
692.7688, 7.530365
693.2509, 7.674572
693.7330, 7.358592
694.2151, 7.031857
694.6973, 6.975928
695.1794, 7.127428
695.6615, 7.307481
696.1436, 7.472659
696.6257, 7.524589
697.1078, 7.284710
697.5900, 6.837197
698.0721, 6.466942
698.5542, 6.216735
699.0363, 6.015692
699.5184, 5.788458
700.0005, 5.839397
700.4827, 5.647147
700.9648, 6.145567
701.4469, 6.574553
701.9290, 7.028471
702.4111, 7.316745
702.8932, 7.198143
703.3754, 6.849509
703.8575, 6.571138
704.3396, 6.474220
704.8217, 6.665325
705.3038, 7.600634
705.7859, 9.006183
706.2681, 9.374880
706.7502, 8.424286
707.2323, 7.631216
707.7144, 7.971154
708.1965, 8.858708
708.6786, 8.873582
709.1607, 7.593085
709.6428, 6.730449
710.1249, 6.427699
710.6071, 6.537627
711.0892, 7.518549
711.5713, 8.686307
712.0534, 8.729361
712.5355, 7.262722
713.0176, 5.620107
713.4998, 5.350573
713.9819, 6.226343
714.4640, 7.132273
714.9461, 8.120988
715.4282, 8.666525
715.9103, 8.409083
716.3925, 7.738214
716.8746, 7.213472
717.3567, 6.844800
717.8388, 6.515429
718.3209, 5.978805
718.8030, 5.740862
719.2852, 6.416374
719.7673, 7.364953
720.2494, 7.565484
720.7315, 6.883234
721.2136, 6.246121
721.6957, 6.650663
722.1779, 7.706481
722.6600, 7.892365
723.1421, 7.081613
723.6242, 6.544241
724.1063, 6.763268
724.5884, 7.185722
725.0706, 7.127056
725.5527, 6.650163
726.0348, 6.613323
726.5169, 7.519040
726.9990, 8.308181
727.4811, 8.666213
727.9633, 8.706512
728.4454, 8.475841
728.9275, 8.036936
729.4096, 7.510571
729.8917, 6.941220
730.3738, 6.434867
730.8560, 6.260724
731.3381, 6.429299
731.8202, 6.564242
732.3023, 6.572728
732.7844, 6.620173
733.2665, 6.837708
733.7487, 7.194250
734.2308, 7.560910
734.7129, 7.968096
735.1950, 8.324180
735.6771, 8.879974
736.1592, 9.152675
736.6414, 8.513479
737.1235, 7.293936
737.6056, 6.280795
738.0877, 5.817893
738.5698, 5.821730
739.0519, 6.393818
739.5341, 7.429200
740.0162, 7.957881
740.4983, 7.877090
740.9804, 7.507853
741.4625, 6.817461
741.9446, 6.092035
742.4268, 5.908484
742.9089, 6.358720
743.3910, 6.800499
743.8731, 7.326444
744.3552, 7.677338
744.8373, 7.563861
745.3195, 7.270813
745.8016, 7.231103
746.2837, 7.520597
746.7658, 7.829024
747.2479, 7.914958
747.7300, 7.797801
748.2122, 7.387679
748.6943, 6.674255
749.1764, 6.452668
749.6585, 7.119369
750.1406, 7.881584
750.6227, 7.836844
751.1049, 7.020811
751.5870, 6.729465
752.0691, 7.696604
752.5512, 8.156037
753.0333, 7.275167
753.5154, 6.173269
753.9976, 5.733236
754.4797, 5.939586
754.9618, 6.424994
755.4439, 7.096430
755.9260, 7.636378
756.4081, 7.466972
756.8903, 6.784249
757.3724, 6.397159
757.8545, 6.408617
758.3366, 6.641754
758.8187, 7.049251
759.3008, 7.523612
759.7830, 7.785290
760.2651, 7.678411
760.7472, 7.729434
761.2293, 8.266254
761.7114, 8.585260
762.1935, 8.148642
762.6757, 7.440662
763.1578, 7.115242
763.6399, 7.318374
764.1220, 7.713731
764.6041, 8.246065
765.0862, 8.718353
765.5684, 8.789759
766.0505, 8.512546
766.5326, 8.127728
767.0147, 7.704381
767.4968, 7.317376
767.9789, 7.050197
768.4611, 6.899161
768.9432, 6.805644
769.4253, 6.621865
769.9074, 6.756586
770.3895, 7.744267
770.8716, 8.643548
771.3538, 8.703503
771.8359, 8.126999
772.3180, 7.638344
772.8001, 7.435600
773.2822, 7.437519
773.7643, 7.735185
774.2465, 8.131392
774.7286, 8.353264
775.2107, 8.378033
775.6928, 8.282729
776.1749, 8.107233
776.6570, 7.858765
777.1392, 7.524096
777.6213, 7.074126
778.1034, 6.719749
778.5855, 6.359008
779.0676, 6.305116
779.5497, 6.989080
780.0319, 7.883921
780.5140, 8.304386
780.9961, 8.215971
781.4782, 8.012882
781.9603, 7.667242
782.4424, 7.364109
782.9246, 7.177187
783.4067, 7.114863
783.8888, 7.297846
784.3709, 7.669830
784.8530, 7.817411
785.3351, 7.301529
785.8173, 6.507612
786.2994, 6.475466
786.7815, 7.206729
787.2636, 7.865343
787.7457, 8.308982
788.2278, 8.647716
788.7100, 9.043960
789.1921, 9.380774
789.6742, 9.141573
790.1563, 7.623724
790.6384, 6.845804
791.1205, 7.945498
791.6026, 8.772481
792.0847, 7.466728
792.5668, 5.285584
793.0490, 4.555093
793.5311, 5.936554
794.0132, 7.611118
794.4953, 8.106747
794.9774, 7.904027
795.4595, 7.752196
795.9417, 7.672542
796.4238, 7.687685
796.9059, 7.813419
797.3880, 7.892598
797.8701, 7.720138
798.3522, 7.323976
798.8344, 7.175776
799.3165, 7.346864
799.7986, 7.627703
800.2807, 8.259336
800.7628, 8.742667
801.2449, 8.653258
801.7271, 8.178087
802.2092, 7.824205
802.6913, 7.696604
803.1734, 7.733247
803.6555, 7.972337
804.1376, 8.311949
804.6198, 8.806217
805.1019, 9.296879
805.5840, 9.282929
806.0661, 8.559629
806.5482, 7.746524
807.0303, 7.733211
807.5125, 8.424741
807.9946, 8.984992
808.4767, 9.456585
808.9588, 9.515134
809.4409, 8.843485
809.9230, 8.054971
810.4052, 7.866995
810.8873, 8.284686
811.3694, 8.618818
811.8515, 8.800822
812.3336, 8.992244
812.8157, 9.526350
813.2979, 9.830951
813.7800, 9.095578
814.2621, 7.748602
814.7442, 7.052989
815.2263, 7.635159
815.7084, 8.490273
816.1906, 8.671576
816.6727, 8.409230
817.1548, 8.035342
817.6369, 7.636103
818.1190, 7.638919
818.6011, 8.271783
819.0833, 8.992906
819.5654, 8.956717
820.0475, 8.121664
820.5296, 7.820440
821.0117, 7.611701
821.4938, 8.175853
821.9760, 8.483003
822.4581, 8.546973
822.9402, 7.639396
823.4223, 7.986372
823.9044, 7.830579
824.3865, 7.654172
824.8687, 8.177714
825.3508, 7.411445
825.8329, 7.923896
826.3150, 7.925903
826.7971, 8.161526
827.2792, 7.891278
827.7614, 7.777270
828.2435, 8.169303
828.7256, 8.281143
829.2077, 7.952658
829.6898, 7.596086
830.1719, 7.880292
830.6541, 8.193674
831.1362, 8.424238
831.6183, 8.581524
832.1004, 8.674208
832.5825, 8.702398
833.0646, 8.689454
833.5468, 8.518112
834.0289, 8.492005
834.5110, 8.853660
834.9931, 9.169048
835.4752, 9.169369
835.9573, 8.905492
836.4395, 8.501382
836.9216, 7.900194
837.4037, 7.459991
837.8858, 7.424522
838.3679, 7.599785
838.8500, 7.817617
839.3322, 8.066741
839.8143, 8.516788
840.2964, 9.173272
840.7785, 9.425723
841.2606, 8.339503
841.7427, 6.402030
842.2249, 5.611966
842.7070, 6.010987
843.1891, 6.667337
843.6712, 7.434470
844.1533, 8.173499
844.6354, 8.845594
845.1176, 9.374090
845.5997, 9.365035
846.0818, 8.316155
846.5639, 7.521527
847.0460, 6.880389
847.5281, 6.588805
848.0103, 7.121199
848.4924, 7.893623
848.9745, 7.887093
849.4566, 6.904040
849.9387, 6.256030
850.4208, 7.041155
850.9030, 8.076041
851.3851, 8.266517
851.8672, 7.911330
852.3493, 7.468862
852.8314, 7.124544
853.3135, 7.242322
853.7957, 8.214556
854.2778, 9.460273
854.7599, 9.555574
855.2420, 8.526143
855.7241, 7.519989
856.2062, 6.569169
856.6884, 6.116695
857.1705, 6.554504
857.6526, 7.438818
858.1347, 7.944473
858.6168, 7.951739
859.0989, 8.115480
859.5811, 8.806704
860.0632, 9.171752
860.5453, 8.574264
861.0274, 7.906563
861.5095, 8.214207
861.9916, 9.256217
862.4738, 9.693305
862.9559, 8.754498
863.4380, 7.699935
863.9201, 7.228439
864.4022, 7.166872
864.8843, 7.510729
865.3665, 8.071630
865.8486, 8.323195
866.3307, 8.053420
866.8128, 7.695807
867.2949, 7.858108
867.7770, 8.384149
868.2592, 8.526656
868.7413, 8.278117
869.2234, 8.198639
869.7055, 8.501754
870.1876, 8.754887
870.6697, 8.515460
871.1519, 7.890215
871.6340, 7.474081
872.1161, 7.263803
872.5981, 7.269757
873.0803, 7.745645
873.5624, 8.166737
874.0445, 8.390278
874.5266, 8.391148
875.0087, 8.030253
875.4908, 7.259585
875.9730, 6.760907
876.4551, 7.040556
876.9372, 7.366302
877.4193, 7.033250
877.9014, 6.613110
878.3835, 7.155302
878.8657, 8.499573
879.3478, 9.333389
879.8299, 8.782883
880.3120, 7.748923
880.7941, 7.436987
881.2762, 7.671961
881.7584, 8.061053
882.2405, 8.520601
882.7226, 8.384375
883.2047, 7.283959
883.6868, 6.040174
884.1689, 5.839683
884.6511, 6.637933
885.1332, 6.971132
885.6153, 6.613173
886.0974, 6.428473
886.5795, 6.753467
887.0616, 7.077229
887.5438, 6.770737
888.0259, 6.172945
888.5080, 6.384699
888.9901, 8.009859
889.4722, 9.050695
889.9543, 8.825914
890.4365, 8.387640
890.9186, 8.402472
891.4007, 8.479634
891.8828, 7.821767
892.3649, 6.460569
892.8470, 5.610473
893.3292, 6.318690
893.8113, 7.369250
894.2934, 7.675989
894.7755, 7.478011
895.2576, 7.008081
895.7397, 6.419193
896.2219, 6.135484
896.7040, 6.387353
897.1861, 6.851122
897.6682, 7.086035
898.1503, 7.105417
898.6324, 6.892191
899.1146, 6.401358
899.5967, 6.528409
900.0788, 7.759390
900.5609, 8.899937
901.0430, 8.666533
901.5251, 7.341908
902.0073, 6.708472
902.4894, 7.135611
902.9715, 7.497307
903.4536, 7.896341
903.9357, 8.033964
904.4178, 7.694411
904.9000, 7.065015
905.3821, 6.326327
905.8642, 5.481604
906.3463, 4.839516
906.8284, 4.291558
907.3105, 4.185737
907.7927, 5.083795
908.2748, 6.219909
908.7569, 6.785393
909.2390, 6.831894
909.7211, 6.893417
910.2032, 7.229915
910.6854, 7.485114
911.1675, 7.180492
911.6496, 6.667404
912.1317, 6.577593
912.6138, 6.809923
913.0959, 6.867340
913.5781, 6.615736
914.0602, 6.410404
914.5423, 6.621055
915.0244, 7.065139
915.5065, 7.139560
915.9886, 6.840238
916.4708, 6.710448
916.9529, 6.823055
917.4350, 7.109148
917.9171, 7.632157
918.3992, 8.117330
918.8813, 8.013028
919.3635, 7.179015
919.8456, 6.858329
920.3277, 7.619200
920.8098, 7.959076
921.2919, 7.213525
921.7740, 6.253880
922.2562, 5.614264
922.7383, 5.252047
923.2204, 4.978854
923.7025, 4.638265
924.1846, 4.735824
924.6667, 6.001197
925.1489, 7.101645
925.6310, 7.084266
926.1131, 6.479085
926.5952, 5.957770
927.0773, 5.671535
927.5594, 5.580962
928.0416, 5.776642
928.5237, 5.975202
929.0058, 5.844065
929.4879, 5.585716
929.9700, 5.629969
930.4521, 5.873304
930.9343, 5.667411
931.4164, 4.766298
931.8985, 4.036536
932.3806, 4.796471
932.8627, 6.417345
933.3448, 6.629768
933.8270, 5.589330
934.3091, 5.097792
934.7912, 5.564929
935.2733, 6.212656
935.7554, 6.529012
936.2375, 6.554739
936.7197, 6.311063
937.2018, 5.675452
937.6839, 5.529359
938.1660, 6.140818
938.6481, 6.568212
939.1302, 6.505494
939.6124, 6.121617
940.0945, 5.345980
940.5766, 4.297897
941.0587, 4.116002
941.5408, 5.825193
942.0229, 6.797478
942.5051, 6.112016
942.9872, 5.542907
943.4693, 6.467232
943.9514, 7.763410
944.4335, 7.594221
944.9156, 5.816484
945.3978, 4.643408
945.8799, 5.523982
946.3620, 6.341276
946.8441, 5.566660
947.3262, 4.537824
947.8083, 4.951283
948.2905, 6.296448
948.7726, 6.812129
949.2547, 5.841620
949.7368, 4.759413
950.2189, 4.815121
950.7010, 5.343431
951.1832, 5.428226
951.6653, 5.255307
952.1474, 5.323675
952.6295, 5.707384
953.1116, 6.225889
953.5938, 6.801049
954.0759, 7.196876
954.5580, 6.777963
955.0400, 5.787330
955.5222, 5.699675
956.0043, 6.535864
956.4864, 6.977970
956.9685, 6.567364
957.4506, 5.922013
957.9327, 5.624879
958.4149, 5.614666
958.8970, 5.641444
959.3791, 5.691564
959.8612, 5.863461
960.3433, 6.214045
960.8254, 6.559634
961.3076, 6.855765
961.7897, 7.053177
962.2718, 7.095801
962.7539, 6.984884
963.2360, 6.674880
963.7181, 5.898752
964.2003, 5.339070
964.6824, 5.199074
965.1645, 5.134604
965.6466, 4.979798
966.1287, 4.772281
966.6108, 4.557016
967.0930, 4.324457
967.5751, 4.226412
968.0572, 4.255758
968.5393, 4.474927
969.0214, 5.133345
969.5035, 5.809048
969.9857, 6.088842
970.4678, 6.055222
970.9499, 5.943090
971.4320, 5.778037
971.9141, 5.918172
972.3962, 7.187372
972.8784, 8.257796
973.3605, 7.494347
973.8426, 5.959730
974.3247, 5.384392
974.8068, 5.896820
975.2889, 6.647627
975.7711, 7.249274
976.2532, 7.491847
976.7353, 6.766418
977.2174, 5.712544
977.6995, 5.694089
978.1816, 6.429599
978.6638, 6.632855
979.1459, 6.017479
979.6280, 5.552925
980.1101, 6.114628
980.5922, 7.012277
981.0743, 6.636480
981.5565, 5.238720
982.0386, 4.298726
982.5207, 3.926653
983.0028, 4.030096
983.4849, 4.614290
983.9670, 5.276459
984.4492, 5.588598
984.9313, 5.590277
985.4134, 5.428797
985.8955, 5.071385
986.3776, 4.791936
986.8597, 4.612646
987.3419, 4.519782
987.8240, 4.484270
988.3061, 4.582479
988.7882, 4.977433
989.2703, 5.664797
989.7524, 6.059197
990.2346, 6.027535
990.7167, 5.989157
991.1988, 5.906893
991.6809, 5.965354
992.1630, 6.621195
992.6451, 7.303362
993.1273, 6.752195
993.6094, 4.670091
994.0915, 3.555151
994.5736, 3.903894
995.0557, 4.572105
995.5378, 5.774569
996.0200, 6.814321
996.5021, 7.118728
996.9842, 6.958657
997.4663, 6.929835
997.9484, 7.160772
998.4305, 7.136567
998.9127, 6.379975
999.3948, 5.779410
999.8769, 5.694059
1000.359, 5.957196
1000.841, 6.807335
1001.323, 7.802149
1001.805, 7.742136
1002.287, 6.106050
1002.770, 4.797744
1003.252, 5.058730
1003.734, 5.713739
1004.216, 6.072762
1004.698, 6.200025
1005.180, 6.036123
1005.662, 5.770858
1006.144, 6.125080
1006.627, 7.565592
1007.109, 8.497573
1007.591, 6.828491
1008.073, 4.582371
1008.555, 4.255526
1009.037, 5.144562
1009.519, 5.884333
1010.001, 6.152436
1010.483, 5.942710
1010.966, 5.155780
1011.448, 4.572902
1011.930, 5.764185
1012.412, 4.789017
1012.894, 6.858404
1013.376, 4.593029
1013.858, 3.539498
1014.340, 4.244254
1014.823, 5.215817
1015.305, 5.436952
1015.787, 5.209394
1016.269, 4.878774
1016.751, 4.532244
1017.233, 4.592114
1017.715, 5.009631
1018.197, 5.316875
1018.679, 5.379143
1019.162, 5.221637
1019.644, 4.807353
1020.126, 4.393642
1020.608, 4.795316
1021.090, 5.895109
1021.572, 5.811577
1022.054, 4.420772
1022.536, 3.968964
1023.018, 5.303932
1023.501, 6.541838
1023.983, 5.844859
1024.465, 6.661075
1024.947, 6.740825
1025.429, 6.086559
1025.911, 6.595044
1026.393, 5.057174
1026.875, 4.135954
1027.358, 4.890822
1027.840, 6.107128
1028.322, 6.673891
1028.804, 6.672582
1029.286, 6.342645
1029.768, 5.496320
1030.250, 5.142709
1030.732, 5.500208
1031.214, 5.797132
1031.697, 5.699574
1032.179, 5.556733
1032.661, 5.770192
1033.143, 6.232424
1033.625, 6.398131
1034.107, 6.215703
1034.589, 5.836922
1035.071, 5.013545
1035.553, 4.464730
1036.036, 4.687488
1036.518, 5.005806
1037.000, 4.546952
1037.482, 4.925018
1037.964, 5.221099
1038.446, 4.966459
1038.928, 5.121071
1039.410, 5.402764
1039.893, 4.943799
1040.375, 4.682932
1040.857, 4.604985
1041.339, 4.828445
1041.821, 5.258089
1042.303, 5.359041
1042.785, 4.883461
1043.267, 4.545912
1043.750, 4.266544
1044.232, 4.264279
1044.714, 4.873290
1045.196, 5.596534
1045.678, 6.023342
1046.160, 6.141516
1046.642, 5.952420
1047.124, 5.108332
1047.606, 4.746932
1048.089, 5.456016
1048.571, 6.135640
1049.053, 6.112216
1049.535, 6.034104
1050.017, 6.886092
1050.499, 8.298761
1050.981, 8.653864
1051.463, 7.249363
1051.945, 5.994912
1052.428, 5.292516
1052.910, 4.819760
1053.392, 4.557971
1053.874, 4.355691
1054.356, 3.936964
1054.838, 3.449455
1055.320, 3.503639
1055.802, 4.497260
1056.285, 5.070209
1056.767, 4.267783
1057.249, 3.643433
1057.731, 4.196017
1058.213, 5.102232
1058.695, 5.638588
1059.177, 5.765431
1059.659, 5.560248
1060.141, 4.918963
1060.624, 4.534795
1061.106, 4.741850
1061.588, 5.149661
1062.070, 5.711636
1062.552, 6.256068
1063.034, 6.760077
1063.516, 7.084165
1063.998, 6.812981
1064.480, 5.737895
1064.963, 4.949296
1065.445, 5.335511
1065.927, 5.558239
1066.409, 4.330341
1066.891, 3.091840
1067.373, 3.564106
1067.855, 5.133706
1068.337, 6.081849
1068.820, 5.970541
1069.302, 5.806395
1069.784, 5.982249
1070.266, 6.256018
1070.748, 6.747680
1071.230, 7.065213
1071.712, 6.646003
1072.194, 5.835069
1072.677, 5.415032
1073.159, 5.550824
1073.641, 5.663346
1074.123, 5.424867
1074.605, 5.199160
1075.087, 5.305713
1075.569, 5.382516
1076.051, 5.014687
1076.533, 4.417072
1077.016, 3.996181
1077.498, 3.829171
1077.980, 3.785723
1078.462, 3.739807
1078.944, 3.908750
1079.426, 4.671422
1079.908, 5.424943
1080.390, 5.621119
1080.872, 5.503395
1081.354, 5.517733
1081.837, 5.704623
1082.319, 5.752292
1082.801, 5.447265
1083.283, 5.170986
1083.765, 5.132335
1084.247, 5.155139
1084.729, 5.085818
1085.211, 5.012563
1085.694, 5.095923
1086.176, 5.314692
1086.658, 5.477264
1087.140, 5.510896
1087.622, 5.510327
1088.104, 5.531755
1088.586, 5.513844
1089.068, 5.356169
1089.551, 5.181468
1090.033, 5.248174
1090.515, 5.431017
1090.997, 5.186747
1091.479, 4.191839
1091.961, 3.584144
1092.443, 3.975068
1092.925, 4.636964
1093.407, 5.454023
1093.890, 6.144123
1094.372, 6.393405
1094.854, 6.314508
1095.336, 6.231415
1095.818, 6.219504
1096.300, 6.104958
1096.782, 5.643575
1097.264, 5.319624
1097.746, 5.377356
1098.229, 5.593105
1098.711, 6.063772
1099.193, 6.448019
1099.675, 5.891624
1100.157, 4.282782
1100.639, 3.585079
1101.121, 5.192694
1101.603, 6.473969
1102.086, 6.641748
1102.568, 6.359887
1103.050, 5.822920
1103.532, 5.220305
1104.014, 4.675880
1104.496, 4.238238
1104.978, 4.235523
1105.460, 5.296010
1105.943, 5.828528
1106.425, 4.827611
1106.907, 4.165156
1107.389, 5.198092
1107.871, 6.593002
1108.353, 6.955971
1108.835, 6.392239
1109.317, 5.615133
1109.799, 4.399661
1110.281, 3.659980
1110.764, 3.469869
1111.246, 3.755563
1111.728, 5.245726
1112.210, 6.517653
1112.692, 6.135009
1113.174, 4.737587
1113.656, 3.935619
1114.138, 3.764096
1114.621, 4.056420
1115.103, 5.344513
1115.585, 6.227030
1116.067, 6.465075
1116.549, 6.245963
1117.031, 5.250218
1117.513, 4.196941
1117.995, 4.410125
1118.478, 5.909722
1118.960, 6.713921
1119.442, 6.627926
1119.924, 6.284319
1120.406, 5.657033
1120.888, 4.894005
1121.370, 3.823663
1121.852, 3.033231
1122.334, 3.342558
1122.817, 4.489486
1123.299, 4.990506
1123.781, 4.621086
1124.263, 4.588173
1124.745, 5.067734
1125.227, 5.325655
1125.709, 5.081581
1126.191, 4.716341
1126.673, 4.499819
1127.156, 4.471816
1127.638, 4.840141
1128.120, 4.593963
1128.602, 5.633420
1129.084, 4.703660
1129.566, 4.327872
1130.048, 4.866673
1130.530, 5.382312
1131.013, 5.331817
1131.495, 4.974046
1131.977, 4.680043
1132.459, 4.419499
1132.941, 3.898953
1133.423, 3.176695
1133.905, 3.300155
1134.387, 4.330179
1134.870, 4.959115
1135.352, 4.671420
1135.834, 4.307775
1136.316, 4.721988
1136.798, 4.533648
1137.280, 5.451305
1137.762, 4.966965
1138.244, 5.171186
1138.726, 5.912066
1139.208, 6.127512
1139.691, 5.620701
1140.173, 5.061768
1140.655, 4.861209
1141.137, 4.846243
1141.619, 4.876135
1142.101, 4.888152
1142.583, 4.690726
1143.065, 4.414709
1143.548, 4.476537
1144.030, 4.769701
1144.512, 4.558455
1144.994, 3.604347
1145.476, 3.060028
1145.958, 4.357665
1146.440, 5.831851
1146.922, 5.537378
1147.405, 4.631102
1147.887, 4.551750
1148.369, 5.064083
1148.851, 5.494420
1149.333, 5.674891
1149.815, 5.621923
1150.297, 5.137618
1150.779, 4.985614
1151.261, 6.345671
1151.744, 7.400461
1152.226, 6.301808
1152.708, 4.508342
1153.190, 3.805266
1153.672, 4.055263
1154.154, 4.168246
1154.636, 3.832973
1155.118, 3.853917
1155.600, 4.842888
1156.083, 5.710541
1156.565, 6.268275
1157.047, 6.386579
1157.529, 5.510943
1158.011, 4.384087
1158.493, 4.358376
1158.975, 5.467932
1159.457, 6.008294
1159.940, 5.184844
1160.422, 4.936538
1160.904, 5.964727
1161.386, 6.637101
1161.868, 6.245819
1162.350, 5.444853
1162.832, 4.661221
1163.314, 4.008245
1163.796, 3.890826
1164.279, 4.438278
1164.761, 4.780934
1165.243, 4.817996
1165.725, 5.094018
1166.207, 5.941673
1166.689, 6.122580
1167.171, 4.657536
1167.653, 2.972599
1168.135, 3.232456
1168.618, 5.004359
1169.100, 5.857247
1169.582, 5.799190
1170.064, 5.525190
1170.546, 5.101947
1171.028, 4.950502
1171.510, 5.210871
1171.992, 5.451201
1172.474, 5.304580
1172.957, 5.492007
1173.439, 5.519542
1173.921, 5.496638
1174.403, 5.574166
1174.885, 5.458156
1175.367, 5.399579
1175.849, 5.449999
1176.331, 5.694459
1176.814, 6.150869
1177.296, 6.305845
1177.778, 5.302099
1178.260, 4.307528
1178.742, 5.089660
1179.224, 6.413685
1179.706, 6.657801
1180.188, 6.058665
1180.671, 5.177863
1181.153, 4.266634
1181.635, 3.695970
1182.117, 3.588732
1182.599, 3.986428
1183.081, 5.557713
1183.563, 6.874756
1184.045, 6.796343
1184.527, 6.243404
1185.010, 6.215442
1185.492, 6.453482
1185.974, 5.996247
1186.456, 4.633796
1186.938, 4.146810
1187.420, 5.993652
1187.902, 6.951393
1188.384, 5.709512
1188.866, 4.466079
1189.349, 4.136958
1189.831, 4.297460
1190.313, 4.690071
1190.795, 5.177333
1191.277, 5.166285
1191.759, 4.467360
1192.241, 4.093209
1192.723, 4.041512
1193.206, 4.396977
1193.688, 5.307796
1194.170, 6.109041
1194.652, 6.406575
1195.134, 6.700041
1195.616, 6.444848
1196.098, 6.434560
1196.580, 6.014674
1197.063, 5.250600
1197.545, 4.823935
1198.027, 4.752082
1198.509, 4.612633
1198.991, 4.308009
1199.473, 4.285291
1199.955, 4.899041
1200.437, 5.550017
1200.919, 5.374127
1201.401, 4.766170
1201.884, 4.176965
1202.366, 3.800354
1202.848, 4.219336
1203.330, 5.155507
1203.812, 5.665859
1204.294, 5.493399
1204.776, 5.178420
1205.258, 4.998045
1205.741, 4.833512
1206.223, 4.341382
1206.705, 4.125681
1207.187, 5.053308
1207.669, 6.234109
1208.151, 6.498173
1208.633, 6.025591
1209.115, 5.726433
1209.598, 5.765355
1210.080, 5.886939
1210.562, 6.354183
1211.044, 6.453876
1211.526, 5.640409
1212.008, 4.936175
1212.490, 4.908368
1212.972, 5.120519
1213.454, 5.046690
1213.937, 4.772664
1214.419, 4.706778
1214.901, 4.855501
1215.383, 5.256723
1215.865, 6.013614
1216.347, 6.394583
1216.829, 6.231063
1217.311, 5.609462
1217.793, 4.503177
1218.276, 3.563655
1218.758, 3.760917
1219.240, 4.665839
1219.722, 5.094362
1220.204, 5.172548
1220.686, 5.367841
1221.168, 5.653025
1221.650, 5.699522
1222.133, 5.488759
1222.615, 5.444512
1223.097, 5.826956
1223.579, 6.228435
1224.061, 6.229865
1224.543, 6.126721
1225.025, 6.167330
1225.507, 6.299361
1225.990, 6.725593
1226.472, 7.074735
1226.954, 6.349313
1227.436, 4.600963
1227.918, 3.776450
1228.400, 5.072746
1228.882, 5.982016
1229.364, 5.818954
1229.846, 5.305836
1230.328, 4.443228
1230.811, 3.609894
1231.293, 2.991398
1231.775, 2.643262
1232.257, 2.670024
1232.739, 3.071605
1233.221, 3.869776
1233.703, 5.211755
1234.185, 6.366850
1234.668, 7.341140
1235.150, 7.703931
1235.632, 7.260687
1236.114, 6.628947
1236.596, 6.280990
1237.078, 6.070690
1237.560, 5.684098
1238.042, 5.246329
1238.525, 5.193622
1239.007, 5.439044
1239.489, 5.860930
1239.971, 6.299067
1240.453, 6.228038
1240.935, 5.557412
1241.417, 4.812148
1241.899, 4.148215
1242.381, 4.095140
1242.864, 5.956686
1243.346, 7.631589
1243.828, 6.958759
1244.310, 5.463732
1244.792, 4.701346
1245.274, 4.655147
1245.756, 5.026112
1246.238, 5.759487
1246.720, 6.241621
1247.203, 6.037334
1247.685, 6.145858
1248.167, 7.258193
1248.649, 7.687573
1249.131, 6.447100
1249.613, 5.147203
1250.095, 5.050992
1250.577, 5.638621
1251.059, 5.918494
1251.542, 5.912127
1252.024, 5.887949
1252.506, 5.844927
1252.988, 5.558318
1253.470, 5.037989
1253.952, 4.869742
1254.434, 5.217346
1254.916, 5.681849
1255.399, 6.000730
1255.881, 6.161337
1256.363, 6.178960
1256.845, 5.998986
1257.327, 5.080256
1257.809, 4.224281
1258.291, 5.243004
1258.773, 7.150368
1259.255, 7.265836
1259.738, 5.400691
1260.220, 4.330194
1260.702, 5.535955
1261.184, 6.218366
1261.666, 4.665735
1262.148, 3.515958
1262.630, 4.285964
1263.112, 5.323403
1263.594, 5.412758
1264.077, 5.051374
1264.559, 4.942806
1265.041, 5.058801
1265.523, 5.210557
1266.005, 5.474914
1266.487, 5.180343
1266.969, 4.193543
1267.451, 3.872128
1267.934, 4.556283
1268.416, 5.214208
1268.898, 5.264030
1269.380, 5.140042
1269.862, 5.336936
1270.344, 5.726761
1270.826, 6.169028
1271.308, 6.579825
1271.791, 6.711125
1272.273, 6.718094
1272.755, 7.148727
1273.237, 7.826206
1273.719, 7.689738
1274.201, 6.315163
1274.683, 5.239165
1275.165, 5.529520
1275.647, 5.692967
1276.130, 4.701582
1276.612, 3.968746
1277.094, 4.581631
1277.576, 5.659951
1278.058, 6.423615
1278.540, 6.812258
1279.022, 6.576668
1279.504, 5.644929
1279.986, 5.123043
1280.469, 5.044486
1280.951, 5.222490
1281.433, 5.661200
1281.915, 5.870333
1282.397, 5.671636
1282.879, 5.506251
1283.361, 5.728410
1283.843, 6.116178
1284.326, 6.406802
1284.808, 6.599983
##END=



