##NAMES=Gustavite
##RRUFFID=R100203
##IDEAL CHEMISTRY=Ag^1+^Pb^2+^Bi^3+^_3_S^2-^_6_
##LOCALITY=Level 390, Vein 14, Mina Herminia, Julcani District, Huancavelica, Peru
##OWNER=RRUFF
##SOURCE=William W Pinch
##DESCRIPTION=Elongated black metallic crystals with striations, on a matrix of tetrahedrite, R100204.
##STATUS=The identification of this mineral is confirmed by single-crystal X-ray diffraction and chemical analysis.
##URL=rruff.info/R100203
##MEASURED CHEMISTRY=Ag_1.02_Pb_0.96_Bi_1.86_Sb_1.17_(S_5.97_As_0.03_)_Î£=6.00_
171.6010, 33.07079
172.0831, 35.17217
172.5652, 38.21647
173.0474, 39.14897
173.5295, 37.03517
174.0116, 34.60453
174.4937, 34.14754
174.9758, 35.65676
175.4579, 36.93287
175.9401, 36.57531
176.4222, 35.71861
176.9043, 35.66987
177.3864, 36.87489
177.8685, 38.42858
178.3506, 39.14014
178.8328, 38.78631
179.3149, 38.37766
179.7970, 38.44226
180.2791, 38.53266
180.7612, 38.16734
181.2433, 37.10731
181.7255, 35.75361
182.2076, 34.91040
182.6897, 34.52610
183.1718, 34.85961
183.6539, 36.90028
184.1360, 39.18279
184.6181, 39.90596
185.1003, 38.10268
185.5824, 34.76096
186.0645, 33.47555
186.5466, 37.14411
187.0287, 39.38677
187.5108, 38.36733
187.9930, 35.74064
188.4751, 33.53773
188.9572, 32.89594
189.4393, 33.61272
189.9214, 34.62557
190.4035, 36.52601
190.8857, 38.06345
191.3678, 38.98397
191.8499, 39.37842
192.3320, 39.39795
192.8141, 39.10554
193.2962, 38.53223
193.7784, 37.89454
194.2605, 36.65109
194.7426, 35.90863
195.2247, 36.34805
195.7068, 37.65172
196.1889, 38.96907
196.6711, 39.89133
197.1532, 40.33515
197.6353, 40.14812
198.1174, 38.96852
198.5995, 37.56423
199.0816, 36.06518
199.5638, 34.55714
200.0459, 33.65303
200.5280, 33.93524
201.0101, 35.06538
201.4922, 35.89473
201.9743, 36.35744
202.4565, 36.54242
202.9386, 36.29207
203.4207, 35.58213
203.9028, 35.31744
204.3849, 36.93193
204.8670, 38.94843
205.3492, 39.00596
205.8313, 35.65489
206.3134, 31.53031
206.7955, 30.19735
207.2776, 32.27472
207.7597, 34.26898
208.2419, 34.13079
208.7240, 33.26280
209.2061, 33.07331
209.6882, 34.20472
210.1703, 35.80581
210.6524, 36.26256
211.1346, 34.99192
211.6167, 34.07638
212.0988, 34.57996
212.5809, 35.54527
213.0630, 36.02568
213.5451, 35.60248
214.0273, 34.67323
214.5094, 34.19012
214.9915, 34.63317
215.4736, 34.63224
215.9557, 33.45494
216.4378, 31.98158
216.9200, 31.12961
217.4021, 31.32369
217.8842, 32.19066
218.3663, 32.68486
218.8484, 32.47149
219.3305, 32.34399
219.8127, 32.39594
220.2948, 32.57272
220.7769, 32.82579
221.2590, 33.13313
221.7411, 33.48223
222.2232, 33.84794
222.7054, 34.78466
223.1875, 35.00889
223.6696, 33.79360
224.1517, 32.06163
224.6338, 30.80043
225.1159, 30.44206
225.5980, 30.86449
226.0802, 31.73993
226.5623, 34.74733
227.0444, 36.17174
227.5265, 34.30146
228.0086, 31.10099
228.4907, 29.12846
228.9729, 29.48061
229.4550, 31.39047
229.9371, 32.96962
230.4192, 34.70995
230.9013, 35.42005
231.3834, 33.88692
231.8656, 31.42969
232.3477, 30.20811
232.8298, 31.19006
233.3119, 33.18142
233.7940, 33.39931
234.2761, 31.05628
234.7583, 29.29943
235.2404, 29.33492
235.7225, 30.40310
236.2046, 31.15349
236.6867, 31.09156
237.1688, 30.69383
237.6510, 30.79357
238.1331, 31.39861
238.6152, 32.14994
239.0973, 33.33533
239.5794, 34.56216
240.0615, 34.83197
240.5437, 33.60195
241.0258, 31.91294
241.5079, 31.09591
241.9900, 31.09334
242.4721, 31.44896
242.9542, 32.26222
243.4364, 33.29949
243.9185, 33.97558
244.4006, 34.18360
244.8827, 33.96832
245.3648, 33.26177
245.8469, 32.13189
246.3290, 31.04970
246.8112, 30.14779
247.2933, 29.46324
247.7754, 29.05550
248.2575, 28.82631
248.7396, 29.11305
249.2217, 30.66683
249.7039, 33.04267
250.1860, 34.65694
250.6681, 33.88488
251.1502, 31.53476
251.6323, 30.78875
252.1144, 32.73778
252.5966, 34.75887
253.0787, 34.97546
253.5608, 34.06817
254.0429, 33.60609
254.5250, 35.01948
255.0071, 37.59787
255.4893, 38.44527
255.9714, 36.59837
256.4535, 34.47025
256.9356, 32.66632
257.4177, 31.41377
257.8998, 31.19727
258.3820, 32.66658
258.8641, 35.19063
259.3462, 36.38454
259.8283, 35.07163
260.3104, 34.36822
260.7925, 36.07548
261.2747, 38.68645
261.7568, 40.02626
262.2389, 38.75841
262.7210, 36.04323
263.2031, 35.41910
263.6852, 38.46088
264.1674, 40.96410
264.6495, 41.53477
265.1316, 41.30519
265.6137, 41.57719
266.0958, 42.94700
266.5779, 44.77055
267.0601, 45.41837
267.5422, 43.97523
268.0243, 42.97168
268.5064, 43.04167
268.9885, 43.50106
269.4706, 43.79327
269.9528, 43.71575
270.4349, 43.36586
270.9170, 42.82980
271.3991, 41.62456
271.8812, 41.25490
272.3633, 42.65532
272.8455, 44.25416
273.3276, 44.86231
273.8097, 44.19633
274.2918, 42.76312
274.7739, 41.22897
275.2560, 39.27916
275.7382, 37.94495
276.2202, 37.52597
276.7024, 37.35574
277.1845, 36.91095
277.6666, 36.17953
278.1487, 35.61535
278.6308, 35.81099
279.1129, 37.03190
279.5951, 38.11272
280.0772, 39.50769
280.5593, 40.42255
281.0414, 40.35701
281.5235, 39.36670
282.0056, 37.79331
282.4878, 35.81859
282.9699, 33.20246
283.4520, 31.95362
283.9341, 33.12790
284.4162, 34.42333
284.8983, 35.04246
285.3805, 35.00126
285.8626, 34.55954
286.3447, 33.84053
286.8268, 32.86092
287.3089, 32.54183
287.7910, 33.85257
288.2732, 34.73457
288.7553, 34.36121
289.2374, 33.13742
289.7195, 31.88998
290.2016, 31.12569
290.6837, 30.72559
291.1659, 29.99597
291.6480, 28.01339
292.1301, 26.78570
292.6122, 27.24941
293.0943, 28.51524
293.5764, 29.32064
294.0586, 29.08208
294.5407, 28.15458
295.0228, 27.49692
295.5049, 27.28647
295.9870, 27.14986
296.4691, 27.10938
296.9513, 27.12197
297.4334, 27.19826
297.9155, 27.33253
298.3976, 27.39708
298.8797, 27.17704
299.3618, 26.56724
299.8440, 25.81096
300.3261, 24.07801
300.8082, 22.71762
301.2903, 23.28076
301.7724, 25.86699
302.2545, 28.75798
302.7367, 29.88103
303.2188, 28.58674
303.7009, 27.89604
304.1830, 28.71646
304.6651, 29.35006
305.1472, 28.29675
305.6294, 25.80594
306.1115, 23.60631
306.5936, 23.31507
307.0757, 25.08886
307.5578, 25.64536
308.0399, 24.02674
308.5221, 22.37580
309.0042, 21.50460
309.4863, 21.35709
309.9684, 21.73615
310.4505, 22.61981
310.9326, 23.84391
311.4148, 24.19121
311.8969, 23.43259
312.3790, 22.22509
312.8611, 19.94599
313.3432, 17.45623
313.8253, 16.27388
314.3075, 17.16339
314.7896, 19.29713
315.2717, 20.58118
315.7538, 20.91877
316.2359, 20.52682
316.7180, 18.33107
317.2001, 15.88652
317.6823, 15.27792
318.1644, 17.04648
318.6465, 19.45850
319.1286, 19.77976
319.6107, 16.29249
320.0928, 14.91493
320.5750, 17.69606
321.0571, 21.10561
321.5392, 22.24448
322.0213, 20.91348
322.5034, 19.00866
322.9855, 18.40441
323.4677, 19.30474
323.9498, 20.17996
324.4319, 21.84246
324.9140, 22.75385
325.3961, 21.57660
325.8782, 18.87419
326.3604, 16.39525
326.8425, 15.38755
327.3246, 15.71489
327.8067, 15.82459
328.2888, 15.64573
328.7709, 15.36648
329.2531, 14.49234
329.7352, 13.64479
330.2173, 14.06959
330.6994, 16.42979
331.1815, 19.80169
331.6636, 21.69310
332.1458, 20.23326
332.6279, 19.54858
333.1100, 20.78219
333.5921, 22.34245
334.0742, 22.48732
334.5563, 20.78469
335.0385, 18.29243
335.5206, 16.51380
336.0027, 15.58481
336.4848, 15.14544
336.9669, 15.27551
337.4490, 15.76555
337.9312, 16.76132
338.4133, 18.09361
338.8954, 19.13806
339.3775, 19.25181
339.8596, 18.32557
340.3417, 17.84417
340.8239, 18.05763
341.3060, 18.38805
341.7881, 18.77424
342.2702, 19.11691
342.7523, 19.28597
343.2344, 19.20917
343.7166, 18.87650
344.1987, 18.23540
344.6808, 16.32290
345.1629, 15.23048
345.6450, 15.63539
346.1271, 16.76570
346.6093, 17.89203
347.0914, 18.71545
347.5735, 19.21171
348.0556, 19.36613
348.5377, 19.52205
349.0198, 18.59467
349.5020, 14.94854
349.9841, 11.57370
350.4662, 10.79156
350.9483, 12.66195
351.4304, 15.53193
351.9125, 17.82489
352.3947, 19.66341
352.8768, 20.05232
353.3589, 16.75413
353.8410, 14.23774
354.3231, 14.77902
354.8052, 17.33064
355.2874, 19.53933
355.7695, 19.79740
356.2516, 18.41100
356.7337, 17.09681
357.2158, 15.65585
357.6979, 14.59811
358.1800, 13.93818
358.6621, 13.70558
359.1443, 14.15989
359.6264, 15.39420
360.1085, 16.72760
360.5906, 16.73676
361.0727, 14.56760
361.5548, 13.32180
362.0370, 14.46820
362.5191, 15.69935
363.0012, 15.26117
363.4833, 13.19253
363.9654, 11.12306
364.4475, 10.73689
364.9297, 12.12664
365.4118, 13.69557
365.8939, 16.20059
366.3760, 17.99982
366.8581, 18.20872
367.3402, 17.25734
367.8224, 15.97004
368.3045, 14.61841
368.7866, 13.43817
369.2687, 13.30622
369.7508, 14.85562
370.2329, 16.05043
370.7151, 16.03190
371.1972, 15.43735
371.6793, 14.87886
372.1614, 14.55067
372.6435, 14.14786
373.1256, 13.20096
373.6078, 11.66249
374.0899, 10.26897
374.5720, 8.915579
375.0541, 8.032265
375.5362, 8.028805
376.0183, 8.845734
376.5005, 9.885199
376.9826, 10.94034
377.4647, 11.93133
377.9468, 12.52557
378.4289, 12.57374
378.9110, 12.50679
379.3932, 12.63519
379.8753, 12.85804
380.3574, 12.97639
380.8395, 12.88310
381.3216, 12.69993
381.8037, 12.56890
382.2859, 12.49063
382.7680, 12.42253
383.2501, 12.36370
383.7322, 12.29142
384.2143, 12.08587
384.6964, 11.60919
385.1786, 11.48618
385.6607, 12.59252
386.1428, 14.33919
386.6249, 15.02606
387.1070, 14.04751
387.5891, 12.52718
388.0713, 11.65283
388.5534, 11.36430
389.0355, 11.41385
389.5176, 12.21017
389.9997, 13.03785
390.4818, 13.10722
390.9640, 12.40805
391.4461, 11.49603
391.9282, 10.60670
392.4103, 9.844029
392.8924, 9.636118
393.3745, 10.41098
393.8567, 11.21934
394.3388, 11.75673
394.8209, 12.05884
395.3030, 12.25570
395.7851, 12.42646
396.2672, 12.30661
396.7494, 11.24385
397.2315, 8.148562
397.7136, 6.835893
398.1957, 8.758286
398.6778, 11.65175
399.1599, 13.87403
399.6420, 15.16867
400.1241, 15.89304
400.6063, 16.38272
401.0884, 16.65382
401.5705, 16.11638
402.0526, 13.54275
402.5347, 11.62928
403.0168, 11.56845
403.4990, 12.63925
403.9811, 13.68147
404.4632, 14.13809
404.9453, 14.20310
405.4274, 14.35976
405.9095, 14.89877
406.3917, 15.00860
406.8738, 13.96298
407.3559, 13.03107
407.8380, 13.58539
408.3201, 15.47713
408.8022, 17.01085
409.2844, 16.19323
409.7665, 12.78942
410.2486, 10.87886
410.7307, 11.79986
411.2128, 12.85828
411.6949, 13.29344
412.1771, 13.33276
412.6592, 13.51535
413.1413, 14.19331
413.6234, 14.86220
414.1055, 14.23401
414.5876, 11.71865
415.0698, 9.697106
415.5519, 8.925520
416.0340, 8.724939
416.5161, 8.704478
416.9982, 8.809796
417.4803, 9.164628
417.9625, 10.08472
418.4446, 11.44021
418.9267, 12.37504
419.4088, 12.83696
419.8909, 12.83475
420.3730, 12.01127
420.8552, 10.77973
421.3373, 10.01261
421.8194, 10.17009
422.3015, 10.74042
422.7836, 11.00823
423.2657, 10.98304
423.7479, 11.56236
424.2300, 13.83160
424.7121, 16.20753
425.1942, 15.93050
425.6763, 12.34887
426.1584, 9.541279
426.6406, 10.32080
427.1227, 12.70438
427.6048, 12.94046
428.0869, 10.25800
428.5690, 7.493312
429.0511, 7.497670
429.5333, 10.27956
430.0154, 11.69164
430.4975, 10.64784
430.9796, 9.241557
431.4617, 8.552547
431.9438, 8.439657
432.4260, 8.297136
432.9081, 7.762315
433.3902, 7.356638
433.8723, 8.419751
434.3544, 12.97948
434.8365, 15.60349
435.3187, 14.75241
435.8008, 12.80709
436.2829, 11.56391
436.7650, 11.29501
437.2471, 11.44584
437.7292, 11.52845
438.2114, 11.54154
438.6935, 11.54901
439.1756, 11.23824
439.6577, 11.27593
440.1398, 12.13948
440.6219, 13.33977
441.1040, 14.31661
441.5862, 14.82910
442.0683, 14.81648
442.5504, 13.89454
443.0325, 11.35509
443.5146, 10.08816
443.9967, 11.85271
444.4789, 13.68543
444.9610, 13.92192
445.4431, 12.76289
445.9252, 11.47020
446.4073, 10.98761
446.8894, 11.08288
447.3716, 10.73038
447.8537, 9.528194
448.3358, 8.890415
448.8179, 10.37938
449.3000, 12.35370
449.7821, 12.78100
450.2643, 10.93152
450.7464, 9.021552
451.2285, 9.264460
451.7106, 11.21451
452.1927, 12.62892
452.6748, 12.98716
453.1570, 12.86730
453.6391, 12.95214
454.1212, 13.12897
454.6033, 12.65680
455.0854, 10.14209
455.5675, 7.811309
456.0497, 8.340604
456.5318, 11.24014
457.0139, 13.24876
457.4960, 12.44833
457.9781, 10.01476
458.4602, 9.210415
458.9424, 10.75351
459.4245, 12.10134
459.9066, 12.82804
460.3887, 13.13888
460.8708, 13.04922
461.3529, 12.65370
461.8351, 12.48867
462.3172, 13.23239
462.7993, 14.95868
463.2814, 15.07063
463.7635, 11.48759
464.2456, 8.791971
464.7278, 8.748258
465.2099, 10.06637
465.6920, 10.87669
466.1741, 10.46402
466.6562, 9.564990
467.1383, 9.444087
467.6205, 10.37409
468.1026, 11.23679
468.5847, 12.61113
469.0668, 13.34702
469.5489, 12.39413
470.0310, 10.30140
470.5132, 8.532800
470.9953, 7.955688
471.4774, 8.327112
471.9595, 9.287706
472.4416, 11.19380
472.9237, 12.35480
473.4059, 11.60018
473.8880, 10.14006
474.3701, 8.840524
474.8522, 7.781327
475.3343, 7.331378
475.8164, 7.870024
476.2986, 9.188373
476.7807, 11.12967
477.2628, 13.92923
477.7449, 15.92223
478.2270, 15.44396
478.7091, 13.02273
479.1913, 11.11493
479.6734, 9.797400
480.1555, 9.066101
480.6376, 9.138755
481.1197, 9.777358
481.6018, 10.56297
482.0839, 11.37838
482.5660, 12.08123
483.0482, 12.46567
483.5303, 12.44573
484.0124, 12.36486
484.4945, 12.23724
484.9766, 12.04046
485.4587, 11.57551
485.9409, 11.03278
486.4230, 10.92678
486.9051, 11.58429
487.3872, 12.62417
487.8693, 12.90556
488.3514, 11.93935
488.8336, 11.11563
489.3157, 10.33786
489.7978, 9.864086
490.2799, 9.952693
490.7620, 10.54845
491.2441, 11.36978
491.7263, 12.36184
492.2084, 13.38186
492.6905, 13.65592
493.1726, 12.90004
493.6547, 12.08034
494.1368, 11.27583
494.6190, 10.76589
495.1011, 11.07439
495.5832, 12.41487
496.0653, 13.58703
496.5474, 13.53151
497.0295, 12.57863
497.5117, 11.74721
497.9938, 11.23125
498.4759, 10.60622
498.9580, 9.075191
499.4401, 7.037963
499.9222, 6.516245
500.4044, 9.787963
500.8865, 12.37818
501.3686, 10.93765
501.8507, 7.284944
502.3328, 5.338039
502.8149, 6.473122
503.2971, 8.852066
503.7792, 9.865781
504.2613, 9.002830
504.7434, 8.584911
505.2255, 9.216168
505.7076, 9.648562
506.1898, 8.830041
506.6719, 7.403869
507.1540, 6.773389
507.6361, 7.697764
508.1182, 9.563880
508.6003, 11.10907
509.0825, 12.66737
509.5646, 13.00009
510.0467, 10.33724
510.5288, 7.830507
511.0109, 7.481261
511.4930, 8.915158
511.9752, 10.32569
512.4573, 10.54459
512.9394, 10.01647
513.4215, 9.881836
513.9036, 10.28459
514.3857, 10.10636
514.8679, 8.286383
515.3500, 6.136952
515.8321, 5.225708
516.3142, 5.622223
516.7963, 6.901777
517.2784, 10.09243
517.7606, 13.50272
518.2427, 14.52789
518.7248, 13.02323
519.2069, 10.81049
519.6890, 8.899836
520.1711, 7.327253
520.6533, 6.368184
521.1354, 5.915317
521.6175, 6.090959
522.0996, 7.398875
522.5817, 9.068114
523.0638, 10.44052
523.5460, 11.34321
524.0281, 11.78028
524.5102, 11.68228
524.9923, 11.07059
525.4744, 10.69097
525.9565, 10.74610
526.4387, 10.78285
526.9208, 10.64299
527.4029, 10.47411
527.8850, 10.67522
528.3671, 11.28655
528.8492, 11.40119
529.3314, 9.138204
529.8135, 4.971148
530.2956, 4.070385
530.7777, 8.386382
531.2598, 12.51955
531.7419, 12.35922
532.2241, 9.950454
532.7062, 8.489199
533.1883, 8.785592
533.6704, 9.633947
534.1525, 10.63991
534.6346, 11.54298
535.1168, 11.52798
535.5989, 10.33332
536.0810, 9.051660
536.5631, 8.853729
537.0452, 9.803621
537.5273, 10.30770
538.0095, 9.763031
538.4916, 9.487745
538.9737, 10.35805
539.4558, 11.67538
539.9379, 12.43262
540.4200, 12.29480
540.9022, 11.53352
541.3843, 10.36035
541.8664, 8.543140
542.3485, 7.642397
542.8306, 8.832582
543.3127, 9.690455
543.7948, 9.251648
544.2769, 8.054586
544.7590, 6.741560
545.2411, 5.438971
545.7233, 4.816519
546.2054, 6.103229
546.6875, 9.153628
547.1696, 11.85176
547.6517, 14.15738
548.1339, 15.52433
548.6160, 14.95577
549.0981, 13.02208
549.5802, 11.19609
550.0623, 9.391137
550.5444, 8.152705
551.0266, 8.121987
551.5087, 8.896971
551.9908, 9.683406
552.4729, 10.26104
552.9550, 10.37823
553.4371, 9.520535
553.9193, 7.273275
554.4014, 6.658694
554.8835, 9.239819
555.3656, 11.47742
555.8477, 11.75091
556.3298, 10.98384
556.8120, 10.71091
557.2941, 11.47225
557.7762, 12.42655
558.2583, 12.23027
558.7404, 10.68633
559.2225, 9.647827
559.7047, 9.261404
560.1868, 9.302778
560.6689, 9.754441
561.1510, 10.48454
561.6331, 11.35570
562.1152, 12.46809
562.5974, 13.30089
563.0795, 13.30551
563.5616, 12.61992
564.0437, 11.58273
564.5258, 10.11832
565.0079, 8.987855
565.4901, 9.142016
565.9722, 10.47947
566.4543, 10.85877
566.9364, 9.168674
567.4185, 7.798031
567.9006, 8.221447
568.3828, 9.301805
568.8649, 9.187978
569.3470, 7.503408
569.8291, 5.614765
570.3112, 5.179148
570.7933, 6.299055
571.2755, 6.985809
571.7576, 6.721739
572.2397, 6.672838
572.7218, 7.423991
573.2039, 8.377585
573.6860, 8.676437
574.1682, 8.136670
574.6503, 7.774297
575.1324, 8.831775
575.6145, 10.93924
576.0966, 12.51830
576.5787, 13.50555
577.0609, 13.80588
577.5430, 13.01698
578.0251, 11.57594
578.5072, 10.57684
578.9893, 10.20679
579.4714, 9.904713
579.9536, 9.522085
580.4357, 9.057108
580.9178, 8.297194
581.3999, 7.333017
581.8820, 6.877202
582.3641, 7.586309
582.8463, 9.170866
583.3284, 9.916452
583.8105, 8.633277
584.2926, 8.248819
584.7747, 9.913465
585.2568, 11.80503
585.7390, 12.57198
586.2211, 12.16833
586.7032, 11.28528
587.1853, 10.29495
587.6674, 9.264295
588.1495, 8.166932
588.6317, 6.817658
589.1138, 6.703880
589.5959, 9.473818
590.0780, 12.57170
590.5601, 12.56847
591.0422, 9.529484
591.5244, 7.353319
592.0065, 7.948728
592.4886, 9.346141
592.9707, 10.02472
593.4528, 9.977538
593.9349, 9.362370
594.4171, 8.199179
594.8992, 6.867468
595.3813, 5.996295
595.8634, 5.554487
596.3455, 5.713678
596.8276, 7.284640
597.3098, 8.521182
597.7919, 8.365167
598.2740, 7.457705
598.7561, 7.024937
599.2382, 7.589453
599.7203, 8.310890
600.2025, 7.912646
600.6846, 6.432066
601.1667, 5.238547
601.6488, 4.257481
602.1309, 4.007609
602.6130, 5.638333
603.0952, 8.160265
603.5773, 9.454267
604.0594, 8.684440
604.5415, 7.748470
605.0236, 7.537227
605.5057, 7.805779
605.9879, 8.268519
606.4700, 8.845993
606.9521, 9.407313
607.4342, 9.859345
607.9163, 10.19095
608.3984, 10.30768
608.8806, 9.713728
609.3627, 9.603967
609.8448, 10.79064
610.3269, 11.95105
610.8090, 12.04150
611.2911, 11.05759
611.7733, 9.559408
612.2554, 7.554148
612.7375, 5.639467
613.2196, 5.463081
613.7017, 7.207831
614.1838, 8.822970
614.6660, 9.971342
615.1481, 10.40864
615.6302, 9.277295
616.1123, 6.722157
616.5944, 5.465292
617.0765, 7.138963
617.5587, 9.258201
618.0408, 10.19172
618.5229, 10.28080
619.0050, 10.46140
619.4871, 11.05458
619.9692, 11.55809
620.4514, 11.21370
620.9335, 9.843255
621.4156, 8.975157
621.8977, 8.968763
622.3798, 9.064993
622.8619, 9.143524
623.3441, 9.185679
623.8262, 9.123281
624.3083, 8.948920
624.7904, 8.891550
625.2725, 9.334836
625.7546, 10.02476
626.2367, 10.18062
626.7188, 9.720336
627.2009, 9.203098
627.6830, 8.768329
628.1652, 8.575967
628.6473, 9.162671
629.1294, 10.90961
629.6115, 12.07213
630.0936, 12.44904
630.5757, 12.11904
631.0579, 10.62772
631.5400, 8.490669
632.0221, 6.849020
632.5042, 6.283041
632.9863, 6.565553
633.4684, 7.521129
633.9506, 9.471853
634.4327, 10.44375
634.9148, 9.333700
635.3969, 8.507154
635.8790, 9.740387
636.3611, 11.86111
636.8433, 12.73464
637.3254, 11.53323
637.8075, 9.974970
638.2896, 9.446085
638.7717, 9.392404
639.2538, 8.371087
639.7360, 6.255884
640.2181, 4.987737
640.7002, 6.193895
641.1823, 9.095809
641.6644, 10.52457
642.1465, 8.815698
642.6287, 7.880759
643.1108, 8.561193
643.5929, 9.342145
644.0750, 9.062610
644.5571, 7.983094
645.0392, 7.124574
645.5214, 7.105530
646.0035, 7.421668
646.4856, 6.912797
646.9677, 5.587067
647.4498, 5.711404
647.9319, 8.416390
648.4141, 11.12576
648.8962, 11.68004
649.3783, 10.46088
649.8604, 8.846234
650.3425, 6.211511
650.8246, 4.188440
651.3068, 3.425349
651.7889, 3.630269
652.2710, 4.748711
652.7531, 6.583932
653.2352, 8.488215
653.7173, 10.02386
654.1995, 11.10962
654.6816, 11.27138
655.1637, 9.892856
655.6458, 9.066164
656.1279, 10.08638
656.6100, 10.93111
657.0922, 9.963913
657.5743, 7.748809
658.0564, 6.342333
658.5385, 6.752495
659.0206, 7.961401
659.5027, 9.627637
659.9849, 11.30365
660.4670, 11.42127
660.9491, 9.574170
661.4312, 7.479937
661.9133, 6.661369
662.3954, 7.048195
662.8776, 7.638968
663.3597, 9.320275
663.8418, 10.02349
664.3239, 8.462169
664.8060, 6.665002
665.2881, 6.494922
665.7703, 7.764448
666.2524, 8.874335
666.7345, 8.702341
667.2166, 7.966234
667.6987, 8.183488
668.1808, 9.313193
668.6630, 9.759015
669.1451, 9.000617
669.6272, 7.797452
670.1093, 6.651845
670.5914, 5.632772
671.0735, 5.333366
671.5557, 6.771359
672.0378, 7.694375
672.5199, 6.619235
673.0020, 5.099939
673.4841, 5.090941
673.9662, 6.619659
674.4484, 8.127548
674.9305, 8.402692
675.4126, 7.775242
675.8947, 7.264410
676.3768, 6.815329
676.8589, 6.718976
677.3411, 6.991854
677.8232, 7.705964
678.3053, 9.487800
678.7874, 11.83237
679.2695, 12.78688
679.7516, 10.54560
680.2338, 8.532554
680.7159, 9.478649
681.1980, 11.68188
681.6801, 12.27465
682.1622, 10.89170
682.6443, 9.307386
683.1265, 9.003732
683.6086, 9.660128
684.0907, 9.645952
684.5728, 8.418600
685.0549, 7.709654
685.5370, 8.237166
686.0192, 8.917935
686.5013, 9.272191
686.9834, 9.270305
687.4655, 8.895082
687.9476, 7.896959
688.4297, 6.965764
688.9119, 6.845072
689.3940, 7.236950
689.8761, 7.251158
690.3582, 6.760159
690.8403, 6.996277
691.3224, 9.243397
691.8046, 12.72853
692.2867, 13.73305
692.7688, 9.965173
693.2509, 7.364091
693.7330, 7.015481
694.2151, 7.050814
694.6973, 6.221220
695.1794, 4.867002
695.6615, 4.015785
696.1436, 4.132734
696.6257, 4.806664
697.1078, 5.885594
697.5900, 7.162221
698.0721, 7.852126
698.5542, 7.812668
699.0363, 7.559215
699.5184, 7.278154
700.0005, 7.161942
700.4827, 7.942540
700.9648, 11.31749
701.4469, 12.76276
701.9290, 10.62131
702.4111, 8.041625
702.8932, 6.714974
703.3754, 6.444564
703.8575, 6.547358
704.3396, 6.767358
704.8217, 6.953938
705.3038, 6.670876
705.7859, 6.139692
706.2681, 6.726527
706.7502, 8.767478
707.2323, 10.18226
707.7144, 9.385938
708.1965, 7.593340
708.6786, 7.888201
709.1607, 11.64948
709.6428, 13.34863
710.1249, 10.68974
710.6071, 7.810275
711.0892, 7.163045
711.5713, 7.898352
712.0534, 8.229137
712.5355, 7.580215
713.0176, 7.027358
713.4998, 8.090604
713.9819, 10.38116
714.4640, 11.90961
714.9461, 12.66966
715.4282, 12.42449
715.9103, 10.59174
716.3925, 8.225373
716.8746, 6.931069
717.3567, 6.768981
717.8388, 6.941161
718.3209, 7.882752
718.8030, 8.601531
719.2852, 8.470586
719.7673, 7.903892
720.2494, 7.248317
720.7315, 6.715192
721.2136, 6.884070
721.6957, 8.805468
722.1779, 11.61072
722.6600, 11.81520
723.1421, 9.071614
723.6242, 6.749312
724.1063, 5.773620
724.5884, 5.609552
725.0706, 5.953360
725.5527, 6.746928
726.0348, 7.161276
726.5169, 6.732134
726.9990, 6.437998
727.4811, 6.633500
727.9633, 7.110568
728.4454, 7.858086
728.9275, 8.704273
729.4096, 9.027917
729.8917, 8.217024
730.3738, 7.117747
730.8560, 8.118155
731.3381, 11.32880
731.8202, 12.21430
732.3023, 9.043028
732.7844, 5.913435
733.2665, 6.173903
733.7487, 8.896136
734.2308, 10.41099
734.7129, 10.33851
735.1950, 9.784779
735.6771, 8.324240
736.1592, 7.006505
736.6414, 6.856773
737.1235, 7.527297
737.6056, 7.956156
738.0877, 7.656779
738.5698, 7.248184
739.0519, 7.838124
739.5341, 9.240755
740.0162, 9.609762
740.4983, 8.613812
740.9804, 7.731277
741.4625, 7.748503
741.9446, 8.246532
742.4268, 8.484143
742.9089, 8.440166
743.3910, 8.289845
743.8731, 7.587056
744.3552, 7.278403
744.8373, 8.137284
745.3195, 9.533085
745.8016, 10.73655
746.2837, 11.49475
746.7658, 11.67345
747.2479, 10.94256
747.7300, 9.649280
748.2122, 8.785930
748.6943, 8.359202
749.1764, 7.797127
749.6585, 6.896051
750.1406, 5.885619
750.6227, 4.699443
751.1049, 3.407174
751.5870, 3.779945
752.0691, 7.832485
752.5512, 10.69038
753.0333, 10.55988
753.5154, 9.639544
753.9976, 9.872496
754.4797, 11.03458
754.9618, 11.70454
755.4439, 11.08976
755.9260, 9.928540
756.4081, 9.057377
756.8903, 8.459520
757.3724, 7.970429
757.8545, 7.539436
758.3366, 7.857009
758.8187, 9.631407
759.3008, 12.06321
759.7830, 13.14185
760.2651, 12.29164
760.7472, 11.41499
761.2293, 10.29419
761.7114, 9.393838
762.1935, 8.866596
762.6757, 8.689444
763.1578, 9.009929
763.6399, 9.818371
764.1220, 10.31124
764.6041, 9.559344
765.0862, 8.347289
765.5684, 7.847814
766.0505, 7.985673
766.5326, 8.445261
767.0147, 9.159789
767.4968, 9.512065
767.9789, 8.617089
768.4611, 6.582431
768.9432, 6.207135
769.4253, 9.330273
769.9074, 10.94723
770.3895, 8.903279
770.8716, 6.402571
771.3538, 5.571640
771.8359, 6.104879
772.3180, 6.651959
772.8001, 6.803337
773.2822, 6.833719
773.7643, 6.859781
774.2465, 6.914365
774.7286, 6.941730
775.2107, 7.014281
775.6928, 7.586416
776.1749, 8.971155
776.6570, 10.47010
777.1392, 10.51829
777.6213, 8.795851
778.1034, 7.993769
778.5855, 8.528155
779.0676, 9.219264
779.5497, 9.565700
780.0319, 9.785182
780.5140, 10.26116
780.9961, 11.04864
781.4782, 11.37164
781.9603, 10.83834
782.4424, 10.01006
782.9246, 8.694728
783.4067, 7.520572
783.8888, 7.682703
784.3709, 9.173509
784.8530, 10.56245
785.3351, 10.69832
785.8173, 9.963881
786.2994, 9.225342
786.7815, 8.485349
787.2636, 7.702960
787.7457, 6.781882
788.2278, 6.116118
788.7100, 6.050045
789.1921, 6.471482
789.6742, 6.939484
790.1563, 7.349195
790.6384, 7.997816
791.1205, 10.00002
791.6026, 11.13841
792.0847, 9.311911
792.5668, 6.068791
793.0490, 3.997200
793.5311, 3.859298
794.0132, 4.488246
794.4953, 5.021639
794.9774, 5.645952
795.4595, 6.966162
795.9417, 8.790771
796.4238, 9.925109
796.9059, 9.970617
797.3880, 9.354538
797.8701, 8.386492
798.3522, 7.143981
798.8344, 7.031375
799.3165, 8.918286
799.7986, 10.25952
800.2807, 10.72133
800.7628, 10.44447
801.2449, 9.041350
801.7271, 6.962729
802.2092, 5.330966
802.6913, 4.283234
803.1734, 4.016713
803.6555, 5.132913
804.1376, 6.735803
804.6198, 7.879637
805.1019, 8.621623
805.5840, 9.663385
806.0661, 11.27399
806.5482, 12.31879
807.0303, 10.53814
807.5125, 6.464303
807.9946, 5.734754
808.4767, 9.086432
808.9588, 11.61255
809.4409, 11.52858
809.9230, 10.21679
810.4052, 9.109300
810.8873, 8.204546
811.3694, 7.097998
811.8515, 4.679579
812.3336, 3.568007
812.8157, 5.249534
813.2979, 7.628705
813.7800, 9.525074
814.2621, 10.61556
814.7442, 10.43205
815.2263, 8.542924
815.7084, 6.580745
816.1906, 6.431496
816.6727, 7.266832
817.1548, 7.243881
817.6369, 6.387811
818.1190, 5.935014
818.6011, 6.451978
819.0833, 7.434276
819.5654, 8.174018
820.0475, 8.662766
820.5296, 9.246383
821.0117, 10.35966
821.4938, 10.66433
821.9760, 9.002841
822.4581, 7.106197
822.9402, 6.505251
823.4223, 6.954100
823.9044, 7.222000
824.3865, 6.610764
824.8687, 6.495733
825.3508, 8.232704
825.8329, 10.08545
826.3150, 10.04642
826.7971, 8.610960
827.2792, 7.490891
827.7614, 7.437154
828.2435, 8.081195
828.7256, 9.623488
829.2077, 11.49169
829.6898, 10.76241
830.1719, 7.383882
830.6541, 5.903771
831.1362, 8.413126
831.6183, 11.93610
832.1004, 12.87175
832.5825, 11.26279
833.0646, 10.47729
833.5468, 11.29297
834.0289, 11.73257
834.5110, 11.29433
834.9931, 10.68358
835.4752, 10.39205
835.9573, 10.27577
836.4395, 9.878080
836.9216, 8.974306
837.4037, 8.151660
837.8858, 7.681212
838.3679, 7.471867
838.8500, 7.304973
839.3322, 7.330684
839.8143, 8.250558
840.2964, 10.18868
840.7785, 11.71698
841.2606, 10.92273
841.7427, 8.560480
842.2249, 7.679720
842.7070, 8.335188
843.1891, 9.348983
843.6712, 10.64577
844.1533, 11.52975
844.6354, 11.27116
845.1176, 10.12128
845.5997, 9.306020
846.0818, 8.697466
846.5639, 8.657594
847.0460, 9.896206
847.5281, 10.91875
848.0103, 10.96720
848.4924, 10.37908
848.9745, 9.447551
849.4566, 8.233385
849.9387, 7.758048
850.4208, 9.472471
850.9030, 11.31650
851.3851, 11.21478
851.8672, 9.916506
852.3493, 8.744934
852.8314, 8.053381
853.3135, 7.820045
853.7957, 8.080111
854.2778, 8.648844
854.7599, 9.039701
855.2420, 9.264542
855.7241, 10.20773
856.2062, 12.33284
856.6884, 13.24256
857.1705, 11.27130
857.6526, 7.766493
858.1347, 4.957137
858.6168, 2.549973
859.0989, 2.252551
859.5811, 6.846556
860.0632, 9.899715
860.5453, 8.802411
861.0274, 6.436300
861.5095, 5.038328
861.9916, 4.771046
862.4738, 5.250884
862.9559, 6.897465
863.4380, 8.187697
863.9201, 7.717680
864.4022, 6.625842
864.8843, 6.249660
865.3665, 6.554591
865.8486, 7.000443
866.3307, 7.351447
866.8128, 7.656888
867.2949, 8.026203
867.7770, 8.398231
868.2592, 8.473928
868.7413, 8.249425
869.2234, 7.901324
869.7055, 7.400127
870.1876, 7.172020
870.6697, 7.809334
871.1519, 9.009433
871.6340, 8.983782
872.1161, 6.593006
872.5981, 5.165766
873.0803, 5.319974
873.5624, 5.968064
874.0445, 7.255062
874.5266, 8.496252
875.0087, 8.471601
875.4908, 6.931723
875.9730, 6.030968
876.4551, 7.001844
876.9372, 8.291829
877.4193, 9.268389
877.9014, 9.803432
878.3835, 9.717318
878.8657, 9.053526
879.3478, 7.901244
879.8299, 6.101965
880.3120, 4.686714
880.7941, 5.459490
881.2762, 7.759332
881.7584, 9.610509
882.2405, 10.83907
882.7226, 11.36081
883.2047, 11.06691
883.6868, 10.61419
884.1689, 11.09001
884.6511, 9.869916
885.1332, 11.75994
885.6153, 8.029769
886.0974, 5.327603
886.5795, 4.722136
887.0616, 5.016243
887.5438, 5.926104
888.0259, 6.989479
888.5080, 6.658907
888.9901, 3.796786
889.4722, 2.195291
889.9543, 3.001439
890.4365, 4.524602
890.9186, 6.631544
891.4007, 8.516193
891.8828, 8.994966
892.3649, 8.045259
892.8470, 6.968966
893.3292, 6.136918
893.8113, 5.949265
894.2934, 7.352362
894.7755, 9.426470
895.2576, 10.76808
895.7397, 11.13008
896.2219, 10.27780
896.7040, 8.045088
897.1861, 5.771170
897.6682, 5.913652
898.1503, 8.031513
898.6324, 8.177490
899.1146, 6.144488
899.5967, 5.310196
900.0788, 6.992648
900.5609, 9.134433
901.0430, 9.687788
901.5251, 8.946142
902.0073, 8.817054
902.4894, 10.24956
902.9715, 10.31342
903.4536, 7.099833
903.9357, 4.562991
904.4178, 4.838171
904.9000, 6.611608
905.3821, 8.529428
905.8642, 10.55127
906.3463, 11.01647
906.8284, 7.728825
907.3105, 4.961897
907.7927, 5.688149
908.2748, 7.205091
908.7569, 6.090274
909.2390, 3.039407
909.7211, 1.437169
910.2032, 2.954076
910.6854, 5.257531
911.1675, 6.463581
911.6496, 6.928258
912.1317, 6.945328
912.6138, 6.739297
913.0959, 7.131186
913.5781, 8.295218
914.0602, 9.105994
914.5423, 8.361172
915.0244, 6.723841
915.5065, 6.340658
915.9886, 7.224504
916.4708, 7.678189
916.9529, 7.485593
917.4350, 6.795937
917.9171, 5.388726
918.3992, 4.105993
918.8813, 4.669428
919.3635, 7.556374
919.8456, 8.578936
920.3277, 6.292324
920.8098, 4.514875
921.2919, 4.017650
921.7740, 4.327842
922.2562, 5.710434
922.7383, 7.630561
923.2204, 8.435476
923.7025, 7.339759
924.1846, 6.669829
924.6667, 7.336818
925.1489, 8.233556
925.6310, 9.119421
926.1131, 9.590104
926.5952, 8.788122
927.0773, 6.867200
927.5594, 5.502127
928.0416, 5.818204
928.5237, 6.721552
929.0058, 7.608280
929.4879, 8.223400
929.9700, 7.902669
930.4521, 6.895350
930.9343, 6.323916
931.4164, 6.643926
931.8985, 7.009466
932.3806, 6.070018
932.8627, 7.056443
933.3448, 5.192303
933.8270, 7.772973
934.3091, 9.116622
934.7912, 8.514223
935.2733, 6.972576
935.7554, 4.948603
936.2375, 3.112258
936.7197, 3.296030
937.2018, 5.990207
937.6839, 7.904891
938.1660, 8.878558
938.6481, 9.499491
939.1302, 10.00016
939.6124, 10.17098
940.0945, 9.566046
940.5766, 8.327307
941.0587, 7.798529
941.5408, 9.123134
942.0229, 9.379755
942.5051, 7.280536
942.9872, 5.351799
943.4693, 5.211018
943.9514, 5.783025
944.4335, 5.466998
944.9156, 4.100478
945.3978, 2.944602
945.8799, 1.828873
946.3620, 1.756577
946.8441, 4.522270
947.3262, 7.610076
947.8083, 8.129617
948.2905, 6.714922
948.7726, 5.652764
949.2547, 5.783204
949.7368, 6.285784
950.2189, 6.651089
950.7010, 6.861720
951.1832, 6.660916
951.6653, 6.339083
952.1474, 6.875729
952.6295, 8.232336
953.1116, 8.980124
953.5938, 8.144037
954.0759, 6.623786
954.5580, 5.648417
955.0400, 5.281909
955.5222, 6.200512
956.0043, 8.383753
956.4864, 10.11108
956.9685, 10.86184
957.4506, 10.59347
957.9327, 9.065449
958.4149, 6.725386
958.8970, 5.670687
959.3791, 6.282944
959.8612, 6.089991
960.3433, 4.370561
960.8254, 3.357156
961.3076, 4.366590
961.7897, 6.271379
962.2718, 7.756070
962.7539, 8.832765
963.2360, 8.832962
963.7181, 6.709120
964.2003, 5.126162
964.6824, 4.257800
965.1645, 4.041099
965.6466, 4.740220
966.1287, 5.952678
966.6108, 7.147099
967.0930, 8.337159
967.5751, 8.872275
968.0572, 7.914367
968.5393, 7.161163
969.0214, 7.719267
969.5035, 8.421380
969.9857, 8.163667
970.4678, 7.116806
970.9499, 5.831629
971.4320, 4.369189
971.9141, 3.578497
972.3962, 4.465437
972.8784, 5.743899
973.3605, 6.509462
973.8426, 6.780936
974.3247, 6.363411
974.8068, 5.507672
975.2889, 5.286566
975.7711, 6.447818
976.2532, 7.570236
976.7353, 6.564591
977.2174, 4.685943
977.6995, 4.429636
978.1816, 5.423447
978.6638, 5.944943
979.1459, 5.550492
979.6280, 4.965235
980.1101, 4.756448
980.5922, 4.787376
981.0743, 4.654487
981.5565, 4.472835
982.0386, 5.365476
982.5207, 7.342684
983.0028, 7.920512
983.4849, 6.023034
983.9670, 3.450906
984.4492, 2.002897
984.9313, 1.726387
985.4134, 3.333961
985.8955, 7.318048
986.3776, 9.224595
986.8597, 8.089756
987.3419, 6.833380
987.8240, 6.816347
988.3061, 7.519313
988.7882, 8.406463
989.2703, 9.467911
989.7524, 9.183365
990.2346, 6.455245
990.7167, 4.856155
991.1988, 5.505806
991.6809, 6.390315
992.1630, 6.451213
992.6451, 5.991262
993.1273, 5.480136
993.6094, 4.888490
994.0915, 4.466480
994.5736, 3.569761
995.0557, 3.744357
995.5378, 6.430411
996.0200, 9.156907
996.5021, 10.19796
996.9842, 10.10441
997.4663, 10.17282
997.9484, 10.69057
998.4305, 10.46586
998.9127, 8.386254
999.3948, 6.525739
999.8769, 5.523705
1000.359, 5.354386
1000.841, 6.732950
1001.323, 8.787805
1001.805, 9.259595
1002.287, 7.292012
1002.770, 5.352951
1003.252, 4.637391
1003.734, 4.480119
1004.216, 4.463984
1004.698, 4.663957
1005.180, 5.395211
1005.662, 6.475798
1006.144, 7.205073
1006.627, 7.237124
1007.109, 7.221726
1007.591, 8.315160
1008.073, 9.138887
1008.555, 7.301435
1009.037, 4.225155
1009.519, 2.812529
1010.001, 3.378604
1010.483, 4.419096
1010.966, 5.112290
1011.448, 5.677446
1011.930, 6.329654
1012.412, 7.058507
1012.894, 8.170676
1013.376, 9.331811
1013.858, 9.315982
1014.340, 7.954218
1014.823, 6.230783
1015.305, 4.752139
1015.787, 3.739516
1016.269, 3.686721
1016.751, 4.404162
1017.233, 5.376789
1017.715, 6.491465
1018.197, 7.072823
1018.679, 6.938672
1019.162, 6.552131
1019.644, 6.220179
1020.126, 6.141800
1020.608, 7.126861
1021.090, 6.950576
1021.572, 6.914264
1022.054, 7.699625
1022.536, 6.811124
1023.018, 7.450923
1023.501, 8.284322
1023.983, 8.107278
1024.465, 7.224369
1024.947, 6.449263
1025.429, 5.725976
1025.911, 5.961801
1026.393, 7.408853
1026.875, 8.752909
1027.358, 9.748410
1027.840, 9.722301
1028.322, 7.635766
1028.804, 4.307945
1029.286, 3.389336
1029.768, 5.715564
1030.250, 6.907991
1030.732, 6.494503
1031.214, 5.981611
1031.697, 5.923443
1032.179, 5.896315
1032.661, 5.325264
1033.143, 5.787917
1033.625, 4.519465
1034.107, 6.303153
1034.589, 7.182960
1035.071, 7.160754
1035.553, 6.089488
1036.036, 2.626663
1036.518, -0.4111462
1037.000, 0.4433746
1037.482, 4.352298
1037.964, 6.381090
1038.446, 5.065077
1038.928, 4.733414
1039.410, 6.200319
1039.893, 7.550026
1040.375, 8.322091
1040.857, 8.556713
1041.339, 7.853496
1041.821, 6.527248
1042.303, 6.371527
1042.785, 8.585510
1043.267, 9.686855
1043.750, 8.496503
1044.232, 7.467008
1044.714, 7.847695
1045.196, 8.477846
1045.678, 8.082187
1046.160, 6.888286
1046.642, 6.136029
1047.124, 6.195443
1047.606, 6.120481
1048.089, 5.584073
1048.571, 5.144984
1049.053, 5.321088
1049.535, 5.469732
1050.017, 4.415064
1050.499, 2.713994
1050.981, 2.739461
1051.463, 5.651619
1051.945, 8.158883
1052.428, 10.02165
1052.910, 10.79301
1053.392, 9.732576
1053.874, 7.909368
1054.356, 5.681098
1054.838, 3.637713
1055.320, 3.661061
1055.802, 7.050565
1056.285, 9.280470
1056.767, 8.169545
1057.249, 6.691247
1057.731, 6.078712
1058.213, 5.965185
1058.695, 6.163171
1059.177, 6.450061
1059.659, 6.257307
1060.141, 5.281771
1060.624, 4.654081
1061.106, 5.144864
1061.588, 5.619217
1062.070, 5.128678
1062.552, 4.637611
1063.034, 5.526402
1063.516, 7.195343
1063.998, 7.793643
1064.480, 6.748080
1064.963, 5.695269
1065.445, 5.041837
1065.927, 4.839067
1066.409, 5.787752
1066.891, 6.641429
1067.373, 5.772776
1067.855, 3.905273
1068.337, 2.923549
1068.820, 3.304262
1069.302, 4.028232
1069.784, 4.991524
1070.266, 5.780412
1070.748, 6.250322
1071.230, 6.388572
1071.712, 5.894635
1072.194, 5.161041
1072.677, 5.134335
1073.159, 5.992892
1073.641, 6.341775
1074.123, 4.895057
1074.605, 3.657815
1075.087, 3.695894
1075.569, 4.341254
1076.051, 5.446664
1076.533, 6.536559
1077.016, 6.826743
1077.498, 6.218422
1077.980, 5.418470
1078.462, 4.096008
1078.944, 3.557324
1079.426, 5.130280
1079.908, 7.056405
1080.390, 8.323653
1080.872, 8.753710
1081.354, 7.708589
1081.837, 5.479542
1082.319, 4.456719
1082.801, 6.124557
1083.283, 8.003991
1083.765, 9.593622
1084.247, 10.29460
1084.729, 8.671729
1085.211, 6.496435
1085.694, 6.538665
1086.176, 8.549754
1086.658, 9.619344
1087.140, 8.551998
1087.622, 7.134756
1088.104, 5.625520
1088.586, 4.549122
1089.068, 4.638641
1089.551, 5.063186
1090.033, 4.267820
1090.515, 2.903871
1090.997, 3.981132
1091.479, 9.368200
1091.961, 12.32638
1092.443, 7.753779
1092.925, 3.238814
1093.407, 3.007591
1093.890, 4.505099
1094.372, 5.595623
1094.854, 6.104177
1095.336, 6.145645
1095.818, 5.645789
1096.300, 5.662565
1096.782, 7.624510
1097.264, 8.719509
1097.746, 6.593507
1098.229, 4.359934
1098.711, 5.414287
1099.193, 7.810614
1099.675, 7.190881
1100.157, 2.955812
1100.639, 0.4984919
1101.121, 2.478507
1101.603, 4.510173
1102.086, 5.557024
1102.568, 6.153967
1103.050, 6.666161
1103.532, 6.918104
1104.014, 6.450076
1104.496, 5.338503
1104.978, 4.619531
1105.460, 4.520967
1105.943, 4.732917
1106.425, 5.456677
1106.907, 6.178956
1107.389, 6.613558
1107.871, 6.979566
1108.353, 7.719946
1108.835, 8.640461
1109.317, 8.805773
1109.799, 7.943720
1110.281, 6.829548
1110.764, 4.632260
1111.246, 3.369988
1111.728, 4.437809
1112.210, 5.895420
1112.692, 6.099174
1113.174, 5.547657
1113.656, 5.630891
1114.138, 6.618960
1114.621, 7.005360
1115.103, 6.294130
1115.585, 5.793999
1116.067, 5.863607
1116.549, 5.984460
1117.031, 5.788686
1117.513, 5.519071
1117.995, 5.629518
1118.478, 6.127556
1118.960, 6.246757
1119.442, 5.591085
1119.924, 5.542158
1120.406, 6.565569
1120.888, 7.487321
1121.370, 7.778179
1121.852, 7.787831
1122.334, 7.938528
1122.817, 8.153605
1123.299, 7.999989
1123.781, 7.410081
1124.263, 6.720938
1124.745, 5.935356
1125.227, 4.956837
1125.709, 3.511272
1126.191, 2.702170
1126.673, 3.599825
1127.156, 5.510256
1127.638, 6.819634
1128.120, 7.518619
1128.602, 7.670981
1129.084, 7.224867
1129.566, 6.765323
1130.048, 6.424154
1130.530, 5.899999
1131.013, 4.971228
1131.495, 4.044123
1131.977, 3.831949
1132.459, 4.085852
1132.941, 3.137627
1133.423, 1.189216
1133.905, 1.702647
1134.387, 4.894311
1134.870, 6.809012
1135.352, 5.887351
1135.834, 4.229920
1136.316, 3.728578
1136.798, 4.164571
1137.280, 5.553118
1137.762, 7.420140
1138.244, 7.875106
1138.726, 7.128614
1139.208, 6.765228
1139.691, 7.065361
1140.173, 6.781855
1140.655, 5.042274
1141.137, 3.192983
1141.619, 2.990545
1142.101, 3.795852
1142.583, 4.741066
1143.065, 5.692963
1143.548, 6.418485
1144.030, 6.906565
1144.512, 7.309706
1144.994, 7.676521
1145.476, 7.717669
1145.958, 6.918179
1146.440, 6.053502
1146.922, 6.111102
1147.405, 6.407975
1147.887, 5.803895
1148.369, 4.836874
1148.851, 5.080922
1149.333, 6.517729
1149.815, 6.877924
1150.297, 4.282769
1150.779, 2.643975
1151.261, 6.058837
1151.744, 9.294806
1152.226, 7.555803
1152.708, 4.139262
1153.190, 2.840501
1153.672, 3.676042
1154.154, 5.488313
1154.636, 8.326969
1155.118, 9.991305
1155.600, 9.050204
1156.083, 7.909295
1156.565, 7.245131
1157.047, 6.821647
1157.529, 6.637624
1158.011, 6.477593
1158.493, 5.913753
1158.975, 4.938723
1159.457, 4.358438
1159.940, 5.264381
1160.422, 4.809892
1160.904, 0.8791083
1161.386, -1.429333
1161.868, 0.6748741
1162.350, 3.849958
1162.832, 5.178526
1163.314, 5.156947
1163.796, 5.370156
1164.279, 6.025503
1164.761, 5.584427
1165.243, 3.491153
1165.725, 2.301066
1166.207, 2.643541
1166.689, 3.554526
1167.171, 4.665329
1167.653, 5.461458
1168.135, 5.032113
1168.618, 5.632233
1169.100, 5.931257
1169.582, 5.511198
1170.064, 6.234766
1170.546, 5.902169
1171.028, 5.087578
1171.510, 3.980917
1171.992, 2.980105
1172.474, 2.381678
1172.957, 2.188991
1173.439, 2.372844
1173.921, 2.978337
1174.403, 4.581845
1174.885, 6.677079
1175.367, 7.338027
1175.849, 6.589261
1176.331, 6.333001
1176.814, 7.360103
1177.296, 8.041299
1177.778, 6.496082
1178.260, 4.456466
1178.742, 4.169433
1179.224, 2.919252
1179.706, 3.496783
1180.188, 1.886057
1180.671, 1.021555
1181.153, 1.130320
1181.635, 1.692238
1182.117, 2.617681
1182.599, 3.483652
1183.081, 3.932450
1183.563, 4.401536
1184.045, 5.208891
1184.527, 6.129920
1185.010, 7.173402
1185.492, 8.077230
1185.974, 8.150318
1186.456, 7.233722
1186.938, 6.823562
1187.420, 8.116641
1187.902, 8.476205
1188.384, 6.403692
1188.866, 4.652780
1189.349, 4.460661
1189.831, 5.112127
1190.313, 6.152600
1190.795, 7.372071
1191.277, 7.907930
1191.759, 7.594526
1192.241, 7.302709
1192.723, 7.012283
1193.206, 6.892058
1193.688, 7.122905
1194.170, 6.848777
1194.652, 5.404085
1195.134, 3.850555
1195.616, 3.846382
1196.098, 2.775393
1196.580, 4.290043
1197.063, 2.403114
1197.545, 1.930492
1198.027, 2.972287
1198.509, 4.623413
1198.991, 6.517865
1199.473, 7.739145
1199.955, 7.621791
1200.437, 6.792711
1200.919, 5.623256
1201.401, 4.606966
1201.884, 5.079833
1202.366, 6.120069
1202.848, 5.742541
1203.330, 4.216697
1203.812, 2.937290
1204.294, 2.361985
1204.776, 2.346070
1205.258, 2.867538
1205.741, 3.803027
1206.223, 6.130308
1206.705, 7.704288
1207.187, 5.788645
1207.669, 2.954684
1208.151, 2.486956
1208.633, 3.992057
1209.115, 5.277880
1209.598, 6.047340
1210.080, 6.228837
1210.562, 5.359328
1211.044, 4.574505
1211.526, 3.764339
1212.008, 3.526938
1212.490, 4.612536
1212.972, 5.920655
1213.454, 6.182729
1213.937, 5.539237
1214.419, 4.553878
1214.901, 3.000700
1215.383, 2.212526
1215.865, 2.181455
1216.347, 3.275502
1216.829, 5.782812
1217.311, 7.511382
1217.793, 7.106845
1218.276, 5.861520
1218.758, 5.401022
1219.240, 5.564191
1219.722, 6.179021
1220.204, 6.982412
1220.686, 6.720782
1221.168, 5.715316
1221.650, 5.816971
1222.133, 7.193663
1222.615, 7.786655
1223.097, 6.335982
1223.579, 4.783308
1224.061, 5.174831
1224.543, 4.310577
1225.025, 5.471068
1225.507, 4.787035
1225.990, 5.590532
1226.472, 7.317162
1226.954, 8.904438
1227.436, 10.03592
1227.918, 10.07665
1228.400, 8.057870
1228.882, 6.606662
1229.364, 6.924302
1229.846, 7.138242
1230.328, 6.556398
1230.811, 5.555184
1231.293, 4.216151
1231.775, 2.791612
1232.257, 1.586332
1232.739, 0.6094877
1233.221, 1.372629
1233.703, 4.499954
1234.185, 6.613919
1234.668, 7.395097
1235.150, 7.424422
1235.632, 6.808280
1236.114, 6.217499
1236.596, 6.186735
1237.078, 6.428523
1237.560, 6.510470
1238.042, 6.427987
1238.525, 6.000826
1239.007, 5.426672
1239.489, 5.496073
1239.971, 6.052223
1240.453, 6.052503
1240.935, 5.309555
1241.417, 5.009824
1241.899, 6.057034
1242.381, 7.160662
1242.864, 7.331787
1243.346, 7.095148
1243.828, 6.813005
1244.310, 6.428380
1244.792, 5.834867
1245.274, 5.076113
1245.756, 4.020235
1246.238, 2.669600
1246.720, 2.435247
1247.203, 4.524015
1247.685, 6.129973
1248.167, 7.005948
1248.649, 7.456224
1249.131, 7.717349
1249.613, 7.232191
1250.095, 5.039917
1250.577, 2.614713
1251.059, 3.106561
1251.542, 6.174443
1252.024, 7.559419
1252.506, 7.279928
1252.988, 7.586739
1253.470, 8.623285
1253.952, 8.876480
1254.434, 7.921676
1254.916, 6.732795
1255.399, 5.931410
1255.881, 5.742344
1256.363, 7.310752
1256.845, 8.922276
1257.327, 7.295791
1257.809, 4.549612
1258.291, 4.198813
1258.773, 5.432523
1259.255, 5.715951
1259.738, 4.640646
1260.220, 3.455211
1260.702, 2.325538
1261.184, 1.893966
1261.666, 2.955076
1262.148, 3.960459
1262.630, 4.426823
1263.112, 4.477219
1263.594, 3.748692
1264.077, 3.041675
1264.559, 3.745284
1265.041, 5.602778
1265.523, 6.202259
1266.005, 5.059934
1266.487, 6.078544
1266.969, 9.861276
1267.451, 10.29581
1267.934, 5.816847
1268.416, 2.293886
1268.898, 3.051595
1269.380, 5.407352
1269.862, 6.383517
1270.344, 6.559534
1270.826, 6.822998
1271.308, 7.167129
1271.791, 8.063133
1272.273, 8.824304
1272.755, 7.289480
1273.237, 4.103380
1273.719, 3.075295
1274.201, 5.658461
1274.683, 7.542102
1275.165, 5.958479
1275.647, 4.523863
1276.130, 4.906735
1276.612, 5.457151
1277.094, 4.779860
1277.576, 4.171224
1278.058, 5.641135
1278.540, 4.606856
1279.022, 4.372203
1279.504, 4.477094
1279.986, 3.078542
1280.469, 3.910885
1280.951, 3.552163
1281.433, 1.451002
1281.915, 1.056403
1282.397, 3.631121
1282.879, 5.852006
1283.361, 5.025853
1283.843, 3.002766
1284.326, 1.973092
1284.808, 1.938729
##END=



