##NAMES=Gustavite
##RRUFFID=R110004
##IDEAL CHEMISTRY=Ag^1+^Pb^2+^Bi^3+^_3_S^2-^_6_
##LOCALITY=Rotgulden, Murwinkel, Lungau, Salzburg, Austria
##OWNER=RRUFF
##SOURCE=William W Pinch
##DESCRIPTION=Grayish white metallic massive, associated with pyrrhotite-4C and xilingolite R100060. Hard to visually distinguish gustavite and xilingolite.
##STATUS=The identification of this mineral is confirmed by single-crystal X-ray diffraction and chemical analysis.
##URL=rruff.info/R110004
##MEASURED CHEMISTRY=Ag_1.04_Pb_1.13_(Bi_2.80_Sb_0.18_)_Î£=2.98_S_6_
157.5673, 9.742924
158.0495, 9.768186
158.5316, 10.38453
159.0137, 12.17163
159.4958, 13.77872
159.9779, 14.88549
160.4600, 15.54991
160.9422, 15.96129
161.4243, 15.83138
161.9064, 15.67147
162.3885, 15.87244
162.8706, 17.35074
163.3527, 18.24343
163.8349, 17.01190
164.3170, 14.20531
164.7991, 12.44866
165.2812, 13.93460
165.7633, 16.61338
166.2454, 18.64271
166.7276, 19.37949
167.2097, 19.38288
167.6918, 18.70587
168.1739, 17.43225
168.6560, 16.21004
169.1381, 15.65257
169.6203, 15.29084
170.1024, 14.47741
170.5845, 11.87702
171.0666, 9.694656
171.5487, 10.09192
172.0309, 12.87588
172.5130, 15.82621
172.9951, 17.96905
173.4772, 19.20728
173.9593, 19.36930
174.4414, 16.65041
174.9236, 13.75180
175.4057, 14.34176
175.8878, 18.45467
176.3699, 22.48258
176.8520, 22.95598
177.3341, 21.11814
177.8163, 19.65615
178.2984, 20.08005
178.7805, 21.42857
179.2626, 22.18562
179.7447, 22.25585
180.2268, 22.41669
180.7090, 23.93252
181.1911, 26.29043
181.6732, 27.87280
182.1553, 27.67649
182.6374, 26.23944
183.1195, 24.34487
183.6017, 21.82007
184.0838, 19.80972
184.5659, 20.34459
185.0480, 22.86739
185.5301, 24.56755
186.0123, 23.23684
186.4944, 19.94800
186.9765, 18.10818
187.4586, 17.90527
187.9407, 18.78271
188.4228, 20.51087
188.9050, 22.95985
189.3871, 24.79271
189.8692, 24.74593
190.3513, 23.29719
190.8334, 23.05682
191.3155, 24.42047
191.7977, 26.29650
192.2798, 26.94808
192.7619, 26.38238
193.2440, 25.50246
193.7261, 24.56079
194.2082, 23.60116
194.6904, 23.12565
195.1725, 23.20807
195.6546, 23.67927
196.1367, 24.42978
196.6188, 25.51741
197.1009, 26.21393
197.5831, 25.93457
198.0652, 24.68305
198.5473, 23.71045
199.0294, 23.10837
199.5115, 22.77973
199.9937, 22.43438
200.4758, 22.00192
200.9579, 21.99222
201.4400, 23.07098
201.9221, 25.39545
202.4042, 26.44470
202.8864, 25.64951
203.3685, 23.93792
203.8506, 23.75150
204.3327, 25.53060
204.8148, 27.05381
205.2969, 26.84015
205.7791, 24.55908
206.2612, 22.89042
206.7433, 21.86100
207.2254, 21.61531
207.7075, 22.92303
208.1896, 26.46374
208.6718, 29.59091
209.1539, 30.78910
209.6360, 29.73318
210.1181, 28.30348
210.6002, 26.36920
211.0823, 24.24747
211.5645, 22.85423
212.0466, 22.31726
212.5287, 22.19507
213.0108, 22.32116
213.4929, 22.78619
213.9750, 23.20626
214.4572, 23.77137
214.9393, 24.19676
215.4214, 23.35465
215.9035, 20.37768
216.3856, 17.89011
216.8678, 17.64866
217.3499, 20.65528
217.8320, 22.50738
218.3141, 22.49223
218.7962, 21.33225
219.2783, 21.39985
219.7605, 23.30768
220.2426, 25.32437
220.7247, 26.69292
221.2068, 27.68915
221.6889, 27.02408
222.1710, 23.48592
222.6532, 18.52191
223.1353, 17.19195
223.6174, 21.71548
224.0995, 26.14115
224.5816, 27.21283
225.0637, 23.18102
225.5459, 20.24597
226.0280, 18.64704
226.5101, 18.24490
226.9922, 18.87745
227.4743, 21.47528
227.9564, 23.65472
228.4386, 24.03599
228.9207, 21.31708
229.4028, 20.01945
229.8849, 20.84301
230.3670, 22.97035
230.8492, 24.17979
231.3313, 24.38095
231.8134, 23.79206
232.2955, 22.21324
232.7776, 18.44524
233.2597, 16.65080
233.7419, 17.74072
234.2240, 20.56930
234.7061, 22.06634
235.1882, 21.52213
235.6703, 20.73379
236.1524, 20.46840
236.6346, 21.00792
237.1167, 21.44150
237.5988, 21.79597
238.0809, 22.03906
238.5630, 22.08948
239.0451, 21.89587
239.5273, 21.58727
240.0094, 21.29252
240.4915, 21.31046
240.9736, 20.42712
241.4557, 17.82302
241.9378, 14.67231
242.4200, 13.53631
242.9021, 15.46764
243.3842, 17.76569
243.8663, 19.47309
244.3484, 20.48213
244.8306, 21.25000
245.3127, 21.93088
245.7948, 22.28678
246.2769, 21.65738
246.7590, 18.98113
247.2411, 17.14941
247.7233, 17.51413
248.2054, 21.08232
248.6875, 23.04380
249.1696, 22.86756
249.6517, 21.43316
250.1338, 20.05915
250.6160, 18.55359
251.0981, 17.44431
251.5802, 16.87291
252.0623, 16.81764
252.5444, 17.48131
253.0265, 19.37349
253.5087, 21.56232
253.9908, 22.71715
254.4729, 22.69358
254.9550, 21.91875
255.4371, 20.10354
255.9192, 16.93702
256.4014, 15.46983
256.8835, 16.31458
257.3656, 18.25388
257.8477, 19.98333
258.3298, 21.76140
258.8120, 22.71925
259.2941, 22.37973
259.7762, 20.62315
260.2583, 19.60235
260.7404, 19.50827
261.2225, 19.90001
261.7047, 20.35217
262.1868, 20.91986
262.6689, 21.44401
263.1510, 22.12344
263.6331, 22.91878
264.1152, 22.18783
264.5974, 18.99784
265.0795, 15.73083
265.5616, 14.79921
266.0437, 16.69547
266.5258, 19.40532
267.0079, 23.33330
267.4901, 28.06720
267.9722, 29.13552
268.4543, 25.18179
268.9364, 20.30029
269.4185, 17.91088
269.9006, 18.57065
270.3828, 19.28278
270.8649, 19.54684
271.3470, 19.52714
271.8291, 20.20709
272.3112, 21.99157
272.7933, 23.43048
273.2755, 23.03091
273.7576, 20.33923
274.2397, 19.13619
274.7218, 20.51964
275.2039, 23.30453
275.6860, 23.40734
276.1682, 20.04795
276.6503, 16.94593
277.1324, 16.97017
277.6145, 20.45145
278.0966, 22.51081
278.5787, 22.47765
279.0609, 21.18196
279.5430, 20.32374
280.0251, 19.93256
280.5072, 19.83085
280.9893, 20.13599
281.4715, 20.84158
281.9536, 20.83612
282.4357, 19.80369
282.9178, 18.56915
283.3999, 18.84311
283.8820, 20.72698
284.3642, 22.28502
284.8463, 22.37401
285.3284, 21.14084
285.8105, 20.34733
286.2926, 20.06721
286.7747, 20.00736
287.2569, 19.61944
287.7390, 18.93189
288.2211, 18.72782
288.7032, 19.85289
289.1853, 21.80309
289.6674, 22.17462
290.1496, 20.82103
290.6317, 18.89262
291.1138, 17.70710
291.5959, 17.13685
292.0780, 16.28263
292.5602, 14.37294
293.0423, 12.14520
293.5244, 11.89156
294.0065, 13.69665
294.4886, 15.55928
294.9707, 15.46553
295.4529, 13.87225
295.9350, 12.43336
296.4171, 11.60899
296.8992, 11.13125
297.3813, 10.39554
297.8634, 9.456559
298.3456, 8.921614
298.8277, 9.734611
299.3098, 11.27572
299.7919, 12.10546
300.2740, 11.69722
300.7561, 10.86194
301.2383, 10.62904
301.7204, 10.89957
302.2025, 11.24333
302.6846, 11.54262
303.1667, 11.70080
303.6488, 11.54696
304.1310, 11.01131
304.6131, 10.30196
305.0952, 9.416340
305.5773, 8.493909
306.0594, 7.913872
306.5415, 7.971520
307.0237, 8.420063
307.5058, 9.136624
307.9879, 10.17444
308.4700, 10.99426
308.9521, 11.05451
309.4343, 10.62944
309.9164, 10.20901
310.3985, 10.12134
310.8806, 10.03507
311.3627, 9.433576
311.8448, 8.279017
312.3270, 7.735574
312.8091, 9.458306
313.2912, 11.87870
313.7733, 13.14400
314.2554, 11.55557
314.7375, 9.548031
315.2197, 8.201260
315.7018, 7.494005
316.1839, 7.244912
316.6660, 7.925172
317.1481, 8.740694
317.6302, 8.995961
318.1124, 7.653872
318.5945, 6.815917
319.0766, 7.949031
319.5587, 10.33336
320.0408, 11.49483
320.5229, 8.973921
321.0051, 6.197783
321.4872, 5.227805
321.9693, 7.687849
322.4514, 9.515533
322.9335, 9.724016
323.4156, 8.768636
323.8978, 7.526451
324.3799, 4.787555
324.8620, 2.967932
325.3441, 3.448081
325.8262, 7.661059
326.3083, 9.924949
326.7905, 7.782207
327.2726, 4.113222
327.7547, 2.488529
328.2368, 5.494097
328.7189, 7.965148
329.2010, 8.704251
329.6832, 7.506149
330.1653, 6.810437
330.6474, 6.909630
331.1295, 7.300962
331.6116, 7.598408
332.0938, 7.884911
332.5759, 7.934252
333.0580, 7.607908
333.5401, 6.973689
334.0222, 6.579648
334.5043, 6.572443
334.9865, 6.598240
335.4686, 6.470029
335.9507, 6.217560
336.4328, 5.630454
336.9149, 4.298383
337.3970, 2.810333
337.8792, 2.981094
338.3613, 5.423774
338.8434, 7.793272
339.3255, 8.888723
339.8076, 8.472184
340.2898, 8.849424
340.7719, 10.49247
341.2540, 12.12713
341.7361, 11.37957
342.2182, 7.934562
342.7003, 5.258336
343.1825, 4.890466
343.6646, 6.431476
344.1467, 7.167283
344.6288, 6.980558
345.1109, 6.614275
345.5930, 6.925431
346.0752, 7.829513
346.5573, 8.494700
347.0394, 8.662724
347.5215, 8.524563
348.0036, 8.441515
348.4857, 8.416493
348.9679, 8.526591
349.4500, 9.193484
349.9321, 10.06562
350.4142, 9.945389
350.8963, 8.338830
351.3784, 6.496524
351.8606, 6.261661
352.3427, 7.270568
352.8248, 8.180080
353.3069, 7.986479
353.7890, 7.333540
354.2711, 7.101568
354.7533, 7.382463
355.2354, 7.851437
355.7175, 8.434360
356.1996, 8.992146
356.6817, 9.282077
357.1638, 8.969922
357.6460, 8.519847
358.1281, 8.265905
358.6102, 8.203966
359.0923, 8.204955
359.5744, 8.463284
360.0565, 8.631511
360.5387, 8.306835
361.0208, 6.433783
361.5029, 5.228687
361.9850, 6.388810
362.4671, 9.135645
362.9492, 11.06139
363.4314, 10.74548
363.9135, 9.809363
364.3956, 9.061541
364.8777, 8.511413
365.3598, 8.403102
365.8419, 9.332464
366.3241, 10.61371
366.8062, 11.21098
367.2883, 9.990159
367.7704, 9.026548
368.2526, 9.197831
368.7347, 10.91437
369.2168, 11.42751
369.6989, 9.386308
370.1810, 6.944939
370.6631, 5.884111
371.1453, 7.248977
371.6274, 8.467040
372.1095, 9.410672
372.5916, 10.02454
373.0737, 9.863369
373.5558, 8.505464
374.0380, 6.997750
374.5201, 5.764574
375.0022, 4.593924
375.4843, 4.598775
375.9664, 6.402944
376.4485, 8.884656
376.9307, 9.673819
377.4128, 8.379205
377.8949, 7.024324
378.3770, 6.461152
378.8591, 6.645128
379.3412, 6.565070
379.8234, 6.107438
380.3055, 5.787869
380.7876, 6.509478
381.2697, 8.187480
381.7518, 9.168276
382.2339, 8.847159
382.7161, 7.690488
383.1982, 6.511235
383.6803, 5.335517
384.1624, 4.651733
384.6445, 5.398800
385.1266, 6.910239
385.6088, 7.306192
386.0909, 5.979928
386.5730, 4.515175
387.0551, 5.087564
387.5372, 7.091039
388.0193, 8.803257
388.5015, 9.347301
388.9836, 9.115729
389.4657, 8.222117
389.9478, 6.643202
390.4299, 5.428135
390.9120, 5.308794
391.3942, 5.961110
391.8763, 7.005044
392.3584, 9.355969
392.8405, 11.06328
393.3226, 10.54799
393.8047, 8.312644
394.2869, 6.656828
394.7690, 7.473164
395.2511, 8.467281
395.7332, 7.973481
396.2154, 4.341997
396.6975, 2.140025
397.1796, 3.481733
397.6617, 6.663617
398.1438, 8.745159
398.6259, 8.465526
399.1081, 7.916863
399.5902, 7.679954
400.0723, 7.842927
400.5544, 7.744453
401.0365, 7.080436
401.5186, 6.379714
402.0008, 6.097467
402.4829, 6.472303
402.9650, 6.813071
403.4471, 7.057375
403.9292, 7.211370
404.4113, 7.342981
404.8935, 7.570650
405.3756, 7.510599
405.8577, 6.609176
406.3398, 4.560205
406.8219, 4.297984
407.3040, 6.453046
407.7862, 9.251958
408.2683, 9.934428
408.7504, 8.435002
409.2325, 7.056558
409.7146, 6.776603
410.1967, 7.167742
410.6789, 6.562490
411.1610, 4.917323
411.6431, 3.404448
412.1252, 3.258899
412.6073, 4.071558
413.0894, 4.639021
413.5716, 4.591779
414.0537, 4.500740
414.5358, 5.340907
415.0179, 6.786860
415.5000, 7.803899
415.9821, 7.216615
416.4643, 6.233657
416.9464, 6.324647
417.4285, 7.678514
417.9106, 8.800307
418.3927, 8.441227
418.8748, 7.396110
419.3570, 6.615443
419.8391, 6.646755
420.3212, 6.777278
420.8033, 6.543559
421.2854, 6.091936
421.7675, 6.100687
422.2497, 7.426323
422.7318, 8.782285
423.2139, 9.498312
423.6960, 9.427013
424.1781, 8.875815
424.6602, 6.891658
425.1424, 4.708892
425.6245, 4.221123
426.1066, 7.564953
426.5887, 9.872452
427.0709, 9.596371
427.5530, 6.739399
428.0351, 5.467777
428.5172, 6.554934
428.9993, 8.152483
429.4814, 8.910810
429.9636, 8.582461
430.4457, 8.362817
430.9278, 8.353985
431.4099, 8.500648
431.8920, 8.774049
432.3741, 9.224511
432.8563, 9.422819
433.3384, 9.036733
433.8205, 8.174407
434.3026, 7.631640
434.7847, 7.439988
435.2668, 7.292150
435.7490, 6.869365
436.2311, 6.224878
436.7132, 5.475835
437.1953, 4.353050
437.6774, 3.563959
438.1595, 4.691268
438.6417, 7.212735
439.1238, 8.965609
439.6059, 7.470867
440.0880, 5.144972
440.5701, 4.840253
441.0522, 7.149318
441.5344, 9.461126
442.0165, 10.20168
442.4986, 9.979503
442.9807, 9.530900
443.4628, 8.819371
443.9449, 8.200719
444.4271, 7.724878
444.9092, 7.424760
445.3913, 7.472931
445.8734, 8.232377
446.3555, 9.104582
446.8376, 9.881512
447.3198, 11.01323
447.8019, 11.07987
448.2840, 9.212455
448.7661, 6.633632
449.2482, 5.049461
449.7303, 4.919915
450.2125, 5.029953
450.6946, 5.118048
451.1767, 5.205453
451.6588, 5.717584
452.1409, 6.972379
452.6230, 7.926051
453.1052, 7.452268
453.5873, 5.351915
454.0694, 4.632894
454.5515, 5.885232
455.0337, 7.859818
455.5158, 8.446985
455.9979, 7.724057
456.4800, 6.740972
456.9621, 5.547451
457.4442, 4.514854
457.9264, 4.798688
458.4085, 6.348527
458.8906, 7.890074
459.3727, 8.540114
459.8548, 8.453602
460.3369, 7.669236
460.8191, 5.741105
461.3012, 4.190501
461.7833, 4.572848
462.2654, 6.223338
462.7475, 7.754898
463.2296, 8.672010
463.7118, 9.234476
464.1939, 9.611509
464.6760, 9.819455
465.1581, 9.654664
465.6402, 8.674952
466.1223, 7.529335
466.6045, 6.685739
467.0866, 6.246838
467.5687, 6.065936
468.0508, 6.223677
468.5329, 6.622540
469.0150, 7.112887
469.4972, 8.160556
469.9793, 8.551386
470.4614, 7.493973
470.9435, 4.834246
471.4256, 4.144751
471.9077, 6.317593
472.3899, 8.680862
472.8720, 8.367964
473.3541, 5.032606
473.8362, 3.306536
474.3183, 4.237246
474.8004, 6.413457
475.2826, 6.985511
475.7647, 6.060731
476.2468, 5.160621
476.7289, 5.260537
477.2110, 5.893807
477.6931, 5.852468
478.1753, 5.130908
478.6574, 4.649038
479.1395, 5.347634
479.6216, 6.718808
480.1037, 8.082099
480.5858, 9.472738
481.0680, 10.42802
481.5501, 10.50620
482.0322, 9.928027
482.5143, 9.146928
482.9964, 7.819439
483.4786, 6.779071
483.9607, 6.583945
484.4428, 7.335596
484.9249, 7.888717
485.4070, 8.130352
485.8892, 8.029126
486.3713, 7.534142
486.8534, 6.203856
487.3355, 5.139352
487.8176, 4.262876
488.2997, 3.703302
488.7819, 3.830011
489.2640, 5.050257
489.7461, 6.028818
490.2282, 6.247710
490.7103, 5.763160
491.1924, 5.620310
491.6746, 5.949483
492.1567, 6.081637
492.6388, 4.728941
493.1209, 2.241998
493.6030, 2.253580
494.0851, 5.903399
494.5673, 10.34406
495.0494, 10.99460
495.5315, 8.776519
496.0136, 6.992616
496.4957, 7.848449
496.9778, 9.543603
497.4600, 10.24825
497.9421, 9.973994
498.4242, 9.054832
498.9063, 6.486041
499.3884, 4.041405
499.8705, 3.531523
500.3527, 6.378894
500.8348, 8.508718
501.3169, 7.805730
501.7990, 5.681651
502.2811, 4.113754
502.7632, 3.217009
503.2454, 3.178594
503.7275, 4.669512
504.2096, 7.443448
504.6917, 8.807366
505.1738, 7.969346
505.6559, 6.783467
506.1381, 6.108668
506.6202, 5.895686
507.1023, 6.580974
507.5844, 8.577874
508.0665, 10.72843
508.5486, 11.27384
509.0308, 10.17552
509.5129, 9.128149
509.9950, 8.560660
510.4771, 8.318514
510.9592, 8.094808
511.4413, 7.893325
511.9235, 7.740165
512.4056, 7.531365
512.8877, 7.426779
513.3698, 7.839423
513.8519, 8.848411
514.3340, 9.598053
514.8162, 9.452654
515.2983, 8.692875
515.7804, 7.621076
516.2625, 5.818784
516.7446, 4.366731
517.2267, 3.854656
517.7089, 4.024254
518.1910, 4.252559
518.6731, 4.184677
519.1552, 4.364220
519.6373, 5.099142
520.1194, 6.464381
520.6016, 7.635858
521.0837, 8.976199
521.5658, 9.708463
522.0479, 8.989183
522.5300, 6.133921
523.0121, 4.381333
523.4943, 4.107164
523.9764, 4.811991
524.4585, 6.024454
524.9406, 7.757034
525.4227, 8.528945
525.9048, 7.336864
526.3870, 5.046446
526.8691, 3.706468
527.3513, 3.287384
527.8334, 3.385237
528.3155, 3.933707
528.7976, 4.731818
529.2797, 5.578645
529.7618, 6.509008
530.2440, 7.140276
530.7261, 7.117487
531.2082, 6.656726
531.6903, 6.035858
532.1724, 5.108559
532.6545, 4.279976
533.1367, 3.403517
533.6188, 2.669494
534.1009, 2.717411
534.5830, 4.408434
535.0651, 6.179770
535.5472, 7.757267
536.0294, 9.321756
536.5115, 9.251760
536.9936, 6.463730
537.4757, 3.554881
537.9578, 2.837268
538.4399, 4.660350
538.9221, 6.543942
539.4042, 8.455035
539.8863, 9.979025
540.3684, 10.30394
540.8505, 9.487867
541.3326, 8.170291
541.8148, 5.997149
542.2969, 3.856693
542.7790, 3.562107
543.2611, 4.943725
543.7432, 6.611822
544.2253, 8.277085
544.7075, 9.405472
545.1896, 9.038779
545.6717, 6.663716
546.1538, 5.004719
546.6359, 6.462457
547.1180, 8.884461
547.6002, 9.964584
548.0823, 7.623591
548.5644, 5.678647
549.0465, 4.922822
549.5286, 5.054627
550.0107, 5.232874
550.4929, 5.726450
550.9750, 5.830910
551.4571, 5.026516
551.9392, 3.302096
552.4213, 3.038288
552.9034, 4.594863
553.3856, 6.473090
553.8677, 7.573328
554.3498, 7.924178
554.8319, 7.741096
555.3140, 6.921146
555.7961, 6.032451
556.2783, 6.006558
556.7604, 6.536246
557.2425, 6.726992
557.7246, 5.881697
558.2067, 4.938900
558.6888, 4.964511
559.1710, 5.701412
559.6531, 6.281209
560.1352, 6.411658
560.6173, 6.150724
561.0994, 5.189169
561.5815, 3.311015
562.0637, 2.485153
562.5458, 4.011077
563.0279, 6.139238
563.5100, 7.627671
563.9921, 8.425595
564.4742, 8.639828
564.9564, 8.158050
565.4385, 7.188797
565.9206, 5.987585
566.4027, 4.486205
566.8848, 3.103510
567.3669, 1.810837
567.8491, 0.8090687
568.3312, 1.007691
568.8133, 2.363491
569.2954, 3.816315
569.7775, 4.704990
570.2596, 5.213662
570.7418, 5.660367
571.2239, 6.070857
571.7060, 6.327018
572.1881, 6.231976
572.6702, 5.983253
573.1523, 5.787872
573.6345, 5.666728
574.1166, 5.664360
574.5987, 5.994299
575.0808, 6.415197
575.5629, 6.529118
576.0450, 5.888147
576.5272, 5.356491
577.0093, 5.032016
577.4914, 4.930446
577.9735, 5.286187
578.4556, 6.520949
578.9377, 7.331101
579.4199, 6.814381
579.9020, 4.940575
580.3841, 3.875129
580.8662, 3.680803
581.3483, 3.957260
581.8304, 4.315835
582.3126, 4.816926
582.7947, 5.897318
583.2768, 7.980598
583.7589, 9.609992
584.2410, 8.495986
584.7231, 5.847306
585.2053, 4.056447
585.6874, 4.990176
586.1696, 6.256072
586.6517, 6.614517
587.1338, 6.214633
587.6159, 5.781785
588.0980, 5.240471
588.5801, 4.939478
589.0623, 5.061476
589.5444, 5.641842
590.0265, 6.439131
590.5086, 7.943678
590.9907, 9.039044
591.4728, 8.522981
591.9550, 5.975476
592.4371, 4.714771
592.9192, 5.300899
593.4013, 6.499042
593.8834, 6.115460
594.3655, 4.513130
594.8477, 4.151773
595.3298, 6.679700
595.8119, 9.743955
596.2940, 9.807727
596.7761, 7.608430
597.2582, 5.625345
597.7404, 5.363198
598.2225, 5.635306
598.7046, 5.609812
599.1867, 5.242351
599.6688, 5.086184
600.1509, 5.563490
600.6331, 6.116729
601.1152, 6.362762
601.5973, 6.036932
602.0794, 6.035738
602.5615, 6.617183
603.0436, 7.275998
603.5258, 7.460170
604.0079, 7.147095
604.4900, 6.407109
604.9721, 5.060950
605.4542, 3.584487
605.9363, 3.035059
606.4185, 3.331084
606.9006, 3.706736
607.3827, 3.689813
607.8648, 3.626293
608.3469, 4.349675
608.8290, 5.649055
609.3112, 6.297399
609.7933, 4.475879
610.2754, 2.497596
610.7575, 2.376627
611.2396, 4.614064
611.7217, 6.445397
612.2039, 7.009390
612.6860, 6.923116
613.1681, 6.631284
613.6502, 5.921285
614.1323, 5.387276
614.6144, 4.890223
615.0966, 4.702790
615.5787, 5.568964
616.0608, 7.827650
616.5429, 8.817468
617.0250, 7.551424
617.5071, 5.081622
617.9893, 3.577061
618.4714, 3.010663
618.9535, 3.191293
619.4356, 4.719236
619.9177, 6.547709
620.3998, 7.235565
620.8820, 6.869695
621.3641, 6.389362
621.8462, 6.075577
622.3283, 6.011713
622.8104, 6.414721
623.2925, 7.570045
623.7747, 8.133847
624.2568, 7.455173
624.7389, 6.337946
625.2210, 5.413584
625.7031, 4.735684
626.1852, 4.089354
626.6674, 3.319303
627.1495, 2.748220
627.6316, 3.089185
628.1137, 4.386602
628.5958, 5.504205
629.0779, 6.106031
629.5601, 6.350579
630.0422, 6.487227
630.5243, 6.525050
631.0064, 6.512489
631.4885, 6.465102
631.9706, 6.387308
632.4528, 6.311641
632.9349, 6.229218
633.4170, 6.034877
633.8991, 5.750441
634.3812, 5.288495
634.8633, 4.457620
635.3455, 2.899903
635.8276, 2.130925
636.3097, 2.466549
636.7918, 3.333603
637.2739, 4.433277
637.7560, 6.032125
638.2382, 6.629304
638.7203, 5.827256
639.2024, 4.510945
639.6845, 4.038532
640.1666, 4.316809
640.6487, 4.594855
641.1309, 4.644939
641.6130, 4.588111
642.0951, 4.512034
642.5772, 4.456635
643.0594, 4.538972
643.5415, 5.004868
644.0236, 5.460891
644.5057, 5.526117
644.9879, 5.270789
645.4700, 5.393244
645.9521, 7.131797
646.4342, 8.272272
646.9163, 7.496504
647.3984, 4.250030
647.8806, 2.992474
648.3627, 4.540133
648.8448, 6.523163
649.3269, 6.970055
649.8090, 5.877882
650.2911, 4.820297
650.7733, 3.831415
651.2554, 3.206981
651.7375, 3.453086
652.2196, 4.326331
652.7017, 5.298257
653.1838, 6.444480
653.6660, 7.205498
654.1481, 6.850681
654.6302, 5.858697
655.1123, 5.068649
655.5944, 4.972840
656.0765, 4.898715
656.5587, 4.554086
657.0408, 4.036490
657.5229, 3.782265
658.0050, 3.717395
658.4871, 4.090909
658.9692, 5.289561
659.4514, 7.146603
659.9335, 7.541002
660.4156, 6.294310
660.8977, 5.052572
661.3798, 5.507797
661.8619, 6.835543
662.3441, 6.552562
662.8262, 4.476996
663.3083, 2.368255
663.7904, 1.442593
664.2725, 1.328466
664.7546, 1.736918
665.2368, 2.897100
665.7189, 3.778604
666.2010, 3.828208
666.6831, 3.520715
667.1652, 3.385618
667.6473, 3.348941
668.1295, 3.671130
668.6116, 4.549896
669.0937, 5.668903
669.5758, 6.347802
670.0579, 6.535623
670.5400, 6.852468
671.0222, 7.640008
671.5043, 8.493905
671.9864, 8.569647
672.4685, 7.946388
672.9506, 7.013845
673.4327, 5.385436
673.9149, 3.992861
674.3970, 3.971360
674.8791, 5.131177
675.3612, 5.993630
675.8433, 5.352661
676.3254, 4.790709
676.8076, 5.506522
677.2897, 8.004872
677.7718, 8.629627
678.2539, 6.143687
678.7360, 3.504268
679.2181, 2.889214
679.7003, 4.561269
680.1824, 5.504344
680.6645, 5.549673
681.1466, 5.210981
681.6287, 4.900236
682.1108, 4.654160
682.5930, 4.609488
683.0751, 4.834709
683.5572, 5.116921
684.0393, 5.271492
684.5214, 5.371706
685.0035, 5.523466
685.4857, 5.924959
685.9678, 6.191762
686.4499, 6.000579
686.9320, 5.638623
687.4141, 5.816080
687.8962, 7.257852
688.3784, 7.776437
688.8605, 6.442761
689.3426, 4.031535
689.8247, 3.482421
690.3068, 4.869267
690.7889, 6.015399
691.2711, 5.550352
691.7532, 4.276244
692.2353, 3.693806
692.7174, 3.766573
693.1995, 4.232498
693.6816, 5.683128
694.1638, 6.911806
694.6459, 6.639367
695.1280, 4.697202
695.6101, 3.474782
696.0922, 4.252876
696.5743, 5.335876
697.0565, 5.769809
697.5386, 5.324718
698.0207, 5.232115
698.5028, 5.588420
698.9849, 6.092794
699.4670, 6.570791
699.9492, 6.995055
700.4313, 7.061700
700.9135, 6.720734
701.3956, 6.106137
701.8777, 5.138346
702.3598, 4.048604
702.8419, 3.203147
703.3240, 2.612620
703.8062, 2.469807
704.2883, 3.287133
704.7704, 4.499052
705.2525, 5.264775
705.7346, 5.347932
706.2167, 5.057319
706.6989, 4.085815
707.1810, 2.907727
707.6631, 2.557530
708.1452, 3.075418
708.6273, 4.335824
709.1094, 6.822757
709.5916, 9.517095
710.0737, 9.484848
710.5558, 7.263597
711.0379, 5.632654
711.5200, 7.205073
712.0021, 9.185658
712.4843, 8.705171
712.9664, 6.225757
713.4485, 4.346113
713.9306, 4.074461
714.4127, 4.602700
714.8948, 6.266397
715.3770, 9.109966
715.8591, 9.342268
716.3412, 5.450688
716.8233, 1.932668
717.3054, 1.660226
717.7875, 4.487376
718.2697, 6.958738
718.7518, 9.141221
719.2339, 10.34059
719.7160, 9.266160
720.1981, 7.082318
720.6802, 5.705113
721.1624, 5.445410
721.6445, 5.200737
722.1266, 3.797765
722.6087, 2.438423
723.0908, 2.299739
723.5729, 4.706298
724.0551, 5.928300
724.5372, 4.963979
725.0193, 3.537496
725.5014, 3.586709
725.9835, 5.487665
726.4656, 6.458879
726.9478, 6.016398
727.4299, 5.128865
727.9120, 5.339816
728.3941, 6.274859
728.8762, 6.650383
729.3583, 5.790212
729.8405, 4.964140
730.3226, 5.437692
730.8047, 6.621701
731.2868, 7.527826
731.7689, 8.051612
732.2510, 8.046825
732.7332, 7.188598
733.2153, 5.843566
733.6974, 4.632423
734.1795, 3.427294
734.6616, 2.773060
735.1437, 2.963958
735.6259, 3.654786
736.1080, 3.886061
736.5901, 3.724471
737.0722, 3.762208
737.5543, 4.390826
738.0364, 5.283887
738.5186, 6.152258
739.0007, 6.971658
739.4828, 7.684624
739.9649, 8.850064
740.4470, 9.342306
740.9291, 8.220865
741.4113, 5.630633
741.8934, 3.858845
742.3755, 2.886624
742.8576, 2.812396
743.3397, 4.050582
743.8218, 6.336067
744.3040, 7.465963
744.7861, 7.418680
745.2682, 6.755814
745.7503, 5.299181
746.2324, 3.697328
746.7145, 3.091204
747.1967, 3.468803
747.6788, 4.136011
748.1609, 5.118368
748.6430, 5.945931
749.1251, 6.241088
749.6072, 5.831786
750.0894, 5.623484
750.5715, 5.805692
751.0536, 5.987517
751.5357, 5.940925
752.0178, 5.659124
752.4999, 5.087517
752.9821, 4.137508
753.4642, 3.457944
753.9463, 4.035079
754.4284, 5.243489
754.9105, 5.685870
755.3926, 5.102062
755.8748, 4.659994
756.3569, 5.679849
756.8390, 6.846960
757.3211, 6.894571
757.8032, 4.856378
758.2853, 3.387189
758.7675, 2.666151
759.2496, 2.521898
759.7318, 2.953724
760.2139, 4.079569
760.6960, 4.834098
761.1781, 5.094426
761.6602, 5.094357
762.1423, 4.992030
762.6245, 4.861514
763.1066, 4.879479
763.5887, 5.085320
764.0708, 5.440268
764.5529, 6.014555
765.0350, 6.680837
765.5172, 7.288547
765.9993, 8.187607
766.4814, 8.460566
766.9635, 7.660388
767.4456, 6.539916
767.9277, 6.103947
768.4099, 6.442108
768.8920, 6.910149
769.3741, 7.499090
769.8562, 7.953198
770.3383, 7.836084
770.8204, 7.283832
771.3026, 6.635025
771.7847, 5.879883
772.2668, 5.273963
772.7489, 5.103380
773.2310, 5.165460
773.7131, 5.143923
774.1953, 4.532650
774.6774, 4.440410
775.1595, 5.299533
775.6416, 6.541281
776.1237, 7.101619
776.6058, 6.909043
777.0880, 6.522774
777.5701, 5.940145
778.0522, 5.481153
778.5343, 5.942748
779.0164, 7.000560
779.4985, 7.714594
779.9807, 7.587642
780.4628, 7.136147
780.9449, 6.420679
781.4270, 5.636124
781.9091, 5.171576
782.3912, 5.572383
782.8734, 5.679772
783.3555, 5.031466
783.8376, 4.136562
784.3197, 4.506851
784.8018, 6.295759
785.2839, 7.532039
785.7661, 7.514246
786.2482, 6.752888
786.7303, 5.734469
787.2124, 4.651311
787.6945, 4.022895
788.1766, 4.424572
788.6588, 5.010330
789.1409, 5.623274
789.6230, 6.093812
790.1051, 5.905335
790.5872, 4.115454
791.0693, 3.100792
791.5515, 3.519061
792.0336, 4.922945
792.5157, 6.139516
792.9978, 7.169320
793.4799, 7.930633
793.9620, 8.555630
794.4442, 8.715719
794.9263, 7.192894
795.4084, 4.756155
795.8905, 3.525344
796.3726, 6.768484
796.8547, 8.992388
797.3369, 6.378491
797.8190, 0.7544302
798.3011, -1.358317
798.7832, 2.053193
799.2653, 5.147371
799.7474, 6.567288
800.2296, 6.711783
800.7117, 6.482022
801.1938, 5.915425
801.6759, 5.426826
802.1580, 5.286490
802.6401, 5.207231
803.1223, 4.644574
803.6044, 3.872410
804.0865, 3.610641
804.5686, 4.473653
805.0507, 5.495809
805.5328, 6.745099
806.0150, 7.903862
806.4971, 7.995959
806.9792, 6.609370
807.4613, 5.466613
807.9434, 5.022612
808.4255, 5.129423
808.9077, 5.510570
809.3898, 6.149214
809.8719, 7.005605
810.3540, 8.895684
810.8361, 10.10977
811.3182, 8.189117
811.8004, 4.606427
812.2825, 2.807059
812.7646, 5.514123
813.2467, 7.883626
813.7288, 9.180846
814.2109, 9.501795
814.6931, 8.778703
815.1752, 6.824155
815.6573, 5.516654
816.1394, 5.476596
816.6215, 6.209180
817.1037, 7.171638
817.5858, 8.237369
818.0679, 9.102966
818.5500, 10.09747
819.0322, 10.35196
819.5143, 8.568923
819.9964, 5.866512
820.4785, 4.695623
820.9606, 6.257027
821.4427, 7.289336
821.9249, 7.172120
822.4070, 6.413421
822.8891, 5.925322
823.3712, 5.713826
823.8533, 5.947212
824.3354, 6.960095
824.8176, 7.824619
825.2997, 7.140564
825.7818, 5.640621
826.2639, 4.594590
826.7460, 5.830352
827.2281, 5.848617
827.7103, 2.712598
828.1924, -1.551985
828.6745, -4.599676
829.1566, -6.645939
829.6387, -6.026876
830.1208, -1.608261
830.6030, 3.460178
831.0851, 3.586350
831.5672, 0.3663272
832.0493, -1.873726
832.5314, -1.921111
833.0135, -0.8680496
833.4957, 1.533617
833.9778, 4.178396
834.4599, 5.800445
834.9420, 5.092103
835.4241, 4.796676
835.9063, 5.044248
836.3884, 5.558747
836.8705, 6.098381
837.3526, 6.656536
837.8347, 6.938517
838.3168, 6.872004
838.7990, 6.743937
839.2811, 6.812745
839.7632, 7.027480
840.2453, 7.395073
840.7274, 8.070138
841.2095, 8.365280
841.6917, 7.905845
842.1738, 7.059916
842.6559, 6.020350
843.1380, 4.508429
843.6201, 3.885552
844.1022, 4.311050
844.5844, 5.077087
845.0665, 5.492491
845.5486, 5.729723
846.0307, 6.604113
846.5128, 8.224137
846.9949, 8.850337
847.4771, 5.854716
847.9592, 2.452103
848.4413, 1.271033
848.9234, 3.084528
849.4055, 4.609937
849.8876, 5.689651
850.3698, 6.536594
850.8519, 7.425254
851.3340, 8.284945
851.8161, 7.864792
852.2982, 6.173961
852.7803, 4.484660
853.2625, 3.477295
853.7446, 3.123326
854.2267, 3.821405
854.7088, 5.411360
855.1909, 6.155858
855.6730, 4.098033
856.1552, 2.565207
856.6373, 3.121587
857.1194, 5.423164
857.6015, 6.665915
858.0836, 6.784670
858.5657, 6.364847
859.0479, 5.145810
859.5300, 3.940620
860.0121, 5.015514
860.4942, 7.625612
860.9763, 9.143396
861.4584, 7.280221
861.9406, 4.992906
862.4227, 3.342292
862.9048, 2.367068
863.3869, 1.990452
863.8690, 2.301328
864.3511, 3.025470
864.8333, 4.233689
865.3154, 5.659369
865.7975, 7.112252
866.2796, 8.401056
866.7617, 8.605869
867.2438, 6.628659
867.7260, 4.795216
868.2081, 5.375815
868.6902, 7.103580
869.1723, 8.001299
869.6544, 6.880732
870.1365, 5.983787
870.6187, 5.349424
871.1008, 5.068403
871.5829, 5.505199
872.0650, 6.601234
872.5471, 7.045693
873.0292, 6.528211
873.5114, 5.924741
873.9935, 6.431038
874.4756, 7.254715
874.9577, 7.207500
875.4399, 5.532909
875.9220, 4.697929
876.4041, 6.395534
876.8862, 8.230128
877.3683, 8.582592
877.8505, 7.183507
878.3326, 6.016474
878.8147, 5.044082
879.2968, 4.586008
879.7789, 5.344332
880.2610, 6.632385
880.7432, 7.420455
881.2253, 7.633497
881.7074, 7.406082
882.1895, 6.171669
882.6716, 5.085938
883.1537, 4.935102
883.6359, 5.653537
884.1180, 5.859428
884.6001, 5.321315
885.0822, 5.288392
885.5643, 6.902806
886.0464, 9.126147
886.5286, 9.143068
887.0107, 7.424601
887.4928, 5.902442
887.9749, 5.579534
888.4570, 5.764610
888.9391, 6.698667
889.4213, 7.878819
889.9034, 7.637411
890.3855, 4.938799
890.8676, 3.329434
891.3497, 3.887975
891.8318, 5.358373
892.3140, 5.148045
892.7961, 3.721973
893.2782, 2.988690
893.7603, 3.826910
894.2424, 4.788131
894.7245, 4.354029
895.2067, 3.610825
895.6888, 3.915972
896.1709, 6.836457
896.6530, 8.594970
897.1351, 8.907835
897.6172, 8.479381
898.0994, 7.992455
898.5815, 7.412890
899.0636, 6.224679
899.5457, 4.330099
900.0278, 3.016418
900.5099, 3.895488
900.9921, 5.472512
901.4742, 6.417895
901.9563, 6.511527
902.4384, 6.375289
902.9205, 5.936523
903.4026, 5.509084
903.8848, 5.183449
904.3669, 4.984195
904.8490, 5.295378
905.3311, 6.084118
905.8132, 6.520127
906.2953, 5.280225
906.7775, 4.079307
907.2596, 5.309875
907.7417, 8.143309
908.2238, 9.647754
908.7059, 7.558434
909.1880, 5.799051
909.6702, 5.132021
910.1523, 5.305325
910.6344, 6.024230
911.1165, 7.263496
911.5986, 7.747098
912.0807, 6.983055
912.5629, 5.693573
913.0450, 4.399879
913.5271, 3.228506
914.0092, 2.310573
914.4913, 1.324209
914.9734, 1.352024
915.4556, 3.361408
915.9377, 5.649598
916.4198, 6.606714
916.9019, 6.145782
917.3840, 5.884486
917.8661, 5.914546
918.3483, 6.053617
918.8304, 6.183269
919.3125, 6.299860
919.7946, 6.462224
920.2767, 6.675996
920.7589, 6.634178
921.2410, 5.611351
921.7231, 5.010214
922.2052, 5.618410
922.6873, 7.219401
923.1694, 7.773310
923.6516, 7.245428
924.1337, 6.745739
924.6158, 6.899972
925.0979, 7.325835
925.5800, 7.690066
926.0621, 7.915980
926.5443, 7.814938
927.0264, 6.636378
927.5085, 6.028181
927.9906, 6.771538
928.4727, 7.923463
928.9548, 7.841417
929.4370, 6.486277
929.9191, 5.005276
930.4012, 3.507844
930.8833, 2.371601
931.3654, 1.966304
931.8475, 2.219939
932.3297, 3.256503
932.8118, 5.532160
933.2939, 6.918727
933.7761, 6.301157
934.2582, 5.261661
934.7403, 4.641513
935.2224, 4.441881
935.7045, 4.507586
936.1866, 4.852740
936.6688, 5.079508
937.1509, 4.771639
937.6330, 4.289071
938.1151, 4.176337
938.5972, 4.313459
939.0793, 4.046062
939.5615, 1.840048
940.0436, 0.9683043
940.5257, 3.005629
941.0078, 6.461194
941.4899, 6.793519
941.9720, 4.151052
942.4542, 2.582149
942.9363, 3.535744
943.4184, 5.227902
943.9005, 6.150315
944.3826, 6.411834
944.8647, 6.118775
945.3469, 4.644669
945.8290, 3.908068
946.3111, 4.409825
946.7932, 5.201792
947.2753, 5.577008
947.7574, 5.535334
948.2396, 4.690229
948.7217, 3.018264
949.2038, 2.058778
949.6859, 4.027189
950.1680, 6.488441
950.6501, 6.904891
951.1323, 5.303196
951.6144, 4.873809
952.0965, 7.282782
952.5786, 8.612158
953.0607, 7.196278
953.5428, 4.204480
954.0250, 3.357599
954.5071, 4.289207
954.9892, 4.752907
955.4713, 3.250039
955.9534, 2.077981
956.4355, 4.103309
956.9177, 7.120246
957.3998, 7.823666
957.8819, 3.594208
958.3640, 1.438529
958.8461, 2.095153
959.3282, 3.630713
959.8104, 3.921256
960.2925, 3.379430
960.7746, 3.420739
961.2567, 4.161294
961.7388, 5.083947
962.2209, 6.438612
962.7031, 7.377310
963.1852, 6.941118
963.6673, 5.230399
964.1494, 4.577960
964.6315, 5.315893
965.1136, 5.988452
965.5958, 6.032532
966.0779, 5.689092
966.5600, 5.354989
967.0421, 5.048912
967.5242, 4.824203
968.0063, 4.547533
968.4885, 4.564928
968.9706, 5.339746
969.4527, 6.297625
969.9348, 6.731456
970.4169, 6.524805
970.8990, 6.383909
971.3812, 6.385201
971.8633, 6.255151
972.3454, 5.525775
972.8275, 4.589647
973.3096, 4.101624
973.7917, 4.114814
974.2739, 3.959101
974.7560, 2.995578
975.2381, 2.273722
975.7202, 2.289503
976.2023, 2.865608
976.6844, 2.986049
977.1666, 2.662133
977.6487, 2.801429
978.1308, 4.114548
978.6129, 5.497202
979.0950, 5.585253
979.5771, 5.003921
980.0593, 4.782347
980.5414, 5.172514
981.0235, 6.101988
981.5056, 8.263804
981.9877, 9.958820
982.4698, 8.813020
982.9520, 5.457409
983.4341, 4.002954
983.9162, 4.698876
984.3983, 5.950661
984.8804, 7.470723
985.3625, 8.405842
985.8447, 7.565425
986.3268, 5.097315
986.8089, 4.372038
987.2910, 6.205043
987.7731, 7.449281
988.2552, 6.812003
988.7374, 5.375509
989.2195, 5.652273
989.7016, 6.936336
990.1837, 7.355170
990.6658, 5.897148
991.1479, 4.248256
991.6301, 2.512686
992.1122, 1.339449
992.5944, 1.507478
993.0765, 3.413140
993.5586, 4.427492
994.0407, 4.463335
994.5228, 4.105533
995.0049, 3.593262
995.4871, 3.116336
995.9692, 3.036290
996.4513, 3.283521
996.9334, 3.312815
997.4155, 2.236205
997.8976, 1.872480
998.3798, 2.943066
998.8619, 4.783625
999.3440, 5.865852
999.8261, 6.240090
1000.308, 6.288839
1000.790, 5.985282
1001.272, 5.812785
1001.755, 6.888256
1002.237, 7.911673
1002.719, 7.248421
1003.201, 3.740128
1003.683, 1.652516
1004.165, 1.109313
1004.647, 1.633088
1005.129, 3.598509
1005.612, 6.241510
1006.094, 7.183540
1006.576, 6.712835
1007.058, 6.232651
1007.540, 6.791413
1008.022, 7.115882
1008.504, 6.202594
1008.986, 4.897230
1009.468, 4.723685
1009.951, 5.828788
1010.433, 7.077167
1010.915, 8.473964
1011.397, 9.178365
1011.879, 7.368823
1012.361, 4.789026
1012.843, 3.726818
1013.325, 4.716607
1013.807, 5.537385
1014.290, 5.847899
1014.772, 5.831296
1015.254, 5.249012
1015.736, 4.483765
1016.218, 5.841565
1016.700, 8.781376
1017.182, 10.10754
1017.664, 6.889810
1018.147, 3.584025
1018.629, 3.321751
1019.111, 4.665712
1019.593, 5.409984
1020.075, 5.358121
1020.557, 4.832388
1021.039, 3.584374
1021.521, 2.899270
1022.003, 5.323218
1022.486, 8.602963
1022.968, 7.818665
1023.450, 3.176216
1023.932, 3.3951491E-02
1024.414, 2.066180
1024.896, 4.145072
1025.378, 4.553150
1025.860, 3.849613
1026.343, 3.575460
1026.825, 3.706841
1027.307, 3.854853
1027.789, 3.907102
1028.271, 3.970435
1028.753, 4.345822
1029.235, 4.671725
1029.717, 4.417719
1030.199, 3.121011
1030.682, 2.842213
1031.164, 4.019639
1031.646, 4.976275
1032.128, 4.135742
1032.610, 2.507504
1033.092, 3.297455
1033.574, 5.741331
1034.056, 7.003816
1034.539, 3.878352
1035.021, 1.738967
1035.503, 3.358721
1035.985, 6.146417
1036.467, 6.335475
1036.949, 3.826931
1037.431, 2.785111
1037.913, 3.767799
1038.396, 5.248792
1038.878, 6.493009
1039.360, 7.144267
1039.842, 6.469856
1040.324, 4.447908
1040.806, 3.566306
1041.288, 4.447298
1041.770, 5.235423
1042.252, 5.244792
1042.734, 4.951900
1043.217, 5.573890
1043.699, 6.691681
1044.181, 7.181980
1044.663, 6.522607
1045.145, 5.640005
1045.627, 4.554431
1046.109, 3.672619
1046.591, 3.454313
1047.074, 3.951508
1047.556, 3.456819
1048.038, 1.961684
1048.520, 1.048963
1049.002, 2.538420
1049.484, 4.388874
1049.966, 4.776957
1050.448, 4.092940
1050.931, 3.479068
1051.413, 2.866338
1051.895, 2.879096
1052.377, 3.864912
1052.859, 4.805435
1053.341, 4.097178
1053.823, 2.498441
1054.305, 1.584478
1054.787, 1.539102
1055.270, 2.198311
1055.752, 4.664091
1056.234, 6.516643
1056.716, 6.577100
1057.198, 5.301330
1057.680, 4.152693
1058.162, 3.177742
1058.644, 3.253260
1059.126, 5.089339
1059.609, 6.969772
1060.091, 6.822155
1060.573, 6.152455
1061.055, 6.983426
1061.537, 10.46503
1062.019, 11.24242
1062.501, 8.660638
1062.983, 5.778680
1063.466, 4.727302
1063.948, 4.680067
1064.430, 4.238901
1064.912, 3.480239
1065.394, 2.629851
1065.876, 0.8945678
1066.358, 0.4252453
1066.840, 2.443167
1067.323, 4.775927
1067.805, 4.073264
1068.287, 0.9753692
1068.769, 0.4936341
1069.251, 3.011740
1069.733, 5.422686
1070.215, 5.436636
1070.697, 4.709909
1071.179, 4.031600
1071.661, 3.518265
1072.144, 3.589308
1072.626, 4.339750
1073.108, 4.995529
1073.590, 5.295005
1074.072, 5.605057
1074.554, 6.949675
1075.036, 8.305674
1075.518, 8.033450
1076.001, 5.249310
1076.483, 3.811593
1076.965, 4.843432
1077.447, 5.437948
1077.929, 3.469794
1078.411, 0.3637710
1078.893, 0.7302968
1079.375, 3.599793
1079.858, 5.810194
1080.340, 5.542811
1080.822, 5.180683
1081.304, 5.589191
1081.786, 6.228187
1082.268, 6.734226
1082.750, 7.111363
1083.232, 6.734836
1083.714, 5.598299
1084.197, 4.635766
1084.679, 4.717825
1085.161, 5.042341
1085.643, 4.958175
1086.125, 4.618159
1086.607, 4.665455
1087.089, 5.421049
1087.571, 5.357957
1088.054, 4.082806
1088.536, 2.591791
1089.018, 2.010090
1089.500, 1.985816
1089.982, 1.903027
1090.464, 1.684297
1090.946, 2.284724
1091.428, 4.912422
1091.911, 6.632421
1092.393, 6.166497
1092.875, 4.613625
1093.357, 4.802821
1093.839, 6.146969
1094.321, 6.721779
1094.803, 5.712497
1095.285, 4.800615
1095.767, 5.043299
1096.250, 5.416892
1096.732, 5.133935
1097.214, 4.257187
1097.696, 4.166971
1098.178, 4.820726
1098.660, 5.329286
1099.142, 5.011484
1099.624, 4.643859
1100.106, 4.997147
1100.589, 4.760475
1101.071, 4.792706
1101.553, 5.036264
1102.035, 4.893363
1102.517, 5.478449
1102.999, 5.734357
1103.481, 4.005024
1103.963, 1.925443
1104.446, 1.903576
1104.928, 3.557754
1105.410, 5.037900
1105.892, 5.854239
1106.374, 6.615402
1106.856, 7.491118
1107.338, 8.157826
1107.820, 8.140328
1108.302, 7.587838
1108.785, 6.646420
1109.267, 5.345336
1109.749, 4.589294
1110.231, 5.231384
1110.713, 5.990987
1111.195, 6.594395
1111.677, 6.862721
1112.159, 5.801294
1112.641, 3.766784
1113.124, 3.197401
1113.606, 5.057324
1114.088, 6.916583
1114.570, 7.287766
1115.052, 6.852052
1115.534, 5.928776
1116.016, 4.594900
1116.498, 3.882873
1116.981, 3.795304
1117.463, 4.157279
1117.945, 5.308116
1118.427, 6.207612
1118.909, 5.002686
1119.391, 3.232564
1119.873, 3.321527
1120.355, 6.636097
1120.838, 8.295466
1121.320, 8.119729
1121.802, 7.060790
1122.284, 5.137587
1122.766, 3.156926
1123.248, 2.195596
1123.730, 2.170127
1124.212, 2.816052
1124.694, 5.518004
1125.177, 6.539769
1125.659, 5.056595
1126.141, 2.975152
1126.623, 2.040774
1127.105, 2.150861
1127.587, 3.520400
1128.069, 5.898207
1128.551, 7.472959
1129.033, 7.022521
1129.516, 6.076667
1129.998, 4.611742
1130.480, 3.399588
1130.962, 4.154251
1131.444, 6.420988
1131.926, 7.959441
1132.408, 8.460619
1132.890, 8.136214
1133.373, 6.501793
1133.855, 4.663232
1134.337, 2.933366
1134.819, 1.554804
1135.301, 1.777080
1135.783, 3.525188
1136.265, 4.625018
1136.747, 4.373336
1137.229, 3.929018
1137.712, 4.485389
1138.194, 5.151384
1138.676, 4.990429
1139.158, 3.995894
1139.640, 3.272233
1140.122, 2.783101
1140.604, 2.973532
1141.086, 4.505969
1141.569, 5.910676
1142.051, 4.883271
1142.533, 3.029025
1143.015, 2.698043
1143.497, 5.035439
1143.979, 5.956490
1144.461, 5.160687
1144.943, 4.104009
1145.426, 3.763284
1145.908, 3.637287
1146.390, 2.536626
1146.872, 1.107924
1147.354, 0.6965051
1147.836, 3.045139
1148.318, 4.240426
1148.800, 3.775028
1149.282, 3.125066
1149.765, 3.793077
1150.247, 5.093042
1150.729, 5.259089
1151.211, 4.584376
1151.693, 4.427678
1152.175, 6.333587
1152.657, 7.297441
1153.139, 6.541169
1153.621, 5.191172
1154.104, 4.467153
1154.586, 4.266277
1155.068, 4.430632
1155.550, 4.883036
1156.032, 4.984770
1156.514, 3.979687
1156.996, 3.127552
1157.478, 2.885123
1157.961, 2.951189
1158.443, 2.582274
1158.925, 1.977089
1159.407, 2.586509
1159.889, 4.655798
1160.371, 6.133613
1160.853, 4.942450
1161.335, 3.703220
1161.818, 3.838755
1162.300, 4.908616
1162.782, 5.781557
1163.264, 6.439524
1163.746, 6.570174
1164.228, 5.965717
1164.710, 5.706555
1165.192, 7.820180
1165.674, 9.459534
1166.156, 7.831144
1166.639, 3.695893
1167.121, 2.030899
1167.603, 2.829693
1168.085, 3.495503
1168.567, 3.072678
1169.049, 2.661426
1169.531, 3.258745
1170.013, 4.303064
1170.496, 5.497823
1170.978, 6.843882
1171.460, 6.552374
1171.942, 4.492881
1172.424, 3.196147
1172.906, 4.278999
1173.388, 5.738188
1173.870, 5.139740
1174.353, 6.307688
1174.835, 4.242718
1175.317, 6.751581
1175.799, 7.617089
1176.281, 6.700412
1176.763, 5.275972
1177.245, 3.572462
1177.727, 2.250837
1178.209, 2.406389
1178.692, 3.344930
1179.174, 3.845764
1179.656, 3.377748
1180.138, 3.774466
1180.620, 5.344413
1181.102, 6.206795
1181.584, 3.807356
1182.066, 0.8421950
1182.548, 1.162323
1183.031, 3.566701
1183.513, 5.209132
1183.995, 5.458703
1184.477, 5.272318
1184.959, 4.556965
1185.441, 3.915721
1185.923, 4.012673
1186.405, 4.418256
1186.888, 4.472587
1187.370, 4.303041
1187.852, 4.445341
1188.334, 5.361188
1188.816, 5.762106
1189.298, 5.413529
1189.780, 4.931313
1190.262, 4.945294
1190.745, 5.237365
1191.227, 5.732534
1191.709, 6.269117
1192.191, 5.988107
1192.673, 3.518634
1193.155, 2.813473
1193.637, 4.901863
1194.119, 7.512787
1194.601, 8.232464
1195.084, 7.531789
1195.566, 5.516854
1196.048, 2.458935
1196.530, 0.8617188
1197.012, 1.584922
1197.494, 3.103787
1197.976, 5.547686
1198.458, 7.702365
1198.941, 7.330201
1199.423, 5.705425
1199.905, 5.157944
1200.387, 5.893832
1200.869, 5.873230
1201.351, 3.758839
1201.833, 2.957284
1202.315, 4.825592
1202.797, 7.295606
1203.280, 6.721109
1203.762, 4.515281
1204.244, 3.022941
1204.726, 2.615798
1205.208, 2.708886
1205.690, 3.617197
1206.172, 4.080749
1206.654, 3.557513
1207.136, 2.705069
1207.619, 2.604892
1208.101, 3.026737
1208.583, 3.616451
1209.065, 4.337559
1209.547, 5.052393
1210.029, 5.862049
1210.511, 6.440037
1210.993, 6.701524
1211.476, 6.625075
1211.958, 5.890328
1212.440, 4.895304
1212.922, 4.464509
1213.404, 4.934876
1213.886, 4.918753
1214.368, 3.902582
1214.850, 3.325583
1215.333, 4.043439
1215.815, 5.152950
1216.297, 4.967639
1216.779, 3.977656
1217.261, 2.879239
1217.743, 1.458534
1218.225, 1.709813
1218.707, 4.561228
1219.189, 6.831649
1219.672, 6.861228
1220.154, 5.678792
1220.636, 4.881959
1221.118, 4.361314
1221.600, 3.850362
1222.082, 3.045804
1222.564, 3.275920
1223.046, 5.000946
1223.528, 6.508224
1224.011, 6.810771
1224.493, 6.489770
1224.975, 6.389407
1225.457, 6.431346
1225.939, 6.517561
1226.421, 6.809355
1226.903, 6.509418
1227.385, 5.429048
1227.868, 4.412730
1228.350, 3.944166
1228.832, 3.793875
1229.314, 3.725487
1229.796, 3.689918
1230.278, 3.541426
1230.760, 4.096615
1231.242, 3.381038
1231.724, 5.226832
1232.207, 6.799334
1232.689, 7.300946
1233.171, 6.793668
1233.653, 4.161624
1234.135, 1.014691
1234.617, 0.2993630
1235.099, 3.433762
1235.581, 5.213243
1236.063, 5.489492
1236.546, 5.348615
1237.028, 5.347417
1237.510, 5.377320
1237.992, 5.164969
1238.474, 4.967482
1238.956, 5.327293
1239.438, 6.588082
1239.920, 6.831839
1240.403, 5.970726
1240.885, 5.260040
1241.367, 5.623561
1241.849, 6.357947
1242.331, 7.492837
1242.813, 8.269598
1243.295, 7.289842
1243.777, 3.852422
1244.260, 3.036107
1244.742, 4.830432
1245.224, 6.270423
1245.706, 5.102752
1246.188, 3.400256
1246.670, 2.301145
1247.152, 1.668237
1247.634, 1.228730
1248.116, 0.9593846
1248.599, 1.121679
1249.081, 1.712983
1249.563, 2.715985
1250.045, 4.465124
1250.527, 6.213571
1251.009, 7.925491
1251.491, 9.143378
1251.973, 9.309203
1252.455, 8.462511
1252.938, 7.265572
1253.420, 5.827981
1253.902, 4.895980
1254.384, 5.427861
1254.866, 5.829134
1255.348, 5.213186
1255.830, 4.531751
1256.313, 4.832457
1256.795, 5.868152
1257.277, 6.082170
1257.759, 5.552126
1258.241, 4.766432
1258.723, 2.644577
1259.205, 2.365552
1259.687, 5.747442
1260.169, 9.080295
1260.651, 8.504169
1261.134, 5.387311
1261.616, 3.865984
1262.098, 3.733081
1262.580, 4.037366
1263.062, 4.867962
1263.544, 5.426611
1264.026, 5.548855
1264.508, 5.627055
1264.991, 6.216082
1265.473, 6.860816
1265.955, 6.426023
1266.437, 5.330963
1266.919, 4.698560
1267.401, 5.154984
1267.883, 5.487935
1268.365, 5.671698
1268.848, 5.764088
1269.330, 5.876523
1269.812, 5.869438
1270.294, 5.298130
1270.776, 4.522999
1271.258, 4.409673
1271.740, 5.293249
1272.222, 5.970886
1272.704, 6.449768
1273.187, 6.469339
1273.669, 5.411107
1274.151, 4.250165
1274.633, 3.452976
1275.115, 3.344254
1275.597, 4.716530
1276.079, 8.137218
1276.561, 8.274374
1277.043, 5.228323
1277.526, 2.854246
1278.008, 4.934443
1278.490, 6.751063
1278.972, 4.441940
1279.454, 1.269038
1279.936, 0.7903634
1280.418, 2.891053
1280.900, 3.895817
1281.383, 3.939056
1281.865, 3.918075
1282.347, 4.300629
1282.829, 4.671723
1283.311, 5.223131
1283.793, 5.313579
1284.275, 3.889107
1284.757, 1.647362
1285.240, 1.924729
1285.722, 3.985707
1286.204, 5.426081
1286.686, 4.854329
1287.168, 4.405641
1287.650, 4.158162
1288.132, 4.453633
1288.614, 5.957479
1289.096, 7.851319
1289.578, 8.334082
1290.061, 7.934289
1290.543, 7.774111
1291.025, 8.598538
1291.507, 8.324507
1291.989, 6.706571
1292.471, 5.145101
1292.953, 4.588525
1293.435, 4.315772
1293.918, 2.920610
1294.400, 3.703563
1294.882, 2.058048
1295.364, 4.882365
1295.846, 6.627163
1296.328, 7.285945
1296.810, 7.221903
1297.292, 6.276474
1297.775, 5.261156
1298.257, 4.495552
1298.739, 4.259149
1299.221, 4.999204
1299.703, 6.523132
1300.185, 6.578133
1300.667, 5.438947
1301.149, 4.774821
1301.631, 5.405496
1302.114, 6.085109
1302.596, 6.447996
##END=



