##NAMES=Gypsum
##RRUFFID=R060509
##IDEAL CHEMISTRY=CaS^6+^O_4_&#183;2H_2_O
##LOCALITY=Pierre Shale, Hermosa, Custer County, South Dakota, USA
##OWNER=RRUFF
##SOURCE=Michael Scott
##DESCRIPTION=Colorless tabular single crystal
##STATUS=The identification of this mineral has been confirmed by X-ray diffraction and chemical analysis
##URL=rruff.info/R060509
8.930109e+001, 0.000000e+000
8.978320e+001, 4.300301e+003
9.026532e+001, 4.237545e+003
9.074744e+001, 4.230367e+003
9.122955e+001, 4.294448e+003
9.171167e+001, 4.396990e+003
9.219379e+001, 4.520277e+003
9.267590e+001, 4.659310e+003
9.315802e+001, 4.758027e+003
9.364014e+001, 4.751658e+003
9.412225e+001, 4.670973e+003
9.460437e+001, 4.598573e+003
9.508649e+001, 4.554775e+003
9.556860e+001, 4.530808e+003
9.605072e+001, 4.510292e+003
9.653284e+001, 4.496728e+003
9.701495e+001, 4.491069e+003
9.749707e+001, 4.498257e+003
9.797919e+001, 4.517604e+003
9.846130e+001, 4.527369e+003
9.894342e+001, 4.508558e+003
9.942554e+001, 4.465995e+003
9.990765e+001, 4.479400e+003
1.003898e+002, 4.564682e+003
1.008719e+002, 4.670556e+003
1.013540e+002, 4.716413e+003
1.018361e+002, 4.685997e+003
1.023182e+002, 4.661743e+003
1.028004e+002, 4.671366e+003
1.032825e+002, 4.714755e+003
1.037646e+002, 4.786709e+003
1.042467e+002, 4.894426e+003
1.047288e+002, 5.025271e+003
1.052109e+002, 5.144711e+003
1.056931e+002, 5.222731e+003
1.061752e+002, 5.332639e+003
1.066573e+002, 5.507205e+003
1.071394e+002, 5.753386e+003
1.076215e+002, 6.044811e+003
1.081036e+002, 6.408512e+003
1.085858e+002, 6.825771e+003
1.090679e+002, 7.193383e+003
1.095500e+002, 7.506580e+003
1.100321e+002, 7.779121e+003
1.105142e+002, 8.016709e+003
1.109963e+002, 8.329208e+003
1.114785e+002, 8.493095e+003
1.119606e+002, 8.453126e+003
1.124427e+002, 8.217458e+003
1.129248e+002, 7.941150e+003
1.134069e+002, 7.584928e+003
1.138890e+002, 7.227921e+003
1.143712e+002, 6.929592e+003
1.148533e+002, 6.687951e+003
1.153354e+002, 6.519598e+003
1.158175e+002, 6.448608e+003
1.162996e+002, 6.480603e+003
1.167817e+002, 6.522467e+003
1.172639e+002, 6.531906e+003
1.177460e+002, 6.534178e+003
1.182281e+002, 6.561364e+003
1.187102e+002, 6.651349e+003
1.191923e+002, 6.751373e+003
1.196744e+002, 6.820655e+003
1.201566e+002, 6.844557e+003
1.206387e+002, 6.886353e+003
1.211208e+002, 6.985564e+003
1.216029e+002, 7.130379e+003
1.220850e+002, 7.296824e+003
1.225671e+002, 7.464082e+003
1.230493e+002, 7.650431e+003
1.235314e+002, 7.884147e+003
1.240135e+002, 8.187214e+003
1.244956e+002, 8.495326e+003
1.249777e+002, 8.728503e+003
1.254598e+002, 8.905798e+003
1.259420e+002, 9.095691e+003
1.264241e+002, 9.331636e+003
1.269062e+002, 9.611548e+003
1.273883e+002, 9.931429e+003
1.278704e+002, 1.028934e+004
1.283525e+002, 1.068808e+004
1.288347e+002, 1.112932e+004
1.293168e+002, 1.161556e+004
1.297989e+002, 1.214840e+004
1.302810e+002, 1.274306e+004
1.307631e+002, 1.338963e+004
1.312452e+002, 1.407987e+004
1.317274e+002, 1.484868e+004
1.322095e+002, 1.564170e+004
1.326916e+002, 1.634610e+004
1.331737e+002, 1.697647e+004
1.336558e+002, 1.744034e+004
1.341379e+002, 1.766839e+004
1.346201e+002, 1.766123e+004
1.351022e+002, 1.743639e+004
1.355843e+002, 1.695061e+004
1.360664e+002, 1.623451e+004
1.365485e+002, 1.550594e+004
1.370306e+002, 1.473496e+004
1.375128e+002, 1.401533e+004
1.379949e+002, 1.342566e+004
1.384770e+002, 1.296062e+004
1.389591e+002, 1.264768e+004
1.394412e+002, 1.250417e+004
1.399233e+002, 1.253688e+004
1.404055e+002, 1.266105e+004
1.408876e+002, 1.287998e+004
1.413697e+002, 1.318883e+004
1.418518e+002, 1.358709e+004
1.423339e+002, 1.408872e+004
1.428160e+002, 1.464292e+004
1.432982e+002, 1.524224e+004
1.437803e+002, 1.589891e+004
1.442624e+002, 1.655426e+004
1.447445e+002, 1.725744e+004
1.452266e+002, 1.794299e+004
1.457087e+002, 1.844032e+004
1.461909e+002, 1.877235e+004
1.466730e+002, 1.890051e+004
1.471551e+002, 1.880912e+004
1.476372e+002, 1.847554e+004
1.481193e+002, 1.795941e+004
1.486014e+002, 1.719374e+004
1.490836e+002, 1.623820e+004
1.495657e+002, 1.526120e+004
1.500478e+002, 1.422638e+004
1.505299e+002, 1.322112e+004
1.510120e+002, 1.227672e+004
1.514941e+002, 1.137894e+004
1.519763e+002, 1.056889e+004
1.524584e+002, 9.845312e+003
1.529405e+002, 9.208603e+003
1.534226e+002, 8.641867e+003
1.539047e+002, 8.158813e+003
1.543868e+002, 7.735753e+003
1.548690e+002, 7.359789e+003
1.553511e+002, 7.049163e+003
1.558332e+002, 6.764533e+003
1.563153e+002, 6.503262e+003
1.567974e+002, 6.265305e+003
1.572795e+002, 6.050689e+003
1.577617e+002, 5.854947e+003
1.582438e+002, 5.685005e+003
1.587259e+002, 5.545868e+003
1.592080e+002, 5.461320e+003
1.596901e+002, 5.386207e+003
1.601722e+002, 5.301867e+003
1.606544e+002, 5.209555e+003
1.611365e+002, 5.137941e+003
1.616186e+002, 5.110112e+003
1.621007e+002, 5.102536e+003
1.625828e+002, 5.092810e+003
1.630649e+002, 5.054115e+003
1.635471e+002, 5.028335e+003
1.640292e+002, 5.046606e+003
1.645113e+002, 5.109911e+003
1.649934e+002, 5.161097e+003
1.654755e+002, 5.157553e+003
1.659576e+002, 5.129126e+003
1.664398e+002, 5.112803e+003
1.669219e+002, 5.120565e+003
1.674040e+002, 5.146433e+003
1.678861e+002, 5.189565e+003
1.683682e+002, 5.250564e+003
1.688503e+002, 5.318108e+003
1.693325e+002, 5.385380e+003
1.698146e+002, 5.454678e+003
1.702967e+002, 5.528615e+003
1.707788e+002, 5.606336e+003
1.712609e+002, 5.691474e+003
1.717430e+002, 5.786258e+003
1.722252e+002, 5.891353e+003
1.727073e+002, 6.005460e+003
1.731894e+002, 6.117721e+003
1.736715e+002, 6.238717e+003
1.741536e+002, 6.387169e+003
1.746357e+002, 6.594576e+003
1.751179e+002, 6.827604e+003
1.756000e+002, 7.037955e+003
1.760821e+002, 7.212699e+003
1.765642e+002, 7.404068e+003
1.770463e+002, 7.670568e+003
1.775284e+002, 7.998346e+003
1.780106e+002, 8.339855e+003
1.784927e+002, 8.668581e+003
1.789748e+002, 8.996468e+003
1.794569e+002, 9.343981e+003
1.799390e+002, 9.724058e+003
1.804211e+002, 1.009445e+004
1.809033e+002, 1.043072e+004
1.813854e+002, 1.072798e+004
1.818675e+002, 1.095531e+004
1.823496e+002, 1.110964e+004
1.828317e+002, 1.118162e+004
1.833138e+002, 1.115423e+004
1.837960e+002, 1.102295e+004
1.842781e+002, 1.079916e+004
1.847602e+002, 1.047756e+004
1.852423e+002, 1.006300e+004
1.857244e+002, 9.623276e+003
1.862065e+002, 9.178284e+003
1.866887e+002, 8.734962e+003
1.871708e+002, 8.309306e+003
1.876529e+002, 7.901107e+003
1.881350e+002, 7.516818e+003
1.886171e+002, 7.178835e+003
1.890992e+002, 6.883877e+003
1.895814e+002, 6.618077e+003
1.900635e+002, 6.372115e+003
1.905456e+002, 6.144343e+003
1.910277e+002, 5.947620e+003
1.915098e+002, 5.784772e+003
1.919919e+002, 5.648627e+003
1.924741e+002, 5.527386e+003
1.929562e+002, 5.421113e+003
1.934383e+002, 5.336414e+003
1.939204e+002, 5.286235e+003
1.944025e+002, 5.268627e+003
1.948846e+002, 5.249228e+003
1.953668e+002, 5.222215e+003
1.958489e+002, 5.193286e+003
1.963310e+002, 5.176427e+003
1.968131e+002, 5.172377e+003
1.972952e+002, 5.174667e+003
1.977773e+002, 5.176594e+003
1.982595e+002, 5.177813e+003
1.987416e+002, 5.192479e+003
1.992237e+002, 5.221349e+003
1.997058e+002, 5.265178e+003
2.001879e+002, 5.329979e+003
2.006700e+002, 5.420265e+003
2.011522e+002, 5.514198e+003
2.016343e+002, 5.590891e+003
2.021164e+002, 5.646323e+003
2.025985e+002, 5.727804e+003
2.030806e+002, 5.844248e+003
2.035627e+002, 5.987787e+003
2.040449e+002, 6.129952e+003
2.045270e+002, 6.266458e+003
2.050091e+002, 6.415600e+003
2.054912e+002, 6.589645e+003
2.059733e+002, 6.789637e+003
2.064554e+002, 7.007792e+003
2.069376e+002, 7.243216e+003
2.074197e+002, 7.495481e+003
2.079018e+002, 7.775514e+003
2.083839e+002, 8.090340e+003
2.088660e+002, 8.416516e+003
2.093481e+002, 8.737042e+003
2.098303e+002, 9.054780e+003
2.103124e+002, 9.365540e+003
2.107945e+002, 9.681714e+003
2.112766e+002, 9.987647e+003
2.117587e+002, 1.023298e+004
2.122408e+002, 1.041911e+004
2.127230e+002, 1.054215e+004
2.132051e+002, 1.060405e+004
2.136872e+002, 1.060984e+004
2.141693e+002, 1.053345e+004
2.146514e+002, 1.036326e+004
2.151335e+002, 1.010782e+004
2.156157e+002, 9.809599e+003
2.160978e+002, 9.448226e+003
2.165799e+002, 9.076427e+003
2.170620e+002, 8.725386e+003
2.175441e+002, 8.400837e+003
2.180262e+002, 8.076762e+003
2.185084e+002, 7.744615e+003
2.189905e+002, 7.406537e+003
2.194726e+002, 7.089748e+003
2.199547e+002, 6.786934e+003
2.204368e+002, 6.509188e+003
2.209189e+002, 6.268901e+003
2.214011e+002, 6.073174e+003
2.218832e+002, 5.891250e+003
2.223653e+002, 5.718504e+003
2.228474e+002, 5.557570e+003
2.233295e+002, 5.413054e+003
2.238116e+002, 5.292568e+003
2.242938e+002, 5.181467e+003
2.247759e+002, 5.069995e+003
2.252580e+002, 4.952225e+003
2.257401e+002, 4.851385e+003
2.262222e+002, 4.773900e+003
2.267043e+002, 4.714477e+003
2.271865e+002, 4.646105e+003
2.276686e+002, 4.562021e+003
2.281507e+002, 4.480988e+003
2.286328e+002, 4.414968e+003
2.291149e+002, 4.368581e+003
2.295970e+002, 4.327260e+003
2.300792e+002, 4.294097e+003
2.305613e+002, 4.265466e+003
2.310434e+002, 4.226267e+003
2.315255e+002, 4.166339e+003
2.320076e+002, 4.111605e+003
2.324897e+002, 4.079021e+003
2.329719e+002, 4.083704e+003
2.334540e+002, 4.076389e+003
2.339361e+002, 4.051158e+003
2.344182e+002, 4.012868e+003
2.349003e+002, 3.977386e+003
2.353824e+002, 3.942932e+003
2.358646e+002, 3.913818e+003
2.363467e+002, 3.892751e+003
2.368288e+002, 3.883175e+003
2.373109e+002, 3.874164e+003
2.377930e+002, 3.866878e+003
2.382751e+002, 3.859624e+003
2.387573e+002, 3.847036e+003
2.392394e+002, 3.825302e+003
2.397215e+002, 3.803535e+003
2.402036e+002, 3.785797e+003
2.406857e+002, 3.774059e+003
2.411678e+002, 3.761464e+003
2.416500e+002, 3.745934e+003
2.421321e+002, 3.730112e+003
2.426142e+002, 3.721297e+003
2.430963e+002, 3.724360e+003
2.435784e+002, 3.727344e+003
2.440605e+002, 3.725535e+003
2.445427e+002, 3.718616e+003
2.450248e+002, 3.707054e+003
2.455069e+002, 3.686115e+003
2.459890e+002, 3.662436e+003
2.464711e+002, 3.652198e+003
2.469532e+002, 3.664600e+003
2.474354e+002, 3.675199e+003
2.479175e+002, 3.673815e+003
2.483996e+002, 3.655830e+003
2.488817e+002, 3.640863e+003
2.493638e+002, 3.628536e+003
2.498459e+002, 3.619514e+003
2.503281e+002, 3.615648e+003
2.508102e+002, 3.620139e+003
2.512923e+002, 3.624381e+003
2.517744e+002, 3.626001e+003
2.522565e+002, 3.625397e+003
2.527386e+002, 3.620069e+003
2.532208e+002, 3.607077e+003
2.537029e+002, 3.591538e+003
2.541850e+002, 3.581029e+003
2.546671e+002, 3.575936e+003
2.551492e+002, 3.575233e+003
2.556313e+002, 3.580847e+003
2.561135e+002, 3.595044e+003
2.565956e+002, 3.598549e+003
2.570777e+002, 3.584961e+003
2.575598e+002, 3.566684e+003
2.580419e+002, 3.561696e+003
2.585240e+002, 3.576768e+003
2.590062e+002, 3.589813e+003
2.594883e+002, 3.595087e+003
2.599704e+002, 3.592253e+003
2.604525e+002, 3.584058e+003
2.609346e+002, 3.565446e+003
2.614167e+002, 3.547871e+003
2.618989e+002, 3.547516e+003
2.623810e+002, 3.573876e+003
2.628631e+002, 3.591922e+003
2.633452e+002, 3.590830e+003
2.638273e+002, 3.570739e+003
2.643094e+002, 3.557618e+003
2.647916e+002, 3.552485e+003
2.652737e+002, 3.552438e+003
2.657558e+002, 3.555575e+003
2.662379e+002, 3.563344e+003
2.667200e+002, 3.569625e+003
2.672021e+002, 3.573281e+003
2.676843e+002, 3.574414e+003
2.681664e+002, 3.573297e+003
2.686485e+002, 3.567960e+003
2.691306e+002, 3.564381e+003
2.696127e+002, 3.570160e+003
2.700948e+002, 3.589190e+003
2.705770e+002, 3.598763e+003
2.710591e+002, 3.590787e+003
2.715412e+002, 3.570611e+003
2.720233e+002, 3.565753e+003
2.725054e+002, 3.580532e+003
2.729875e+002, 3.598951e+003
2.734697e+002, 3.609162e+003
2.739518e+002, 3.609865e+003
2.744339e+002, 3.611397e+003
2.749160e+002, 3.615257e+003
2.753981e+002, 3.620559e+003
2.758802e+002, 3.624693e+003
2.763624e+002, 3.627469e+003
2.768445e+002, 3.629727e+003
2.773266e+002, 3.631224e+003
2.778087e+002, 3.631738e+003
2.782908e+002, 3.635655e+003
2.787729e+002, 3.644445e+003
2.792551e+002, 3.655574e+003
2.797372e+002, 3.663098e+003
2.802193e+002, 3.666749e+003
2.807014e+002, 3.668767e+003
2.811835e+002, 3.671510e+003
2.816656e+002, 3.674896e+003
2.821478e+002, 3.670416e+003
2.826299e+002, 3.654269e+003
2.831120e+002, 3.637130e+003
2.835941e+002, 3.638501e+003
2.840762e+002, 3.659157e+003
2.845583e+002, 3.683779e+003
2.850405e+002, 3.709514e+003
2.855226e+002, 3.735196e+003
2.860047e+002, 3.747374e+003
2.864868e+002, 3.743157e+003
2.869689e+002, 3.734830e+003
2.874510e+002, 3.738689e+003
2.879332e+002, 3.754329e+003
2.884153e+002, 3.774063e+003
2.888974e+002, 3.798651e+003
2.893795e+002, 3.824966e+003
2.898616e+002, 3.837063e+003
2.903438e+002, 3.833042e+003
2.908259e+002, 3.827897e+003
2.913080e+002, 3.839898e+003
2.917901e+002, 3.866407e+003
2.922722e+002, 3.892533e+003
2.927543e+002, 3.913824e+003
2.932365e+002, 3.931165e+003
2.937186e+002, 3.946041e+003
2.942007e+002, 3.958313e+003
2.946828e+002, 3.968841e+003
2.951649e+002, 3.973537e+003
2.956470e+002, 3.976153e+003
2.961292e+002, 3.990501e+003
2.966113e+002, 4.025083e+003
2.970934e+002, 4.067476e+003
2.975755e+002, 4.095716e+003
2.980576e+002, 4.111400e+003
2.985397e+002, 4.129944e+003
2.990219e+002, 4.168160e+003
2.995040e+002, 4.217505e+003
2.999861e+002, 4.258110e+003
3.004682e+002, 4.283544e+003
3.009503e+002, 4.304482e+003
3.014324e+002, 4.334679e+003
3.019146e+002, 4.372035e+003
3.023967e+002, 4.408961e+003
3.028788e+002, 4.433263e+003
3.033609e+002, 4.456330e+003
3.038430e+002, 4.495873e+003
3.043251e+002, 4.556834e+003
3.048073e+002, 4.624542e+003
3.052894e+002, 4.690216e+003
3.057715e+002, 4.752571e+003
3.062536e+002, 4.810377e+003
3.067357e+002, 4.858262e+003
3.072178e+002, 4.903048e+003
3.077000e+002, 4.949577e+003
3.081821e+002, 4.997803e+003
3.086642e+002, 5.051381e+003
3.091463e+002, 5.118107e+003
3.096284e+002, 5.190789e+003
3.101105e+002, 5.259258e+003
3.105927e+002, 5.307743e+003
3.110748e+002, 5.357650e+003
3.115569e+002, 5.430957e+003
3.120390e+002, 5.527705e+003
3.125211e+002, 5.616322e+003
3.130032e+002, 5.676696e+003
3.134854e+002, 5.721666e+003
3.139675e+002, 5.764021e+003
3.144496e+002, 5.815220e+003
3.149317e+002, 5.858435e+003
3.154138e+002, 5.889161e+003
3.158959e+002, 5.906546e+003
3.163781e+002, 5.906534e+003
3.168602e+002, 5.878961e+003
3.173423e+002, 5.838270e+003
3.178244e+002, 5.795111e+003
3.183065e+002, 5.755253e+003
3.187886e+002, 5.708439e+003
3.192708e+002, 5.651670e+003
3.197529e+002, 5.585611e+003
3.202350e+002, 5.511840e+003
3.207171e+002, 5.423974e+003
3.211992e+002, 5.334400e+003
3.216813e+002, 5.250123e+003
3.221635e+002, 5.176104e+003
3.226456e+002, 5.097860e+003
3.231277e+002, 5.006407e+003
3.236098e+002, 4.909897e+003
3.240919e+002, 4.821619e+003
3.245740e+002, 4.744092e+003
3.250562e+002, 4.675769e+003
3.255383e+002, 4.618686e+003
3.260204e+002, 4.576418e+003
3.265025e+002, 4.530965e+003
3.269846e+002, 4.475239e+003
3.274667e+002, 4.418423e+003
3.279489e+002, 4.369582e+003
3.284310e+002, 4.333300e+003
3.289131e+002, 4.300004e+003
3.293952e+002, 4.268903e+003
3.298773e+002, 4.240091e+003
3.303594e+002, 4.210804e+003
3.308416e+002, 4.180260e+003
3.313237e+002, 4.150256e+003
3.318058e+002, 4.122152e+003
3.322879e+002, 4.096207e+003
3.327700e+002, 4.071447e+003
3.332521e+002, 4.046910e+003
3.337343e+002, 4.023104e+003
3.342164e+002, 4.003118e+003
3.346985e+002, 3.990152e+003
3.351806e+002, 3.976277e+003
3.356627e+002, 3.954843e+003
3.361448e+002, 3.918667e+003
3.366270e+002, 3.899620e+003
3.371091e+002, 3.907278e+003
3.375912e+002, 3.926033e+003
3.380733e+002, 3.919776e+003
3.385554e+002, 3.878762e+003
3.390375e+002, 3.844728e+003
3.395197e+002, 3.838985e+003
3.400018e+002, 3.863826e+003
3.404839e+002, 3.873539e+003
3.409660e+002, 3.864025e+003
3.414481e+002, 3.847951e+003
3.419302e+002, 3.845005e+003
3.424124e+002, 3.856848e+003
3.428945e+002, 3.857765e+003
3.433766e+002, 3.835962e+003
3.438587e+002, 3.797285e+003
3.443408e+002, 3.765452e+003
3.448229e+002, 3.740239e+003
3.453051e+002, 3.724785e+003
3.457872e+002, 3.723809e+003
3.462693e+002, 3.736033e+003
3.467514e+002, 3.756465e+003
3.472335e+002, 3.791500e+003
3.477156e+002, 3.824444e+003
3.481978e+002, 3.809863e+003
3.486799e+002, 3.752035e+003
3.491620e+002, 3.704389e+003
3.496441e+002, 3.716216e+003
3.501262e+002, 3.764004e+003
3.506083e+002, 3.791605e+003
3.510905e+002, 3.790605e+003
3.515726e+002, 3.775930e+003
3.520547e+002, 3.760527e+003
3.525368e+002, 3.744999e+003
3.530189e+002, 3.731175e+003
3.535010e+002, 3.714219e+003
3.539832e+002, 3.702150e+003
3.544653e+002, 3.710714e+003
3.549474e+002, 3.741511e+003
3.554295e+002, 3.767504e+003
3.559116e+002, 3.761096e+003
3.563937e+002, 3.737491e+003
3.568759e+002, 3.719568e+003
3.573580e+002, 3.713934e+003
3.578401e+002, 3.718019e+003
3.583222e+002, 3.739432e+003
3.588043e+002, 3.773865e+003
3.592864e+002, 3.794293e+003
3.597686e+002, 3.768409e+003
3.602507e+002, 3.731744e+003
3.607328e+002, 3.716613e+003
3.612149e+002, 3.744809e+003
3.616970e+002, 3.770323e+003
3.621791e+002, 3.771368e+003
3.626613e+002, 3.756104e+003
3.631434e+002, 3.743353e+003
3.636255e+002, 3.736178e+003
3.641076e+002, 3.735108e+003
3.645897e+002, 3.743985e+003
3.650718e+002, 3.769511e+003
3.655540e+002, 3.782182e+003
3.660361e+002, 3.759526e+003
3.665182e+002, 3.727073e+003
3.670003e+002, 3.715449e+003
3.674824e+002, 3.753144e+003
3.679645e+002, 3.786256e+003
3.684467e+002, 3.803055e+003
3.689288e+002, 3.802572e+003
3.694109e+002, 3.798879e+003
3.698930e+002, 3.782041e+003
3.703751e+002, 3.769752e+003
3.708572e+002, 3.775857e+003
3.713394e+002, 3.823592e+003
3.718215e+002, 3.849263e+003
3.723036e+002, 3.834896e+003
3.727857e+002, 3.795550e+003
3.732678e+002, 3.787218e+003
3.737499e+002, 3.825604e+003
3.742321e+002, 3.866980e+003
3.747142e+002, 3.891349e+003
3.751963e+002, 3.896280e+003
3.756784e+002, 3.893329e+003
3.761605e+002, 3.878129e+003
3.766426e+002, 3.860573e+003
3.771248e+002, 3.857487e+003
3.776069e+002, 3.870866e+003
3.780890e+002, 3.885990e+003
3.785711e+002, 3.897204e+003
3.790532e+002, 3.905760e+003
3.795353e+002, 3.923361e+003
3.800175e+002, 3.952923e+003
3.804996e+002, 3.977659e+003
3.809817e+002, 3.973662e+003
3.814638e+002, 3.945604e+003
3.819459e+002, 3.933843e+003
3.824280e+002, 3.950623e+003
3.829102e+002, 3.982642e+003
3.833923e+002, 4.005313e+003
3.838744e+002, 4.019465e+003
3.843565e+002, 4.031910e+003
3.848386e+002, 4.042109e+003
3.853207e+002, 4.054391e+003
3.858029e+002, 4.081226e+003
3.862850e+002, 4.127064e+003
3.867671e+002, 4.171330e+003
3.872492e+002, 4.187015e+003
3.877313e+002, 4.184947e+003
3.882134e+002, 4.189478e+003
3.886956e+002, 4.217636e+003
3.891777e+002, 4.253331e+003
3.896598e+002, 4.280343e+003
3.901419e+002, 4.299152e+003
3.906240e+002, 4.322975e+003
3.911061e+002, 4.365724e+003
3.915883e+002, 4.415565e+003
3.920704e+002, 4.459245e+003
3.925525e+002, 4.481941e+003
3.930346e+002, 4.513360e+003
3.935167e+002, 4.572773e+003
3.939988e+002, 4.652624e+003
3.944810e+002, 4.732124e+003
3.949631e+002, 4.799950e+003
3.954452e+002, 4.868868e+003
3.959273e+002, 4.943537e+003
3.964094e+002, 5.021876e+003
3.968915e+002, 5.114446e+003
3.973737e+002, 5.220731e+003
3.978558e+002, 5.343062e+003
3.983379e+002, 5.484305e+003
3.988200e+002, 5.658530e+003
3.993021e+002, 5.837001e+003
3.997842e+002, 6.014857e+003
4.002664e+002, 6.191934e+003
4.007485e+002, 6.371778e+003
4.012306e+002, 6.545199e+003
4.017127e+002, 6.727904e+003
4.021948e+002, 6.929641e+003
4.026769e+002, 7.154558e+003
4.031591e+002, 7.388822e+003
4.036412e+002, 7.629940e+003
4.041233e+002, 7.880075e+003
4.046054e+002, 8.149696e+003
4.050875e+002, 8.432915e+003
4.055696e+002, 8.744323e+003
4.060518e+002, 9.081872e+003
4.065339e+002, 9.444425e+003
4.070160e+002, 9.875636e+003
4.074981e+002, 1.037244e+004
4.079802e+002, 1.093425e+004
4.084623e+002, 1.155049e+004
4.089445e+002, 1.222504e+004
4.094266e+002, 1.298981e+004
4.099087e+002, 1.384741e+004
4.103908e+002, 1.480261e+004
4.108729e+002, 1.585278e+004
4.113550e+002, 1.700404e+004
4.118372e+002, 1.826788e+004
4.123193e+002, 1.969793e+004
4.128014e+002, 2.125584e+004
4.132835e+002, 2.289719e+004
4.137656e+002, 2.466144e+004
4.142477e+002, 2.637204e+004
4.147299e+002, 2.799046e+004
4.152120e+002, 2.941157e+004
4.156941e+002, 3.033999e+004
4.161762e+002, 3.069955e+004
4.166583e+002, 3.047450e+004
4.171404e+002, 2.954444e+004
4.176226e+002, 2.791888e+004
4.181047e+002, 2.602482e+004
4.185868e+002, 2.385929e+004
4.190689e+002, 2.165049e+004
4.195510e+002, 1.957664e+004
4.200331e+002, 1.768001e+004
4.205153e+002, 1.595803e+004
4.209974e+002, 1.445805e+004
4.214795e+002, 1.314883e+004
4.219616e+002, 1.201440e+004
4.224437e+002, 1.107890e+004
4.229258e+002, 1.027753e+004
4.234080e+002, 9.594022e+003
4.238901e+002, 9.033748e+003
4.243722e+002, 8.541130e+003
4.248543e+002, 8.136209e+003
4.253364e+002, 7.785741e+003
4.258185e+002, 7.459692e+003
4.263007e+002, 7.149459e+003
4.267828e+002, 6.870955e+003
4.272649e+002, 6.625981e+003
4.277470e+002, 6.415042e+003
4.282291e+002, 6.236645e+003
4.287112e+002, 6.096887e+003
4.291934e+002, 5.981283e+003
4.296755e+002, 5.883005e+003
4.301576e+002, 5.806061e+003
4.306397e+002, 5.728383e+003
4.311218e+002, 5.648905e+003
4.316039e+002, 5.569520e+003
4.320861e+002, 5.490500e+003
4.325682e+002, 5.411517e+003
4.330503e+002, 5.339318e+003
4.335324e+002, 5.274672e+003
4.340145e+002, 5.218323e+003
4.344966e+002, 5.175136e+003
4.349788e+002, 5.145452e+003
4.354609e+002, 5.120235e+003
4.359430e+002, 5.091256e+003
4.364251e+002, 5.060505e+003
4.369072e+002, 5.034094e+003
4.373893e+002, 5.013902e+003
4.378715e+002, 4.995842e+003
4.383536e+002, 4.971458e+003
4.388357e+002, 4.944826e+003
4.393178e+002, 4.927303e+003
4.397999e+002, 4.932403e+003
4.402820e+002, 4.944374e+003
4.407642e+002, 4.949383e+003
4.412463e+002, 4.946619e+003
4.417284e+002, 4.940971e+003
4.422105e+002, 4.930577e+003
4.426926e+002, 4.920572e+003
4.431747e+002, 4.915923e+003
4.436569e+002, 4.919379e+003
4.441390e+002, 4.926563e+003
4.446211e+002, 4.940837e+003
4.451032e+002, 4.958433e+003
4.455853e+002, 4.967984e+003
4.460674e+002, 4.957107e+003
4.465496e+002, 4.947125e+003
4.470317e+002, 4.945186e+003
4.475138e+002, 4.951611e+003
4.479959e+002, 4.967343e+003
4.484780e+002, 5.002238e+003
4.489601e+002, 5.039918e+003
4.494423e+002, 5.064767e+003
4.499244e+002, 5.072645e+003
4.504065e+002, 5.074785e+003
4.508886e+002, 5.065956e+003
4.513707e+002, 5.053136e+003
4.518528e+002, 5.070424e+003
4.523350e+002, 5.127737e+003
4.528171e+002, 5.185444e+003
4.532992e+002, 5.222032e+003
4.537813e+002, 5.237260e+003
4.542634e+002, 5.250553e+003
4.547455e+002, 5.261449e+003
4.552277e+002, 5.273208e+003
4.557098e+002, 5.288245e+003
4.561919e+002, 5.307033e+003
4.566740e+002, 5.334785e+003
4.571561e+002, 5.375414e+003
4.576382e+002, 5.423463e+003
4.581204e+002, 5.469346e+003
4.586025e+002, 5.513631e+003
4.590846e+002, 5.557163e+003
4.595667e+002, 5.601185e+003
4.600488e+002, 5.645191e+003
4.605309e+002, 5.687030e+003
4.610131e+002, 5.724554e+003
4.614952e+002, 5.768268e+003
4.619773e+002, 5.830427e+003
4.624594e+002, 5.901742e+003
4.629415e+002, 5.969506e+003
4.634236e+002, 6.023417e+003
4.639058e+002, 6.076922e+003
4.643879e+002, 6.133031e+003
4.648700e+002, 6.192203e+003
4.653521e+002, 6.262597e+003
4.658342e+002, 6.352092e+003
4.663163e+002, 6.449713e+003
4.667985e+002, 6.549236e+003
4.672806e+002, 6.645348e+003
4.677627e+002, 6.752012e+003
4.682448e+002, 6.872819e+003
4.687269e+002, 7.001736e+003
4.692090e+002, 7.130942e+003
4.696912e+002, 7.255945e+003
4.701733e+002, 7.391671e+003
4.706554e+002, 7.540490e+003
4.711375e+002, 7.702602e+003
4.716196e+002, 7.881430e+003
4.721017e+002, 8.079939e+003
4.725839e+002, 8.287306e+003
4.730660e+002, 8.493768e+003
4.735481e+002, 8.698229e+003
4.740302e+002, 8.940142e+003
4.745123e+002, 9.225130e+003
4.749944e+002, 9.541294e+003
4.754766e+002, 9.865540e+003
4.759587e+002, 1.020216e+004
4.764408e+002, 1.058004e+004
4.769229e+002, 1.101096e+004
4.774050e+002, 1.148587e+004
4.778871e+002, 1.198577e+004
4.783693e+002, 1.251208e+004
4.788514e+002, 1.307647e+004
4.793335e+002, 1.369177e+004
4.798156e+002, 1.435085e+004
4.802977e+002, 1.503520e+004
4.807798e+002, 1.573165e+004
4.812620e+002, 1.647873e+004
4.817441e+002, 1.729883e+004
4.822262e+002, 1.818246e+004
4.827083e+002, 1.911549e+004
4.831904e+002, 2.007370e+004
4.836725e+002, 2.110359e+004
4.841547e+002, 2.219211e+004
4.846368e+002, 2.334106e+004
4.851189e+002, 2.463623e+004
4.856010e+002, 2.611042e+004
4.860831e+002, 2.772577e+004
4.865652e+002, 2.943897e+004
4.870474e+002, 3.121993e+004
4.875295e+002, 3.318790e+004
4.880116e+002, 3.533094e+004
4.884937e+002, 3.764641e+004
4.889758e+002, 4.015822e+004
4.894579e+002, 4.288952e+004
4.899401e+002, 4.577573e+004
4.904222e+002, 4.885511e+004
4.909043e+002, 5.207695e+004
4.913864e+002, 5.538909e+004
4.918685e+002, 5.883116e+004
4.923506e+002, 6.217791e+004
4.928328e+002, 6.545028e+004
4.933149e+002, 6.853529e+004
4.937970e+002, 7.104309e+004
4.942791e+002, 7.298799e+004
4.947612e+002, 7.414870e+004
4.952433e+002, 7.431544e+004
4.957255e+002, 7.351752e+004
4.962076e+002, 7.182698e+004
4.966897e+002, 6.905910e+004
4.971718e+002, 6.562117e+004
4.976539e+002, 6.171004e+004
4.981360e+002, 5.744216e+004
4.986182e+002, 5.317100e+004
4.991003e+002, 4.899053e+004
4.995824e+002, 4.496046e+004
5.000645e+002, 4.120430e+004
5.005466e+002, 3.766288e+004
5.010287e+002, 3.444039e+004
5.015109e+002, 3.161736e+004
5.019930e+002, 2.909228e+004
5.024751e+002, 2.680091e+004
5.029572e+002, 2.476970e+004
5.034393e+002, 2.293677e+004
5.039214e+002, 2.132208e+004
5.044036e+002, 1.991702e+004
5.048857e+002, 1.864874e+004
5.053678e+002, 1.751749e+004
5.058499e+002, 1.650119e+004
5.063320e+002, 1.559923e+004
5.068141e+002, 1.481568e+004
5.072963e+002, 1.409113e+004
5.077784e+002, 1.341823e+004
5.082605e+002, 1.280119e+004
5.087426e+002, 1.223463e+004
5.092247e+002, 1.171818e+004
5.097068e+002, 1.124774e+004
5.101890e+002, 1.082636e+004
5.106711e+002, 1.044467e+004
5.111532e+002, 1.010228e+004
5.116353e+002, 9.794236e+003
5.121174e+002, 9.505757e+003
5.125995e+002, 9.227489e+003
5.130817e+002, 8.961919e+003
5.135638e+002, 8.712479e+003
5.140459e+002, 8.479114e+003
5.145280e+002, 8.259044e+003
5.150101e+002, 8.041922e+003
5.154922e+002, 7.841000e+003
5.159744e+002, 7.673862e+003
5.164565e+002, 7.558394e+003
5.169386e+002, 7.445637e+003
5.174207e+002, 7.317198e+003
5.179028e+002, 7.181919e+003
5.183849e+002, 7.054240e+003
5.188671e+002, 6.934811e+003
5.193492e+002, 6.825317e+003
5.198313e+002, 6.728018e+003
5.203134e+002, 6.642681e+003
5.207955e+002, 6.552585e+003
5.212776e+002, 6.453732e+003
5.217598e+002, 6.355513e+003
5.222419e+002, 6.262363e+003
5.227240e+002, 6.172123e+003
5.232061e+002, 6.096879e+003
5.236882e+002, 6.039324e+003
5.241703e+002, 5.990885e+003
5.246525e+002, 5.940500e+003
5.251346e+002, 5.888273e+003
5.256167e+002, 5.839205e+003
5.260988e+002, 5.796774e+003
5.265809e+002, 5.756657e+003
5.270630e+002, 5.708954e+003
5.275452e+002, 5.655598e+003
5.280273e+002, 5.606441e+003
5.285094e+002, 5.570305e+003
5.289915e+002, 5.539661e+003
5.294736e+002, 5.505610e+003
5.299557e+002, 5.467276e+003
5.304379e+002, 5.428050e+003
5.309200e+002, 5.386656e+003
5.314021e+002, 5.346376e+003
5.318842e+002, 5.310417e+003
5.323663e+002, 5.282424e+003
5.328484e+002, 5.254572e+003
5.333306e+002, 5.219554e+003
5.338127e+002, 5.183736e+003
5.342948e+002, 5.161866e+003
5.347769e+002, 5.178354e+003
5.352590e+002, 5.181199e+003
5.357411e+002, 5.151359e+003
5.362233e+002, 5.090517e+003
5.367054e+002, 5.054184e+003
5.371875e+002, 5.053407e+003
5.376696e+002, 5.056552e+003
5.381517e+002, 5.041286e+003
5.386339e+002, 5.005959e+003
5.391160e+002, 4.975251e+003
5.395981e+002, 4.948837e+003
5.400802e+002, 4.932364e+003
5.405623e+002, 4.940297e+003
5.410444e+002, 4.967604e+003
5.415266e+002, 4.985728e+003
5.420087e+002, 4.983770e+003
5.424908e+002, 4.970447e+003
5.429729e+002, 4.952365e+003
5.434550e+002, 4.932084e+003
5.439371e+002, 4.919279e+003
5.444193e+002, 4.925417e+003
5.449014e+002, 4.937222e+003
5.453835e+002, 4.942218e+003
5.458656e+002, 4.938808e+003
5.463477e+002, 4.939872e+003
5.468298e+002, 4.958979e+003
5.473120e+002, 4.980175e+003
5.477941e+002, 4.990121e+003
5.482762e+002, 4.977412e+003
5.487583e+002, 4.966059e+003
5.492404e+002, 4.952911e+003
5.497225e+002, 4.943552e+003
5.502047e+002, 4.949492e+003
5.506868e+002, 4.982345e+003
5.511689e+002, 5.007954e+003
5.516510e+002, 5.016309e+003
5.521331e+002, 5.009992e+003
5.526152e+002, 5.003390e+003
5.530974e+002, 4.995365e+003
5.535795e+002, 4.993039e+003
5.540616e+002, 5.003100e+003
5.545437e+002, 5.023767e+003
5.550258e+002, 5.046591e+003
5.555079e+002, 5.072285e+003
5.559901e+002, 5.093053e+003
5.564722e+002, 5.093544e+003
5.569543e+002, 5.084042e+003
5.574364e+002, 5.086935e+003
5.579185e+002, 5.114887e+003
5.584006e+002, 5.147101e+003
5.588828e+002, 5.165715e+003
5.593649e+002, 5.175928e+003
5.598470e+002, 5.190282e+003
5.603291e+002, 5.220186e+003
5.608112e+002, 5.249269e+003
5.612933e+002, 5.265384e+003
5.617755e+002, 5.267931e+003
5.622576e+002, 5.285520e+003
5.627397e+002, 5.330948e+003
5.632218e+002, 5.385043e+003
5.637039e+002, 5.441002e+003
5.641860e+002, 5.506331e+003
5.646682e+002, 5.553416e+003
5.651503e+002, 5.578128e+003
5.656324e+002, 5.590532e+003
5.661145e+002, 5.599212e+003
5.665966e+002, 5.602651e+003
5.670787e+002, 5.618884e+003
5.675609e+002, 5.652984e+003
5.680430e+002, 5.700712e+003
5.685251e+002, 5.756912e+003
5.690072e+002, 5.820566e+003
5.694893e+002, 5.878979e+003
5.699714e+002, 5.921245e+003
5.704536e+002, 5.956682e+003
5.709357e+002, 5.998203e+003
5.714178e+002, 6.045744e+003
5.718999e+002, 6.096811e+003
5.723820e+002, 6.153625e+003
5.728641e+002, 6.210521e+003
5.733463e+002, 6.261000e+003
5.738284e+002, 6.301965e+003
5.743105e+002, 6.343156e+003
5.747926e+002, 6.384411e+003
5.752747e+002, 6.428568e+003
5.757568e+002, 6.479122e+003
5.762390e+002, 6.542576e+003
5.767211e+002, 6.604698e+003
5.772032e+002, 6.661644e+003
5.776853e+002, 6.716536e+003
5.781674e+002, 6.779008e+003
5.786495e+002, 6.851432e+003
5.791317e+002, 6.924806e+003
5.796138e+002, 6.998278e+003
5.800959e+002, 7.070482e+003
5.805780e+002, 7.125626e+003
5.810601e+002, 7.162589e+003
5.815422e+002, 7.200618e+003
5.820244e+002, 7.260362e+003
5.825065e+002, 7.333709e+003
5.829886e+002, 7.398587e+003
5.834707e+002, 7.452104e+003
5.839528e+002, 7.502478e+003
5.844349e+002, 7.554244e+003
5.849171e+002, 7.608549e+003
5.853992e+002, 7.667444e+003
5.858813e+002, 7.755723e+003
5.863634e+002, 7.822688e+003
5.868455e+002, 7.822508e+003
5.873276e+002, 7.782699e+003
5.878098e+002, 7.778572e+003
5.882919e+002, 7.856912e+003
5.887740e+002, 7.940247e+003
5.892561e+002, 8.008821e+003
5.897382e+002, 8.062535e+003
5.902203e+002, 8.102643e+003
5.907025e+002, 8.120999e+003
5.911846e+002, 8.139595e+003
5.916667e+002, 8.173252e+003
5.921488e+002, 8.223133e+003
5.926309e+002, 8.275400e+003
5.931130e+002, 8.331042e+003
5.935952e+002, 8.384919e+003
5.940773e+002, 8.429847e+003
5.945594e+002, 8.467708e+003
5.950415e+002, 8.503257e+003
5.955236e+002, 8.534365e+003
5.960057e+002, 8.571171e+003
5.964879e+002, 8.625766e+003
5.969700e+002, 8.694561e+003
5.974521e+002, 8.768678e+003
5.979342e+002, 8.854112e+003
5.984163e+002, 8.935057e+003
5.988984e+002, 8.995177e+003
5.993806e+002, 9.038167e+003
5.998627e+002, 9.096942e+003
6.003448e+002, 9.196591e+003
6.008269e+002, 9.298489e+003
6.013090e+002, 9.381421e+003
6.017911e+002, 9.434266e+003
6.022733e+002, 9.514579e+003
6.027554e+002, 9.632849e+003
6.032375e+002, 9.763594e+003
6.037196e+002, 9.875423e+003
6.042017e+002, 9.964655e+003
6.046838e+002, 1.008484e+004
6.051660e+002, 1.024658e+004
6.056481e+002, 1.043406e+004
6.061302e+002, 1.062397e+004
6.066123e+002, 1.081657e+004
6.070944e+002, 1.101188e+004
6.075765e+002, 1.121101e+004
6.080587e+002, 1.141375e+004
6.085408e+002, 1.161873e+004
6.090229e+002, 1.182753e+004
6.095050e+002, 1.205359e+004
6.099871e+002, 1.230558e+004
6.104692e+002, 1.257293e+004
6.109514e+002, 1.284663e+004
6.114335e+002, 1.312776e+004
6.119156e+002, 1.342701e+004
6.123977e+002, 1.375868e+004
6.128798e+002, 1.410046e+004
6.133619e+002, 1.443216e+004
6.138441e+002, 1.474069e+004
6.143262e+002, 1.508222e+004
6.148083e+002, 1.546460e+004
6.152904e+002, 1.587189e+004
6.157725e+002, 1.628393e+004
6.162546e+002, 1.670167e+004
6.167368e+002, 1.710923e+004
6.172189e+002, 1.750962e+004
6.177010e+002, 1.789790e+004
6.181831e+002, 1.827342e+004
6.186652e+002, 1.862980e+004
6.191473e+002, 1.894202e+004
6.196295e+002, 1.919686e+004
6.201116e+002, 1.939831e+004
6.205937e+002, 1.956418e+004
6.210758e+002, 1.968549e+004
6.215579e+002, 1.971977e+004
6.220400e+002, 1.965874e+004
6.225222e+002, 1.949232e+004
6.230043e+002, 1.920567e+004
6.234864e+002, 1.878780e+004
6.239685e+002, 1.830426e+004
6.244506e+002, 1.774623e+004
6.249327e+002, 1.713794e+004
6.254149e+002, 1.648700e+004
6.258970e+002, 1.578659e+004
6.263791e+002, 1.508125e+004
6.268612e+002, 1.436982e+004
6.273433e+002, 1.365846e+004
6.278254e+002, 1.294321e+004
6.283076e+002, 1.222638e+004
6.287897e+002, 1.155867e+004
6.292718e+002, 1.095617e+004
6.297539e+002, 1.040096e+004
6.302360e+002, 9.879033e+003
6.307181e+002, 9.386721e+003
6.312003e+002, 8.919634e+003
6.316824e+002, 8.462880e+003
6.321645e+002, 8.038919e+003
6.326466e+002, 7.674359e+003
6.331287e+002, 7.362381e+003
6.336108e+002, 7.079398e+003
6.340930e+002, 6.824480e+003
6.345751e+002, 6.585887e+003
6.350572e+002, 6.360189e+003
6.355393e+002, 6.144537e+003
6.360214e+002, 5.946959e+003
6.365035e+002, 5.766292e+003
6.369857e+002, 5.604486e+003
6.374678e+002, 5.467805e+003
6.379499e+002, 5.360173e+003
6.384320e+002, 5.251833e+003
6.389141e+002, 5.140952e+003
6.393962e+002, 5.032268e+003
6.398784e+002, 4.929934e+003
6.403605e+002, 4.835644e+003
6.408426e+002, 4.752864e+003
6.413247e+002, 4.684788e+003
6.418068e+002, 4.626359e+003
6.422889e+002, 4.575788e+003
6.427711e+002, 4.530352e+003
6.432532e+002, 4.482482e+003
6.437353e+002, 4.416857e+003
6.442174e+002, 4.360270e+003
6.446995e+002, 4.331947e+003
6.451816e+002, 4.327514e+003
6.456638e+002, 4.314848e+003
6.461459e+002, 4.279549e+003
6.466280e+002, 4.245146e+003
6.471101e+002, 4.220431e+003
6.475922e+002, 4.206455e+003
6.480743e+002, 4.184801e+003
6.485565e+002, 4.151470e+003
6.490386e+002, 4.121071e+003
6.495207e+002, 4.107144e+003
6.500028e+002, 4.107862e+003
6.504849e+002, 4.109739e+003
6.509670e+002, 4.112577e+003
6.514492e+002, 4.111249e+003
6.519313e+002, 4.096441e+003
6.524134e+002, 4.074189e+003
6.528955e+002, 4.056088e+003
6.533776e+002, 4.045177e+003
6.538597e+002, 4.037974e+003
6.543419e+002, 4.033535e+003
6.548240e+002, 4.031075e+003
6.553061e+002, 4.029467e+003
6.557882e+002, 4.023043e+003
6.562703e+002, 4.023824e+003
6.567524e+002, 4.043439e+003
6.572346e+002, 4.072327e+003
6.577167e+002, 4.079773e+003
6.581988e+002, 4.054828e+003
6.586809e+002, 4.033906e+003
6.591630e+002, 4.032897e+003
6.596451e+002, 4.046432e+003
6.601273e+002, 4.036705e+003
6.606094e+002, 4.001880e+003
6.610915e+002, 3.977347e+003
6.615736e+002, 3.999271e+003
6.620557e+002, 4.044301e+003
6.625378e+002, 4.063435e+003
6.630200e+002, 4.054282e+003
6.635021e+002, 4.044973e+003
6.639842e+002, 4.058161e+003
6.644663e+002, 4.078957e+003
6.649484e+002, 4.093398e+003
6.654305e+002, 4.097831e+003
6.659127e+002, 4.099872e+003
6.663948e+002, 4.099507e+003
6.668769e+002, 4.098612e+003
6.673590e+002, 4.099117e+003
6.678411e+002, 4.101746e+003
6.683232e+002, 4.104240e+003
6.688054e+002, 4.105907e+003
6.692875e+002, 4.107958e+003
6.697696e+002, 4.113215e+003
6.702517e+002, 4.121754e+003
6.707338e+002, 4.129159e+003
6.712159e+002, 4.134275e+003
6.716981e+002, 4.137198e+003
6.721802e+002, 4.140130e+003
6.726623e+002, 4.141437e+003
6.731444e+002, 4.135377e+003
6.736265e+002, 4.110449e+003
6.741086e+002, 4.084041e+003
6.745908e+002, 4.072554e+003
6.750729e+002, 4.073302e+003
6.755550e+002, 4.066391e+003
6.760371e+002, 4.034197e+003
6.765192e+002, 4.003481e+003
6.770013e+002, 3.986005e+003
6.774835e+002, 3.982720e+003
6.779656e+002, 3.982691e+003
6.784477e+002, 3.987654e+003
6.789298e+002, 3.992744e+003
6.794119e+002, 3.994698e+003
6.798940e+002, 3.993492e+003
6.803762e+002, 3.991218e+003
6.808583e+002, 3.988184e+003
6.813404e+002, 3.982157e+003
6.818225e+002, 3.966687e+003
6.823046e+002, 3.947116e+003
6.827867e+002, 3.934182e+003
6.832689e+002, 3.930508e+003
6.837510e+002, 3.932795e+003
6.842331e+002, 3.946150e+003
6.847152e+002, 3.961547e+003
6.851973e+002, 3.967172e+003
6.856794e+002, 3.944582e+003
6.861616e+002, 3.930474e+003
6.866437e+002, 3.939959e+003
6.871258e+002, 3.959770e+003
6.876079e+002, 3.965064e+003
6.880900e+002, 3.948764e+003
6.885721e+002, 3.936479e+003
6.890543e+002, 3.935302e+003
6.895364e+002, 3.941577e+003
6.900185e+002, 3.945458e+003
6.905006e+002, 3.946897e+003
6.909827e+002, 3.946259e+003
6.914648e+002, 3.946293e+003
6.919470e+002, 3.942969e+003
6.924291e+002, 3.924606e+003
6.929112e+002, 3.894703e+003
6.933933e+002, 3.872761e+003
6.938754e+002, 3.875907e+003
6.943575e+002, 3.885407e+003
6.948397e+002, 3.888756e+003
6.953218e+002, 3.884334e+003
6.958039e+002, 3.883198e+003
6.962860e+002, 3.893306e+003
6.967681e+002, 3.900964e+003
6.972502e+002, 3.898182e+003
6.977324e+002, 3.881967e+003
6.982145e+002, 3.870097e+003
6.986966e+002, 3.862683e+003
6.991787e+002, 3.859372e+003
6.996608e+002, 3.862576e+003
7.001429e+002, 3.870317e+003
7.006251e+002, 3.872338e+003
7.011072e+002, 3.866665e+003
7.015893e+002, 3.858644e+003
7.020714e+002, 3.849431e+003
7.025535e+002, 3.842498e+003
7.030356e+002, 3.843902e+003
7.035178e+002, 3.862325e+003
7.039999e+002, 3.876984e+003
7.044820e+002, 3.881141e+003
7.049641e+002, 3.876247e+003
7.054462e+002, 3.863622e+003
7.059283e+002, 3.829505e+003
7.064105e+002, 3.811599e+003
7.068926e+002, 3.823848e+003
7.073747e+002, 3.849576e+003
7.078568e+002, 3.843833e+003
7.083389e+002, 3.803498e+003
7.088210e+002, 3.774521e+003
7.093032e+002, 3.777326e+003
7.097853e+002, 3.796456e+003
7.102674e+002, 3.800357e+003
7.107495e+002, 3.792381e+003
7.112316e+002, 3.786429e+003
7.117137e+002, 3.794612e+003
7.121959e+002, 3.803912e+003
7.126780e+002, 3.803277e+003
7.131601e+002, 3.794006e+003
7.136422e+002, 3.787427e+003
7.141243e+002, 3.784367e+003
7.146064e+002, 3.787134e+003
7.150886e+002, 3.799147e+003
7.155707e+002, 3.820980e+003
7.160528e+002, 3.832883e+003
7.165349e+002, 3.832338e+003
7.170170e+002, 3.828563e+003
7.174991e+002, 3.829277e+003
7.179813e+002, 3.832972e+003
7.184634e+002, 3.823605e+003
7.189455e+002, 3.800092e+003
7.194276e+002, 3.780835e+003
7.199097e+002, 3.786252e+003
7.203918e+002, 3.803531e+003
7.208740e+002, 3.815789e+003
7.213561e+002, 3.820153e+003
7.218382e+002, 3.822428e+003
7.223203e+002, 3.824339e+003
7.228024e+002, 3.825987e+003
7.232845e+002, 3.827568e+003
7.237667e+002, 3.830527e+003
7.242488e+002, 3.830689e+003
7.247309e+002, 3.827118e+003
7.252130e+002, 3.821688e+003
7.256951e+002, 3.815187e+003
7.261772e+002, 3.807179e+003
7.266594e+002, 3.806568e+003
7.271415e+002, 3.817289e+003
7.276236e+002, 3.828447e+003
7.281057e+002, 3.825291e+003
7.285878e+002, 3.810530e+003
7.290699e+002, 3.789925e+003
7.295521e+002, 3.757405e+003
7.300342e+002, 3.732465e+003
7.305163e+002, 3.733893e+003
7.309984e+002, 3.751014e+003
7.314805e+002, 3.764794e+003
7.319626e+002, 3.772676e+003
7.324448e+002, 3.773864e+003
7.329269e+002, 3.764692e+003
7.334090e+002, 3.749806e+003
7.338911e+002, 3.742094e+003
7.343732e+002, 3.742596e+003
7.348553e+002, 3.746895e+003
7.353375e+002, 3.756169e+003
7.358196e+002, 3.766317e+003
7.363017e+002, 3.761660e+003
7.367838e+002, 3.745521e+003
7.372659e+002, 3.738151e+003
7.377480e+002, 3.763504e+003
7.382302e+002, 3.793072e+003
7.387123e+002, 3.800386e+003
7.391944e+002, 3.787917e+003
7.396765e+002, 3.770007e+003
7.401586e+002, 3.738986e+003
7.406407e+002, 3.715740e+003
7.411229e+002, 3.711970e+003
7.416050e+002, 3.726637e+003
7.420871e+002, 3.744182e+003
7.425692e+002, 3.769749e+003
7.430513e+002, 3.786212e+003
7.435334e+002, 3.777909e+003
7.440156e+002, 3.749650e+003
7.444977e+002, 3.745223e+003
7.449798e+002, 3.764555e+003
7.454619e+002, 3.786660e+003
7.459440e+002, 3.793969e+003
7.464261e+002, 3.795138e+003
7.469083e+002, 3.802471e+003
7.473904e+002, 3.817171e+003
7.478725e+002, 3.827767e+003
7.483546e+002, 3.827190e+003
7.488367e+002, 3.821719e+003
7.493188e+002, 3.814251e+003
7.498010e+002, 3.803127e+003
7.502831e+002, 3.798209e+003
7.507652e+002, 3.803419e+003
7.512473e+002, 3.808717e+003
7.517294e+002, 3.802008e+003
7.522115e+002, 3.783690e+003
7.526937e+002, 3.787310e+003
7.531758e+002, 3.818758e+003
7.536579e+002, 3.845564e+003
7.541400e+002, 3.818232e+003
7.546221e+002, 3.768923e+003
7.551042e+002, 3.754908e+003
7.555864e+002, 3.796475e+003
7.560685e+002, 3.835924e+003
7.565506e+002, 3.840114e+003
7.570327e+002, 3.828192e+003
7.575148e+002, 3.819027e+003
7.579969e+002, 3.814182e+003
7.584791e+002, 3.814029e+003
7.589612e+002, 3.821585e+003
7.594433e+002, 3.830456e+003
7.599254e+002, 3.830681e+003
7.604075e+002, 3.821548e+003
7.608896e+002, 3.821540e+003
7.613718e+002, 3.836270e+003
7.618539e+002, 3.851730e+003
7.623360e+002, 3.844044e+003
7.628181e+002, 3.823899e+003
7.633002e+002, 3.814240e+003
7.637823e+002, 3.826297e+003
7.642645e+002, 3.842086e+003
7.647466e+002, 3.859990e+003
7.652287e+002, 3.872877e+003
7.657108e+002, 3.870008e+003
7.661929e+002, 3.823369e+003
7.666750e+002, 3.798935e+003
7.671572e+002, 3.810305e+003
7.676393e+002, 3.840570e+003
7.681214e+002, 3.860839e+003
7.686035e+002, 3.870974e+003
7.690856e+002, 3.869222e+003
7.695677e+002, 3.849586e+003
7.700499e+002, 3.828390e+003
7.705320e+002, 3.837761e+003
7.710141e+002, 3.866214e+003
7.714962e+002, 3.884236e+003
7.719783e+002, 3.862437e+003
7.724604e+002, 3.844615e+003
7.729426e+002, 3.864854e+003
7.734247e+002, 3.905212e+003
7.739068e+002, 3.923177e+003
7.743889e+002, 3.893091e+003
7.748710e+002, 3.870113e+003
7.753531e+002, 3.865854e+003
7.758353e+002, 3.873736e+003
7.763174e+002, 3.873876e+003
7.767995e+002, 3.865779e+003
7.772816e+002, 3.861071e+003
7.777637e+002, 3.862918e+003
7.782458e+002, 3.871863e+003
7.787280e+002, 3.901191e+003
7.792101e+002, 3.940430e+003
7.796922e+002, 3.955685e+003
7.801743e+002, 3.896196e+003
7.806564e+002, 3.842547e+003
7.811385e+002, 3.846873e+003
7.816207e+002, 3.894893e+003
7.821028e+002, 3.920243e+003
7.825849e+002, 3.903624e+003
7.830670e+002, 3.888156e+003
7.835491e+002, 3.884700e+003
7.840313e+002, 3.890900e+003
7.845134e+002, 3.899074e+003
7.849955e+002, 3.909324e+003
7.854776e+002, 3.916374e+003
7.859597e+002, 3.916622e+003
7.864418e+002, 3.913038e+003
7.869240e+002, 3.907183e+003
7.874061e+002, 3.900863e+003
7.878882e+002, 3.900974e+003
7.883703e+002, 3.919931e+003
7.888524e+002, 3.937595e+003
7.893345e+002, 3.944128e+003
7.898167e+002, 3.939972e+003
7.902988e+002, 3.931917e+003
7.907809e+002, 3.915227e+003
7.912630e+002, 3.904109e+003
7.917451e+002, 3.905845e+003
7.922272e+002, 3.916501e+003
7.927094e+002, 3.917648e+003
7.931915e+002, 3.909645e+003
7.936736e+002, 3.901538e+003
7.941557e+002, 3.893637e+003
7.946378e+002, 3.891546e+003
7.951199e+002, 3.911843e+003
7.956021e+002, 3.947343e+003
7.960842e+002, 3.966658e+003
7.965663e+002, 3.936981e+003
7.970484e+002, 3.906306e+003
7.975305e+002, 3.896574e+003
7.980126e+002, 3.906011e+003
7.984948e+002, 3.918039e+003
7.989769e+002, 3.934944e+003
7.994590e+002, 3.948822e+003
7.999411e+002, 3.957201e+003
8.004232e+002, 3.959772e+003
8.009053e+002, 3.949565e+003
8.013875e+002, 3.928499e+003
8.018696e+002, 3.915471e+003
8.023517e+002, 3.933742e+003
8.028338e+002, 3.956904e+003
8.033159e+002, 3.954085e+003
8.037980e+002, 3.929953e+003
8.042802e+002, 3.915198e+003
8.047623e+002, 3.925634e+003
8.052444e+002, 3.941243e+003
8.057265e+002, 3.958050e+003
8.062086e+002, 3.974733e+003
8.066907e+002, 3.977806e+003
8.071729e+002, 3.963614e+003
8.076550e+002, 3.951245e+003
8.081371e+002, 3.951100e+003
8.086192e+002, 3.958645e+003
8.091013e+002, 3.965254e+003
8.095834e+002, 3.969805e+003
8.100656e+002, 3.965853e+003
8.105477e+002, 3.934949e+003
8.110298e+002, 3.906826e+003
8.115119e+002, 3.906114e+003
8.119940e+002, 3.929622e+003
8.124761e+002, 3.947311e+003
8.129583e+002, 3.949959e+003
8.134404e+002, 3.952355e+003
8.139225e+002, 3.959908e+003
8.144046e+002, 3.971047e+003
8.148867e+002, 3.976692e+003
8.153688e+002, 3.976747e+003
8.158510e+002, 3.972496e+003
8.163331e+002, 3.960079e+003
8.168152e+002, 3.946296e+003
8.172973e+002, 3.942970e+003
8.177794e+002, 3.948530e+003
8.182615e+002, 3.957026e+003
8.187437e+002, 3.970422e+003
8.192258e+002, 3.981047e+003
8.197079e+002, 3.983255e+003
8.201900e+002, 3.978412e+003
8.206721e+002, 3.977777e+003
8.211542e+002, 3.983077e+003
8.216364e+002, 3.988924e+003
8.221185e+002, 3.994749e+003
8.226006e+002, 3.999221e+003
8.230827e+002, 3.995282e+003
8.235648e+002, 3.984425e+003
8.240469e+002, 3.978385e+003
8.245291e+002, 3.986887e+003
8.250112e+002, 4.000310e+003
8.254933e+002, 4.013012e+003
8.259754e+002, 4.023465e+003
8.264575e+002, 4.027033e+003
8.269396e+002, 4.014036e+003
8.274218e+002, 4.003533e+003
8.279039e+002, 4.002043e+003
8.283860e+002, 4.006564e+003
8.288681e+002, 4.005670e+003
8.293502e+002, 3.997433e+003
8.298323e+002, 3.995853e+003
8.303145e+002, 4.009192e+003
8.307966e+002, 4.027542e+003
8.312787e+002, 4.029959e+003
8.317608e+002, 4.020977e+003
8.322429e+002, 4.014628e+003
8.327250e+002, 4.017315e+003
8.332072e+002, 4.024406e+003
8.336893e+002, 4.038086e+003
8.341714e+002, 4.054228e+003
8.346535e+002, 4.061214e+003
8.351356e+002, 4.051694e+003
8.356177e+002, 4.045678e+003
8.360999e+002, 4.047104e+003
8.365820e+002, 4.053555e+003
8.370641e+002, 4.059925e+003
8.375462e+002, 4.066286e+003
8.380283e+002, 4.074020e+003
8.385104e+002, 4.085697e+003
8.389926e+002, 4.094965e+003
8.394747e+002, 4.093447e+003
8.399568e+002, 4.084805e+003
8.404389e+002, 4.075365e+003
8.409210e+002, 4.061194e+003
8.414031e+002, 4.054005e+003
8.418853e+002, 4.063854e+003
8.423674e+002, 4.078320e+003
8.428495e+002, 4.079431e+003
8.433316e+002, 4.064817e+003
8.438137e+002, 4.046832e+003
8.442958e+002, 4.024843e+003
8.447780e+002, 4.006765e+003
8.452601e+002, 4.009561e+003
8.457422e+002, 4.025063e+003
8.462243e+002, 4.033209e+003
8.467064e+002, 4.026543e+003
8.471885e+002, 4.016890e+003
8.476707e+002, 4.011030e+003
8.481528e+002, 4.005963e+003
8.486349e+002, 3.997836e+003
8.491170e+002, 3.981121e+003
8.495991e+002, 3.971737e+003
8.500812e+002, 3.972706e+003
8.505634e+002, 3.976824e+003
8.510455e+002, 3.975484e+003
8.515276e+002, 3.969583e+003
8.520097e+002, 3.965223e+003
8.524918e+002, 3.962978e+003
8.529739e+002, 3.964080e+003
8.534561e+002, 3.978234e+003
8.539382e+002, 3.991877e+003
8.544203e+002, 3.986638e+003
8.549024e+002, 3.950690e+003
8.553845e+002, 3.925126e+003
8.558666e+002, 3.918316e+003
8.563488e+002, 3.923863e+003
8.568309e+002, 3.942622e+003
8.573130e+002, 3.979108e+003
8.577951e+002, 3.992659e+003
8.582772e+002, 3.980957e+003
8.587593e+002, 3.960356e+003
8.592415e+002, 3.939415e+003
8.597236e+002, 3.921383e+003
8.602057e+002, 3.914833e+003
8.606878e+002, 3.920342e+003
8.611699e+002, 3.920294e+003
8.616520e+002, 3.897115e+003
8.621342e+002, 3.873255e+003
8.626163e+002, 3.864255e+003
8.630984e+002, 3.870867e+003
8.635805e+002, 3.871999e+003
8.640626e+002, 3.864655e+003
8.645447e+002, 3.861068e+003
8.650269e+002, 3.874864e+003
8.655090e+002, 3.897194e+003
8.659911e+002, 3.889068e+003
8.664732e+002, 3.855675e+003
8.669553e+002, 3.832568e+003
8.674374e+002, 3.859477e+003
8.679196e+002, 3.889329e+003
8.684017e+002, 3.882947e+003
8.688838e+002, 3.845551e+003
8.693659e+002, 3.824441e+003
8.698480e+002, 3.833314e+003
8.703301e+002, 3.841987e+003
8.708123e+002, 3.841458e+003
8.712944e+002, 3.834574e+003
8.717765e+002, 3.831380e+003
8.722586e+002, 3.831502e+003
8.727407e+002, 3.830841e+003
8.732228e+002, 3.826453e+003
8.737050e+002, 3.821741e+003
8.741871e+002, 3.817380e+003
8.746692e+002, 3.815636e+003
8.751513e+002, 3.821464e+003
8.756334e+002, 3.851824e+003
8.761155e+002, 3.870267e+003
8.765977e+002, 3.868023e+003
8.770798e+002, 3.852818e+003
8.775619e+002, 3.837068e+003
8.780440e+002, 3.820626e+003
8.785261e+002, 3.806375e+003
8.790082e+002, 3.795058e+003
8.794904e+002, 3.785217e+003
8.799725e+002, 3.774327e+003
8.804546e+002, 3.763456e+003
8.809367e+002, 3.754335e+003
8.814188e+002, 3.746954e+003
8.819009e+002, 3.742396e+003
8.823831e+002, 3.743178e+003
8.828652e+002, 3.745695e+003
8.833473e+002, 3.746012e+003
8.838294e+002, 3.742907e+003
8.843115e+002, 3.743440e+003
8.847936e+002, 3.749290e+003
8.852758e+002, 3.753538e+003
8.857579e+002, 3.742781e+003
8.862400e+002, 3.726347e+003
8.867221e+002, 3.732267e+003
8.872042e+002, 3.765718e+003
8.876863e+002, 3.784163e+003
8.881685e+002, 3.742888e+003
8.886506e+002, 3.693530e+003
8.891327e+002, 3.674692e+003
8.896148e+002, 3.692333e+003
8.900969e+002, 3.707397e+003
8.905790e+002, 3.721000e+003
8.910612e+002, 3.729152e+003
8.915433e+002, 3.725612e+003
8.920254e+002, 3.714827e+003
8.925075e+002, 3.714487e+003
8.929896e+002, 3.723535e+003
8.934717e+002, 3.733651e+003
8.939539e+002, 3.747177e+003
8.944360e+002, 3.753504e+003
8.949181e+002, 3.742739e+003
8.954002e+002, 3.717034e+003
8.958823e+002, 3.690847e+003
8.963644e+002, 3.655203e+003
8.968466e+002, 3.639299e+003
8.973287e+002, 3.658673e+003
8.978108e+002, 3.696392e+003
8.982929e+002, 3.703773e+003
8.987750e+002, 3.685868e+003
8.992571e+002, 3.675567e+003
8.997393e+002, 3.690242e+003
9.002214e+002, 3.709903e+003
9.007035e+002, 3.722804e+003
9.011856e+002, 3.727918e+003
9.016677e+002, 3.723254e+003
9.021498e+002, 3.695907e+003
9.026320e+002, 3.676052e+003
9.031141e+002, 3.667794e+003
9.035962e+002, 3.664688e+003
9.040783e+002, 3.657831e+003
9.045604e+002, 3.647625e+003
9.050425e+002, 3.640540e+003
9.055247e+002, 3.637611e+003
9.060068e+002, 3.637234e+003
9.064889e+002, 3.634719e+003
9.069710e+002, 3.635652e+003
9.074531e+002, 3.650954e+003
9.079352e+002, 3.692531e+003
9.084174e+002, 3.708133e+003
9.088995e+002, 3.671006e+003
9.093816e+002, 3.630100e+003
9.098637e+002, 3.617688e+003
9.103458e+002, 3.633501e+003
9.108279e+002, 3.635248e+003
9.113101e+002, 3.622641e+003
9.117922e+002, 3.610339e+003
9.122743e+002, 3.608503e+003
9.127564e+002, 3.612889e+003
9.132385e+002, 3.621094e+003
9.137206e+002, 3.632080e+003
9.142028e+002, 3.640232e+003
9.146849e+002, 3.640816e+003
9.151670e+002, 3.642105e+003
9.156491e+002, 3.649288e+003
9.161312e+002, 3.658558e+003
9.166133e+002, 3.652723e+003
9.170955e+002, 3.631510e+003
9.175776e+002, 3.610936e+003
9.180597e+002, 3.593255e+003
9.185418e+002, 3.584418e+003
9.190239e+002, 3.599118e+003
9.195060e+002, 3.626997e+003
9.199882e+002, 3.647738e+003
9.204703e+002, 3.646721e+003
9.209524e+002, 3.648877e+003
9.214345e+002, 3.662771e+003
9.219166e+002, 3.677959e+003
9.223987e+002, 3.678201e+003
9.228809e+002, 3.661779e+003
9.233630e+002, 3.660728e+003
9.238451e+002, 3.681188e+003
9.243272e+002, 3.701937e+003
9.248093e+002, 3.694357e+003
9.252914e+002, 3.676035e+003
9.257736e+002, 3.671032e+003
9.262557e+002, 3.684814e+003
9.267378e+002, 3.699703e+003
9.272199e+002, 3.714484e+003
9.277020e+002, 3.725208e+003
9.281841e+002, 3.728485e+003
9.286663e+002, 3.724342e+003
9.291484e+002, 3.726106e+003
9.296305e+002, 3.734346e+003
9.301126e+002, 3.736522e+003
9.305947e+002, 3.713713e+003
9.310768e+002, 3.687347e+003
9.315590e+002, 3.687689e+003
9.320411e+002, 3.709868e+003
9.325232e+002, 3.731877e+003
9.330053e+002, 3.749991e+003
9.334874e+002, 3.762622e+003
9.339695e+002, 3.768899e+003
9.344517e+002, 3.770207e+003
9.349338e+002, 3.768185e+003
9.354159e+002, 3.762692e+003
9.358980e+002, 3.763530e+003
9.363801e+002, 3.775708e+003
9.368622e+002, 3.788985e+003
9.373444e+002, 3.784667e+003
9.378265e+002, 3.775579e+003
9.383086e+002, 3.782438e+003
9.387907e+002, 3.826439e+003
9.392728e+002, 3.854558e+003
9.397549e+002, 3.846778e+003
9.402371e+002, 3.831690e+003
9.407192e+002, 3.834498e+003
9.412013e+002, 3.856018e+003
9.416834e+002, 3.862071e+003
9.421655e+002, 3.850407e+003
9.426476e+002, 3.845015e+003
9.431298e+002, 3.878341e+003
9.436119e+002, 3.920566e+003
9.440940e+002, 3.936792e+003
9.445761e+002, 3.925978e+003
9.450582e+002, 3.920004e+003
9.455403e+002, 3.930952e+003
9.460225e+002, 3.942355e+003
9.465046e+002, 3.949056e+003
9.469867e+002, 3.952288e+003
9.474688e+002, 3.955026e+003
9.479509e+002, 3.957749e+003
9.484330e+002, 3.969167e+003
9.489152e+002, 4.003672e+003
9.493973e+002, 4.033731e+003
9.498794e+002, 4.023000e+003
9.503615e+002, 3.991163e+003
9.508436e+002, 3.973089e+003
9.513257e+002, 3.985842e+003
9.518079e+002, 4.001867e+003
9.522900e+002, 4.020226e+003
9.527721e+002, 4.040594e+003
9.532542e+002, 4.065520e+003
9.537363e+002, 4.093375e+003
9.542184e+002, 4.108779e+003
9.547006e+002, 4.108901e+003
9.551827e+002, 4.111438e+003
9.556648e+002, 4.137924e+003
9.561469e+002, 4.168466e+003
9.566290e+002, 4.183100e+003
9.571111e+002, 4.177359e+003
9.575933e+002, 4.179963e+003
9.580754e+002, 4.192213e+003
9.585575e+002, 4.212832e+003
9.590396e+002, 4.246110e+003
9.595217e+002, 4.285301e+003
9.600038e+002, 4.302542e+003
9.604860e+002, 4.302380e+003
9.609681e+002, 4.308516e+003
9.614502e+002, 4.334542e+003
9.619323e+002, 4.369491e+003
9.624144e+002, 4.413851e+003
9.628965e+002, 4.461214e+003
9.633787e+002, 4.496588e+003
9.638608e+002, 4.516868e+003
9.643429e+002, 4.531041e+003
9.648250e+002, 4.536270e+003
9.653071e+002, 4.545271e+003
9.657892e+002, 4.583583e+003
9.662714e+002, 4.638058e+003
9.667535e+002, 4.673101e+003
9.672356e+002, 4.679127e+003
9.677177e+002, 4.690400e+003
9.681998e+002, 4.733539e+003
9.686819e+002, 4.782247e+003
9.691641e+002, 4.813944e+003
9.696462e+002, 4.826300e+003
9.701283e+002, 4.862980e+003
9.706104e+002, 4.929867e+003
9.710925e+002, 4.990590e+003
9.715746e+002, 5.015077e+003
9.720568e+002, 5.025275e+003
9.725389e+002, 5.061091e+003
9.730210e+002, 5.117662e+003
9.735031e+002, 5.177971e+003
9.739852e+002, 5.237169e+003
9.744673e+002, 5.296519e+003
9.749495e+002, 5.358306e+003
9.754316e+002, 5.419629e+003
9.759137e+002, 5.472388e+003
9.763958e+002, 5.515594e+003
9.768779e+002, 5.564493e+003
9.773600e+002, 5.620875e+003
9.778422e+002, 5.686971e+003
9.783243e+002, 5.771270e+003
9.788064e+002, 5.864707e+003
9.792885e+002, 5.954157e+003
9.797706e+002, 6.035843e+003
9.802527e+002, 6.121906e+003
9.807349e+002, 6.209642e+003
9.812170e+002, 6.308817e+003
9.816991e+002, 6.428385e+003
9.821812e+002, 6.564220e+003
9.826633e+002, 6.674399e+003
9.831454e+002, 6.762003e+003
9.836276e+002, 6.862437e+003
9.841097e+002, 6.995497e+003
9.845918e+002, 7.150821e+003
9.850739e+002, 7.321807e+003
9.855560e+002, 7.507725e+003
9.860381e+002, 7.705886e+003
9.865203e+002, 7.911408e+003
9.870024e+002, 8.133970e+003
9.874845e+002, 8.368685e+003
9.879666e+002, 8.632772e+003
9.884487e+002, 8.968960e+003
9.889308e+002, 9.353219e+003
9.894130e+002, 9.724027e+003
9.898951e+002, 1.006958e+004
9.903772e+002, 1.041178e+004
9.908593e+002, 1.076372e+004
9.913414e+002, 1.111680e+004
9.918235e+002, 1.146291e+004
9.923057e+002, 1.180374e+004
9.927878e+002, 1.214151e+004
9.932699e+002, 1.246759e+004
9.937520e+002, 1.285731e+004
9.942341e+002, 1.331923e+004
9.947162e+002, 1.389662e+004
9.951984e+002, 1.461717e+004
9.956805e+002, 1.551127e+004
9.961626e+002, 1.664016e+004
9.966447e+002, 1.802886e+004
9.971268e+002, 1.968092e+004
9.976089e+002, 2.163926e+004
9.980911e+002, 2.382618e+004
9.985732e+002, 2.613057e+004
9.990553e+002, 2.856051e+004
9.995374e+002, 3.106337e+004
1.000020e+003, 3.358081e+004
1.000502e+003, 3.625513e+004
1.000984e+003, 3.902235e+004
1.001466e+003, 4.208263e+004
1.001948e+003, 4.553139e+004
1.002430e+003, 4.932643e+004
1.002912e+003, 5.403444e+004
1.003394e+003, 5.937715e+004
1.003876e+003, 6.602565e+004
1.004359e+003, 7.404379e+004
1.004841e+003, 8.370559e+004
1.005323e+003, 9.521274e+004
1.005805e+003, 1.088686e+005
1.006287e+003, 1.254008e+005
1.006769e+003, 1.446855e+005
1.007251e+003, 1.679169e+005
1.007733e+003, 1.976968e+005
1.008216e+003, 2.308369e+005
1.008698e+003, 2.641676e+005
1.009180e+003, 3.028573e+005
1.009662e+003, 3.227679e+005
1.010144e+003, 3.220600e+005
1.010626e+003, 3.056891e+005
1.011108e+003, 2.714815e+005
1.011590e+003, 2.284361e+005
1.012072e+003, 1.884637e+005
1.012555e+003, 1.523910e+005
1.013037e+003, 1.219896e+005
1.013519e+003, 9.935438e+004
1.014001e+003, 8.124288e+004
1.014483e+003, 6.692171e+004
1.014965e+003, 5.593692e+004
1.015447e+003, 4.705974e+004
1.015929e+003, 4.017730e+004
1.016411e+003, 3.459611e+004
1.016894e+003, 3.027304e+004
1.017376e+003, 2.676270e+004
1.017858e+003, 2.395965e+004
1.018340e+003, 2.165858e+004
1.018822e+003, 1.965663e+004
1.019304e+003, 1.792968e+004
1.019786e+003, 1.645093e+004
1.020268e+003, 1.525041e+004
1.020751e+003, 1.421819e+004
1.021233e+003, 1.328925e+004
1.021715e+003, 1.245622e+004
1.022197e+003, 1.172307e+004
1.022679e+003, 1.108169e+004
1.023161e+003, 1.050628e+004
1.023643e+003, 9.998653e+003
1.024125e+003, 9.539446e+003
1.024607e+003, 9.123177e+003
1.025090e+003, 8.747775e+003
1.025572e+003, 8.419854e+003
1.026054e+003, 8.139650e+003
1.026536e+003, 7.869494e+003
1.027018e+003, 7.597377e+003
1.027500e+003, 7.339344e+003
1.027982e+003, 7.113958e+003
1.028464e+003, 6.911484e+003
1.028947e+003, 6.722012e+003
1.029429e+003, 6.547142e+003
1.029911e+003, 6.376166e+003
1.030393e+003, 6.205375e+003
1.030875e+003, 6.040404e+003
1.031357e+003, 5.881754e+003
1.031839e+003, 5.733523e+003
1.032321e+003, 5.618563e+003
1.032803e+003, 5.531245e+003
1.033286e+003, 5.442892e+003
1.033768e+003, 5.328119e+003
1.034250e+003, 5.223802e+003
1.034732e+003, 5.152078e+003
1.035214e+003, 5.097039e+003
1.035696e+003, 5.036517e+003
1.036178e+003, 4.968713e+003
1.036660e+003, 4.902121e+003
1.037143e+003, 4.836425e+003
1.037625e+003, 4.772118e+003
1.038107e+003, 4.708428e+003
1.038589e+003, 4.644861e+003
1.039071e+003, 4.577265e+003
1.039553e+003, 4.506134e+003
1.040035e+003, 4.452211e+003
1.040517e+003, 4.436050e+003
1.041000e+003, 4.410841e+003
1.041482e+003, 4.357823e+003
1.041964e+003, 4.294657e+003
1.042446e+003, 4.274144e+003
1.042928e+003, 4.284005e+003
1.043410e+003, 4.272393e+003
1.043892e+003, 4.216708e+003
1.044374e+003, 4.159473e+003
1.044856e+003, 4.132193e+003
1.045339e+003, 4.112126e+003
1.045821e+003, 4.075555e+003
1.046303e+003, 4.017446e+003
1.046785e+003, 3.982488e+003
1.047267e+003, 3.972875e+003
1.047749e+003, 3.967611e+003
1.048231e+003, 3.954635e+003
1.048713e+003, 3.937167e+003
1.049195e+003, 3.917595e+003
1.049677e+003, 3.896868e+003
1.050160e+003, 3.878108e+003
1.050642e+003, 3.867179e+003
1.051124e+003, 3.849434e+003
1.051606e+003, 3.816281e+003
1.052088e+003, 3.786155e+003
1.052570e+003, 3.796323e+003
1.053052e+003, 3.832072e+003
1.053534e+003, 3.830979e+003
1.054017e+003, 3.784800e+003
1.054499e+003, 3.734067e+003
1.054981e+003, 3.693301e+003
1.055463e+003, 3.665939e+003
1.055945e+003, 3.663240e+003
1.056427e+003, 3.678008e+003
1.056909e+003, 3.666040e+003
1.057391e+003, 3.624099e+003
1.057874e+003, 3.594466e+003
1.058356e+003, 3.596366e+003
1.058838e+003, 3.606704e+003
1.059320e+003, 3.599026e+003
1.059802e+003, 3.580890e+003
1.060284e+003, 3.561724e+003
1.060766e+003, 3.537412e+003
1.061248e+003, 3.528637e+003
1.061730e+003, 3.540962e+003
1.062213e+003, 3.558657e+003
1.062695e+003, 3.575844e+003
1.063177e+003, 3.588899e+003
1.063659e+003, 3.578559e+003
1.064141e+003, 3.550175e+003
1.064623e+003, 3.529393e+003
1.065105e+003, 3.544948e+003
1.065587e+003, 3.552325e+003
1.066070e+003, 3.522763e+003
1.066552e+003, 3.480325e+003
1.067034e+003, 3.460536e+003
1.067516e+003, 3.463940e+003
1.067998e+003, 3.475895e+003
1.068480e+003, 3.496183e+003
1.068962e+003, 3.509199e+003
1.069444e+003, 3.493934e+003
1.069927e+003, 3.469824e+003
1.070409e+003, 3.452768e+003
1.070891e+003, 3.444848e+003
1.071373e+003, 3.443435e+003
1.071855e+003, 3.451845e+003
1.072337e+003, 3.457247e+003
1.072819e+003, 3.456057e+003
1.073301e+003, 3.449133e+003
1.073783e+003, 3.432229e+003
1.074266e+003, 3.411870e+003
1.074748e+003, 3.402207e+003
1.075230e+003, 3.409997e+003
1.075712e+003, 3.420540e+003
1.076194e+003, 3.438756e+003
1.076676e+003, 3.448773e+003
1.077158e+003, 3.435305e+003
1.077640e+003, 3.402306e+003
1.078122e+003, 3.391987e+003
1.078604e+003, 3.402397e+003
1.079087e+003, 3.417011e+003
1.079569e+003, 3.433024e+003
1.080051e+003, 3.443506e+003
1.080533e+003, 3.439626e+003
1.081015e+003, 3.428775e+003
1.081497e+003, 3.423719e+003
1.081979e+003, 3.424214e+003
1.082461e+003, 3.436116e+003
1.082944e+003, 3.462665e+003
1.083426e+003, 3.481451e+003
1.083908e+003, 3.462291e+003
1.084390e+003, 3.428597e+003
1.084872e+003, 3.406387e+003
1.085354e+003, 3.396966e+003
1.085836e+003, 3.392970e+003
1.086318e+003, 3.392970e+003
1.086801e+003, 3.398304e+003
1.087283e+003, 3.410791e+003
1.087765e+003, 3.426464e+003
1.088247e+003, 3.442851e+003
1.088729e+003, 3.456001e+003
1.089211e+003, 3.452975e+003
1.089693e+003, 3.427692e+003
1.090175e+003, 3.404337e+003
1.090657e+003, 3.390696e+003
1.091140e+003, 3.384761e+003
1.091622e+003, 3.386616e+003
1.092104e+003, 3.395290e+003
1.092586e+003, 3.406045e+003
1.093068e+003, 3.418014e+003
1.093550e+003, 3.419930e+003
1.094032e+003, 3.397739e+003
1.094514e+003, 3.377373e+003
1.094997e+003, 3.379116e+003
1.095479e+003, 3.393516e+003
1.095961e+003, 3.408159e+003
1.096443e+003, 3.423278e+003
1.096925e+003, 3.434718e+003
1.097407e+003, 3.441778e+003
1.097889e+003, 3.450028e+003
1.098371e+003, 3.471672e+003
1.098854e+003, 3.491501e+003
1.099336e+003, 3.480858e+003
1.099818e+003, 3.449597e+003
1.100300e+003, 3.437573e+003
1.100782e+003, 3.467327e+003
1.101264e+003, 3.493894e+003
1.101746e+003, 3.512921e+003
1.102228e+003, 3.524544e+003
1.102710e+003, 3.528360e+003
1.103193e+003, 3.524891e+003
1.103675e+003, 3.510570e+003
1.104157e+003, 3.485170e+003
1.104639e+003, 3.472175e+003
1.105121e+003, 3.488502e+003
1.105603e+003, 3.512891e+003
1.106085e+003, 3.541442e+003
1.106567e+003, 3.569604e+003
1.107049e+003, 3.579146e+003
1.107531e+003, 3.572944e+003
1.108014e+003, 3.573180e+003
1.108496e+003, 3.587460e+003
1.108978e+003, 3.603811e+003
1.109460e+003, 3.612775e+003
1.109942e+003, 3.620826e+003
1.110424e+003, 3.635137e+003
1.110906e+003, 3.656420e+003
1.111388e+003, 3.664408e+003
1.111871e+003, 3.657449e+003
1.112353e+003, 3.661688e+003
1.112835e+003, 3.699007e+003
1.113317e+003, 3.742737e+003
1.113799e+003, 3.760688e+003
1.114281e+003, 3.765530e+003
1.114763e+003, 3.778772e+003
1.115245e+003, 3.809121e+003
1.115728e+003, 3.837405e+003
1.116210e+003, 3.864293e+003
1.116692e+003, 3.886845e+003
1.117174e+003, 3.895109e+003
1.117656e+003, 3.900752e+003
1.118138e+003, 3.931151e+003
1.118620e+003, 3.979706e+003
1.119102e+003, 4.017503e+003
1.119584e+003, 4.013393e+003
1.120067e+003, 4.028116e+003
1.120549e+003, 4.074511e+003
1.121031e+003, 4.136889e+003
1.121513e+003, 4.201330e+003
1.121995e+003, 4.264042e+003
1.122477e+003, 4.306740e+003
1.122959e+003, 4.328807e+003
1.123441e+003, 4.353815e+003
1.123924e+003, 4.389707e+003
1.124406e+003, 4.436769e+003
1.124888e+003, 4.492662e+003
1.125370e+003, 4.559509e+003
1.125852e+003, 4.646715e+003
1.126334e+003, 4.753224e+003
1.126816e+003, 4.862537e+003
1.127298e+003, 4.971071e+003
1.127781e+003, 5.079149e+003
1.128263e+003, 5.178000e+003
1.128745e+003, 5.283298e+003
1.129227e+003, 5.407553e+003
1.129709e+003, 5.550616e+003
1.130191e+003, 5.708919e+003
1.130673e+003, 5.883417e+003
1.131155e+003, 6.077818e+003
1.131637e+003, 6.293687e+003
1.132120e+003, 6.533078e+003
1.132602e+003, 6.795941e+003
1.133084e+003, 7.086907e+003
1.133566e+003, 7.407843e+003
1.134048e+003, 7.768379e+003
1.134530e+003, 8.132024e+003
1.135012e+003, 8.493058e+003
1.135494e+003, 8.885025e+003
1.135976e+003, 9.342563e+003
1.136458e+003, 9.842769e+003
1.136941e+003, 1.034722e+004
1.137423e+003, 1.086007e+004
1.137905e+003, 1.138935e+004
1.138387e+003, 1.193626e+004
1.138869e+003, 1.251513e+004
1.139351e+003, 1.313201e+004
1.139833e+003, 1.375826e+004
1.140315e+003, 1.438167e+004
1.140798e+003, 1.498029e+004
1.141280e+003, 1.551809e+004
1.141762e+003, 1.598942e+004
1.142244e+003, 1.634585e+004
1.142726e+003, 1.658352e+004
1.143208e+003, 1.667914e+004
1.143690e+003, 1.664327e+004
1.144172e+003, 1.646361e+004
1.144655e+003, 1.609994e+004
1.145137e+003, 1.557630e+004
1.145619e+003, 1.494407e+004
1.146101e+003, 1.421175e+004
1.146583e+003, 1.344496e+004
1.147065e+003, 1.263810e+004
1.147547e+003, 1.183864e+004
1.148029e+003, 1.105087e+004
1.148511e+003, 1.029049e+004
1.148994e+003, 9.601946e+003
1.149476e+003, 8.983319e+003
1.149958e+003, 8.423169e+003
1.150440e+003, 7.917216e+003
1.150922e+003, 7.450038e+003
1.151404e+003, 6.992063e+003
1.151886e+003, 6.584361e+003
1.152368e+003, 6.271898e+003
1.152851e+003, 6.042191e+003
1.153333e+003, 5.789642e+003
1.153815e+003, 5.513950e+003
1.154297e+003, 5.263687e+003
1.154779e+003, 5.058430e+003
1.155261e+003, 4.881907e+003
1.155743e+003, 4.734450e+003
1.156225e+003, 4.604060e+003
1.156708e+003, 4.478332e+003
1.157190e+003, 4.354768e+003
1.157672e+003, 4.241904e+003
1.158154e+003, 4.139527e+003
1.158636e+003, 4.049885e+003
1.159118e+003, 3.977599e+003
1.159600e+003, 3.916413e+003
1.160082e+003, 3.864385e+003
1.160564e+003, 3.817447e+003
1.161047e+003, 3.768373e+003
1.161529e+003, 3.713856e+003
1.162011e+003, 3.661725e+003
1.162493e+003, 3.610690e+003
1.162975e+003, 3.566917e+003
1.163457e+003, 3.541248e+003
1.163939e+003, 3.521410e+003
1.164421e+003, 3.489199e+003
1.164903e+003, 3.448231e+003
1.165385e+003, 3.410037e+003
1.165868e+003, 3.378234e+003
1.166350e+003, 3.346329e+003
1.166832e+003, 3.311145e+003
1.167314e+003, 3.283942e+003
1.167796e+003, 3.284049e+003
1.168278e+003, 3.297063e+003
1.168760e+003, 3.302958e+003
1.169242e+003, 3.298886e+003
1.169725e+003, 3.276651e+003
1.170207e+003, 3.203300e+003
1.170689e+003, 3.159122e+003
1.171171e+003, 3.165615e+003
1.171653e+003, 3.188079e+003
1.172135e+003, 3.173602e+003
1.172617e+003, 3.138573e+003
1.173099e+003, 3.120502e+003
1.173582e+003, 3.123399e+003
1.174064e+003, 3.126799e+003
1.174546e+003, 3.120465e+003
1.175028e+003, 3.118255e+003
1.175510e+003, 3.127339e+003
1.175992e+003, 3.137883e+003
1.176474e+003, 3.125552e+003
1.176956e+003, 3.098559e+003
1.177438e+003, 3.082435e+003
1.177921e+003, 3.083437e+003
1.178403e+003, 3.081481e+003
1.178885e+003, 3.056627e+003
1.179367e+003, 3.042053e+003
1.179849e+003, 3.057744e+003
1.180331e+003, 3.088384e+003
1.180813e+003, 3.080748e+003
1.181295e+003, 3.045438e+003
1.181778e+003, 3.023662e+003
1.182260e+003, 3.030897e+003
1.182742e+003, 3.037370e+003
1.183224e+003, 3.024194e+003
1.183706e+003, 3.011953e+003
1.184188e+003, 3.012031e+003
1.184670e+003, 3.022632e+003
1.185152e+003, 3.039776e+003
1.185635e+003, 3.059944e+003
1.186117e+003, 3.063866e+003
1.186599e+003, 3.032473e+003
1.187081e+003, 3.008230e+003
1.187563e+003, 3.024313e+003
1.188045e+003, 3.045180e+003
1.188527e+003, 3.042443e+003
1.189009e+003, 3.018476e+003
1.189491e+003, 3.002219e+003
1.189974e+003, 2.993589e+003
1.190456e+003, 2.992088e+003
1.190938e+003, 3.002263e+003
1.191420e+003, 3.012994e+003
1.191902e+003, 3.021490e+003
1.192384e+003, 3.025813e+003
1.192866e+003, 3.021704e+003
1.193348e+003, 3.008774e+003
1.193830e+003, 3.009922e+003
1.194313e+003, 3.024071e+003
1.194795e+003, 3.037587e+003
1.195277e+003, 3.044619e+003
1.195759e+003, 3.046245e+003
1.196241e+003, 3.039882e+003
1.196723e+003, 3.030103e+003
1.197205e+003, 3.021120e+003
1.197687e+003, 3.012757e+003
1.198169e+003, 3.017601e+003
1.198652e+003, 3.035375e+003
1.199134e+003, 3.042907e+003
1.199616e+003, 3.006782e+003
1.200098e+003, 2.974430e+003
1.200580e+003, 2.982001e+003
1.201062e+003, 3.008651e+003
1.201544e+003, 3.016362e+003
1.202026e+003, 3.004137e+003
1.202509e+003, 3.020361e+003
1.202991e+003, 3.069596e+003
1.203473e+003, 3.102084e+003
1.203955e+003, 3.063777e+003
1.204437e+003, 3.014727e+003
1.204919e+003, 2.992771e+003
1.205401e+003, 2.988897e+003
1.205883e+003, 2.980893e+003
1.206365e+003, 2.968346e+003
1.206848e+003, 2.971485e+003
1.207330e+003, 2.993974e+003
1.207812e+003, 3.014129e+003
1.208294e+003, 3.010684e+003
1.208776e+003, 3.003427e+003
1.209258e+003, 3.008536e+003
1.209740e+003, 3.020528e+003
1.210222e+003, 3.020774e+003
1.210705e+003, 3.009101e+003
1.211187e+003, 3.010532e+003
1.211669e+003, 3.031048e+003
1.212151e+003, 3.050761e+003
1.212633e+003, 3.056291e+003
1.213115e+003, 3.052581e+003
1.213597e+003, 3.037424e+003
1.214079e+003, 3.016267e+003
1.214562e+003, 3.008866e+003
1.215044e+003, 3.014909e+003
1.215526e+003, 3.020305e+003
1.216008e+003, 3.021880e+003
1.216490e+003, 3.022081e+003
1.216972e+003, 3.023514e+003
1.217454e+003, 3.023514e+003
1.217936e+003, 3.015439e+003
1.218418e+003, 3.003648e+003
1.218901e+003, 3.016377e+003
1.219383e+003, 3.052204e+003
1.219865e+003, 3.079341e+003
1.220347e+003, 3.090055e+003
1.220829e+003, 3.084781e+003
1.221311e+003, 3.047462e+003
1.221793e+003, 3.008789e+003
1.222275e+003, 2.993940e+003
1.222757e+003, 2.998901e+003
1.223240e+003, 2.990742e+003
1.223722e+003, 2.970853e+003
1.224204e+003, 2.956297e+003
1.224686e+003, 2.951850e+003
1.225168e+003, 2.956973e+003
1.225650e+003, 2.987464e+003
1.226132e+003, 3.012305e+003
1.226614e+003, 3.002219e+003
1.227096e+003, 2.963713e+003
1.227579e+003, 2.963669e+003
1.228061e+003, 2.996198e+003
1.228543e+003, 3.007017e+003
1.229025e+003, 2.962732e+003
1.229507e+003, 2.922294e+003
1.229989e+003, 2.923752e+003
1.230471e+003, 2.940580e+003
1.230953e+003, 2.954139e+003
1.231436e+003, 2.964051e+003
1.231918e+003, 2.962485e+003
1.232400e+003, 2.951764e+003
1.232882e+003, 2.948667e+003
1.233364e+003, 2.967281e+003
1.233846e+003, 2.981275e+003
1.234328e+003, 2.968355e+003
1.234810e+003, 2.954856e+003
1.235292e+003, 2.962330e+003
1.235775e+003, 2.987198e+003
1.236257e+003, 3.002030e+003
1.236739e+003, 3.007414e+003
1.237221e+003, 3.006459e+003
1.237703e+003, 2.994173e+003
1.238185e+003, 2.986167e+003
1.238667e+003, 2.993705e+003
1.239149e+003, 3.002365e+003
1.239632e+003, 2.999616e+003
1.240114e+003, 2.988752e+003
1.240596e+003, 2.992454e+003
1.241078e+003, 3.006800e+003
1.241560e+003, 3.015244e+003
1.242042e+003, 3.000338e+003
1.242524e+003, 2.993921e+003
1.243006e+003, 3.012892e+003
1.243489e+003, 3.030088e+003
1.243971e+003, 3.016804e+003
1.244453e+003, 2.984096e+003
1.244935e+003, 2.982084e+003
1.245417e+003, 3.003270e+003
1.245899e+003, 3.019585e+003
1.246381e+003, 3.018319e+003
1.246863e+003, 3.011321e+003
1.247345e+003, 2.995673e+003
1.247828e+003, 2.984482e+003
1.248310e+003, 2.995163e+003
1.248792e+003, 3.017129e+003
1.249274e+003, 3.018667e+003
1.249756e+003, 3.005801e+003
1.250238e+003, 3.000250e+003
1.250720e+003, 3.019091e+003
1.251202e+003, 3.032209e+003
1.251684e+003, 3.038685e+003
1.252167e+003, 3.036012e+003
1.252649e+003, 3.017522e+003
1.253131e+003, 2.990490e+003
1.253613e+003, 2.962177e+003
1.254095e+003, 2.937407e+003
1.254577e+003, 2.931448e+003
1.255059e+003, 2.964104e+003
1.255541e+003, 2.984883e+003
1.256023e+003, 2.989087e+003
1.256506e+003, 2.988320e+003
1.256988e+003, 2.994168e+003
1.257470e+003, 3.000301e+003
1.257952e+003, 2.998905e+003
1.258434e+003, 2.990220e+003
1.258916e+003, 2.973960e+003
1.259398e+003, 2.944125e+003
1.259880e+003, 2.926957e+003
1.260363e+003, 2.925870e+003
1.260845e+003, 2.926027e+003
1.261327e+003, 2.909976e+003
1.261809e+003, 2.893005e+003
1.262291e+003, 2.891911e+003
1.262773e+003, 2.902593e+003
1.263255e+003, 2.912909e+003
1.263737e+003, 2.922258e+003
1.264219e+003, 2.930922e+003
1.264702e+003, 2.938843e+003
1.265184e+003, 2.946315e+003
1.265666e+003, 2.958467e+003
1.266148e+003, 2.965586e+003
1.266630e+003, 2.954196e+003
1.267112e+003, 2.934185e+003
1.267594e+003, 2.928401e+003
1.268076e+003, 2.938469e+003
1.268559e+003, 2.933815e+003
1.269041e+003, 2.912677e+003
1.269523e+003, 2.896462e+003
1.270005e+003, 2.905396e+003
1.270487e+003, 2.917436e+003
1.270969e+003, 2.921288e+003
1.271451e+003, 2.919462e+003
1.271933e+003, 2.914310e+003
1.272416e+003, 2.906025e+003
1.272898e+003, 2.894729e+003
1.273380e+003, 2.881279e+003
1.273862e+003, 2.875181e+003
1.274344e+003, 2.890141e+003
1.274826e+003, 2.903095e+003
1.275308e+003, 2.904604e+003
1.275790e+003, 2.902083e+003
1.276272e+003, 2.906032e+003
1.276755e+003, 2.913881e+003
1.277237e+003, 2.915761e+003
1.277719e+003, 2.911590e+003
1.278201e+003, 2.905278e+003
1.278683e+003, 2.893701e+003
1.279165e+003, 2.887953e+003
1.279647e+003, 2.892477e+003
1.280129e+003, 2.898272e+003
1.280611e+003, 2.894217e+003
1.281094e+003, 2.884404e+003
1.281576e+003, 2.874231e+003
1.282058e+003, 2.865702e+003
1.282540e+003, 2.867198e+003
1.283022e+003, 2.887931e+003
1.283504e+003, 2.905358e+003
1.283986e+003, 2.916886e+003
1.284468e+003, 2.926127e+003
1.284950e+003, 2.942845e+003
1.285433e+003, 2.955169e+003
1.285915e+003, 2.941165e+003
1.286397e+003, 2.908017e+003
1.286879e+003, 2.883920e+003
1.287361e+003, 2.867764e+003
1.287843e+003, 2.876979e+003
1.288325e+003, 2.916522e+003
1.288807e+003, 2.953027e+003
1.289290e+003, 2.953887e+003
1.289772e+003, 2.942828e+003
1.290254e+003, 2.939227e+003
1.290736e+003, 2.939730e+003
1.291218e+003, 2.933194e+003
1.291700e+003, 2.918406e+003
1.292182e+003, 2.914356e+003
1.292664e+003, 2.922241e+003
1.293146e+003, 2.930995e+003
1.293629e+003, 2.935928e+003
1.294111e+003, 2.936073e+003
1.294593e+003, 2.921841e+003
1.295075e+003, 2.908631e+003
1.295557e+003, 2.922881e+003
1.296039e+003, 2.958963e+003
1.296521e+003, 2.964621e+003
1.297003e+003, 2.941157e+003
1.297486e+003, 2.924896e+003
1.297968e+003, 2.941939e+003
1.298450e+003, 2.961744e+003
1.298932e+003, 2.983110e+003
1.299414e+003, 2.993734e+003
1.299896e+003, 2.969487e+003
1.300378e+003, 2.926393e+003
1.300860e+003, 2.907464e+003
1.301343e+003, 2.912061e+003
1.301825e+003, 2.926636e+003
##END=



