##NAMES=Hagendorfite
##RRUFFID=R130128
##IDEAL CHEMISTRY=Na_2_Mn^2+^(Fe^2+^Fe^3+^)(P^5+^O_4_)_3_
##LOCALITY=Hagendorf, Waidhaus, Vohenstrauß, Oberpfälzer Wald, Upper Palatinate, Bavaria, Germany
##OWNER=RRUFF
##SOURCE=Rock Currier
##DESCRIPTION=Black massive, associated with dark brown wolfeite
##STATUS=The identification of this mineral has been confirmed only by single crystal X-ray diffraction.
##URL=rruff.info/R130128
8.936163e+001, 0.000000e+000
8.984375e+001, 1.978799e+002
9.032587e+001, 1.997889e+002
9.080798e+001, 2.001779e+002
9.129010e+001, 1.985225e+002
9.177222e+001, 1.959530e+002
9.225433e+001, 1.937415e+002
9.273645e+001, 1.918556e+002
9.321857e+001, 1.900467e+002
9.370068e+001, 1.882777e+002
9.418280e+001, 1.864653e+002
9.466492e+001, 1.843413e+002
9.514703e+001, 1.816021e+002
9.562915e+001, 1.785363e+002
9.611127e+001, 1.758434e+002
9.659338e+001, 1.735480e+002
9.707550e+001, 1.715928e+002
9.755762e+001, 1.700461e+002
9.803973e+001, 1.689113e+002
9.852185e+001, 1.676479e+002
9.900397e+001, 1.657692e+002
9.948608e+001, 1.632383e+002
9.996820e+001, 1.617620e+002
1.004503e+002, 1.618279e+002
1.009324e+002, 1.623725e+002
1.014146e+002, 1.608791e+002
1.018967e+002, 1.565855e+002
1.023788e+002, 1.523927e+002
1.028609e+002, 1.498605e+002
1.033430e+002, 1.494860e+002
1.038251e+002, 1.493317e+002
1.043073e+002, 1.496512e+002
1.047894e+002, 1.501525e+002
1.052715e+002, 1.491591e+002
1.057536e+002, 1.455186e+002
1.062357e+002, 1.416432e+002
1.067178e+002, 1.392168e+002
1.072000e+002, 1.394248e+002
1.076821e+002, 1.393948e+002
1.081642e+002, 1.387299e+002
1.086463e+002, 1.373870e+002
1.091284e+002, 1.360066e+002
1.096105e+002, 1.346583e+002
1.100927e+002, 1.332385e+002
1.105748e+002, 1.316659e+002
1.110569e+002, 1.296235e+002
1.115390e+002, 1.277248e+002
1.120211e+002, 1.261707e+002
1.125032e+002, 1.250788e+002
1.129854e+002, 1.239192e+002
1.134675e+002, 1.224081e+002
1.139496e+002, 1.208314e+002
1.144317e+002, 1.195830e+002
1.149138e+002, 1.191007e+002
1.153959e+002, 1.187235e+002
1.158781e+002, 1.181737e+002
1.163602e+002, 1.174047e+002
1.168423e+002, 1.164537e+002
1.173244e+002, 1.152496e+002
1.178065e+002, 1.138576e+002
1.182886e+002, 1.124437e+002
1.187708e+002, 1.111084e+002
1.192529e+002, 1.097609e+002
1.197350e+002, 1.083151e+002
1.202171e+002, 1.064918e+002
1.206992e+002, 1.048672e+002
1.211813e+002, 1.039254e+002
1.216635e+002, 1.035723e+002
1.221456e+002, 1.033210e+002
1.226277e+002, 1.030629e+002
1.231098e+002, 1.026813e+002
1.235919e+002, 1.020169e+002
1.240740e+002, 1.007943e+002
1.245562e+002, 9.939159e+001
1.250383e+002, 9.813143e+001
1.255204e+002, 9.700760e+001
1.260025e+002, 9.614891e+001
1.264846e+002, 9.598116e+001
1.269667e+002, 9.620580e+001
1.274489e+002, 9.607637e+001
1.279310e+002, 9.500652e+001
1.284131e+002, 9.340737e+001
1.288952e+002, 9.206105e+001
1.293773e+002, 9.099780e+001
1.298594e+002, 9.012389e+001
1.303416e+002, 8.938451e+001
1.308237e+002, 8.876341e+001
1.313058e+002, 8.809281e+001
1.317879e+002, 8.717060e+001
1.322700e+002, 8.608485e+001
1.327521e+002, 8.531306e+001
1.332343e+002, 8.496915e+001
1.337164e+002, 8.481067e+001
1.341985e+002, 8.436636e+001
1.346806e+002, 8.362059e+001
1.351627e+002, 8.279257e+001
1.356448e+002, 8.202356e+001
1.361270e+002, 8.131113e+001
1.366091e+002, 8.058801e+001
1.370912e+002, 7.984306e+001
1.375733e+002, 7.908680e+001
1.380554e+002, 7.828155e+001
1.385375e+002, 7.739221e+001
1.390197e+002, 7.655021e+001
1.395018e+002, 7.581313e+001
1.399839e+002, 7.515911e+001
1.404660e+002, 7.475993e+001
1.409481e+002, 7.476644e+001
1.414302e+002, 7.512402e+001
1.419124e+002, 7.509791e+001
1.423945e+002, 7.458827e+001
1.428766e+002, 7.383711e+001
1.433587e+002, 7.307789e+001
1.438408e+002, 7.236235e+001
1.443229e+002, 7.154079e+001
1.448051e+002, 7.054407e+001
1.452872e+002, 6.931444e+001
1.457693e+002, 6.824561e+001
1.462514e+002, 6.727900e+001
1.467335e+002, 6.649373e+001
1.472156e+002, 6.599178e+001
1.476978e+002, 6.598883e+001
1.481799e+002, 6.601267e+001
1.486620e+002, 6.600188e+001
1.491441e+002, 6.609327e+001
1.496262e+002, 6.576529e+001
1.501083e+002, 6.448826e+001
1.505905e+002, 6.288159e+001
1.510726e+002, 6.203365e+001
1.515547e+002, 6.288670e+001
1.520368e+002, 6.369021e+001
1.525189e+002, 6.390828e+001
1.530010e+002, 6.320552e+001
1.534832e+002, 6.247054e+001
1.539653e+002, 6.171688e+001
1.544474e+002, 6.096608e+001
1.549295e+002, 6.026988e+001
1.554116e+002, 5.954538e+001
1.558937e+002, 5.894035e+001
1.563759e+002, 5.854517e+001
1.568580e+002, 5.863873e+001
1.573401e+002, 5.858233e+001
1.578222e+002, 5.815873e+001
1.583043e+002, 5.746167e+001
1.587864e+002, 5.683671e+001
1.592686e+002, 5.631796e+001
1.597507e+002, 5.593519e+001
1.602328e+002, 5.570943e+001
1.607149e+002, 5.582625e+001
1.611970e+002, 5.591885e+001
1.616791e+002, 5.587865e+001
1.621613e+002, 5.571462e+001
1.626434e+002, 5.548041e+001
1.631255e+002, 5.515165e+001
1.636076e+002, 5.478278e+001
1.640897e+002, 5.442234e+001
1.645718e+002, 5.415564e+001
1.650540e+002, 5.384339e+001
1.655361e+002, 5.336266e+001
1.660182e+002, 5.272028e+001
1.665003e+002, 5.214376e+001
1.669824e+002, 5.176426e+001
1.674645e+002, 5.151185e+001
1.679467e+002, 5.130450e+001
1.684288e+002, 5.108892e+001
1.689109e+002, 5.091905e+001
1.693930e+002, 5.090034e+001
1.698751e+002, 5.104588e+001
1.703572e+002, 5.108213e+001
1.708394e+002, 5.070912e+001
1.713215e+002, 5.010818e+001
1.718036e+002, 4.959182e+001
1.722857e+002, 4.929054e+001
1.727678e+002, 4.913707e+001
1.732499e+002, 4.910647e+001
1.737321e+002, 4.921441e+001
1.742142e+002, 4.931383e+001
1.746963e+002, 4.923471e+001
1.751784e+002, 4.904744e+001
1.756605e+002, 4.891824e+001
1.761426e+002, 4.901159e+001
1.766248e+002, 4.918719e+001
1.771069e+002, 4.921701e+001
1.775890e+002, 4.904297e+001
1.780711e+002, 4.888744e+001
1.785532e+002, 4.892364e+001
1.790353e+002, 4.916056e+001
1.795175e+002, 4.962727e+001
1.799996e+002, 5.069729e+001
1.804817e+002, 5.196014e+001
1.809638e+002, 5.250740e+001
1.814459e+002, 5.203891e+001
1.819280e+002, 5.136303e+001
1.824102e+002, 5.165918e+001
1.828923e+002, 5.279282e+001
1.833744e+002, 5.394814e+001
1.838565e+002, 5.454528e+001
1.843386e+002, 5.475266e+001
1.848207e+002, 5.501725e+001
1.853029e+002, 5.538537e+001
1.857850e+002, 5.586564e+001
1.862671e+002, 5.657362e+001
1.867492e+002, 5.749198e+001
1.872313e+002, 5.832317e+001
1.877134e+002, 5.873597e+001
1.881956e+002, 5.884249e+001
1.886777e+002, 5.918832e+001
1.891598e+002, 5.994780e+001
1.896419e+002, 6.089455e+001
1.901240e+002, 6.154525e+001
1.906061e+002, 6.189866e+001
1.910883e+002, 6.213760e+001
1.915704e+002, 6.231872e+001
1.920525e+002, 6.246598e+001
1.925346e+002, 6.282512e+001
1.930167e+002, 6.350845e+001
1.934988e+002, 6.433529e+001
1.939810e+002, 6.468170e+001
1.944631e+002, 6.446733e+001
1.949452e+002, 6.420984e+001
1.954273e+002, 6.399446e+001
1.959094e+002, 6.382058e+001
1.963915e+002, 6.391736e+001
1.968737e+002, 6.444870e+001
1.973558e+002, 6.522826e+001
1.978379e+002, 6.550973e+001
1.983200e+002, 6.519226e+001
1.988021e+002, 6.485670e+001
1.992842e+002, 6.512663e+001
1.997664e+002, 6.604335e+001
2.002485e+002, 6.670522e+001
2.007306e+002, 6.685187e+001
2.012127e+002, 6.660190e+001
2.016948e+002, 6.665284e+001
2.021769e+002, 6.708788e+001
2.026591e+002, 6.756263e+001
2.031412e+002, 6.764666e+001
2.036233e+002, 6.724910e+001
2.041054e+002, 6.716297e+001
2.045875e+002, 6.763307e+001
2.050696e+002, 6.859170e+001
2.055518e+002, 6.947095e+001
2.060339e+002, 7.028175e+001
2.065160e+002, 7.099477e+001
2.069981e+002, 7.163074e+001
2.074802e+002, 7.224097e+001
2.079623e+002, 7.250590e+001
2.084445e+002, 7.221931e+001
2.089266e+002, 7.141541e+001
2.094087e+002, 7.098978e+001
2.098908e+002, 7.098999e+001
2.103729e+002, 7.125753e+001
2.108550e+002, 7.168065e+001
2.113372e+002, 7.232926e+001
2.118193e+002, 7.286853e+001
2.123014e+002, 7.318736e+001
2.127835e+002, 7.328331e+001
2.132656e+002, 7.343472e+001
2.137477e+002, 7.363526e+001
2.142299e+002, 7.389864e+001
2.147120e+002, 7.426729e+001
2.151941e+002, 7.481560e+001
2.156762e+002, 7.526979e+001
2.161583e+002, 7.557280e+001
2.166404e+002, 7.572225e+001
2.171226e+002, 7.571061e+001
2.176047e+002, 7.544701e+001
2.180868e+002, 7.512978e+001
2.185689e+002, 7.501188e+001
2.190510e+002, 7.518104e+001
2.195331e+002, 7.533755e+001
2.200153e+002, 7.536954e+001
2.204974e+002, 7.524754e+001
2.209795e+002, 7.535960e+001
2.214616e+002, 7.581711e+001
2.219437e+002, 7.639341e+001
2.224258e+002, 7.683775e+001
2.229080e+002, 7.717945e+001
2.233901e+002, 7.731589e+001
2.238722e+002, 7.713445e+001
2.243543e+002, 7.656260e+001
2.248364e+002, 7.629398e+001
2.253185e+002, 7.640556e+001
2.258007e+002, 7.674541e+001
2.262828e+002, 7.717202e+001
2.267649e+002, 7.782539e+001
2.272470e+002, 7.827165e+001
2.277291e+002, 7.831594e+001
2.282112e+002, 7.787718e+001
2.286934e+002, 7.769215e+001
2.291755e+002, 7.795481e+001
2.296576e+002, 7.830029e+001
2.301397e+002, 7.821130e+001
2.306218e+002, 7.738651e+001
2.311039e+002, 7.668458e+001
2.315861e+002, 7.638744e+001
2.320682e+002, 7.657929e+001
2.325503e+002, 7.653154e+001
2.330324e+002, 7.603184e+001
2.335145e+002, 7.547519e+001
2.339966e+002, 7.539843e+001
2.344788e+002, 7.611868e+001
2.349609e+002, 7.675155e+001
2.354430e+002, 7.700554e+001
2.359251e+002, 7.678509e+001
2.364072e+002, 7.687700e+001
2.368893e+002, 7.741932e+001
2.373715e+002, 7.815799e+001
2.378536e+002, 7.879648e+001
2.383357e+002, 7.938432e+001
2.388178e+002, 7.978382e+001
2.392999e+002, 7.985124e+001
2.397820e+002, 7.948278e+001
2.402642e+002, 7.957763e+001
2.407463e+002, 8.034083e+001
2.412284e+002, 8.139053e+001
2.417105e+002, 8.230320e+001
2.421926e+002, 8.317707e+001
2.426747e+002, 8.372737e+001
2.431569e+002, 8.382344e+001
2.436390e+002, 8.340968e+001
2.441211e+002, 8.295672e+001
2.446032e+002, 8.229504e+001
2.450853e+002, 8.173824e+001
2.455674e+002, 8.173714e+001
2.460496e+002, 8.279986e+001
2.465317e+002, 8.347224e+001
2.470138e+002, 8.331997e+001
2.474959e+002, 8.224931e+001
2.479780e+002, 8.144267e+001
2.484601e+002, 8.100587e+001
2.489423e+002, 8.072276e+001
2.494244e+002, 8.036793e+001
2.499065e+002, 7.994392e+001
2.503886e+002, 7.943819e+001
2.508707e+002, 7.876225e+001
2.513528e+002, 7.789861e+001
2.518350e+002, 7.744428e+001
2.523171e+002, 7.768527e+001
2.527992e+002, 7.802950e+001
2.532813e+002, 7.781128e+001
2.537634e+002, 7.668348e+001
2.542455e+002, 7.575108e+001
2.547277e+002, 7.526926e+001
2.552098e+002, 7.524332e+001
2.556919e+002, 7.523201e+001
2.561740e+002, 7.530750e+001
2.566561e+002, 7.530565e+001
2.571382e+002, 7.504122e+001
2.576204e+002, 7.438498e+001
2.581025e+002, 7.376756e+001
2.585846e+002, 7.324803e+001
2.590667e+002, 7.282595e+001
2.595488e+002, 7.259799e+001
2.600309e+002, 7.270080e+001
2.605131e+002, 7.280599e+001
2.609952e+002, 7.259302e+001
2.614773e+002, 7.192288e+001
2.619594e+002, 7.131699e+001
2.624415e+002, 7.083638e+001
2.629236e+002, 7.048403e+001
2.634058e+002, 7.036646e+001
2.638879e+002, 7.059768e+001
2.643700e+002, 7.086985e+001
2.648521e+002, 7.092487e+001
2.653342e+002, 7.068739e+001
2.658163e+002, 7.049242e+001
2.662985e+002, 7.041879e+001
2.667806e+002, 7.043118e+001
2.672627e+002, 7.030174e+001
2.677448e+002, 6.996718e+001
2.682269e+002, 6.962374e+001
2.687090e+002, 6.944749e+001
2.691912e+002, 6.950355e+001
2.696733e+002, 6.943031e+001
2.701554e+002, 6.915490e+001
2.706375e+002, 6.872351e+001
2.711196e+002, 6.831477e+001
2.716017e+002, 6.791318e+001
2.720839e+002, 6.757582e+001
2.725660e+002, 6.739657e+001
2.730481e+002, 6.742115e+001
2.735302e+002, 6.726677e+001
2.740123e+002, 6.679502e+001
2.744944e+002, 6.618527e+001
2.749766e+002, 6.603896e+001
2.754587e+002, 6.648527e+001
2.759408e+002, 6.689460e+001
2.764229e+002, 6.678226e+001
2.769050e+002, 6.608535e+001
2.773871e+002, 6.569678e+001
2.778693e+002, 6.576299e+001
2.783514e+002, 6.607527e+001
2.788335e+002, 6.617154e+001
2.793156e+002, 6.602756e+001
2.797977e+002, 6.581773e+001
2.802798e+002, 6.566381e+001
2.807620e+002, 6.556831e+001
2.812441e+002, 6.530765e+001
2.817262e+002, 6.484549e+001
2.822083e+002, 6.425966e+001
2.826904e+002, 6.360408e+001
2.831725e+002, 6.285888e+001
2.836547e+002, 6.231871e+001
2.841368e+002, 6.218318e+001
2.846189e+002, 6.242383e+001
2.851010e+002, 6.275922e+001
2.855831e+002, 6.325139e+001
2.860652e+002, 6.364563e+001
2.865474e+002, 6.344586e+001
2.870295e+002, 6.266571e+001
2.875116e+002, 6.196854e+001
2.879937e+002, 6.175367e+001
2.884758e+002, 6.190891e+001
2.889579e+002, 6.177253e+001
2.894401e+002, 6.131419e+001
2.899222e+002, 6.072670e+001
2.904043e+002, 6.012707e+001
2.908864e+002, 5.954577e+001
2.913685e+002, 5.924356e+001
2.918506e+002, 5.957173e+001
2.923328e+002, 6.022540e+001
2.928149e+002, 6.019932e+001
2.932970e+002, 5.945094e+001
2.937791e+002, 5.855951e+001
2.942612e+002, 5.810954e+001
2.947433e+002, 5.802367e+001
2.952255e+002, 5.801521e+001
2.957076e+002, 5.804406e+001
2.961897e+002, 5.806190e+001
2.966718e+002, 5.798137e+001
2.971539e+002, 5.780365e+001
2.976360e+002, 5.753601e+001
2.981182e+002, 5.705559e+001
2.986003e+002, 5.648575e+001
2.990824e+002, 5.613716e+001
2.995645e+002, 5.616716e+001
3.000466e+002, 5.637795e+001
3.005287e+002, 5.656506e+001
3.010109e+002, 5.671443e+001
3.014930e+002, 5.672596e+001
3.019751e+002, 5.639551e+001
3.024572e+002, 5.590125e+001
3.029393e+002, 5.557967e+001
3.034214e+002, 5.558832e+001
3.039036e+002, 5.562604e+001
3.043857e+002, 5.523350e+001
3.048678e+002, 5.454949e+001
3.053499e+002, 5.407561e+001
3.058320e+002, 5.437793e+001
3.063141e+002, 5.496741e+001
3.067963e+002, 5.523512e+001
3.072784e+002, 5.502288e+001
3.077605e+002, 5.466195e+001
3.082426e+002, 5.440536e+001
3.087247e+002, 5.421064e+001
3.092068e+002, 5.397636e+001
3.096890e+002, 5.358033e+001
3.101711e+002, 5.316047e+001
3.106532e+002, 5.283064e+001
3.111353e+002, 5.260347e+001
3.116174e+002, 5.246584e+001
3.120995e+002, 5.255160e+001
3.125817e+002, 5.270331e+001
3.130638e+002, 5.266936e+001
3.135459e+002, 5.214371e+001
3.140280e+002, 5.155187e+001
3.145101e+002, 5.116079e+001
3.149922e+002, 5.099929e+001
3.154744e+002, 5.087745e+001
3.159565e+002, 5.065608e+001
3.164386e+002, 5.044519e+001
3.169207e+002, 5.037187e+001
3.174028e+002, 5.071627e+001
3.178849e+002, 5.098584e+001
3.183671e+002, 5.091452e+001
3.188492e+002, 5.051772e+001
3.193313e+002, 5.018774e+001
3.198134e+002, 5.011963e+001
3.202955e+002, 5.013731e+001
3.207776e+002, 5.010111e+001
3.212598e+002, 4.987188e+001
3.217419e+002, 4.969934e+001
3.222240e+002, 4.971607e+001
3.227061e+002, 4.986893e+001
3.231882e+002, 4.988204e+001
3.236703e+002, 4.950038e+001
3.241525e+002, 4.910215e+001
3.246346e+002, 4.890251e+001
3.251167e+002, 4.911728e+001
3.255988e+002, 4.926346e+001
3.260809e+002, 4.920852e+001
3.265630e+002, 4.904694e+001
3.270452e+002, 4.903746e+001
3.275273e+002, 4.940204e+001
3.280094e+002, 4.974337e+001
3.284915e+002, 4.993151e+001
3.289736e+002, 4.995142e+001
3.294557e+002, 4.984075e+001
3.299379e+002, 4.938391e+001
3.304200e+002, 4.886420e+001
3.309021e+002, 4.875905e+001
3.313842e+002, 4.943836e+001
3.318663e+002, 5.003650e+001
3.323484e+002, 5.027450e+001
3.328306e+002, 5.006363e+001
3.333127e+002, 5.005667e+001
3.337948e+002, 5.037727e+001
3.342769e+002, 5.079129e+001
3.347590e+002, 5.104900e+001
3.352411e+002, 5.114613e+001
3.357233e+002, 5.108521e+001
3.362054e+002, 5.076287e+001
3.366875e+002, 5.021414e+001
3.371696e+002, 5.009713e+001
3.376517e+002, 5.057020e+001
3.381339e+002, 5.117104e+001
3.386160e+002, 5.149054e+001
3.390981e+002, 5.145664e+001
3.395802e+002, 5.152809e+001
3.400623e+002, 5.182049e+001
3.405444e+002, 5.223957e+001
3.410266e+002, 5.242034e+001
3.415087e+002, 5.231797e+001
3.419908e+002, 5.220220e+001
3.424729e+002, 5.223589e+001
3.429550e+002, 5.241738e+001
3.434371e+002, 5.266537e+001
3.439193e+002, 5.298982e+001
3.444014e+002, 5.334192e+001
3.448835e+002, 5.367978e+001
3.453656e+002, 5.400237e+001
3.458477e+002, 5.415839e+001
3.463298e+002, 5.393370e+001
3.468120e+002, 5.344789e+001
3.472941e+002, 5.327126e+001
3.477762e+002, 5.345502e+001
3.482583e+002, 5.373625e+001
3.487404e+002, 5.374934e+001
3.492225e+002, 5.357017e+001
3.497047e+002, 5.352978e+001
3.501868e+002, 5.397267e+001
3.506689e+002, 5.453565e+001
3.511510e+002, 5.446914e+001
3.516331e+002, 5.378396e+001
3.521152e+002, 5.305804e+001
3.525974e+002, 5.285444e+001
3.530795e+002, 5.294000e+001
3.535616e+002, 5.288459e+001
3.540437e+002, 5.255561e+001
3.545258e+002, 5.205922e+001
3.550079e+002, 5.132903e+001
3.554901e+002, 5.045708e+001
3.559722e+002, 4.983858e+001
3.564543e+002, 5.004214e+001
3.569364e+002, 5.047025e+001
3.574185e+002, 5.046432e+001
3.579006e+002, 4.976534e+001
3.583828e+002, 4.901063e+001
3.588649e+002, 4.859621e+001
3.593470e+002, 4.841150e+001
3.598291e+002, 4.822753e+001
3.603112e+002, 4.799883e+001
3.607933e+002, 4.770021e+001
3.612755e+002, 4.724630e+001
3.617576e+002, 4.658560e+001
3.622397e+002, 4.609948e+001
3.627218e+002, 4.611538e+001
3.632039e+002, 4.631682e+001
3.636860e+002, 4.635064e+001
3.641682e+002, 4.589277e+001
3.646503e+002, 4.547793e+001
3.651324e+002, 4.531781e+001
3.656145e+002, 4.540217e+001
3.660966e+002, 4.543789e+001
3.665787e+002, 4.534576e+001
3.670609e+002, 4.520970e+001
3.675430e+002, 4.508349e+001
3.680251e+002, 4.506751e+001
3.685072e+002, 4.494664e+001
3.689893e+002, 4.467344e+001
3.694714e+002, 4.428169e+001
3.699536e+002, 4.387572e+001
3.704357e+002, 4.330756e+001
3.709178e+002, 4.288141e+001
3.713999e+002, 4.275087e+001
3.718820e+002, 4.307756e+001
3.723641e+002, 4.328527e+001
3.728463e+002, 4.337635e+001
3.733284e+002, 4.334500e+001
3.738105e+002, 4.314640e+001
3.742926e+002, 4.266049e+001
3.747747e+002, 4.227786e+001
3.752568e+002, 4.213129e+001
3.757390e+002, 4.222310e+001
3.762211e+002, 4.228894e+001
3.767032e+002, 4.232973e+001
3.771853e+002, 4.234268e+001
3.776674e+002, 4.231958e+001
3.781495e+002, 4.225630e+001
3.786317e+002, 4.218938e+001
3.791138e+002, 4.212113e+001
3.795959e+002, 4.205641e+001
3.800780e+002, 4.202345e+001
3.805601e+002, 4.202822e+001
3.810422e+002, 4.200243e+001
3.815244e+002, 4.186269e+001
3.820065e+002, 4.163756e+001
3.824886e+002, 4.150940e+001
3.829707e+002, 4.152123e+001
3.834528e+002, 4.156013e+001
3.839349e+002, 4.141833e+001
3.844171e+002, 4.113619e+001
3.848992e+002, 4.093225e+001
3.853813e+002, 4.093034e+001
3.858634e+002, 4.106709e+001
3.863455e+002, 4.132024e+001
3.868276e+002, 4.169899e+001
3.873098e+002, 4.191334e+001
3.877919e+002, 4.147826e+001
3.882740e+002, 4.073452e+001
3.887561e+002, 4.029641e+001
3.892382e+002, 4.049038e+001
3.897203e+002, 4.094072e+001
3.902025e+002, 4.148358e+001
3.906846e+002, 4.206470e+001
3.911667e+002, 4.243980e+001
3.916488e+002, 4.229535e+001
3.921309e+002, 4.197670e+001
3.926130e+002, 4.179226e+001
3.930952e+002, 4.189949e+001
3.935773e+002, 4.193417e+001
3.940594e+002, 4.158421e+001
3.945415e+002, 4.107092e+001
3.950236e+002, 4.080487e+001
3.955057e+002, 4.106828e+001
3.959879e+002, 4.146478e+001
3.964700e+002, 4.188104e+001
3.969521e+002, 4.232825e+001
3.974342e+002, 4.266206e+001
3.979163e+002, 4.272544e+001
3.983984e+002, 4.273068e+001
3.988806e+002, 4.287138e+001
3.993627e+002, 4.352607e+001
3.998448e+002, 4.389240e+001
4.003269e+002, 4.373157e+001
4.008090e+002, 4.313235e+001
4.012911e+002, 4.277314e+001
4.017733e+002, 4.273176e+001
4.022554e+002, 4.283280e+001
4.027375e+002, 4.301289e+001
4.032196e+002, 4.336116e+001
4.037017e+002, 4.354321e+001
4.041838e+002, 4.345153e+001
4.046660e+002, 4.327140e+001
4.051481e+002, 4.339466e+001
4.056302e+002, 4.391494e+001
4.061123e+002, 4.439766e+001
4.065944e+002, 4.470037e+001
4.070765e+002, 4.482699e+001
4.075587e+002, 4.482563e+001
4.080408e+002, 4.467186e+001
4.085229e+002, 4.448305e+001
4.090050e+002, 4.437040e+001
4.094871e+002, 4.433175e+001
4.099692e+002, 4.432296e+001
4.104514e+002, 4.431159e+001
4.109335e+002, 4.434819e+001
4.114156e+002, 4.461977e+001
4.118977e+002, 4.509800e+001
4.123798e+002, 4.548263e+001
4.128619e+002, 4.547105e+001
4.133441e+002, 4.524055e+001
4.138262e+002, 4.514618e+001
4.143083e+002, 4.524587e+001
4.147904e+002, 4.539024e+001
4.152725e+002, 4.537763e+001
4.157546e+002, 4.530322e+001
4.162368e+002, 4.536425e+001
4.167189e+002, 4.585416e+001
4.172010e+002, 4.636816e+001
4.176831e+002, 4.651436e+001
4.181652e+002, 4.631187e+001
4.186473e+002, 4.618746e+001
4.191295e+002, 4.643073e+001
4.196116e+002, 4.682784e+001
4.200937e+002, 4.718698e+001
4.205758e+002, 4.744767e+001
4.210579e+002, 4.769090e+001
4.215400e+002, 4.787138e+001
4.220222e+002, 4.805306e+001
4.225043e+002, 4.839891e+001
4.229864e+002, 4.902851e+001
4.234685e+002, 4.975321e+001
4.239506e+002, 5.052594e+001
4.244327e+002, 5.136345e+001
4.249149e+002, 5.216921e+001
4.253970e+002, 5.299748e+001
4.258791e+002, 5.376046e+001
4.263612e+002, 5.435222e+001
4.268433e+002, 5.447112e+001
4.273254e+002, 5.491947e+001
4.278076e+002, 5.603219e+001
4.282897e+002, 5.765246e+001
4.287718e+002, 5.852131e+001
4.292539e+002, 5.831207e+001
4.297360e+002, 5.799401e+001
4.302181e+002, 5.813698e+001
4.307003e+002, 5.879175e+001
4.311824e+002, 5.960441e+001
4.316645e+002, 6.062115e+001
4.321466e+002, 6.168383e+001
4.326287e+002, 6.246191e+001
4.331108e+002, 6.294292e+001
4.335930e+002, 6.347850e+001
4.340751e+002, 6.420688e+001
4.345572e+002, 6.509201e+001
4.350393e+002, 6.609103e+001
4.355214e+002, 6.720754e+001
4.360035e+002, 6.820039e+001
4.364857e+002, 6.871699e+001
4.369678e+002, 6.893542e+001
4.374499e+002, 6.934389e+001
4.379320e+002, 7.017312e+001
4.384141e+002, 7.097622e+001
4.388962e+002, 7.129906e+001
4.393784e+002, 7.119748e+001
4.398605e+002, 7.083605e+001
4.403426e+002, 7.000118e+001
4.408247e+002, 6.913550e+001
4.413068e+002, 6.873460e+001
4.417889e+002, 6.889980e+001
4.422711e+002, 6.880025e+001
4.427532e+002, 6.777643e+001
4.432353e+002, 6.637029e+001
4.437174e+002, 6.514466e+001
4.441995e+002, 6.435983e+001
4.446816e+002, 6.366722e+001
4.451638e+002, 6.298097e+001
4.456459e+002, 6.230927e+001
4.461280e+002, 6.166505e+001
4.466101e+002, 6.109077e+001
4.470922e+002, 6.051190e+001
4.475743e+002, 5.990761e+001
4.480565e+002, 5.933460e+001
4.485386e+002, 5.859194e+001
4.490207e+002, 5.747598e+001
4.495028e+002, 5.632294e+001
4.499849e+002, 5.562874e+001
4.504670e+002, 5.564534e+001
4.509492e+002, 5.553811e+001
4.514313e+002, 5.509258e+001
4.519134e+002, 5.436189e+001
4.523955e+002, 5.370515e+001
4.528776e+002, 5.311275e+001
4.533597e+002, 5.266927e+001
4.538419e+002, 5.250591e+001
4.543240e+002, 5.261522e+001
4.548061e+002, 5.262148e+001
4.552882e+002, 5.248192e+001
4.557703e+002, 5.226183e+001
4.562524e+002, 5.205538e+001
4.567346e+002, 5.185576e+001
4.572167e+002, 5.163863e+001
4.576988e+002, 5.134443e+001
4.581809e+002, 5.104322e+001
4.586630e+002, 5.084767e+001
4.591451e+002, 5.075690e+001
4.596273e+002, 5.073742e+001
4.601094e+002, 5.080104e+001
4.605915e+002, 5.090841e+001
4.610736e+002, 5.098854e+001
4.615557e+002, 5.096553e+001
4.620378e+002, 5.104928e+001
4.625200e+002, 5.150706e+001
4.630021e+002, 5.216258e+001
4.634842e+002, 5.266288e+001
4.639663e+002, 5.274685e+001
4.644484e+002, 5.275591e+001
4.649305e+002, 5.286835e+001
4.654127e+002, 5.310507e+001
4.658948e+002, 5.324658e+001
4.663769e+002, 5.312152e+001
4.668590e+002, 5.296073e+001
4.673411e+002, 5.293219e+001
4.678232e+002, 5.325112e+001
4.683054e+002, 5.343349e+001
4.687875e+002, 5.346087e+001
4.692696e+002, 5.334250e+001
4.697517e+002, 5.309420e+001
4.702338e+002, 5.271055e+001
4.707159e+002, 5.220046e+001
4.711981e+002, 5.150099e+001
4.716802e+002, 5.059525e+001
4.721623e+002, 4.996997e+001
4.726444e+002, 4.970288e+001
4.731265e+002, 4.952323e+001
4.736086e+002, 4.914334e+001
4.740908e+002, 4.856763e+001
4.745729e+002, 4.807900e+001
4.750550e+002, 4.773537e+001
4.755371e+002, 4.749187e+001
4.760192e+002, 4.730944e+001
4.765013e+002, 4.717327e+001
4.769835e+002, 4.697985e+001
4.774656e+002, 4.665045e+001
4.779477e+002, 4.623259e+001
4.784298e+002, 4.573299e+001
4.789119e+002, 4.514619e+001
4.793940e+002, 4.471989e+001
4.798762e+002, 4.479325e+001
4.803583e+002, 4.509942e+001
4.808404e+002, 4.529566e+001
4.813225e+002, 4.534675e+001
4.818046e+002, 4.518395e+001
4.822867e+002, 4.461573e+001
4.827689e+002, 4.379580e+001
4.832510e+002, 4.311875e+001
4.837331e+002, 4.271886e+001
4.842152e+002, 4.248565e+001
4.846973e+002, 4.240133e+001
4.851794e+002, 4.249311e+001
4.856616e+002, 4.257736e+001
4.861437e+002, 4.268060e+001
4.866258e+002, 4.274442e+001
4.871079e+002, 4.272465e+001
4.875900e+002, 4.261493e+001
4.880721e+002, 4.241933e+001
4.885543e+002, 4.207677e+001
4.890364e+002, 4.166741e+001
4.895185e+002, 4.145152e+001
4.900006e+002, 4.149408e+001
4.904827e+002, 4.152620e+001
4.909648e+002, 4.141237e+001
4.914470e+002, 4.116170e+001
4.919291e+002, 4.098513e+001
4.924112e+002, 4.089596e+001
4.928933e+002, 4.082146e+001
4.933754e+002, 4.070198e+001
4.938575e+002, 4.053777e+001
4.943397e+002, 4.032286e+001
4.948218e+002, 4.004530e+001
4.953039e+002, 3.974224e+001
4.957860e+002, 3.947742e+001
4.962681e+002, 3.923656e+001
4.967502e+002, 3.897097e+001
4.972324e+002, 3.856646e+001
4.977145e+002, 3.817752e+001
4.981966e+002, 3.802348e+001
4.986787e+002, 3.811390e+001
4.991608e+002, 3.806686e+001
4.996429e+002, 3.754890e+001
5.001251e+002, 3.687122e+001
5.006072e+002, 3.629699e+001
5.010893e+002, 3.595814e+001
5.015714e+002, 3.563546e+001
5.020535e+002, 3.527610e+001
5.025356e+002, 3.489803e+001
5.030178e+002, 3.453968e+001
5.034999e+002, 3.407139e+001
5.039820e+002, 3.377028e+001
5.044641e+002, 3.383636e+001
5.049462e+002, 3.430400e+001
5.054283e+002, 3.422044e+001
5.059105e+002, 3.325737e+001
5.063926e+002, 3.225380e+001
5.068747e+002, 3.191900e+001
5.073568e+002, 3.237941e+001
5.078389e+002, 3.263639e+001
5.083210e+002, 3.256104e+001
5.088032e+002, 3.231009e+001
5.092853e+002, 3.215440e+001
5.097674e+002, 3.208620e+001
5.102495e+002, 3.197498e+001
5.107316e+002, 3.169458e+001
5.112137e+002, 3.136472e+001
5.116959e+002, 3.129640e+001
5.121780e+002, 3.146913e+001
5.126601e+002, 3.161195e+001
5.131422e+002, 3.151438e+001
5.136243e+002, 3.127448e+001
5.141064e+002, 3.100019e+001
5.145886e+002, 3.069237e+001
5.150707e+002, 3.041840e+001
5.155528e+002, 3.016424e+001
5.160349e+002, 2.998560e+001
5.165170e+002, 2.995816e+001
5.169991e+002, 3.035635e+001
5.174813e+002, 3.065714e+001
5.179634e+002, 3.064038e+001
5.184455e+002, 3.034174e+001
5.189276e+002, 3.007572e+001
5.194097e+002, 2.988106e+001
5.198918e+002, 2.972691e+001
5.203740e+002, 2.962039e+001
5.208561e+002, 2.960704e+001
5.213382e+002, 2.946863e+001
5.218203e+002, 2.909734e+001
5.223024e+002, 2.872474e+001
5.227845e+002, 2.866976e+001
5.232667e+002, 2.901293e+001
5.237488e+002, 2.920518e+001
5.242309e+002, 2.909082e+001
5.247130e+002, 2.880234e+001
5.251951e+002, 2.869608e+001
5.256772e+002, 2.876707e+001
5.261594e+002, 2.879877e+001
5.266415e+002, 2.855122e+001
5.271236e+002, 2.819788e+001
5.276057e+002, 2.818820e+001
5.280878e+002, 2.854012e+001
5.285699e+002, 2.891388e+001
5.290521e+002, 2.900143e+001
5.295342e+002, 2.894852e+001
5.300163e+002, 2.895854e+001
5.304984e+002, 2.915681e+001
5.309805e+002, 2.929350e+001
5.314626e+002, 2.910205e+001
5.319448e+002, 2.876210e+001
5.324269e+002, 2.862219e+001
5.329090e+002, 2.900705e+001
5.333911e+002, 2.938769e+001
5.338732e+002, 2.957008e+001
5.343553e+002, 2.953745e+001
5.348375e+002, 2.953890e+001
5.353196e+002, 2.951591e+001
5.358017e+002, 2.959116e+001
5.362838e+002, 2.987511e+001
5.367659e+002, 3.055023e+001
5.372480e+002, 3.088411e+001
5.377302e+002, 3.072247e+001
5.382123e+002, 3.042166e+001
5.386944e+002, 3.056756e+001
5.391765e+002, 3.120048e+001
5.396586e+002, 3.171310e+001
5.401407e+002, 3.188164e+001
5.406229e+002, 3.187425e+001
5.411050e+002, 3.209829e+001
5.415871e+002, 3.253376e+001
5.420692e+002, 3.297483e+001
5.425513e+002, 3.328166e+001
5.430334e+002, 3.352284e+001
5.435156e+002, 3.382761e+001
5.439977e+002, 3.421087e+001
5.444798e+002, 3.452102e+001
5.449619e+002, 3.460891e+001
5.454440e+002, 3.458045e+001
5.459261e+002, 3.453918e+001
5.464083e+002, 3.438878e+001
5.468904e+002, 3.440603e+001
5.473725e+002, 3.488731e+001
5.478546e+002, 3.558763e+001
5.483367e+002, 3.599469e+001
5.488188e+002, 3.561930e+001
5.493010e+002, 3.538059e+001
5.497831e+002, 3.555166e+001
5.502652e+002, 3.612540e+001
5.507473e+002, 3.660320e+001
5.512294e+002, 3.698290e+001
5.517115e+002, 3.727091e+001
5.521937e+002, 3.749032e+001
5.526758e+002, 3.765203e+001
5.531579e+002, 3.759233e+001
5.536400e+002, 3.722887e+001
5.541221e+002, 3.685482e+001
5.546042e+002, 3.696175e+001
5.550864e+002, 3.746187e+001
5.555685e+002, 3.779417e+001
5.560506e+002, 3.772221e+001
5.565327e+002, 3.748524e+001
5.570148e+002, 3.739928e+001
5.574969e+002, 3.743665e+001
5.579791e+002, 3.749455e+001
5.584612e+002, 3.762118e+001
5.589433e+002, 3.766949e+001
5.594254e+002, 3.740910e+001
5.599075e+002, 3.681715e+001
5.603896e+002, 3.644917e+001
5.608718e+002, 3.679877e+001
5.613539e+002, 3.729841e+001
5.618360e+002, 3.752465e+001
5.623181e+002, 3.720285e+001
5.628002e+002, 3.692714e+001
5.632823e+002, 3.671097e+001
5.637645e+002, 3.656836e+001
5.642466e+002, 3.653489e+001
5.647287e+002, 3.666502e+001
5.652108e+002, 3.678569e+001
5.656929e+002, 3.686634e+001
5.661750e+002, 3.690623e+001
5.666572e+002, 3.687950e+001
5.671393e+002, 3.677114e+001
5.676214e+002, 3.670471e+001
5.681035e+002, 3.673483e+001
5.685856e+002, 3.686409e+001
5.690677e+002, 3.717226e+001
5.695499e+002, 3.767464e+001
5.700320e+002, 3.810680e+001
5.705141e+002, 3.812826e+001
5.709962e+002, 3.793157e+001
5.714783e+002, 3.783508e+001
5.719604e+002, 3.795243e+001
5.724426e+002, 3.811010e+001
5.729247e+002, 3.819547e+001
5.734068e+002, 3.824432e+001
5.738889e+002, 3.832262e+001
5.743710e+002, 3.854200e+001
5.748531e+002, 3.870363e+001
5.753353e+002, 3.868342e+001
5.758174e+002, 3.850132e+001
5.762995e+002, 3.845492e+001
5.767816e+002, 3.860085e+001
5.772637e+002, 3.882471e+001
5.777458e+002, 3.911091e+001
5.782280e+002, 3.949854e+001
5.787101e+002, 3.970927e+001
5.791922e+002, 3.968908e+001
5.796743e+002, 3.961056e+001
5.801564e+002, 3.964402e+001
5.806385e+002, 3.978566e+001
5.811207e+002, 3.995494e+001
5.816028e+002, 4.009461e+001
5.820849e+002, 4.035372e+001
5.825670e+002, 4.112479e+001
5.830491e+002, 4.223116e+001
5.835313e+002, 4.313926e+001
5.840134e+002, 4.340274e+001
5.844955e+002, 4.348154e+001
5.849776e+002, 4.378918e+001
5.854597e+002, 4.429308e+001
5.859418e+002, 4.479460e+001
5.864240e+002, 4.533228e+001
5.869061e+002, 4.573628e+001
5.873882e+002, 4.580377e+001
5.878703e+002, 4.531220e+001
5.883524e+002, 4.528212e+001
5.888345e+002, 4.616394e+001
5.893167e+002, 4.734047e+001
5.897988e+002, 4.835840e+001
5.902809e+002, 4.920772e+001
5.907630e+002, 4.992345e+001
5.912451e+002, 5.050934e+001
5.917272e+002, 5.096974e+001
5.922094e+002, 5.129061e+001
5.926915e+002, 5.146283e+001
5.931736e+002, 5.159814e+001
5.936557e+002, 5.171489e+001
5.941378e+002, 5.183214e+001
5.946199e+002, 5.203250e+001
5.951021e+002, 5.229820e+001
5.955842e+002, 5.249688e+001
5.960663e+002, 5.263953e+001
5.965484e+002, 5.261621e+001
5.970305e+002, 5.214481e+001
5.975126e+002, 5.118103e+001
5.979948e+002, 5.047637e+001
5.984769e+002, 5.089961e+001
5.989590e+002, 5.152169e+001
5.994411e+002, 5.152118e+001
5.999232e+002, 5.028827e+001
6.004053e+002, 4.917341e+001
6.008875e+002, 4.843987e+001
6.013696e+002, 4.791716e+001
6.018517e+002, 4.739214e+001
6.023338e+002, 4.691636e+001
6.028159e+002, 4.634097e+001
6.032980e+002, 4.560876e+001
6.037802e+002, 4.476516e+001
6.042623e+002, 4.389733e+001
6.047444e+002, 4.299009e+001
6.052265e+002, 4.224841e+001
6.057086e+002, 4.191076e+001
6.061907e+002, 4.182612e+001
6.066729e+002, 4.141801e+001
6.071550e+002, 4.069440e+001
6.076371e+002, 3.995947e+001
6.081192e+002, 3.942831e+001
6.086013e+002, 3.904887e+001
6.090834e+002, 3.877105e+001
6.095656e+002, 3.859007e+001
6.100477e+002, 3.848049e+001
6.105298e+002, 3.856614e+001
6.110119e+002, 3.865951e+001
6.114940e+002, 3.854997e+001
6.119761e+002, 3.791632e+001
6.124583e+002, 3.740596e+001
6.129404e+002, 3.723234e+001
6.134225e+002, 3.722713e+001
6.139046e+002, 3.698877e+001
6.143867e+002, 3.636863e+001
6.148688e+002, 3.584066e+001
6.153510e+002, 3.556536e+001
6.158331e+002, 3.549835e+001
6.163152e+002, 3.534159e+001
6.167973e+002, 3.508511e+001
6.172794e+002, 3.483708e+001
6.177615e+002, 3.467117e+001
6.182437e+002, 3.457144e+001
6.187258e+002, 3.451197e+001
6.192079e+002, 3.449326e+001
6.196900e+002, 3.443837e+001
6.201721e+002, 3.429559e+001
6.206542e+002, 3.407248e+001
6.211364e+002, 3.376871e+001
6.216185e+002, 3.334137e+001
6.221006e+002, 3.292310e+001
6.225827e+002, 3.252373e+001
6.230648e+002, 3.217993e+001
6.235469e+002, 3.194285e+001
6.240291e+002, 3.209120e+001
6.245112e+002, 3.200951e+001
6.249933e+002, 3.140874e+001
6.254754e+002, 3.052824e+001
6.259575e+002, 3.024836e+001
6.264396e+002, 3.078442e+001
6.269218e+002, 3.128515e+001
6.274039e+002, 3.140507e+001
6.278860e+002, 3.120942e+001
6.283681e+002, 3.107909e+001
6.288502e+002, 3.101501e+001
6.293323e+002, 3.098639e+001
6.298145e+002, 3.100969e+001
6.302966e+002, 3.104207e+001
6.307787e+002, 3.100260e+001
6.312608e+002, 3.088240e+001
6.317429e+002, 3.070403e+001
6.322250e+002, 3.037811e+001
6.327072e+002, 3.005139e+001
6.331893e+002, 2.988962e+001
6.336714e+002, 3.005622e+001
6.341535e+002, 3.018402e+001
6.346356e+002, 3.006032e+001
6.351177e+002, 2.987329e+001
6.355999e+002, 2.993807e+001
6.360820e+002, 3.055185e+001
6.365641e+002, 3.092556e+001
6.370462e+002, 3.081042e+001
6.375283e+002, 3.040118e+001
6.380104e+002, 3.038628e+001
6.384926e+002, 3.082661e+001
6.389747e+002, 3.127699e+001
6.394568e+002, 3.157546e+001
6.399389e+002, 3.172848e+001
6.404210e+002, 3.165104e+001
6.409031e+002, 3.136353e+001
6.413853e+002, 3.122477e+001
6.418674e+002, 3.158768e+001
6.423495e+002, 3.220009e+001
6.428316e+002, 3.281691e+001
6.433137e+002, 3.343322e+001
6.437958e+002, 3.386298e+001
6.442780e+002, 3.384814e+001
6.447601e+002, 3.370239e+001
6.452422e+002, 3.369938e+001
6.457243e+002, 3.395657e+001
6.462064e+002, 3.425565e+001
6.466885e+002, 3.466968e+001
6.471707e+002, 3.506563e+001
6.476528e+002, 3.523455e+001
6.481349e+002, 3.508865e+001
6.486170e+002, 3.500348e+001
6.490991e+002, 3.505741e+001
6.495812e+002, 3.520068e+001
6.500634e+002, 3.528984e+001
6.505455e+002, 3.533595e+001
6.510276e+002, 3.548898e+001
6.515097e+002, 3.591344e+001
6.519918e+002, 3.643167e+001
6.524739e+002, 3.674075e+001
6.529561e+002, 3.687533e+001
6.534382e+002, 3.703987e+001
6.539203e+002, 3.752081e+001
6.544024e+002, 3.794267e+001
6.548845e+002, 3.804398e+001
6.553666e+002, 3.778333e+001
6.558488e+002, 3.738015e+001
6.563309e+002, 3.661004e+001
6.568130e+002, 3.592403e+001
6.572951e+002, 3.563272e+001
6.577772e+002, 3.599896e+001
6.582593e+002, 3.602536e+001
6.587415e+002, 3.559149e+001
6.592236e+002, 3.501226e+001
6.597057e+002, 3.467704e+001
6.601878e+002, 3.458012e+001
6.606699e+002, 3.437923e+001
6.611520e+002, 3.399879e+001
6.616342e+002, 3.353890e+001
6.621163e+002, 3.311496e+001
6.625984e+002, 3.272529e+001
6.630805e+002, 3.236454e+001
6.635626e+002, 3.200338e+001
6.640447e+002, 3.169810e+001
6.645269e+002, 3.154408e+001
6.650090e+002, 3.148468e+001
6.654911e+002, 3.134991e+001
6.659732e+002, 3.106438e+001
6.664553e+002, 3.071786e+001
6.669374e+002, 3.030702e+001
6.674196e+002, 2.983956e+001
6.679017e+002, 2.943836e+001
6.683838e+002, 2.907050e+001
6.688659e+002, 2.882690e+001
6.693480e+002, 2.880514e+001
6.698301e+002, 2.900062e+001
6.703123e+002, 2.906382e+001
6.707944e+002, 2.899422e+001
6.712765e+002, 2.879243e+001
6.717586e+002, 2.832697e+001
6.722407e+002, 2.774648e+001
6.727228e+002, 2.743172e+001
6.732050e+002, 2.746910e+001
6.736871e+002, 2.752155e+001
6.741692e+002, 2.725951e+001
6.746513e+002, 2.690052e+001
6.751334e+002, 2.670354e+001
6.756155e+002, 2.681935e+001
6.760977e+002, 2.696830e+001
6.765798e+002, 2.717484e+001
6.770619e+002, 2.734708e+001
6.775440e+002, 2.731881e+001
6.780261e+002, 2.689780e+001
6.785082e+002, 2.670629e+001
6.789904e+002, 2.694836e+001
6.794725e+002, 2.741555e+001
6.799546e+002, 2.753568e+001
6.804367e+002, 2.730409e+001
6.809188e+002, 2.708144e+001
6.814009e+002, 2.705802e+001
6.818831e+002, 2.711581e+001
6.823652e+002, 2.700588e+001
6.828473e+002, 2.676458e+001
6.833294e+002, 2.657742e+001
6.838115e+002, 2.668640e+001
6.842936e+002, 2.678597e+001
6.847758e+002, 2.657244e+001
6.852579e+002, 2.603389e+001
6.857400e+002, 2.567334e+001
6.862221e+002, 2.567031e+001
6.867042e+002, 2.584854e+001
6.871863e+002, 2.616589e+001
6.876685e+002, 2.671620e+001
6.881506e+002, 2.695327e+001
6.886327e+002, 2.676336e+001
6.891148e+002, 2.649832e+001
6.895969e+002, 2.653379e+001
6.900790e+002, 2.683871e+001
6.905612e+002, 2.689318e+001
6.910433e+002, 2.660528e+001
6.915254e+002, 2.626462e+001
6.920075e+002, 2.620478e+001
6.924896e+002, 2.633560e+001
6.929717e+002, 2.650674e+001
6.934539e+002, 2.672260e+001
6.939360e+002, 2.687646e+001
6.944181e+002, 2.689445e+001
6.949002e+002, 2.681233e+001
6.953823e+002, 2.668517e+001
6.958644e+002, 2.640536e+001
6.963466e+002, 2.623118e+001
6.968287e+002, 2.619201e+001
6.973108e+002, 2.628130e+001
6.977929e+002, 2.654051e+001
6.982750e+002, 2.707147e+001
6.987571e+002, 2.738716e+001
6.992393e+002, 2.728963e+001
6.997214e+002, 2.689079e+001
7.002035e+002, 2.641883e+001
7.006856e+002, 2.590247e+001
7.011677e+002, 2.561810e+001
7.016498e+002, 2.595833e+001
7.021320e+002, 2.647446e+001
7.026141e+002, 2.663312e+001
7.030962e+002, 2.645629e+001
7.035783e+002, 2.626692e+001
7.040604e+002, 2.616274e+001
7.045425e+002, 2.612935e+001
7.050247e+002, 2.616860e+001
7.055068e+002, 2.629159e+001
7.059889e+002, 2.643059e+001
7.064710e+002, 2.659829e+001
7.069531e+002, 2.676447e+001
7.074352e+002, 2.694098e+001
7.079174e+002, 2.714482e+001
7.083995e+002, 2.713194e+001
7.088816e+002, 2.686671e+001
7.093637e+002, 2.653842e+001
7.098458e+002, 2.633619e+001
7.103279e+002, 2.622613e+001
7.108101e+002, 2.608776e+001
7.112922e+002, 2.586589e+001
7.117743e+002, 2.577599e+001
7.122564e+002, 2.620600e+001
7.127385e+002, 2.677055e+001
7.132206e+002, 2.699636e+001
7.137028e+002, 2.632819e+001
7.141849e+002, 2.590929e+001
7.146670e+002, 2.621766e+001
7.151491e+002, 2.678326e+001
7.156312e+002, 2.695061e+001
7.161133e+002, 2.653450e+001
7.165955e+002, 2.623197e+001
7.170776e+002, 2.617087e+001
7.175597e+002, 2.627616e+001
7.180418e+002, 2.640663e+001
7.185239e+002, 2.656322e+001
7.190060e+002, 2.675503e+001
7.194882e+002, 2.705617e+001
7.199703e+002, 2.731616e+001
7.204524e+002, 2.730088e+001
7.209345e+002, 2.708376e+001
7.214166e+002, 2.688253e+001
7.218987e+002, 2.683240e+001
7.223809e+002, 2.678984e+001
7.228630e+002, 2.667150e+001
7.233451e+002, 2.648935e+001
7.238272e+002, 2.636487e+001
7.243093e+002, 2.635474e+001
7.247914e+002, 2.632447e+001
7.252736e+002, 2.620024e+001
7.257557e+002, 2.599840e+001
7.262378e+002, 2.593346e+001
7.267199e+002, 2.601649e+001
7.272020e+002, 2.614161e+001
7.276841e+002, 2.629909e+001
7.281663e+002, 2.643494e+001
7.286484e+002, 2.638478e+001
7.291305e+002, 2.615156e+001
7.296126e+002, 2.593293e+001
7.300947e+002, 2.582851e+001
7.305768e+002, 2.581736e+001
7.310590e+002, 2.591473e+001
7.315411e+002, 2.615723e+001
7.320232e+002, 2.631822e+001
7.325053e+002, 2.631144e+001
7.329874e+002, 2.624629e+001
7.334695e+002, 2.618664e+001
7.339517e+002, 2.614470e+001
7.344338e+002, 2.605038e+001
7.349159e+002, 2.588070e+001
7.353980e+002, 2.572158e+001
7.358801e+002, 2.567494e+001
7.363622e+002, 2.572028e+001
7.368444e+002, 2.578005e+001
7.373265e+002, 2.584811e+001
7.378086e+002, 2.590027e+001
7.382907e+002, 2.585820e+001
7.387728e+002, 2.580741e+001
7.392549e+002, 2.587493e+001
7.397371e+002, 2.623520e+001
7.402192e+002, 2.647411e+001
7.407013e+002, 2.635541e+001
7.411834e+002, 2.610172e+001
7.416655e+002, 2.601123e+001
7.421476e+002, 2.614533e+001
7.426298e+002, 2.630380e+001
7.431119e+002, 2.647874e+001
7.435940e+002, 2.664611e+001
7.440761e+002, 2.678572e+001
7.445582e+002, 2.688926e+001
7.450403e+002, 2.685978e+001
7.455225e+002, 2.657240e+001
7.460046e+002, 2.630499e+001
7.464867e+002, 2.655128e+001
7.469688e+002, 2.706907e+001
7.474509e+002, 2.733448e+001
7.479330e+002, 2.684360e+001
7.484152e+002, 2.636234e+001
7.488973e+002, 2.613383e+001
7.493794e+002, 2.614855e+001
7.498615e+002, 2.636802e+001
7.503436e+002, 2.700454e+001
7.508257e+002, 2.745381e+001
7.513079e+002, 2.755015e+001
7.517900e+002, 2.735742e+001
7.522721e+002, 2.701529e+001
7.527542e+002, 2.652253e+001
7.532363e+002, 2.618416e+001
7.537184e+002, 2.622528e+001
7.542006e+002, 2.646361e+001
7.546827e+002, 2.668955e+001
7.551648e+002, 2.687970e+001
7.556469e+002, 2.692660e+001
7.561290e+002, 2.660465e+001
7.566111e+002, 2.628107e+001
7.570933e+002, 2.620001e+001
7.575754e+002, 2.635185e+001
7.580575e+002, 2.635380e+001
7.585396e+002, 2.605538e+001
7.590217e+002, 2.579907e+001
7.595038e+002, 2.569356e+001
7.599860e+002, 2.573957e+001
7.604681e+002, 2.602399e+001
7.609502e+002, 2.657556e+001
7.614323e+002, 2.700183e+001
7.619144e+002, 2.693613e+001
7.623965e+002, 2.660703e+001
7.628787e+002, 2.641189e+001
7.633608e+002, 2.635890e+001
7.638429e+002, 2.636747e+001
7.643250e+002, 2.640144e+001
7.648071e+002, 2.647275e+001
7.652892e+002, 2.661979e+001
7.657714e+002, 2.686916e+001
7.662535e+002, 2.699845e+001
7.667356e+002, 2.695154e+001
7.672177e+002, 2.684466e+001
7.676998e+002, 2.672330e+001
7.681819e+002, 2.658209e+001
7.686641e+002, 2.652682e+001
7.691462e+002, 2.657120e+001
7.696283e+002, 2.660106e+001
7.701104e+002, 2.651113e+001
7.705925e+002, 2.634141e+001
7.710746e+002, 2.612105e+001
7.715568e+002, 2.584702e+001
7.720389e+002, 2.571015e+001
7.725210e+002, 2.590308e+001
7.730031e+002, 2.623152e+001
7.734852e+002, 2.657237e+001
7.739673e+002, 2.696027e+001
7.744495e+002, 2.718273e+001
7.749316e+002, 2.718003e+001
7.754137e+002, 2.707878e+001
7.758958e+002, 2.695738e+001
7.763779e+002, 2.681239e+001
7.768600e+002, 2.667440e+001
7.773422e+002, 2.653644e+001
7.778243e+002, 2.645126e+001
7.783064e+002, 2.654605e+001
7.787885e+002, 2.671314e+001
7.792706e+002, 2.672647e+001
7.797527e+002, 2.652632e+001
7.802349e+002, 2.632737e+001
7.807170e+002, 2.623768e+001
7.811991e+002, 2.621975e+001
7.816812e+002, 2.624203e+001
7.821633e+002, 2.630149e+001
7.826454e+002, 2.640801e+001
7.831276e+002, 2.659389e+001
7.836097e+002, 2.678892e+001
7.840918e+002, 2.695222e+001
7.845739e+002, 2.708592e+001
7.850560e+002, 2.703459e+001
7.855381e+002, 2.676040e+001
7.860203e+002, 2.642547e+001
7.865024e+002, 2.608202e+001
7.869845e+002, 2.583786e+001
7.874666e+002, 2.594021e+001
7.879487e+002, 2.658832e+001
7.884308e+002, 2.711222e+001
7.889130e+002, 2.696766e+001
7.893951e+002, 2.665378e+001
7.898772e+002, 2.671279e+001
7.903593e+002, 2.772273e+001
7.908414e+002, 2.807602e+001
7.913235e+002, 2.748105e+001
7.918057e+002, 2.661087e+001
7.922878e+002, 2.628226e+001
7.927699e+002, 2.646063e+001
7.932520e+002, 2.671308e+001
7.937341e+002, 2.700686e+001
7.942162e+002, 2.723049e+001
7.946984e+002, 2.719461e+001
7.951805e+002, 2.703186e+001
7.956626e+002, 2.697631e+001
7.961447e+002, 2.719912e+001
7.966268e+002, 2.726649e+001
7.971089e+002, 2.681692e+001
7.975911e+002, 2.624018e+001
7.980732e+002, 2.596992e+001
7.985553e+002, 2.610713e+001
7.990374e+002, 2.634437e+001
7.995195e+002, 2.673000e+001
8.000016e+002, 2.709463e+001
8.004838e+002, 2.719498e+001
8.009659e+002, 2.707162e+001
8.014480e+002, 2.696658e+001
8.019301e+002, 2.693501e+001
8.024122e+002, 2.688789e+001
8.028943e+002, 2.663910e+001
8.033765e+002, 2.636280e+001
8.038586e+002, 2.629089e+001
8.043407e+002, 2.656997e+001
8.048228e+002, 2.689370e+001
8.053049e+002, 2.736998e+001
8.057870e+002, 2.775931e+001
8.062692e+002, 2.777459e+001
8.067513e+002, 2.728305e+001
8.072334e+002, 2.695349e+001
8.077155e+002, 2.687494e+001
8.081976e+002, 2.688743e+001
8.086797e+002, 2.672865e+001
8.091619e+002, 2.649222e+001
8.096440e+002, 2.648417e+001
8.101261e+002, 2.682319e+001
8.106082e+002, 2.718843e+001
8.110903e+002, 2.734053e+001
8.115724e+002, 2.738906e+001
8.120546e+002, 2.745729e+001
8.125367e+002, 2.768091e+001
8.130188e+002, 2.772183e+001
8.135009e+002, 2.741635e+001
8.139830e+002, 2.707711e+001
8.144651e+002, 2.712693e+001
8.149473e+002, 2.760736e+001
8.154294e+002, 2.773108e+001
8.159115e+002, 2.736310e+001
8.163936e+002, 2.689678e+001
8.168757e+002, 2.677781e+001
8.173578e+002, 2.687988e+001
8.178400e+002, 2.700117e+001
8.183221e+002, 2.712616e+001
8.188042e+002, 2.716884e+001
8.192863e+002, 2.691345e+001
8.197684e+002, 2.665531e+001
8.202505e+002, 2.671255e+001
8.207327e+002, 2.737172e+001
8.212148e+002, 2.770047e+001
8.216969e+002, 2.761061e+001
8.221790e+002, 2.734692e+001
8.226611e+002, 2.709500e+001
8.231432e+002, 2.687661e+001
8.236254e+002, 2.689359e+001
8.241075e+002, 2.718736e+001
8.245896e+002, 2.752934e+001
8.250717e+002, 2.782144e+001
8.255538e+002, 2.798714e+001
8.260359e+002, 2.787753e+001
8.265181e+002, 2.734198e+001
8.270002e+002, 2.698522e+001
8.274823e+002, 2.718367e+001
8.279644e+002, 2.741437e+001
8.284465e+002, 2.724639e+001
8.289286e+002, 2.647079e+001
8.294108e+002, 2.646186e+001
8.298929e+002, 2.738952e+001
8.303750e+002, 2.834851e+001
8.308571e+002, 2.837243e+001
8.313392e+002, 2.783443e+001
8.318214e+002, 2.752790e+001
8.323035e+002, 2.754110e+001
8.327856e+002, 2.761378e+001
8.332677e+002, 2.756866e+001
8.337498e+002, 2.753037e+001
8.342319e+002, 2.760193e+001
8.347141e+002, 2.782726e+001
8.351962e+002, 2.803928e+001
8.356783e+002, 2.827919e+001
8.361604e+002, 2.843396e+001
8.366425e+002, 2.840954e+001
8.371246e+002, 2.821549e+001
8.376068e+002, 2.795328e+001
8.380889e+002, 2.762242e+001
8.385710e+002, 2.739548e+001
8.390531e+002, 2.753524e+001
8.395352e+002, 2.776862e+001
8.400173e+002, 2.774287e+001
8.404995e+002, 2.744194e+001
8.409816e+002, 2.728016e+001
8.414637e+002, 2.747933e+001
8.419458e+002, 2.777331e+001
8.424279e+002, 2.807050e+001
8.429100e+002, 2.836912e+001
8.433922e+002, 2.858051e+001
8.438743e+002, 2.870678e+001
8.443564e+002, 2.873248e+001
8.448385e+002, 2.860102e+001
8.453206e+002, 2.837455e+001
8.458027e+002, 2.820952e+001
8.462849e+002, 2.809126e+001
8.467670e+002, 2.794128e+001
8.472491e+002, 2.764510e+001
8.477312e+002, 2.736984e+001
8.482133e+002, 2.721103e+001
8.486954e+002, 2.716724e+001
8.491776e+002, 2.714356e+001
8.496597e+002, 2.702871e+001
8.501418e+002, 2.718236e+001
8.506239e+002, 2.790218e+001
8.511060e+002, 2.888592e+001
8.515881e+002, 2.898851e+001
8.520703e+002, 2.830234e+001
8.525524e+002, 2.759737e+001
8.530345e+002, 2.717347e+001
8.535166e+002, 2.698472e+001
8.539987e+002, 2.709330e+001
8.544808e+002, 2.740119e+001
8.549630e+002, 2.766063e+001
8.554451e+002, 2.784135e+001
8.559272e+002, 2.789560e+001
8.564093e+002, 2.770747e+001
8.568914e+002, 2.744143e+001
8.573735e+002, 2.754935e+001
8.578557e+002, 2.808029e+001
8.583378e+002, 2.836580e+001
8.588199e+002, 2.816441e+001
8.593020e+002, 2.777409e+001
8.597841e+002, 2.756729e+001
8.602662e+002, 2.751601e+001
8.607484e+002, 2.757450e+001
8.612305e+002, 2.781798e+001
8.617126e+002, 2.803135e+001
8.621947e+002, 2.814118e+001
8.626768e+002, 2.816869e+001
8.631589e+002, 2.814224e+001
8.636411e+002, 2.803085e+001
8.641232e+002, 2.795072e+001
8.646053e+002, 2.790916e+001
8.650874e+002, 2.790864e+001
8.655695e+002, 2.796479e+001
8.660516e+002, 2.806513e+001
8.665338e+002, 2.818751e+001
8.670159e+002, 2.834496e+001
8.674980e+002, 2.843947e+001
8.679801e+002, 2.829123e+001
8.684622e+002, 2.811072e+001
8.689443e+002, 2.813486e+001
8.694265e+002, 2.861966e+001
8.699086e+002, 2.872252e+001
8.703907e+002, 2.819560e+001
8.708728e+002, 2.767354e+001
8.713549e+002, 2.778977e+001
8.718370e+002, 2.846979e+001
8.723192e+002, 2.878544e+001
8.728013e+002, 2.870080e+001
8.732834e+002, 2.851882e+001
8.737655e+002, 2.847379e+001
8.742476e+002, 2.846520e+001
8.747297e+002, 2.836197e+001
8.752119e+002, 2.814720e+001
8.756940e+002, 2.803689e+001
8.761761e+002, 2.818993e+001
8.766582e+002, 2.834847e+001
8.771403e+002, 2.841344e+001
8.776224e+002, 2.839086e+001
8.781046e+002, 2.833294e+001
8.785867e+002, 2.823406e+001
8.790688e+002, 2.822178e+001
8.795509e+002, 2.846502e+001
8.800330e+002, 2.878677e+001
8.805151e+002, 2.893298e+001
8.809973e+002, 2.893342e+001
8.814794e+002, 2.890521e+001
8.819615e+002, 2.884887e+001
8.824436e+002, 2.882575e+001
8.829257e+002, 2.890220e+001
8.834078e+002, 2.902455e+001
8.838900e+002, 2.900023e+001
8.843721e+002, 2.876899e+001
8.848542e+002, 2.873573e+001
8.853363e+002, 2.910031e+001
8.858184e+002, 2.958566e+001
8.863005e+002, 2.967175e+001
8.867827e+002, 2.948602e+001
8.872648e+002, 2.935544e+001
8.877469e+002, 2.944617e+001
8.882290e+002, 2.954426e+001
8.887111e+002, 2.949221e+001
8.891932e+002, 2.941850e+001
8.896754e+002, 2.954232e+001
8.901575e+002, 3.006447e+001
8.906396e+002, 3.018934e+001
8.911217e+002, 2.970347e+001
8.916038e+002, 2.916864e+001
8.920859e+002, 2.942406e+001
8.925681e+002, 3.020438e+001
8.930502e+002, 3.066042e+001
8.935323e+002, 3.061304e+001
8.940144e+002, 3.053563e+001
8.944965e+002, 3.080536e+001
8.949786e+002, 3.115305e+001
8.954608e+002, 3.134678e+001
8.959429e+002, 3.131733e+001
8.964250e+002, 3.126192e+001
8.969071e+002, 3.110300e+001
8.973892e+002, 3.107440e+001
8.978713e+002, 3.142136e+001
8.983535e+002, 3.206334e+001
8.988356e+002, 3.253484e+001
8.993177e+002, 3.283415e+001
8.997998e+002, 3.298749e+001
9.002819e+002, 3.288335e+001
9.007640e+002, 3.274915e+001
9.012462e+002, 3.273512e+001
9.017283e+002, 3.284825e+001
9.022104e+002, 3.307345e+001
9.026925e+002, 3.347406e+001
9.031746e+002, 3.385744e+001
9.036567e+002, 3.415083e+001
9.041389e+002, 3.439833e+001
9.046210e+002, 3.481868e+001
9.051031e+002, 3.537538e+001
9.055852e+002, 3.574319e+001
9.060673e+002, 3.564238e+001
9.065494e+002, 3.550215e+001
9.070316e+002, 3.576542e+001
9.075137e+002, 3.625181e+001
9.079958e+002, 3.664742e+001
9.084779e+002, 3.665169e+001
9.089600e+002, 3.688624e+001
9.094421e+002, 3.755523e+001
9.099243e+002, 3.830858e+001
9.104064e+002, 3.858939e+001
9.108885e+002, 3.843572e+001
9.113706e+002, 3.859534e+001
9.118527e+002, 3.921212e+001
9.123348e+002, 3.993567e+001
9.128170e+002, 4.054056e+001
9.132991e+002, 4.100508e+001
9.137812e+002, 4.128882e+001
9.142633e+002, 4.135651e+001
9.147454e+002, 4.135396e+001
9.152275e+002, 4.110392e+001
9.157097e+002, 4.103201e+001
9.161918e+002, 4.150205e+001
9.166739e+002, 4.249970e+001
9.171560e+002, 4.300334e+001
9.176381e+002, 4.300543e+001
9.181202e+002, 4.296101e+001
9.186024e+002, 4.314011e+001
9.190845e+002, 4.346852e+001
9.195666e+002, 4.392179e+001
9.200487e+002, 4.446809e+001
9.205308e+002, 4.497178e+001
9.210129e+002, 4.532115e+001
9.214951e+002, 4.571974e+001
9.219772e+002, 4.629697e+001
9.224593e+002, 4.692817e+001
9.229414e+002, 4.716245e+001
9.234235e+002, 4.700709e+001
9.239056e+002, 4.697863e+001
9.243878e+002, 4.729426e+001
9.248699e+002, 4.770870e+001
9.253520e+002, 4.791929e+001
9.258341e+002, 4.804677e+001
9.263162e+002, 4.828909e+001
9.267983e+002, 4.881212e+001
9.272805e+002, 4.928640e+001
9.277626e+002, 4.964756e+001
9.282447e+002, 4.998156e+001
9.287268e+002, 5.033014e+001
9.292089e+002, 5.069053e+001
9.296910e+002, 5.132929e+001
9.301732e+002, 5.228474e+001
9.306553e+002, 5.323905e+001
9.311374e+002, 5.393407e+001
9.316195e+002, 5.444735e+001
9.321016e+002, 5.481014e+001
9.325837e+002, 5.500943e+001
9.330659e+002, 5.536659e+001
9.335480e+002, 5.602680e+001
9.340301e+002, 5.677224e+001
9.345122e+002, 5.752058e+001
9.349943e+002, 5.828172e+001
9.354764e+002, 5.908663e+001
9.359586e+002, 5.994305e+001
9.364407e+002, 6.080993e+001
9.369228e+002, 6.173335e+001
9.374049e+002, 6.261792e+001
9.378870e+002, 6.326555e+001
9.383691e+002, 6.380982e+001
9.388513e+002, 6.454257e+001
9.393334e+002, 6.574381e+001
9.398155e+002, 6.689565e+001
9.402976e+002, 6.790951e+001
9.407797e+002, 6.885213e+001
9.412618e+002, 6.978938e+001
9.417440e+002, 7.072428e+001
9.422261e+002, 7.169658e+001
9.427082e+002, 7.273787e+001
9.431903e+002, 7.373660e+001
9.436724e+002, 7.454220e+001
9.441545e+002, 7.526305e+001
9.446367e+002, 7.601278e+001
9.451188e+002, 7.680725e+001
9.456009e+002, 7.762893e+001
9.460830e+002, 7.859081e+001
9.465651e+002, 7.939673e+001
9.470472e+002, 7.984820e+001
9.475294e+002, 7.997925e+001
9.480115e+002, 7.989558e+001
9.484936e+002, 7.963982e+001
9.489757e+002, 7.972860e+001
9.494578e+002, 8.088636e+001
9.499399e+002, 8.216541e+001
9.504221e+002, 8.280795e+001
9.509042e+002, 8.294287e+001
9.513863e+002, 8.311005e+001
9.518684e+002, 8.336993e+001
9.523505e+002, 8.367854e+001
9.528326e+002, 8.402474e+001
9.533148e+002, 8.442741e+001
9.537969e+002, 8.499055e+001
9.542790e+002, 8.565633e+001
9.547611e+002, 8.616614e+001
9.552432e+002, 8.643743e+001
9.557253e+002, 8.659462e+001
9.562075e+002, 8.656035e+001
9.566896e+002, 8.654996e+001
9.571717e+002, 8.675394e+001
9.576538e+002, 8.711226e+001
9.581359e+002, 8.804483e+001
9.586180e+002, 8.987601e+001
9.591002e+002, 9.146666e+001
9.595823e+002, 9.154615e+001
9.600644e+002, 9.077608e+001
9.605465e+002, 9.134429e+001
9.610286e+002, 9.313311e+001
9.615107e+002, 9.490093e+001
9.619929e+002, 9.599230e+001
9.624750e+002, 9.684647e+001
9.629571e+002, 9.742970e+001
9.634392e+002, 9.796237e+001
9.639213e+002, 9.934650e+001
9.644034e+002, 1.019204e+002
9.648856e+002, 1.039075e+002
9.653677e+002, 1.047670e+002
9.658498e+002, 1.050780e+002
9.663319e+002, 1.054566e+002
9.668140e+002, 1.060539e+002
9.672961e+002, 1.072919e+002
9.677783e+002, 1.096851e+002
9.682604e+002, 1.116506e+002
9.687425e+002, 1.121999e+002
9.692246e+002, 1.123866e+002
9.697067e+002, 1.130769e+002
9.701888e+002, 1.143583e+002
9.706710e+002, 1.154661e+002
9.711531e+002, 1.163990e+002
9.716352e+002, 1.170821e+002
9.721173e+002, 1.172169e+002
9.725994e+002, 1.172002e+002
9.730815e+002, 1.176423e+002
9.735637e+002, 1.184632e+002
9.740458e+002, 1.191094e+002
9.745279e+002, 1.194668e+002
9.750100e+002, 1.195142e+002
9.754921e+002, 1.191980e+002
9.759742e+002, 1.186142e+002
9.764564e+002, 1.180193e+002
9.769385e+002, 1.174002e+002
9.774206e+002, 1.165564e+002
9.779027e+002, 1.154078e+002
9.783848e+002, 1.141478e+002
9.788669e+002, 1.129521e+002
9.793491e+002, 1.117493e+002
9.798312e+002, 1.104847e+002
9.803133e+002, 1.093009e+002
9.807954e+002, 1.075673e+002
9.812775e+002, 1.049250e+002
9.817596e+002, 1.023025e+002
9.822418e+002, 1.004490e+002
9.827239e+002, 9.918148e+001
9.832060e+002, 9.752861e+001
9.836881e+002, 9.551273e+001
9.841702e+002, 9.339869e+001
9.846523e+002, 9.112164e+001
9.851345e+002, 8.901379e+001
9.856166e+002, 8.737671e+001
9.860987e+002, 8.607082e+001
9.865808e+002, 8.454568e+001
9.870629e+002, 8.272195e+001
9.875450e+002, 8.087129e+001
9.880272e+002, 7.893671e+001
9.885093e+002, 7.725571e+001
9.889914e+002, 7.664693e+001
9.894735e+002, 7.662406e+001
9.899556e+002, 7.619455e+001
9.904377e+002, 7.509196e+001
9.909199e+002, 7.380137e+001
9.914020e+002, 7.227336e+001
9.918841e+002, 7.084334e+001
9.923662e+002, 6.972769e+001
9.928483e+002, 6.894979e+001
9.933304e+002, 6.827679e+001
9.938126e+002, 6.771254e+001
9.942947e+002, 6.718386e+001
9.947768e+002, 6.669167e+001
9.952589e+002, 6.617586e+001
9.957410e+002, 6.552928e+001
9.962231e+002, 6.479368e+001
9.967053e+002, 6.407176e+001
9.971874e+002, 6.305976e+001
9.976695e+002, 6.259721e+001
9.981516e+002, 6.308569e+001
9.986337e+002, 6.382948e+001
9.991158e+002, 6.367260e+001
9.995980e+002, 6.274738e+001
1.000080e+003, 6.203033e+001
1.000562e+003, 6.167591e+001
1.001044e+003, 6.136631e+001
1.001526e+003, 6.082111e+001
1.002009e+003, 6.023534e+001
1.002491e+003, 5.973932e+001
1.002973e+003, 5.933569e+001
1.003455e+003, 5.924263e+001
1.003937e+003, 5.962913e+001
1.004419e+003, 5.978151e+001
1.004901e+003, 5.925174e+001
1.005383e+003, 5.838387e+001
1.005865e+003, 5.788698e+001
1.006348e+003, 5.767934e+001
1.006830e+003, 5.751274e+001
1.007312e+003, 5.713218e+001
1.007794e+003, 5.696416e+001
1.008276e+003, 5.744243e+001
1.008758e+003, 5.800297e+001
1.009240e+003, 5.796095e+001
1.009722e+003, 5.722340e+001
1.010205e+003, 5.688308e+001
1.010687e+003, 5.703763e+001
1.011169e+003, 5.727316e+001
1.011651e+003, 5.724395e+001
1.012133e+003, 5.708442e+001
1.012615e+003, 5.692233e+001
1.013097e+003, 5.676849e+001
1.013579e+003, 5.660323e+001
1.014061e+003, 5.642758e+001
1.014544e+003, 5.623399e+001
1.015026e+003, 5.601548e+001
1.015508e+003, 5.578439e+001
1.015990e+003, 5.553922e+001
1.016472e+003, 5.529864e+001
1.016954e+003, 5.515165e+001
1.017436e+003, 5.516527e+001
1.017918e+003, 5.517246e+001
1.018401e+003, 5.513993e+001
1.018883e+003, 5.500078e+001
1.019365e+003, 5.464301e+001
1.019847e+003, 5.396617e+001
1.020329e+003, 5.360809e+001
1.020811e+003, 5.361481e+001
1.021293e+003, 5.369031e+001
1.021775e+003, 5.359716e+001
1.022257e+003, 5.345269e+001
1.022740e+003, 5.349525e+001
1.023222e+003, 5.366153e+001
1.023704e+003, 5.370186e+001
1.024186e+003, 5.336875e+001
1.024668e+003, 5.310856e+001
1.025150e+003, 5.306602e+001
1.025632e+003, 5.309275e+001
1.026114e+003, 5.288988e+001
1.026596e+003, 5.249803e+001
1.027079e+003, 5.226740e+001
1.027561e+003, 5.226204e+001
1.028043e+003, 5.235001e+001
1.028525e+003, 5.242357e+001
1.029007e+003, 5.254478e+001
1.029489e+003, 5.285649e+001
1.029971e+003, 5.338781e+001
1.030453e+003, 5.346541e+001
1.030936e+003, 5.292150e+001
1.031418e+003, 5.249043e+001
1.031900e+003, 5.253093e+001
1.032382e+003, 5.281970e+001
1.032864e+003, 5.290822e+001
1.033346e+003, 5.289020e+001
1.033828e+003, 5.298610e+001
1.034310e+003, 5.331066e+001
1.034792e+003, 5.370677e+001
1.035275e+003, 5.433406e+001
1.035757e+003, 5.484206e+001
1.036239e+003, 5.479204e+001
1.036721e+003, 5.418477e+001
1.037203e+003, 5.412993e+001
1.037685e+003, 5.465942e+001
1.038167e+003, 5.522637e+001
1.038649e+003, 5.534270e+001
1.039132e+003, 5.540691e+001
1.039614e+003, 5.583131e+001
1.040096e+003, 5.651967e+001
1.040578e+003, 5.689772e+001
1.041060e+003, 5.673748e+001
1.041542e+003, 5.683107e+001
1.042024e+003, 5.739024e+001
1.042506e+003, 5.812926e+001
1.042989e+003, 5.870720e+001
1.043471e+003, 5.912597e+001
1.043953e+003, 5.934410e+001
1.044435e+003, 5.930490e+001
1.044917e+003, 5.938001e+001
1.045399e+003, 5.986825e+001
1.045881e+003, 6.034821e+001
1.046363e+003, 6.056465e+001
1.046845e+003, 6.057171e+001
1.047328e+003, 6.079053e+001
1.047810e+003, 6.122097e+001
1.048292e+003, 6.180666e+001
1.048774e+003, 6.272833e+001
1.049256e+003, 6.351646e+001
1.049738e+003, 6.363877e+001
1.050220e+003, 6.343686e+001
1.050702e+003, 6.349241e+001
1.051184e+003, 6.416771e+001
1.051667e+003, 6.427236e+001
1.052149e+003, 6.361529e+001
1.052631e+003, 6.293435e+001
1.053113e+003, 6.286967e+001
1.053595e+003, 6.323380e+001
1.054077e+003, 6.383056e+001
1.054559e+003, 6.457025e+001
1.055041e+003, 6.498701e+001
1.055523e+003, 6.440117e+001
1.056006e+003, 6.409180e+001
1.056488e+003, 6.457623e+001
1.056970e+003, 6.539389e+001
1.057452e+003, 6.556104e+001
1.057934e+003, 6.514871e+001
1.058416e+003, 6.479019e+001
1.058898e+003, 6.460258e+001
1.059380e+003, 6.451088e+001
1.059863e+003, 6.459647e+001
1.060345e+003, 6.465034e+001
1.060827e+003, 6.442720e+001
1.061309e+003, 6.390630e+001
1.061791e+003, 6.363104e+001
1.062273e+003, 6.363873e+001
1.062755e+003, 6.372610e+001
1.063237e+003, 6.387363e+001
1.063719e+003, 6.395709e+001
1.064202e+003, 6.376680e+001
1.064684e+003, 6.337241e+001
1.065166e+003, 6.289877e+001
1.065648e+003, 6.229491e+001
1.066130e+003, 6.178802e+001
1.066612e+003, 6.146656e+001
1.067094e+003, 6.114349e+001
1.067576e+003, 6.061811e+001
1.068059e+003, 5.994252e+001
1.068541e+003, 5.948178e+001
1.069023e+003, 5.921098e+001
1.069505e+003, 5.890123e+001
1.069987e+003, 5.830056e+001
1.070469e+003, 5.775114e+001
1.070951e+003, 5.755529e+001
1.071433e+003, 5.749976e+001
1.071916e+003, 5.714329e+001
1.072398e+003, 5.643170e+001
1.072880e+003, 5.597419e+001
1.073362e+003, 5.589653e+001
1.073844e+003, 5.581340e+001
1.074326e+003, 5.520218e+001
1.074808e+003, 5.447282e+001
1.075290e+003, 5.411514e+001
1.075772e+003, 5.417542e+001
1.076255e+003, 5.405723e+001
1.076737e+003, 5.363267e+001
1.077219e+003, 5.324418e+001
1.077701e+003, 5.301257e+001
1.078183e+003, 5.286874e+001
1.078665e+003, 5.266914e+001
1.079147e+003, 5.245085e+001
1.079629e+003, 5.231110e+001
1.080111e+003, 5.230880e+001
1.080594e+003, 5.228043e+001
1.081076e+003, 5.205157e+001
1.081558e+003, 5.189807e+001
1.082040e+003, 5.202824e+001
1.082522e+003, 5.240170e+001
1.083004e+003, 5.258620e+001
1.083486e+003, 5.259903e+001
1.083968e+003, 5.259414e+001
1.084450e+003, 5.269740e+001
1.084933e+003, 5.276437e+001
1.085415e+003, 5.265137e+001
1.085897e+003, 5.246418e+001
1.086379e+003, 5.237738e+001
1.086861e+003, 5.243050e+001
1.087343e+003, 5.244546e+001
1.087825e+003, 5.241607e+001
1.088307e+003, 5.234159e+001
1.088790e+003, 5.214034e+001
1.089272e+003, 5.194931e+001
1.089754e+003, 5.199992e+001
1.090236e+003, 5.223889e+001
1.090718e+003, 5.232317e+001
1.091200e+003, 5.204418e+001
1.091682e+003, 5.189684e+001
1.092164e+003, 5.203404e+001
1.092646e+003, 5.220804e+001
1.093129e+003, 5.192408e+001
1.093611e+003, 5.139669e+001
1.094093e+003, 5.117399e+001
1.094575e+003, 5.135487e+001
1.095057e+003, 5.158503e+001
1.095539e+003, 5.183634e+001
1.096021e+003, 5.194365e+001
1.096503e+003, 5.177544e+001
1.096986e+003, 5.143424e+001
1.097468e+003, 5.131122e+001
1.097950e+003, 5.138804e+001
1.098432e+003, 5.152544e+001
1.098914e+003, 5.172603e+001
1.099396e+003, 5.184946e+001
1.099878e+003, 5.173943e+001
1.100360e+003, 5.153666e+001
1.100843e+003, 5.134987e+001
1.101325e+003, 5.116273e+001
1.101807e+003, 5.124031e+001
1.102289e+003, 5.161727e+001
1.102771e+003, 5.189130e+001
1.103253e+003, 5.176469e+001
1.103735e+003, 5.148286e+001
1.104217e+003, 5.131444e+001
1.104699e+003, 5.121001e+001
1.105182e+003, 5.107150e+001
1.105664e+003, 5.082129e+001
1.106146e+003, 5.065471e+001
1.106628e+003, 5.059359e+001
1.107110e+003, 5.056990e+001
1.107592e+003, 5.055315e+001
1.108074e+003, 5.051737e+001
1.108556e+003, 5.032557e+001
1.109038e+003, 5.003376e+001
1.109521e+003, 4.994270e+001
1.110003e+003, 5.045043e+001
1.110485e+003, 5.077882e+001
1.110967e+003, 5.065834e+001
1.111449e+003, 5.041967e+001
1.111931e+003, 5.068258e+001
1.112413e+003, 5.128774e+001
1.112895e+003, 5.142985e+001
1.113377e+003, 5.100776e+001
1.113860e+003, 5.064440e+001
1.114342e+003, 5.077555e+001
1.114824e+003, 5.101599e+001
1.115306e+003, 5.115247e+001
1.115788e+003, 5.122793e+001
1.116270e+003, 5.148999e+001
1.116752e+003, 5.193040e+001
1.117234e+003, 5.188890e+001
1.117717e+003, 5.105927e+001
1.118199e+003, 5.028878e+001
1.118681e+003, 5.037523e+001
1.119163e+003, 5.084694e+001
1.119645e+003, 5.134341e+001
1.120127e+003, 5.184146e+001
1.120609e+003, 5.208949e+001
1.121091e+003, 5.206874e+001
1.121573e+003, 5.189322e+001
1.122056e+003, 5.152034e+001
1.122538e+003, 5.116315e+001
1.123020e+003, 5.111416e+001
1.123502e+003, 5.125414e+001
1.123984e+003, 5.140676e+001
1.124466e+003, 5.158139e+001
1.124948e+003, 5.163684e+001
1.125430e+003, 5.153175e+001
1.125913e+003, 5.141461e+001
1.126395e+003, 5.140363e+001
1.126877e+003, 5.144215e+001
1.127359e+003, 5.139162e+001
1.127841e+003, 5.128127e+001
1.128323e+003, 5.119152e+001
1.128805e+003, 5.118127e+001
1.129287e+003, 5.115535e+001
1.129770e+003, 5.111515e+001
1.130252e+003, 5.103656e+001
1.130734e+003, 5.087178e+001
1.131216e+003, 5.064715e+001
1.131698e+003, 5.048738e+001
1.132180e+003, 5.038147e+001
1.132662e+003, 5.021604e+001
1.133144e+003, 4.985775e+001
1.133626e+003, 4.951569e+001
1.134109e+003, 4.930335e+001
1.134591e+003, 4.911375e+001
1.135073e+003, 4.876569e+001
1.135555e+003, 4.827483e+001
1.136037e+003, 4.775851e+001
1.136519e+003, 4.722472e+001
1.137001e+003, 4.683459e+001
1.137483e+003, 4.696476e+001
1.137965e+003, 4.702846e+001
1.138448e+003, 4.653622e+001
1.138930e+003, 4.567916e+001
1.139412e+003, 4.502641e+001
1.139894e+003, 4.457839e+001
1.140376e+003, 4.427582e+001
1.140858e+003, 4.414211e+001
1.141340e+003, 4.395893e+001
1.141822e+003, 4.356690e+001
1.142304e+003, 4.299554e+001
1.142787e+003, 4.213986e+001
1.143269e+003, 4.102053e+001
1.143751e+003, 4.038157e+001
1.144233e+003, 4.033398e+001
1.144715e+003, 4.017381e+001
1.145197e+003, 3.965460e+001
1.145679e+003, 3.895036e+001
1.146161e+003, 3.812810e+001
1.146644e+003, 3.734595e+001
1.147126e+003, 3.682912e+001
1.147608e+003, 3.670801e+001
1.148090e+003, 3.654381e+001
1.148572e+003, 3.636069e+001
1.149054e+003, 3.602668e+001
1.149536e+003, 3.541201e+001
1.150018e+003, 3.468596e+001
1.150500e+003, 3.401926e+001
1.150983e+003, 3.348872e+001
1.151465e+003, 3.326308e+001
1.151947e+003, 3.363145e+001
1.152429e+003, 3.379243e+001
1.152911e+003, 3.364074e+001
1.153393e+003, 3.339080e+001
1.153875e+003, 3.315938e+001
1.154357e+003, 3.295253e+001
1.154840e+003, 3.277339e+001
1.155322e+003, 3.263081e+001
1.155804e+003, 3.256079e+001
1.156286e+003, 3.284536e+001
1.156768e+003, 3.277712e+001
1.157250e+003, 3.203217e+001
1.157732e+003, 3.127223e+001
1.158214e+003, 3.116591e+001
1.158697e+003, 3.157185e+001
1.159179e+003, 3.201304e+001
1.159661e+003, 3.242500e+001
1.160143e+003, 3.252582e+001
1.160625e+003, 3.185225e+001
1.161107e+003, 3.124410e+001
1.161589e+003, 3.086944e+001
1.162071e+003, 3.075995e+001
1.162553e+003, 3.116871e+001
1.163036e+003, 3.195752e+001
1.163518e+003, 3.199241e+001
1.164000e+003, 3.124656e+001
1.164482e+003, 3.067962e+001
1.164964e+003, 3.121719e+001
1.165446e+003, 3.169043e+001
1.165928e+003, 3.144878e+001
1.166410e+003, 3.083479e+001
1.166892e+003, 3.040235e+001
1.167375e+003, 3.015338e+001
1.167857e+003, 3.025027e+001
1.168339e+003, 3.073182e+001
1.168821e+003, 3.111640e+001
1.169303e+003, 3.095174e+001
1.169785e+003, 3.067409e+001
1.170267e+003, 3.053352e+001
1.170749e+003, 3.051075e+001
1.171231e+003, 3.055412e+001
1.171714e+003, 3.066299e+001
1.172196e+003, 3.084119e+001
1.172678e+003, 3.112244e+001
1.173160e+003, 3.124491e+001
1.173642e+003, 3.080185e+001
1.174124e+003, 3.025695e+001
1.174606e+003, 2.999933e+001
1.175088e+003, 2.999111e+001
1.175571e+003, 3.001300e+001
1.176053e+003, 3.006914e+001
1.176535e+003, 3.007904e+001
1.177017e+003, 3.001941e+001
1.177499e+003, 2.990882e+001
1.177981e+003, 2.965269e+001
1.178463e+003, 2.943335e+001
1.178945e+003, 2.949932e+001
1.179427e+003, 2.985482e+001
1.179910e+003, 2.994699e+001
1.180392e+003, 2.974487e+001
1.180874e+003, 2.960250e+001
1.181356e+003, 2.968290e+001
1.181838e+003, 2.980288e+001
1.182320e+003, 2.974064e+001
1.182802e+003, 2.962251e+001
1.183284e+003, 2.962535e+001
1.183767e+003, 2.979778e+001
1.184249e+003, 2.978631e+001
1.184731e+003, 2.956340e+001
1.185213e+003, 2.933656e+001
1.185695e+003, 2.916248e+001
1.186177e+003, 2.909857e+001
1.186659e+003, 2.928570e+001
1.187141e+003, 2.959540e+001
1.187624e+003, 2.985510e+001
1.188106e+003, 3.006933e+001
1.188588e+003, 3.010213e+001
1.189070e+003, 2.992048e+001
1.189552e+003, 2.974737e+001
1.190034e+003, 2.971008e+001
1.190516e+003, 2.975158e+001
1.190998e+003, 2.982059e+001
1.191480e+003, 2.991075e+001
1.191963e+003, 3.002852e+001
1.192445e+003, 3.029020e+001
1.192927e+003, 3.021487e+001
1.193409e+003, 2.971611e+001
1.193891e+003, 2.927305e+001
1.194373e+003, 2.918464e+001
1.194855e+003, 2.936019e+001
1.195337e+003, 2.994017e+001
1.195819e+003, 3.064590e+001
1.196302e+003, 3.082455e+001
1.196784e+003, 3.007571e+001
1.197266e+003, 2.948878e+001
1.197748e+003, 2.906664e+001
1.198230e+003, 2.887739e+001
1.198712e+003, 2.913073e+001
1.199194e+003, 2.954222e+001
1.199676e+003, 2.981776e+001
1.200158e+003, 2.992534e+001
1.200641e+003, 2.974644e+001
1.201123e+003, 2.891949e+001
1.201605e+003, 2.871448e+001
1.202087e+003, 2.933557e+001
1.202569e+003, 3.002429e+001
1.203051e+003, 3.005814e+001
1.203533e+003, 2.977102e+001
1.204015e+003, 2.957425e+001
1.204498e+003, 2.944657e+001
1.204980e+003, 2.923088e+001
1.205462e+003, 2.872012e+001
1.205944e+003, 2.862201e+001
1.206426e+003, 2.909413e+001
1.206908e+003, 2.959594e+001
1.207390e+003, 2.952494e+001
1.207872e+003, 2.921438e+001
1.208354e+003, 2.906804e+001
1.208837e+003, 2.907635e+001
1.209319e+003, 2.909918e+001
1.209801e+003, 2.909145e+001
1.210283e+003, 2.916406e+001
1.210765e+003, 2.934210e+001
1.211247e+003, 2.956025e+001
1.211729e+003, 2.986673e+001
1.212211e+003, 3.009840e+001
1.212694e+003, 2.993073e+001
1.213176e+003, 2.944664e+001
1.213658e+003, 2.923568e+001
1.214140e+003, 2.946210e+001
1.214622e+003, 2.959436e+001
1.215104e+003, 2.954324e+001
1.215586e+003, 2.944004e+001
1.216068e+003, 2.945348e+001
1.216551e+003, 2.947825e+001
1.217033e+003, 2.939732e+001
1.217515e+003, 2.920261e+001
1.217997e+003, 2.889301e+001
1.218479e+003, 2.835831e+001
1.218961e+003, 2.812519e+001
1.219443e+003, 2.832264e+001
1.219925e+003, 2.866378e+001
1.220407e+003, 2.885135e+001
1.220890e+003, 2.898597e+001
1.221372e+003, 2.921341e+001
1.221854e+003, 2.951600e+001
1.222336e+003, 2.969834e+001
1.222818e+003, 2.978041e+001
1.223300e+003, 2.957121e+001
1.223782e+003, 2.895118e+001
1.224264e+003, 2.840848e+001
1.224746e+003, 2.863526e+001
1.225229e+003, 2.911099e+001
1.225711e+003, 2.928391e+001
1.226193e+003, 2.913720e+001
1.226675e+003, 2.909430e+001
1.227157e+003, 2.919087e+001
1.227639e+003, 2.920438e+001
1.228121e+003, 2.907245e+001
1.228603e+003, 2.891968e+001
1.229085e+003, 2.884967e+001
1.229568e+003, 2.884574e+001
1.230050e+003, 2.890661e+001
1.230532e+003, 2.902722e+001
1.231014e+003, 2.917398e+001
1.231496e+003, 2.936228e+001
1.231978e+003, 2.943350e+001
1.232460e+003, 2.933399e+001
1.232942e+003, 2.919713e+001
1.233425e+003, 2.911431e+001
1.233907e+003, 2.908104e+001
1.234389e+003, 2.913287e+001
1.234871e+003, 2.924064e+001
1.235353e+003, 2.921687e+001
1.235835e+003, 2.905471e+001
1.236317e+003, 2.891169e+001
1.236799e+003, 2.881050e+001
1.237281e+003, 2.882377e+001
1.237764e+003, 2.917441e+001
1.238246e+003, 2.952659e+001
1.238728e+003, 2.954393e+001
1.239210e+003, 2.932390e+001
1.239692e+003, 2.931405e+001
1.240174e+003, 2.950101e+001
1.240656e+003, 2.949867e+001
1.241138e+003, 2.918332e+001
1.241621e+003, 2.886138e+001
1.242103e+003, 2.881034e+001
1.242585e+003, 2.878286e+001
1.243067e+003, 2.857015e+001
1.243549e+003, 2.825709e+001
1.244031e+003, 2.817737e+001
1.244513e+003, 2.830662e+001
1.244995e+003, 2.848051e+001
1.245478e+003, 2.868126e+001
1.245960e+003, 2.879700e+001
1.246442e+003, 2.870884e+001
1.246924e+003, 2.856470e+001
1.247406e+003, 2.843567e+001
1.247888e+003, 2.832628e+001
1.248370e+003, 2.820951e+001
1.248852e+003, 2.812306e+001
1.249334e+003, 2.827556e+001
1.249817e+003, 2.875883e+001
1.250299e+003, 2.916614e+001
1.250781e+003, 2.916719e+001
1.251263e+003, 2.922112e+001
1.251745e+003, 2.956742e+001
1.252227e+003, 3.003189e+001
1.252709e+003, 3.023095e+001
1.253191e+003, 3.018678e+001
1.253673e+003, 2.991294e+001
1.254156e+003, 2.937056e+001
1.254638e+003, 2.893489e+001
1.255120e+003, 2.871127e+001
1.255602e+003, 2.864465e+001
1.256084e+003, 2.878001e+001
1.256566e+003, 2.898063e+001
1.257048e+003, 2.892590e+001
1.257530e+003, 2.874223e+001
1.258012e+003, 2.871781e+001
1.258495e+003, 2.892612e+001
1.258977e+003, 2.900329e+001
1.259459e+003, 2.877601e+001
1.259941e+003, 2.871793e+001
1.260423e+003, 2.905881e+001
1.260905e+003, 2.947171e+001
1.261387e+003, 2.938611e+001
1.261869e+003, 2.905572e+001
1.262352e+003, 2.884496e+001
1.262834e+003, 2.881401e+001
1.263316e+003, 2.880811e+001
1.263798e+003, 2.881271e+001
1.264280e+003, 2.886456e+001
1.264762e+003, 2.899220e+001
1.265244e+003, 2.911537e+001
1.265726e+003, 2.919087e+001
1.266208e+003, 2.917273e+001
1.266691e+003, 2.894415e+001
1.267173e+003, 2.850812e+001
1.267655e+003, 2.828067e+001
1.268137e+003, 2.827868e+001
1.268619e+003, 2.832744e+001
1.269101e+003, 2.837256e+001
1.269583e+003, 2.849472e+001
1.270065e+003, 2.897982e+001
1.270548e+003, 2.940920e+001
1.271030e+003, 2.924064e+001
1.271512e+003, 2.866361e+001
1.271994e+003, 2.855192e+001
1.272476e+003, 2.889551e+001
1.272958e+003, 2.918115e+001
1.273440e+003, 2.929174e+001
1.273922e+003, 2.935682e+001
1.274405e+003, 2.949020e+001
1.274887e+003, 2.958273e+001
1.275369e+003, 2.957616e+001
1.275851e+003, 2.948416e+001
1.276333e+003, 2.927957e+001
1.276815e+003, 2.900868e+001
1.277297e+003, 2.889621e+001
1.277779e+003, 2.898369e+001
1.278261e+003, 2.924554e+001
1.278744e+003, 3.010909e+001
1.279226e+003, 3.055206e+001
1.279708e+003, 3.006322e+001
1.280190e+003, 2.915171e+001
1.280672e+003, 2.869543e+001
1.281154e+003, 2.862171e+001
1.281636e+003, 2.889303e+001
1.282118e+003, 2.950272e+001
1.282600e+003, 2.963769e+001
1.283083e+003, 2.841462e+001
1.283565e+003, 2.789759e+001
1.284047e+003, 2.878126e+001
1.284529e+003, 3.001171e+001
1.285011e+003, 2.998282e+001
1.285493e+003, 2.936093e+001
1.285975e+003, 2.919877e+001
1.286457e+003, 2.955469e+001
1.286939e+003, 2.965832e+001
1.287422e+003, 2.934384e+001
1.287904e+003, 2.914511e+001
1.288386e+003, 2.917632e+001
1.288868e+003, 2.928637e+001
1.289350e+003, 2.938093e+001
1.289832e+003, 2.941721e+001
1.290314e+003, 2.927307e+001
1.290796e+003, 2.902176e+001
1.291279e+003, 2.904495e+001
1.291761e+003, 2.938864e+001
1.292243e+003, 2.949072e+001
1.292725e+003, 2.926048e+001
1.293207e+003, 2.897970e+001
1.293689e+003, 2.882213e+001
1.294171e+003, 2.874275e+001
1.294653e+003, 2.875780e+001
1.295135e+003, 2.880947e+001
1.295618e+003, 2.877341e+001
1.296100e+003, 2.867111e+001
1.296582e+003, 2.873624e+001
1.297064e+003, 2.898557e+001
1.297546e+003, 2.925454e+001
1.298028e+003, 2.951020e+001
1.298510e+003, 2.966571e+001
1.298992e+003, 2.968657e+001
1.299475e+003, 2.963200e+001
1.299957e+003, 2.961462e+001
1.300439e+003, 2.957692e+001
1.300921e+003, 2.920777e+001
1.301403e+003, 2.859992e+001
1.301885e+003, 2.832113e+001
##END=



