##NAMES=Hammarite
##RRUFFID=R110028
##IDEAL CHEMISTRY=Cu^1+^_2_Pb^2+^_2_Bi^3+^_4_S^2-^_9_
##LOCALITY=Baita Mining District (Baita Bihor; Rezbanya), Nucet, Bihor Co., Romania
##OWNER=RRUFF
##SOURCE=Bob Jenkins 
##DESCRIPTION=Steel-gray parallel aggregates of prismatic crystals
##STATUS=The identification of this mineral has been confirmed only by single crystal X-ray diffraction.
##URL=rruff.info/R110028
152.7985, 45.35036
153.2806, 45.48215
153.7627, 46.04194
154.2448, 47.04295
154.7269, 47.84824
155.2091, 48.34861
155.6912, 48.62089
156.1733, 48.62067
156.6554, 48.37376
157.1375, 48.03864
157.6196, 47.73999
158.1018, 47.35990
158.5839, 47.39637
159.0660, 48.42727
159.5481, 49.45585
160.0302, 49.80183
160.5123, 49.31958
160.9945, 48.39349
161.4766, 47.69056
161.9587, 47.29407
162.4408, 47.02768
162.9229, 46.88652
163.4050, 46.86263
163.8871, 46.96198
164.3693, 47.18563
164.8514, 47.50952
165.3335, 47.88191
165.8156, 48.31455
166.2977, 48.77749
166.7798, 49.32021
167.2620, 49.88491
167.7441, 50.37572
168.2262, 50.74438
168.7083, 51.02972
169.1904, 51.35432
169.6725, 51.84557
170.1547, 52.16163
170.6368, 52.08549
171.1189, 51.70219
171.6010, 51.27584
172.0831, 50.84088
172.5652, 50.51650
173.0474, 50.51904
173.5295, 51.04672
174.0116, 51.52333
174.4937, 51.31236
174.9758, 50.41553
175.4579, 49.88985
175.9401, 50.60688
176.4222, 51.74354
176.9043, 52.46207
177.3864, 52.62746
177.8685, 52.31276
178.3506, 51.32832
178.8328, 49.28041
179.3149, 48.00476
179.7970, 48.77413
180.2791, 50.26423
180.7612, 51.35015
181.2433, 51.59241
181.7255, 51.39116
182.2076, 51.66807
182.6897, 52.90672
183.1718, 53.71681
183.6539, 53.53917
184.1360, 52.97653
184.6181, 52.71331
185.1003, 53.10574
185.5824, 53.86020
186.0645, 53.89362
186.5466, 51.94868
187.0287, 50.82946
187.5108, 51.63427
187.9930, 53.26474
188.4751, 54.29981
188.9572, 53.91889
189.4393, 52.39564
189.9214, 51.24087
190.4035, 50.71718
190.8857, 50.27192
191.3678, 49.72819
191.8499, 49.20436
192.3320, 49.00768
192.8141, 49.40151
193.2962, 50.21981
193.7784, 50.11335
194.2605, 48.00981
194.7426, 46.34379
195.2247, 46.41363
195.7068, 47.68131
196.1889, 48.48277
196.6711, 47.61625
197.1532, 45.53839
197.6353, 44.64703
198.1174, 45.96436
198.5995, 47.39693
199.0816, 47.73878
199.5638, 47.11572
200.0459, 46.39243
200.5280, 46.07344
201.0101, 46.01574
201.4922, 45.76978
201.9743, 45.16344
202.4565, 44.52181
202.9386, 44.01392
203.4207, 43.63116
203.9028, 43.64274
204.3849, 44.65836
204.8670, 46.00770
205.3492, 46.70738
205.8313, 46.43222
206.3134, 45.63889
206.7955, 44.77092
207.2776, 43.77002
207.7597, 42.96959
208.2419, 42.62998
208.7240, 42.52910
209.2061, 42.42915
209.6882, 42.16956
210.1703, 42.05130
210.6524, 42.76542
211.1346, 44.79096
211.6167, 46.38729
212.0988, 46.91476
212.5809, 46.83861
213.0630, 46.53632
213.5451, 46.14093
214.0273, 45.66378
214.5094, 45.07229
214.9915, 44.06964
215.4736, 43.53350
215.9557, 43.93618
216.4378, 44.66708
216.9200, 45.06886
217.4021, 44.83612
217.8842, 44.27057
218.3663, 44.23115
218.8484, 45.14132
219.3305, 46.00902
219.8127, 46.98594
220.2948, 47.76421
220.7769, 47.92694
221.2590, 47.28355
221.7411, 46.14303
222.2232, 45.41743
222.7054, 45.44282
223.1875, 45.53198
223.6696, 45.78428
224.1517, 46.03069
224.6338, 46.04032
225.1159, 45.70863
225.5980, 45.17680
226.0802, 44.85479
226.5623, 44.47747
227.0444, 44.65420
227.5265, 46.01512
228.0086, 47.79293
228.4907, 48.87954
228.9729, 48.77723
229.4550, 48.04023
229.9371, 48.13929
230.4192, 49.87819
230.9013, 51.14834
231.3834, 51.36484
231.8656, 50.97510
232.3477, 50.54192
232.8298, 50.23465
233.3119, 50.15688
233.7940, 50.65625
234.2761, 51.98142
234.7583, 53.13003
235.2404, 53.63494
235.7225, 53.83206
236.2046, 54.43933
236.6867, 55.84332
237.1688, 57.36260
237.6510, 57.57001
238.1331, 56.23614
238.6152, 55.31300
239.0973, 55.51080
239.5794, 56.57640
240.0615, 58.16682
240.5437, 60.50620
241.0258, 62.69163
241.5079, 63.29358
241.9900, 62.35048
242.4721, 61.53707
242.9542, 61.74315
243.4364, 62.60797
243.9185, 63.09452
244.4006, 62.71108
244.8827, 62.47380
245.3648, 63.66416
245.8469, 66.07673
246.3290, 68.21929
246.8112, 69.26018
247.2933, 69.45779
247.7754, 69.55882
248.2575, 69.50723
248.7396, 69.62590
249.2217, 70.12901
249.7039, 70.97071
250.1860, 72.03558
250.6681, 73.60868
251.1502, 75.41453
251.6323, 76.39087
252.1144, 76.16474
252.5966, 75.58748
253.0787, 74.95838
253.5608, 74.39451
254.0429, 74.17899
254.5250, 74.68896
255.0071, 75.68494
255.4893, 76.22321
255.9714, 76.12264
256.4535, 75.81309
256.9356, 75.48368
257.4177, 75.11829
257.8998, 74.67602
258.3820, 74.09994
258.8641, 73.44891
259.3462, 72.96717
259.8283, 72.87996
260.3104, 72.57613
260.7925, 71.92551
261.2747, 70.96195
261.7568, 69.63822
262.2389, 67.81565
262.7210, 65.81712
263.2031, 64.63036
263.6852, 64.81968
264.1674, 64.88841
264.6495, 64.73849
265.1316, 64.21127
265.6137, 62.98610
266.0958, 60.88665
266.5779, 58.39283
267.0601, 56.67958
267.5422, 56.19459
268.0243, 55.74771
268.5064, 55.18402
268.9885, 54.55883
269.4706, 53.88248
269.9528, 53.16486
270.4349, 52.49445
270.9170, 52.11376
271.3991, 52.47030
271.8812, 52.20041
272.3633, 50.86533
272.8455, 49.20692
273.3276, 47.71487
273.8097, 46.53430
274.2918, 45.60386
274.7739, 44.89573
275.2560, 44.71796
275.7382, 44.07682
276.2202, 42.53743
276.7024, 40.95718
277.1845, 39.79441
277.6666, 39.14826
278.1487, 38.93598
278.6308, 39.14733
279.1129, 40.08144
279.5951, 40.37077
280.0772, 39.86431
280.5593, 38.97985
281.0414, 37.75924
281.5235, 36.31688
282.0056, 34.88167
282.4878, 33.64595
282.9699, 32.57652
283.4520, 31.94793
283.9341, 32.26725
284.4162, 32.46923
284.8983, 31.92691
285.3805, 30.86939
285.8626, 30.01942
286.3447, 29.99771
286.8268, 30.78052
287.3089, 30.85388
287.7910, 29.26482
288.2732, 28.04522
288.7553, 28.28823
289.2374, 29.30075
289.7195, 29.62302
290.2016, 28.29437
290.6837, 25.73693
291.1659, 24.29733
291.6480, 24.97329
292.1301, 25.60051
292.6122, 25.88369
293.0943, 25.89727
293.5764, 25.70472
294.0586, 25.32377
294.5407, 24.88903
295.0228, 24.76539
295.5049, 25.54041
295.9870, 25.90820
296.4691, 25.59205
296.9513, 24.94597
297.4334, 24.27383
297.9155, 23.68756
298.3976, 23.24229
298.8797, 23.05779
299.3618, 23.46579
299.8440, 23.49020
300.3261, 22.46853
300.8082, 21.48271
301.2903, 21.77395
301.7724, 23.42167
302.2545, 25.01917
302.7367, 24.75814
303.2188, 21.78498
303.7009, 20.33152
304.1830, 21.54713
304.6651, 23.18641
305.1472, 23.95361
305.6294, 23.77989
306.1115, 23.18909
306.5936, 22.58446
307.0757, 21.95959
307.5578, 21.44368
308.0399, 20.94612
308.5221, 20.61968
309.0042, 20.64355
309.4863, 20.90620
309.9684, 21.11410
310.4505, 21.06382
310.9326, 20.81123
311.4148, 20.75321
311.8969, 21.15266
312.3790, 21.41302
312.8611, 21.34198
313.3432, 21.04799
313.8253, 20.66891
314.3075, 20.25573
314.7896, 19.87554
315.2717, 19.71089
315.7538, 20.04862
316.2359, 20.18631
316.7180, 20.05380
317.2001, 19.70123
317.6823, 19.12629
318.1644, 18.33455
318.6465, 17.45336
319.1286, 16.62836
319.6107, 15.67754
320.0928, 15.34751
320.5750, 15.84149
321.0571, 16.79052
321.5392, 18.24962
322.0213, 20.05663
322.5034, 21.49508
322.9855, 21.79134
323.4677, 20.76007
323.9498, 19.79244
324.4319, 18.90077
324.9140, 18.04758
325.3961, 16.97463
325.8782, 15.87897
326.3604, 15.37628
326.8425, 16.00124
327.3246, 17.60303
327.8067, 18.46079
328.2888, 18.14498
328.7709, 17.69316
329.2531, 17.23884
329.7352, 16.84280
330.2173, 16.57793
330.6994, 16.47998
331.1815, 16.52299
331.6636, 16.63956
332.1458, 17.26617
332.6279, 17.40446
333.1100, 16.44414
333.5921, 15.26864
334.0742, 14.88208
334.5563, 15.52523
335.0385, 16.49167
335.5206, 16.72101
336.0027, 15.74442
336.4848, 15.22450
336.9669, 15.57841
337.4490, 16.00599
337.9312, 15.85777
338.4133, 15.19345
338.8954, 14.61112
339.3775, 14.67453
339.8596, 15.43203
340.3417, 16.24787
340.8239, 17.58855
341.3060, 18.50552
341.7881, 18.38173
342.2702, 17.58527
342.7523, 16.84526
343.2344, 16.60456
343.7166, 16.79966
344.1987, 17.12797
344.6808, 17.95202
345.1629, 18.48756
345.6450, 18.55155
346.1271, 18.33306
346.6093, 17.97605
347.0914, 17.54914
347.5735, 17.14738
348.0556, 16.99628
348.5377, 17.46965
349.0198, 17.49396
349.5020, 16.72625
349.9841, 15.83033
350.4662, 15.18957
350.9483, 14.88428
351.4304, 14.84667
351.9125, 15.04312
352.3947, 15.52201
352.8768, 15.90944
353.3589, 16.20867
353.8410, 16.41440
354.3231, 16.59140
354.8052, 16.67028
355.2874, 16.45083
355.7695, 15.72361
356.2516, 14.66134
356.7337, 14.28020
357.2158, 15.38919
357.6979, 16.08895
358.1800, 15.88001
358.6621, 15.18343
359.1443, 14.38055
359.6264, 13.61734
360.1085, 12.99521
360.5906, 12.73366
361.0727, 12.99844
361.5548, 13.19606
362.0370, 12.88744
362.5191, 12.77869
363.0012, 13.60042
363.4833, 15.25889
363.9654, 16.77597
364.4475, 17.08720
364.9297, 16.11796
365.4118, 15.16721
365.8939, 13.86381
366.3760, 13.02915
366.8581, 13.34262
367.3402, 14.33837
367.8224, 15.05418
368.3045, 14.84613
368.7866, 14.03753
369.2687, 13.52029
369.7508, 13.21655
370.2329, 13.41758
370.7151, 14.73419
371.1972, 16.31659
371.6793, 17.37377
372.1614, 17.66652
372.6435, 17.43421
373.1256, 16.80706
373.6078, 15.74534
374.0899, 14.87066
374.5720, 14.25817
375.0541, 13.95234
375.5362, 14.17735
376.0183, 14.84901
376.5005, 15.28312
376.9826, 14.67214
377.4647, 13.41162
377.9468, 13.07425
378.4289, 14.11317
378.9110, 15.28106
379.3932, 15.82749
379.8753, 15.90273
380.3574, 15.71695
380.8395, 15.21655
381.3216, 14.59217
381.8037, 13.87775
382.2859, 13.05597
382.7680, 12.94036
383.2501, 14.48076
383.7322, 16.54533
384.2143, 17.30445
384.6964, 16.42990
385.1786, 15.28117
385.6607, 14.53484
386.1428, 14.10760
386.6249, 13.78772
387.1070, 13.54079
387.5891, 13.35493
388.0713, 13.13310
388.5534, 12.88448
389.0355, 13.00703
389.5176, 14.19389
389.9997, 15.40774
390.4818, 15.36235
390.9640, 14.07424
391.4461, 12.89434
391.9282, 12.79818
392.4103, 13.57788
392.8924, 13.98471
393.3745, 13.75209
393.8567, 13.47432
394.3388, 13.45255
394.8209, 13.54132
395.3030, 13.38075
395.7851, 12.79816
396.2672, 12.14636
396.7494, 12.09126
397.2315, 13.02576
397.7136, 13.62298
398.1957, 13.55941
398.6778, 13.32133
399.1599, 13.28807
399.6420, 13.50264
400.1241, 13.85689
400.6063, 14.31069
401.0884, 14.88318
401.5705, 14.91248
402.0526, 13.54845
402.5347, 12.65580
403.0168, 13.27029
403.4990, 14.64027
403.9811, 15.50469
404.4632, 15.25262
404.9453, 14.29592
405.4274, 13.58744
405.9095, 12.96317
406.3917, 12.93449
406.8738, 14.27377
407.3559, 15.59951
407.8380, 15.69648
408.3201, 14.58341
408.8022, 13.37688
409.2844, 13.26865
409.7665, 14.35532
410.2486, 15.00367
410.7307, 14.83309
411.2128, 14.60726
411.6949, 14.72283
412.1771, 14.89771
412.6592, 14.60437
413.1413, 13.51784
413.6234, 12.04566
414.1055, 11.04131
414.5876, 10.56144
415.0698, 10.37251
415.5519, 10.50599
416.0340, 10.85948
416.5161, 11.46977
416.9982, 12.31621
417.4803, 13.12823
417.9625, 13.78719
418.4446, 14.25755
418.9267, 14.22690
419.4088, 13.38113
419.8909, 12.56171
420.3730, 12.21533
420.8552, 12.28561
421.3373, 12.76851
421.8194, 14.10893
422.3015, 15.39879
422.7836, 15.25168
423.2657, 13.69011
423.7479, 12.53569
424.2300, 12.74470
424.7121, 13.54405
425.1942, 13.65702
425.6763, 12.95131
426.1584, 12.27133
426.6406, 11.94879
427.1227, 11.89418
427.6048, 11.97973
428.0869, 12.18861
428.5690, 12.49948
429.0511, 12.98662
429.5333, 13.62550
430.0154, 13.84301
430.4975, 13.22647
430.9796, 12.57474
431.4617, 12.39042
431.9438, 12.53393
432.4260, 12.58715
432.9081, 12.33645
433.3902, 11.95071
433.8723, 11.83397
434.3544, 12.17043
434.8365, 12.48473
435.3187, 12.97011
435.8008, 13.28979
436.2829, 12.97171
436.7650, 12.08687
437.2471, 11.27849
437.7292, 11.17570
438.2114, 11.79992
438.6935, 12.26716
439.1756, 12.74400
439.6577, 12.87051
440.1398, 12.10863
440.6219, 11.09011
441.1040, 10.75839
441.5862, 11.50737
442.0683, 12.72130
442.5504, 13.24207
443.0325, 12.81563
443.5146, 12.47904
443.9967, 12.43774
444.4789, 12.40866
444.9610, 12.13954
445.4431, 11.72123
445.9252, 11.51770
446.4073, 11.92713
446.8894, 12.74030
447.3716, 13.14286
447.8537, 13.04844
448.3358, 12.75408
448.8179, 12.01743
449.3000, 11.30965
449.7821, 11.29301
450.2643, 12.25133
450.7464, 13.19609
451.2285, 13.00331
451.7106, 11.96194
452.1927, 11.64672
452.6748, 12.66078
453.1570, 13.86244
453.6391, 14.01969
454.1212, 13.33815
454.6033, 12.61310
455.0854, 11.74260
455.5675, 11.11696
456.0497, 11.23705
456.5318, 11.99907
457.0139, 12.78145
457.4960, 13.31022
457.9781, 13.60681
458.4602, 13.70898
458.9424, 13.61524
459.4245, 13.37908
459.9066, 12.82509
460.3887, 12.23619
460.8708, 12.00377
461.3529, 12.13330
461.8351, 12.16020
462.3172, 11.55374
462.7993, 10.27120
463.2814, 9.838326
463.7635, 11.04945
464.2456, 12.13510
464.7278, 12.81454
465.2099, 13.05364
465.6920, 12.60113
466.1741, 11.39778
466.6562, 10.19756
467.1383, 10.51172
467.6205, 13.21284
468.1026, 14.70909
468.5847, 13.98492
469.0668, 12.82706
469.5489, 11.62936
470.0310, 10.63383
470.5132, 10.28824
470.9953, 11.06635
471.4774, 12.48465
471.9595, 13.31391
472.4416, 13.46811
472.9237, 13.34552
473.4059, 12.72992
473.8880, 12.11216
474.3701, 12.00981
474.8522, 12.49568
475.3343, 13.02769
475.8164, 13.41605
476.2986, 13.57494
476.7807, 13.12679
477.2628, 11.89410
477.7449, 10.80246
478.2270, 10.65153
478.7091, 11.24669
479.1913, 11.67379
479.6734, 11.67136
480.1555, 11.73266
480.6376, 12.33792
481.1197, 13.16693
481.6018, 13.45220
482.0839, 12.91602
482.5660, 12.12527
483.0482, 11.88818
483.5303, 12.42943
484.0124, 12.73340
484.4945, 12.76125
484.9766, 12.60533
485.4587, 12.24873
485.9409, 11.74849
486.4230, 11.18806
486.9051, 10.60176
487.3872, 10.05009
487.8693, 9.693340
488.3514, 9.428671
488.8336, 9.581277
489.3157, 10.65009
489.7978, 11.70125
490.2799, 12.02314
490.7620, 11.66929
491.2441, 11.22871
491.7263, 11.21729
492.2084, 11.50753
492.6905, 11.36473
493.1726, 10.40882
493.6547, 9.938266
494.1368, 11.32398
494.6190, 13.05944
495.1011, 13.40510
495.5832, 11.89909
496.0653, 10.29700
496.5474, 10.04842
497.0295, 10.76374
497.5117, 11.28004
497.9938, 11.41089
498.4759, 11.40889
498.9580, 11.41693
499.4401, 11.45734
499.9222, 11.62695
500.4044, 12.28247
500.8865, 12.70814
501.3686, 12.39481
501.8507, 11.60426
502.3328, 10.81788
502.8149, 10.19417
503.2971, 9.749918
503.7792, 9.497096
504.2613, 9.406343
504.7434, 9.669111
505.2255, 10.81784
505.7076, 11.75709
506.1898, 11.81232
506.6719, 11.27324
507.1540, 10.72682
507.6361, 10.46895
508.1182, 10.50001
508.6003, 10.95964
509.0825, 12.31252
509.5646, 12.84209
510.0467, 11.18604
510.5288, 9.689343
511.0109, 10.06133
511.4930, 11.85045
511.9752, 13.12246
512.4573, 12.33939
512.9394, 10.44500
513.4215, 9.731936
513.9036, 10.40756
514.3857, 10.89681
514.8679, 10.17062
515.3500, 9.294217
515.8321, 9.892727
516.3142, 12.22568
516.7963, 13.91517
517.2784, 13.70543
517.7606, 12.36481
518.2427, 10.55197
518.7248, 8.417508
519.2069, 7.079196
519.6890, 7.504290
520.1711, 9.248548
520.6533, 10.07064
521.1354, 9.175571
521.6175, 8.577931
522.0996, 8.944764
522.5817, 9.568059
523.0638, 9.660611
523.5460, 9.149015
524.0281, 8.548116
524.5102, 8.308825
524.9923, 8.431117
525.4744, 9.039730
525.9565, 11.01727
526.4387, 12.29473
526.9208, 11.81553
527.4029, 10.80588
527.8850, 10.78101
528.3671, 12.06076
528.8492, 13.24559
529.3314, 12.48296
529.8135, 10.04915
530.2956, 8.765362
530.7777, 9.214823
531.2598, 9.937280
531.7419, 9.892354
532.2241, 9.547143
532.7062, 9.726823
533.1883, 10.85841
533.6704, 11.96702
534.1525, 12.36970
534.6346, 12.25672
535.1168, 12.02231
535.5989, 11.73923
536.0810, 11.51793
536.5631, 11.51043
537.0452, 11.72993
537.5273, 11.73537
538.0095, 11.26559
538.4916, 10.89305
538.9737, 10.92278
539.4558, 11.15084
539.9379, 11.27265
540.4200, 11.18819
540.9022, 10.99156
541.3843, 10.76551
541.8664, 10.44477
542.3485, 10.47327
542.8306, 11.44496
543.3127, 12.11898
543.7948, 11.83478
544.2769, 11.08257
544.7590, 10.66372
545.2411, 10.90826
545.7233, 11.28306
546.2054, 10.86897
546.6875, 9.768581
547.1696, 9.704222
547.6517, 11.49156
548.1339, 13.29830
548.6160, 13.22354
549.0981, 11.89488
549.5802, 11.04156
550.0623, 11.36020
550.5444, 11.83735
551.0266, 11.72328
551.5087, 11.28373
551.9908, 11.25332
552.4729, 11.87686
552.9550, 12.47043
553.4371, 12.10052
553.9193, 10.50057
554.4014, 9.557917
554.8835, 9.467746
555.3656, 9.713196
555.8477, 10.39055
556.3298, 11.19127
556.8120, 11.64358
557.2941, 11.58926
557.7762, 11.35385
558.2583, 11.45471
558.7404, 11.96533
559.2225, 12.17783
559.7047, 11.85450
560.1868, 11.51014
560.6689, 11.39658
561.1510, 11.42309
561.6331, 11.45232
562.1152, 11.47272
562.5974, 11.40217
563.0795, 11.08099
563.5616, 10.59367
564.0437, 10.26827
564.5258, 10.19180
565.0079, 10.15780
565.4901, 9.853720
565.9722, 9.345419
566.4543, 9.510346
566.9364, 11.22556
567.4185, 12.60723
567.9006, 12.75657
568.3828, 12.20564
568.8649, 11.67146
569.3470, 11.36086
569.8291, 11.12410
570.3112, 10.80363
570.7933, 10.39710
571.2755, 9.911256
571.7576, 8.943800
572.2397, 8.424973
572.7218, 8.976937
573.2039, 9.874949
573.6860, 10.23869
574.1682, 9.862292
574.6503, 9.385633
575.1324, 9.489402
575.6145, 10.02257
576.0966, 10.25484
576.5787, 10.04403
577.0609, 9.946425
577.5430, 10.63032
578.0251, 11.54278
578.5072, 11.31399
578.9893, 9.272356
579.4714, 7.544815
579.9536, 7.021880
580.4357, 7.215424
580.9178, 7.661033
581.3999, 8.236996
581.8820, 8.800876
582.3641, 9.250504
582.8463, 9.589756
583.3284, 9.845425
583.8105, 9.986113
584.2926, 10.08323
584.7747, 10.36840
585.2568, 10.44686
585.7390, 9.710635
586.2211, 8.374072
586.7032, 7.464008
587.1853, 7.869710
587.6674, 9.110429
588.1495, 9.914181
588.6317, 10.24731
589.1138, 10.33331
589.5959, 10.08765
590.0780, 9.770238
590.5601, 9.729686
591.0422, 9.959990
591.5244, 10.08710
592.0065, 10.05447
592.4886, 9.825650
592.9707, 9.151082
593.4528, 8.221004
593.9349, 7.664046
594.4171, 7.770113
594.8992, 8.302560
595.3813, 8.878981
595.8634, 9.576427
596.3455, 10.08308
596.8276, 10.43627
597.3098, 10.59027
597.7919, 10.36781
598.2740, 9.974212
598.7561, 9.754567
599.2382, 9.854126
599.7203, 10.07297
600.2025, 10.07001
600.6846, 9.859371
601.1667, 10.06231
601.6488, 11.04654
602.1309, 11.83126
602.6130, 11.45951
603.0952, 10.44190
603.5773, 9.793767
604.0594, 9.720186
604.5415, 9.880137
605.0236, 10.23403
605.5057, 10.65834
605.9879, 10.98896
606.4700, 11.19036
606.9521, 11.25167
607.4342, 11.16256
607.9163, 10.92522
608.3984, 10.54430
608.8806, 9.779469
609.3627, 9.207066
609.8448, 8.741291
610.3269, 8.577707
610.8090, 9.120450
611.2911, 10.19012
611.7733, 11.00484
612.2554, 10.97019
612.7375, 10.36264
613.2196, 9.715968
613.7017, 8.994283
614.1838, 8.598870
614.6660, 8.721605
615.1481, 9.135066
615.6302, 9.852526
616.1123, 10.83397
616.5944, 10.97797
617.0765, 8.936580
617.5587, 7.051836
618.0408, 7.244406
618.5229, 8.763834
619.0050, 9.875379
619.4871, 9.973645
619.9692, 9.668523
620.4514, 9.807223
620.9335, 10.49714
621.4156, 10.81486
621.8977, 10.58634
622.3798, 10.16544
622.8619, 9.159166
623.3441, 8.249468
623.8262, 8.482956
624.3083, 10.06265
624.7904, 11.52873
625.2725, 11.40919
625.7546, 10.24863
626.2367, 9.577846
626.7188, 9.511232
627.2009, 9.428590
627.6830, 8.914779
628.1652, 8.253822
628.6473, 8.153185
629.1294, 8.778915
629.6115, 9.309248
630.0936, 9.603862
630.5757, 9.783068
631.0579, 10.01039
631.5400, 10.19703
632.0221, 10.04293
632.5042, 9.385660
632.9863, 8.543136
633.4684, 8.083736
633.9506, 8.024860
634.4327, 8.288917
634.9148, 9.244523
635.3969, 10.04583
635.8790, 10.22707
636.3611, 10.00248
636.8433, 9.715216
637.3254, 9.416044
637.8075, 9.179728
638.2896, 8.955160
638.7717, 8.861093
639.2538, 9.299645
639.7360, 10.29447
640.2181, 11.05178
640.7002, 10.92639
641.1823, 10.19812
641.6644, 10.01078
642.1465, 11.17869
642.6287, 11.76433
643.1108, 11.28687
643.5929, 10.61785
644.0750, 10.38316
644.5571, 10.47364
645.0392, 10.35279
645.5214, 9.641989
646.0035, 8.848847
646.4856, 9.043641
646.9677, 10.22027
647.4498, 10.77716
647.9319, 10.17449
648.4141, 9.444146
648.8962, 9.565815
649.3783, 10.27883
649.8604, 10.58986
650.3425, 10.19666
650.8246, 9.698682
651.3068, 9.239768
651.7889, 8.852819
652.2710, 8.528109
652.7531, 8.298564
653.2352, 8.334921
653.7173, 8.811142
654.1995, 9.591511
654.6816, 10.14087
655.1637, 10.51382
655.6458, 10.51865
656.1279, 9.363822
656.6100, 8.476169
657.0922, 9.013724
657.5743, 10.58031
658.0564, 11.74510
658.5385, 11.92145
659.0206, 11.54173
659.5027, 10.71932
659.9849, 9.676344
660.4670, 9.010607
660.9491, 8.860053
661.4312, 9.172545
661.9133, 10.03245
662.3954, 11.36227
662.8776, 12.03775
663.3597, 11.76953
663.8418, 11.20497
664.3239, 10.00157
664.8060, 8.823044
665.2881, 8.176401
665.7703, 8.076487
666.2524, 8.308075
666.7345, 8.841963
667.2166, 9.467718
667.6987, 9.747482
668.1808, 9.693117
668.6630, 9.794471
669.1451, 10.26883
669.6272, 10.67471
670.1093, 10.47598
670.5914, 9.739001
671.0735, 9.353571
671.5557, 9.891942
672.0378, 10.09937
672.5199, 8.947358
673.0020, 7.624664
673.4841, 7.640937
673.9662, 9.006030
674.4484, 10.48845
674.9305, 11.15181
675.4126, 11.20540
675.8947, 11.34122
676.3768, 11.59121
676.8589, 11.81586
677.3411, 12.30931
677.8232, 12.38769
678.3053, 11.12526
678.7874, 8.958660
679.2695, 7.497485
679.7516, 7.167966
680.2338, 7.554099
680.7159, 9.006147
681.1980, 10.78827
681.6801, 11.68793
682.1622, 11.53970
682.6443, 11.00101
683.1265, 10.55601
683.6086, 10.22962
684.0907, 10.18072
684.5728, 10.65835
685.0549, 10.86766
685.5370, 10.44617
686.0192, 9.953337
686.5013, 9.649094
686.9834, 9.537308
687.4655, 9.582895
687.9476, 9.843628
688.4297, 10.13023
688.9119, 10.42965
689.3940, 10.60233
689.8761, 10.12080
690.3582, 8.917239
690.8403, 7.940465
691.3224, 7.967067
691.8046, 8.779426
692.2867, 9.351003
692.7688, 9.603704
693.2509, 9.727400
693.7330, 9.615100
694.2151, 9.491813
694.6973, 9.433825
695.1794, 9.479176
695.6615, 9.742896
696.1436, 10.36880
696.6257, 10.89781
697.1078, 10.66213
697.5900, 9.898709
698.0721, 9.453991
698.5542, 9.461927
699.0363, 9.586215
699.5184, 9.624004
700.0005, 9.589360
700.4827, 9.526494
700.9648, 9.316469
701.4469, 9.278943
701.9290, 9.585773
702.4111, 9.908199
702.8932, 10.01986
703.3754, 10.00041
703.8575, 10.02018
704.3396, 10.14355
704.8217, 10.39571
705.3038, 10.93062
705.7859, 11.64566
706.2681, 12.02412
706.7502, 11.99542
707.2323, 11.81959
707.7144, 11.58578
708.1965, 11.34175
708.6786, 11.22060
709.1607, 11.32046
709.6428, 11.24979
710.1249, 10.84831
710.6071, 10.40285
711.0892, 10.01205
711.5713, 9.711144
712.0534, 9.548464
712.5355, 9.535990
713.0176, 9.605316
713.4998, 9.646450
713.9819, 9.693467
714.4640, 10.03644
714.9461, 10.76997
715.4282, 11.14626
715.9103, 10.59926
716.3925, 9.806932
716.8746, 9.946070
717.3567, 11.15677
717.8388, 11.93996
718.3209, 11.94771
718.8030, 11.74434
719.2852, 11.48470
719.7673, 11.22689
720.2494, 11.05926
720.7315, 10.98189
721.2136, 10.84444
721.6957, 10.42845
722.1779, 9.880198
722.6600, 9.820042
723.1421, 10.32776
723.6242, 10.62006
724.1063, 10.44804
724.5884, 10.01779
725.0706, 9.325648
725.5527, 8.436289
726.0348, 8.287243
726.5169, 9.636644
726.9990, 10.85969
727.4811, 11.48796
727.9633, 11.67219
728.4454, 11.47893
728.9275, 10.98839
729.4096, 10.34132
729.8917, 9.573222
730.3738, 8.866914
730.8560, 8.631876
731.3381, 8.877714
731.8202, 9.391245
732.3023, 10.39055
732.7844, 11.01309
733.2665, 10.21229
733.7487, 8.545959
734.2308, 8.170845
734.7129, 10.04968
735.1950, 11.38898
735.6771, 11.32022
736.1592, 10.76766
736.6414, 10.17737
737.1235, 9.751270
737.6056, 9.833517
738.0877, 10.59369
738.5698, 11.48998
739.0519, 11.70015
739.5341, 11.31291
740.0162, 11.22057
740.4983, 11.59028
740.9804, 11.60099
741.4625, 10.49432
741.9446, 9.103421
742.4268, 9.158759
742.9089, 11.02572
743.3910, 12.29439
743.8731, 12.77618
744.3552, 12.61330
744.8373, 11.16020
745.3195, 9.423643
745.8016, 8.910769
746.2837, 9.871926
746.7658, 11.14764
747.2479, 11.86116
747.7300, 12.04634
748.2122, 11.62210
748.6943, 10.57559
749.1764, 9.734977
749.6585, 9.344486
750.1406, 9.195827
750.6227, 9.039679
751.1049, 8.892428
751.5870, 9.167726
752.0691, 10.42442
752.5512, 11.31391
753.0333, 11.48902
753.5154, 11.29260
753.9976, 10.75563
754.4797, 10.10612
754.9618, 9.918148
755.4439, 10.59463
755.9260, 11.45780
756.4081, 11.53635
756.8903, 11.02157
757.3724, 10.72641
757.8545, 10.76167
758.3366, 10.77177
758.8187, 10.49296
759.3008, 10.10346
759.7830, 10.05765
760.2651, 10.53442
760.7472, 10.93917
761.2293, 11.39420
761.7114, 11.64631
762.1935, 11.49368
762.6757, 11.12297
763.1578, 10.70971
763.6399, 10.30998
764.1220, 10.11253
764.6041, 10.53781
765.0862, 11.08310
765.5684, 10.79753
766.0505, 9.873083
766.5326, 9.321621
767.0147, 9.473830
767.4968, 9.938995
767.9789, 10.31858
768.4611, 10.61261
768.9432, 10.79135
769.4253, 11.14709
769.9074, 10.87083
770.3895, 8.757647
770.8716, 6.945456
771.3538, 7.217248
771.8359, 9.039415
772.3180, 10.53627
772.8001, 11.10819
773.2822, 11.23016
773.7643, 11.11380
774.2465, 10.79866
774.7286, 10.22033
775.2107, 9.464206
775.6928, 8.869781
776.1749, 8.619050
776.6570, 8.680822
777.1392, 9.046629
777.6213, 9.769136
778.1034, 10.44298
778.5855, 11.16226
779.0676, 11.63724
779.5497, 11.52477
780.0319, 11.22247
780.5140, 11.33963
780.9961, 11.93799
781.4782, 12.16652
781.9603, 11.53192
782.4424, 10.78019
782.9246, 10.13851
783.4067, 9.744516
783.8888, 10.08908
784.3709, 11.04151
784.8530, 11.39551
785.3351, 9.934450
785.8173, 7.616723
786.2994, 7.027061
786.7815, 8.171446
787.2636, 8.856519
787.7457, 8.500284
788.2278, 8.253558
788.7100, 9.044322
789.1921, 10.62380
789.6742, 12.02775
790.1563, 13.60057
790.6384, 14.38708
791.1205, 13.89376
791.6026, 13.04732
792.0847, 12.27317
792.5668, 11.53796
793.0490, 10.50211
793.5311, 9.092173
794.0132, 8.273502
794.4953, 9.473157
794.9774, 11.47977
795.4595, 12.04840
795.9417, 11.34295
796.4238, 10.47489
796.9059, 9.776034
797.3880, 9.508874
797.8701, 10.04589
798.3522, 11.32304
798.8344, 12.24899
799.3165, 12.79976
799.7986, 13.05031
800.2807, 12.66813
800.7628, 12.29347
801.2449, 12.60161
801.7271, 13.20781
802.2092, 12.93233
802.6913, 10.95758
803.1734, 9.449197
803.6555, 9.865603
804.1376, 11.06872
804.6198, 12.15230
805.1019, 12.89144
805.5840, 12.95531
806.0661, 12.21029
806.5482, 11.21675
807.0303, 10.79541
807.5125, 10.85212
807.9946, 10.35784
808.4767, 9.127548
808.9588, 8.423814
809.4409, 8.874198
809.9230, 9.681529
810.4052, 9.935393
810.8873, 9.633671
811.3694, 9.537655
811.8515, 9.573130
812.3336, 9.909030
812.8157, 10.94330
813.2979, 11.98818
813.7800, 12.54162
814.2621, 12.61617
814.7442, 12.33126
815.2263, 11.65039
815.7084, 11.08167
816.1906, 11.43701
816.6727, 12.15792
817.1548, 11.87425
817.6369, 10.66905
818.1190, 9.883348
818.6011, 10.13973
819.0833, 10.77855
819.5654, 10.76571
820.0475, 10.05012
820.5296, 10.30978
821.0117, 12.46696
821.4938, 13.69257
821.9760, 12.29715
822.4581, 10.52769
822.9402, 10.43673
823.4223, 11.65580
823.9044, 12.36000
824.3865, 11.68652
824.8687, 11.23836
825.3508, 11.96501
825.8329, 12.95084
826.3150, 13.39678
826.7971, 13.28958
827.2792, 12.80507
827.7614, 12.01328
828.2435, 11.23621
828.7256, 10.83985
829.2077, 10.78668
829.6898, 11.05204
830.1719, 11.63034
830.6541, 11.91203
831.1362, 11.57886
831.6183, 11.22373
832.1004, 11.63691
832.5825, 12.79865
833.0646, 13.38958
833.5468, 13.21982
834.0289, 12.74956
834.5110, 11.58244
834.9931, 10.57592
835.4752, 10.31115
835.9573, 10.62941
836.4395, 11.12066
836.9216, 11.79547
837.4037, 12.24897
837.8858, 12.21982
838.3679, 11.90191
838.8500, 11.29984
839.3322, 10.60842
839.8143, 10.29242
840.2964, 10.49155
840.7785, 10.83533
841.2606, 10.91696
841.7427, 10.81109
842.2249, 10.85768
842.7070, 11.07096
843.1891, 11.02967
843.6712, 10.52064
844.1533, 10.11680
844.6354, 10.40434
845.1176, 11.19127
845.5997, 11.52806
846.0818, 11.00554
846.5639, 10.67484
847.0460, 10.83826
847.5281, 10.86047
848.0103, 9.979502
848.4924, 8.967809
848.9745, 9.209617
849.4566, 10.97317
849.9387, 12.40873
850.4208, 12.44762
850.9030, 11.84424
851.3851, 10.97573
851.8672, 10.08097
852.3493, 9.577429
852.8314, 9.530820
853.3135, 9.769533
853.7957, 10.23260
854.2778, 10.68195
854.7599, 10.29773
855.2420, 9.114861
855.7241, 9.162080
856.2062, 10.92808
856.6884, 12.56513
857.1705, 13.08527
857.6526, 12.86037
858.1347, 12.54329
858.6168, 12.13430
859.0989, 11.63131
859.5811, 10.81509
860.0632, 10.19017
860.5453, 9.890424
861.0274, 9.812797
861.5095, 9.923182
861.9916, 10.17678
862.4738, 10.43831
862.9559, 10.66859
863.4380, 10.88489
863.9201, 11.25020
864.4022, 11.50683
864.8843, 11.21718
865.3665, 10.52038
865.8486, 9.851857
866.3307, 9.406585
866.8128, 9.302265
867.2949, 9.841176
867.7770, 10.84267
868.2592, 11.57579
868.7413, 12.03973
869.2234, 12.04139
869.7055, 11.41362
870.1876, 10.82174
870.6697, 10.99819
871.1519, 11.71527
871.6340, 11.63121
872.1161, 9.884694
872.5981, 8.992478
873.0803, 10.00016
873.5624, 10.87276
874.0445, 10.62183
874.5266, 9.787847
875.0087, 9.098875
875.4908, 8.645354
875.9730, 8.400831
876.4551, 8.343137
876.9372, 8.508788
877.4193, 9.149278
877.9014, 9.901237
878.3835, 10.26027
878.8657, 10.21461
879.3478, 10.10242
879.8299, 10.12907
880.3120, 10.15818
880.7941, 9.834214
881.2762, 9.370242
881.7584, 9.684310
882.2405, 10.74821
882.7226, 11.22945
883.2047, 10.47326
883.6868, 9.378798
884.1689, 9.184285
884.6511, 9.859793
885.1332, 10.51835
885.6153, 11.30382
886.0974, 11.66159
886.5795, 11.33867
887.0616, 10.74347
887.5438, 9.934171
888.0259, 9.106583
888.5080, 8.902446
888.9901, 9.752440
889.4722, 10.22435
889.9543, 9.611617
890.4365, 9.121795
890.9186, 9.719226
891.4007, 10.65378
891.8828, 10.82336
892.3649, 10.12295
892.8470, 9.340892
893.3292, 8.675637
893.8113, 8.428290
894.2934, 9.393695
894.7755, 10.76257
895.2576, 10.91824
895.7397, 9.924003
896.2219, 9.087645
896.7040, 9.098905
897.1861, 9.489303
897.6682, 9.633363
898.1503, 9.543881
898.6324, 9.153263
899.1146, 8.401054
899.5967, 8.468180
900.0788, 9.966486
900.5609, 11.46683
901.0430, 11.46877
901.5251, 10.26892
902.0073, 9.750459
902.4894, 10.43153
902.9715, 10.72692
903.4536, 10.41375
903.9357, 9.867152
904.4178, 9.083617
904.9000, 8.256642
905.3821, 7.640192
905.8642, 7.258456
906.3463, 7.049037
906.8284, 7.133672
907.3105, 7.225065
907.7927, 7.112167
908.2748, 6.997590
908.7569, 7.129814
909.2390, 7.464033
909.7211, 7.778352
910.2032, 7.970682
910.6854, 8.137671
911.1675, 8.331217
911.6496, 8.579067
912.1317, 9.043738
912.6138, 9.607189
913.0959, 9.820696
913.5781, 9.569867
914.0602, 9.259741
914.5423, 9.323147
915.0244, 9.519563
915.5065, 8.886554
915.9886, 7.410741
916.4708, 6.987951
916.9529, 8.079729
917.4350, 8.897791
917.9171, 8.287394
918.3992, 7.168477
918.8813, 7.236624
919.3635, 8.727266
919.8456, 9.606354
920.3277, 9.732998
920.8098, 9.478716
921.2919, 8.421887
921.7740, 7.456578
922.2562, 7.252670
922.7383, 7.646029
923.2204, 8.184745
923.7025, 9.059362
924.1846, 9.446807
924.6667, 8.712652
925.1489, 7.886833
925.6310, 7.465799
926.1131, 7.407479
926.5952, 7.696655
927.0773, 8.264853
927.5594, 8.819423
928.0416, 9.208232
928.5237, 9.501119
929.0058, 9.863638
929.4879, 10.12147
929.9700, 9.918134
930.4521, 9.333341
930.9343, 8.759998
931.4164, 8.364458
931.8985, 7.988943
932.3806, 7.335270
932.8627, 6.603048
933.3448, 6.546669
933.8270, 7.102328
934.3091, 7.590068
934.7912, 7.868223
935.2733, 7.998478
935.7554, 8.053572
936.2375, 7.910993
936.7197, 7.105828
937.2018, 5.328866
937.6839, 4.716863
938.1660, 5.606049
938.6481, 6.861031
939.1302, 8.523283
939.6124, 9.906086
940.0945, 10.21169
940.5766, 9.545547
941.0587, 8.892570
941.5408, 8.142729
942.0229, 7.570239
942.5051, 7.005440
942.9872, 6.820637
943.4693, 7.652658
943.9514, 8.736253
944.4335, 8.839151
944.9156, 7.868371
945.3978, 7.353981
945.8799, 8.516593
946.3620, 9.408465
946.8441, 8.705126
947.3262, 7.489764
947.8083, 6.701345
948.2905, 6.423266
948.7726, 6.574260
949.2547, 7.131004
949.7368, 7.643995
950.2189, 7.674447
950.7010, 7.494007
951.1832, 7.511743
951.6653, 7.609481
952.1474, 7.397397
952.6295, 6.873168
953.1116, 6.486310
953.5938, 6.525497
954.0759, 6.848760
954.5580, 7.314238
955.0400, 7.868190
955.5222, 8.145856
956.0043, 8.148255
956.4864, 8.454013
956.9685, 9.308996
957.4506, 9.940110
957.9327, 9.486174
958.4149, 8.315092
958.8970, 8.099634
959.3791, 9.112457
959.8612, 9.724077
960.3433, 9.840423
960.8254, 9.455066
961.3076, 8.225108
961.7897, 6.919609
962.2718, 6.719588
962.7539, 7.657551
963.2360, 7.965674
963.7181, 7.011080
964.2003, 6.402861
964.6824, 6.586873
965.1645, 6.825253
965.6466, 6.501749
966.1287, 6.062086
966.6108, 6.482905
967.0930, 8.001029
967.5751, 8.743510
968.0572, 7.558963
968.5393, 6.484181
969.0214, 6.277259
969.5035, 6.571779
969.9857, 7.344260
970.4678, 8.262620
970.9499, 8.558147
971.4320, 7.907042
971.9141, 7.285285
972.3962, 7.180398
972.8784, 7.429382
973.3605, 8.322652
973.8426, 9.260010
974.3247, 9.176981
974.8068, 8.121750
975.2889, 6.991093
975.7711, 6.220718
976.2532, 5.870709
976.7353, 6.346953
977.2174, 7.116384
977.6995, 7.101666
978.1816, 6.477932
978.6638, 6.015066
979.1459, 5.920684
979.6280, 5.922245
980.1101, 5.768165
980.5922, 5.672086
981.0743, 6.295758
981.5565, 7.440429
982.0386, 7.722951
982.5207, 7.075328
983.0028, 6.777691
983.4849, 7.367335
983.9670, 8.016989
984.4492, 7.737089
984.9313, 6.826046
985.4134, 6.911499
985.8955, 8.266237
986.3776, 8.333033
986.8597, 6.395602
987.3419, 4.935928
987.8240, 5.257247
988.3061, 6.495860
988.7882, 7.543028
989.2703, 8.393843
989.7524, 8.733072
990.2346, 8.263036
990.7167, 7.950327
991.1988, 8.074510
991.6809, 8.144026
992.1630, 7.823145
992.6451, 7.302516
993.1273, 6.825734
993.6094, 6.319912
994.0915, 6.394458
994.5736, 8.085177
995.0557, 8.925105
995.5378, 7.447215
996.0200, 5.952772
996.5021, 6.337333
996.9842, 7.716522
997.4663, 8.135043
997.9484, 7.175127
998.4305, 6.475667
998.9127, 6.831661
999.3948, 7.044065
999.8769, 6.334330
1000.359, 5.467462
1000.841, 5.029049
1001.323, 5.082530
1001.805, 5.709074
1002.287, 7.040423
1002.770, 8.090755
1003.252, 8.209588
1003.734, 8.020698
1004.216, 7.812091
1004.698, 7.677831
1005.180, 7.831976
1005.662, 8.158846
1006.144, 8.200196
1006.627, 7.724482
1007.109, 7.186903
1007.591, 6.768790
1008.073, 6.652815
1008.555, 7.527507
1009.037, 8.697562
1009.519, 8.579877
1010.001, 7.180068
1010.483, 6.035210
1010.966, 6.086678
1011.448, 6.299747
1011.930, 4.956952
1012.412, 3.152413
1012.894, 3.325795
1013.376, 4.966749
1013.858, 6.121310
1014.340, 6.379379
1014.823, 6.629514
1015.305, 7.544419
1015.787, 8.510816
1016.269, 8.435050
1016.751, 7.551354
1017.233, 6.447747
1017.715, 5.291625
1018.197, 5.261014
1018.679, 6.661194
1019.162, 8.229636
1019.644, 8.999345
1020.126, 9.028735
1020.608, 8.121383
1021.090, 6.409884
1021.572, 5.874749
1022.054, 6.632330
1022.536, 7.065444
1023.018, 6.624242
1023.501, 6.007417
1023.983, 5.808645
1024.465, 5.973627
1024.947, 6.432123
1025.429, 7.240426
1025.911, 7.575379
1026.393, 7.292531
1026.875, 7.200896
1027.358, 7.653596
1027.840, 8.152379
1028.322, 8.236589
1028.804, 7.948645
1029.286, 7.388311
1029.768, 6.372460
1030.250, 5.867907
1030.732, 6.036414
1031.214, 6.350674
1031.697, 6.728910
1032.179, 6.995075
1032.661, 6.914915
1033.143, 6.580817
1033.625, 6.447237
1034.107, 6.458039
1034.589, 6.856079
1035.071, 8.050025
1035.553, 8.894481
1036.036, 8.965134
1036.518, 8.528171
1037.000, 7.625788
1037.482, 6.413312
1037.964, 5.807296
1038.446, 6.176140
1038.928, 6.434937
1039.410, 6.474409
1039.893, 6.550629
1040.375, 6.781799
1040.857, 7.061235
1041.339, 7.274084
1041.821, 7.439731
1042.303, 7.664580
1042.785, 8.047473
1043.267, 8.301984
1043.750, 8.277619
1044.232, 8.296154
1044.714, 8.817153
1045.196, 9.163386
1045.678, 8.294847
1046.160, 6.594027
1046.642, 5.953170
1047.124, 7.378543
1047.606, 7.981223
1048.089, 6.479159
1048.571, 5.201819
1049.053, 5.164064
1049.535, 5.722664
1050.017, 6.347063
1050.499, 6.977415
1050.981, 7.629838
1051.463, 8.479627
1051.945, 8.875025
1052.428, 8.307914
1052.910, 7.707107
1053.392, 7.420825
1053.874, 7.356995
1054.356, 7.428401
1054.838, 7.622110
1055.320, 8.025630
1055.802, 8.905858
1056.285, 9.121545
1056.767, 7.667470
1057.249, 6.298044
1057.731, 5.862285
1058.213, 5.932123
1058.695, 6.326080
1059.177, 6.786156
1059.659, 6.599407
1060.141, 5.335258
1060.624, 4.707316
1061.106, 5.910063
1061.588, 7.166065
1062.070, 7.653991
1062.552, 7.690207
1063.034, 7.508699
1063.516, 7.197078
1063.998, 6.863710
1064.480, 6.535865
1064.963, 6.166078
1065.445, 5.392802
1065.927, 4.991280
1066.409, 5.706031
1066.891, 6.704534
1067.373, 7.306046
1067.855, 7.475807
1068.337, 7.282860
1068.820, 6.723639
1069.302, 6.216426
1069.784, 5.751711
1070.266, 5.616849
1070.748, 6.195213
1071.230, 6.966751
1071.712, 7.625802
1072.194, 8.041394
1072.677, 7.947732
1073.159, 7.305686
1073.641, 6.862777
1074.123, 7.253090
1074.605, 7.526772
1075.087, 6.998247
1075.569, 6.329543
1076.051, 6.105926
1076.533, 6.176089
1077.016, 6.244605
1077.498, 6.231213
1077.980, 5.999547
1078.462, 5.152585
1078.944, 4.567389
1079.426, 4.728052
1079.908, 5.257965
1080.390, 6.112158
1080.872, 6.991999
1081.354, 7.414346
1081.837, 7.374667
1082.319, 7.463400
1082.801, 8.280293
1083.283, 8.525538
1083.765, 6.852979
1084.247, 5.156594
1084.729, 4.859053
1085.211, 5.380102
1085.694, 5.990634
1086.176, 6.529538
1086.658, 6.952983
1087.140, 7.324204
1087.622, 7.356687
1088.104, 6.594932
1088.586, 5.832166
1089.068, 5.322984
1089.551, 5.272962
1090.033, 6.244250
1090.515, 7.863532
1090.997, 8.865871
1091.479, 8.872529
1091.961, 8.463992
1092.443, 7.483319
1092.925, 6.601118
1093.407, 6.239117
1093.890, 6.090218
1094.372, 5.789089
1094.854, 5.452736
1095.336, 5.409066
1095.818, 5.724411
1096.300, 6.347476
1096.782, 8.208184
1097.264, 9.124314
1097.746, 7.219809
1098.229, 5.009857
1098.711, 4.467177
1099.193, 5.099478
1099.675, 5.986673
1100.157, 6.990172
1100.639, 7.296998
1101.121, 5.732057
1101.603, 4.836080
1102.086, 6.047981
1102.568, 7.322252
1103.050, 7.138195
1103.532, 6.373513
1104.014, 6.430174
1104.496, 7.302706
1104.978, 7.735491
1105.460, 7.252400
1105.943, 6.769506
1106.425, 6.453071
1106.907, 6.136078
1107.389, 5.472572
1107.871, 4.973379
1108.353, 5.395607
1108.835, 6.503758
1109.317, 7.151981
1109.799, 7.215062
1110.281, 6.918786
1110.764, 5.996556
1111.246, 5.091671
1111.728, 4.092964
1112.210, 3.444790
1112.692, 3.579380
1113.174, 4.317945
1113.656, 5.304448
1114.138, 6.726427
1114.621, 7.526749
1115.103, 7.463217
1115.585, 7.158180
1116.067, 6.516305
1116.549, 5.905446
1117.031, 5.481596
1117.513, 5.263471
1117.995, 5.329398
1118.478, 5.683234
1118.960, 5.923532
1119.442, 6.035246
1119.924, 6.051248
1120.406, 5.872013
1120.888, 5.830073
1121.370, 6.198452
1121.852, 6.561821
1122.334, 6.420077
1122.817, 5.860586
1123.299, 5.296523
1123.781, 4.574714
1124.263, 4.569583
1124.745, 5.556380
1125.227, 6.368044
1125.709, 6.706172
1126.191, 6.526385
1126.673, 5.628667
1127.156, 4.477967
1127.638, 4.233546
1128.120, 4.920735
1128.602, 5.979155
1129.084, 7.558252
1129.566, 7.667203
1130.048, 5.743542
1130.530, 3.765655
1131.013, 2.811555
1131.495, 2.803626
1131.977, 3.834176
1132.459, 5.596632
1132.941, 6.639901
1133.423, 6.984519
1133.905, 6.643220
1134.387, 5.663473
1134.870, 4.855251
1135.352, 4.537950
1135.834, 4.732122
1136.316, 5.605791
1136.798, 6.596351
1137.280, 6.261997
1137.762, 5.056529
1138.244, 4.596739
1138.726, 4.844386
1139.208, 5.226798
1139.691, 5.573466
1140.173, 5.806319
1140.655, 5.859444
1141.137, 5.962606
1141.619, 6.808785
1142.101, 7.638021
1142.583, 6.524501
1143.065, 4.514863
1143.548, 4.131426
1144.030, 5.306228
1144.512, 6.405761
1144.994, 6.788959
1145.476, 6.841554
1145.958, 6.696223
1146.440, 6.593262
1146.922, 6.791117
1147.405, 7.162110
1147.887, 7.893995
1148.369, 8.536896
1148.851, 8.185794
1149.333, 6.755976
1149.815, 4.867446
1150.297, 2.344698
1150.779, 0.6909941
1151.261, 1.375495
1151.744, 2.603505
1152.226, 3.002691
1152.708, 3.237879
1153.190, 4.476616
1153.672, 6.319025
1154.154, 7.242753
1154.636, 6.782714
1155.118, 6.336967
1155.600, 6.281628
1156.083, 6.353497
1156.565, 6.593053
1157.047, 6.794032
1157.529, 6.881003
1158.011, 6.802744
1158.493, 6.378258
1158.975, 5.613066
1159.457, 5.189510
1159.940, 5.432051
1160.422, 5.552803
1160.904, 5.500604
1161.386, 5.363558
1161.868, 5.184309
1162.350, 4.906500
1162.832, 4.373521
1163.314, 3.747811
1163.796, 3.535933
1164.279, 3.762055
1164.761, 4.339282
1165.243, 5.457126
1165.725, 6.231530
1166.207, 6.431584
1166.689, 6.488297
1167.171, 6.653047
1167.653, 6.803125
1168.135, 6.791961
1168.618, 6.593968
1169.100, 5.869880
1169.582, 4.639422
1170.064, 4.359686
1170.546, 5.133426
1171.028, 5.762784
1171.510, 5.850610
1171.992, 6.183610
1172.474, 7.507249
1172.957, 8.875490
1173.439, 8.457915
1173.921, 6.813308
1174.403, 5.241567
1174.885, 3.960812
1175.367, 3.754002
1175.849, 4.527875
1176.331, 5.261380
1176.814, 5.510123
1177.296, 5.642329
1177.778, 6.087807
1178.260, 6.443818
1178.742, 6.193789
1179.224, 5.600775
1179.706, 4.753421
1180.188, 3.960020
1180.671, 3.841886
1181.153, 4.403845
1181.635, 5.046402
1182.117, 5.573934
1182.599, 5.918252
1183.081, 5.921420
1183.563, 5.870523
1184.045, 6.062677
1184.527, 6.187371
1185.010, 5.620911
1185.492, 4.827177
1185.974, 5.044274
1186.456, 6.516240
1186.938, 7.486814
1187.420, 7.589563
1187.902, 7.297827
1188.384, 6.004217
1188.866, 5.178659
1189.349, 5.913716
1189.831, 6.967186
1190.313, 7.031575
1190.795, 6.341279
1191.277, 5.791911
1191.759, 5.337636
1192.241, 5.316432
1192.723, 5.983770
1193.206, 6.094636
1193.688, 5.214206
1194.170, 4.439072
1194.652, 4.389148
1195.134, 4.860914
1195.616, 5.621211
1196.098, 6.599574
1196.580, 7.788947
1197.063, 9.039203
1197.545, 8.428321
1198.027, 6.100035
1198.509, 4.809419
1198.991, 5.283851
1199.473, 6.061701
1199.955, 6.164133
1200.437, 5.870224
1200.919, 5.241050
1201.401, 4.675480
1201.884, 5.129255
1202.366, 6.044935
1202.848, 6.292304
1203.330, 5.948585
1203.812, 5.754903
1204.294, 5.891401
1204.776, 5.711733
1205.258, 4.589165
1205.741, 3.550022
1206.223, 3.135659
1206.705, 3.186183
1207.187, 3.976371
1207.669, 4.863959
1208.151, 4.970602
1208.633, 4.500399
1209.115, 4.319369
1209.598, 4.595212
1210.080, 5.010110
1210.562, 5.970582
1211.044, 6.395991
1211.526, 5.570700
1212.008, 4.786181
1212.490, 4.637079
1212.972, 4.824067
1213.454, 5.016182
1213.937, 5.236841
1214.419, 5.654922
1214.901, 6.402081
1215.383, 6.586343
1215.865, 6.056833
1216.347, 5.973632
1216.829, 6.680268
1217.311, 7.070450
1217.793, 6.459295
1218.276, 5.522853
1218.758, 5.149906
1219.240, 5.169653
1219.722, 5.056556
1220.204, 4.920305
1220.686, 5.391926
1221.168, 6.230060
1221.650, 6.282983
1222.133, 5.379117
1222.615, 4.267412
1223.097, 3.297360
1223.579, 2.892803
1224.061, 3.998572
1224.543, 5.257892
1225.025, 5.141821
1225.507, 4.578714
1225.990, 4.685755
1226.472, 5.249854
1226.954, 5.646445
1227.436, 5.778807
1227.918, 5.957636
1228.400, 6.538971
1228.882, 6.601445
1229.364, 5.045079
1229.846, 4.091000
1230.328, 5.484671
1230.811, 6.896013
1231.293, 6.215161
1231.775, 4.588914
1232.257, 4.194719
1232.739, 5.022422
1233.221, 5.535474
1233.703, 5.615518
1234.185, 5.966506
1234.668, 6.726107
1235.150, 7.284127
1235.632, 7.450923
1236.114, 7.258161
1236.596, 6.689917
1237.078, 5.981554
1237.560, 5.439606
1238.042, 5.128822
1238.525, 5.430564
1239.007, 6.111060
1239.489, 6.538499
1239.971, 6.594282
1240.453, 6.007523
1240.935, 4.839365
1241.417, 4.105704
1241.899, 4.542236
1242.381, 5.212721
1242.864, 5.486050
1243.346, 5.557757
1243.828, 5.410563
1244.310, 5.300832
1244.792, 5.773623
1245.274, 6.416425
1245.756, 6.028067
1246.238, 4.456660
1246.720, 3.912796
1247.203, 6.012265
1247.685, 7.068090
1248.167, 6.192263
1248.649, 5.182131
1249.131, 4.389102
1249.613, 3.950231
1250.095, 4.046396
1250.577, 4.469327
1251.059, 4.901433
1251.542, 5.288032
1252.024, 4.696390
1252.506, 3.138509
1252.988, 2.780650
1253.470, 3.770645
1253.952, 5.146792
1254.434, 6.531815
1254.916, 7.193853
1255.399, 6.551166
1255.881, 5.501885
1256.363, 5.111573
1256.845, 5.058188
1257.327, 4.873528
1257.809, 4.719980
1258.291, 4.874538
1258.773, 5.272532
1259.255, 5.845392
1259.738, 6.487956
1260.220, 6.703264
1260.702, 6.112356
1261.184, 5.648896
1261.666, 5.646657
1262.148, 5.779235
1262.630, 6.096239
1263.112, 6.314795
1263.594, 6.230349
1264.077, 5.922521
1264.559, 5.374275
1265.041, 4.684296
1265.523, 4.801885
1266.005, 5.935713
1266.487, 6.666220
1266.969, 6.947204
1267.451, 6.754738
1267.934, 6.062063
1268.416, 5.669325
1268.898, 6.040773
1269.380, 6.613506
1269.862, 6.789824
1270.344, 6.622621
1270.826, 6.114433
1271.308, 5.387874
1271.791, 4.455896
1272.273, 3.592122
1272.755, 3.359173
1273.237, 3.744549
1273.719, 4.425280
1274.201, 5.335826
1274.683, 5.803191
1275.165, 5.203061
1275.647, 4.574230
1276.130, 3.993671
1276.612, 3.858619
1277.094, 4.891072
1277.576, 6.063241
1278.058, 6.159622
1278.540, 5.590570
1279.022, 5.506379
1279.504, 5.949267
1279.986, 6.241200
1280.469, 6.322668
1280.951, 6.828413
1281.433, 7.900151
1281.915, 8.128702
1282.397, 6.999703
1282.879, 5.675583
1283.361, 5.021493
1283.843, 4.993679
1284.326, 5.543752
1284.808, 6.674889
##END=



