##NAMES=Harmotome
##RRUFFID=R070015
##IDEAL CHEMISTRY=Ba_2_(Si_12_Al_4_)O_32_&#183;12H_2_O
##LOCALITY=Old Kilpatrick, Dumbartonshire, Scotland
##OWNER=RRUFF
##SOURCE=Michael Scott
##DESCRIPTION=Colorless blocky crystals
##STATUS=The identification of this mineral has been confirmed by X-ray diffraction and chemical analysis
##URL=rruff.info/R070015
##MEASURED CHEMISTRY=(Ba_1.98_Ti_0.02_)_Σ=2_(Si_11.67_Al_4.33_)O_32_·12H_2_OK_0.16_Na_0.11_Ca_0.01_; H_2_O estimated by difference
127.5214, 2997.062
128.0035, 3124.211
128.4857, 3266.930
128.9678, 3418.055
129.4499, 3565.763
129.9320, 3710.663
130.4141, 3850.571
130.8962, 3983.083
131.3784, 4108.530
131.8605, 4225.523
132.3426, 4336.213
132.8247, 4438.623
133.3068, 4518.255
133.7889, 4573.823
134.2711, 4616.898
134.7532, 4662.895
135.2353, 4712.590
135.7174, 4749.529
136.1995, 4762.514
136.6816, 4750.705
137.1638, 4750.249
137.6459, 4763.563
138.1280, 4785.018
138.6101, 4805.104
139.0922, 4824.409
139.5743, 4841.134
140.0565, 4854.280
140.5386, 4863.046
141.0207, 4870.239
141.5028, 4872.437
141.9849, 4873.650
142.4670, 4889.141
142.9492, 4923.875
143.4313, 4965.732
143.9134, 5007.488
144.3955, 5051.216
144.8776, 5091.625
145.3597, 5128.035
145.8419, 5159.960
146.3240, 5191.968
146.8061, 5227.753
147.2882, 5260.831
147.7703, 5284.867
148.2524, 5289.588
148.7346, 5297.328
149.2167, 5314.365
149.6988, 5345.155
150.1809, 5365.847
150.6630, 5376.093
151.1452, 5376.542
151.6273, 5367.744
152.1094, 5335.717
152.5915, 5306.729
153.0736, 5290.118
153.5557, 5295.331
154.0379, 5293.127
154.5200, 5275.017
155.0021, 5247.465
155.4842, 5223.833
155.9663, 5213.486
156.4484, 5202.684
156.9306, 5184.106
157.4127, 5144.003
157.8948, 5113.488
158.3769, 5107.789
158.8590, 5119.958
159.3411, 5123.968
159.8233, 5101.696
160.3054, 5073.512
160.7875, 5053.997
161.2696, 5053.832
161.7517, 5056.961
162.2338, 5060.578
162.7160, 5064.093
163.1981, 5060.517
163.6802, 5037.767
164.1623, 5009.187
164.6444, 4988.991
165.1265, 4992.654
165.6087, 4998.700
166.0908, 4991.924
166.5729, 4970.838
167.0550, 4951.488
167.5371, 4945.612
168.0192, 4947.753
168.5014, 4949.088
168.9835, 4943.412
169.4656, 4936.349
169.9477, 4934.257
170.4298, 4939.204
170.9119, 4942.226
171.3941, 4929.347
171.8762, 4908.001
172.3583, 4896.583
172.8404, 4921.564
173.3225, 4956.829
173.8046, 4966.211
174.2868, 4936.827
174.7689, 4897.077
175.2510, 4873.613
175.7331, 4864.457
176.2152, 4860.757
176.6973, 4857.463
177.1795, 4855.398
177.6616, 4857.035
178.1437, 4866.250
178.6258, 4875.387
179.1079, 4871.961
179.5900, 4856.710
180.0722, 4839.558
180.5543, 4829.125
181.0364, 4823.069
181.5185, 4814.608
182.0006, 4799.599
182.4827, 4782.174
182.9649, 4769.233
183.4470, 4760.927
183.9291, 4756.279
184.4112, 4755.690
184.8933, 4758.539
185.3754, 4762.011
185.8576, 4769.951
186.3397, 4777.729
186.8218, 4767.944
187.3039, 4738.435
187.7860, 4702.792
188.2681, 4676.358
188.7503, 4658.813
189.2324, 4643.160
189.7145, 4626.489
190.1966, 4609.173
190.6787, 4593.506
191.1608, 4579.631
191.6430, 4567.161
192.1251, 4555.621
192.6072, 4545.086
193.0893, 4534.759
193.5714, 4525.544
194.0535, 4517.083
194.5357, 4504.051
195.0178, 4485.680
195.4999, 4463.705
195.9820, 4439.895
196.4641, 4413.802
196.9462, 4390.062
197.4284, 4371.069
197.9105, 4356.828
198.3926, 4347.906
198.8747, 4346.133
199.3568, 4348.395
199.8389, 4346.778
200.3211, 4341.575
200.8032, 4331.286
201.2853, 4314.860
201.7674, 4292.218
202.2495, 4262.750
202.7316, 4222.691
203.2138, 4176.620
203.6959, 4146.658
204.1780, 4136.751
204.6601, 4132.088
205.1422, 4119.833
205.6243, 4097.884
206.1065, 4079.010
206.5886, 4065.800
207.0707, 4057.855
207.5528, 4052.057
208.0349, 4050.898
208.5170, 4047.081
208.9992, 4031.488
209.4813, 3999.659
209.9634, 3971.100
210.4455, 3948.921
210.9276, 3933.316
211.4097, 3927.319
211.8919, 3936.346
212.3740, 3947.255
212.8561, 3944.569
213.3382, 3924.599
213.8203, 3901.116
214.3024, 3876.821
214.7846, 3851.666
215.2667, 3827.265
215.7488, 3802.072
216.2309, 3779.063
216.7130, 3762.612
217.1951, 3755.346
217.6773, 3748.732
218.1594, 3740.789
218.6415, 3731.836
219.1236, 3718.446
219.6057, 3697.200
220.0878, 3674.010
220.5700, 3660.340
221.0521, 3662.961
221.5342, 3661.608
222.0163, 3646.847
222.4984, 3612.038
222.9805, 3588.667
223.4627, 3580.099
223.9448, 3581.402
224.4269, 3584.041
224.9090, 3589.772
225.3911, 3593.845
225.8732, 3593.978
226.3554, 3588.143
226.8375, 3584.107
227.3196, 3583.282
227.8017, 3583.803
228.2838, 3581.087
228.7659, 3573.662
229.2481, 3565.318
229.7302, 3557.412
230.2123, 3549.004
230.6944, 3543.218
231.1765, 3540.388
231.6587, 3540.200
232.1408, 3542.861
232.6229, 3553.489
233.1050, 3559.672
233.5871, 3554.475
234.0692, 3531.191
234.5514, 3510.518
235.0335, 3493.012
235.5156, 3478.657
235.9977, 3466.783
236.4798, 3456.844
236.9619, 3449.958
237.4441, 3447.648
237.9262, 3454.870
238.4083, 3455.926
238.8904, 3446.977
239.3725, 3430.854
239.8546, 3420.764
240.3368, 3419.179
240.8189, 3420.453
241.3010, 3421.738
241.7831, 3424.433
242.2652, 3424.122
242.7473, 3419.326
243.2295, 3410.927
243.7116, 3404.035
244.1937, 3397.959
244.6758, 3394.187
245.1579, 3394.391
245.6400, 3402.270
246.1222, 3406.529
246.6043, 3406.554
247.0864, 3402.220
247.5685, 3391.529
248.0506, 3367.875
248.5327, 3346.585
249.0149, 3338.832
249.4970, 3350.733
249.9791, 3363.248
250.4612, 3375.467
250.9433, 3387.057
251.4254, 3395.415
251.9076, 3402.892
252.3897, 3404.035
252.8718, 3392.634
253.3539, 3359.776
253.8360, 3335.504
254.3181, 3325.248
254.8003, 3327.566
255.2824, 3329.593
255.7645, 3330.197
256.2466, 3332.112
256.7287, 3338.356
257.2108, 3352.508
257.6930, 3361.807
258.1751, 3362.658
258.6572, 3356.345
259.1393, 3354.710
259.6214, 3359.949
260.1035, 3366.527
260.5857, 3370.669
261.0678, 3373.071
261.5499, 3370.702
262.0320, 3360.740
262.5141, 3344.631
262.9962, 3336.088
263.4784, 3337.412
263.9605, 3342.345
264.4426, 3346.444
264.9247, 3349.987
265.4068, 3352.176
265.8889, 3354.195
266.3711, 3355.145
266.8532, 3345.625
267.3353, 3318.840
267.8174, 3294.937
268.2995, 3292.735
268.7816, 3318.702
269.2638, 3339.671
269.7459, 3350.086
270.2280, 3350.992
270.7101, 3347.689
271.1922, 3338.904
271.6743, 3328.861
272.1565, 3320.289
272.6386, 3312.600
273.1207, 3309.332
273.6028, 3312.321
274.0849, 3320.065
274.5670, 3325.106
275.0492, 3326.460
275.5313, 3327.950
276.0134, 3334.366
276.4955, 3346.706
276.9776, 3353.056
277.4597, 3349.148
277.9419, 3338.377
278.4240, 3334.797
278.9061, 3339.905
279.3882, 3345.892
279.8703, 3344.393
280.3524, 3335.077
280.8346, 3332.665
281.3167, 3341.654
281.7988, 3357.926
282.2809, 3370.204
282.7630, 3378.662
283.2451, 3381.917
283.7273, 3375.805
284.2094, 3361.056
284.6915, 3351.443
285.1736, 3351.267
285.6557, 3355.702
286.1378, 3351.127
286.6200, 3336.906
287.1021, 3323.514
287.5842, 3318.904
288.0663, 3322.335
288.5484, 3329.145
289.0305, 3340.608
289.5127, 3352.457
289.9948, 3355.295
290.4769, 3349.227
290.9590, 3341.364
291.4411, 3336.063
291.9232, 3333.055
292.4054, 3331.224
292.8875, 3330.554
293.3696, 3330.678
293.8517, 3331.846
294.3338, 3333.827
294.8159, 3334.275
295.2981, 3330.685
295.7802, 3324.313
296.2623, 3318.191
296.7444, 3312.346
297.2265, 3307.861
297.7086, 3306.664
298.1908, 3308.393
298.6729, 3311.118
299.1550, 3312.867
299.6371, 3314.954
300.1192, 3320.555
300.6013, 3331.053
301.0835, 3341.966
301.5656, 3348.282
302.0477, 3350.798
302.5298, 3351.937
303.0119, 3355.165
303.4940, 3357.073
303.9762, 3350.881
304.4583, 3333.506
304.9404, 3318.055
305.4225, 3318.759
305.9046, 3330.693
306.3867, 3342.524
306.8689, 3349.099
307.3510, 3352.394
307.8331, 3352.920
308.3152, 3350.015
308.7973, 3349.052
309.2794, 3355.887
309.7616, 3367.079
310.2437, 3376.803
310.7258, 3381.837
311.2079, 3384.735
311.6900, 3386.428
312.1721, 3386.663
312.6543, 3388.720
313.1364, 3397.233
313.6185, 3407.986
314.1006, 3415.202
314.5827, 3409.317
315.0648, 3405.354
315.5470, 3414.863
316.0291, 3439.067
316.5112, 3456.488
316.9933, 3450.235
317.4754, 3435.888
317.9576, 3429.530
318.4397, 3448.188
318.9218, 3463.903
319.4039, 3465.058
319.8860, 3451.523
320.3681, 3438.919
320.8503, 3428.342
321.3324, 3421.732
321.8145, 3420.619
322.2966, 3438.717
322.7787, 3448.153
323.2608, 3435.061
323.7430, 3402.445
324.2251, 3385.457
324.7072, 3403.839
325.1893, 3428.972
325.6714, 3443.564
326.1535, 3434.621
326.6357, 3428.808
327.1178, 3430.516
327.5999, 3437.963
328.0820, 3440.985
328.5641, 3436.020
329.0462, 3429.775
329.5284, 3425.513
330.0105, 3426.085
330.4926, 3424.027
330.9747, 3416.892
331.4568, 3407.167
331.9389, 3402.734
332.4211, 3407.682
332.9032, 3412.351
333.3853, 3412.588
333.8674, 3406.923
334.3495, 3400.607
334.8316, 3393.055
335.3138, 3385.149
335.7959, 3379.147
336.2780, 3376.324
336.7601, 3372.198
337.2422, 3363.777
337.7243, 3349.728
338.2065, 3342.451
338.6886, 3343.864
339.1707, 3348.969
339.6528, 3349.626
340.1349, 3344.551
340.6170, 3342.760
341.0992, 3350.003
341.5813, 3364.695
342.0634, 3368.198
342.5455, 3358.231
343.0276, 3345.109
343.5097, 3341.771
343.9919, 3347.851
344.4740, 3351.581
344.9561, 3349.794
345.4382, 3343.197
345.9203, 3331.248
346.4024, 3313.302
346.8846, 3298.931
347.3667, 3301.144
347.8488, 3315.330
348.3309, 3322.638
348.8130, 3315.313
349.2951, 3302.605
349.7773, 3299.913
350.2594, 3306.392
350.7415, 3314.606
351.2236, 3319.580
351.7057, 3322.666
352.1878, 3327.231
352.6700, 3335.863
353.1521, 3341.798
353.6342, 3333.278
354.1163, 3314.991
354.5984, 3301.956
355.0806, 3306.116
355.5627, 3318.073
356.0448, 3328.868
356.5269, 3337.364
357.0090, 3344.453
357.4911, 3351.729
357.9733, 3357.931
358.4554, 3360.801
358.9375, 3355.314
359.4196, 3349.222
359.9017, 3347.384
360.3839, 3350.552
360.8660, 3354.765
361.3481, 3359.447
361.8302, 3363.966
362.3123, 3367.617
362.7944, 3370.572
363.2766, 3372.277
363.7587, 3370.202
364.2408, 3364.397
364.7229, 3364.869
365.2050, 3384.033
365.6871, 3404.173
366.1693, 3412.721
366.6514, 3398.802
367.1335, 3384.024
367.6156, 3366.790
368.0977, 3348.782
368.5798, 3341.575
369.0620, 3354.370
369.5441, 3369.547
370.0262, 3378.544
370.5083, 3375.213
370.9904, 3376.240
371.4725, 3382.324
371.9547, 3392.740
372.4368, 3406.310
372.9189, 3425.896
373.4010, 3443.143
373.8831, 3453.825
374.3652, 3456.124
374.8474, 3461.585
375.3295, 3471.578
375.8116, 3482.969
376.2937, 3491.639
376.7758, 3497.365
377.2579, 3500.551
377.7401, 3498.964
378.2222, 3493.952
378.7043, 3499.458
379.1864, 3517.580
379.6685, 3536.951
380.1506, 3543.282
380.6328, 3538.023
381.1149, 3537.040
381.5970, 3545.302
382.0791, 3559.396
382.5612, 3572.587
383.0433, 3584.984
383.5255, 3596.484
384.0076, 3606.642
384.4897, 3615.894
384.9718, 3625.360
385.4539, 3634.485
385.9360, 3645.408
386.4182, 3663.896
386.9003, 3687.167
387.3824, 3706.015
387.8645, 3710.487
388.3466, 3710.448
388.8287, 3716.516
389.3109, 3730.192
389.7930, 3747.153
390.2751, 3766.722
390.7572, 3787.175
391.2393, 3805.771
391.7214, 3822.526
392.2036, 3836.443
392.6857, 3845.372
393.1678, 3849.249
393.6499, 3855.813
394.1320, 3866.467
394.6141, 3881.712
395.0963, 3901.883
395.5784, 3937.585
396.0605, 3966.994
396.5426, 3981.355
397.0247, 3983.650
397.5068, 3990.307
397.9890, 3999.354
398.4711, 4015.984
398.9532, 4043.421
399.4353, 4093.677
399.9174, 4134.980
400.3995, 4165.166
400.8817, 4186.771
401.3638, 4202.773
401.8459, 4203.389
402.3280, 4214.916
402.8101, 4249.642
403.2922, 4312.173
403.7744, 4364.099
404.2565, 4403.553
404.7386, 4435.254
405.2207, 4464.878
405.7028, 4492.124
406.1849, 4519.276
406.6671, 4547.538
407.1492, 4576.199
407.6313, 4598.462
408.1134, 4612.991
408.5955, 4632.440
409.0776, 4671.277
409.5598, 4725.758
410.0419, 4776.854
410.5240, 4821.846
411.0061, 4861.611
411.4882, 4892.219
411.9703, 4916.021
412.4525, 4946.655
412.9346, 4997.529
413.4167, 5058.120
413.8988, 5110.386
414.3809, 5150.940
414.8630, 5194.018
415.3452, 5257.963
415.8273, 5331.901
416.3094, 5395.858
416.7915, 5429.618
417.2736, 5460.056
417.7557, 5505.583
418.2379, 5565.914
418.7200, 5626.734
419.2021, 5681.389
419.6842, 5734.387
420.1663, 5790.068
420.6484, 5860.997
421.1306, 5920.259
421.6127, 5948.899
422.0948, 5958.413
422.5769, 5984.729
423.0590, 6052.620
423.5411, 6122.185
424.0233, 6178.509
424.5054, 6220.602
424.9875, 6249.712
425.4696, 6265.239
425.9517, 6267.853
426.4338, 6256.306
426.9160, 6218.750
427.3981, 6189.133
427.8802, 6180.339
428.3623, 6190.916
428.8444, 6180.770
429.3265, 6146.025
429.8087, 6099.215
430.2908, 6043.577
430.7729, 5976.648
431.2550, 5932.640
431.7371, 5924.908
432.2192, 5932.617
432.7014, 5903.596
433.1835, 5838.325
433.6656, 5773.924
434.1477, 5734.620
434.6298, 5714.038
435.1119, 5691.979
435.5941, 5666.905
436.0762, 5642.454
436.5583, 5620.184
437.0404, 5601.187
437.5225, 5588.138
438.0046, 5585.555
438.4868, 5587.181
438.9689, 5585.230
439.4510, 5580.546
439.9331, 5580.850
440.4152, 5591.253
440.8973, 5608.585
441.3795, 5630.146
441.8616, 5656.380
442.3437, 5685.040
442.8258, 5717.055
443.3079, 5750.667
443.7900, 5781.854
444.2722, 5800.837
444.7543, 5824.359
445.2364, 5860.629
445.7185, 5913.549
446.2006, 5964.390
446.6827, 6007.708
447.1649, 6050.904
447.6470, 6100.817
448.1291, 6161.006
448.6112, 6221.567
449.0933, 6279.703
449.5754, 6336.335
450.0576, 6400.906
450.5397, 6475.622
451.0218, 6554.091
451.5039, 6633.258
451.9860, 6713.560
452.4681, 6795.022
452.9503, 6877.324
453.4324, 6963.713
453.9145, 7064.566
454.3966, 7180.011
454.8787, 7291.939
455.3608, 7390.449
455.8430, 7481.188
456.3251, 7580.509
456.8072, 7687.971
457.2893, 7802.952
457.7714, 7926.314
458.2535, 8055.922
458.7357, 8184.839
459.2178, 8313.458
459.6999, 8439.906
460.1820, 8562.561
460.6641, 8683.701
461.1462, 8811.022
461.6284, 8956.310
462.1105, 9105.128
462.5926, 9248.529
463.0747, 9387.058
463.5568, 9519.688
464.0389, 9638.794
464.5211, 9754.026
465.0032, 9873.655
465.4853, 10010.51
465.9674, 10139.77
466.4495, 10249.83
466.9316, 10343.49
467.4138, 10448.31
467.8959, 10572.38
468.3780, 10698.98
468.8601, 10821.55
469.3422, 10944.63
469.8243, 11050.22
470.3065, 11131.15
470.7886, 11201.72
471.2707, 11284.46
471.7528, 11381.49
472.2349, 11482.06
472.7170, 11588.56
473.1992, 11696.65
473.6813, 11775.64
474.1634, 11822.05
474.6455, 11875.07
475.1276, 11981.99
475.6097, 12126.07
476.0919, 12245.49
476.5740, 12323.98
477.0561, 12388.12
477.5382, 12468.57
478.0203, 12561.11
478.5024, 12653.02
478.9846, 12730.77
479.4667, 12809.56
479.9488, 12905.48
480.4309, 13020.53
480.9130, 13132.81
481.3951, 13237.47
481.8773, 13329.79
482.3594, 13404.81
482.8415, 13441.54
483.3236, 13482.62
483.8057, 13556.21
484.2878, 13645.44
484.7700, 13691.14
485.2521, 13658.02
485.7342, 13607.38
486.2163, 13559.77
486.6984, 13519.38
487.1805, 13466.82
487.6627, 13410.95
488.1448, 13334.33
488.6269, 13213.43
489.1090, 13039.54
489.5911, 12852.72
490.0732, 12656.99
490.5554, 12454.88
491.0375, 12248.10
491.5196, 12034.76
492.0017, 11819.88
492.4838, 11603.87
492.9659, 11386.54
493.4481, 11159.18
493.9302, 10923.20
494.4123, 10677.79
494.8944, 10415.72
495.3765, 10145.27
495.8586, 9878.146
496.3408, 9619.298
496.8229, 9363.463
497.3050, 9096.414
497.7871, 8824.176
498.2692, 8565.239
498.7513, 8339.671
499.2335, 8126.753
499.7156, 7910.921
500.1977, 7684.758
500.6798, 7469.483
501.1619, 7267.139
501.6440, 7081.587
502.1262, 6915.937
502.6083, 6785.547
503.0904, 6658.894
503.5725, 6533.419
504.0546, 6407.560
504.5367, 6280.327
505.0189, 6145.912
505.5010, 6020.474
505.9831, 5913.962
506.4652, 5828.975
506.9473, 5750.910
507.4294, 5680.720
507.9116, 5613.874
508.3937, 5537.970
508.8758, 5454.262
509.3579, 5379.153
509.8400, 5320.899
510.3221, 5274.308
510.8043, 5231.850
511.2864, 5193.266
511.7685, 5150.769
512.2506, 5090.542
512.7327, 5026.303
513.2148, 4976.841
513.6970, 4948.651
514.1791, 4925.833
514.6612, 4897.479
515.1433, 4868.267
515.6254, 4845.200
516.1075, 4846.447
516.5897, 4838.944
517.0718, 4804.575
517.5539, 4743.903
518.0360, 4693.781
518.5181, 4657.788
519.0002, 4633.911
519.4824, 4623.130
519.9645, 4635.006
520.4466, 4639.281
520.9287, 4636.133
521.4108, 4625.226
521.8929, 4601.373
522.3751, 4559.390
522.8572, 4531.390
523.3393, 4533.728
523.8214, 4556.364
524.3035, 4556.507
524.7856, 4533.569
525.2678, 4505.603
525.7499, 4483.414
526.2320, 4466.933
526.7141, 4457.197
527.1962, 4455.384
527.6783, 4456.370
528.1605, 4457.232
528.6426, 4457.267
529.1247, 4455.220
529.6068, 4449.974
530.0889, 4443.010
530.5710, 4433.545
531.0532, 4422.448
531.5353, 4413.951
532.0174, 4417.041
532.4995, 4417.492
532.9816, 4406.305
533.4637, 4373.975
533.9459, 4349.219
534.4280, 4330.092
534.9101, 4320.212
535.3922, 4327.240
535.8743, 4365.705
536.3564, 4385.896
536.8386, 4373.659
537.3207, 4337.461
537.8028, 4310.598
538.2849, 4293.707
538.7670, 4283.330
539.2491, 4280.347
539.7313, 4282.890
540.2134, 4282.570
540.6955, 4279.224
541.1776, 4271.563
541.6597, 4251.174
542.1418, 4226.003
542.6240, 4213.990
543.1061, 4230.337
543.5882, 4248.715
544.0703, 4247.902
544.5524, 4232.167
545.0345, 4213.559
545.5167, 4192.592
545.9988, 4174.111
546.4809, 4160.948
546.9630, 4153.969
547.4451, 4148.878
547.9272, 4153.750
548.4094, 4154.761
548.8915, 4139.771
549.3736, 4089.054
549.8557, 4060.102
550.3378, 4067.392
550.8199, 4092.383
551.3021, 4089.426
551.7842, 4050.868
552.2663, 4021.209
552.7484, 4023.999
553.2305, 4050.242
553.7126, 4053.066
554.1948, 4031.491
554.6769, 4003.939
555.1590, 3980.567
555.6411, 3963.054
556.1232, 3957.173
556.6053, 3966.591
557.0875, 3977.835
557.5696, 3977.662
558.0517, 3971.411
558.5338, 3968.536
559.0159, 3982.248
559.4980, 3990.923
559.9802, 3981.915
560.4623, 3957.320
560.9444, 3934.778
561.4265, 3916.770
561.9086, 3902.264
562.3907, 3891.707
562.8729, 3887.206
563.3550, 3878.907
563.8371, 3862.773
564.3192, 3847.231
564.8013, 3843.131
565.2834, 3853.217
565.7656, 3859.953
566.2477, 3859.937
566.7298, 3854.976
567.2119, 3849.774
567.6940, 3844.081
568.1761, 3834.456
568.6583, 3810.970
569.1404, 3784.949
569.6225, 3779.566
570.1046, 3795.229
570.5867, 3811.738
571.0688, 3812.775
571.5510, 3807.682
572.0331, 3807.856
572.5152, 3823.705
572.9973, 3829.403
573.4794, 3804.121
573.9615, 3764.418
574.4437, 3738.714
574.9258, 3738.830
575.4079, 3744.713
575.8900, 3753.151
576.3721, 3764.169
576.8542, 3779.169
577.3364, 3804.877
577.8185, 3821.409
578.3006, 3812.333
578.7827, 3775.668
579.2648, 3751.494
579.7469, 3740.774
580.2291, 3739.990
580.7112, 3751.210
581.1933, 3770.196
581.6754, 3779.414
582.1575, 3769.746
582.6396, 3755.195
583.1218, 3751.242
583.6039, 3755.531
584.0860, 3761.389
584.5681, 3766.646
585.0502, 3771.576
585.5323, 3777.616
586.0145, 3784.735
586.4966, 3787.466
586.9787, 3778.484
587.4608, 3768.760
587.9429, 3766.005
588.4250, 3778.898
588.9072, 3781.391
589.3893, 3767.008
589.8714, 3747.547
590.3535, 3741.106
590.8356, 3751.351
591.3177, 3755.921
591.7999, 3746.563
592.2820, 3730.351
592.7641, 3727.765
593.2462, 3738.359
593.7283, 3751.388
594.2104, 3763.418
594.6926, 3772.640
595.1747, 3774.461
595.6568, 3768.655
596.1389, 3762.282
596.6210, 3761.675
597.1031, 3762.437
597.5853, 3759.525
598.0674, 3747.639
598.5495, 3739.741
599.0316, 3742.067
599.5137, 3750.146
599.9958, 3756.534
600.4780, 3761.256
600.9601, 3763.427
601.4423, 3762.548
601.9244, 3758.922
602.4065, 3751.672
602.8886, 3736.598
603.3707, 3730.927
603.8528, 3750.405
604.3350, 3791.608
604.8171, 3819.022
605.2992, 3831.985
605.7813, 3834.511
606.2634, 3825.545
606.7455, 3809.985
607.2277, 3797.506
607.7098, 3790.279
608.1919, 3787.009
608.6740, 3788.110
609.1561, 3792.364
609.6382, 3797.513
610.1204, 3802.259
610.6025, 3808.376
611.0846, 3818.903
611.5667, 3832.837
612.0488, 3839.881
612.5309, 3832.197
613.0131, 3826.730
613.4952, 3833.799
613.9773, 3857.589
614.4594, 3858.711
614.9415, 3829.613
615.4236, 3797.593
615.9058, 3794.305
616.3879, 3816.236
616.8700, 3828.451
617.3521, 3822.614
617.8342, 3813.098
618.3163, 3820.818
618.7985, 3839.780
619.2806, 3855.154
619.7627, 3860.582
620.2448, 3860.298
620.7269, 3852.177
621.2090, 3839.271
621.6912, 3834.930
622.1733, 3853.623
622.6554, 3873.244
623.1375, 3884.003
623.6196, 3884.602
624.1017, 3880.666
624.5839, 3868.747
625.0660, 3856.317
625.5481, 3848.945
626.0302, 3847.185
626.5123, 3846.902
626.9944, 3847.292
627.4766, 3850.139
627.9587, 3862.103
628.4408, 3880.746
628.9229, 3890.941
629.4050, 3884.289
629.8871, 3870.699
630.3693, 3859.365
630.8514, 3850.743
631.3335, 3846.362
631.8156, 3850.009
632.2977, 3855.744
632.7798, 3860.281
633.2620, 3863.430
633.7441, 3865.730
634.2262, 3863.220
634.7083, 3863.159
635.1904, 3870.943
635.6725, 3894.125
636.1547, 3904.731
636.6368, 3899.213
637.1189, 3886.144
637.6010, 3873.434
638.0831, 3860.950
638.5652, 3857.114
639.0474, 3867.103
639.5295, 3880.361
640.0116, 3874.983
640.4937, 3856.489
640.9758, 3844.281
641.4579, 3853.873
641.9401, 3869.635
642.4222, 3880.313
642.9043, 3885.841
643.3864, 3886.893
643.8685, 3875.145
644.3506, 3866.019
644.8328, 3870.710
645.3149, 3897.824
645.7970, 3908.055
646.2791, 3890.829
646.7612, 3867.970
647.2433, 3857.742
647.7255, 3862.148
648.2076, 3869.468
648.6897, 3880.803
649.1718, 3889.724
649.6539, 3880.935
650.1360, 3858.630
650.6182, 3846.194
651.1003, 3857.618
651.5824, 3875.020
652.0645, 3876.554
652.5466, 3866.195
653.0287, 3855.807
653.5109, 3849.089
653.9930, 3845.408
654.4751, 3845.656
654.9572, 3849.840
655.4393, 3852.369
655.9214, 3848.865
656.4036, 3846.877
656.8857, 3851.180
657.3678, 3864.792
657.8499, 3870.404
658.3320, 3865.781
658.8141, 3857.841
659.2963, 3852.611
659.7784, 3850.226
660.2605, 3853.948
660.7426, 3867.118
661.2247, 3878.235
661.7068, 3869.349
662.1890, 3847.606
662.6711, 3828.642
663.1532, 3816.964
663.6353, 3811.808
664.1174, 3815.188
664.5995, 3825.058
665.0817, 3834.712
665.5638, 3850.468
666.0459, 3857.254
666.5280, 3843.926
667.0101, 3810.543
667.4922, 3803.484
667.9744, 3834.442
668.4565, 3865.819
668.9386, 3871.905
669.4207, 3854.189
669.9028, 3841.549
670.3849, 3835.177
670.8671, 3831.334
671.3492, 3827.431
671.8313, 3823.159
672.3134, 3817.662
672.7955, 3809.969
673.2776, 3803.143
673.7598, 3794.009
674.2419, 3788.349
674.7240, 3794.637
675.2061, 3834.063
675.6882, 3863.739
676.1703, 3872.204
676.6525, 3865.093
677.1346, 3854.654
677.6167, 3836.436
678.0988, 3826.279
678.5809, 3832.481
679.0630, 3851.034
679.5452, 3861.673
680.0273, 3864.343
680.5094, 3862.955
680.9915, 3860.428
681.4736, 3855.466
681.9557, 3841.725
682.4379, 3818.659
682.9200, 3804.656
683.4021, 3824.293
683.8842, 3850.717
684.3663, 3858.884
684.8484, 3831.411
685.3306, 3815.983
685.8127, 3833.584
686.2948, 3859.052
686.7769, 3866.841
687.2590, 3848.697
687.7411, 3836.319
688.2233, 3834.301
688.7054, 3838.326
689.1875, 3841.177
689.6696, 3842.861
690.1517, 3843.225
690.6339, 3840.131
691.1160, 3837.926
691.5981, 3847.410
692.0802, 3864.013
692.5623, 3871.964
693.0444, 3853.594
693.5266, 3832.559
694.0087, 3823.574
694.4908, 3826.863
694.9729, 3827.188
695.4550, 3809.658
695.9371, 3801.761
696.4193, 3821.228
696.9014, 3875.440
697.3835, 3897.465
697.8656, 3879.456
698.3477, 3852.772
698.8298, 3846.391
699.3120, 3856.330
699.7941, 3865.519
700.2762, 3872.610
700.7583, 3874.847
701.2404, 3865.241
701.7225, 3850.279
702.2047, 3839.615
702.6868, 3838.213
703.1689, 3838.369
703.6510, 3836.125
704.1331, 3833.776
704.6152, 3835.460
705.0974, 3841.594
705.5795, 3851.670
706.0616, 3867.575
706.5437, 3886.660
707.0258, 3900.383
707.5079, 3907.993
707.9901, 3917.761
708.4722, 3937.207
708.9543, 3959.287
709.4364, 3966.918
709.9185, 3961.188
710.4006, 3950.420
710.8828, 3931.595
711.3649, 3915.614
711.8470, 3915.007
712.3291, 3930.830
712.8112, 3942.074
713.2933, 3931.409
713.7755, 3923.387
714.2576, 3934.482
714.7397, 3974.198
715.2218, 3996.339
715.7039, 3994.644
716.1860, 3987.154
716.6682, 3994.235
717.1503, 4014.051
717.6324, 4022.378
718.1145, 4014.754
718.5966, 4001.659
719.0787, 3987.975
719.5609, 3978.377
720.0430, 3982.219
720.5251, 4013.476
721.0072, 4041.169
721.4893, 4046.977
721.9714, 4039.635
722.4536, 4034.900
722.9357, 4036.531
723.4178, 4038.626
723.8999, 4039.402
724.3820, 4040.341
724.8641, 4047.622
725.3463, 4062.703
725.8284, 4074.012
726.3105, 4076.145
726.7926, 4072.219
727.2747, 4068.707
727.7568, 4065.564
728.2390, 4062.538
728.7211, 4060.466
729.2032, 4057.666
729.6853, 4049.143
730.1674, 4035.391
730.6495, 4032.379
731.1317, 4056.631
731.6138, 4082.210
732.0959, 4095.958
732.5780, 4096.028
733.0601, 4096.207
733.5422, 4097.815
734.0244, 4096.305
734.5065, 4084.879
734.9886, 4065.707
735.4707, 4053.946
735.9528, 4051.241
736.4349, 4052.276
736.9171, 4052.842
737.3992, 4053.579
737.8813, 4056.060
738.3634, 4062.924
738.8455, 4065.864
739.3276, 4056.618
739.8098, 4043.667
740.2919, 4038.218
740.7740, 4047.451
741.2561, 4051.690
741.7382, 4047.321
742.2203, 4039.362
742.7025, 4037.698
743.1846, 4042.348
743.6667, 4044.027
744.1488, 4038.081
744.6309, 4031.057
745.1130, 4034.861
745.5952, 4045.609
746.0773, 4052.808
746.5594, 4045.683
747.0415, 4039.292
747.5236, 4042.666
748.0057, 4053.771
748.4879, 4063.728
748.9700, 4076.370
749.4521, 4080.775
749.9342, 4070.241
750.4163, 4047.786
750.8984, 4035.428
751.3806, 4032.811
751.8627, 4042.300
752.3448, 4078.448
752.8269, 4124.858
753.3090, 4134.117
753.7911, 4109.781
754.2733, 4093.342
754.7554, 4126.612
755.2375, 4167.567
755.7196, 4179.411
756.2017, 4153.271
756.6838, 4141.908
757.1660, 4167.987
757.6481, 4198.662
758.1302, 4217.465
758.6123, 4222.601
759.0944, 4223.430
759.5765, 4218.472
760.0587, 4214.342
760.5408, 4216.999
761.0229, 4225.708
761.5050, 4239.678
761.9871, 4259.821
762.4692, 4278.718
762.9514, 4291.462
763.4335, 4299.230
763.9156, 4302.834
764.3977, 4298.928
764.8798, 4297.545
765.3619, 4305.522
765.8441, 4313.681
766.3262, 4310.454
766.8083, 4290.731
767.2904, 4278.088
767.7725, 4274.383
768.2546, 4280.579
768.7368, 4309.136
769.2189, 4350.917
769.7010, 4369.502
770.1831, 4343.773
770.6652, 4309.819
771.1473, 4294.891
771.6295, 4294.857
772.1116, 4302.038
772.5937, 4331.122
773.0758, 4346.978
773.5579, 4335.531
774.0400, 4307.639
774.5222, 4285.477
775.0043, 4268.751
775.4864, 4259.237
775.9685, 4259.109
776.4506, 4264.890
776.9327, 4270.816
777.4149, 4276.179
777.8970, 4277.392
778.3791, 4271.758
778.8612, 4261.888
779.3433, 4247.059
779.8254, 4229.364
780.3076, 4216.120
780.7897, 4215.086
781.2718, 4212.762
781.7539, 4202.254
782.2360, 4185.869
782.7181, 4181.629
783.2003, 4193.021
783.6824, 4203.583
784.1645, 4206.682
784.6466, 4202.921
785.1287, 4192.494
785.6108, 4176.048
786.0930, 4158.907
786.5751, 4138.253
787.0572, 4123.226
787.5393, 4128.273
788.0214, 4152.595
788.5035, 4161.435
788.9857, 4131.658
789.4678, 4098.342
789.9499, 4074.467
790.4320, 4059.921
790.9141, 4053.830
791.3962, 4057.523
791.8784, 4062.767
792.3605, 4064.866
792.8426, 4063.929
793.3247, 4059.903
793.8068, 4052.824
794.2889, 4044.088
794.7711, 4029.164
795.2532, 4016.839
795.7353, 4017.268
796.2174, 4036.014
796.6995, 4042.560
797.1816, 4023.380
797.6638, 4002.388
798.1459, 3994.510
798.6280, 4001.573
799.1101, 4007.567
799.5922, 4013.283
800.0743, 4013.112
800.5565, 3991.857
801.0386, 3963.402
801.5207, 3961.537
802.0028, 3993.408
802.4849, 4018.591
802.9670, 4005.987
803.4492, 3980.875
803.9313, 3963.971
804.4134, 3961.847
804.8955, 3959.282
805.3776, 3955.297
805.8597, 3952.030
806.3419, 3953.046
806.8240, 3958.235
807.3061, 3956.566
807.7882, 3946.616
808.2703, 3934.052
808.7524, 3919.359
809.2346, 3907.712
809.7167, 3908.792
810.1988, 3928.203
810.6809, 3946.817
811.1630, 3957.417
811.6451, 3963.117
812.1273, 3967.562
812.6094, 3976.950
813.0915, 3969.516
813.5736, 3937.821
814.0557, 3902.529
814.5378, 3886.910
815.0200, 3888.659
815.5021, 3898.424
815.9842, 3917.174
816.4663, 3930.863
816.9484, 3916.621
817.4305, 3893.572
817.9127, 3885.962
818.3948, 3909.063
818.8769, 3928.270
819.3590, 3938.732
819.8411, 3940.745
820.3232, 3932.106
820.8054, 3909.236
821.2875, 3892.488
821.7696, 3884.512
822.2517, 3880.172
822.7338, 3870.714
823.2159, 3859.910
823.6981, 3859.297
824.1802, 3875.124
824.6623, 3888.751
825.1444, 3879.596
825.6265, 3865.163
826.1086, 3864.785
826.5908, 3909.789
827.0729, 3925.559
827.5550, 3894.531
828.0371, 3853.254
828.5192, 3849.807
829.0013, 3884.330
829.4835, 3907.894
829.9656, 3912.984
830.4477, 3910.291
830.9298, 3907.055
831.4119, 3905.563
831.8940, 3910.797
832.3762, 3929.268
832.8583, 3941.912
833.3404, 3936.222
833.8225, 3924.338
834.3046, 3919.159
834.7867, 3922.269
835.2689, 3929.136
835.7510, 3941.746
836.2331, 3952.895
836.7152, 3951.511
837.1973, 3940.543
837.6794, 3929.568
838.1616, 3919.529
838.6437, 3913.664
839.1258, 3916.508
839.6079, 3924.148
840.0900, 3932.661
840.5721, 3944.219
841.0543, 3950.876
841.5364, 3953.806
842.0185, 3950.348
842.5006, 3932.746
842.9827, 3899.197
843.4648, 3885.714
843.9470, 3897.989
844.4291, 3918.520
844.9112, 3931.864
845.3933, 3939.494
845.8754, 3944.702
846.3575, 3949.815
846.8397, 3946.006
847.3218, 3913.766
847.8039, 3881.303
848.2860, 3875.846
848.7681, 3916.235
849.2502, 3928.504
849.7324, 3902.316
850.2145, 3873.914
850.6966, 3889.264
851.1787, 3934.385
851.6608, 3955.355
852.1429, 3944.690
852.6251, 3929.626
853.1072, 3931.075
853.5893, 3937.874
854.0714, 3938.783
854.5535, 3928.117
855.0356, 3925.456
855.5178, 3940.156
855.9999, 3952.620
856.4820, 3945.390
856.9641, 3918.094
857.4462, 3902.593
857.9283, 3900.181
858.4105, 3904.561
858.8926, 3914.800
859.3747, 3926.244
859.8568, 3931.937
860.3389, 3930.586
860.8210, 3931.801
861.3032, 3943.108
861.7853, 3954.472
862.2674, 3958.882
862.7495, 3954.900
863.2316, 3960.617
863.7137, 3978.846
864.1959, 3994.192
864.6780, 3993.961
865.1601, 3982.846
865.6422, 3968.004
866.1243, 3950.769
866.6064, 3941.879
867.0886, 3955.432
867.5707, 3973.417
868.0528, 3987.977
868.5349, 3998.153
869.0170, 3993.246
869.4991, 3963.150
869.9813, 3938.063
870.4634, 3934.167
870.9455, 3946.457
871.4276, 3953.145
871.9097, 3954.367
872.3918, 3952.112
872.8740, 3941.000
873.3561, 3932.188
873.8382, 3939.897
874.3203, 3960.562
874.8024, 3972.931
875.2845, 3960.119
875.7667, 3953.472
876.2488, 3963.978
876.7309, 3986.127
877.2130, 3998.382
877.6951, 4000.726
878.1772, 3993.254
878.6594, 3968.271
879.1415, 3941.762
879.6236, 3939.541
880.1057, 3952.988
880.5878, 3959.898
881.0699, 3939.281
881.5521, 3925.263
882.0342, 3934.386
882.5163, 3954.920
882.9984, 3960.769
883.4805, 3947.127
883.9626, 3947.249
884.4448, 3974.820
884.9269, 4007.855
885.4090, 4003.680
885.8911, 3978.306
886.3732, 3970.668
886.8553, 4011.279
887.3375, 4043.772
887.8196, 4035.738
888.3017, 4006.988
888.7838, 3984.376
889.2659, 3964.771
889.7480, 3963.951
890.2302, 3989.630
890.7123, 4018.912
891.1944, 4015.203
891.6765, 3989.764
892.1586, 3980.474
892.6407, 3997.067
893.1229, 4016.096
893.6050, 4024.732
894.0871, 4025.611
894.5692, 4019.577
895.0513, 3998.500
895.5334, 3993.254
896.0156, 4012.966
896.4977, 4032.282
896.9798, 4026.269
897.4619, 3999.886
897.9440, 3982.420
898.4261, 3975.359
898.9083, 3979.087
899.3904, 4004.843
899.8725, 4033.996
900.3546, 4049.758
900.8367, 4050.019
901.3188, 4046.215
901.8010, 4036.882
902.2831, 4028.429
902.7652, 4024.343
903.2473, 4023.867
903.7294, 4020.991
904.2115, 4015.809
904.6937, 4010.801
905.1758, 4007.832
905.6579, 4005.508
906.1400, 4001.253
906.6221, 3996.082
907.1042, 3994.466
907.5864, 3999.871
908.0685, 4006.538
908.5506, 4013.386
909.0327, 4020.414
909.5148, 4028.937
909.9969, 4038.949
910.4791, 4043.507
910.9612, 4037.732
911.4433, 4029.523
911.9254, 4031.244
912.4075, 4037.353
912.8896, 4037.301
913.3718, 4016.703
913.8539, 4003.734
914.3360, 4004.429
914.8181, 4013.951
915.3002, 4029.175
915.7823, 4051.420
916.2645, 4062.652
916.7466, 4059.051
917.2287, 4050.861
917.7108, 4046.450
918.1929, 4046.288
918.6750, 4051.846
919.1572, 4064.858
919.6393, 4078.116
920.1214, 4092.897
920.6035, 4103.895
921.0856, 4106.861
921.5677, 4100.574
922.0499, 4097.079
922.5320, 4097.413
923.0141, 4092.671
923.4962, 4068.259
923.9783, 4038.002
924.4604, 4021.017
924.9426, 4018.240
925.4247, 4025.649
925.9068, 4060.895
926.3889, 4085.678
926.8710, 4077.341
927.3531, 4042.219
927.8353, 4030.888
928.3174, 4045.845
928.7995, 4061.125
929.2816, 4063.248
929.7637, 4060.842
930.2459, 4067.904
930.7280, 4082.018
931.2101, 4096.090
931.6923, 4118.395
932.1744, 4127.349
932.6565, 4104.229
933.1386, 4069.222
933.6207, 4057.194
934.1028, 4072.576
934.5850, 4079.437
935.0671, 4069.693
935.5492, 4054.744
936.0313, 4043.022
936.5134, 4038.385
936.9955, 4049.850
937.4777, 4086.865
937.9598, 4117.948
938.4419, 4134.330
938.9240, 4138.510
939.4061, 4130.222
939.8882, 4106.185
940.3704, 4088.276
940.8525, 4076.184
941.3346, 4071.491
941.8167, 4078.986
942.2988, 4092.811
942.7809, 4108.041
943.2631, 4123.534
943.7452, 4130.068
944.2273, 4112.908
944.7094, 4097.847
945.1915, 4094.866
945.6736, 4102.599
946.1558, 4114.452
946.6379, 4130.869
947.1200, 4141.694
947.6021, 4140.829
948.0842, 4134.094
948.5663, 4125.533
949.0485, 4117.497
949.5306, 4115.285
950.0127, 4132.838
950.4948, 4139.993
950.9769, 4120.087
951.4590, 4095.727
951.9412, 4106.290
952.4233, 4153.042
952.9054, 4177.042
953.3875, 4167.048
953.8696, 4146.053
954.3517, 4134.616
954.8339, 4127.995
955.3160, 4118.816
955.7981, 4102.690
956.2802, 4097.600
956.7623, 4114.541
957.2444, 4133.786
957.7266, 4142.917
958.2087, 4142.701
958.6908, 4151.845
959.1729, 4170.173
959.6550, 4182.932
960.1371, 4172.844
960.6193, 4158.404
961.1014, 4157.666
961.5835, 4168.783
962.0656, 4179.179
962.5477, 4185.450
963.0298, 4192.864
963.5120, 4203.975
963.9941, 4215.767
964.4762, 4219.107
964.9583, 4215.505
965.4404, 4215.431
965.9225, 4225.288
966.4047, 4232.261
966.8868, 4218.651
967.3689, 4199.482
967.8510, 4194.612
968.3331, 4219.461
968.8152, 4234.911
969.2974, 4239.375
969.7795, 4238.284
970.2616, 4237.372
970.7437, 4235.211
971.2258, 4222.333
971.7079, 4198.598
972.1901, 4183.683
972.6722, 4196.005
973.1543, 4216.438
973.6364, 4234.840
974.1185, 4250.555
974.6006, 4260.659
975.0828, 4263.450
975.5649, 4266.723
976.0470, 4274.556
976.5291, 4283.697
977.0112, 4287.823
977.4933, 4287.881
977.9755, 4286.342
978.4576, 4280.760
978.9397, 4277.993
979.4218, 4281.975
979.9039, 4289.362
980.3860, 4293.962
980.8682, 4293.306
981.3503, 4310.269
981.8324, 4351.636
982.3145, 4386.771
982.7966, 4373.242
983.2787, 4337.490
983.7609, 4315.461
984.2430, 4311.605
984.7251, 4323.563
985.2072, 4372.912
985.6893, 4414.666
986.1714, 4427.401
986.6536, 4414.791
987.1357, 4404.506
987.6178, 4396.755
988.0999, 4394.901
988.5820, 4407.988
989.0641, 4421.190
989.5463, 4418.710
990.0284, 4405.717
990.5105, 4393.834
990.9926, 4381.214
991.4747, 4377.344
991.9568, 4386.476
992.4390, 4399.605
992.9211, 4399.652
993.4032, 4391.688
993.8853, 4401.191
994.3674, 4435.297
994.8495, 4462.713
995.3317, 4454.381
995.8138, 4436.897
996.2959, 4431.733
996.7780, 4441.196
997.2601, 4451.256
997.7422, 4462.986
998.2244, 4471.512
998.7065, 4473.948
999.1886, 4471.567
999.6707, 4462.955
1000.153, 4451.286
1000.635, 4447.672
1001.117, 4464.942
1001.599, 4481.658
1002.081, 4489.532
1002.563, 4493.257
1003.046, 4501.672
1003.528, 4515.789
1004.010, 4517.537
1004.492, 4501.263
1004.974, 4487.016
1005.456, 4505.097
1005.938, 4532.562
1006.420, 4540.587
1006.902, 4521.491
1007.385, 4501.947
1007.867, 4477.725
1008.349, 4465.360
1008.831, 4478.291
1009.313, 4509.979
1009.795, 4525.103
1010.277, 4525.583
1010.759, 4524.964
1011.242, 4530.203
1011.724, 4537.046
1012.206, 4548.593
1012.688, 4558.676
1013.170, 4550.389
1013.652, 4508.919
1014.134, 4498.003
1014.616, 4532.583
1015.098, 4576.976
1015.581, 4585.167
1016.063, 4569.988
1016.545, 4550.600
1017.027, 4527.647
1017.509, 4523.576
1017.991, 4573.244
1018.473, 4618.115
1018.955, 4627.348
1019.438, 4604.387
1019.920, 4580.021
1020.402, 4554.386
1020.884, 4537.833
1021.366, 4538.192
1021.848, 4547.618
1022.330, 4563.054
1022.812, 4580.997
1023.294, 4594.229
1023.777, 4601.377
1024.259, 4602.948
1024.741, 4596.834
1025.223, 4588.981
1025.705, 4584.512
1026.187, 4584.194
1026.669, 4592.881
1027.151, 4611.218
1027.633, 4627.423
1028.116, 4636.401
1028.598, 4639.141
1029.080, 4630.983
1029.562, 4615.067
1030.044, 4621.361
1030.526, 4653.770
1031.008, 4675.533
1031.490, 4667.824
1031.973, 4648.914
1032.455, 4641.070
1032.937, 4640.644
1033.419, 4641.208
1033.901, 4634.770
1034.383, 4639.985
1034.865, 4664.183
1035.347, 4691.359
1035.829, 4708.303
1036.312, 4715.135
1036.794, 4710.011
1037.276, 4693.608
1037.758, 4682.700
1038.240, 4698.051
1038.722, 4714.126
1039.204, 4711.359
1039.686, 4693.487
1040.168, 4683.543
1040.651, 4682.256
1041.133, 4686.036
1041.615, 4695.743
1042.097, 4705.997
1042.579, 4707.915
1043.061, 4705.183
1043.543, 4704.252
1044.025, 4707.821
1044.508, 4709.953
1044.990, 4706.737
1045.472, 4705.266
1045.954, 4710.714
1046.436, 4722.521
1046.918, 4736.694
1047.400, 4752.301
1047.882, 4761.510
1048.365, 4752.747
1048.847, 4742.380
1049.329, 4743.361
1049.811, 4750.664
1050.293, 4749.192
1050.775, 4735.384
1051.257, 4725.349
1051.739, 4722.417
1052.221, 4720.306
1052.703, 4706.362
1053.186, 4690.045
1053.668, 4686.071
1054.150, 4697.189
1054.632, 4716.757
1055.114, 4757.791
1055.596, 4788.465
1056.078, 4793.455
1056.560, 4777.915
1057.043, 4759.482
1057.525, 4740.054
1058.007, 4733.114
1058.489, 4756.088
1058.971, 4776.811
1059.453, 4768.019
1059.935, 4748.198
1060.417, 4744.092
1060.900, 4760.647
1061.382, 4778.895
1061.864, 4799.973
1062.346, 4813.737
1062.828, 4799.849
1063.310, 4779.876
1063.792, 4788.080
1064.274, 4822.356
1064.756, 4849.709
1065.239, 4854.989
1065.721, 4859.434
1066.203, 4867.065
1066.685, 4877.040
1067.167, 4889.756
1067.649, 4903.776
1068.131, 4911.209
1068.613, 4907.399
1069.095, 4908.317
1069.578, 4932.740
1070.060, 4958.604
1070.542, 4966.079
1071.024, 4953.754
1071.506, 4953.493
1071.988, 4965.710
1072.470, 4984.985
1072.952, 5026.329
1073.435, 5056.980
1073.917, 5016.771
1074.399, 4940.892
1074.881, 4908.528
1075.363, 4968.780
1075.845, 5020.282
1076.327, 5055.711
1076.809, 5082.979
1077.292, 5112.401
1077.774, 5140.210
1078.256, 5154.269
1078.738, 5154.103
1079.220, 5155.704
1079.702, 5169.027
1080.184, 5183.553
1080.666, 5195.457
1081.148, 5204.823
1081.630, 5208.961
1082.113, 5208.593
1082.595, 5220.924
1083.077, 5257.974
1083.559, 5286.742
1084.041, 5258.039
1084.523, 5218.354
1085.005, 5223.349
1085.487, 5288.988
1085.970, 5331.154
1086.452, 5346.936
1086.934, 5351.900
1087.416, 5347.650
1087.898, 5343.809
1088.380, 5363.716
1088.862, 5396.924
1089.344, 5415.472
1089.827, 5393.008
1090.309, 5379.296
1090.791, 5381.709
1091.273, 5392.028
1091.755, 5400.511
1092.237, 5408.514
1092.719, 5427.404
1093.201, 5457.036
1093.683, 5468.458
1094.166, 5417.178
1094.648, 5371.530
1095.130, 5374.372
1095.612, 5408.993
1096.094, 5422.000
1096.576, 5413.249
1097.058, 5410.154
1097.540, 5420.257
1098.023, 5436.522
1098.505, 5459.910
1098.987, 5480.856
1099.469, 5488.177
1099.951, 5478.262
1100.433, 5466.011
1100.915, 5449.651
1101.397, 5437.192
1101.880, 5430.076
1102.362, 5432.139
1102.844, 5460.409
1103.326, 5502.150
1103.808, 5528.274
1104.290, 5518.677
1104.772, 5505.294
1105.254, 5485.773
1105.736, 5472.187
1106.219, 5483.357
1106.701, 5511.284
1107.183, 5519.322
1107.665, 5508.003
1108.147, 5500.697
1108.629, 5518.370
1109.111, 5534.039
1109.593, 5534.230
1110.075, 5525.052
1110.558, 5518.407
1111.040, 5514.274
1111.522, 5508.434
1112.004, 5499.291
1112.486, 5493.349
1112.968, 5495.269
1113.450, 5503.688
1113.932, 5523.552
1114.415, 5554.593
1114.897, 5558.892
1115.379, 5531.750
1115.861, 5500.757
1116.343, 5472.875
1116.825, 5453.055
1117.307, 5453.149
1117.789, 5464.369
1118.271, 5472.788
1118.754, 5474.098
1119.236, 5474.539
1119.718, 5474.050
1120.200, 5473.474
1120.682, 5472.521
1121.164, 5472.154
1121.646, 5475.972
1122.128, 5482.980
1122.610, 5489.399
1123.093, 5507.872
1123.575, 5504.473
1124.057, 5458.335
1124.539, 5403.856
1125.021, 5387.058
1125.503, 5402.301
1125.985, 5418.769
1126.467, 5433.654
1126.950, 5439.693
1127.432, 5427.475
1127.914, 5409.547
1128.396, 5389.024
1128.878, 5369.418
1129.360, 5362.701
1129.842, 5369.098
1130.324, 5372.142
1130.807, 5367.708
1131.289, 5361.334
1131.771, 5356.875
1132.253, 5353.774
1132.735, 5352.875
1133.217, 5354.441
1133.699, 5347.259
1134.181, 5328.520
1134.663, 5317.824
1135.146, 5330.470
1135.628, 5344.402
1136.110, 5322.685
1136.592, 5284.612
1137.074, 5260.848
1137.556, 5268.202
1138.038, 5270.042
1138.520, 5265.486
1139.002, 5256.750
1139.485, 5241.727
1139.967, 5225.160
1140.449, 5218.403
1140.931, 5218.898
1141.413, 5217.961
1141.895, 5213.318
1142.377, 5204.803
1142.859, 5189.153
1143.342, 5174.906
1143.824, 5177.270
1144.306, 5189.116
1144.788, 5183.172
1145.270, 5158.701
1145.752, 5128.706
1146.234, 5088.631
1146.716, 5058.577
1147.198, 5049.256
1147.681, 5051.086
1148.163, 5041.006
1148.645, 5022.023
1149.127, 5023.538
1149.609, 5053.780
1150.091, 5076.547
1150.573, 5055.521
1151.055, 5028.813
1151.537, 5024.065
1152.020, 5036.546
1152.502, 5040.101
1152.984, 5034.756
1153.466, 5021.325
1153.948, 4995.149
1154.430, 4974.848
1154.912, 4992.080
1155.394, 5014.272
1155.877, 4998.681
1156.359, 4939.025
1156.841, 4910.288
1157.323, 4914.844
1157.805, 4929.357
1158.287, 4949.938
1158.769, 4964.184
1159.251, 4955.302
1159.734, 4931.325
1160.216, 4904.924
1160.698, 4871.064
1161.180, 4851.467
1161.662, 4847.551
1162.144, 4852.729
1162.626, 4871.620
1163.108, 4890.337
1163.590, 4884.706
1164.073, 4860.934
1164.555, 4839.976
1165.037, 4822.422
1165.519, 4817.119
1166.001, 4828.689
1166.483, 4842.381
1166.965, 4844.185
1167.447, 4835.574
1167.929, 4814.742
1168.412, 4783.515
1168.894, 4759.970
1169.376, 4750.241
1169.858, 4749.329
1170.340, 4759.615
1170.822, 4773.272
1171.304, 4780.454
1171.786, 4780.489
1172.269, 4770.610
1172.751, 4750.015
1173.233, 4726.180
1173.715, 4689.792
1174.197, 4666.040
1174.679, 4666.385
1175.161, 4682.098
1175.643, 4693.916
1176.125, 4701.609
1176.608, 4703.750
1177.090, 4697.408
1177.572, 4695.421
1178.054, 4719.002
1178.536, 4730.797
1179.018, 4702.549
1179.500, 4647.620
1179.982, 4638.418
1180.464, 4665.830
1180.947, 4684.893
1181.429, 4675.792
1181.911, 4659.755
1182.393, 4634.447
1182.875, 4617.409
1183.357, 4629.438
1183.839, 4667.743
1184.321, 4664.766
1184.804, 4626.250
1185.286, 4598.832
1185.768, 4628.301
1186.250, 4652.852
1186.732, 4628.832
1187.214, 4591.101
1187.696, 4581.143
1188.178, 4600.004
1188.661, 4609.045
1189.143, 4607.296
1189.625, 4600.965
1190.107, 4589.044
1190.589, 4579.162
1191.071, 4573.800
1191.553, 4575.006
1192.035, 4591.301
1192.517, 4624.560
1193.000, 4629.582
1193.482, 4601.190
1193.964, 4576.378
1194.446, 4594.609
1194.928, 4617.580
1195.410, 4613.410
1195.892, 4592.548
1196.374, 4590.484
1196.856, 4609.491
1197.339, 4608.340
1197.821, 4577.727
1198.303, 4548.100
1198.785, 4545.140
1199.267, 4555.506
1199.749, 4578.167
1200.231, 4606.427
1200.713, 4602.245
1201.196, 4562.305
1201.678, 4534.843
1202.160, 4533.216
1202.642, 4542.445
1203.124, 4557.951
1203.606, 4570.697
1204.088, 4568.245
1204.570, 4551.581
1205.052, 4545.837
1205.535, 4551.851
1206.017, 4559.459
1206.499, 4567.351
1206.981, 4569.758
1207.463, 4551.334
1207.945, 4530.184
1208.427, 4530.972
1208.909, 4556.343
1209.391, 4563.184
1209.874, 4549.971
1210.356, 4541.293
1210.838, 4551.336
1211.320, 4564.922
1211.802, 4566.200
1212.284, 4562.630
1212.766, 4565.798
1213.248, 4579.114
1213.731, 4577.203
1214.213, 4558.535
1214.695, 4544.504
1215.177, 4554.830
1215.659, 4566.868
1216.141, 4554.019
1216.623, 4531.379
1217.105, 4523.743
1217.588, 4536.708
1218.070, 4545.583
1218.552, 4550.348
1219.034, 4550.992
1219.516, 4542.351
1219.998, 4534.469
1220.480, 4540.258
1220.962, 4551.729
1221.444, 4551.219
1221.927, 4532.553
1222.409, 4536.134
1222.891, 4565.765
1223.373, 4587.307
1223.855, 4557.422
1224.337, 4525.394
1224.819, 4543.688
1225.301, 4588.256
1225.783, 4594.209
1226.266, 4552.269
1226.748, 4535.046
1227.230, 4550.061
1227.712, 4568.929
1228.194, 4568.163
1228.676, 4562.491
1229.158, 4561.114
1229.640, 4564.563
1230.123, 4573.643
1230.605, 4589.435
1231.087, 4600.689
1231.569, 4606.164
1232.051, 4604.945
1232.533, 4585.125
1233.015, 4568.379
1233.497, 4580.430
1233.979, 4607.884
1234.462, 4606.627
1234.944, 4575.559
1235.426, 4559.688
1235.908, 4567.541
1236.390, 4577.082
1236.872, 4565.332
1237.354, 4553.647
1237.836, 4561.978
1238.318, 4581.961
1238.801, 4588.930
1239.283, 4583.255
1239.765, 4572.874
1240.247, 4558.109
1240.729, 4547.895
1241.211, 4553.878
1241.693, 4561.306
1242.175, 4558.546
1242.658, 4550.057
1243.140, 4552.411
1243.622, 4564.579
1244.104, 4579.674
1244.586, 4597.233
1245.068, 4609.997
1245.550, 4608.642
1246.032, 4605.547
1246.515, 4609.169
1246.997, 4616.309
1247.479, 4609.696
1247.961, 4594.026
1248.443, 4596.373
1248.925, 4630.255
1249.407, 4655.784
1249.889, 4647.842
1250.371, 4631.037
1250.854, 4614.510
1251.336, 4600.291
1251.818, 4595.970
1252.300, 4600.124
1252.782, 4609.481
1253.264, 4627.732
1253.746, 4635.570
1254.228, 4617.595
1254.710, 4598.809
1255.193, 4589.296
1255.675, 4588.684
1256.157, 4599.755
1256.639, 4618.390
1257.121, 4635.162
1257.603, 4651.635
1258.085, 4653.108
1258.567, 4631.684
1259.050, 4606.786
1259.532, 4585.389
1260.014, 4570.547
1260.496, 4571.606
1260.978, 4584.603
1261.460, 4602.335
1261.942, 4628.845
1262.424, 4643.747
1262.906, 4643.414
1263.389, 4639.070
1263.871, 4635.415
1264.353, 4633.477
1264.835, 4636.421
1265.317, 4641.992
1265.799, 4647.750
1266.281, 4663.276
1266.763, 4641.579
1267.245, 4570.338
1267.728, 4524.096
1268.210, 4570.591
1268.692, 4640.451
1269.174, 4642.493
1269.656, 4610.299
1270.138, 4600.245
1270.620, 4623.172
1271.102, 4642.363
1271.585, 4658.361
1272.067, 4665.348
1272.549, 4654.173
1273.031, 4639.293
1273.513, 4627.961
1273.995, 4623.601
1274.477, 4631.661
1274.959, 4653.986
1275.442, 4673.491
1275.924, 4690.169
1276.406, 4699.150
1276.888, 4691.922
1277.370, 4682.937
1277.852, 4683.474
1278.334, 4684.375
1278.816, 4673.075
1279.298, 4650.108
1279.781, 4646.792
1280.263, 4660.629
1280.745, 4674.132
1281.227, 4678.129
1281.709, 4679.732
1282.191, 4681.334
1282.673, 4681.618
1283.155, 4679.681
1283.637, 4675.411
1284.120, 4663.965
1284.602, 4648.885
1285.084, 4644.625
1285.566, 4671.044
1286.048, 4688.862
1286.530, 4693.731
1287.012, 4688.146
1287.494, 4665.934
1287.977, 4638.394
1288.459, 4632.808
1288.941, 4644.136
1289.423, 4657.322
1289.905, 4670.187
1290.387, 4682.730
1290.869, 4697.727
1291.351, 4702.494
1291.833, 4674.157
1292.316, 4639.528
1292.798, 4634.565
1293.280, 4650.753
1293.762, 4670.005
1294.244, 4696.265
1294.726, 4701.493
1295.208, 4682.999
1295.690, 4665.291
1296.172, 4667.573
1296.655, 4675.877
1297.137, 4682.237
1297.619, 4685.511
1298.101, 4682.766
1298.583, 4672.506
1299.065, 4679.706
1299.547, 4703.292
1300.029, 4714.778
1300.512, 4679.005
1300.994, 4648.460
1301.476, 4653.586
1301.958, 4672.761
1302.440, 4690.033
1302.922, 4704.567
1303.404, 4709.800
1303.886, 4706.764
1304.369, 4701.552
1304.851, 4695.250
1305.333, 4689.049
1305.815, 4680.549
1306.297, 4676.432
1306.779, 4685.772
1307.261, 4702.736
1307.743, 4714.282
1308.225, 4720.943
1308.708, 4724.424
1309.190, 4718.189
1309.672, 4722.650
1310.154, 4741.577
1310.636, 4758.870
1311.118, 4765.692
1311.600, 4761.134
1312.082, 4732.851
1312.564, 4695.445
1313.047, 4680.574
1313.529, 4695.140
1314.011, 4709.391
1314.493, 4723.071
1314.975, 4733.691
1315.457, 4739.011
1315.939, 4741.116
1316.421, 4740.062
1316.904, 4737.398
1317.386, 4735.952
1317.868, 4735.705
1318.350, 4729.874
1318.832, 4718.413
##END=



