##NAMES=Hatchite
##RRUFFID=R100058
##IDEAL CHEMISTRY=Ag^1+^Pb^2+^Tl^1+^As^3+^_2_S^2-^_5_
##LOCALITY=Lengenbach quarry, Binnental, Canton Wallis, Switzerland
##OWNER=RRUFF
##SOURCE=William W Pinch
##DESCRIPTION=Black euhedral crystal embedded in white dolomite with red realgar
##STATUS=The identification of this mineral has been confirmed by single-crystal X-ray diffraction.
##URL=rruff.info/R100058
90.49219, 18.26503
90.97430, 18.16873
91.45642, 18.13510
91.93854, 18.20757
92.42065, 18.33024
92.90277, 18.49714
93.38489, 18.76103
93.86700, 18.83978
94.34912, 18.18492
94.83124, 16.92275
95.31335, 15.79616
95.79547, 15.35112
96.27759, 15.44829
96.75970, 15.48376
97.24182, 15.34206
97.72394, 15.14434
98.20605, 15.17863
98.68817, 15.46731
99.17029, 15.81126
99.65240, 16.10132
100.1345, 16.34425
100.6166, 16.43104
101.0988, 16.31482
101.5809, 16.01523
102.0630, 15.64688
102.5451, 15.10935
103.0272, 14.67530
103.5093, 14.71519
103.9915, 15.45022
104.4736, 16.08659
104.9557, 16.40315
105.4378, 16.35441
105.9199, 16.22136
106.4020, 15.89432
106.8842, 15.53567
107.3663, 15.45750
107.8484, 16.08110
108.3305, 16.49672
108.8126, 16.35351
109.2947, 15.12346
109.7769, 14.21278
110.2590, 13.81470
110.7411, 13.76785
111.2232, 13.58159
111.7053, 12.73320
112.1874, 12.10443
112.6696, 12.09904
113.1517, 13.80426
113.6338, 15.00521
114.1159, 15.21596
114.5980, 14.55430
115.0801, 13.87372
115.5623, 13.01707
116.0444, 12.39009
116.5265, 12.30646
117.0086, 13.49351
117.4907, 14.67196
117.9728, 15.46617
118.4550, 15.86157
118.9371, 15.78254
119.4192, 14.76572
119.9013, 13.34804
120.3834, 12.22979
120.8655, 11.69925
121.3477, 11.56532
121.8298, 11.84798
122.3119, 12.64534
122.7940, 13.29781
123.2761, 13.08511
123.7582, 12.35430
124.2404, 11.87828
124.7225, 12.24481
125.2046, 13.03670
125.6867, 13.76763
126.1688, 14.39773
126.6509, 14.89003
127.1331, 15.10729
127.6152, 15.10358
128.0973, 15.14777
128.5794, 15.40179
129.0615, 15.83973
129.5436, 16.37990
130.0258, 16.94609
130.5079, 17.67188
130.9900, 18.83712
131.4721, 20.43157
131.9542, 22.28460
132.4363, 24.16874
132.9185, 26.13312
133.4006, 28.54139
133.8827, 31.66264
134.3648, 35.25374
134.8469, 38.45782
135.3290, 41.10427
135.8112, 44.12940
136.2933, 48.77296
136.7754, 55.15033
137.2575, 61.62151
137.7396, 67.63125
138.2217, 73.09944
138.7039, 79.00362
139.1860, 85.51584
139.6681, 92.20871
140.1502, 98.50783
140.6323, 104.2039
141.1144, 110.0025
141.5966, 116.4091
142.0787, 123.7737
142.5608, 129.9559
143.0429, 134.6392
143.5250, 138.3125
144.0071, 142.0035
144.4893, 145.6521
144.9714, 149.3648
145.4535, 153.0627
145.9356, 156.3618
146.4177, 160.5043
146.8998, 165.6641
147.3820, 171.7036
147.8641, 178.3139
148.3462, 185.5936
148.8283, 193.2668
149.3104, 201.2834
149.7925, 209.7608
150.2747, 218.3766
150.7568, 226.9856
151.2389, 235.5968
151.7210, 244.3459
152.2031, 253.9881
152.6852, 263.2247
153.1674, 271.3528
153.6495, 278.2596
154.1316, 284.0557
154.6137, 288.3390
155.0958, 291.0830
155.5779, 294.0739
156.0601, 297.9342
156.5422, 301.9503
157.0243, 305.4663
157.5064, 307.9911
157.9885, 310.3555
158.4706, 312.6431
158.9528, 314.8078
159.4349, 317.4071
159.9170, 321.0129
160.3991, 325.0024
160.8812, 328.6556
161.3633, 330.8344
161.8455, 333.3787
162.3276, 337.2002
162.8097, 342.5027
163.2918, 348.2290
163.7739, 354.5305
164.2560, 360.4906
164.7382, 363.0298
165.2203, 362.9302
165.7024, 362.5552
166.1845, 362.7544
166.6666, 363.5656
167.1487, 365.1500
167.6309, 368.6099
168.1130, 372.9529
168.5951, 376.0135
169.0772, 375.7885
169.5593, 374.4485
170.0414, 373.8696
170.5236, 374.6084
171.0057, 375.5811
171.4878, 376.3412
171.9699, 376.7796
172.4520, 376.5434
172.9341, 375.1383
173.4163, 373.0717
173.8984, 370.7992
174.3805, 367.9974
174.8626, 365.6840
175.3447, 365.2724
175.8268, 366.3697
176.3090, 367.1706
176.7911, 366.0407
177.2732, 363.8804
177.7553, 362.1346
178.2374, 361.1827
178.7195, 360.7638
179.2017, 360.7477
179.6838, 361.0836
180.1659, 361.3034
180.6480, 360.6611
181.1301, 359.6184
181.6122, 359.3226
182.0944, 360.6269
182.5765, 362.4634
183.0586, 362.9535
183.5407, 362.1061
184.0228, 360.8436
184.5049, 359.6698
184.9871, 358.6802
185.4692, 358.3124
185.9513, 359.0758
186.4334, 360.4000
186.9155, 360.8771
187.3976, 360.4542
187.8798, 359.7914
188.3619, 359.6546
188.8440, 359.9379
189.3261, 359.9617
189.8082, 359.4423
190.2903, 358.4896
190.7725, 357.4498
191.2546, 356.2918
191.7367, 355.1369
192.2188, 354.0631
192.7009, 353.0641
193.1830, 352.2291
193.6652, 351.5790
194.1473, 351.1092
194.6294, 350.9206
195.1115, 351.0892
195.5936, 351.2845
196.0757, 350.9170
196.5579, 349.9571
197.0400, 349.2938
197.5221, 349.5201
198.0042, 350.5439
198.4863, 350.8310
198.9684, 350.1997
199.4506, 349.2351
199.9327, 348.8925
200.4148, 349.2516
200.8969, 349.4810
201.3790, 349.1241
201.8611, 348.1493
202.3433, 347.4778
202.8254, 347.0804
203.3075, 347.0174
203.7896, 347.5956
204.2717, 349.0031
204.7538, 350.0832
205.2360, 350.2116
205.7181, 349.2606
206.2002, 348.5308
206.6823, 348.0944
207.1644, 347.7890
207.6465, 347.3011
208.1287, 346.5926
208.6108, 345.8649
209.0929, 345.1070
209.5750, 344.2134
210.0571, 343.9586
210.5392, 344.5886
211.0214, 345.6452
211.5035, 346.1672
211.9856, 346.0426
212.4677, 345.7086
212.9498, 345.2301
213.4319, 344.4366
213.9141, 344.2888
214.3962, 344.9942
214.8783, 346.2191
215.3604, 347.2598
215.8425, 348.2357
216.3246, 348.7690
216.8067, 348.5604
217.2889, 347.2911
217.7710, 346.3642
218.2531, 345.8500
218.7352, 345.6533
219.2173, 345.5322
219.6994, 345.4274
220.1816, 345.5017
220.6637, 345.9517
221.1458, 347.1541
221.6279, 347.5953
222.1100, 346.9468
222.5921, 345.6589
223.0743, 344.9443
223.5564, 345.1752
224.0385, 345.3516
224.5206, 344.9232
225.0027, 343.4539
225.4848, 342.5584
225.9670, 342.3328
226.4491, 342.6803
226.9312, 343.4650
227.4133, 345.1071
227.8954, 346.4962
228.3775, 347.0207
228.8597, 346.2434
229.3418, 345.6548
229.8239, 345.1960
230.3060, 344.9361
230.7881, 345.1320
231.2702, 346.0290
231.7524, 346.9922
232.2345, 347.7307
232.7166, 348.1989
233.1987, 348.5493
233.6808, 348.7203
234.1629, 348.7896
234.6451, 349.0050
235.1272, 349.5840
235.6093, 349.9991
236.0914, 349.9711
236.5735, 349.1899
237.0556, 348.7210
237.5378, 348.7188
238.0199, 348.9989
238.5020, 349.0840
238.9841, 348.9029
239.4662, 348.6472
239.9483, 348.3581
240.4305, 347.8920
240.9126, 347.7569
241.3947, 348.1337
241.8768, 348.7774
242.3589, 349.0841
242.8410, 348.9265
243.3232, 348.6109
243.8053, 348.1569
244.2874, 347.1457
244.7695, 347.0778
245.2516, 348.5005
245.7337, 350.6486
246.2159, 351.7286
246.6980, 351.0343
247.1801, 350.3906
247.6622, 350.5850
248.1443, 352.0871
248.6264, 353.1251
249.1086, 353.6380
249.5907, 353.7328
250.0728, 353.5333
250.5549, 352.6482
251.0370, 352.1272
251.5191, 352.4570
252.0013, 353.9514
252.4834, 355.2481
252.9655, 356.4009
253.4476, 357.3051
253.9297, 357.7243
254.4118, 357.4854
254.8940, 357.0631
255.3761, 356.5599
255.8582, 355.8816
256.3403, 355.4865
256.8224, 355.3695
257.3046, 355.5411
257.7867, 356.1470
258.2688, 357.6282
258.7509, 358.6269
259.2330, 358.4921
259.7151, 356.9115
260.1973, 356.1295
260.6794, 356.4365
261.1615, 357.2833
261.6436, 357.9437
262.1257, 358.5234
262.6078, 358.6554
263.0900, 358.0247
263.5721, 356.4723
264.0542, 355.6713
264.5363, 355.7665
265.0184, 356.4193
265.5005, 357.2727
265.9827, 358.4027
266.4648, 359.4698
266.9469, 360.3271
267.4290, 360.9598
267.9111, 361.8623
268.3932, 363.3077
268.8754, 364.5821
269.3575, 364.6532
269.8396, 363.0634
270.3217, 361.9779
270.8038, 362.0609
271.2859, 363.2457
271.7681, 364.2215
272.2502, 365.0446
272.7323, 365.5501
273.2144, 365.3611
273.6965, 364.2651
274.1786, 363.6583
274.6608, 364.0140
275.1429, 365.1552
275.6250, 365.7021
276.1071, 365.4615
276.5892, 365.1840
277.0714, 365.6332
277.5535, 366.8999
278.0356, 368.0952
278.5177, 369.1145
278.9998, 369.9284
279.4819, 370.2630
279.9641, 369.9824
280.4462, 369.8195
280.9283, 370.5504
281.4104, 372.2115
281.8925, 373.4895
282.3746, 374.1786
282.8568, 374.3636
283.3389, 373.8701
283.8210, 372.5036
284.3031, 371.9421
284.7852, 374.2155
285.2673, 379.0601
285.7495, 381.9205
286.2316, 381.7505
286.7137, 380.0191
287.1958, 379.8765
287.6779, 381.3677
288.1600, 382.8922
288.6422, 383.2153
289.1243, 382.5584
289.6064, 382.5871
290.0885, 383.5701
290.5706, 384.9425
291.0527, 385.6922
291.5349, 385.8759
292.0170, 386.2881
292.4991, 387.5710
292.9812, 389.4761
293.4633, 391.0259
293.9454, 392.1422
294.4276, 393.0843
294.9097, 394.2713
295.3918, 395.6250
295.8739, 396.6981
296.3560, 397.2714
296.8381, 397.4023
297.3203, 396.9143
297.8024, 395.6973
298.2845, 394.8367
298.7666, 395.7667
299.2487, 398.0465
299.7308, 400.3613
300.2130, 402.4834
300.6951, 404.1935
301.1772, 404.9805
301.6593, 404.8490
302.1414, 404.5060
302.6235, 404.1716
303.1057, 404.0938
303.5878, 404.8498
304.0699, 407.6556
304.5520, 410.5854
305.0341, 410.8657
305.5162, 408.8071
305.9984, 407.0336
306.4805, 407.7411
306.9626, 409.8289
307.4447, 411.8047
307.9268, 413.4563
308.4089, 414.6319
308.8911, 415.0438
309.3732, 414.8071
309.8553, 414.4077
310.3374, 414.1566
310.8195, 413.8676
311.3016, 413.2176
311.7838, 411.7267
312.2659, 410.7560
312.7480, 411.4612
313.2301, 413.4085
313.7122, 415.5214
314.1943, 418.0447
314.6765, 420.1034
315.1586, 420.9030
315.6407, 419.9941
316.1228, 419.0381
316.6049, 418.5781
317.0870, 418.6237
317.5692, 419.1904
318.0513, 420.9953
318.5334, 422.7340
319.0155, 423.7816
319.4976, 424.0501
319.9797, 423.9046
320.4619, 422.6764
320.9440, 421.3574
321.4261, 421.0694
321.9082, 423.0500
322.3903, 425.1451
322.8724, 426.7654
323.3546, 427.8821
323.8367, 428.7506
324.3188, 429.2800
324.8009, 429.6677
325.2830, 430.0609
325.7651, 430.6301
326.2473, 431.0620
326.7294, 431.1143
327.2115, 430.8878
327.6936, 431.1378
328.1757, 432.3012
328.6578, 433.6691
329.1400, 434.8999
329.6221, 436.0234
330.1042, 436.9451
330.5863, 437.5727
331.0684, 437.9910
331.5505, 438.4610
332.0327, 439.2180
332.5148, 439.7369
332.9969, 439.7126
333.4790, 438.7416
333.9611, 438.3429
334.4432, 438.7534
334.9254, 439.5958
335.4075, 440.2490
335.8896, 440.7185
336.3717, 441.0031
336.8538, 441.1039
337.3359, 441.0252
337.8180, 440.6922
338.3001, 439.9302
338.7823, 439.1908
339.2644, 439.1468
339.7465, 440.0540
340.2286, 440.5360
340.7107, 440.2023
341.1928, 439.1453
341.6750, 438.0890
342.1571, 437.0590
342.6392, 435.8699
343.1213, 434.0757
343.6034, 431.6669
344.0855, 430.0750
344.5677, 429.7091
345.0498, 430.1248
345.5319, 430.3868
346.0140, 430.4995
346.4961, 430.3478
346.9782, 429.8770
347.4604, 429.0868
347.9425, 427.8747
348.4246, 426.0972
348.9067, 424.2870
349.3888, 423.3585
349.8709, 423.1625
350.3531, 422.8498
350.8352, 421.6818
351.3173, 420.1834
351.7994, 419.4562
352.2815, 419.5898
352.7636, 419.9134
353.2458, 419.4391
353.7279, 418.6703
354.2100, 418.7157
354.6921, 420.8171
355.1742, 423.3626
355.6563, 424.5171
356.1385, 424.3873
356.6206, 424.1907
357.1027, 424.5974
357.5848, 425.4598
358.0669, 426.6713
358.5490, 428.5529
359.0312, 430.2420
359.5133, 430.7867
359.9954, 430.6125
360.4775, 431.0490
360.9596, 433.2547
361.4417, 435.9438
361.9239, 438.2914
362.4060, 440.1359
362.8881, 441.7229
363.3702, 443.0108
363.8523, 444.1226
364.3344, 445.2471
364.8166, 446.1687
365.2987, 447.3653
365.7808, 449.1239
366.2629, 451.5587
366.7450, 453.8022
367.2271, 455.1562
367.7093, 456.5450
368.1914, 458.7816
368.6735, 463.2541
369.1556, 467.1490
369.6377, 469.8529
370.1198, 471.5177
370.6020, 473.1859
371.0841, 474.7320
371.5662, 476.4059
372.0483, 478.3922
372.5304, 481.3156
373.0125, 483.3129
373.4947, 483.6146
373.9768, 483.2069
374.4589, 484.5518
374.9410, 488.4038
375.4231, 492.4880
375.9052, 496.1757
376.3874, 499.5698
376.8695, 501.7222
377.3516, 502.3788
377.8337, 502.2614
378.3158, 502.2520
378.7979, 502.3806
379.2801, 502.4633
379.7622, 502.7437
380.2443, 502.9120
380.7264, 501.5184
381.2085, 498.4939
381.6906, 494.3802
382.1728, 489.4352
382.6549, 483.6900
383.1370, 477.6477
383.6191, 471.3045
384.1012, 464.7502
384.5833, 458.1244
385.0655, 451.3646
385.5476, 444.1328
386.0297, 435.3896
386.5118, 426.1479
386.9939, 418.1535
387.4760, 411.6869
387.9582, 405.8400
388.4403, 399.7345
388.9224, 393.5474
389.4045, 387.6918
389.8866, 382.4290
390.3687, 377.4327
390.8509, 372.2261
391.3330, 366.9146
391.8151, 362.4241
392.2972, 360.0099
392.7793, 358.4091
393.2614, 356.3613
393.7436, 353.0388
394.2257, 349.9783
394.7078, 348.0081
395.1899, 346.8328
395.6720, 345.6756
396.1541, 344.3816
396.6363, 342.9827
397.1184, 341.4789
397.6005, 339.8388
398.0826, 338.2023
398.5647, 336.3761
399.0468, 334.6393
399.5290, 333.3302
400.0111, 332.9512
400.4932, 332.4874
400.9753, 331.7759
401.4574, 330.8123
401.9395, 329.7184
402.4217, 328.2259
402.9038, 326.8695
403.3859, 326.0268
403.8680, 325.8796
404.3501, 325.8236
404.8322, 325.8780
405.3144, 325.9683
405.7965, 325.8089
406.2786, 325.2367
406.7607, 324.9538
407.2428, 325.5100
407.7249, 326.9543
408.2071, 327.5313
408.6892, 327.0957
409.1713, 326.2346
409.6534, 325.6559
410.1355, 325.3467
410.6176, 324.9934
411.0998, 324.5193
411.5819, 323.9298
412.0640, 323.1819
412.5461, 322.2888
413.0282, 321.4120
413.5103, 320.5393
413.9925, 319.7991
414.4746, 319.5465
414.9567, 319.9886
415.4388, 320.4839
415.9209, 320.1466
416.4030, 319.3225
416.8852, 318.8619
417.3673, 320.0018
417.8494, 321.1573
418.3315, 320.7111
418.8136, 318.5552
419.2957, 316.5699
419.7779, 315.7856
420.2600, 315.7149
420.7421, 315.8818
421.2242, 315.9877
421.7063, 316.4778
422.1884, 318.2008
422.6706, 320.6049
423.1527, 321.6662
423.6348, 319.4953
424.1169, 317.0146
424.5990, 315.5782
425.0811, 315.8351
425.5633, 315.9176
426.0454, 315.6397
426.5275, 315.2059
427.0096, 314.8527
427.4917, 314.4706
427.9738, 314.3594
428.4560, 314.7341
428.9381, 315.5557
429.4202, 315.8540
429.9023, 315.4795
430.3844, 314.8497
430.8665, 314.1523
431.3487, 313.3004
431.8308, 312.9562
432.3129, 313.3125
432.7950, 314.0172
433.2771, 314.3332
433.7592, 314.2421
434.2414, 314.0998
434.7235, 314.1505
435.2056, 314.2914
435.6877, 314.0096
436.1698, 313.2694
436.6519, 312.5400
437.1341, 312.2599
437.6162, 312.3641
438.0983, 312.7536
438.5804, 313.7137
439.0625, 314.5030
439.5446, 313.7980
440.0268, 312.0534
440.5089, 310.9247
440.9910, 312.1551
441.4731, 313.9774
441.9552, 314.7994
442.4373, 314.3067
442.9195, 313.5047
443.4016, 312.5679
443.8837, 311.7199
444.3658, 311.2326
444.8479, 311.5921
445.3300, 311.9167
445.8122, 311.9179
446.2943, 311.6188
446.7764, 311.2829
447.2585, 310.8315
447.7406, 310.4398
448.2227, 310.2057
448.7049, 310.2424
449.1870, 310.2308
449.6691, 310.2747
450.1512, 310.2178
450.6333, 309.7031
451.1154, 308.2328
451.5976, 307.3885
452.0797, 307.7867
452.5618, 309.3177
453.0439, 310.3595
453.5260, 310.8056
454.0081, 311.0356
454.4903, 311.3633
454.9724, 311.7822
455.4545, 311.9627
455.9366, 311.7869
456.4187, 311.5184
456.9008, 311.7877
457.3830, 312.4936
457.8651, 312.8310
458.3472, 311.8938
458.8293, 310.5054
459.3114, 310.3720
459.7935, 311.4935
460.2757, 312.5894
460.7578, 312.2770
461.2399, 311.4013
461.7220, 311.1891
462.2041, 312.3001
462.6862, 313.5569
463.1684, 314.3633
463.6505, 314.7424
464.1326, 314.7272
464.6147, 313.8578
465.0968, 312.9824
465.5789, 312.5159
466.0611, 312.5031
466.5432, 312.7598
467.0253, 313.6579
467.5074, 314.5883
467.9895, 315.0359
468.4716, 314.5250
468.9538, 314.1122
469.4359, 314.0104
469.9180, 314.0554
470.4001, 313.6223
470.8822, 312.2407
471.3643, 311.2468
471.8465, 311.3973
472.3286, 312.8808
472.8107, 313.4753
473.2928, 312.9684
473.7749, 312.1012
474.2570, 311.6281
474.7392, 311.5496
475.2213, 311.7541
475.7034, 312.3318
476.1855, 313.0410
476.6676, 313.3039
477.1497, 313.1682
477.6319, 313.0834
478.1140, 313.5064
478.5961, 314.0924
479.0782, 314.1677
479.5603, 313.6489
480.0424, 313.1398
480.5246, 313.1759
481.0067, 313.5158
481.4888, 313.8181
481.9709, 313.9546
482.4530, 314.0474
482.9352, 314.0975
483.4173, 314.1425
483.8994, 314.3029
484.3815, 314.5580
484.8636, 314.9889
485.3457, 315.8116
485.8279, 317.3576
486.3100, 318.0832
486.7921, 317.0988
487.2742, 315.6540
487.7563, 314.8223
488.2384, 314.8284
488.7206, 315.1036
489.2027, 315.7917
489.6848, 316.6730
490.1669, 316.8851
490.6490, 316.2487
491.1311, 315.4904
491.6133, 314.9544
492.0954, 314.6359
492.5775, 314.2990
493.0596, 313.9402
493.5417, 313.5943
494.0238, 313.3778
494.5060, 313.2336
494.9881, 312.8832
495.4702, 312.2267
495.9523, 311.3853
496.4344, 310.3256
496.9165, 309.1751
497.3987, 308.4172
497.8808, 308.6574
498.3629, 309.2072
498.8450, 309.3335
499.3271, 308.9578
499.8092, 308.7196
500.2914, 309.2038
500.7735, 309.8647
501.2556, 310.1967
501.7377, 309.9667
502.2198, 309.5149
502.7019, 308.7371
503.1841, 307.7766
503.6662, 307.0204
504.1483, 306.4280
504.6304, 306.1155
505.1125, 306.2303
505.5946, 306.8320
506.0768, 307.1372
506.5589, 307.1680
507.0410, 306.8714
507.5231, 306.0418
508.0052, 304.5298
508.4873, 303.5123
508.9695, 303.1683
509.4516, 303.3271
509.9337, 303.9579
510.4158, 305.0118
510.8979, 305.5541
511.3800, 304.7063
511.8622, 303.2133
512.3443, 302.9255
512.8264, 303.7823
513.3085, 304.6401
513.7906, 304.3911
514.2728, 303.7129
514.7549, 303.5842
515.2370, 304.4150
515.7191, 305.1214
516.2012, 305.0117
516.6833, 304.3423
517.1655, 303.5065
517.6476, 302.1823
518.1297, 301.1632
518.6118, 300.9232
519.0939, 301.3822
519.5760, 301.5692
520.0582, 301.0294
520.5403, 300.4866
521.0224, 300.1982
521.5045, 300.0617
521.9866, 300.5730
522.4688, 302.2626
522.9509, 304.0097
523.4330, 304.2110
523.9151, 302.4882
524.3972, 301.3187
524.8793, 301.3459
525.3615, 302.1650
525.8436, 302.9050
526.3257, 303.5620
526.8078, 303.8204
527.2899, 303.1652
527.7720, 302.0380
528.2542, 301.5744
528.7363, 301.8480
529.2184, 302.0680
529.7005, 301.2320
530.1826, 300.0420
530.6647, 299.5357
531.1469, 300.5571
531.6290, 301.3961
532.1111, 300.6976
532.5932, 299.1571
533.0753, 298.1962
533.5574, 298.6247
534.0396, 299.3065
534.5217, 299.9832
535.0038, 300.6459
535.4859, 300.9313
535.9680, 300.4480
536.4501, 299.9571
536.9323, 299.9234
537.4144, 300.5661
537.8965, 301.0498
538.3786, 301.3320
538.8607, 301.4923
539.3428, 301.7367
539.8250, 302.1059
540.3071, 302.0014
540.7892, 301.0368
541.2713, 299.6701
541.7534, 299.0947
542.2355, 299.2573
542.7177, 299.5800
543.1998, 299.8382
543.6819, 299.9735
544.1640, 299.8525
544.6461, 299.4574
545.1282, 299.0142
545.6104, 298.4779
546.0925, 298.0657
546.5746, 298.0299
547.0567, 298.5963
547.5388, 299.3234
548.0209, 300.4325
548.5031, 301.5737
548.9852, 302.0052
549.4673, 300.8063
549.9494, 299.7380
550.4315, 299.3592
550.9136, 299.6655
551.3958, 299.4268
551.8779, 298.1117
552.3600, 297.1494
552.8421, 297.7749
553.3242, 300.2707
553.8063, 301.5548
554.2885, 301.2960
554.7706, 300.3793
555.2527, 299.9388
555.7348, 299.8996
556.2169, 299.7566
556.6990, 299.2060
557.1812, 298.6786
557.6633, 298.9829
558.1454, 299.9028
558.6275, 300.6271
559.1096, 300.4907
559.5917, 300.1022
560.0739, 299.9600
560.5560, 300.1026
561.0381, 300.2386
561.5202, 300.2116
562.0023, 300.1553
562.4844, 300.1522
562.9666, 299.9484
563.4487, 300.2269
563.9308, 301.5191
564.4129, 303.0853
564.8950, 303.7580
565.3771, 303.1945
565.8593, 302.4481
566.3414, 301.5576
566.8235, 300.6847
567.3056, 300.7690
567.7877, 301.9713
568.2698, 302.9377
568.7520, 302.6988
569.2341, 301.5449
569.7162, 300.3727
570.1983, 299.1838
570.6804, 298.5548
571.1625, 299.7154
571.6447, 301.6352
572.1268, 302.5474
572.6089, 301.6013
573.0910, 300.5252
573.5731, 300.5847
574.0552, 301.2524
574.5374, 301.6056
575.0195, 300.9041
575.5016, 300.2915
575.9837, 300.1767
576.4658, 300.5379
576.9479, 300.9422
577.4301, 301.5564
577.9122, 301.9980
578.3943, 302.0188
578.8764, 301.4730
579.3585, 301.4158
579.8406, 302.0559
580.3228, 302.7179
580.8049, 302.4149
581.2870, 301.2371
581.7691, 300.9910
582.2512, 302.2481
582.7333, 303.9237
583.2155, 304.4921
583.6976, 304.1269
584.1797, 303.4010
584.6617, 302.0150
585.1439, 300.7881
585.6260, 300.4738
586.1081, 300.9890
586.5902, 301.9097
587.0723, 303.7260
587.5544, 305.3468
588.0366, 306.1705
588.5187, 306.0389
589.0008, 305.4875
589.4829, 303.8596
589.9650, 302.3279
590.4471, 301.8493
590.9293, 303.0721
591.4114, 303.8508
591.8935, 303.9740
592.3756, 303.6889
592.8577, 303.3719
593.3398, 303.0186
593.8220, 302.7553
594.3041, 302.5966
594.7862, 302.5731
595.2683, 302.7956
595.7504, 303.2423
596.2325, 303.7692
596.7147, 304.6800
597.1968, 305.4099
597.6789, 305.0212
598.1610, 303.4278
598.6431, 302.2171
599.1252, 302.8678
599.6074, 303.9457
600.0895, 304.2202
600.5716, 302.7556
601.0537, 301.7364
601.5358, 301.5314
602.0179, 301.9362
602.5001, 302.8180
602.9822, 304.7823
603.4643, 305.9760
603.9464, 305.9745
604.4285, 305.0379
604.9106, 303.6962
605.3928, 301.8214
605.8749, 300.7755
606.3570, 301.7319
606.8391, 304.0029
607.3212, 305.4372
607.8033, 306.0430
608.2855, 306.1180
608.7676, 305.3125
609.2497, 304.3501
609.7318, 304.3357
610.2139, 305.6552
610.6960, 306.8014
611.1782, 306.7285
611.6603, 306.1495
612.1424, 305.8208
612.6245, 306.2151
613.1066, 306.5077
613.5887, 306.5616
614.0709, 306.4543
614.5530, 306.3376
615.0351, 306.2492
615.5172, 306.0866
615.9993, 305.8569
616.4814, 305.5320
616.9636, 304.8135
617.4457, 303.6507
617.9278, 302.7160
618.4099, 302.6064
618.8920, 303.0475
619.3741, 303.2245
619.8563, 303.1045
620.3384, 303.1125
620.8205, 303.7533
621.3026, 304.6532
621.7847, 305.3723
622.2668, 305.8273
622.7490, 306.0872
623.2311, 306.1160
623.7132, 305.9947
624.1953, 305.8274
624.6774, 305.5767
625.1595, 305.3457
625.6417, 305.1393
626.1238, 304.9622
626.6059, 304.7795
627.0880, 304.4759
627.5701, 304.5464
628.0522, 305.3862
628.5344, 306.7418
629.0165, 307.2665
629.4986, 306.9478
629.9807, 306.3822
630.4628, 305.7278
630.9449, 305.1931
631.4271, 305.2283
631.9092, 305.8790
632.3913, 306.7047
632.8734, 307.7528
633.3555, 308.6265
633.8376, 308.8990
634.3198, 308.2446
634.8019, 307.4293
635.2840, 306.0874
635.7661, 304.8976
636.2482, 304.8328
636.7303, 306.8317
637.2125, 308.4212
637.6946, 309.3221
638.1767, 309.5798
638.6588, 309.1141
639.1409, 307.7619
639.6230, 306.8364
640.1052, 307.0723
640.5873, 308.0440
641.0694, 308.4664
641.5515, 308.3843
642.0336, 308.2119
642.5157, 308.2984
642.9979, 308.4236
643.4800, 308.3192
643.9621, 307.9576
644.4442, 307.5282
644.9263, 306.8095
645.4084, 306.2475
645.8906, 306.2497
646.3727, 307.3846
646.8548, 308.1295
647.3369, 308.1210
647.8190, 307.8724
648.3011, 307.9889
648.7833, 308.5537
649.2654, 309.2195
649.7475, 310.0347
650.2296, 310.7974
650.7117, 310.9875
651.1938, 310.6596
651.6760, 310.4735
652.1581, 310.8282
652.6402, 311.3817
653.1223, 311.5843
653.6044, 311.5146
654.0865, 311.5085
654.5687, 312.1320
655.0508, 312.5873
655.5329, 312.1297
656.0150, 310.6759
656.4971, 309.6923
656.9792, 309.6162
657.4614, 310.0279
657.9435, 310.8392
658.4256, 312.4344
658.9077, 312.9519
659.3898, 311.9442
659.8719, 310.6392
660.3541, 310.4791
660.8362, 311.4142
661.3183, 311.7721
661.8004, 311.1808
662.2825, 310.3495
662.7646, 310.2365
663.2468, 310.6171
663.7289, 310.9408
664.2110, 310.9612
664.6931, 310.9271
665.1752, 311.1371
665.6573, 311.4287
666.1395, 311.4179
666.6216, 310.4970
667.1037, 309.7683
667.5858, 309.7635
668.0679, 310.3472
668.5500, 310.5301
669.0322, 310.0237
669.5143, 309.6967
669.9964, 310.0837
670.4785, 311.1075
670.9606, 311.4408
671.4427, 311.0209
671.9249, 310.4962
672.4070, 310.3438
672.8891, 310.4704
673.3712, 310.6973
673.8533, 311.0094
674.3354, 311.3804
674.8176, 312.0024
675.2997, 312.5775
675.7818, 312.7500
676.2639, 312.1460
676.7460, 311.7061
677.2281, 311.7909
677.7103, 312.0987
678.1924, 312.2341
678.6745, 311.9625
679.1566, 312.0930
679.6387, 312.9584
680.1208, 314.0728
680.6030, 314.2444
681.0851, 313.4757
681.5672, 312.8998
682.0493, 313.2434
682.5314, 313.7126
683.0135, 312.3770
683.4957, 309.7793
683.9778, 308.1170
684.4599, 309.6554
684.9420, 311.6636
685.4241, 312.1417
685.9063, 311.1305
686.3884, 310.3645
686.8705, 310.4455
687.3526, 310.7436
687.8347, 310.9884
688.3168, 311.1684
688.7990, 311.4944
689.2811, 312.1894
689.7632, 312.5603
690.2453, 311.5576
690.7274, 309.3854
691.2095, 309.1575
691.6917, 311.2998
692.1738, 313.6839
692.6559, 313.8753
693.1380, 312.7821
693.6201, 311.9470
694.1022, 311.8339
694.5844, 311.7002
695.0665, 310.8163
695.5486, 309.7685
696.0307, 309.3082
696.5128, 310.0373
696.9949, 310.8336
697.4771, 311.8398
697.9592, 312.7408
698.4413, 312.7776
698.9234, 311.6956
699.4055, 310.7650
699.8876, 310.3045
700.3698, 310.2223
700.8519, 310.3213
701.3340, 310.5998
701.8161, 311.0395
702.2982, 312.1339
702.7803, 313.0537
703.2625, 312.5810
703.7446, 310.9902
704.2267, 309.6982
704.7088, 309.4880
705.1909, 309.5908
705.6730, 309.5396
706.1552, 309.2694
706.6373, 309.6457
707.1194, 311.2596
707.6015, 312.6867
708.0836, 312.9222
708.5657, 311.8605
709.0479, 311.8551
709.5300, 313.0710
710.0121, 314.2827
710.4942, 314.1188
710.9763, 313.1308
711.4584, 312.6554
711.9406, 312.9153
712.4227, 313.2625
712.9048, 313.2018
713.3869, 312.9899
713.8690, 312.9416
714.3511, 313.5265
714.8333, 313.5609
715.3154, 311.9248
715.7975, 310.1256
716.2796, 309.9922
716.7617, 312.5233
717.2438, 313.6576
717.7260, 312.4621
718.2081, 310.3816
718.6902, 310.2074
719.1723, 311.6654
719.6544, 312.5821
720.1365, 312.0667
720.6187, 311.0390
721.1008, 310.3675
721.5829, 310.0296
722.0650, 309.9590
722.5471, 310.4650
723.0292, 310.8862
723.5114, 310.8983
723.9935, 310.5646
724.4756, 310.1740
724.9577, 309.5048
725.4398, 309.1653
725.9219, 309.4761
726.4041, 310.2761
726.8862, 310.5681
727.3683, 310.3129
727.8504, 310.0571
728.3325, 310.2464
728.8146, 310.6140
729.2968, 310.4755
729.7789, 309.8965
730.2610, 309.4742
730.7431, 309.4645
731.2252, 309.8454
731.7073, 310.9820
732.1895, 313.0364
732.6716, 313.8835
733.1537, 311.8556
733.6358, 309.6784
734.1179, 308.6713
734.6000, 309.0221
735.0822, 309.5629
735.5643, 310.3828
736.0464, 311.0868
736.5285, 311.3083
737.0106, 311.1140
737.4927, 310.6739
737.9749, 309.9757
738.4570, 309.3544
738.9391, 309.1647
739.4212, 309.1996
739.9033, 309.2258
740.3854, 309.1714
740.8676, 309.1831
741.3497, 309.4771
741.8318, 309.7654
742.3139, 309.7559
742.7960, 309.3588
743.2781, 308.7932
743.7603, 307.8232
744.2424, 307.0925
744.7245, 308.0065
745.2066, 310.2741
745.6887, 311.4576
746.1708, 310.7310
746.6530, 309.3710
747.1351, 308.6167
747.6172, 308.3131
748.0993, 308.1994
748.5814, 308.0162
749.0635, 308.1971
749.5457, 309.3126
750.0278, 310.8413
750.5099, 311.6390
750.9920, 311.3950
751.4741, 311.0150
751.9562, 310.6620
752.4384, 310.2792
752.9205, 309.6339
753.4026, 308.7383
753.8847, 308.0636
754.3668, 307.8120
754.8489, 307.8657
755.3311, 308.2533
755.8132, 308.8271
756.2953, 309.1419
756.7774, 308.2417
757.2595, 307.7678
757.7416, 309.2398
758.2238, 312.0802
758.7059, 313.0703
759.1880, 310.9496
759.6701, 308.7631
760.1522, 307.2525
760.6343, 306.4013
761.1165, 306.1877
761.5986, 306.6378
762.0807, 307.1931
762.5628, 307.6186
763.0449, 307.9173
763.5270, 308.1650
764.0092, 308.3200
764.4913, 308.1635
764.9734, 306.9864
765.4555, 305.9613
765.9376, 305.9266
766.4197, 306.9178
766.9019, 307.7596
767.3840, 308.4038
767.8661, 308.8676
768.3482, 309.1665
768.8303, 309.3015
769.3124, 309.0987
769.7946, 308.5195
770.2767, 308.1073
770.7588, 308.3781
771.2409, 309.0283
771.7230, 309.5843
772.2051, 310.0175
772.6873, 310.2726
773.1694, 310.3856
773.6515, 310.2516
774.1336, 309.6747
774.6157, 308.5045
775.0978, 307.7498
775.5800, 307.5265
776.0621, 307.6020
776.5442, 308.0074
777.0263, 308.7850
777.5084, 308.8062
777.9905, 308.0160
778.4727, 307.0149
778.9548, 305.8875
779.4369, 305.0450
779.9190, 305.7191
780.4011, 308.1250
780.8832, 309.5424
781.3654, 306.8573
781.8475, 303.6677
782.3296, 302.8448
782.8117, 305.8289
783.2938, 307.6964
783.7759, 307.9423
784.2581, 307.7845
784.7402, 308.1728
785.2223, 309.1076
785.7044, 309.8426
786.1865, 310.3587
786.6686, 310.5282
787.1508, 309.9697
787.6329, 309.0724
788.1150, 308.3891
788.5971, 307.9880
789.0792, 307.8648
789.5613, 308.2290
790.0435, 308.7137
790.5256, 309.0464
791.0077, 309.2628
791.4898, 309.0669
791.9719, 308.0570
792.4540, 307.3075
792.9362, 308.3278
793.4183, 310.8761
793.9004, 311.6898
794.3825, 310.3883
794.8646, 308.5935
795.3467, 307.4249
795.8289, 306.8956
796.3110, 307.2863
796.7931, 309.0275
797.2752, 310.0059
797.7573, 308.5913
798.2394, 306.6871
798.7216, 305.9002
799.2037, 306.7019
799.6858, 307.4585
800.1679, 308.2813
800.6500, 308.8040
801.1321, 308.3717
801.6143, 307.2486
802.0964, 306.8787
802.5785, 307.4984
803.0606, 308.1201
803.5427, 307.5289
804.0248, 306.6374
804.5070, 306.5010
804.9891, 307.5604
805.4712, 308.6074
805.9533, 309.6562
806.4354, 310.4035
806.9175, 310.4445
807.3997, 309.3789
807.8818, 309.6559
808.3639, 311.7364
808.8460, 313.6533
809.3281, 312.7043
809.8102, 310.0598
810.2924, 308.9107
810.7745, 309.8338
811.2566, 310.8169
811.7387, 310.4796
812.2208, 309.5268
812.7029, 308.5004
813.1851, 307.2798
813.6672, 306.5441
814.1493, 306.2354
814.6314, 306.4944
815.1135, 307.7589
815.5956, 310.1234
816.0778, 311.2417
816.5599, 310.9348
817.0420, 310.1282
817.5241, 309.4175
818.0062, 308.9038
818.4883, 308.8078
818.9705, 309.2055
819.4526, 309.5980
819.9347, 309.7257
820.4168, 309.7775
820.8989, 309.8980
821.3810, 310.1245
821.8632, 310.2380
822.3453, 310.1025
822.8274, 310.1585
823.3095, 311.1777
823.7916, 312.8192
824.2737, 312.7710
824.7559, 310.9098
825.2380, 309.2153
825.7201, 309.7443
826.2022, 310.9662
826.6843, 311.2733
827.1664, 310.3531
827.6486, 309.7475
828.1307, 310.1133
828.6128, 310.5942
829.0949, 310.7163
829.5770, 310.4245
830.0591, 310.7403
830.5413, 311.7817
831.0234, 312.6996
831.5055, 312.7379
831.9876, 312.2491
832.4697, 311.8715
832.9518, 311.6338
833.4340, 311.4781
833.9161, 311.5450
834.3982, 311.5367
834.8803, 311.1217
835.3624, 310.2389
835.8445, 309.9513
836.3267, 310.5600
836.8088, 311.1824
837.2909, 311.4151
837.7730, 311.3033
838.2551, 310.9411
838.7372, 310.3653
839.2194, 310.1222
839.7015, 311.1644
840.1836, 312.2797
840.6657, 312.0675
841.1478, 310.7211
841.6299, 309.6063
842.1121, 308.8817
842.5942, 308.8169
843.0763, 309.8996
843.5584, 311.7493
844.0405, 311.9481
844.5226, 310.2060
845.0048, 308.8719
845.4869, 309.1797
845.9690, 310.3574
846.4511, 310.8955
846.9332, 310.9922
847.4153, 311.2993
847.8975, 312.7413
848.3796, 313.8470
848.8617, 313.5821
849.3438, 312.3805
849.8259, 311.7779
850.3080, 312.1152
850.7902, 312.3883
851.2723, 312.4003
851.7544, 312.2085
852.2365, 311.8409
852.7186, 311.3467
853.2007, 310.9812
853.6829, 310.7621
854.1650, 310.8394
854.6471, 311.9711
855.1292, 313.3432
855.6113, 313.5855
856.0934, 310.4503
856.5756, 308.6997
857.0577, 309.5455
857.5398, 311.4316
858.0219, 312.0047
858.5040, 311.1662
858.9861, 310.8581
859.4683, 311.5154
859.9504, 312.3563
860.4325, 312.4022
860.9146, 311.9571
861.3967, 311.4916
861.8788, 311.0398
862.3610, 310.8028
862.8431, 311.1227
863.3252, 311.5277
863.8073, 311.5713
864.2894, 311.1301
864.7715, 310.6973
865.2537, 310.2690
865.7358, 309.8962
866.2179, 309.6074
866.7000, 309.4183
867.1821, 309.3803
867.6642, 309.5044
868.1464, 309.6986
868.6285, 310.1955
869.1106, 310.5316
869.5927, 310.0804
870.0748, 308.3868
870.5569, 308.3412
871.0391, 310.9079
871.5212, 313.3368
872.0033, 313.8549
872.4854, 312.7234
872.9675, 311.7885
873.4496, 311.0422
873.9318, 310.6292
874.4139, 310.8531
874.8960, 311.2859
875.3781, 311.5825
875.8602, 311.7385
876.3423, 311.8524
876.8245, 311.8692
877.3066, 311.9508
877.7887, 312.2391
878.2708, 312.6137
878.7529, 312.4520
879.2350, 311.7580
879.7172, 311.2451
880.1993, 311.3883
880.6814, 311.6949
881.1635, 311.5241
881.6456, 311.0132
882.1277, 310.4781
882.6099, 309.6923
883.0920, 309.3186
883.5741, 309.9325
884.0562, 310.8871
884.5383, 311.0440
885.0204, 310.2045
885.5026, 309.8823
885.9847, 310.4427
886.4668, 311.3156
886.9489, 311.7836
887.4310, 311.9675
887.9131, 312.0399
888.3953, 311.8742
888.8774, 312.0904
889.3595, 313.8705
889.8416, 315.5849
890.3237, 315.4958
890.8058, 312.3820
891.2880, 311.2388
891.7701, 312.5975
892.2522, 314.2954
892.7343, 314.1279
893.2164, 312.7876
893.6985, 312.2749
894.1807, 312.7379
894.6628, 312.9494
895.1449, 311.6217
895.6270, 310.1817
896.1091, 309.5029
896.5912, 309.6894
897.0734, 310.5598
897.5555, 312.5403
898.0376, 314.1652
898.5197, 314.6603
899.0018, 314.2749
899.4839, 313.6925
899.9661, 312.9663
900.4482, 312.4044
900.9303, 312.2560
901.4124, 312.2525
901.8945, 312.2349
902.3766, 312.2207
902.8588, 312.2991
903.3409, 312.7485
903.8230, 312.7519
904.3051, 311.9599
904.7872, 310.8900
905.2693, 310.6459
905.7515, 311.0978
906.2336, 311.4561
906.7157, 311.5050
907.1978, 311.3929
907.6799, 310.9120
908.1620, 310.4902
908.6442, 310.7011
909.1263, 312.6304
909.6084, 313.3625
910.0905, 312.1953
910.5726, 310.7118
911.0547, 310.3576
911.5369, 311.0531
912.0190, 311.8932
912.5011, 312.8373
912.9832, 313.6071
913.4653, 313.9646
913.9474, 314.0468
914.4296, 314.0088
914.9117, 313.8711
915.3938, 313.3714
915.8759, 311.9756
916.3580, 310.8972
916.8401, 310.6454
917.3223, 311.1134
917.8044, 311.8415
918.2865, 312.7977
918.7686, 313.5948
919.2507, 313.9706
919.7328, 314.1368
920.2150, 314.2992
920.6971, 314.4166
921.1792, 314.3900
921.6613, 313.8746
922.1434, 313.6705
922.6255, 314.0576
923.1077, 314.6583
923.5898, 314.8574
924.0719, 314.6622
924.5540, 314.0938
925.0361, 313.0226
925.5182, 312.1307
926.0004, 312.3172
926.4825, 312.9598
926.9646, 313.2629
927.4467, 312.8426
927.9288, 312.7569
928.4109, 313.3215
928.8931, 313.9796
929.3752, 314.3186
929.8573, 314.3464
930.3394, 314.5918
930.8215, 315.0548
931.3036, 315.4366
931.7858, 315.5126
932.2679, 315.4126
932.7500, 315.1967
933.2321, 314.9034
933.7142, 314.7143
934.1964, 315.0359
934.6785, 314.9510
935.1606, 314.0219
935.6427, 312.6453
936.1248, 311.9876
936.6069, 312.0191
937.0891, 312.5024
937.5712, 313.5434
938.0533, 314.6407
938.5354, 315.6541
939.0175, 316.2931
939.4996, 316.1093
939.9818, 313.7603
940.4639, 312.4719
940.9460, 312.8554
941.4281, 313.6431
941.9102, 313.4337
942.3923, 312.3701
942.8745, 311.7726
943.3566, 311.7355
943.8387, 312.0587
944.3208, 312.8895
944.8029, 313.7738
945.2850, 314.2769
945.7672, 314.3449
946.2493, 314.5459
946.7314, 314.9859
947.2135, 315.4659
947.6956, 316.0313
948.1777, 316.5273
948.6599, 316.3154
949.1420, 315.4699
949.6241, 314.3760
950.1062, 312.5916
950.5883, 311.3619
951.0704, 312.1151
951.5526, 313.9039
952.0347, 314.8616
952.5168, 314.0971
952.9989, 314.1290
953.4810, 315.4959
953.9631, 317.0035
954.4453, 316.8931
954.9274, 315.6563
955.4095, 315.0094
955.8916, 315.2062
956.3737, 315.7050
956.8558, 316.7469
957.3380, 317.4893
957.8201, 316.9747
958.3022, 315.0452
958.7843, 314.3853
959.2664, 315.4018
959.7485, 316.3950
960.2307, 316.4300
960.7128, 315.9337
961.1949, 315.8515
961.6770, 316.1148
962.1591, 316.4783
962.6412, 317.2052
963.1234, 317.5923
963.6055, 317.0046
964.0876, 316.0359
964.5697, 315.7725
965.0518, 316.4977
965.5339, 316.5258
966.0161, 315.4920
966.4982, 314.3270
966.9803, 314.0205
967.4624, 314.3832
967.9445, 315.3310
968.4266, 316.9849
968.9088, 318.0385
969.3909, 317.4352
969.8730, 316.6438
970.3551, 316.5290
970.8372, 317.0199
971.3193, 316.5440
971.8015, 315.0457
972.2836, 314.2267
972.7657, 315.8229
973.2478, 317.9059
973.7299, 317.9836
974.2120, 316.7346
974.6942, 315.8522
975.1763, 316.1159
975.6584, 316.4177
976.1405, 316.4981
976.6226, 316.6742
977.1047, 317.6699
977.5869, 319.3563
978.0690, 320.0668
978.5511, 319.4702
979.0332, 318.7886
979.5153, 319.0146
979.9974, 319.6572
980.4796, 320.4211
980.9617, 321.3412
981.4438, 321.5477
981.9259, 320.6897
982.4080, 319.8298
982.8901, 319.4649
983.3723, 319.4455
983.8544, 319.3368
984.3365, 319.1555
984.8186, 318.9737
985.3007, 318.6952
985.7828, 318.5651
986.2650, 318.7840
986.7471, 319.1956
987.2292, 319.5492
987.7113, 319.8755
988.1934, 319.9808
988.6755, 319.8032
989.1577, 319.5657
989.6398, 319.4333
990.1219, 319.4431
990.6040, 319.7995
991.0861, 320.5327
991.5682, 320.9267
992.0504, 320.3684
992.5325, 319.7474
993.0146, 319.4631
993.4967, 319.4659
993.9788, 319.5323
994.4609, 319.6660
994.9431, 319.4326
995.4252, 318.2546
995.9073, 317.2467
996.3894, 317.9185
996.8715, 319.5045
997.3536, 320.7582
997.8358, 321.6754
998.3179, 321.6137
998.8000, 320.0202
999.2821, 318.3055
999.7642, 317.9969
1000.246, 318.8069
1000.728, 319.0567
1001.211, 318.6910
1001.693, 318.6281
1002.175, 319.8254
1002.657, 321.2094
1003.139, 322.2100
1003.621, 322.7727
1004.103, 322.7936
1004.585, 322.1412
1005.068, 321.4020
1005.550, 320.6375
1006.032, 320.0572
1006.514, 320.0258
1006.996, 320.4190
1007.478, 321.0515
1007.960, 322.0995
1008.442, 322.7975
1008.924, 322.4838
1009.407, 322.1222
1009.889, 322.5360
1010.371, 323.7845
1010.853, 323.6905
1011.335, 322.2365
1011.817, 320.9971
1012.299, 321.3178
1012.781, 322.0800
1013.263, 322.2838
1013.746, 322.0576
1014.228, 321.9352
1014.710, 322.0244
1015.192, 322.1566
1015.674, 322.2721
1016.156, 322.4841
1016.638, 323.2721
1017.120, 324.2987
1017.603, 324.2919
1018.085, 322.8882
1018.567, 321.7648
1019.049, 322.1374
1019.531, 322.9464
1020.013, 323.4359
1020.495, 323.6111
1020.977, 324.3299
1021.459, 325.7357
1021.942, 326.3627
1022.424, 325.0509
1022.906, 323.1460
1023.388, 322.4021
1023.870, 322.4643
1024.352, 322.6362
1024.834, 322.7549
1025.316, 322.9438
1025.799, 323.3998
1026.281, 323.6929
1026.763, 323.0708
1027.245, 321.7906
1027.727, 321.6808
1028.209, 322.7971
1028.691, 323.8559
1029.173, 324.0371
1029.656, 323.8086
1030.138, 323.2277
1030.620, 322.4572
1031.102, 322.2227
1031.584, 322.6087
1032.066, 323.2454
1032.548, 324.1786
1033.030, 324.9815
1033.512, 324.7599
1033.995, 324.0396
1034.477, 323.7480
1034.959, 324.1916
1035.441, 324.6836
1035.923, 325.4657
1036.405, 325.7690
1036.887, 324.8772
1037.369, 323.0287
1037.851, 322.4595
1038.334, 323.0578
1038.816, 323.6581
1039.298, 323.3812
1039.780, 323.1215
1040.262, 323.6375
1040.744, 324.5613
1041.226, 325.1451
1041.708, 325.2704
1042.191, 325.4274
1042.673, 325.7575
1043.155, 325.7383
1043.637, 324.2051
1044.119, 322.2113
1044.601, 321.7672
1045.083, 322.9460
1045.565, 323.9940
1046.047, 324.1968
1046.530, 324.2419
1047.012, 324.2291
1047.494, 324.2737
1047.976, 324.9582
1048.458, 326.1389
1048.940, 326.4831
1049.422, 325.3552
1049.904, 324.2028
1050.386, 324.0333
1050.869, 324.4357
1051.351, 325.1545
1051.833, 326.3231
1052.315, 326.6249
1052.797, 325.8356
1053.279, 325.2058
1053.761, 325.7348
1054.243, 326.7000
1054.726, 327.0199
1055.208, 326.7439
1055.690, 326.0063
1056.172, 324.0596
1056.654, 322.7745
1057.136, 322.5299
1057.618, 322.8143
1058.100, 323.0939
1058.583, 323.3815
1059.065, 323.7344
1059.547, 324.1600
1060.029, 324.7168
1060.511, 326.0145
1060.993, 326.9138
1061.475, 326.3359
1061.957, 324.6944
1062.439, 323.6444
1062.922, 323.1527
1063.404, 323.6953
1063.886, 325.7983
1064.368, 327.7356
1064.850, 326.8431
1065.332, 324.7114
1065.814, 323.5134
1066.296, 323.8656
1066.778, 324.2846
1067.261, 324.8674
1067.743, 324.9860
1068.225, 323.8776
1068.707, 322.2694
1069.189, 323.0479
1069.671, 325.5637
1070.153, 327.4730
1070.635, 327.1143
1071.118, 326.7861
1071.600, 327.8260
1072.082, 329.0560
1072.564, 329.2214
1073.046, 328.2219
1073.528, 327.3044
1074.010, 326.5059
1074.492, 326.0088
1074.974, 326.1591
1075.457, 326.5078
1075.939, 326.6131
1076.421, 326.5586
1076.903, 326.7952
1077.385, 327.5829
1077.867, 327.9579
1078.349, 327.6559
1078.831, 327.1759
1079.313, 327.1584
1079.796, 327.4378
1080.278, 327.7538
1080.760, 328.0767
1081.242, 328.3404
1081.724, 328.4209
1082.206, 328.5768
1082.688, 329.0112
1083.170, 329.5197
1083.652, 329.2154
1084.135, 328.3073
1084.617, 327.9459
1085.099, 328.7783
1085.581, 329.5292
1086.063, 329.4578
1086.545, 328.9007
1087.027, 327.9918
1087.509, 326.6007
1087.992, 326.5998
1088.474, 328.0780
1088.956, 329.6387
1089.438, 330.6605
1089.920, 331.1393
1090.402, 330.7824
1090.884, 329.9365
1091.366, 329.3165
1091.849, 328.7346
1092.331, 329.1129
1092.813, 330.8467
1093.295, 332.5621
1093.777, 332.7479
1094.259, 331.9674
1094.741, 331.1818
1095.223, 330.5002
1095.705, 330.2144
1096.188, 330.9296
1096.670, 331.4608
1097.152, 331.5283
1097.634, 331.2542
1098.116, 330.7501
1098.598, 330.0796
1099.080, 329.5180
1099.562, 329.0882
1100.044, 329.0470
1100.527, 329.9326
1101.009, 330.9438
1101.491, 331.5884
1101.973, 331.8914
1102.455, 331.9242
1102.937, 331.6737
1103.419, 331.4422
1103.901, 331.3173
1104.384, 331.2729
1104.866, 331.0810
1105.348, 331.0587
1105.830, 331.7542
1106.312, 333.6193
1106.794, 334.4695
1107.276, 334.1813
1107.758, 333.2551
1108.240, 331.3938
1108.723, 329.5534
1109.205, 329.7115
1109.687, 331.1573
1110.169, 332.2459
1110.651, 332.1158
1111.133, 332.0959
1111.615, 332.2928
1112.097, 332.6325
1112.579, 333.1766
1113.062, 333.8052
1113.544, 334.0177
1114.026, 333.8534
1114.508, 333.6362
1114.990, 333.5669
1115.472, 333.4299
1115.954, 333.0580
1116.436, 332.6459
1116.919, 332.5441
1117.401, 332.7221
1117.883, 332.5806
1118.365, 332.0262
1118.847, 331.8978
1119.329, 333.2902
1119.811, 334.9053
1120.293, 335.8937
1120.776, 336.3125
1121.258, 336.4206
1121.740, 336.1622
1122.222, 336.1551
1122.704, 336.6249
1123.186, 337.0497
1123.668, 336.9613
1124.150, 336.4868
1124.632, 335.6169
1125.115, 334.2779
1125.597, 333.4804
1126.079, 333.2644
1126.561, 333.5708
1127.043, 334.6557
1127.525, 335.8100
1128.007, 335.7713
1128.489, 335.0048
1128.971, 334.2448
1129.454, 333.5058
1129.936, 333.2758
1130.418, 333.6357
1130.900, 334.3815
1131.382, 335.7008
1131.864, 337.1719
1132.346, 337.4272
1132.828, 336.7682
1133.311, 336.1492
1133.793, 335.7888
1134.275, 335.7822
1134.757, 336.3045
1135.239, 336.9789
1135.721, 337.6127
1136.203, 338.1492
1136.685, 337.9709
1137.167, 337.1659
1137.650, 336.5910
1138.132, 337.0958
1138.614, 337.5485
1139.096, 337.1761
1139.578, 336.5817
1140.060, 336.7104
1140.542, 337.5776
1141.024, 337.9720
1141.506, 337.7943
1141.989, 337.3661
1142.471, 336.4970
1142.953, 335.8672
1143.435, 336.1681
1143.917, 337.1074
1144.399, 337.6185
1144.881, 337.6146
1145.363, 337.8348
1145.846, 338.4187
1146.328, 339.1353
1146.810, 340.2617
1147.292, 341.0278
1147.774, 340.3064
1148.256, 338.1047
1148.738, 336.9973
1149.220, 337.1774
1149.703, 337.9381
1150.185, 339.3151
1150.667, 340.5429
1151.149, 340.2369
1151.631, 339.3427
1152.113, 339.3360
1152.595, 340.6671
1153.077, 340.9762
1153.559, 339.5935
1154.042, 338.6411
1154.524, 339.1857
1155.006, 340.3199
1155.488, 340.3376
1155.970, 339.7009
1156.452, 339.2927
1156.934, 339.3446
1157.416, 339.6304
1157.898, 340.3840
1158.381, 340.8272
1158.863, 340.3782
1159.345, 339.3996
1159.827, 338.7970
1160.309, 338.5515
1160.791, 338.6147
1161.273, 338.9329
1161.755, 339.7139
1162.238, 341.6799
1162.720, 343.2063
1163.202, 342.6734
1163.684, 340.6219
1164.166, 340.0451
1164.648, 340.6311
1165.130, 341.0077
1165.612, 340.0927
1166.094, 339.3913
1166.577, 339.3342
1167.059, 339.7127
1167.541, 340.5606
1168.023, 341.7648
1168.505, 342.2268
1168.987, 341.9688
1169.469, 341.5060
1169.951, 340.7918
1170.433, 340.3287
1170.916, 340.4905
1171.398, 340.9398
1171.880, 341.2261
1172.362, 341.3734
1172.844, 341.9585
1173.326, 343.0052
1173.808, 343.7224
1174.290, 342.9736
1174.773, 342.3387
1175.255, 343.4146
1175.737, 345.0021
1176.219, 344.4575
1176.701, 341.7639
1177.183, 340.0606
1177.665, 339.7603
1178.147, 340.0063
1178.630, 340.3531
1179.112, 340.7799
1179.594, 341.5083
1180.076, 342.2856
1180.558, 342.2163
1181.040, 341.2482
1181.522, 340.2497
1182.004, 339.2867
1182.486, 338.9917
1182.969, 340.7130
1183.451, 342.6851
1183.933, 343.4689
1184.415, 343.1140
1184.897, 342.2481
1185.379, 340.7495
1185.861, 340.0726
1186.343, 340.7025
1186.825, 341.7981
1187.308, 342.7950
1187.790, 343.6802
1188.272, 344.7708
1188.754, 345.9917
1189.236, 344.8871
1189.718, 341.0889
1190.200, 338.6565
1190.682, 339.2243
1191.165, 340.6749
1191.647, 340.8894
1192.129, 340.6899
1192.611, 341.1190
1193.093, 342.3350
1193.575, 342.5582
1194.057, 341.6084
1194.539, 340.9482
1195.021, 341.2007
1195.504, 341.8695
1195.986, 342.6009
1196.468, 343.3003
1196.950, 343.8020
1197.432, 344.0447
1197.914, 344.4846
1198.396, 345.1792
1198.878, 345.6711
1199.360, 345.7499
1199.843, 345.5039
1200.325, 344.7133
1200.807, 343.8170
1201.289, 343.5083
1201.771, 344.0287
1202.253, 344.2899
1202.735, 344.2196
1203.217, 344.4098
1203.700, 345.4301
1204.182, 346.5930
1204.664, 347.3798
1205.146, 347.6708
1205.628, 347.1193
1206.110, 345.1732
1206.592, 344.3248
1207.074, 344.6932
1207.557, 345.3334
1208.039, 345.7216
1208.521, 345.9796
1209.003, 346.3068
1209.485, 346.5821
1209.967, 346.5619
1210.449, 346.1663
1210.931, 345.6183
1211.413, 344.8570
1211.896, 344.3078
1212.378, 344.0759
1212.860, 344.3625
1213.342, 345.9417
1213.824, 348.0695
1214.306, 349.1041
1214.788, 348.5555
1215.270, 348.3630
1215.752, 348.6009
1216.235, 348.9526
1216.717, 349.6744
1217.199, 349.9693
1217.681, 348.4810
1218.163, 346.0744
1218.645, 344.7123
1219.127, 344.5223
1219.609, 345.2635
1220.092, 347.0210
1220.574, 348.8464
1221.056, 350.3668
1221.538, 351.2784
1222.020, 350.8871
1222.502, 349.7491
1222.984, 349.1680
1223.466, 349.2885
1223.948, 349.4919
1224.431, 349.7558
1224.913, 349.9040
1225.395, 349.4060
1225.877, 349.0947
1226.359, 349.9296
1226.841, 351.4297
1227.323, 352.4006
1227.805, 352.8087
1228.287, 352.7681
1228.770, 352.2617
1229.252, 351.8487
1229.734, 352.1110
1230.216, 352.5020
1230.698, 352.5458
1231.180, 352.4386
1231.662, 352.6593
1232.144, 353.2330
1232.627, 353.8426
1233.109, 354.4706
1233.591, 354.7703
1234.073, 354.0781
1234.555, 353.3889
1235.037, 353.5168
1235.519, 354.0435
1236.001, 354.0148
1236.484, 353.4331
1236.966, 353.9888
1237.448, 355.8240
1237.930, 357.2838
1238.412, 356.5736
1238.894, 355.8966
1239.376, 357.2507
1239.858, 359.0231
1240.340, 357.8627
1240.823, 354.2106
1241.305, 353.4806
1241.787, 356.0790
1242.269, 358.3259
1242.751, 356.8327
1243.233, 355.7951
1243.715, 357.5587
1244.197, 360.3373
1244.679, 361.3761
1245.162, 360.9479
1245.644, 360.2644
1246.126, 359.4677
1246.608, 358.9512
1247.090, 358.6784
1247.572, 359.1416
1248.054, 360.8571
1248.536, 362.7655
1249.019, 362.8957
1249.501, 361.8820
1249.983, 361.8053
1250.465, 362.7807
1250.947, 363.8370
1251.429, 365.2885
1251.911, 365.5797
1252.393, 363.9203
1252.875, 361.8793
1253.358, 361.6689
1253.840, 362.6597
1254.322, 363.7538
1254.804, 364.7558
1255.286, 364.8927
1255.768, 363.2093
1256.250, 361.9491
1256.732, 361.5196
1257.214, 361.4545
1257.697, 361.0807
1258.179, 360.7499
1258.661, 361.3375
1259.143, 362.6563
1259.625, 363.0407
1260.107, 361.7377
1260.589, 361.0376
1261.071, 361.3006
1261.554, 362.0770
1262.036, 363.2951
1262.518, 364.4550
1263.000, 364.9957
1263.482, 364.9308
1263.964, 364.4941
1264.446, 363.5014
1264.928, 363.0954
1265.411, 363.4641
1265.893, 364.0615
1266.375, 364.4798
1266.857, 364.8371
1267.339, 365.3096
1267.821, 365.7855
1268.303, 365.8589
1268.785, 365.4651
1269.267, 365.6547
1269.750, 366.5645
1270.232, 367.2034
1270.714, 366.5238
1271.196, 365.6576
1271.678, 365.4550
1272.160, 365.4873
1272.642, 364.8007
1273.124, 363.5225
1273.606, 363.7392
1274.089, 365.5118
1274.571, 366.9214
1275.053, 366.7648
1275.535, 366.0363
1276.017, 364.7615
1276.499, 363.5435
1276.981, 363.1778
1277.463, 363.5493
1277.946, 364.5576
1278.428, 366.0145
1278.910, 366.7974
1279.392, 365.8517
1279.874, 364.8947
1280.356, 364.1426
1280.838, 363.6469
1281.320, 363.4717
1281.802, 363.5683
1282.285, 363.9800
1282.767, 364.5949
1283.249, 364.9287
1283.731, 364.5146
1284.213, 364.5053
1284.695, 365.0392
1285.177, 365.8023
1285.659, 367.0912
1286.141, 368.0096
1286.624, 366.6494
1287.106, 364.0343
1287.588, 363.2463
1288.070, 365.0444
1288.552, 366.2271
1289.034, 366.6130
1289.516, 366.6437
1289.998, 365.9650
1290.481, 365.7560
1290.963, 367.8188
1291.445, 370.5763
1291.927, 371.2409
1292.409, 369.6385
1292.891, 369.0298
1293.373, 369.4336
1293.855, 369.9001
1294.338, 369.7826
1294.820, 369.6811
1295.302, 370.0984
1295.784, 370.4690
1296.266, 370.1407
1296.748, 369.2788
1297.230, 369.0084
1297.712, 369.2631
1298.194, 369.6399
1298.677, 369.8583
1299.159, 370.1554
1299.641, 370.6013
1300.123, 371.0207
1300.605, 371.0973
1301.087, 371.1213
1301.569, 372.1444
1302.051, 373.5335
1302.533, 373.9137
1303.016, 372.6407
##END=



