##NAMES=Hauerite
##RRUFFID=R070438
##IDEAL CHEMISTRY=Mn^2+^(S_2_)^2-^
##LOCALITY=Machov, Poland
##OWNER=RRUFF
##SOURCE=Michael Scott
##DESCRIPTION=Unconsolidated reddish brown platy fragments, sample was used to make ICDD pattern
##STATUS=The identification of this mineral is confirmed by single-crystal X-ray diffraction and chemical analysis.
##URL=rruff.info/R070438
##MEASURED CHEMISTRY=Mn_1.00_S_2.00_
105.5681, 31.61835
106.0502, 34.82726
106.5323, 33.91128
107.0144, 32.18179
107.4965, 30.89768
107.9786, 30.81244
108.4608, 29.94419
108.9429, 27.83592
109.4250, 24.75704
109.9071, 22.30069
110.3892, 19.51554
110.8713, 17.97618
111.3535, 18.57398
111.8356, 23.22030
112.3177, 28.01511
112.7998, 33.28864
113.2819, 39.14278
113.7640, 42.39882
114.2462, 41.03387
114.7283, 37.38847
115.2104, 33.82174
115.6925, 29.85004
116.1746, 26.90568
116.6567, 25.61042
117.1389, 26.25663
117.6210, 27.68981
118.1031, 29.88934
118.5852, 32.59683
119.0673, 35.30231
119.5494, 40.01633
120.0316, 43.41817
120.5137, 42.40113
120.9958, 32.29889
121.4779, 23.63391
121.9600, 23.63307
122.4421, 31.08326
122.9243, 40.24532
123.4064, 49.62803
123.8885, 58.14022
124.3706, 64.49937
124.8527, 66.84832
125.3348, 67.70717
125.8170, 69.00719
126.2991, 70.73192
126.7812, 73.92216
127.2633, 79.48963
127.7454, 87.28115
128.2276, 96.72575
128.7097, 107.6339
129.1918, 120.0677
129.6739, 134.5674
130.1560, 151.5337
130.6381, 169.2602
131.1203, 184.6671
131.6024, 197.9973
132.0845, 213.0602
132.5666, 232.9642
133.0487, 256.8591
133.5308, 279.8294
134.0130, 300.5736
134.4951, 320.6943
134.9772, 344.8208
135.4593, 373.2737
135.9414, 403.4161
136.4235, 430.1658
136.9057, 452.9775
137.3878, 486.1444
137.8699, 537.3911
138.3520, 602.8152
138.8341, 655.2388
139.3162, 691.6721
139.7984, 721.4365
140.2805, 755.2898
140.7626, 792.7388
141.2447, 833.7835
141.7268, 880.7460
142.2089, 935.1253
142.6911, 978.6059
143.1732, 1001.245
143.6553, 1019.714
144.1374, 1067.972
144.6195, 1160.971
145.1016, 1258.371
145.5838, 1343.249
146.0659, 1408.417
146.5480, 1477.509
147.0301, 1553.328
147.5122, 1633.404
147.9943, 1711.037
148.4765, 1783.336
148.9586, 1854.875
149.4407, 1929.905
149.9228, 2016.185
150.4049, 2095.115
150.8870, 2169.064
151.3692, 2237.700
151.8513, 2285.003
152.3334, 2311.236
152.8155, 2315.715
153.2976, 2298.508
153.7797, 2255.535
154.2619, 2194.967
154.7440, 2118.067
155.2261, 2025.522
155.7082, 1913.960
156.1903, 1770.946
156.6724, 1611.188
157.1546, 1456.144
157.6367, 1299.125
158.1188, 1154.596
158.6009, 1028.069
159.0830, 919.8755
159.5652, 826.3710
160.0473, 746.1860
160.5294, 679.7274
161.0115, 628.9111
161.4936, 602.5188
161.9757, 585.6936
162.4579, 571.1965
162.9400, 560.6784
163.4221, 547.3790
163.9042, 524.8934
164.3863, 496.5383
164.8684, 473.3283
165.3506, 463.0558
165.8327, 458.7981
166.3148, 454.9903
166.7969, 448.5643
167.2790, 443.7409
167.7611, 445.7336
168.2433, 453.3781
168.7254, 456.6367
169.2075, 441.5933
169.6896, 421.2668
170.1717, 411.0265
170.6538, 427.1876
171.1360, 448.6703
171.6181, 459.6211
172.1002, 459.6012
172.5823, 454.9751
173.0644, 445.5922
173.5465, 435.1178
174.0287, 429.9355
174.5108, 437.8776
174.9929, 450.3410
175.4750, 458.2230
175.9571, 460.6666
176.4392, 460.0128
176.9214, 455.8203
177.4035, 449.7896
177.8856, 446.6045
178.3677, 450.4874
178.8498, 458.4334
179.3319, 465.8333
179.8141, 472.0249
180.2962, 477.9056
180.7783, 483.2658
181.2604, 488.6223
181.7425, 497.2144
182.2246, 517.7034
182.7068, 542.9355
183.1889, 555.3528
183.6710, 547.9593
184.1531, 531.6198
184.6352, 521.4607
185.1173, 517.3920
185.5995, 519.3726
186.0816, 534.1754
186.5637, 556.7029
187.0458, 567.8053
187.5279, 559.8402
188.0100, 539.4428
188.4922, 520.1010
188.9743, 501.5518
189.4564, 485.4437
189.9385, 472.8254
190.4206, 463.7635
190.9027, 459.0485
191.3849, 461.1371
191.8670, 467.6456
192.3491, 467.7165
192.8312, 459.8167
193.3133, 453.0585
193.7955, 461.8379
194.2776, 485.7398
194.7597, 504.0666
195.2418, 506.2823
195.7239, 494.7348
196.2060, 487.6089
196.6882, 484.8586
197.1703, 486.8546
197.6524, 494.8748
198.1345, 508.9847
198.6166, 526.1396
199.0987, 544.8676
199.5809, 565.1679
200.0630, 587.6452
200.5451, 611.1765
201.0272, 638.5244
201.5093, 675.3121
201.9914, 722.0873
202.4736, 775.7064
202.9557, 839.3583
203.4378, 914.8521
203.9199, 978.0058
204.4020, 1025.368
204.8841, 1061.674
205.3663, 1097.414
205.8484, 1132.023
206.3305, 1168.382
206.8126, 1206.848
207.2947, 1246.143
207.7768, 1295.458
208.2590, 1355.617
208.7411, 1426.338
209.2232, 1507.567
209.7053, 1601.800
210.1874, 1701.753
210.6695, 1802.539
211.1517, 1901.121
211.6338, 2012.906
212.1159, 2137.697
212.5980, 2276.994
213.0801, 2446.403
213.5622, 2659.133
214.0444, 2874.372
214.5265, 3055.962
215.0086, 3198.945
215.4907, 3325.937
215.9728, 3425.182
216.4549, 3503.156
216.9371, 3655.574
217.4192, 3910.793
217.9013, 4196.837
218.3834, 4487.332
218.8655, 4879.458
219.3476, 5004.990
219.8298, 4727.579
220.3119, 4046.033
220.7940, 3402.281
221.2761, 2762.876
221.7582, 2199.780
222.2403, 1789.241
222.7225, 1577.345
223.2046, 1430.560
223.6867, 1327.266
224.1688, 1268.225
224.6509, 1237.728
225.1330, 1247.584
225.6152, 1274.589
226.0973, 1289.488
226.5794, 1289.556
227.0615, 1282.602
227.5436, 1268.040
228.0257, 1242.854
228.5079, 1228.551
228.9900, 1231.572
229.4721, 1240.473
229.9542, 1237.612
230.4363, 1215.819
230.9185, 1195.359
231.4006, 1182.173
231.8827, 1177.534
232.3648, 1175.478
232.8469, 1177.089
233.3290, 1180.636
233.8112, 1182.490
234.2933, 1179.008
234.7754, 1179.950
235.2575, 1189.524
235.7396, 1210.976
236.2217, 1229.945
236.7039, 1242.550
237.1860, 1254.615
237.6681, 1278.361
238.1502, 1318.582
238.6323, 1362.901
239.1144, 1408.538
239.5966, 1457.649
240.0787, 1501.144
240.5608, 1536.491
241.0429, 1567.151
241.5250, 1600.648
242.0071, 1637.107
242.4893, 1676.399
242.9714, 1718.621
243.4535, 1767.571
243.9356, 1813.494
244.4177, 1863.927
244.8998, 1909.437
245.3820, 1923.551
245.8641, 1894.001
246.3462, 1850.915
246.8283, 1808.005
247.3104, 1769.137
247.7925, 1721.520
248.2747, 1662.981
248.7568, 1596.036
249.2389, 1527.276
249.7210, 1455.102
250.2031, 1383.536
250.6852, 1311.928
251.1674, 1232.340
251.6495, 1174.662
252.1316, 1149.293
252.6137, 1145.047
253.0958, 1125.985
253.5779, 1083.063
254.0601, 1039.212
254.5422, 1008.355
255.0243, 999.4449
255.5064, 980.1102
255.9885, 945.1915
256.4706, 899.6595
256.9528, 859.0347
257.4349, 824.9786
257.9170, 792.9963
258.3991, 759.7070
258.8812, 723.0927
259.3633, 691.5468
259.8455, 665.8956
260.3276, 645.2864
260.8097, 627.8271
261.2918, 615.0427
261.7739, 602.3436
262.2560, 586.0504
262.7382, 563.0279
263.2203, 545.6168
263.7024, 534.5347
264.1845, 529.3853
264.6666, 530.4843
265.1487, 542.7177
265.6309, 551.0635
266.1130, 544.3491
266.5951, 516.4913
267.0772, 495.1337
267.5593, 482.7106
268.0414, 477.7278
268.5236, 476.1928
269.0057, 479.0666
269.4878, 483.0349
269.9699, 487.4623
270.4520, 493.8155
270.9341, 492.6499
271.4163, 479.7966
271.8984, 460.5831
272.3805, 452.2841
272.8626, 457.4912
273.3447, 465.7626
273.8268, 471.7432
274.3090, 475.6516
274.7911, 475.2536
275.2732, 469.0094
275.7553, 459.2614
276.2374, 452.4331
276.7195, 448.8336
277.2017, 446.7180
277.6838, 445.2037
278.1659, 444.3158
278.6480, 443.4992
279.1301, 442.1887
279.6122, 441.4106
280.0944, 444.8851
280.5765, 453.5971
281.0586, 460.8656
281.5407, 461.4877
282.0229, 455.3985
282.5050, 451.2227
282.9871, 450.1718
283.4692, 450.8218
283.9513, 450.0248
284.4334, 447.6621
284.9156, 445.2376
285.3977, 443.9888
285.8798, 443.7656
286.3619, 442.1527
286.8440, 438.2365
287.3261, 434.0389
287.8083, 433.8193
288.2904, 437.6112
288.7725, 441.7613
289.2546, 444.2240
289.7367, 445.1827
290.2188, 446.3418
290.7010, 448.5450
291.1831, 449.3588
291.6652, 442.2589
292.1473, 427.9260
292.6294, 416.7544
293.1115, 416.5253
293.5937, 424.4083
294.0758, 431.7600
294.5579, 438.8922
295.0400, 442.3083
295.5221, 432.9299
296.0042, 413.1926
296.4864, 398.0793
296.9685, 398.1584
297.4506, 408.3894
297.9327, 418.0717
298.4148, 427.1172
298.8969, 432.9381
299.3791, 429.3787
299.8612, 419.0351
300.3433, 410.9261
300.8254, 411.2531
301.3075, 416.4027
301.7896, 421.2853
302.2718, 425.9161
302.7539, 428.4692
303.2360, 424.8803
303.7181, 417.6226
304.2002, 412.6367
304.6823, 415.1481
305.1645, 420.4116
305.6466, 422.6897
306.1287, 421.5774
306.6108, 419.4609
307.0929, 417.3619
307.5750, 415.7142
308.0572, 415.2242
308.5393, 416.7557
309.0214, 419.2477
309.5035, 421.4194
309.9856, 423.1841
310.4677, 426.4046
310.9499, 435.3943
311.4320, 445.9150
311.9141, 452.2621
312.3962, 448.4254
312.8783, 442.7113
313.3604, 440.9349
313.8426, 443.0259
314.3247, 444.3779
314.8068, 440.3461
315.2889, 435.1279
315.7710, 433.0777
316.2531, 440.3531
316.7353, 446.8216
317.2174, 446.6222
317.6995, 440.4284
318.1816, 435.5178
318.6637, 435.5203
319.1458, 437.5877
319.6280, 439.4332
320.1101, 441.3899
320.5922, 442.1217
321.0743, 439.5734
321.5564, 434.7080
322.0385, 432.8972
322.5207, 440.5553
323.0028, 448.5476
323.4849, 451.1146
323.9670, 441.8576
324.4491, 433.7668
324.9312, 428.3619
325.4134, 425.4917
325.8955, 424.5858
326.3776, 427.4602
326.8597, 430.8770
327.3418, 433.3756
327.8239, 434.5907
328.3061, 435.2307
328.7882, 434.8569
329.2703, 433.9110
329.7524, 433.5222
330.2345, 433.8628
330.7166, 434.5778
331.1988, 435.0524
331.6809, 432.8447
332.1630, 436.5399
332.6451, 453.1062
333.1272, 473.0902
333.6093, 477.3470
334.0915, 453.6337
334.5736, 433.4268
335.0557, 428.2152
335.5378, 442.0206
336.0199, 452.2453
336.5020, 458.6713
336.9842, 461.8262
337.4663, 462.2874
337.9484, 459.5564
338.4305, 455.2461
338.9126, 448.1775
339.3947, 438.3378
339.8769, 437.2089
340.3590, 448.6593
340.8411, 460.9397
341.3232, 458.9475
341.8053, 440.4067
342.2874, 425.2938
342.7696, 419.2118
343.2517, 420.7507
343.7338, 423.6458
344.2159, 428.3083
344.6980, 432.3658
345.1801, 432.2249
345.6623, 428.3693
346.1444, 428.6194
346.6265, 436.8061
347.1086, 448.1255
347.5907, 450.0398
348.0728, 442.5696
348.5550, 434.7068
349.0371, 436.1917
349.5192, 443.1971
350.0013, 441.7030
350.4834, 425.9610
350.9655, 407.5016
351.4477, 404.7327
351.9298, 415.0697
352.4119, 426.0286
352.8940, 429.2081
353.3762, 428.2781
353.8583, 429.5533
354.3404, 434.5138
354.8225, 438.9936
355.3046, 437.5534
355.7867, 432.4088
356.2689, 428.8786
356.7510, 432.3322
357.2331, 437.0486
357.7152, 437.0925
358.1973, 431.5782
358.6794, 426.0107
359.1616, 424.2065
359.6437, 424.4741
360.1258, 424.4464
360.6079, 422.0734
361.0900, 420.1003
361.5721, 419.6126
362.0543, 420.6708
362.5364, 423.8284
363.0185, 432.4469
363.5006, 441.8459
363.9827, 447.7369
364.4648, 445.3032
364.9470, 443.1810
365.4291, 444.1251
365.9112, 447.6963
366.3933, 450.6382
366.8754, 453.6987
367.3575, 455.0420
367.8397, 453.5359
368.3218, 440.0790
368.8039, 434.8902
369.2860, 446.7062
369.7681, 468.4483
370.2502, 479.0189
370.7324, 468.0539
371.2145, 456.2538
371.6966, 451.5685
372.1787, 457.0342
372.6608, 462.1149
373.1429, 467.1205
373.6251, 471.5613
374.1072, 474.4390
374.5893, 474.5880
375.0714, 475.5789
375.5535, 479.1005
376.0356, 485.4563
376.5178, 489.3694
376.9999, 490.3328
377.4820, 489.6581
377.9641, 488.7578
378.4462, 487.6716
378.9283, 485.9562
379.4105, 482.9698
379.8926, 479.3196
380.3747, 477.7761
380.8568, 478.4023
381.3389, 480.6648
381.8210, 485.3056
382.3032, 491.8074
382.7853, 495.7266
383.2674, 494.9647
383.7495, 492.9908
384.2316, 498.4881
384.7137, 510.5317
385.1959, 519.4418
385.6780, 513.5636
386.1601, 500.7247
386.6422, 499.8400
387.1243, 516.2099
387.6064, 533.6568
388.0886, 533.7464
388.5707, 521.2778
389.0528, 508.6498
389.5349, 501.0582
390.0170, 496.8510
390.4991, 495.0236
390.9813, 495.6468
391.4634, 496.7249
391.9455, 497.1262
392.4276, 497.1730
392.9097, 497.2749
393.3918, 498.1299
393.8740, 498.5779
394.3561, 497.8963
394.8382, 496.1813
395.3203, 494.3920
395.8024, 492.2016
396.2845, 490.4849
396.7667, 489.8376
397.2488, 490.2241
397.7309, 491.8653
398.2130, 496.7539
398.6951, 503.2513
399.1772, 506.1997
399.6594, 500.7695
400.1415, 495.3648
400.6236, 493.0397
401.1057, 494.8033
401.5878, 497.2420
402.0699, 499.9012
402.5521, 503.4577
403.0342, 509.4289
403.5163, 520.9209
403.9984, 529.2538
404.4805, 531.7031
404.9626, 528.1641
405.4448, 524.4274
405.9269, 520.7119
406.4090, 516.3956
406.8911, 509.5425
407.3732, 499.0179
407.8553, 493.8017
408.3375, 496.3277
408.8196, 504.7306
409.3017, 514.8456
409.7838, 527.0591
410.2659, 536.6586
410.7480, 538.5679
411.2302, 534.3923
411.7123, 532.1341
412.1944, 532.8937
412.6765, 535.1675
413.1586, 536.5279
413.6407, 537.4683
414.1229, 540.0808
414.6050, 546.1821
415.0871, 554.3856
415.5692, 562.0740
416.0513, 569.1608
416.5334, 577.6446
417.0156, 593.6776
417.4977, 611.2996
417.9798, 621.3808
418.4619, 613.8379
418.9440, 603.7287
419.4261, 598.7168
419.9083, 598.8420
420.3904, 603.6824
420.8725, 615.2949
421.3546, 630.2188
421.8367, 646.7392
422.3188, 669.9824
422.8010, 685.5326
423.2831, 682.8992
423.7652, 670.4819
424.2473, 666.3206
424.7295, 680.9208
425.2116, 696.7534
425.6937, 707.7937
426.1758, 711.8893
426.6579, 719.3414
427.1400, 736.2311
427.6222, 752.4601
428.1043, 756.9040
428.5864, 741.7537
429.0685, 730.3677
429.5506, 726.5335
430.0327, 729.8689
430.5149, 738.9350
430.9970, 755.9606
431.4791, 773.3174
431.9612, 785.3555
432.4433, 791.8146
432.9254, 798.3572
433.4076, 806.3938
433.8897, 813.1525
434.3718, 811.6039
434.8539, 802.0151
435.3360, 793.7407
435.8181, 792.3063
436.3003, 795.7377
436.7824, 800.2867
437.2645, 806.2754
437.7466, 808.6335
438.2287, 799.3511
438.7108, 782.7570
439.1930, 768.7286
439.6751, 765.6962
440.1572, 761.8299
440.6393, 742.5923
441.1214, 710.9589
441.6035, 681.6205
442.0857, 662.1734
442.5678, 649.2222
443.0499, 640.4788
443.5320, 637.6245
444.0141, 633.9886
444.4962, 624.2991
444.9784, 612.5228
445.4605, 605.3041
445.9426, 605.6231
446.4247, 609.5824
446.9068, 617.2846
447.3889, 629.4583
447.8711, 638.9012
448.3532, 639.7115
448.8353, 641.2075
449.3174, 651.0834
449.7995, 679.1119
450.2816, 698.7165
450.7638, 703.0168
451.2459, 697.1169
451.7280, 700.8046
452.2101, 715.9867
452.6922, 736.0135
453.1743, 757.0939
453.6565, 778.4970
454.1386, 807.5277
454.6207, 846.1960
455.1028, 888.5364
455.5849, 922.8678
456.0670, 950.0311
456.5492, 988.6492
457.0313, 1050.129
457.5134, 1125.068
457.9955, 1186.958
458.4776, 1236.900
458.9597, 1290.460
459.4419, 1364.336
459.9240, 1449.090
460.4061, 1528.729
460.8882, 1596.019
461.3703, 1664.998
461.8524, 1743.812
462.3346, 1833.114
462.8167, 1933.048
463.2988, 2050.505
463.7809, 2172.419
464.2630, 2288.845
464.7451, 2397.933
465.2273, 2509.529
465.7094, 2626.534
466.1915, 2746.331
466.6736, 2867.997
467.1557, 2990.666
467.6378, 3114.810
468.1200, 3236.362
468.6021, 3359.412
469.0842, 3497.139
469.5663, 3659.553
470.0484, 3824.337
470.5305, 3984.413
471.0127, 4139.417
471.4948, 4293.660
471.9769, 4461.955
472.4590, 4612.729
472.9411, 4699.306
473.4232, 4716.065
473.9054, 4702.109
474.3875, 4657.045
474.8696, 4591.600
475.3517, 4543.763
475.8338, 4512.597
476.3159, 4509.891
476.7981, 4543.116
477.2802, 4612.000
477.7623, 4717.558
478.2444, 4862.309
478.7265, 5037.042
479.2086, 5238.740
479.6908, 5461.453
480.1729, 5688.333
480.6550, 5906.075
481.1371, 6129.079
481.6192, 6372.149
482.1013, 6635.768
482.5835, 6894.547
483.0656, 7128.726
483.5477, 7353.529
484.0298, 7581.694
484.5119, 7836.716
484.9940, 8067.847
485.4762, 8270.718
485.9583, 8443.493
486.4404, 8581.452
486.9225, 8690.783
487.4046, 8757.776
487.8867, 8784.398
488.3689, 8775.397
488.8510, 8693.977
489.3331, 8530.105
489.8152, 8305.701
490.2973, 8034.983
490.7794, 7712.658
491.2616, 7368.977
491.7437, 7001.829
492.2258, 6622.734
492.7079, 6264.786
493.1900, 5931.247
493.6722, 5612.618
494.1543, 5305.590
494.6364, 5011.446
495.1185, 4736.972
495.6006, 4487.234
496.0828, 4257.075
496.5649, 4049.891
497.0470, 3860.832
497.5291, 3685.194
498.0112, 3520.188
498.4933, 3365.551
498.9755, 3224.851
499.4576, 3094.863
499.9397, 2971.385
500.4218, 2842.360
500.9039, 2725.018
501.3860, 2632.797
501.8682, 2577.667
502.3503, 2516.118
502.8324, 2428.947
503.3145, 2333.645
503.7966, 2251.463
504.2787, 2190.782
504.7609, 2133.143
505.2430, 2073.901
505.7251, 2014.938
506.2072, 1968.769
506.6893, 1941.370
507.1714, 1916.579
507.6536, 1883.198
508.1357, 1838.951
508.6178, 1807.538
509.0999, 1792.912
509.5820, 1783.907
510.0641, 1764.526
510.5463, 1735.499
511.0284, 1707.161
511.5105, 1680.804
511.9926, 1658.063
512.4747, 1645.842
512.9568, 1642.510
513.4390, 1634.418
513.9211, 1605.715
514.4032, 1569.428
514.8853, 1542.653
515.3674, 1529.343
515.8495, 1518.457
516.3317, 1504.890
516.8138, 1489.199
517.2959, 1472.156
517.7780, 1449.300
518.2601, 1429.765
518.7422, 1418.117
519.2244, 1413.584
519.7065, 1408.730
520.1886, 1407.175
520.6707, 1401.352
521.1528, 1386.926
521.6349, 1358.684
522.1171, 1335.598
522.5992, 1319.910
523.0813, 1307.149
523.5634, 1289.030
524.0455, 1263.214
524.5276, 1245.561
525.0098, 1244.551
525.4919, 1252.701
525.9740, 1241.138
526.4561, 1209.157
526.9382, 1178.946
527.4203, 1172.301
527.9025, 1177.479
528.3846, 1162.938
528.8667, 1122.558
529.3488, 1082.644
529.8309, 1073.871
530.3130, 1081.472
530.7952, 1081.357
531.2773, 1056.728
531.7594, 1028.745
532.2415, 1009.549
532.7236, 996.9843
533.2057, 982.5880
533.6879, 958.1882
534.1700, 935.4803
534.6521, 921.6746
535.1342, 923.2159
535.6163, 916.8749
536.0984, 896.7200
536.5806, 872.3813
537.0627, 854.5378
537.5448, 846.1834
538.0269, 836.5579
538.5090, 823.7291
538.9911, 808.6931
539.4733, 794.2880
539.9554, 779.9270
540.4375, 769.6127
540.9196, 768.4000
541.4017, 773.7121
541.8839, 773.2286
542.3660, 766.3467
542.8481, 757.1940
543.3302, 747.9807
543.8123, 739.4463
544.2944, 733.0195
544.7766, 729.4704
545.2587, 727.5462
545.7408, 727.4481
546.2229, 728.3160
546.7050, 728.0217
547.1871, 726.6015
547.6693, 723.0438
548.1514, 715.0444
548.6335, 701.6465
549.1156, 693.2668
549.5977, 695.4440
550.0798, 700.5039
550.5620, 703.5018
551.0441, 705.1874
551.5262, 703.2390
552.0083, 696.6713
552.4904, 687.0674
552.9725, 676.5803
553.4547, 664.4628
553.9368, 655.5420
554.4189, 652.9153
554.9010, 654.6249
555.3831, 652.7637
555.8652, 647.2717
556.3474, 641.2844
556.8295, 638.3255
557.3116, 636.4518
557.7937, 631.4648
558.2758, 622.3383
558.7579, 611.8918
559.2401, 597.2552
559.7222, 584.0274
560.2043, 581.0235
560.6864, 606.9240
561.1685, 628.9079
561.6506, 629.5553
562.1328, 612.4738
562.6149, 597.8414
563.0970, 587.9626
563.5791, 582.7297
564.0612, 583.1580
564.5433, 592.1276
565.0255, 595.3129
565.5076, 589.6896
565.9897, 581.8383
566.4718, 578.2041
566.9539, 579.1919
567.4360, 582.7396
567.9182, 590.1588
568.4003, 597.7686
568.8824, 595.9713
569.3645, 585.5414
569.8466, 575.7556
570.3287, 572.6976
570.8109, 573.0557
571.2930, 570.9819
571.7751, 566.5322
572.2572, 563.2250
572.7393, 565.1727
573.2214, 568.6611
573.7036, 569.4255
574.1857, 564.6168
574.6678, 561.6293
575.1499, 565.4048
575.6320, 572.0697
576.1141, 576.0004
576.5963, 572.0775
577.0784, 570.1774
577.5605, 573.0674
578.0426, 579.7771
578.5247, 584.7363
579.0068, 588.6586
579.4890, 589.2758
579.9711, 582.9352
580.4532, 568.8384
580.9353, 565.3884
581.4174, 574.8652
581.8995, 585.5601
582.3817, 582.8618
582.8638, 570.0781
583.3459, 559.0797
583.8280, 552.1760
584.3101, 549.1979
584.7922, 553.0566
585.2744, 561.0015
585.7565, 566.0531
586.2386, 562.2623
586.7207, 556.7758
587.2028, 553.8234
587.6849, 553.5109
588.1671, 552.8794
588.6492, 548.7853
589.1313, 545.8754
589.6134, 547.4614
590.0955, 557.1884
590.5776, 563.2969
591.0598, 564.4667
591.5419, 563.2032
592.0240, 562.7596
592.5061, 563.3790
592.9882, 563.6841
593.4703, 563.6302
593.9525, 562.8494
594.4346, 558.8789
594.9167, 552.1295
595.3988, 548.3688
595.8809, 553.6177
596.3630, 562.9604
596.8452, 568.5269
597.3273, 569.9649
597.8094, 569.9339
598.2915, 570.3958
598.7736, 570.1350
599.2557, 567.5787
599.7379, 560.4659
600.2200, 555.0701
600.7021, 554.4809
601.1843, 556.3937
601.6664, 557.1650
602.1485, 556.6917
602.6306, 554.8621
603.1127, 550.8340
603.5948, 545.3379
604.0770, 542.5522
604.5591, 543.3862
605.0412, 543.9888
605.5233, 539.9631
606.0054, 532.6215
606.4875, 537.1205
606.9697, 554.7078
607.4518, 571.2816
607.9339, 570.1349
608.4160, 558.4338
608.8981, 549.7519
609.3802, 545.0437
609.8624, 548.6137
610.3445, 574.1669
610.8266, 608.2476
611.3087, 628.8137
611.7908, 614.1314
612.2729, 598.6523
612.7551, 594.7942
613.2372, 601.2119
613.7193, 606.2742
614.2014, 608.8029
614.6835, 610.8155
615.1656, 613.0995
615.6478, 615.7261
616.1299, 617.4504
616.6120, 617.5128
617.0941, 618.6730
617.5762, 624.8145
618.0583, 635.1844
618.5405, 643.6094
619.0226, 649.8580
619.5047, 651.7791
619.9868, 641.7297
620.4689, 625.1552
620.9510, 614.9415
621.4332, 618.4694
621.9153, 628.5157
622.3974, 644.7711
622.8795, 664.8281
623.3616, 679.0443
623.8438, 681.5327
624.3259, 679.8209
624.8080, 675.9641
625.2901, 669.2148
625.7722, 666.6185
626.2543, 671.7807
626.7365, 676.6149
627.2186, 673.8737
627.7007, 661.7594
628.1828, 653.6921
628.6649, 651.0458
629.1470, 651.7818
629.6292, 653.4157
630.1113, 655.9760
630.5934, 659.8389
631.0755, 666.4852
631.5576, 672.8655
632.0397, 675.9992
632.5219, 675.8395
633.0040, 672.1115
633.4861, 661.7627
633.9682, 650.2828
634.4503, 639.4040
634.9324, 629.2103
635.4146, 624.1607
635.8967, 630.0890
636.3788, 637.5609
636.8609, 641.1331
637.3430, 637.8642
637.8251, 639.5549
638.3073, 648.7677
638.7894, 659.0084
639.2715, 661.8555
639.7536, 657.2235
640.2357, 651.8057
640.7178, 646.5886
641.2000, 641.7915
641.6821, 636.0206
642.1642, 630.4949
642.6463, 629.5898
643.1284, 641.4079
643.6105, 654.1658
644.0927, 657.6402
644.5748, 652.7980
645.0569, 646.5496
645.5390, 637.5647
646.0211, 631.0895
646.5032, 630.6520
646.9854, 638.7990
647.4675, 644.4550
647.9496, 645.5624
648.4317, 646.4896
648.9138, 652.2136
649.3959, 664.6731
649.8781, 669.2458
650.3602, 662.9161
650.8423, 652.2324
651.3244, 644.5287
651.8065, 640.3666
652.2886, 643.1251
652.7708, 658.8080
653.2529, 675.7336
653.7350, 678.7289
654.2171, 671.7027
654.6992, 666.0191
655.1813, 671.0706
655.6635, 675.3801
656.1456, 672.1047
656.6277, 660.9496
657.1098, 650.2980
657.5919, 640.7192
658.0740, 632.2927
658.5562, 624.8974
659.0383, 618.0567
659.5204, 615.0463
660.0025, 617.3326
660.4846, 619.9510
660.9667, 617.6381
661.4489, 610.7233
661.9310, 601.8118
662.4131, 590.6030
662.8952, 579.6957
663.3773, 572.3841
663.8594, 567.9196
664.3416, 564.8043
664.8237, 564.7245
665.3058, 563.6368
665.7879, 557.8306
666.2700, 548.9330
666.7521, 542.4607
667.2343, 544.2485
667.7164, 544.0477
668.1985, 536.3981
668.6806, 521.4167
669.1627, 516.0729
669.6448, 524.2367
670.1270, 533.2331
670.6091, 533.9600
671.0912, 526.9373
671.5733, 523.9963
672.0554, 526.1953
672.5375, 527.0609
673.0197, 516.8418
673.5018, 501.2763
673.9839, 491.5136
674.4660, 491.3987
674.9481, 494.2121
675.4302, 495.8677
675.9124, 497.6306
676.3945, 501.3698
676.8766, 515.7971
677.3587, 522.6305
677.8408, 513.6824
678.3229, 494.7885
678.8051, 481.7448
679.2872, 474.6681
679.7693, 473.6347
680.2514, 481.6255
680.7335, 495.6654
681.2156, 499.1155
681.6978, 491.8624
682.1799, 482.7043
682.6620, 476.3327
683.1441, 472.4976
683.6262, 471.9037
684.1083, 474.6364
684.5905, 475.9693
685.0726, 471.4022
685.5547, 464.9040
686.0368, 459.6865
686.5189, 455.7217
687.0010, 454.4229
687.4832, 458.5921
687.9653, 464.0145
688.4474, 466.2048
688.9295, 463.6421
689.4116, 462.5455
689.8937, 464.5751
690.3759, 467.2340
690.8580, 464.9995
691.3401, 458.3071
691.8222, 452.2605
692.3043, 448.9702
692.7864, 447.0262
693.2686, 444.3690
693.7507, 441.2827
694.2328, 438.8609
694.7149, 436.6806
695.1970, 436.0938
695.6791, 439.7698
696.1613, 447.6368
696.6434, 450.3527
697.1255, 439.0460
697.6076, 430.1084
698.0897, 432.7538
698.5718, 450.0842
699.0540, 456.0209
699.5361, 447.5934
700.0182, 436.7830
700.5003, 435.9540
700.9824, 442.8109
701.4645, 445.6865
701.9467, 442.4818
702.4288, 438.6420
702.9109, 439.0131
703.3930, 442.3614
703.8751, 447.2706
704.3572, 457.7416
704.8394, 463.1072
705.3215, 453.0578
705.8036, 436.2462
706.2857, 429.6155
706.7678, 441.3222
707.2499, 451.4061
707.7321, 456.7299
708.2142, 458.0486
708.6963, 456.6017
709.1784, 451.8196
709.6605, 449.8881
710.1426, 455.9217
710.6248, 465.7354
711.1069, 467.9988
711.5890, 463.8657
712.0711, 461.1437
712.5532, 466.3041
713.0353, 474.0325
713.5175, 481.6028
713.9996, 489.0453
714.4817, 490.4143
714.9638, 474.7556
715.4459, 460.0177
715.9280, 457.4464
716.4102, 472.0969
716.8923, 482.1877
717.3744, 487.0743
717.8565, 488.7837
718.3386, 487.8692
718.8207, 484.8536
719.3029, 486.5281
719.7850, 495.1551
720.2671, 503.2809
720.7492, 499.2043
721.2313, 488.9984
721.7134, 483.9391
722.1956, 492.1732
722.6777, 499.5480
723.1598, 497.5676
723.6419, 490.5356
724.1240, 486.8951
724.6061, 488.8005
725.0883, 492.9205
725.5704, 500.0293
726.0525, 508.6818
726.5346, 513.8680
727.0167, 515.2513
727.4988, 515.4955
727.9810, 513.6564
728.4631, 512.5117
728.9452, 523.3330
729.4273, 543.4718
729.9094, 555.9083
730.3915, 541.8511
730.8737, 521.8322
731.3558, 512.1852
731.8379, 514.0709
732.3200, 517.1854
732.8021, 520.5804
733.2842, 522.7321
733.7664, 522.4291
734.2485, 518.6915
734.7306, 517.6872
735.2127, 519.9837
735.6948, 523.6765
736.1769, 526.9781
736.6591, 530.1303
737.1412, 535.7615
737.6233, 544.7637
738.1054, 551.7007
738.5875, 547.8203
739.0696, 539.6372
739.5518, 537.2095
740.0339, 547.0648
740.5161, 554.3306
740.9982, 551.8120
741.4803, 543.9886
741.9624, 536.8617
742.4445, 529.1827
742.9266, 525.1084
743.4088, 526.0037
743.8909, 529.8399
744.3730, 533.1993
744.8551, 536.0673
745.3372, 537.5874
745.8193, 537.4039
746.3015, 535.9056
746.7836, 531.5653
747.2657, 526.1567
747.7478, 524.8289
748.2299, 535.9364
748.7120, 546.3373
749.1942, 547.4382
749.6763, 540.9688
750.1584, 536.9591
750.6405, 540.0671
751.1226, 541.2151
751.6047, 536.3298
752.0869, 526.3799
752.5690, 522.4493
753.0511, 525.3226
753.5332, 528.0596
754.0153, 526.0811
754.4974, 520.8682
754.9796, 515.2981
755.4617, 509.5233
755.9438, 504.5031
756.4259, 501.2454
756.9080, 498.7381
757.3901, 495.9841
757.8723, 492.5422
758.3544, 490.7743
758.8365, 494.0167
759.3186, 496.3981
759.8007, 493.6510
760.2828, 483.6556
760.7650, 478.9279
761.2471, 480.8488
761.7292, 483.2899
762.2113, 480.3859
762.6934, 472.7567
763.1755, 460.6117
763.6577, 442.5118
764.1398, 428.3297
764.6219, 429.6045
765.1040, 437.6234
765.5861, 442.1479
766.0682, 439.4867
766.5504, 435.1690
767.0325, 427.2471
767.5146, 419.7117
767.9967, 418.7703
768.4788, 428.2042
768.9609, 428.2414
769.4431, 413.2666
769.9252, 392.9958
770.4073, 382.7090
770.8894, 381.2088
771.3715, 384.2831
771.8536, 394.5288
772.3358, 402.5236
772.8179, 396.1954
773.3000, 382.1624
773.7821, 373.5139
774.2642, 378.1512
774.7463, 384.3611
775.2285, 392.6869
775.7106, 400.0563
776.1927, 395.7102
776.6748, 374.4897
777.1569, 361.3140
777.6390, 367.3057
778.1212, 383.7816
778.6033, 388.3850
779.0854, 382.5461
779.5675, 374.6570
780.0496, 366.0289
780.5317, 359.8050
781.0139, 359.0215
781.4960, 363.1038
781.9781, 369.0695
782.4602, 380.5838
782.9423, 389.0201
783.4244, 391.6474
783.9066, 388.7048
784.3887, 381.4245
784.8708, 367.7576
785.3529, 357.9204
785.8350, 361.1376
786.3171, 372.3106
786.7993, 372.2506
787.2814, 361.8232
787.7635, 351.5068
788.2456, 348.4226
788.7277, 348.2666
789.2098, 347.5672
789.6920, 346.0143
790.1741, 345.1001
790.6562, 343.3269
791.1383, 344.1915
791.6204, 350.9420
792.1025, 364.6005
792.5847, 370.1256
793.0668, 366.3432
793.5489, 359.3632
794.0310, 352.3968
794.5131, 346.1801
794.9952, 342.8407
795.4774, 342.4930
795.9595, 344.0333
796.4416, 348.7124
796.9237, 353.6124
797.4058, 356.3806
797.8879, 356.7840
798.3701, 354.5308
798.8522, 346.9819
799.3343, 339.6890
799.8164, 336.6232
800.2985, 338.2216
800.7806, 340.7739
801.2628, 344.2752
801.7449, 348.4945
802.2270, 356.7053
802.7091, 364.6315
803.1912, 361.0399
803.6733, 341.8496
804.1555, 326.4314
804.6376, 332.5395
805.1197, 344.5225
805.6018, 347.4610
806.0839, 328.2351
806.5660, 321.9141
807.0482, 335.2700
807.5303, 353.1151
808.0124, 359.8295
808.4945, 355.4076
808.9766, 350.4784
809.4587, 345.6776
809.9409, 342.9309
810.4230, 346.2325
810.9051, 352.3642
811.3872, 355.9489
811.8693, 354.6272
812.3514, 353.7112
812.8336, 357.4869
813.3157, 361.7157
813.7978, 361.2811
814.2799, 352.1385
814.7620, 347.7051
815.2441, 350.1589
815.7263, 354.6214
816.2084, 354.1454
816.6905, 349.6379
817.1726, 346.8378
817.6547, 346.9641
818.1368, 348.6878
818.6190, 353.0343
819.1011, 357.3585
819.5832, 357.7697
820.0653, 348.2044
820.5474, 342.6814
821.0295, 348.4001
821.5117, 356.9535
821.9938, 359.0813
822.4759, 353.1154
822.9580, 347.7078
823.4401, 343.4359
823.9222, 341.1894
824.4044, 344.4939
824.8865, 350.8754
825.3686, 353.0653
825.8507, 347.1625
826.3328, 341.6974
826.8149, 344.3997
827.2971, 350.1732
827.7792, 352.4957
828.2613, 344.1240
828.7434, 341.3321
829.2255, 348.8107
829.7076, 357.7085
830.1898, 352.8081
830.6719, 334.1899
831.1540, 325.3610
831.6361, 332.6143
832.1182, 344.3810
832.6003, 346.4740
833.0825, 343.4369
833.5646, 343.3116
834.0467, 352.4516
834.5288, 357.7563
835.0109, 350.0713
835.4930, 338.0705
835.9752, 333.6898
836.4573, 340.3493
836.9394, 345.1623
837.4215, 346.7780
837.9036, 346.4162
838.3857, 344.8499
838.8679, 342.6297
839.3500, 342.1364
839.8321, 344.2506
840.3142, 347.1997
840.7963, 350.7625
841.2784, 353.8436
841.7606, 354.9938
842.2427, 350.7603
842.7248, 349.2157
843.2069, 352.4594
843.6890, 357.0349
844.1711, 358.9669
844.6533, 358.2147
845.1354, 354.9293
845.6175, 348.0043
846.0996, 343.0733
846.5817, 351.5804
847.0638, 365.5997
847.5460, 370.1326
848.0281, 357.3439
848.5102, 345.8019
848.9923, 343.9733
849.4744, 346.6405
849.9565, 348.2206
850.4387, 347.9758
850.9208, 348.2295
851.4029, 349.1115
851.8850, 350.3876
852.3671, 352.5464
852.8492, 354.9702
853.3314, 355.0213
853.8135, 351.9653
854.2956, 348.2818
854.7777, 344.3445
855.2598, 341.6194
855.7419, 341.6848
856.2241, 345.8233
856.7062, 350.7643
857.1883, 357.3376
857.6704, 363.3992
858.1525, 367.4783
858.6346, 369.5916
859.1168, 368.0069
859.5989, 362.0727
860.0810, 357.0456
860.5631, 359.1115
861.0452, 364.8495
861.5273, 370.3118
862.0095, 375.2054
862.4916, 377.3242
862.9737, 374.1309
863.4558, 369.0343
863.9379, 364.0908
864.4200, 358.8983
864.9022, 355.5583
865.3843, 353.9348
865.8664, 354.5744
866.3485, 359.6609
866.8306, 367.0643
867.3127, 371.2625
867.7949, 371.9697
868.2770, 372.1645
868.7591, 376.0247
869.2412, 378.3162
869.7233, 373.3611
870.2054, 358.4273
870.6876, 352.7979
871.1697, 360.1808
871.6518, 369.7489
872.1339, 376.9496
872.6160, 381.3743
873.0981, 377.5402
873.5803, 365.9044
874.0624, 357.3360
874.5445, 363.9419
875.0266, 373.3861
875.5087, 373.3245
875.9908, 364.1102
876.4730, 358.1815
876.9551, 360.6807
877.4372, 364.5683
877.9193, 368.7855
878.4014, 372.6889
878.8835, 371.6449
879.3657, 365.5768
879.8478, 358.5150
880.3299, 349.8685
880.8120, 343.3716
881.2941, 346.9505
881.7763, 357.6927
882.2584, 365.5714
882.7405, 361.9976
883.2227, 359.8579
883.7048, 366.2926
884.1869, 377.2646
884.6690, 381.0876
885.1511, 376.9805
885.6332, 369.1643
886.1154, 357.3522
886.5975, 344.9127
887.0796, 338.1273
887.5617, 335.8074
888.0438, 334.6881
888.5259, 331.9441
889.0081, 331.7656
889.4902, 340.4012
889.9723, 351.7112
890.4544, 353.2951
890.9365, 339.1133
891.4186, 330.5100
891.9008, 331.2764
892.3829, 336.9216
892.8650, 342.2948
893.3471, 346.6786
893.8292, 346.9286
894.3113, 340.5571
894.7935, 335.0619
895.2756, 337.3032
895.7577, 342.6808
896.2398, 346.0350
896.7219, 346.1115
897.2040, 344.4512
897.6862, 339.8558
898.1683, 335.4661
898.6504, 335.9916
899.1325, 340.3035
899.6146, 339.1978
900.0967, 331.2389
900.5789, 324.4827
901.0610, 324.5913
901.5431, 329.6365
902.0252, 339.7868
902.5073, 357.3951
902.9894, 366.5677
903.4716, 358.8750
903.9537, 351.9460
904.4358, 358.6284
904.9179, 377.6848
905.4000, 382.1476
905.8821, 371.8891
906.3643, 358.3893
906.8464, 346.9251
907.3285, 338.2152
907.8106, 332.5182
908.2927, 330.0628
908.7748, 332.0275
909.2570, 345.3531
909.7391, 355.7340
910.2212, 357.5687
910.7033, 352.8531
911.1854, 352.0580
911.6675, 355.3340
912.1497, 357.4489
912.6318, 355.8924
913.1139, 352.1241
913.5960, 344.8825
914.0781, 336.9993
914.5602, 335.2827
915.0424, 350.9661
915.5245, 362.5181
916.0066, 361.5042
916.4887, 354.9664
916.9708, 357.2067
917.4529, 369.6175
917.9351, 374.3336
918.4172, 365.0463
918.8993, 354.5627
919.3814, 365.7190
919.8635, 385.8098
920.3456, 392.1239
920.8278, 370.6403
921.3099, 352.3288
921.7920, 345.9768
922.2741, 347.1881
922.7562, 354.3672
923.2383, 370.3150
923.7205, 374.9904
924.2026, 365.8647
924.6847, 356.4119
925.1668, 362.9919
925.6489, 376.4609
926.1310, 381.2895
926.6132, 375.5161
927.0953, 370.0343
927.5774, 370.7162
928.0595, 371.5168
928.5416, 367.3123
929.0237, 358.1768
929.5059, 362.6400
929.9880, 383.4879
930.4701, 398.3491
930.9522, 386.4554
931.4343, 364.1422
931.9164, 361.9523
932.3986, 374.9619
932.8807, 384.1029
933.3628, 375.0000
933.8449, 366.8747
934.3270, 368.0254
934.8091, 375.0367
935.2913, 380.0584
935.7734, 382.9683
936.2555, 384.9189
936.7376, 386.2050
937.2197, 386.7099
937.7018, 385.6352
938.1840, 383.7637
938.6661, 382.5765
939.1482, 381.6338
939.6303, 382.9725
940.1124, 389.4558
940.5945, 397.1849
941.0767, 401.6785
941.5588, 401.6593
942.0409, 406.3663
942.5230, 417.0829
943.0051, 427.9705
943.4872, 435.3548
943.9694, 438.3103
944.4515, 432.3513
944.9336, 416.3295
945.4157, 407.1674
945.8978, 416.2041
946.3799, 430.1420
946.8621, 443.8342
947.3442, 457.0777
947.8263, 461.3882
948.3084, 455.5838
948.7905, 454.1679
949.2726, 472.3530
949.7548, 495.5225
950.2369, 499.6647
950.7190, 490.3640
951.2011, 485.8857
951.6832, 494.6609
952.1653, 507.6715
952.6475, 524.8696
953.1296, 543.3527
953.6117, 556.0920
954.0938, 562.9285
954.5759, 570.5942
955.0580, 581.3271
955.5402, 591.2759
956.0223, 591.7127
956.5044, 589.8685
956.9865, 597.5065
957.4686, 624.1284
957.9507, 644.8625
958.4329, 650.0991
958.9150, 654.3905
959.3971, 671.4789
959.8792, 701.8533
960.3613, 720.2977
960.8434, 725.9057
961.3256, 729.8787
961.8077, 740.4926
962.2898, 754.5410
962.7719, 770.1143
963.2540, 786.8490
963.7361, 801.3936
964.2183, 813.1340
964.7004, 822.2046
965.1825, 826.7122
965.6646, 829.1716
966.1467, 838.7254
966.6288, 854.8209
967.1110, 874.0130
967.5931, 898.2719
968.0752, 920.5773
968.5573, 935.0953
969.0394, 943.6995
969.5215, 949.7119
970.0037, 953.2123
970.4858, 955.2191
970.9679, 956.9178
971.4500, 955.1569
971.9321, 942.4357
972.4142, 922.3730
972.8964, 909.6855
973.3785, 906.5646
973.8606, 907.9307
974.3427, 917.7773
974.8248, 925.2244
975.3069, 919.0507
975.7891, 896.6657
976.2712, 882.4352
976.7533, 879.2510
977.2354, 875.1756
977.7175, 861.9943
978.1996, 843.9785
978.6818, 833.7437
979.1639, 828.9034
979.6460, 819.9334
980.1281, 796.1146
980.6102, 773.8069
981.0923, 762.0150
981.5745, 755.9336
982.0566, 745.7467
982.5387, 730.4415
983.0208, 716.3489
983.5029, 704.2329
983.9850, 694.6618
984.4672, 691.7604
984.9493, 690.5179
985.4314, 681.8308
985.9135, 661.4322
986.3956, 642.9584
986.8777, 629.9494
987.3599, 620.7625
987.8420, 615.6560
988.3241, 614.6581
988.8062, 609.6528
989.2883, 600.5927
989.7704, 592.0889
990.2526, 588.0668
990.7347, 585.5079
991.2168, 580.9404
991.6989, 575.0218
992.1810, 570.9604
992.6631, 569.0200
993.1453, 569.8719
993.6274, 574.7271
994.1095, 581.2617
994.5916, 584.9240
995.0737, 586.0247
995.5558, 585.8563
996.0380, 583.9608
996.5201, 583.4670
997.0022, 588.1973
997.4843, 594.6282
997.9664, 598.3384
998.4485, 596.4962
998.9307, 602.1898
999.4128, 618.2592
999.8949, 632.7997
1000.377, 634.7961
1000.859, 629.0902
1001.341, 626.0818
1001.823, 626.0853
1002.305, 628.9300
1002.788, 638.7833
1003.270, 646.9196
1003.752, 650.2771
1004.234, 649.1917
1004.716, 643.3737
1005.198, 632.4485
1005.680, 621.6239
1006.162, 612.8356
1006.645, 603.5844
1007.127, 591.8303
1007.609, 577.3857
1008.091, 559.3169
1008.573, 533.6569
1009.055, 514.3530
1009.537, 505.3279
1010.019, 499.6120
1010.501, 493.0870
1010.984, 485.7231
1011.466, 475.8336
1011.948, 463.6828
1012.430, 453.1859
1012.912, 450.5217
1013.394, 447.1801
1013.876, 432.7290
1014.358, 411.5767
1014.841, 404.6655
1015.323, 417.9912
1015.805, 430.4979
1016.287, 438.7754
1016.769, 441.9015
1017.251, 435.1711
1017.733, 422.6795
1018.215, 413.6059
1018.697, 411.7581
1019.180, 408.8732
1019.662, 395.9848
1020.144, 385.7430
1020.626, 389.0685
1021.108, 407.2710
1021.590, 415.2606
1022.072, 412.7394
1022.554, 407.1334
1023.037, 400.2380
1023.519, 395.3123
1024.001, 399.2727
1024.483, 408.8041
1024.965, 410.9827
1025.447, 394.8643
1025.929, 384.7365
1026.411, 386.1271
1026.893, 392.8090
1027.376, 394.0596
1027.858, 391.1700
1028.340, 390.1798
1028.822, 393.6121
1029.304, 391.9507
1029.786, 368.9790
1030.268, 346.2321
1030.750, 344.1158
1031.233, 365.0669
1031.715, 372.2090
1032.197, 363.3565
1032.679, 354.1987
1033.161, 356.4633
1033.643, 362.2576
1034.125, 356.9703
1034.607, 345.0601
1035.089, 339.3062
1035.572, 350.0656
1036.054, 359.4542
1036.536, 364.9736
1037.018, 367.4493
1037.500, 366.7139
1037.982, 363.4064
1038.464, 363.3183
1038.946, 367.5802
1039.428, 370.2845
1039.911, 362.6956
1040.393, 354.9723
1040.875, 357.4443
1041.357, 370.7353
1041.839, 376.0230
1042.321, 371.8190
1042.803, 364.8089
1043.285, 355.5439
1043.768, 347.9666
1044.250, 351.5499
1044.732, 362.3312
1045.214, 371.6711
1045.696, 377.9438
1046.178, 379.9737
1046.660, 375.0499
1047.142, 368.5887
1047.625, 365.9939
1048.107, 367.0058
1048.589, 366.7916
1049.071, 365.0927
1049.553, 364.9323
1050.035, 372.6830
1050.517, 379.3513
1050.999, 375.8258
1051.481, 363.4439
1051.964, 358.0240
1052.446, 362.6552
1052.928, 364.0497
1053.410, 357.5303
1053.892, 348.3183
1054.374, 345.8016
1054.856, 346.8804
1055.338, 344.6913
1055.820, 333.7054
1056.303, 330.4464
1056.785, 348.7871
1057.267, 366.2076
1057.749, 366.3354
1058.231, 350.8656
1058.713, 346.5673
1059.195, 352.6668
1059.677, 359.0910
1060.160, 361.2414
1060.642, 360.0134
1061.124, 351.5031
1061.606, 340.6882
1062.088, 341.4794
1062.570, 359.8719
1063.052, 370.0679
1063.534, 368.0090
1064.016, 359.4868
1064.499, 346.8270
1064.981, 334.2309
1065.463, 329.9184
1065.945, 335.4689
1066.427, 339.6177
1066.909, 337.0139
1067.391, 335.1903
1067.873, 337.0937
1068.355, 341.7261
1068.838, 345.7675
1069.320, 349.1859
1069.802, 352.2831
1070.284, 355.9177
1070.766, 357.9505
1071.248, 354.6564
1071.730, 350.4329
1072.212, 350.9374
1072.695, 358.3241
1073.177, 362.5227
1073.659, 363.4724
1074.141, 361.7642
1074.623, 355.6582
1075.105, 348.6451
1075.587, 343.3926
1076.069, 340.7495
1076.552, 344.2821
1077.034, 363.4277
1077.516, 374.4454
1077.998, 371.3284
1078.480, 361.5408
1078.962, 356.6937
1079.444, 355.6695
1079.926, 354.7484
1080.408, 352.8622
1080.891, 353.9255
1081.373, 365.9738
1081.855, 375.6924
1082.337, 373.1268
1082.819, 360.1073
1083.301, 359.9424
1083.783, 372.4424
1084.265, 380.3726
1084.747, 372.3315
1085.230, 361.5299
1085.712, 362.2039
1086.194, 367.5352
1086.676, 365.9893
1087.158, 349.1082
1087.640, 343.4649
1088.122, 352.9592
1088.604, 361.8366
1089.087, 352.3421
1089.569, 334.5036
1090.051, 325.8736
1090.533, 326.4195
1091.015, 330.7099
1091.497, 341.0643
1091.979, 349.5284
1092.461, 354.9852
1092.943, 356.9554
1093.426, 351.8132
1093.908, 341.6925
1094.390, 338.8570
1094.872, 346.8888
1095.354, 353.0868
1095.836, 345.7460
1096.318, 336.6024
1096.800, 334.7406
1097.283, 339.5782
1097.765, 339.6216
1098.247, 334.4266
1098.729, 332.7084
1099.211, 341.1754
1099.693, 350.3231
1100.175, 348.1355
1100.657, 328.2993
1101.140, 344.0480
1101.622, 352.9460
1102.104, 355.3618
1102.586, 331.8802
1103.068, 341.8397
1103.550, 338.3976
1104.032, 334.4058
1104.514, 349.0721
1104.996, 329.3571
1105.479, 343.7277
1105.961, 344.4918
1106.443, 351.4832
1106.925, 344.9901
1107.407, 342.6618
1107.889, 353.8224
1108.371, 357.5142
1108.853, 349.4688
1109.335, 356.8560
1109.818, 336.6703
1110.300, 340.6802
1110.782, 355.1294
1111.264, 347.7621
1111.746, 355.3958
1112.228, 357.3163
1112.710, 333.2724
1113.192, 354.3832
1113.675, 346.6854
1114.157, 352.1938
1114.639, 360.8008
1115.121, 368.6758
1115.603, 370.5169
1116.085, 363.5201
1116.567, 359.0634
1117.049, 357.7232
1117.531, 356.6122
1118.014, 352.5771
1118.496, 348.4137
1118.978, 349.6461
1119.460, 354.5511
1119.942, 358.7352
1120.424, 362.3456
1120.906, 362.3195
1121.388, 357.0164
1121.870, 350.6293
1122.353, 346.4265
1122.835, 345.0402
1123.317, 350.6432
1123.799, 362.7195
1124.281, 371.4055
1124.763, 370.7094
1125.245, 366.3365
1125.727, 359.0887
1126.210, 350.8360
1126.692, 345.5549
1127.174, 343.1408
1127.656, 343.4011
1128.138, 346.9406
1128.620, 349.0034
1129.102, 343.2047
1129.584, 337.0122
1130.067, 336.6863
1130.549, 341.7910
1131.031, 347.3468
1131.513, 353.5947
1131.995, 356.4295
1132.477, 352.5872
1132.959, 347.6243
1133.441, 346.8343
1133.923, 348.7639
1134.406, 352.0522
1134.888, 358.9427
1135.370, 358.3831
1135.852, 348.3993
1136.334, 338.8323
1136.816, 336.4252
1137.298, 338.5594
1137.780, 341.9485
1138.262, 346.3463
1138.745, 351.0444
1139.227, 359.9077
1139.709, 362.0588
1140.191, 354.1104
1140.673, 344.5336
1141.155, 341.8076
1141.637, 345.0765
1142.119, 355.8554
1142.602, 372.9226
1143.084, 382.2934
1143.566, 369.4402
1144.048, 359.3561
1144.530, 360.6948
1145.012, 367.0451
1145.494, 365.3236
1145.976, 357.2365
1146.458, 350.0094
1146.941, 344.6428
1147.423, 342.9842
1147.905, 351.9740
1148.387, 358.9706
1148.869, 355.3817
1149.351, 343.8056
1149.833, 337.5434
1150.315, 336.5611
1150.797, 341.4557
1151.280, 356.1389
1151.762, 367.4936
1152.244, 360.7678
1152.726, 349.1549
1153.208, 346.8948
1153.690, 355.7526
1154.172, 355.1662
1154.654, 344.5320
1155.137, 337.6740
1155.619, 346.5798
1156.101, 358.3011
1156.583, 360.1792
1157.065, 356.1389
1157.547, 353.1347
1158.029, 351.9910
1158.511, 351.2230
1158.994, 350.7548
1159.476, 350.8953
1159.958, 350.5849
1160.440, 351.9411
1160.922, 361.2239
1161.404, 375.0752
1161.886, 379.8140
1162.368, 367.7861
1162.850, 359.6380
1163.333, 358.8104
1163.815, 359.6264
1164.297, 353.3938
1164.779, 345.1050
1165.261, 344.3490
1165.743, 351.4074
1166.225, 356.9864
1166.707, 358.1553
1167.189, 358.9000
1167.672, 360.8263
1168.154, 361.6623
1168.636, 355.0336
1169.118, 344.6594
1169.600, 339.6149
1170.082, 342.4345
1170.564, 343.5158
1171.046, 338.5534
1171.529, 332.4350
1172.011, 325.6020
1172.493, 319.9348
##END=



