##NAMES=Hausmannite
##RRUFFID=R040091
##IDEAL CHEMISTRY=Mn^2+^Mn^3+^_2_O_4_
##LOCALITY=Germany
##OWNER=RRUFF
##SOURCE=University of Arizona Mineral Museum
##DESCRIPTION=Mass of black octahedral crystals
##STATUS=The identification of this mineral has been confirmed by X-ray diffraction and chemical analysis
##URL=rruff.info/R040091
##MEASURED CHEMISTRY=(Mn^2+^_0.96_Zn_0.02_Mg_0.02_)Mn^3+^_2.00_O_4_
103.2444, 39.19231
103.7265, 42.25726
104.2086, 41.26212
104.6907, 37.82623
105.1728, 34.15582
105.6550, 28.63110
106.1371, 25.04595
106.6192, 25.06171
107.1013, 31.97312
107.5834, 36.58634
108.0655, 36.92551
108.5477, 34.38753
109.0298, 34.79206
109.5119, 41.91184
109.9940, 49.40003
110.4761, 54.04771
110.9582, 53.91998
111.4403, 52.88453
111.9225, 49.35250
112.4046, 43.42219
112.8867, 42.91661
113.3688, 55.14779
113.8509, 71.18872
114.3330, 82.75412
114.8152, 82.68406
115.2973, 81.80067
115.7794, 84.26862
116.2615, 90.92211
116.7436, 98.93655
117.2257, 109.5914
117.7079, 120.7136
118.1900, 128.2115
118.6721, 127.0722
119.1542, 123.4406
119.6363, 121.3495
120.1184, 120.4679
120.6006, 123.2518
121.0827, 133.5750
121.5648, 149.9584
122.0469, 165.8373
122.5290, 176.8164
123.0111, 184.8468
123.4933, 192.5464
123.9754, 200.2002
124.4575, 208.2750
124.9396, 218.1991
125.4217, 229.9354
125.9038, 240.5402
126.3860, 244.9384
126.8681, 242.6538
127.3502, 238.8428
127.8323, 237.8132
128.3144, 238.0616
128.7965, 235.6598
129.2787, 229.7211
129.7608, 224.0907
130.2429, 225.9538
130.7250, 234.3349
131.2071, 239.8185
131.6892, 233.1106
132.1714, 216.8264
132.6535, 208.9584
133.1356, 213.6298
133.6177, 225.3378
134.0998, 230.4034
134.5819, 228.3295
135.0640, 223.8226
135.5462, 220.1897
136.0283, 217.4100
136.5104, 215.0188
136.9925, 212.2770
137.4746, 209.5075
137.9567, 210.9864
138.4389, 218.1737
138.9210, 226.3926
139.4031, 230.0770
139.8852, 228.4072
140.3673, 225.5082
140.8494, 222.1856
141.3316, 218.1140
141.8137, 215.6362
142.2958, 215.3920
142.7779, 216.2220
143.2600, 215.4333
143.7421, 210.4385
144.2243, 207.9902
144.7064, 211.6429
145.1885, 228.5032
145.6706, 237.5680
146.1527, 235.1895
146.6348, 224.5374
147.1170, 218.4039
147.5991, 220.0154
148.0812, 223.2639
148.5633, 224.7625
149.0454, 224.5332
149.5275, 222.5398
150.0097, 216.7488
150.4918, 207.0801
150.9739, 202.6792
151.4560, 208.7769
151.9381, 217.5233
152.4202, 222.7944
152.9024, 221.5494
153.3845, 219.3641
153.8666, 216.7880
154.3487, 213.4875
154.8308, 211.9401
155.3129, 214.5643
155.7950, 218.5651
156.2772, 220.3648
156.7593, 216.8358
157.2414, 212.9755
157.7235, 210.7844
158.2056, 211.1870
158.6877, 211.6036
159.1699, 210.8516
159.6520, 209.6347
160.1341, 209.4600
160.6162, 213.1808
161.0983, 216.6172
161.5804, 216.8761
162.0626, 209.9584
162.5447, 204.6729
163.0268, 206.6939
163.5089, 214.0948
163.9910, 219.0265
164.4731, 215.4544
164.9553, 208.8494
165.4374, 204.0959
165.9195, 203.9652
166.4016, 205.0599
166.8837, 205.1740
167.3658, 204.4366
167.8480, 204.6666
168.3301, 208.4186
168.8122, 213.4875
169.2943, 216.9094
169.7764, 216.5588
170.2585, 214.6216
170.7407, 212.7718
171.2228, 211.0558
171.7049, 209.4729
172.1870, 208.2890
172.6691, 207.2416
173.1512, 205.8042
173.6334, 202.0864
174.1155, 198.4455
174.5976, 198.5934
175.0797, 203.7340
175.5618, 209.1614
176.0439, 209.2061
176.5260, 205.2521
177.0082, 202.2201
177.4903, 204.1466
177.9724, 208.7596
178.4545, 211.8479
178.9366, 212.6660
179.4187, 212.1439
179.9009, 211.0626
180.3830, 209.5095
180.8651, 208.1762
181.3472, 208.1973
181.8293, 208.8853
182.3114, 207.9550
182.7936, 203.5007
183.2757, 198.5096
183.7578, 199.8598
184.2399, 207.5142
184.7220, 214.3542
185.2041, 211.2498
185.6863, 200.6676
186.1684, 194.9972
186.6505, 200.5620
187.1326, 212.7642
187.6147, 218.6959
188.0968, 217.9271
188.5790, 214.5212
189.0611, 212.0104
189.5432, 210.4288
190.0253, 210.0839
190.5074, 212.3223
190.9895, 216.2117
191.4717, 216.2190
191.9538, 211.4518
192.4359, 205.8987
192.9180, 206.0410
193.4001, 212.0265
193.8822, 216.6093
194.3644, 215.1752
194.8465, 208.2239
195.3286, 205.0565
195.8107, 206.6268
196.2928, 210.4964
196.7749, 212.4035
197.2570, 212.1432
197.7392, 211.6959
198.2213, 212.2509
198.7034, 213.8683
199.1855, 214.9812
199.6676, 215.5680
200.1497, 215.5426
200.6319, 214.4199
201.1140, 211.9285
201.5961, 209.5429
202.0782, 208.1097
202.5603, 207.6462
203.0424, 208.0869
203.5246, 209.7176
204.0067, 212.1263
204.4888, 214.0961
204.9709, 215.8735
205.4530, 216.5351
205.9352, 214.8184
206.4173, 209.9568
206.8994, 206.4036
207.3815, 204.9175
207.8636, 205.2940
208.3457, 206.6994
208.8279, 209.4841
209.3100, 212.5828
209.7921, 215.3931
210.2742, 218.3255
210.7563, 219.4473
211.2384, 217.8457
211.7206, 213.7280
212.2027, 210.5700
212.6848, 208.2771
213.1669, 207.0780
213.6490, 207.3326
214.1311, 209.3349
214.6133, 212.0211
215.0954, 215.7339
215.5775, 220.5310
216.0596, 222.7887
216.5417, 221.4192
217.0238, 218.7347
217.5059, 217.7444
217.9881, 219.4280
218.4702, 220.6046
218.9523, 220.3960
219.4344, 218.6759
219.9165, 216.3631
220.3986, 213.0765
220.8808, 209.5164
221.3629, 206.5174
221.8450, 203.6767
222.3271, 202.1869
222.8092, 202.6570
223.2913, 205.6287
223.7735, 208.3554
224.2556, 210.5194
224.7377, 212.6325
225.2198, 215.8513
225.7019, 221.6121
226.1840, 226.0447
226.6662, 227.4652
227.1483, 224.5117
227.6304, 222.3450
228.1125, 220.9332
228.5946, 220.2849
229.0767, 220.4201
229.5589, 221.4549
230.0410, 223.0913
230.5231, 225.7590
231.0052, 231.8528
231.4873, 233.1987
231.9694, 227.5865
232.4516, 217.7521
232.9337, 211.3392
233.4158, 209.7031
233.8979, 209.5097
234.3800, 209.2423
234.8621, 208.5085
235.3443, 208.5955
235.8264, 209.8493
236.3085, 211.9293
236.7906, 213.6813
237.2727, 215.0229
237.7548, 216.1458
238.2369, 217.2060
238.7191, 218.4654
239.2012, 219.1038
239.6833, 219.0160
240.1654, 218.2666
240.6475, 217.0873
241.1296, 215.2289
241.6118, 213.2567
242.0939, 211.3250
242.5760, 208.6535
243.0581, 207.7296
243.5402, 209.5335
244.0223, 213.4011
244.5045, 215.7507
244.9866, 215.7578
245.4687, 215.3010
245.9508, 215.7442
246.4329, 218.2565
246.9150, 219.1185
247.3972, 216.8935
247.8793, 212.3207
248.3614, 210.9788
248.8435, 215.0310
249.3256, 219.6433
249.8077, 221.0292
250.2899, 216.7951
250.7720, 214.5786
251.2541, 215.9716
251.7362, 220.4878
252.2183, 223.8255
252.7004, 225.8561
253.1826, 226.8163
253.6647, 226.6878
254.1468, 224.7964
254.6289, 223.2258
255.1110, 221.8873
255.5931, 220.9140
256.0753, 222.3142
256.5574, 228.2293
257.0395, 233.5868
257.5216, 233.6162
258.0037, 225.3248
258.4858, 219.1970
258.9680, 217.3517
259.4501, 219.3948
259.9322, 220.9056
260.4143, 221.7162
260.8964, 222.2563
261.3785, 222.7575
261.8607, 222.9945
262.3428, 223.8682
262.8249, 225.6759
263.3070, 228.3211
263.7891, 231.1023
264.2712, 234.4550
264.7534, 237.1407
265.2355, 237.5770
265.7176, 234.6390
266.1997, 233.2255
266.6818, 234.6816
267.1639, 238.6323
267.6461, 241.4714
268.1282, 243.1469
268.6103, 243.8035
269.0924, 243.1799
269.5745, 240.7189
270.0566, 239.2656
270.5387, 239.6716
271.0208, 241.6335
271.5030, 242.3605
271.9851, 241.0672
272.4672, 240.3340
272.9493, 243.2659
273.4314, 250.8255
273.9135, 256.3516
274.3957, 257.9481
274.8778, 256.3087
275.3599, 255.5806
275.8420, 255.7673
276.3241, 256.8727
276.8062, 259.4888
277.2884, 263.9318
277.7705, 266.8504
278.2526, 266.9241
278.7347, 265.0123
279.2168, 265.0494
279.6989, 267.1536
280.1811, 270.8162
280.6632, 276.5789
281.1453, 284.5864
281.6274, 290.4077
282.1095, 292.4280
282.5916, 291.8123
283.0738, 293.3515
283.5559, 297.4849
284.0380, 301.1678
284.5201, 300.7723
285.0022, 296.5608
285.4843, 294.2618
285.9665, 295.4622
286.4486, 299.0844
286.9307, 302.2177
287.4128, 304.8174
287.8949, 307.2058
288.3770, 310.2912
288.8592, 313.7472
289.3413, 315.1111
289.8234, 313.8586
290.3055, 310.2661
290.7876, 303.9670
291.2697, 294.9343
291.7519, 286.5285
292.2340, 281.7047
292.7161, 279.8527
293.1982, 278.3308
293.6803, 276.6396
294.1624, 274.9726
294.6446, 273.7651
295.1267, 272.9808
295.6088, 272.2684
296.0909, 270.3598
296.5730, 268.2764
297.0551, 269.1778
297.5373, 275.0309
298.0194, 281.8417
298.5015, 283.0731
298.9836, 279.4798
299.4657, 276.0848
299.9478, 276.7530
300.4300, 279.9381
300.9121, 282.9165
301.3942, 285.0710
301.8763, 287.1157
302.3584, 289.5675
302.8405, 292.5121
303.3227, 296.1776
303.8048, 301.7221
304.2869, 307.7461
304.7690, 311.9940
305.2511, 312.9788
305.7332, 314.9397
306.2154, 322.4764
306.6975, 334.2085
307.1796, 346.4251
307.6617, 357.4088
308.1438, 367.4925
308.6259, 377.3860
309.1081, 387.3036
309.5901, 396.3320
310.0723, 402.4302
310.5544, 407.1833
311.0365, 414.0063
311.5186, 427.3261
312.0007, 441.7318
312.4828, 452.6155
312.9650, 458.7744
313.4471, 464.7402
313.9292, 474.6531
314.4113, 485.7088
314.8934, 493.2858
315.3755, 492.3859
315.8577, 489.9226
316.3398, 490.0267
316.8219, 493.6178
317.3040, 496.3096
317.7861, 497.8687
318.2682, 497.1850
318.7504, 492.8516
319.2325, 479.9595
319.7146, 467.1597
320.1967, 459.3337
320.6788, 457.6389
321.1609, 452.0821
321.6431, 436.8232
322.1252, 417.9071
322.6073, 401.4237
323.0894, 388.5379
323.5715, 378.1560
324.0536, 371.3972
324.5358, 368.6390
325.0179, 363.2566
325.5000, 350.5128
325.9821, 337.0265
326.4642, 327.8877
326.9464, 328.4885
327.4285, 327.8203
327.9106, 323.8800
328.3927, 316.8808
328.8748, 310.9204
329.3569, 306.7567
329.8391, 303.1025
330.3212, 299.0609
330.8033, 293.1115
331.2854, 289.1455
331.7675, 287.8920
332.2496, 288.9998
332.7318, 290.8722
333.2139, 295.3490
333.6960, 298.2382
334.1781, 296.5644
334.6602, 287.1747
335.1423, 281.0640
335.6245, 279.3384
336.1066, 281.0431
336.5887, 283.7829
337.0708, 288.5770
337.5529, 292.0561
338.0350, 291.6739
338.5172, 286.2338
338.9993, 283.6788
339.4814, 285.1431
339.9635, 288.5078
340.4456, 289.2878
340.9277, 286.9454
341.4099, 285.0787
341.8920, 285.9463
342.3741, 289.4809
342.8562, 291.0909
343.3383, 290.4504
343.8204, 288.6064
344.3026, 286.1022
344.7847, 283.0570
345.2668, 282.0549
345.7489, 285.4234
346.2310, 291.8425
346.7131, 296.4082
347.1953, 299.1829
347.6774, 299.6147
348.1595, 294.4292
348.6416, 285.6191
349.1237, 280.9289
349.6058, 285.1994
350.0880, 294.0369
350.5700, 300.1535
351.0522, 303.5706
351.5343, 306.0614
352.0164, 308.4774
352.4985, 311.0773
352.9806, 314.4890
353.4627, 319.7730
353.9449, 324.9148
354.4270, 327.0790
354.9091, 326.8518
355.3912, 327.2491
355.8733, 330.5343
356.3554, 335.3197
356.8376, 339.9890
357.3197, 343.6139
357.8018, 348.1541
358.2839, 355.0260
358.7660, 363.8106
359.2481, 373.4401
359.7303, 385.0244
360.2124, 396.1559
360.6945, 405.2411
361.1766, 411.3011
361.6587, 417.3623
362.1408, 424.4597
362.6230, 432.3009
363.1051, 440.3711
363.5872, 447.0709
364.0693, 455.3037
364.5514, 467.2726
365.0335, 484.4866
365.5157, 498.5060
365.9978, 506.6931
366.4799, 511.5112
366.9620, 515.6018
367.4441, 516.0095
367.9262, 518.9911
368.4084, 527.3298
368.8905, 541.2913
369.3726, 551.3398
369.8547, 555.3743
370.3368, 556.9902
370.8189, 558.6721
371.3011, 560.5323
371.7832, 562.4174
372.2653, 565.6486
372.7474, 569.1364
373.2295, 567.1390
373.7116, 558.2720
374.1938, 546.4685
374.6759, 533.7855
375.1580, 520.4213
375.6401, 505.9963
376.1222, 490.3515
376.6043, 473.8139
377.0865, 455.1572
377.5686, 433.5592
378.0507, 414.9630
378.5328, 404.1181
379.0149, 400.6896
379.4970, 393.6938
379.9792, 382.3499
380.4613, 369.4538
380.9434, 359.1845
381.4255, 351.2401
381.9076, 343.7950
382.3897, 336.2357
382.8719, 328.5890
383.3540, 321.0111
383.8361, 313.4092
384.3182, 306.3352
384.8003, 299.8569
385.2824, 294.2669
385.7646, 290.4265
386.2467, 289.3380
386.7288, 289.2730
387.2109, 288.6144
387.6930, 287.2816
388.1751, 284.8705
388.6573, 279.1786
389.1394, 273.0370
389.6215, 270.0851
390.1036, 272.3102
390.5857, 275.1022
391.0678, 275.7297
391.5499, 274.6837
392.0320, 273.1283
392.5142, 270.7054
392.9963, 268.6006
393.4784, 267.7415
393.9605, 268.6281
394.4426, 269.0762
394.9247, 268.8593
395.4069, 267.6579
395.8890, 265.0577
396.3711, 257.2352
396.8532, 251.7056
397.3353, 251.6802
397.8174, 257.7049
398.2996, 261.8448
398.7817, 263.4688
399.2638, 263.0106
399.7459, 260.6356
400.2280, 253.2487
400.7101, 248.3308
401.1923, 246.8848
401.6744, 248.4422
402.1565, 251.0481
402.6386, 255.9405
403.1207, 259.9549
403.6028, 260.9686
404.0850, 257.5974
404.5671, 256.5047
405.0492, 258.9122
405.5313, 262.5219
406.0134, 262.4776
406.4955, 258.1243
406.9777, 254.0125
407.4598, 252.2021
407.9419, 252.4535
408.4240, 252.0494
408.9061, 250.8481
409.3882, 249.6770
409.8704, 249.6988
410.3525, 250.7083
410.8346, 251.2828
411.3167, 250.3838
411.7988, 249.2836
412.2809, 250.9947
412.7631, 255.2585
413.2452, 259.3136
413.7273, 260.9947
414.2094, 261.0888
414.6915, 260.6716
415.1736, 259.6500
415.6558, 258.8867
416.1379, 260.7434
416.6200, 263.6265
417.1021, 263.5480
417.5842, 253.7004
418.0663, 243.4428
418.5485, 240.5278
419.0306, 246.7410
419.5127, 253.0810
419.9948, 255.9845
420.4769, 256.7585
420.9590, 257.0317
421.4412, 256.9085
421.9233, 256.6578
422.4054, 256.1685
422.8875, 255.4720
423.3696, 255.2517
423.8517, 255.8793
424.3339, 256.8175
424.8160, 257.7915
425.2981, 259.6233
425.7802, 260.2015
426.2623, 258.2575
426.7444, 255.1974
427.2266, 255.2402
427.7087, 261.2639
428.1908, 265.4244
428.6729, 263.7307
429.1550, 254.8180
429.6371, 249.8197
430.1193, 249.8800
430.6014, 252.0144
431.0835, 252.3607
431.5656, 250.7393
432.0477, 249.2753
432.5298, 248.2925
433.0119, 247.9851
433.4940, 249.2967
433.9762, 252.2813
434.4583, 255.8386
434.9404, 259.5771
435.4225, 263.2158
435.9046, 265.9444
436.3867, 267.6874
436.8689, 268.2351
437.3510, 266.1510
437.8331, 262.3534
438.3152, 259.8831
438.7973, 261.7898
439.2794, 265.0959
439.7616, 266.8077
440.2437, 266.5837
440.7258, 265.6490
441.2079, 264.5068
441.6900, 263.1586
442.1721, 261.6057
442.6543, 259.0016
443.1364, 257.0107
443.6185, 256.2392
444.1006, 256.6630
444.5827, 257.9316
445.0648, 261.0308
445.5470, 264.1941
446.0291, 266.5543
446.5112, 269.2400
446.9933, 269.2053
447.4754, 263.9767
447.9576, 256.5889
448.4397, 252.7763
448.9218, 254.3543
449.4039, 256.7449
449.8860, 258.9111
450.3681, 260.8702
450.8503, 261.8468
451.3324, 261.3665
451.8145, 260.7348
452.2966, 261.3201
452.7787, 263.2526
453.2608, 265.2490
453.7430, 267.2242
454.2251, 269.0107
454.7072, 269.8598
455.1893, 269.7606
455.6714, 270.2425
456.1535, 273.1581
456.6357, 277.4163
457.1178, 280.1677
457.5999, 281.1869
458.0820, 280.5338
458.5641, 276.2036
459.0462, 270.1719
459.5284, 267.0146
460.0105, 270.2796
460.4926, 276.1424
460.9747, 282.7469
461.4568, 289.8008
461.9389, 294.2560
462.4211, 291.4885
462.9032, 287.0482
463.3853, 285.7613
463.8674, 291.0164
464.3495, 295.5577
464.8316, 297.2218
465.3138, 296.7211
465.7959, 295.5745
466.2780, 292.5866
466.7601, 290.3563
467.2422, 289.6814
467.7243, 290.6607
468.2065, 292.6913
468.6886, 296.3709
469.1707, 300.5721
469.6528, 304.5499
470.1349, 308.8274
470.6170, 311.2733
471.0992, 310.7180
471.5813, 308.4405
472.0634, 309.6144
472.5455, 315.0844
473.0276, 319.5110
473.5097, 318.4835
473.9918, 312.8079
474.4739, 311.1964
474.9561, 314.6293
475.4382, 319.3036
475.9203, 320.0700
476.4024, 317.9677
476.8845, 316.7802
477.3666, 319.2361
477.8488, 322.2714
478.3309, 321.2256
478.8130, 316.6354
479.2951, 312.3173
479.7772, 310.5851
480.2593, 310.3853
480.7415, 311.2085
481.2236, 313.9609
481.7057, 314.9492
482.1878, 310.4358
482.6699, 303.3839
483.1520, 298.6312
483.6342, 300.8970
484.1163, 302.3347
484.5984, 299.1275
485.0805, 290.6231
485.5626, 286.4742
486.0447, 290.6003
486.5269, 296.1378
487.0090, 298.8970
487.4911, 298.0449
487.9732, 295.9024
488.4553, 291.6605
488.9374, 286.7558
489.4196, 284.5228
489.9017, 285.5815
490.3838, 286.8464
490.8659, 286.7325
491.3480, 285.5547
491.8301, 286.6062
492.3123, 290.1966
492.7944, 294.0153
493.2765, 296.2960
493.7586, 297.0215
494.2407, 295.9580
494.7228, 292.4133
495.2050, 288.2052
495.6871, 284.6974
496.1692, 282.2171
496.6513, 281.9513
497.1334, 287.4028
497.6155, 293.5024
498.0977, 295.6071
498.5798, 293.0444
499.0619, 289.8179
499.5440, 285.9853
500.0261, 283.3574
500.5082, 283.6659
500.9904, 291.6322
501.4725, 297.7760
501.9546, 300.1677
502.4367, 299.2154
502.9188, 296.7090
503.4009, 289.1612
503.8831, 284.0994
504.3652, 285.3023
504.8473, 294.9476
505.3294, 299.7449
505.8115, 297.7914
506.2936, 293.5244
506.7758, 292.0981
507.2579, 293.9497
507.7400, 295.1165
508.2221, 294.5709
508.7042, 293.0361
509.1863, 292.3966
509.6685, 292.6300
510.1506, 292.8614
510.6327, 293.5555
511.1148, 293.7057
511.5969, 289.8955
512.0790, 281.3537
512.5612, 274.2098
513.0433, 275.4358
513.5254, 281.2896
514.0075, 285.9899
514.4896, 286.2917
514.9717, 286.1404
515.4539, 288.1536
515.9360, 291.6341
516.4181, 294.0699
516.9002, 293.9092
517.3823, 293.0503
517.8644, 291.9723
518.3466, 289.8098
518.8287, 290.3849
519.3108, 297.0371
519.7929, 304.4758
520.2750, 307.1824
520.7571, 302.7876
521.2393, 298.4177
521.7214, 294.6183
522.2035, 291.6801
522.6856, 291.1702
523.1677, 293.6592
523.6498, 295.9832
524.1320, 295.4336
524.6141, 292.6787
525.0962, 294.3215
525.5783, 301.2385
526.0604, 307.6441
526.5425, 305.8033
527.0247, 298.4393
527.5068, 292.5341
527.9889, 290.3139
528.4710, 290.1458
528.9531, 291.5714
529.4352, 293.9065
529.9174, 295.0182
530.3995, 291.3280
530.8816, 287.9364
531.3637, 288.9658
531.8458, 295.7076
532.3279, 300.4646
532.8101, 299.0188
533.2922, 295.7645
533.7743, 294.6266
534.2564, 299.8785
534.7385, 301.9408
535.2206, 298.1419
535.7027, 291.0763
536.1848, 288.4940
536.6669, 292.0010
537.1490, 296.1811
537.6312, 299.2893
538.1133, 301.3056
538.5954, 301.7782
539.0775, 300.3331
539.5596, 299.1015
540.0417, 301.0543
540.5239, 305.2840
541.0060, 307.2602
541.4881, 305.4265
541.9702, 302.6199
542.4523, 301.9299
542.9344, 303.1095
543.4166, 305.4651
543.8987, 311.5446
544.3808, 316.5575
544.8629, 314.9521
545.3450, 306.9182
545.8271, 301.6886
546.3093, 306.9044
546.7914, 313.9056
547.2735, 316.4275
547.7556, 308.4836
548.2377, 304.2480
548.7198, 307.0179
549.2020, 313.4418
549.6841, 318.6167
550.1662, 322.6409
550.6483, 325.1458
551.1304, 325.6606
551.6125, 324.4933
552.0947, 323.4511
552.5768, 322.1851
553.0589, 322.5741
553.5410, 327.5667
554.0231, 336.0479
554.5052, 340.2331
554.9874, 338.9815
555.4695, 336.0391
555.9516, 335.1894
556.4337, 335.9437
556.9158, 337.1776
557.3979, 339.0589
557.8801, 340.6854
558.3622, 341.1459
558.8443, 340.6905
559.3264, 340.1400
559.8085, 338.0688
560.2906, 337.4546
560.7728, 340.9848
561.2549, 350.3584
561.7370, 356.5172
562.2191, 356.7019
562.7012, 354.1746
563.1833, 351.1382
563.6655, 346.8435
564.1476, 343.6020
564.6297, 341.5935
565.1118, 340.7457
565.5939, 340.8429
566.0760, 341.8775
566.5582, 344.0673
567.0403, 348.7544
567.5224, 354.5965
568.0045, 356.0135
568.4866, 352.9669
568.9688, 348.5839
569.4509, 344.0293
569.9330, 340.2393
570.4151, 339.1276
570.8972, 341.7127
571.3793, 344.4388
571.8615, 344.3379
572.3436, 342.7135
572.8257, 341.5164
573.3078, 342.0086
573.7899, 342.4341
574.2720, 342.0039
574.7542, 340.8742
575.2363, 340.0769
575.7184, 339.2173
576.2005, 339.2067
576.6826, 340.5918
577.1647, 343.7176
577.6469, 346.5935
578.1290, 349.6297
578.6111, 351.6150
579.0932, 350.4016
579.5753, 345.8341
580.0574, 343.7975
580.5396, 345.9199
581.0217, 349.7284
581.5038, 351.3852
581.9859, 351.0346
582.4680, 349.4137
582.9501, 344.7462
583.4323, 340.2542
583.9144, 340.9222
584.3965, 346.1952
584.8786, 349.9623
585.3607, 346.5652
585.8428, 341.8094
586.3250, 340.3458
586.8071, 344.7244
587.2892, 347.7013
587.7713, 347.0724
588.2534, 344.7319
588.7355, 342.8864
589.2177, 341.6097
589.6998, 340.7447
590.1819, 340.4045
590.6640, 340.4209
591.1461, 339.8547
591.6282, 338.3228
592.1104, 338.2518
592.5925, 342.6845
593.0746, 349.9537
593.5567, 350.3987
594.0388, 343.7653
594.5209, 336.9006
595.0031, 336.7480
595.4852, 340.0770
595.9673, 341.0226
596.4494, 337.3416
596.9315, 334.5944
597.4136, 338.2968
597.8958, 344.9998
598.3779, 349.5858
598.8600, 347.3235
599.3421, 346.0713
599.8242, 349.0147
600.3063, 355.4173
600.7885, 360.2826
601.2706, 363.6756
601.7527, 365.1945
602.2348, 363.8484
602.7169, 359.1234
603.1990, 357.7169
603.6812, 360.3140
604.1633, 364.3017
604.6454, 368.0840
605.1275, 371.4083
605.6096, 372.3271
606.0917, 370.3098
606.5739, 366.5126
607.0560, 359.5526
607.5381, 351.8549
608.0202, 349.2479
608.5023, 358.2610
608.9844, 369.9969
609.4666, 380.2195
609.9487, 388.5065
610.4308, 392.6266
610.9129, 387.2697
611.3950, 381.4682
611.8771, 380.0710
612.3593, 384.9992
612.8414, 387.5465
613.3235, 386.8566
613.8056, 384.7387
614.2877, 381.8159
614.7698, 377.0346
615.2520, 376.9251
615.7341, 383.0233
616.2162, 392.3541
616.6983, 401.1100
617.1804, 409.0717
617.6625, 414.3151
618.1446, 414.4339
618.6267, 412.9943
619.1088, 415.4739
619.5909, 421.0939
620.0731, 426.3571
620.5552, 429.9029
621.0373, 431.8287
621.5194, 431.0472
622.0015, 427.0089
622.4836, 425.8905
622.9658, 432.7564
623.4479, 440.9865
623.9300, 445.6401
624.4121, 444.1978
624.8942, 443.5437
625.3763, 443.7786
625.8585, 444.7498
626.3406, 445.9956
626.8227, 447.3447
627.3048, 450.1430
627.7869, 454.2223
628.2690, 460.4895
628.7512, 473.3010
629.2333, 491.4816
629.7154, 506.6457
630.1975, 512.0095
630.6796, 512.7567
631.1617, 514.2548
631.6439, 516.7638
632.1260, 520.2523
632.6081, 524.5104
633.0902, 529.8614
633.5723, 536.0932
634.0544, 541.0166
634.5366, 551.7996
635.0187, 575.2979
635.5008, 601.5569
635.9829, 619.0720
636.4650, 621.9991
636.9471, 631.0578
637.4293, 650.5393
637.9114, 676.6158
638.3935, 700.9103
638.8756, 723.4927
639.3577, 746.8376
639.8398, 771.5219
640.3220, 798.2110
640.8041, 828.4937
641.2862, 862.2988
641.7683, 898.4452
642.2504, 936.5573
642.7325, 976.1171
643.2147, 1015.276
643.6968, 1053.628
644.1789, 1095.998
644.6610, 1147.376
645.1431, 1202.091
645.6252, 1256.030
646.1074, 1307.555
646.5895, 1359.976
647.0716, 1412.638
647.5537, 1466.708
648.0358, 1521.019
648.5179, 1574.668
649.0001, 1636.431
649.4822, 1709.416
649.9643, 1790.657
650.4464, 1874.652
650.9285, 1960.130
651.4106, 2042.056
651.8928, 2114.465
652.3749, 2181.407
652.8570, 2245.502
653.3391, 2306.985
653.8212, 2371.896
654.3033, 2454.464
654.7855, 2533.641
655.2676, 2594.588
655.7497, 2630.606
656.2318, 2658.656
656.7139, 2682.668
657.1960, 2696.831
657.6782, 2695.156
658.1603, 2676.417
658.6424, 2646.215
659.1245, 2605.026
659.6066, 2552.557
660.0887, 2489.670
660.5709, 2416.244
661.0530, 2329.168
661.5351, 2221.045
662.0172, 2105.471
662.4993, 2000.777
662.9814, 1904.177
663.4636, 1807.304
663.9457, 1695.187
664.4278, 1589.039
664.9099, 1504.606
665.3920, 1443.662
665.8741, 1381.169
666.3563, 1310.390
666.8384, 1239.592
667.3205, 1173.517
667.8026, 1112.208
668.2847, 1053.772
668.7668, 997.2427
669.2490, 945.6519
669.7311, 902.5679
670.2132, 868.0325
670.6953, 839.4927
671.1774, 817.9243
671.6595, 798.2913
672.1417, 772.9258
672.6238, 744.4714
673.1059, 718.1701
673.5880, 698.1838
674.0701, 679.1290
674.5522, 656.3044
675.0344, 631.6827
675.5165, 611.1089
675.9986, 598.0801
676.4807, 587.4824
676.9628, 578.5380
677.4449, 571.2261
677.9271, 561.9016
678.4092, 549.6492
678.8913, 537.8676
679.3734, 528.5790
679.8555, 521.7389
680.3376, 517.3918
680.8198, 515.8684
681.3019, 513.7567
681.7840, 507.7747
682.2661, 499.0142
682.7482, 489.0886
683.2303, 477.4183
683.7125, 467.1354
684.1946, 460.9601
684.6767, 456.8011
685.1588, 451.9834
685.6409, 441.3707
686.1230, 435.9154
686.6052, 440.2275
687.0873, 449.3490
687.5694, 452.3852
688.0515, 448.3903
688.5336, 440.8509
689.0157, 428.2207
689.4979, 414.1476
689.9800, 412.5727
690.4621, 422.7348
690.9442, 431.4914
691.4263, 429.7667
691.9084, 422.9375
692.3906, 417.7902
692.8727, 414.4537
693.3548, 410.7284
693.8369, 402.8908
694.3190, 396.0667
694.8011, 394.5555
695.2833, 401.6961
695.7654, 404.6879
696.2475, 400.3165
696.7296, 394.2137
697.2117, 391.1489
697.6938, 391.9072
698.1760, 391.4245
698.6581, 388.6272
699.1402, 386.1731
699.6223, 389.7090
700.1044, 397.3696
700.5865, 400.8542
701.0686, 395.7418
701.5507, 389.1467
702.0328, 388.9316
702.5150, 392.6356
702.9971, 395.0452
703.4792, 392.3102
703.9613, 389.8737
704.4434, 390.4032
704.9255, 393.2303
705.4077, 394.0712
705.8898, 391.4943
706.3719, 389.2430
706.8540, 388.7831
707.3361, 389.9049
707.8182, 385.9911
708.3004, 393.1557
708.7825, 397.3201
709.2646, 398.6456
709.7467, 388.6296
710.2288, 393.2589
710.7109, 392.0189
711.1931, 390.5384
711.6752, 397.2289
712.1573, 383.9547
712.6394, 377.1693
713.1215, 376.8736
713.6036, 377.9660
714.0858, 380.2300
714.5679, 383.0272
715.0500, 386.1597
715.5321, 390.8438
716.0142, 391.9406
716.4963, 387.8917
716.9785, 381.9494
717.4606, 379.7859
717.9427, 380.8871
718.4248, 381.2398
718.9069, 379.1910
719.3890, 376.6820
719.8712, 375.9962
720.3533, 376.6559
720.8354, 377.5020
721.3175, 377.2423
721.7996, 377.8200
722.2817, 381.3031
722.7639, 386.7989
723.2460, 389.1399
723.7281, 385.5688
724.2102, 382.6205
724.6923, 382.7154
725.1744, 385.4552
725.6566, 386.6526
726.1387, 386.0989
726.6208, 385.8920
727.1029, 389.1188
727.5850, 393.3275
728.0671, 391.9411
728.5493, 384.7965
729.0314, 378.2679
729.5135, 375.8450
729.9956, 376.4210
730.4777, 379.8724
730.9598, 387.5317
731.4420, 392.9164
731.9241, 393.2408
732.4062, 391.9693
732.8883, 391.8205
733.3704, 393.9440
733.8525, 392.5304
734.3347, 386.0368
734.8168, 378.8232
735.2989, 377.3546
735.7810, 380.4922
736.2631, 382.4709
736.7452, 381.6184
737.2274, 380.1072
737.7095, 379.9942
738.1916, 380.7663
738.6737, 381.5525
739.1558, 383.4691
739.6379, 383.7678
740.1201, 380.2953
740.6022, 374.7433
741.0843, 370.9627
741.5664, 368.2830
742.0485, 369.2637
742.5306, 376.6698
743.0128, 387.1607
743.4949, 387.1298
743.9770, 376.9891
744.4591, 369.5965
744.9412, 375.3482
745.4233, 385.8343
745.9055, 388.1778
746.3876, 383.7570
746.8697, 379.4261
747.3518, 377.1720
747.8339, 377.3907
748.3160, 383.2615
748.7982, 395.4602
749.2803, 396.7254
749.7624, 378.2128
750.2445, 360.5778
750.7266, 354.9204
751.2087, 361.6798
751.6909, 364.7180
752.1730, 363.4570
752.6551, 363.0798
753.1372, 370.5961
753.6193, 381.4908
754.1014, 386.0025
754.5836, 382.7555
755.0657, 378.3140
755.5478, 375.2328
756.0299, 373.8806
756.5120, 374.8411
756.9941, 380.1491
757.4763, 383.5395
757.9584, 384.7421
758.4405, 383.9381
758.9226, 380.3875
759.4047, 373.1975
759.8868, 369.5136
760.3690, 370.4492
760.8511, 373.5516
761.3332, 376.9636
761.8153, 379.8945
762.2974, 379.5002
762.7795, 372.6936
763.2617, 367.2512
763.7438, 370.6036
764.2259, 378.5803
764.7080, 384.8252
765.1901, 388.6723
765.6722, 389.5336
766.1544, 386.3445
766.6365, 380.7556
767.1186, 375.7105
767.6007, 371.0860
768.0828, 368.0303
768.5649, 366.9633
769.0471, 367.5717
769.5292, 370.8623
770.0113, 375.6992
770.4934, 377.6308
770.9755, 370.7118
771.4576, 363.4337
771.9398, 362.6711
772.4219, 366.7065
772.9040, 369.4906
773.3861, 368.3322
773.8682, 367.0185
774.3503, 366.4955
774.8325, 366.6734
775.3146, 367.2314
775.7967, 368.3957
776.2788, 368.7434
776.7609, 367.1688
777.2430, 364.4048
777.7252, 362.0841
778.2073, 360.2930
778.6894, 359.6209
779.1715, 360.2546
779.6536, 362.2558
780.1357, 367.6853
780.6179, 376.3638
781.1000, 379.3424
781.5821, 367.9634
782.0642, 357.2329
782.5463, 353.5261
783.0284, 357.1504
783.5105, 359.5236
783.9926, 360.3995
784.4747, 361.3499
784.9568, 364.5598
785.4390, 368.6144
785.9211, 369.2135
786.4032, 366.2211
786.8853, 362.7999
787.3674, 359.6324
787.8495, 357.9915
788.3317, 360.0498
788.8138, 367.7446
789.2959, 370.9270
789.7780, 363.7882
790.2601, 356.6248
790.7422, 357.3187
791.2244, 367.9821
791.7065, 370.2531
792.1886, 362.4283
792.6707, 353.4930
793.1528, 352.7435
793.6349, 357.3557
794.1171, 361.5216
794.5992, 364.6536
795.0813, 366.0855
795.5634, 363.4935
796.0455, 360.1563
796.5276, 359.2637
797.0098, 363.4669
797.4919, 365.7190
797.9740, 365.4906
798.4561, 363.7469
798.9382, 360.7411
799.4203, 356.3603
799.9025, 354.2825
800.3846, 355.0840
800.8667, 357.0775
801.3488, 358.7843
801.8309, 360.1805
802.3130, 361.3286
802.7952, 362.3545
803.2773, 362.7520
803.7594, 361.4872
804.2415, 359.8208
804.7236, 359.3080
805.2057, 361.2629
805.6879, 361.9687
806.1700, 361.1236
806.6521, 359.2538
807.1342, 355.8796
807.6163, 351.4060
808.0984, 351.2065
808.5806, 357.2578
809.0627, 364.4524
809.5448, 367.6831
810.0269, 368.3325
810.5090, 368.5169
810.9911, 369.1036
811.4733, 368.8845
811.9554, 367.8391
812.4375, 365.5835
812.9196, 360.9262
813.4017, 351.2982
813.8839, 347.9709
814.3660, 354.1084
814.8481, 363.2722
815.3302, 364.9315
815.8123, 360.7145
816.2944, 357.0618
816.7766, 355.4311
817.2587, 355.5524
817.7408, 358.8062
818.2229, 363.2089
818.7050, 365.8819
819.1871, 363.5482
819.6693, 362.9252
820.1514, 366.2416
820.6335, 370.6182
821.1156, 370.8083
821.5977, 366.0443
822.0798, 364.1943
822.5620, 367.5121
823.0441, 372.4500
823.5262, 374.5470
824.0083, 374.1214
824.4904, 371.7354
824.9725, 365.4669
825.4547, 360.6266
825.9368, 361.0096
826.4189, 364.2023
826.9010, 366.2018
827.3831, 365.4457
827.8652, 365.6704
828.3474, 367.1949
828.8295, 369.9435
829.3116, 375.2242
829.7937, 382.4581
830.2758, 385.3385
830.7579, 381.0364
831.2401, 374.7960
831.7222, 370.8886
832.2043, 369.4962
832.6864, 370.8353
833.1685, 380.2599
833.6506, 385.9407
834.1328, 381.3068
834.6149, 373.2777
835.0970, 371.8568
835.5791, 379.7903
836.0612, 382.9046
836.5433, 377.8064
837.0255, 370.1276
837.5076, 369.3831
837.9897, 373.1920
838.4718, 374.3465
838.9539, 369.1342
839.4360, 364.1674
839.9182, 365.2860
840.4003, 368.8024
840.8824, 369.6617
841.3645, 362.6734
841.8466, 359.6111
842.3287, 362.7144
842.8109, 368.1031
843.2930, 369.8877
843.7751, 368.2302
844.2572, 367.6114
844.7393, 369.0452
845.2214, 371.1391
845.7036, 372.7881
846.1857, 373.9163
846.6678, 374.4184
847.1499, 374.3152
847.6320, 373.5176
848.1141, 370.6183
848.5963, 367.8474
849.0784, 367.9460
849.5605, 372.1482
850.0426, 374.4189
850.5247, 374.0822
851.0068, 372.2921
851.4890, 369.2634
851.9711, 366.0176
852.4532, 365.9975
852.9353, 370.8863
853.4174, 374.7749
853.8995, 371.4047
854.3817, 366.2961
854.8638, 365.3279
855.3459, 372.6264
855.8280, 377.6559
856.3101, 380.0006
856.7922, 380.5852
857.2744, 379.0759
857.7565, 375.9338
858.2386, 377.6492
858.7207, 385.5857
859.2028, 391.7569
859.6849, 386.2518
860.1671, 376.2839
860.6492, 369.9200
861.1313, 369.1065
861.6134, 369.8134
862.0955, 372.0116
862.5776, 374.7177
863.0598, 377.9615
863.5419, 382.3698
864.0240, 382.0147
864.5061, 375.9810
864.9882, 370.5809
865.4703, 374.2172
865.9524, 381.3186
866.4345, 380.0677
866.9166, 369.3946
867.3987, 361.2466
867.8809, 364.0433
868.3630, 369.4523
868.8451, 371.6137
869.3272, 369.8333
869.8093, 371.1553
870.2914, 376.9553
870.7736, 381.9395
871.2557, 381.2733
871.7378, 376.9622
872.2199, 377.9872
872.7020, 383.8138
873.1841, 388.2241
873.6663, 385.0465
874.1484, 380.5781
874.6305, 379.5375
875.1126, 382.0307
875.5947, 383.8345
876.0768, 384.2580
876.5590, 384.5515
877.0411, 385.5328
877.5232, 386.7394
878.0053, 384.9449
878.4874, 380.4127
878.9695, 377.1187
879.4517, 377.6374
879.9338, 380.1582
880.4159, 384.4178
880.8980, 389.3693
881.3801, 391.4454
881.8622, 386.0838
882.3444, 381.8558
882.8265, 381.0876
883.3086, 382.7914
883.7907, 384.6097
884.2728, 386.6788
884.7549, 386.5994
885.2371, 382.4209
885.7192, 377.5632
886.2013, 377.9137
886.6834, 381.3468
887.1655, 383.2216
887.6476, 378.4890
888.1298, 375.7489
888.6119, 378.4235
889.0940, 384.3840
889.5761, 391.4177
890.0582, 401.0561
890.5403, 405.0683
891.0225, 401.2896
891.5046, 394.0804
891.9867, 388.1064
892.4688, 383.7515
892.9509, 381.8964
893.4330, 383.3964
893.9152, 385.5034
894.3973, 388.1805
894.8794, 389.9532
895.3615, 388.9164
895.8436, 382.1420
896.3257, 380.0117
896.8079, 384.0626
897.2900, 389.0023
897.7721, 389.2998
898.2542, 386.1890
898.7363, 383.5492
899.2184, 381.7365
899.7006, 381.2037
900.1827, 382.8885
900.6648, 385.5685
901.1469, 388.5333
901.6290, 391.8535
902.1111, 394.5230
902.5933, 397.2660
903.0754, 397.8784
903.5575, 393.3574
904.0396, 385.2811
904.5217, 383.9843
905.0038, 388.9422
905.4860, 393.8830
905.9681, 394.8431
906.4502, 394.1335
906.9323, 392.7769
907.4144, 391.1211
907.8965, 391.2118
908.3787, 395.3049
908.8608, 397.9822
909.3429, 397.4410
909.8250, 394.5986
910.3071, 392.2254
910.7892, 390.2666
911.2714, 388.0820
911.7535, 384.6467
912.2356, 381.7972
912.7177, 381.2189
913.1998, 382.4995
913.6819, 384.8416
914.1641, 390.9407
914.6462, 393.9272
915.1283, 391.3665
915.6104, 386.9191
916.0925, 386.4188
916.5746, 389.7142
917.0568, 393.2541
917.5389, 396.7953
918.0210, 398.5923
918.5031, 395.2543
918.9852, 389.8348
919.4673, 385.8568
919.9495, 383.5479
920.4316, 384.3096
920.9137, 391.2369
921.3958, 398.0445
921.8779, 399.2437
922.3600, 394.5319
922.8422, 393.5703
923.3243, 396.7553
923.8064, 399.7385
924.2885, 397.4470
924.7706, 393.8988
925.2527, 395.3012
925.7349, 401.7455
926.2170, 403.2184
926.6991, 387.7173
927.1812, 376.8574
927.6633, 379.9966
928.1454, 394.4235
928.6276, 403.6208
929.1097, 407.6012
929.5918, 408.3802
930.0739, 405.8681
930.5560, 401.7571
931.0381, 397.1271
931.5203, 392.4782
932.0024, 388.9557
932.4845, 386.4688
932.9666, 385.8369
933.4487, 387.1851
933.9308, 390.3073
934.4130, 395.6325
934.8951, 403.1437
935.3772, 408.7076
935.8593, 411.3151
936.3414, 412.0499
936.8235, 411.6768
937.3057, 410.3647
937.7878, 408.2263
938.2699, 404.7301
938.7520, 401.7158
939.2341, 397.8181
939.7162, 396.1563
940.1984, 400.4447
940.6805, 411.0381
941.1626, 417.1010
941.6447, 418.3028
942.1268, 417.0928
942.6089, 413.7575
943.0911, 410.1713
943.5732, 408.7064
944.0553, 409.4056
944.5374, 409.4906
945.0195, 407.4667
945.5016, 405.6295
945.9838, 404.3554
946.4659, 403.8829
946.9480, 406.2740
947.4301, 411.2971
947.9122, 414.3002
948.3943, 411.0572
948.8764, 407.2527
949.3585, 410.2273
949.8406, 416.6759
950.3228, 419.8948
950.8049, 414.5341
951.2870, 410.9510
951.7691, 411.0632
952.2512, 412.2759
952.7333, 409.8279
953.2155, 404.4358
953.6976, 402.6499
954.1797, 405.8871
954.6618, 410.5153
955.1439, 415.5822
955.6260, 419.0581
956.1082, 417.8939
956.5903, 409.1080
957.0724, 406.2435
957.5545, 413.0006
958.0366, 419.9223
958.5187, 420.0881
959.0009, 415.1348
959.4830, 415.2581
959.9651, 419.9824
960.4472, 423.9531
960.9293, 424.2199
961.4114, 422.3811
961.8936, 417.5554
962.3757, 411.1597
962.8578, 409.6019
963.3399, 416.2366
963.8220, 420.3268
964.3041, 418.7241
964.7863, 414.3400
965.2684, 412.4212
965.7505, 412.5239
966.2326, 413.5508
966.7147, 416.0072
967.1968, 417.2821
967.6790, 414.0625
968.1611, 409.9001
968.6432, 408.8762
969.1253, 412.4007
969.6074, 415.1817
970.0895, 417.0273
970.5717, 418.8313
971.0538, 422.3534
971.5359, 426.1154
972.0180, 426.3881
972.5001, 423.2065
972.9822, 420.3220
973.4644, 416.5821
973.9465, 416.7945
974.4286, 427.1929
974.9107, 444.2151
975.3928, 447.0255
975.8749, 433.7841
976.3571, 422.3779
976.8392, 419.9610
977.3213, 422.1244
977.8034, 422.8672
978.2855, 423.1357
978.7676, 424.8485
979.2498, 434.1353
979.7319, 437.2357
980.2140, 427.3220
980.6961, 414.7341
981.1782, 411.2744
981.6603, 417.0255
982.1425, 421.8372
982.6246, 424.9162
983.1067, 426.9381
983.5888, 428.9806
984.0709, 430.0163
984.5530, 428.0635
985.0352, 422.6871
985.5173, 420.1765
985.9994, 421.4630
986.4815, 425.2617
986.9636, 432.3994
987.4457, 441.1018
987.9279, 444.6474
988.4100, 443.5422
988.8921, 440.6036
989.3742, 435.7686
989.8563, 431.1226
990.3384, 426.6179
990.8206, 423.6320
991.3027, 425.1872
991.7848, 433.8464
992.2669, 440.1543
992.7490, 443.0060
993.2311, 444.2578
993.7133, 446.9994
994.1954, 449.6426
994.6775, 447.9187
995.1596, 441.0362
995.6417, 434.5378
996.1238, 430.8849
996.6060, 428.9173
997.0881, 428.1818
997.5702, 428.5931
998.0523, 429.4072
998.5344, 430.7854
999.0165, 430.8270
999.4987, 428.1628
999.9808, 424.1532
1000.463, 419.4044
1000.945, 414.8681
1001.427, 412.9109
1001.909, 417.1928
1002.391, 419.9648
1002.873, 419.3458
1003.356, 417.7954
1003.838, 418.8036
1004.320, 422.0957
1004.802, 424.1214
1005.284, 424.3150
1005.766, 425.3185
1006.248, 430.7863
1006.730, 436.9225
1007.213, 441.0085
1007.695, 442.7104
1008.177, 440.1092
1008.659, 430.7307
1009.141, 423.4158
1009.623, 422.3814
1010.105, 425.6160
1010.587, 428.6777
1011.069, 431.8431
1011.552, 436.0807
1012.034, 447.0878
1012.516, 452.9618
1012.998, 444.0432
1013.480, 430.1653
1013.962, 423.7524
1014.444, 426.0594
1014.926, 427.4825
1015.409, 427.5030
1015.891, 425.1298
1016.373, 415.2861
1016.855, 405.0029
1017.337, 404.4170
1017.819, 414.5507
1018.301, 421.5283
1018.783, 419.3771
1019.265, 417.9966
1019.748, 421.2452
1020.230, 427.3518
1020.712, 430.7450
1021.194, 431.6392
1021.676, 431.0742
1022.158, 428.0500
1022.640, 426.0170
1023.122, 428.9123
1023.604, 433.4652
1024.087, 434.8059
1024.569, 430.7831
1025.051, 429.4356
1025.533, 431.3194
1026.015, 434.2763
1026.497, 437.6724
1026.979, 440.2426
1027.461, 438.5318
1027.943, 432.8941
1028.426, 428.8004
1028.908, 428.8044
1029.390, 430.4852
1029.872, 434.1564
1030.354, 438.3277
1030.836, 436.7490
1031.318, 429.9604
1031.800, 429.7306
1032.283, 442.7248
1032.765, 454.3625
1033.247, 446.6830
1033.729, 432.3470
1034.211, 427.0868
1034.693, 438.6366
1035.175, 443.6235
1035.657, 440.1396
1036.140, 435.1920
1036.622, 433.1252
1037.104, 433.5563
1037.586, 437.5136
1038.068, 443.7361
1038.550, 445.7347
1039.032, 434.5250
1039.514, 425.2904
1039.996, 423.6958
1040.479, 427.4449
1040.961, 434.4647
1041.443, 445.1076
1041.925, 448.0339
1042.407, 440.2708
1042.889, 429.6597
1043.371, 419.3920
1043.853, 413.2951
1044.335, 418.1858
1044.818, 438.3120
1045.300, 445.9045
1045.782, 433.5872
1046.264, 423.2925
1046.746, 427.1558
1047.228, 439.5465
1047.710, 445.8472
1048.192, 447.1819
1048.675, 447.3439
1049.157, 448.0367
1049.639, 447.8170
1050.121, 446.0554
1050.603, 443.1243
1051.085, 438.5106
1051.567, 431.8108
1052.049, 430.0493
1052.531, 434.0356
1053.014, 438.4984
1053.496, 438.4428
1053.978, 436.9975
1054.460, 437.1976
1054.942, 439.1435
1055.424, 440.6290
1055.906, 440.5208
1056.388, 442.3745
1056.870, 448.2753
1057.353, 455.0909
1057.835, 455.9515
1058.317, 452.9190
1058.799, 451.4464
1059.281, 454.1183
1059.763, 455.2714
1060.245, 450.6790
1060.727, 445.3820
1061.210, 442.9787
1061.692, 443.4935
1062.174, 443.2623
1062.656, 442.3371
1063.138, 443.4221
1063.620, 451.8802
1064.102, 459.8762
1064.584, 458.9271
1065.067, 452.2757
1065.549, 448.8288
1066.031, 450.9734
1066.513, 451.6519
1066.995, 449.6264
1067.477, 447.2458
1067.959, 447.1325
1068.441, 448.8821
1068.923, 452.0360
1069.406, 456.5548
1069.888, 461.1443
1070.370, 467.7335
1070.852, 471.2198
1071.334, 468.6367
1071.816, 461.8231
1072.298, 457.4860
1072.780, 455.4785
1073.262, 455.3157
1073.745, 457.3100
1074.227, 460.0124
1074.709, 463.2964
1075.191, 466.2443
1075.673, 467.5975
1076.155, 466.7602
1076.637, 467.2741
1077.119, 469.4709
1077.601, 471.1263
1078.084, 470.0305
1078.566, 467.8285
1079.048, 465.3443
1079.530, 463.6090
1080.012, 465.9955
1080.494, 479.3073
1080.976, 488.4387
1081.458, 490.4384
1081.941, 489.3883
1082.423, 491.6048
1082.905, 495.7511
1083.387, 496.4619
1083.869, 492.8800
1084.351, 490.6544
1084.833, 494.5043
1085.315, 499.1685
1085.797, 503.2203
1086.280, 505.8027
1086.762, 500.4975
1087.244, 487.3883
1087.726, 475.3358
1088.208, 466.1876
1088.690, 461.9628
1089.172, 470.2527
1089.654, 481.8428
1090.136, 484.0915
1090.619, 470.9565
1091.101, 464.1641
1091.583, 465.1554
1092.065, 467.3531
1092.547, 465.7417
1093.029, 462.5214
1093.511, 461.1644
1093.993, 461.7511
1094.476, 464.4429
1094.958, 472.1902
1095.440, 478.0352
1095.922, 480.4757
1096.404, 481.3133
1096.886, 483.8391
1097.368, 486.9670
1097.850, 483.8596
1098.333, 473.9323
1098.815, 466.8145
1099.297, 470.5407
1099.779, 476.8514
1100.261, 482.7406
1100.743, 487.3562
1101.225, 486.9843
1101.707, 481.5363
1102.189, 475.7972
1102.672, 470.7276
1103.154, 467.0433
1103.636, 466.2933
1104.118, 466.8998
1104.600, 466.7306
1105.082, 464.7350
1105.564, 467.2954
1106.046, 475.7289
1106.528, 483.7249
1107.011, 488.5451
1107.493, 490.1880
1107.975, 485.7184
1108.457, 478.2332
1108.939, 475.0790
1109.421, 482.4602
1109.903, 488.8329
1110.385, 493.7542
1110.868, 496.5863
1111.350, 495.4517
1111.832, 491.6991
1112.314, 490.5499
1112.796, 492.1081
1113.278, 495.2192
1113.760, 501.7027
1114.242, 506.7353
1114.724, 507.5635
1115.207, 506.2861
1115.689, 507.5586
1116.171, 511.1341
1116.653, 510.4719
1117.135, 503.8791
1117.617, 498.8062
1118.099, 503.6752
1118.581, 510.6034
1119.063, 513.2878
1119.546, 511.7275
1120.028, 510.2012
1120.510, 508.5335
1120.992, 508.7928
1121.474, 513.4158
1121.956, 516.4553
1122.438, 505.2892
1122.920, 490.3150
1123.403, 486.4343
1123.885, 502.1161
1124.367, 513.4534
1124.849, 520.0423
1125.331, 522.7841
1125.813, 520.4786
1126.295, 515.7487
1126.777, 514.6735
1127.260, 515.9006
1127.742, 515.7128
1128.224, 510.3098
1128.706, 506.9439
1129.188, 506.9980
1129.670, 508.4992
1130.152, 510.4791
1130.634, 512.2574
1131.116, 509.5731
1131.599, 502.8779
1132.081, 498.0055
1132.563, 495.8680
1133.045, 499.2972
1133.527, 514.0556
1134.009, 532.0856
1134.491, 536.7775
1134.973, 529.2184
1135.455, 525.8156
1135.938, 529.4662
1136.420, 532.3456
1136.902, 525.4562
1137.384, 518.1384
1137.866, 518.8120
1138.348, 525.7634
1138.830, 528.1060
1139.312, 525.4741
1139.795, 523.4567
1140.277, 523.9671
1140.759, 524.9820
1141.241, 524.6292
1141.723, 523.4492
1142.205, 521.8403
1142.687, 519.6291
1143.169, 518.5497
1143.651, 518.6429
1144.134, 519.9084
1144.616, 523.8360
1145.098, 527.2596
1145.580, 523.0668
1146.062, 515.3948
1146.544, 512.0271
1147.026, 519.0389
1147.508, 523.6021
1147.990, 525.8856
1148.473, 524.7877
1148.955, 515.3442
1149.437, 503.4411
1149.919, 504.3060
1150.401, 514.9420
1150.883, 522.8452
1151.365, 520.4324
1151.847, 518.5049
1152.330, 518.0098
1152.812, 519.7461
1153.294, 527.5960
1153.776, 538.3185
1154.258, 538.0228
1154.740, 526.7739
1155.222, 520.1174
1155.704, 533.3518
1156.186, 543.3098
1156.669, 539.8333
1157.151, 529.8374
1157.633, 528.4113
1158.115, 533.7813
1158.597, 534.8472
1159.079, 529.5067
1159.561, 522.3226
1160.043, 512.3239
1160.526, 505.3432
1161.008, 505.7430
1161.490, 511.6959
1161.972, 515.6005
1162.454, 517.5566
1162.936, 519.2911
1163.418, 521.1138
1163.900, 523.4772
1164.382, 529.3062
1164.865, 533.8458
1165.347, 531.4725
1165.829, 522.1869
1166.311, 519.3317
1166.793, 523.1573
1167.275, 527.0350
1167.757, 528.9368
1168.239, 528.1247
1168.721, 520.5796
1169.204, 511.5057
1169.686, 508.7135
1170.168, 514.3186
1170.650, 517.1557
1171.132, 516.7439
1171.614, 517.2335
1172.096, 522.6624
1172.578, 529.3314
1173.061, 533.4058
1173.543, 535.5265
1174.025, 536.9764
1174.507, 537.9546
1174.989, 538.4818
1175.471, 538.7554
1175.953, 537.6422
1176.435, 531.3517
1176.917, 525.0111
1177.400, 526.9268
1177.882, 535.1007
1178.364, 540.1335
1178.846, 540.6290
1179.328, 537.4592
1179.810, 529.1215
1180.292, 522.1497
1180.774, 526.7128
1181.256, 536.1466
1181.739, 540.0875
1182.221, 538.0696
1182.703, 535.5925
1183.185, 532.4409
1183.667, 531.7963
1184.149, 535.4012
1184.631, 539.4091
1185.113, 536.3102
1185.596, 529.9388
1186.078, 528.0073
1186.560, 531.8417
1187.042, 534.3018
1187.524, 533.5015
1188.006, 531.3798
1188.488, 527.1470
1188.970, 523.9058
1189.453, 531.7173
1189.935, 544.4586
1190.417, 547.8345
1190.899, 536.1690
1191.381, 527.9248
1191.863, 527.2117
1192.345, 530.9586
1192.827, 540.3354
1193.309, 551.2940
1193.792, 552.3350
1194.274, 545.9217
1194.756, 537.5657
1195.238, 526.2048
1195.720, 520.5107
1196.202, 525.7615
1196.684, 532.1129
1197.166, 533.0673
1197.648, 530.9424
1198.131, 535.3054
1198.613, 543.8184
1199.095, 548.7907
1199.577, 544.4752
1200.059, 540.7484
1200.541, 539.9434
1201.023, 540.1503
1201.505, 540.8385
1201.988, 541.3710
1202.470, 536.8570
1202.952, 528.9422
1203.434, 524.9473
1203.916, 531.4649
1204.398, 538.1105
1204.880, 543.9540
1205.362, 547.1645
1205.844, 543.5933
1206.327, 535.6063
1206.809, 535.4496
1207.291, 542.0869
1207.773, 546.3463
1208.255, 539.3210
1208.737, 535.3412
1209.219, 539.2296
1209.701, 546.0988
1210.183, 549.9414
1210.666, 551.4499
1211.148, 553.7610
1211.630, 556.8845
1212.112, 558.5757
1212.594, 556.4566
1213.076, 554.2883
1213.558, 552.8884
1214.040, 552.4142
1214.523, 554.2899
1215.005, 557.3608
1215.487, 556.1234
1215.969, 550.2094
1216.451, 546.0178
1216.933, 547.8440
1217.415, 550.6746
1217.897, 553.4485
1218.380, 555.5200
1218.862, 555.4576
1219.344, 553.6367
1219.826, 550.2273
1220.308, 545.1027
1220.790, 543.6425
1221.272, 554.3594
1221.754, 561.3182
1222.236, 556.8204
1222.719, 547.6033
1223.201, 550.5138
1223.683, 561.2424
1224.165, 566.5680
1224.647, 563.6543
1225.129, 557.9903
1225.611, 547.3390
1226.093, 539.9064
1226.575, 539.2685
1227.058, 542.9570
1227.540, 544.6122
1228.022, 545.5961
1228.504, 550.3387
1228.986, 560.9946
1229.468, 569.8173
1229.950, 576.8813
1230.432, 577.5753
1230.915, 567.3274
1231.397, 551.8938
1231.879, 545.8323
1232.361, 546.3672
1232.843, 546.2076
1233.325, 542.1564
1233.807, 542.6067
1234.289, 552.3057
1234.771, 561.1599
1235.254, 564.0443
1235.736, 563.2677
1236.218, 564.2791
1236.700, 566.1268
1237.182, 566.5268
1237.664, 563.9654
1238.146, 562.4980
1238.628, 562.8785
1239.110, 563.6495
1239.593, 564.2192
1240.075, 564.4460
1240.557, 563.3702
1241.039, 561.8372
1241.521, 561.8329
1242.003, 565.5346
1242.485, 566.6720
1242.967, 564.2343
1243.449, 561.2150
1243.932, 558.4301
1244.414, 557.0757
1244.896, 560.4694
1245.378, 566.5756
1245.860, 571.2786
1246.342, 572.9896
1246.824, 575.1210
1247.306, 578.7715
1247.789, 578.8065
1248.271, 567.2551
1248.753, 553.9163
1249.235, 555.2181
1249.717, 564.5474
1250.199, 568.6299
1250.681, 562.4682
1251.163, 558.8373
1251.646, 557.8336
1252.128, 558.8709
1252.610, 563.1229
1253.092, 567.8574
1253.574, 568.7003
1254.056, 568.2942
1254.538, 572.5574
1255.020, 584.0725
1255.502, 590.2999
1255.984, 590.8405
1256.467, 587.5742
1256.949, 576.7159
1257.431, 567.6288
1257.913, 571.6561
1258.395, 581.4659
1258.877, 583.4890
1259.359, 576.5893
1259.841, 569.1101
1260.324, 561.3398
1260.806, 557.3668
1261.288, 564.6034
1261.770, 571.5828
1262.252, 567.7961
1262.734, 561.0236
1263.216, 562.8740
1263.698, 573.2780
1264.181, 581.4984
1264.663, 586.9576
1265.145, 588.1412
1265.627, 578.2019
1266.109, 570.8301
1266.591, 575.5443
1267.073, 583.3302
1267.555, 582.8894
1268.037, 575.8369
1268.520, 574.1674
1269.002, 577.8486
1269.484, 582.2601
1269.966, 586.4674
1270.448, 588.9583
1270.930, 588.8157
1271.412, 587.8344
1271.894, 588.7186
1272.376, 590.3546
1272.859, 588.9216
1273.341, 584.6097
1273.823, 579.5992
1274.305, 570.3688
1274.787, 567.9091
1275.269, 576.0726
1275.751, 585.7424
1276.233, 585.6918
1276.716, 580.6551
1277.198, 578.6244
1277.680, 579.8084
1278.162, 583.5181
1278.644, 593.5204
1279.126, 596.3867
1279.608, 588.9794
1280.090, 581.4063
1280.573, 587.0008
1281.055, 595.4213
1281.537, 591.2725
1282.019, 578.7820
1282.501, 576.1657
1282.983, 588.0073
1283.465, 593.2709
1283.947, 589.2927
1284.429, 585.5569
1284.911, 591.1049
1285.394, 599.3204
1285.876, 606.9674
1286.358, 612.1236
1286.840, 610.2956
1287.322, 600.7481
1287.804, 596.2991
1288.286, 597.9318
1288.768, 599.9587
1289.251, 596.3561
1289.733, 594.2640
##END=



