##NAMES=Haydeeite
##RRUFFID=R120085
##IDEAL CHEMISTRY=Cu^2+^_3_Mg(OH)_6_Cl_2_
##LOCALITY=Haydee mine, Salar Grande, Atacama desert, Chile
##OWNER=RRUFF
##SOURCE=Bob Jenkins
##DESCRIPTION=Short, blue to blue-green prismatic euhedral crystals, associated with pale green atacamite
##STATUS=The identification of this mineral has been confirmed by single-crystal X-ray diffraction.
##URL=rruff.info/R120085
9.112140e+001, 0.000000e+000
9.160352e+001, 3.811841e+002
9.208563e+001, 3.803322e+002
9.256775e+001, 3.801879e+002
9.304987e+001, 3.808243e+002
9.353198e+001, 3.822161e+002
9.401410e+001, 3.801985e+002
9.449622e+001, 3.747025e+002
9.497833e+001, 3.669567e+002
9.546045e+001, 3.578419e+002
9.594257e+001, 3.472968e+002
9.642468e+001, 3.378738e+002
9.690680e+001, 3.288925e+002
9.738892e+001, 3.216694e+002
9.787103e+001, 3.171017e+002
9.835315e+001, 3.144446e+002
9.883527e+001, 3.122403e+002
9.931738e+001, 3.098494e+002
9.979950e+001, 3.070742e+002
1.002816e+002, 3.053278e+002
1.007637e+002, 3.057443e+002
1.012458e+002, 3.063574e+002
1.017280e+002, 3.051411e+002
1.022101e+002, 3.014566e+002
1.026922e+002, 2.968611e+002
1.031743e+002, 2.939032e+002
1.036564e+002, 2.925773e+002
1.041385e+002, 2.910675e+002
1.046207e+002, 2.880191e+002
1.051028e+002, 2.840866e+002
1.055849e+002, 2.817221e+002
1.060670e+002, 2.828141e+002
1.065491e+002, 2.846325e+002
1.070313e+002, 2.842072e+002
1.075134e+002, 2.812088e+002
1.079955e+002, 2.771067e+002
1.084776e+002, 2.728619e+002
1.089597e+002, 2.680507e+002
1.094418e+002, 2.649587e+002
1.099240e+002, 2.652726e+002
1.104061e+002, 2.668922e+002
1.108882e+002, 2.683905e+002
1.113703e+002, 2.692118e+002
1.118524e+002, 2.696759e+002
1.123345e+002, 2.705983e+002
1.128167e+002, 2.717668e+002
1.132988e+002, 2.738292e+002
1.137809e+002, 2.768496e+002
1.142630e+002, 2.807355e+002
1.147451e+002, 2.853613e+002
1.152272e+002, 2.905911e+002
1.157094e+002, 2.964914e+002
1.161915e+002, 3.036204e+002
1.166736e+002, 3.121440e+002
1.171557e+002, 3.215316e+002
1.176378e+002, 3.314851e+002
1.181199e+002, 3.421162e+002
1.186021e+002, 3.540819e+002
1.190842e+002, 3.685723e+002
1.195663e+002, 3.856753e+002
1.200484e+002, 3.986334e+002
1.205305e+002, 4.101300e+002
1.210126e+002, 4.161945e+002
1.214948e+002, 4.122700e+002
1.219769e+002, 3.973253e+002
1.224590e+002, 3.766822e+002
1.229411e+002, 3.529805e+002
1.234232e+002, 3.272178e+002
1.239053e+002, 3.031181e+002
1.243875e+002, 2.818214e+002
1.248696e+002, 2.631415e+002
1.253517e+002, 2.466171e+002
1.258338e+002, 2.316766e+002
1.263159e+002, 2.200682e+002
1.267980e+002, 2.128611e+002
1.272802e+002, 2.095569e+002
1.277623e+002, 2.079094e+002
1.282444e+002, 2.064494e+002
1.287265e+002, 2.052061e+002
1.292086e+002, 2.039107e+002
1.296907e+002, 2.027257e+002
1.301729e+002, 2.013377e+002
1.306550e+002, 1.994267e+002
1.311371e+002, 1.970308e+002
1.316192e+002, 1.945775e+002
1.321013e+002, 1.926158e+002
1.325834e+002, 1.910818e+002
1.330656e+002, 1.902623e+002
1.335477e+002, 1.901861e+002
1.340298e+002, 1.906536e+002
1.345119e+002, 1.915662e+002
1.349940e+002, 1.928756e+002
1.354761e+002, 1.945348e+002
1.359583e+002, 1.964363e+002
1.364404e+002, 1.984665e+002
1.369225e+002, 2.009058e+002
1.374046e+002, 2.040038e+002
1.378867e+002, 2.074870e+002
1.383688e+002, 2.111479e+002
1.388510e+002, 2.150719e+002
1.393331e+002, 2.187614e+002
1.398152e+002, 2.204858e+002
1.402973e+002, 2.194082e+002
1.407794e+002, 2.180981e+002
1.412615e+002, 2.172931e+002
1.417437e+002, 2.170349e+002
1.422258e+002, 2.175154e+002
1.427079e+002, 2.189245e+002
1.431900e+002, 2.212043e+002
1.436721e+002, 2.239989e+002
1.441542e+002, 2.274834e+002
1.446364e+002, 2.312571e+002
1.451185e+002, 2.348801e+002
1.456006e+002, 2.382842e+002
1.460827e+002, 2.419451e+002
1.465648e+002, 2.461910e+002
1.470469e+002, 2.508222e+002
1.475291e+002, 2.557016e+002
1.480112e+002, 2.607750e+002
1.484933e+002, 2.660767e+002
1.489754e+002, 2.715885e+002
1.494575e+002, 2.769916e+002
1.499396e+002, 2.833500e+002
1.504218e+002, 2.907638e+002
1.509039e+002, 2.992079e+002
1.513860e+002, 3.085932e+002
1.518681e+002, 3.188808e+002
1.523502e+002, 3.301395e+002
1.528323e+002, 3.423387e+002
1.533145e+002, 3.571866e+002
1.537966e+002, 3.713827e+002
1.542787e+002, 3.853847e+002
1.547608e+002, 3.982973e+002
1.552429e+002, 4.090114e+002
1.557250e+002, 4.169249e+002
1.562072e+002, 4.221708e+002
1.566893e+002, 4.214323e+002
1.571714e+002, 4.140343e+002
1.576535e+002, 4.027071e+002
1.581356e+002, 3.875782e+002
1.586177e+002, 3.691919e+002
1.590999e+002, 3.486232e+002
1.595820e+002, 3.264563e+002
1.600641e+002, 3.021686e+002
1.605462e+002, 2.802551e+002
1.610283e+002, 2.606645e+002
1.615104e+002, 2.433939e+002
1.619926e+002, 2.287610e+002
1.624747e+002, 2.168067e+002
1.629568e+002, 2.066239e+002
1.634389e+002, 1.976473e+002
1.639210e+002, 1.898341e+002
1.644031e+002, 1.832072e+002
1.648853e+002, 1.783964e+002
1.653674e+002, 1.746102e+002
1.658495e+002, 1.707190e+002
1.663316e+002, 1.663994e+002
1.668137e+002, 1.623963e+002
1.672958e+002, 1.594895e+002
1.677780e+002, 1.574682e+002
1.682601e+002, 1.557745e+002
1.687422e+002, 1.540448e+002
1.692243e+002, 1.524023e+002
1.697064e+002, 1.514640e+002
1.701885e+002, 1.518182e+002
1.706707e+002, 1.522430e+002
1.711528e+002, 1.520588e+002
1.716349e+002, 1.512901e+002
1.721170e+002, 1.501087e+002
1.725991e+002, 1.482999e+002
1.730812e+002, 1.457918e+002
1.735634e+002, 1.442058e+002
1.740455e+002, 1.446648e+002
1.745276e+002, 1.452881e+002
1.750097e+002, 1.453404e+002
1.754918e+002, 1.448013e+002
1.759739e+002, 1.440258e+002
1.764561e+002, 1.434024e+002
1.769382e+002, 1.430051e+002
1.774203e+002, 1.424873e+002
1.779024e+002, 1.416013e+002
1.783845e+002, 1.407979e+002
1.788666e+002, 1.404456e+002
1.793488e+002, 1.405222e+002
1.798309e+002, 1.406411e+002
1.803130e+002, 1.402515e+002
1.807951e+002, 1.390049e+002
1.812772e+002, 1.380207e+002
1.817593e+002, 1.370719e+002
1.822415e+002, 1.364828e+002
1.827236e+002, 1.367180e+002
1.832057e+002, 1.378150e+002
1.836878e+002, 1.391497e+002
1.841699e+002, 1.397538e+002
1.846520e+002, 1.390612e+002
1.851342e+002, 1.387196e+002
1.856163e+002, 1.392249e+002
1.860984e+002, 1.398964e+002
1.865805e+002, 1.399427e+002
1.870626e+002, 1.391094e+002
1.875447e+002, 1.378598e+002
1.880269e+002, 1.369474e+002
1.885090e+002, 1.364200e+002
1.889911e+002, 1.359351e+002
1.894732e+002, 1.355891e+002
1.899553e+002, 1.352123e+002
1.904374e+002, 1.344435e+002
1.909196e+002, 1.330593e+002
1.914017e+002, 1.314933e+002
1.918838e+002, 1.303372e+002
1.923659e+002, 1.295802e+002
1.928480e+002, 1.290103e+002
1.933301e+002, 1.287120e+002
1.938123e+002, 1.285673e+002
1.942944e+002, 1.280847e+002
1.947765e+002, 1.268982e+002
1.952586e+002, 1.256318e+002
1.957407e+002, 1.250114e+002
1.962228e+002, 1.250500e+002
1.967050e+002, 1.250668e+002
1.971871e+002, 1.245676e+002
1.976692e+002, 1.235703e+002
1.981513e+002, 1.224323e+002
1.986334e+002, 1.207797e+002
1.991155e+002, 1.194167e+002
1.995977e+002, 1.190462e+002
2.000798e+002, 1.196598e+002
2.005619e+002, 1.204483e+002
2.010440e+002, 1.205217e+002
2.015261e+002, 1.197170e+002
2.020082e+002, 1.192961e+002
2.024904e+002, 1.198180e+002
2.029725e+002, 1.204862e+002
2.034546e+002, 1.209441e+002
2.039367e+002, 1.211377e+002
2.044188e+002, 1.211978e+002
2.049009e+002, 1.212693e+002
2.053831e+002, 1.213493e+002
2.058652e+002, 1.214500e+002
2.063473e+002, 1.216163e+002
2.068294e+002, 1.217682e+002
2.073115e+002, 1.218622e+002
2.077936e+002, 1.218895e+002
2.082758e+002, 1.218644e+002
2.087579e+002, 1.217990e+002
2.092400e+002, 1.216581e+002
2.097221e+002, 1.215544e+002
2.102042e+002, 1.215041e+002
2.106863e+002, 1.214722e+002
2.111685e+002, 1.214780e+002
2.116506e+002, 1.215061e+002
2.121327e+002, 1.214669e+002
2.126148e+002, 1.212092e+002
2.130969e+002, 1.205220e+002
2.135790e+002, 1.200736e+002
2.140612e+002, 1.200134e+002
2.145433e+002, 1.200799e+002
2.150254e+002, 1.200177e+002
2.155075e+002, 1.197813e+002
2.159896e+002, 1.195917e+002
2.164717e+002, 1.198101e+002
2.169539e+002, 1.208109e+002
2.174360e+002, 1.212785e+002
2.179181e+002, 1.208239e+002
2.184002e+002, 1.200113e+002
2.188823e+002, 1.192980e+002
2.193644e+002, 1.187945e+002
2.198466e+002, 1.185531e+002
2.203287e+002, 1.187422e+002
2.208108e+002, 1.194689e+002
2.212929e+002, 1.200066e+002
2.217750e+002, 1.202931e+002
2.222571e+002, 1.203271e+002
2.227393e+002, 1.199828e+002
2.232214e+002, 1.191735e+002
2.237035e+002, 1.183550e+002
2.241856e+002, 1.182481e+002
2.246677e+002, 1.187928e+002
2.251498e+002, 1.191292e+002
2.256320e+002, 1.189214e+002
2.261141e+002, 1.183988e+002
2.265962e+002, 1.179079e+002
2.270783e+002, 1.174853e+002
2.275604e+002, 1.171501e+002
2.280425e+002, 1.167970e+002
2.285247e+002, 1.164769e+002
2.290068e+002, 1.165636e+002
2.294889e+002, 1.175636e+002
2.299710e+002, 1.190399e+002
2.304531e+002, 1.199668e+002
2.309352e+002, 1.200509e+002
2.314174e+002, 1.199744e+002
2.318995e+002, 1.204460e+002
2.323816e+002, 1.212221e+002
2.328637e+002, 1.215953e+002
2.333458e+002, 1.208666e+002
2.338279e+002, 1.194360e+002
2.343101e+002, 1.186114e+002
2.347922e+002, 1.186087e+002
2.352743e+002, 1.189548e+002
2.357564e+002, 1.194422e+002
2.362385e+002, 1.200253e+002
2.367206e+002, 1.206174e+002
2.372028e+002, 1.211563e+002
2.376849e+002, 1.216613e+002
2.381670e+002, 1.222335e+002
2.386491e+002, 1.229297e+002
2.391312e+002, 1.236091e+002
2.396133e+002, 1.242169e+002
2.400955e+002, 1.247736e+002
2.405776e+002, 1.253229e+002
2.410597e+002, 1.258888e+002
2.415418e+002, 1.264662e+002
2.420239e+002, 1.270134e+002
2.425060e+002, 1.274804e+002
2.429882e+002, 1.279912e+002
2.434703e+002, 1.287028e+002
2.439524e+002, 1.294553e+002
2.444345e+002, 1.299770e+002
2.449166e+002, 1.300577e+002
2.453987e+002, 1.298498e+002
2.458809e+002, 1.300932e+002
2.463630e+002, 1.312735e+002
2.468451e+002, 1.322980e+002
2.473272e+002, 1.328725e+002
2.478093e+002, 1.331901e+002
2.482914e+002, 1.334830e+002
2.487736e+002, 1.338716e+002
2.492557e+002, 1.343513e+002
2.497378e+002, 1.348871e+002
2.502199e+002, 1.352549e+002
2.507020e+002, 1.360016e+002
2.511841e+002, 1.372897e+002
2.516663e+002, 1.389469e+002
2.521484e+002, 1.409004e+002
2.526305e+002, 1.431388e+002
2.531126e+002, 1.453962e+002
2.535947e+002, 1.468595e+002
2.540768e+002, 1.462160e+002
2.545590e+002, 1.463313e+002
2.550411e+002, 1.478908e+002
2.555232e+002, 1.500898e+002
2.560053e+002, 1.519378e+002
2.564874e+002, 1.530160e+002
2.569695e+002, 1.538270e+002
2.574517e+002, 1.555838e+002
2.579338e+002, 1.598831e+002
2.584159e+002, 1.632482e+002
2.588980e+002, 1.651512e+002
2.593801e+002, 1.663342e+002
2.598622e+002, 1.674122e+002
2.603444e+002, 1.686159e+002
2.608265e+002, 1.701211e+002
2.613086e+002, 1.722744e+002
2.617907e+002, 1.756387e+002
2.622728e+002, 1.788399e+002
2.627549e+002, 1.817724e+002
2.632371e+002, 1.845914e+002
2.637192e+002, 1.874226e+002
2.642013e+002, 1.903099e+002
2.646834e+002, 1.932159e+002
2.651655e+002, 1.960659e+002
2.656476e+002, 1.987194e+002
2.661298e+002, 2.016937e+002
2.666119e+002, 2.055328e+002
2.670940e+002, 2.094189e+002
2.675761e+002, 2.124874e+002
2.680582e+002, 2.146013e+002
2.685403e+002, 2.163604e+002
2.690225e+002, 2.185206e+002
2.695046e+002, 2.212753e+002
2.699867e+002, 2.233975e+002
2.704688e+002, 2.249198e+002
2.709509e+002, 2.257557e+002
2.714330e+002, 2.255983e+002
2.719152e+002, 2.244676e+002
2.723973e+002, 2.231095e+002
2.728794e+002, 2.223773e+002
2.733615e+002, 2.223006e+002
2.738436e+002, 2.211700e+002
2.743257e+002, 2.186276e+002
2.748079e+002, 2.152487e+002
2.752900e+002, 2.112723e+002
2.757721e+002, 2.067556e+002
2.762542e+002, 2.021850e+002
2.767363e+002, 1.978802e+002
2.772184e+002, 1.938557e+002
2.777006e+002, 1.897926e+002
2.781827e+002, 1.859200e+002
2.786648e+002, 1.818544e+002
2.791469e+002, 1.770630e+002
2.796290e+002, 1.716819e+002
2.801111e+002, 1.667245e+002
2.805933e+002, 1.629249e+002
2.810754e+002, 1.600108e+002
2.815575e+002, 1.567813e+002
2.820396e+002, 1.528362e+002
2.825217e+002, 1.490712e+002
2.830038e+002, 1.461738e+002
2.834860e+002, 1.439990e+002
2.839681e+002, 1.417052e+002
2.844502e+002, 1.387446e+002
2.849323e+002, 1.355995e+002
2.854144e+002, 1.332336e+002
2.858965e+002, 1.318185e+002
2.863787e+002, 1.307030e+002
2.868608e+002, 1.297201e+002
2.873429e+002, 1.287922e+002
2.878250e+002, 1.275725e+002
2.883071e+002, 1.258131e+002
2.887892e+002, 1.238974e+002
2.892714e+002, 1.224059e+002
2.897535e+002, 1.213820e+002
2.902356e+002, 1.203670e+002
2.907177e+002, 1.189775e+002
2.911998e+002, 1.174268e+002
2.916819e+002, 1.162886e+002
2.921641e+002, 1.157535e+002
2.926462e+002, 1.155422e+002
2.931283e+002, 1.154057e+002
2.936104e+002, 1.153341e+002
2.940925e+002, 1.152411e+002
2.945746e+002, 1.152556e+002
2.950568e+002, 1.151991e+002
2.955389e+002, 1.145928e+002
2.960210e+002, 1.131974e+002
2.965031e+002, 1.118046e+002
2.969852e+002, 1.111162e+002
2.974673e+002, 1.109647e+002
2.979495e+002, 1.109985e+002
2.984316e+002, 1.112151e+002
2.989137e+002, 1.115104e+002
2.993958e+002, 1.117317e+002
2.998779e+002, 1.118681e+002
3.003600e+002, 1.119689e+002
3.008422e+002, 1.121719e+002
3.013243e+002, 1.123427e+002
3.018064e+002, 1.121820e+002
3.022885e+002, 1.112752e+002
3.027706e+002, 1.103465e+002
3.032527e+002, 1.103767e+002
3.037349e+002, 1.114398e+002
3.042170e+002, 1.123863e+002
3.046991e+002, 1.123440e+002
3.051812e+002, 1.120449e+002
3.056633e+002, 1.126100e+002
3.061454e+002, 1.145319e+002
3.066276e+002, 1.164345e+002
3.071097e+002, 1.168055e+002
3.075918e+002, 1.157559e+002
3.080739e+002, 1.152752e+002
3.085560e+002, 1.162467e+002
3.090381e+002, 1.179011e+002
3.095203e+002, 1.194706e+002
3.100024e+002, 1.209782e+002
3.104845e+002, 1.220220e+002
3.109666e+002, 1.218809e+002
3.114487e+002, 1.208833e+002
3.119308e+002, 1.207086e+002
3.124130e+002, 1.219366e+002
3.128951e+002, 1.237335e+002
3.133772e+002, 1.253435e+002
3.138593e+002, 1.267962e+002
3.143414e+002, 1.282353e+002
3.148235e+002, 1.297988e+002
3.153057e+002, 1.314011e+002
3.157878e+002, 1.327851e+002
3.162699e+002, 1.337992e+002
3.167520e+002, 1.348977e+002
3.172341e+002, 1.364747e+002
3.177162e+002, 1.383749e+002
3.181984e+002, 1.403047e+002
3.186805e+002, 1.421144e+002
3.191626e+002, 1.439077e+002
3.196447e+002, 1.457935e+002
3.201268e+002, 1.477361e+002
3.206089e+002, 1.499511e+002
3.210911e+002, 1.528526e+002
3.215732e+002, 1.560459e+002
3.220553e+002, 1.589559e+002
3.225374e+002, 1.613689e+002
3.230195e+002, 1.636568e+002
3.235016e+002, 1.662115e+002
3.239838e+002, 1.690503e+002
3.244659e+002, 1.718361e+002
3.249480e+002, 1.744593e+002
3.254301e+002, 1.769318e+002
3.259122e+002, 1.794136e+002
3.263943e+002, 1.820557e+002
3.268765e+002, 1.840589e+002
3.273586e+002, 1.847701e+002
3.278407e+002, 1.843138e+002
3.283228e+002, 1.833181e+002
3.288049e+002, 1.817907e+002
3.292870e+002, 1.799173e+002
3.297692e+002, 1.778974e+002
3.302513e+002, 1.757433e+002
3.307334e+002, 1.734865e+002
3.312155e+002, 1.714560e+002
3.316976e+002, 1.693132e+002
3.321797e+002, 1.661030e+002
3.326619e+002, 1.614359e+002
3.331440e+002, 1.565178e+002
3.336261e+002, 1.520750e+002
3.341082e+002, 1.481087e+002
3.345903e+002, 1.447608e+002
3.350724e+002, 1.428306e+002
3.355546e+002, 1.411968e+002
3.360367e+002, 1.380794e+002
3.365188e+002, 1.333076e+002
3.370009e+002, 1.289752e+002
3.374830e+002, 1.266628e+002
3.379651e+002, 1.254886e+002
3.384473e+002, 1.237815e+002
3.389294e+002, 1.211629e+002
3.394115e+002, 1.183047e+002
3.398936e+002, 1.155486e+002
3.403757e+002, 1.129315e+002
3.408578e+002, 1.108387e+002
3.413400e+002, 1.094891e+002
3.418221e+002, 1.086814e+002
3.423042e+002, 1.081112e+002
3.427863e+002, 1.078352e+002
3.432684e+002, 1.074599e+002
3.437505e+002, 1.067098e+002
3.442327e+002, 1.057204e+002
3.447148e+002, 1.048727e+002
3.451969e+002, 1.043285e+002
3.456790e+002, 1.037184e+002
3.461611e+002, 1.022085e+002
3.466432e+002, 9.998309e+001
3.471254e+002, 9.867793e+001
3.476075e+002, 9.944913e+001
3.480896e+002, 1.010143e+002
3.485717e+002, 1.018117e+002
3.490538e+002, 1.016992e+002
3.495359e+002, 1.012668e+002
3.500181e+002, 1.007981e+002
3.505002e+002, 1.003573e+002
3.509823e+002, 1.001735e+002
3.514644e+002, 1.006035e+002
3.519465e+002, 1.010004e+002
3.524286e+002, 1.009093e+002
3.529108e+002, 1.003945e+002
3.533929e+002, 9.969151e+001
3.538750e+002, 9.875602e+001
3.543571e+002, 9.787169e+001
3.548392e+002, 9.783330e+001
3.553214e+002, 9.916998e+001
3.558035e+002, 1.000539e+002
3.562856e+002, 9.950043e+001
3.567677e+002, 9.811407e+001
3.572498e+002, 9.693660e+001
3.577319e+002, 9.625591e+001
3.582141e+002, 9.587514e+001
3.586962e+002, 9.552059e+001
3.591783e+002, 9.515665e+001
3.596604e+002, 9.504111e+001
3.601425e+002, 9.541015e+001
3.606246e+002, 9.591306e+001
3.611068e+002, 9.628280e+001
3.615889e+002, 9.647932e+001
3.620710e+002, 9.643392e+001
3.625531e+002, 9.596334e+001
3.630352e+002, 9.510354e+001
3.635173e+002, 9.496717e+001
3.639995e+002, 9.620191e+001
3.644816e+002, 9.744470e+001
3.649637e+002, 9.805246e+001
3.654458e+002, 9.814790e+001
3.659279e+002, 9.805867e+001
3.664100e+002, 9.791689e+001
3.668922e+002, 9.779325e+001
3.673743e+002, 9.793958e+001
3.678564e+002, 9.876456e+001
3.683385e+002, 9.926500e+001
3.688206e+002, 9.884175e+001
3.693027e+002, 9.822792e+001
3.697849e+002, 9.838225e+001
3.702670e+002, 9.954459e+001
3.707491e+002, 1.010712e+002
3.712312e+002, 1.020702e+002
3.717133e+002, 1.023093e+002
3.721954e+002, 1.026689e+002
3.726776e+002, 1.032188e+002
3.731597e+002, 1.038184e+002
3.736418e+002, 1.044402e+002
3.741239e+002, 1.050461e+002
3.746060e+002, 1.055374e+002
3.750881e+002, 1.058153e+002
3.755703e+002, 1.058905e+002
3.760524e+002, 1.061697e+002
3.765345e+002, 1.064392e+002
3.770166e+002, 1.071464e+002
3.774987e+002, 1.088615e+002
3.779808e+002, 1.109629e+002
3.784630e+002, 1.124328e+002
3.789451e+002, 1.127963e+002
3.794272e+002, 1.126740e+002
3.799093e+002, 1.135735e+002
3.803914e+002, 1.162894e+002
3.808735e+002, 1.187601e+002
3.813557e+002, 1.205796e+002
3.818378e+002, 1.223790e+002
3.823199e+002, 1.247581e+002
3.828020e+002, 1.277315e+002
3.832841e+002, 1.307172e+002
3.837662e+002, 1.328909e+002
3.842484e+002, 1.339901e+002
3.847305e+002, 1.361831e+002
3.852126e+002, 1.405578e+002
3.856947e+002, 1.450410e+002
3.861768e+002, 1.488962e+002
3.866589e+002, 1.523715e+002
3.871411e+002, 1.560851e+002
3.876232e+002, 1.604543e+002
3.881053e+002, 1.652970e+002
3.885874e+002, 1.698522e+002
3.890695e+002, 1.736519e+002
3.895516e+002, 1.780714e+002
3.900338e+002, 1.837035e+002
3.905159e+002, 1.898734e+002
3.909980e+002, 1.958947e+002
3.914801e+002, 2.015971e+002
3.919622e+002, 2.074282e+002
3.924443e+002, 2.141984e+002
3.929265e+002, 2.220544e+002
3.934086e+002, 2.292853e+002
3.938907e+002, 2.347784e+002
3.943728e+002, 2.404452e+002
3.948549e+002, 2.471350e+002
3.953370e+002, 2.548830e+002
3.958192e+002, 2.635626e+002
3.963013e+002, 2.738209e+002
3.967834e+002, 2.849528e+002
3.972655e+002, 2.941596e+002
3.977476e+002, 3.004048e+002
3.982297e+002, 3.073794e+002
3.987119e+002, 3.174698e+002
3.991940e+002, 3.293228e+002
3.996761e+002, 3.413886e+002
4.001582e+002, 3.533761e+002
4.006403e+002, 3.652704e+002
4.011224e+002, 3.772773e+002
4.016046e+002, 3.894260e+002
4.020867e+002, 4.005762e+002
4.025688e+002, 4.101103e+002
4.030509e+002, 4.187676e+002
4.035330e+002, 4.278381e+002
4.040151e+002, 4.373791e+002
4.044973e+002, 4.455921e+002
4.049794e+002, 4.526108e+002
4.054615e+002, 4.575364e+002
4.059436e+002, 4.584697e+002
4.064257e+002, 4.550060e+002
4.069078e+002, 4.491230e+002
4.073900e+002, 4.421886e+002
4.078721e+002, 4.340457e+002
4.083542e+002, 4.242094e+002
4.088363e+002, 4.123441e+002
4.093184e+002, 3.990727e+002
4.098005e+002, 3.843874e+002
4.102827e+002, 3.685791e+002
4.107648e+002, 3.527582e+002
4.112469e+002, 3.373455e+002
4.117290e+002, 3.223495e+002
4.122111e+002, 3.078537e+002
4.126932e+002, 2.937106e+002
4.131754e+002, 2.803393e+002
4.136575e+002, 2.677267e+002
4.141396e+002, 2.559863e+002
4.146217e+002, 2.453824e+002
4.151038e+002, 2.359137e+002
4.155859e+002, 2.268616e+002
4.160681e+002, 2.173774e+002
4.165502e+002, 2.072931e+002
4.170323e+002, 1.989999e+002
4.175144e+002, 1.936274e+002
4.179965e+002, 1.885528e+002
4.184786e+002, 1.826935e+002
4.189608e+002, 1.763660e+002
4.194429e+002, 1.701975e+002
4.199250e+002, 1.645039e+002
4.204071e+002, 1.592911e+002
4.208892e+002, 1.545958e+002
4.213713e+002, 1.509207e+002
4.218535e+002, 1.470575e+002
4.223356e+002, 1.423301e+002
4.228177e+002, 1.378335e+002
4.232998e+002, 1.348046e+002
4.237819e+002, 1.331495e+002
4.242640e+002, 1.314384e+002
4.247462e+002, 1.279118e+002
4.252283e+002, 1.223135e+002
4.257104e+002, 1.185386e+002
4.261925e+002, 1.184845e+002
4.266746e+002, 1.182964e+002
4.271567e+002, 1.167186e+002
4.276389e+002, 1.143221e+002
4.281210e+002, 1.120485e+002
4.286031e+002, 1.103342e+002
4.290852e+002, 1.090086e+002
4.295673e+002, 1.077149e+002
4.300494e+002, 1.063707e+002
4.305316e+002, 1.053452e+002
4.310137e+002, 1.050077e+002
4.314958e+002, 1.048451e+002
4.319779e+002, 1.046018e+002
4.324600e+002, 1.042402e+002
4.329421e+002, 1.037634e+002
4.334243e+002, 1.031565e+002
4.339064e+002, 1.024326e+002
4.343885e+002, 1.015747e+002
4.348706e+002, 1.004132e+002
4.353527e+002, 9.950750e+001
4.358348e+002, 9.952596e+001
4.363170e+002, 9.998963e+001
4.367991e+002, 1.000866e+002
4.372812e+002, 9.949096e+001
4.377633e+002, 9.864889e+001
4.382454e+002, 9.769956e+001
4.387275e+002, 9.674062e+001
4.392097e+002, 9.662743e+001
4.396918e+002, 9.802654e+001
4.401739e+002, 9.984496e+001
4.406560e+002, 1.002274e+002
4.411381e+002, 9.905769e+001
4.416202e+002, 9.835971e+001
4.421024e+002, 9.914974e+001
4.425845e+002, 1.004515e+002
4.430666e+002, 1.009864e+002
4.435487e+002, 1.006985e+002
4.440308e+002, 1.006831e+002
4.445129e+002, 1.018893e+002
4.449951e+002, 1.041350e+002
4.454772e+002, 1.056831e+002
4.459593e+002, 1.061487e+002
4.464414e+002, 1.064716e+002
4.469235e+002, 1.066337e+002
4.474056e+002, 1.069177e+002
4.478878e+002, 1.078551e+002
4.483699e+002, 1.096123e+002
4.488520e+002, 1.116695e+002
4.493341e+002, 1.132173e+002
4.498162e+002, 1.139505e+002
4.502983e+002, 1.150273e+002
4.507805e+002, 1.167145e+002
4.512626e+002, 1.184414e+002
4.517447e+002, 1.198053e+002
4.522268e+002, 1.209509e+002
4.527089e+002, 1.222941e+002
4.531910e+002, 1.240926e+002
4.536732e+002, 1.263220e+002
4.541553e+002, 1.289644e+002
4.546374e+002, 1.327349e+002
4.551195e+002, 1.356575e+002
4.556016e+002, 1.368482e+002
4.560837e+002, 1.375463e+002
4.565659e+002, 1.386920e+002
4.570480e+002, 1.404984e+002
4.575301e+002, 1.426939e+002
4.580122e+002, 1.450610e+002
4.584943e+002, 1.476065e+002
4.589764e+002, 1.502353e+002
4.594586e+002, 1.530564e+002
4.599407e+002, 1.557836e+002
4.604228e+002, 1.579339e+002
4.609049e+002, 1.599421e+002
4.613870e+002, 1.626901e+002
4.618691e+002, 1.668316e+002
4.623513e+002, 1.712576e+002
4.628334e+002, 1.745701e+002
4.633155e+002, 1.768027e+002
4.637976e+002, 1.787905e+002
4.642797e+002, 1.806342e+002
4.647618e+002, 1.825248e+002
4.652440e+002, 1.848096e+002
4.657261e+002, 1.875072e+002
4.662082e+002, 1.899333e+002
4.666903e+002, 1.920591e+002
4.671724e+002, 1.936958e+002
4.676545e+002, 1.944314e+002
4.681367e+002, 1.942826e+002
4.686188e+002, 1.940637e+002
4.691009e+002, 1.945229e+002
4.695830e+002, 1.952898e+002
4.700651e+002, 1.944951e+002
4.705472e+002, 1.911956e+002
4.710294e+002, 1.877799e+002
4.715115e+002, 1.850321e+002
4.719936e+002, 1.824304e+002
4.724757e+002, 1.791239e+002
4.729578e+002, 1.749592e+002
4.734399e+002, 1.707490e+002
4.739221e+002, 1.675748e+002
4.744042e+002, 1.657867e+002
4.748863e+002, 1.629802e+002
4.753684e+002, 1.583460e+002
4.758505e+002, 1.536552e+002
4.763326e+002, 1.494217e+002
4.768148e+002, 1.456174e+002
4.772969e+002, 1.421921e+002
4.777790e+002, 1.391585e+002
4.782611e+002, 1.362571e+002
4.787432e+002, 1.329140e+002
4.792253e+002, 1.288922e+002
4.797075e+002, 1.251427e+002
4.801896e+002, 1.220275e+002
4.806717e+002, 1.190153e+002
4.811538e+002, 1.156241e+002
4.816359e+002, 1.120145e+002
4.821180e+002, 1.088771e+002
4.826002e+002, 1.068731e+002
4.830823e+002, 1.056252e+002
4.835644e+002, 1.040007e+002
4.840465e+002, 1.018878e+002
4.845286e+002, 9.983755e+001
4.850107e+002, 9.814027e+001
4.854929e+002, 9.661771e+001
4.859750e+002, 9.503838e+001
4.864571e+002, 9.336771e+001
4.869392e+002, 9.176150e+001
4.874213e+002, 9.031017e+001
4.879034e+002, 8.899071e+001
4.883856e+002, 8.777700e+001
4.888677e+002, 8.666181e+001
4.893498e+002, 8.560606e+001
4.898319e+002, 8.458871e+001
4.903140e+002, 8.360764e+001
4.907961e+002, 8.264680e+001
4.912783e+002, 8.172973e+001
4.917604e+002, 8.079934e+001
4.922425e+002, 7.952441e+001
4.927246e+002, 7.826855e+001
4.932067e+002, 7.784765e+001
4.936888e+002, 7.854891e+001
4.941710e+002, 7.966232e+001
4.946531e+002, 8.009682e+001
4.951352e+002, 7.966252e+001
4.956173e+002, 7.909798e+001
4.960994e+002, 7.840861e+001
4.965815e+002, 7.760572e+001
4.970637e+002, 7.648896e+001
4.975458e+002, 7.527996e+001
4.980279e+002, 7.449380e+001
4.985100e+002, 7.446455e+001
4.989921e+002, 7.479836e+001
4.994742e+002, 7.442636e+001
4.999564e+002, 7.297980e+001
5.004385e+002, 7.176138e+001
5.009206e+002, 7.046709e+001
5.014027e+002, 6.983163e+001
5.018848e+002, 7.083503e+001
5.023669e+002, 7.316624e+001
5.028491e+002, 7.517232e+001
5.033312e+002, 7.556420e+001
5.038133e+002, 7.484869e+001
5.042954e+002, 7.437097e+001
5.047775e+002, 7.418639e+001
5.052596e+002, 7.398431e+001
5.057418e+002, 7.357349e+001
5.062239e+002, 7.309367e+001
5.067060e+002, 7.273976e+001
5.071881e+002, 7.253596e+001
5.076702e+002, 7.240231e+001
5.081523e+002, 7.218041e+001
5.086345e+002, 7.204086e+001
5.091166e+002, 7.246838e+001
5.095987e+002, 7.353815e+001
5.100808e+002, 7.433572e+001
5.105629e+002, 7.399559e+001
5.110450e+002, 7.264612e+001
5.115272e+002, 7.184956e+001
5.120093e+002, 7.198813e+001
5.124914e+002, 7.214050e+001
5.129735e+002, 7.187812e+001
5.134556e+002, 7.153913e+001
5.139377e+002, 7.171593e+001
5.144199e+002, 7.251163e+001
5.149020e+002, 7.331001e+001
5.153841e+002, 7.327227e+001
5.158662e+002, 7.222721e+001
5.163483e+002, 7.152961e+001
5.168304e+002, 7.159720e+001
5.173126e+002, 7.157857e+001
5.177947e+002, 7.120488e+001
5.182768e+002, 7.060647e+001
5.187589e+002, 6.994247e+001
5.192410e+002, 6.926598e+001
5.197231e+002, 6.869290e+001
5.202053e+002, 6.838283e+001
5.206874e+002, 6.834184e+001
5.211695e+002, 6.848736e+001
5.216516e+002, 6.879765e+001
5.221337e+002, 6.932485e+001
5.226158e+002, 7.041038e+001
5.230980e+002, 7.174781e+001
5.235801e+002, 7.243255e+001
5.240622e+002, 7.186509e+001
5.245443e+002, 7.078491e+001
5.250264e+002, 6.972031e+001
5.255085e+002, 6.873653e+001
5.259907e+002, 6.836935e+001
5.264728e+002, 6.896709e+001
5.269549e+002, 6.989474e+001
5.274370e+002, 7.017432e+001
5.279191e+002, 6.969443e+001
5.284012e+002, 6.934954e+001
5.288834e+002, 6.948499e+001
5.293655e+002, 6.956168e+001
5.298476e+002, 6.910055e+001
5.303297e+002, 6.824992e+001
5.308118e+002, 6.744134e+001
5.312939e+002, 6.688887e+001
5.317761e+002, 6.662733e+001
5.322582e+002, 6.678089e+001
5.327403e+002, 6.769763e+001
5.332224e+002, 6.839087e+001
5.337045e+002, 6.871445e+001
5.341866e+002, 6.895097e+001
5.346688e+002, 6.939119e+001
5.351509e+002, 6.991040e+001
5.356330e+002, 7.008939e+001
5.361151e+002, 6.958010e+001
5.365972e+002, 6.864397e+001
5.370793e+002, 6.788795e+001
5.375615e+002, 6.723941e+001
5.380436e+002, 6.710271e+001
5.385257e+002, 6.808880e+001
5.390078e+002, 6.926607e+001
5.394899e+002, 6.981713e+001
5.399720e+002, 6.973708e+001
5.404542e+002, 6.951678e+001
5.409363e+002, 6.933203e+001
5.414184e+002, 6.917824e+001
5.419005e+002, 6.910603e+001
5.423826e+002, 6.910372e+001
5.428647e+002, 6.892530e+001
5.433469e+002, 6.836032e+001
5.438290e+002, 6.761881e+001
5.443111e+002, 6.723647e+001
5.447932e+002, 6.720277e+001
5.452753e+002, 6.747460e+001
5.457574e+002, 6.844267e+001
5.462396e+002, 6.943354e+001
5.467217e+002, 6.974947e+001
5.472038e+002, 6.947729e+001
5.476859e+002, 6.927506e+001
5.481680e+002, 6.964199e+001
5.486501e+002, 7.037776e+001
5.491323e+002, 7.053519e+001
5.496144e+002, 6.943526e+001
5.500965e+002, 6.894904e+001
5.505786e+002, 6.970225e+001
5.510607e+002, 7.073112e+001
5.515428e+002, 7.146288e+001
5.520250e+002, 7.179878e+001
5.525071e+002, 7.178969e+001
5.529892e+002, 7.133904e+001
5.534713e+002, 7.061592e+001
5.539534e+002, 7.006963e+001
5.544355e+002, 6.968834e+001
5.549177e+002, 6.957674e+001
5.553998e+002, 7.001482e+001
5.558819e+002, 7.057248e+001
5.563640e+002, 7.067351e+001
5.568461e+002, 7.027090e+001
5.573282e+002, 6.973000e+001
5.578104e+002, 6.880519e+001
5.582925e+002, 6.803981e+001
5.587746e+002, 6.823880e+001
5.592567e+002, 6.934489e+001
5.597388e+002, 7.065031e+001
5.602209e+002, 7.188222e+001
5.607031e+002, 7.278330e+001
5.611852e+002, 7.253240e+001
5.616673e+002, 6.964446e+001
5.621494e+002, 6.767570e+001
5.626315e+002, 6.699216e+001
5.631136e+002, 6.699049e+001
5.635958e+002, 6.755881e+001
5.640779e+002, 6.844406e+001
5.645600e+002, 6.907920e+001
5.650421e+002, 6.903329e+001
5.655242e+002, 6.850113e+001
5.660063e+002, 6.803895e+001
5.664885e+002, 6.746855e+001
5.669706e+002, 6.749680e+001
5.674527e+002, 6.917959e+001
5.679348e+002, 7.085562e+001
5.684169e+002, 7.132140e+001
5.688990e+002, 7.062121e+001
5.693812e+002, 6.962752e+001
5.698633e+002, 6.850704e+001
5.703454e+002, 6.751221e+001
5.708275e+002, 6.700761e+001
5.713096e+002, 6.698820e+001
5.717917e+002, 6.738590e+001
5.722739e+002, 6.834543e+001
5.727560e+002, 6.943693e+001
5.732381e+002, 6.981824e+001
5.737202e+002, 6.926402e+001
5.742023e+002, 6.894939e+001
5.746844e+002, 6.928823e+001
5.751666e+002, 6.963403e+001
5.756487e+002, 6.939608e+001
5.761308e+002, 6.879015e+001
5.766129e+002, 6.853786e+001
5.770950e+002, 6.904198e+001
5.775771e+002, 6.978701e+001
5.780593e+002, 6.950883e+001
5.785414e+002, 6.758579e+001
5.790235e+002, 6.634030e+001
5.795056e+002, 6.608491e+001
5.799877e+002, 6.635822e+001
5.804698e+002, 6.742912e+001
5.809520e+002, 6.885262e+001
5.814341e+002, 6.966210e+001
5.819162e+002, 6.926914e+001
5.823983e+002, 6.840500e+001
5.828804e+002, 6.809536e+001
5.833625e+002, 6.827048e+001
5.838447e+002, 6.818919e+001
5.843268e+002, 6.765374e+001
5.848089e+002, 6.687564e+001
5.852910e+002, 6.591255e+001
5.857731e+002, 6.481663e+001
5.862552e+002, 6.416349e+001
5.867374e+002, 6.402966e+001
5.872195e+002, 6.432236e+001
5.877016e+002, 6.554918e+001
5.881837e+002, 6.702731e+001
5.886658e+002, 6.734526e+001
5.891479e+002, 6.614466e+001
5.896301e+002, 6.471590e+001
5.901122e+002, 6.475181e+001
5.905943e+002, 6.648650e+001
5.910764e+002, 6.743742e+001
5.915585e+002, 6.690582e+001
5.920406e+002, 6.637636e+001
5.925228e+002, 6.613248e+001
5.930049e+002, 6.610876e+001
5.934870e+002, 6.629731e+001
5.939691e+002, 6.668273e+001
5.944512e+002, 6.697250e+001
5.949333e+002, 6.672292e+001
5.954155e+002, 6.611368e+001
5.958976e+002, 6.608588e+001
5.963797e+002, 6.689255e+001
5.968618e+002, 6.731620e+001
5.973439e+002, 6.608845e+001
5.978260e+002, 6.422358e+001
5.983082e+002, 6.433976e+001
5.987903e+002, 6.763265e+001
5.992724e+002, 6.987984e+001
5.997545e+002, 6.874606e+001
6.002366e+002, 6.650355e+001
6.007188e+002, 6.568198e+001
6.012009e+002, 6.632108e+001
6.016830e+002, 6.687547e+001
6.021651e+002, 6.625626e+001
6.026472e+002, 6.486591e+001
6.031293e+002, 6.418420e+001
6.036115e+002, 6.438147e+001
6.040936e+002, 6.501542e+001
6.045757e+002, 6.660328e+001
6.050578e+002, 6.808675e+001
6.055399e+002, 6.872912e+001
6.060220e+002, 6.867397e+001
6.065042e+002, 6.859413e+001
6.069863e+002, 6.899699e+001
6.074684e+002, 6.936836e+001
6.079505e+002, 6.860880e+001
6.084326e+002, 6.675752e+001
6.089147e+002, 6.548213e+001
6.093969e+002, 6.533982e+001
6.098790e+002, 6.567965e+001
6.103611e+002, 6.583901e+001
6.108432e+002, 6.584092e+001
6.113253e+002, 6.598125e+001
6.118074e+002, 6.663528e+001
6.122896e+002, 6.707568e+001
6.127717e+002, 6.655285e+001
6.132538e+002, 6.566045e+001
6.137359e+002, 6.556374e+001
6.142180e+002, 6.655483e+001
6.147001e+002, 6.771506e+001
6.151823e+002, 6.791411e+001
6.156644e+002, 6.709010e+001
6.161465e+002, 6.659458e+001
6.166286e+002, 6.666868e+001
6.171107e+002, 6.675257e+001
6.175928e+002, 6.663278e+001
6.180750e+002, 6.649105e+001
6.185571e+002, 6.661323e+001
6.190392e+002, 6.703048e+001
6.195213e+002, 6.726971e+001
6.200034e+002, 6.663296e+001
6.204855e+002, 6.564539e+001
6.209677e+002, 6.558611e+001
6.214498e+002, 6.653268e+001
6.219319e+002, 6.770554e+001
6.224140e+002, 6.899559e+001
6.228961e+002, 6.998842e+001
6.233782e+002, 6.953499e+001
6.238604e+002, 6.691882e+001
6.243425e+002, 6.530866e+001
6.248246e+002, 6.557896e+001
6.253067e+002, 6.650625e+001
6.257888e+002, 6.783739e+001
6.262709e+002, 6.910262e+001
6.267531e+002, 6.927699e+001
6.272352e+002, 6.782827e+001
6.277173e+002, 6.579340e+001
6.281994e+002, 6.519926e+001
6.286815e+002, 6.638917e+001
6.291636e+002, 6.710799e+001
6.296458e+002, 6.708441e+001
6.301279e+002, 6.675276e+001
6.306100e+002, 6.590485e+001
6.310921e+002, 6.503054e+001
6.315742e+002, 6.514712e+001
6.320563e+002, 6.685067e+001
6.325385e+002, 6.852525e+001
6.330206e+002, 6.892474e+001
6.335027e+002, 6.849157e+001
6.339848e+002, 6.806001e+001
6.344669e+002, 6.775466e+001
6.349490e+002, 6.740755e+001
6.354312e+002, 6.685345e+001
6.359133e+002, 6.618288e+001
6.363954e+002, 6.582187e+001
6.368775e+002, 6.577245e+001
6.373596e+002, 6.606369e+001
6.378417e+002, 6.723934e+001
6.383239e+002, 6.831371e+001
6.388060e+002, 6.836047e+001
6.392881e+002, 6.763699e+001
6.397702e+002, 6.718760e+001
6.402523e+002, 6.773434e+001
6.407344e+002, 6.864987e+001
6.412166e+002, 6.855920e+001
6.416987e+002, 6.739839e+001
6.421808e+002, 6.671530e+001
6.426629e+002, 6.694490e+001
6.431450e+002, 6.750449e+001
6.436271e+002, 6.806278e+001
6.441093e+002, 6.855850e+001
6.445914e+002, 6.869266e+001
6.450735e+002, 6.815494e+001
6.455556e+002, 6.755598e+001
6.460377e+002, 6.706245e+001
6.465198e+002, 6.672999e+001
6.470020e+002, 6.672811e+001
6.474841e+002, 6.704276e+001
6.479662e+002, 6.738003e+001
6.484483e+002, 6.749320e+001
6.489304e+002, 6.739027e+001
6.494125e+002, 6.705639e+001
6.498947e+002, 6.601608e+001
6.503768e+002, 6.566315e+001
6.508589e+002, 6.690102e+001
6.513410e+002, 6.834319e+001
6.518231e+002, 6.894463e+001
6.523052e+002, 6.879665e+001
6.527874e+002, 6.876645e+001
6.532695e+002, 6.953478e+001
6.537516e+002, 7.039838e+001
6.542337e+002, 7.041730e+001
6.547158e+002, 6.973990e+001
6.551979e+002, 6.898643e+001
6.556801e+002, 6.829464e+001
6.561622e+002, 6.780390e+001
6.566443e+002, 6.769898e+001
6.571264e+002, 6.800194e+001
6.576085e+002, 6.828123e+001
6.580906e+002, 6.839998e+001
6.585728e+002, 6.866762e+001
6.590549e+002, 6.948723e+001
6.595370e+002, 7.029626e+001
6.600191e+002, 7.030199e+001
6.605012e+002, 6.954183e+001
6.609833e+002, 6.900143e+001
6.614655e+002, 6.968398e+001
6.619476e+002, 7.108952e+001
6.624297e+002, 7.156870e+001
6.629118e+002, 7.100743e+001
6.633939e+002, 7.044563e+001
6.638760e+002, 7.033584e+001
6.643582e+002, 7.019519e+001
6.648403e+002, 6.912334e+001
6.653224e+002, 6.722764e+001
6.658045e+002, 6.626218e+001
6.662866e+002, 6.721286e+001
6.667687e+002, 6.841856e+001
6.672509e+002, 6.921219e+001
6.677330e+002, 6.955740e+001
6.682151e+002, 6.923827e+001
6.686972e+002, 6.829159e+001
6.691793e+002, 6.742908e+001
6.696614e+002, 6.743883e+001
6.701436e+002, 6.824924e+001
6.706257e+002, 6.881358e+001
6.711078e+002, 6.904382e+001
6.715899e+002, 6.921284e+001
6.720720e+002, 6.935399e+001
6.725541e+002, 6.949356e+001
6.730363e+002, 6.969601e+001
6.735184e+002, 6.994424e+001
6.740005e+002, 7.006877e+001
6.744826e+002, 6.982867e+001
6.749647e+002, 6.956808e+001
6.754468e+002, 6.969072e+001
6.759290e+002, 7.008158e+001
6.764111e+002, 7.043978e+001
6.768932e+002, 7.067590e+001
6.773753e+002, 7.067219e+001
6.778574e+002, 7.022421e+001
6.783395e+002, 6.930033e+001
6.788217e+002, 6.875776e+001
6.793038e+002, 6.884382e+001
6.797859e+002, 6.901491e+001
6.802680e+002, 6.926431e+001
6.807501e+002, 6.950341e+001
6.812322e+002, 6.950497e+001
6.817144e+002, 6.934331e+001
6.821965e+002, 6.956804e+001
6.826786e+002, 7.110432e+001
6.831607e+002, 7.284761e+001
6.836428e+002, 7.250817e+001
6.841249e+002, 7.038987e+001
6.846071e+002, 6.925191e+001
6.850892e+002, 7.010239e+001
6.855713e+002, 7.154941e+001
6.860534e+002, 7.207651e+001
6.865355e+002, 7.163430e+001
6.870176e+002, 7.097655e+001
6.874998e+002, 6.975971e+001
6.879819e+002, 6.878017e+001
6.884640e+002, 6.798690e+001
6.889461e+002, 6.768247e+001
6.894282e+002, 6.845618e+001
6.899103e+002, 7.016142e+001
6.903925e+002, 7.181019e+001
6.908746e+002, 7.280908e+001
6.913567e+002, 7.307817e+001
6.918388e+002, 7.195913e+001
6.923209e+002, 6.935788e+001
6.928030e+002, 6.790969e+001
6.932852e+002, 6.865362e+001
6.937673e+002, 7.012248e+001
6.942494e+002, 7.093629e+001
6.947315e+002, 7.111799e+001
6.952136e+002, 7.115544e+001
6.956957e+002, 7.096297e+001
6.961779e+002, 7.075572e+001
6.966600e+002, 7.050951e+001
6.971421e+002, 7.034402e+001
6.976242e+002, 7.050419e+001
6.981063e+002, 7.093255e+001
6.985884e+002, 7.124686e+001
6.990706e+002, 7.117368e+001
6.995527e+002, 7.074928e+001
7.000348e+002, 6.988175e+001
7.005169e+002, 6.839189e+001
7.009990e+002, 6.769161e+001
7.014811e+002, 6.845103e+001
7.019633e+002, 6.951167e+001
7.024454e+002, 6.978179e+001
7.029275e+002, 6.952689e+001
7.034096e+002, 6.966088e+001
7.038917e+002, 7.069831e+001
7.043738e+002, 7.159760e+001
7.048560e+002, 7.195560e+001
7.053381e+002, 7.192784e+001
7.058202e+002, 7.146658e+001
7.063023e+002, 7.074240e+001
7.067844e+002, 7.040957e+001
7.072665e+002, 7.096279e+001
7.077487e+002, 7.204533e+001
7.082308e+002, 7.268328e+001
7.087129e+002, 7.281001e+001
7.091950e+002, 7.278430e+001
7.096771e+002, 7.250093e+001
7.101592e+002, 7.226690e+001
7.106414e+002, 7.244353e+001
7.111235e+002, 7.278593e+001
7.116056e+002, 7.269078e+001
7.120877e+002, 7.173375e+001
7.125698e+002, 7.110466e+001
7.130519e+002, 7.180457e+001
7.135341e+002, 7.289138e+001
7.140162e+002, 7.309216e+001
7.144983e+002, 7.251385e+001
7.149804e+002, 7.226151e+001
7.154625e+002, 7.300777e+001
7.159446e+002, 7.412890e+001
7.164268e+002, 7.415798e+001
7.169089e+002, 7.269431e+001
7.173910e+002, 7.197791e+001
7.178731e+002, 7.265093e+001
7.183552e+002, 7.327702e+001
7.188373e+002, 7.282778e+001
7.193195e+002, 7.206181e+001
7.198016e+002, 7.222105e+001
7.202837e+002, 7.367950e+001
7.207658e+002, 7.488667e+001
7.212479e+002, 7.488292e+001
7.217300e+002, 7.441218e+001
7.222122e+002, 7.416305e+001
7.226943e+002, 7.417598e+001
7.231764e+002, 7.444775e+001
7.236585e+002, 7.498377e+001
7.241406e+002, 7.546035e+001
7.246227e+002, 7.528519e+001
7.251049e+002, 7.432876e+001
7.255870e+002, 7.396264e+001
7.260691e+002, 7.446468e+001
7.265512e+002, 7.511634e+001
7.270333e+002, 7.597911e+001
7.275154e+002, 7.668230e+001
7.279976e+002, 7.673982e+001
7.284797e+002, 7.612837e+001
7.289618e+002, 7.550318e+001
7.294439e+002, 7.479707e+001
7.299260e+002, 7.448915e+001
7.304081e+002, 7.533032e+001
7.308903e+002, 7.687937e+001
7.313724e+002, 7.813450e+001
7.318545e+002, 7.879514e+001
7.323366e+002, 7.904454e+001
7.328187e+002, 7.902129e+001
7.333008e+002, 7.876038e+001
7.337830e+002, 7.866468e+001
7.342651e+002, 7.868023e+001
7.347472e+002, 7.898373e+001
7.352293e+002, 8.020150e+001
7.357114e+002, 8.123349e+001
7.361935e+002, 8.102531e+001
7.366757e+002, 7.986282e+001
7.371578e+002, 7.911270e+001
7.376399e+002, 7.929147e+001
7.381220e+002, 7.986967e+001
7.386041e+002, 8.074157e+001
7.390862e+002, 8.168322e+001
7.395684e+002, 8.232055e+001
7.400505e+002, 8.261271e+001
7.405326e+002, 8.271626e+001
7.410147e+002, 8.270943e+001
7.414968e+002, 8.269456e+001
7.419789e+002, 8.307713e+001
7.424611e+002, 8.410447e+001
7.429432e+002, 8.459683e+001
7.434253e+002, 8.415437e+001
7.439074e+002, 8.351291e+001
7.443895e+002, 8.302044e+001
7.448716e+002, 8.264594e+001
7.453538e+002, 8.227882e+001
7.458359e+002, 8.177616e+001
7.463180e+002, 8.169779e+001
7.468001e+002, 8.277349e+001
7.472822e+002, 8.404897e+001
7.477643e+002, 8.455386e+001
7.482465e+002, 8.435238e+001
7.487286e+002, 8.390700e+001
7.492107e+002, 8.342789e+001
7.496928e+002, 8.289683e+001
7.501749e+002, 8.219815e+001
7.506570e+002, 8.130175e+001
7.511392e+002, 8.092957e+001
7.516213e+002, 8.134053e+001
7.521034e+002, 8.167213e+001
7.525855e+002, 8.143301e+001
7.530676e+002, 8.104715e+001
7.535497e+002, 8.112463e+001
7.540319e+002, 8.169142e+001
7.545140e+002, 8.195390e+001
7.549961e+002, 8.161086e+001
7.554782e+002, 8.102708e+001
7.559603e+002, 8.023384e+001
7.564424e+002, 7.942043e+001
7.569246e+002, 7.879203e+001
7.574067e+002, 7.842417e+001
7.578888e+002, 7.842197e+001
7.583709e+002, 7.896782e+001
7.588530e+002, 7.984319e+001
7.593351e+002, 8.029192e+001
7.598173e+002, 8.027352e+001
7.602994e+002, 8.017986e+001
7.607815e+002, 8.012773e+001
7.612636e+002, 7.995102e+001
7.617457e+002, 7.940079e+001
7.622278e+002, 7.858692e+001
7.627100e+002, 7.804311e+001
7.631921e+002, 7.794756e+001
7.636742e+002, 7.786629e+001
7.641563e+002, 7.767003e+001
7.646384e+002, 7.747658e+001
7.651205e+002, 7.721921e+001
7.656027e+002, 7.705998e+001
7.660848e+002, 7.750611e+001
7.665669e+002, 7.883544e+001
7.670490e+002, 8.017661e+001
7.675311e+002, 8.030685e+001
7.680132e+002, 7.940681e+001
7.684954e+002, 7.828139e+001
7.689775e+002, 7.687566e+001
7.694596e+002, 7.621675e+001
7.699417e+002, 7.704184e+001
7.704238e+002, 7.853452e+001
7.709059e+002, 7.926918e+001
7.713881e+002, 7.902161e+001
7.718702e+002, 7.886895e+001
7.723523e+002, 7.859052e+001
7.728344e+002, 7.866160e+001
7.733165e+002, 8.008324e+001
7.737986e+002, 8.144598e+001
7.742808e+002, 8.066524e+001
7.747629e+002, 7.781956e+001
7.752450e+002, 7.555290e+001
7.757271e+002, 7.601989e+001
7.762092e+002, 7.769518e+001
7.766913e+002, 7.839933e+001
7.771735e+002, 7.833111e+001
7.776556e+002, 7.828649e+001
7.781377e+002, 7.844774e+001
7.786198e+002, 7.863649e+001
7.791019e+002, 7.869045e+001
7.795840e+002, 7.864994e+001
7.800662e+002, 7.873118e+001
7.805483e+002, 7.906416e+001
7.810304e+002, 7.927068e+001
7.815125e+002, 7.920579e+001
7.819946e+002, 7.913483e+001
7.824767e+002, 7.904207e+001
7.829589e+002, 7.907243e+001
7.834410e+002, 7.965827e+001
7.839231e+002, 8.112355e+001
7.844052e+002, 8.201970e+001
7.848873e+002, 8.093367e+001
7.853694e+002, 7.916579e+001
7.858516e+002, 7.820155e+001
7.863337e+002, 7.801938e+001
7.868158e+002, 7.810957e+001
7.872979e+002, 7.826961e+001
7.877800e+002, 7.874834e+001
7.882621e+002, 8.007090e+001
7.887443e+002, 8.217286e+001
7.892264e+002, 8.312676e+001
7.897085e+002, 8.254578e+001
7.901906e+002, 8.186143e+001
7.906727e+002, 8.115287e+001
7.911548e+002, 8.083018e+001
7.916370e+002, 8.165730e+001
7.921191e+002, 8.339883e+001
7.926012e+002, 8.433532e+001
7.930833e+002, 8.384599e+001
7.935654e+002, 8.297731e+001
7.940475e+002, 8.178985e+001
7.945297e+002, 8.064446e+001
7.950118e+002, 7.981022e+001
7.954939e+002, 7.936482e+001
7.959760e+002, 7.944639e+001
7.964581e+002, 8.018421e+001
7.969402e+002, 8.112425e+001
7.974224e+002, 8.162518e+001
7.979045e+002, 8.172063e+001
7.983866e+002, 8.160200e+001
7.988687e+002, 8.127478e+001
7.993508e+002, 8.073935e+001
7.998329e+002, 7.977462e+001
8.003151e+002, 7.896491e+001
8.007972e+002, 7.960184e+001
8.012793e+002, 8.246526e+001
8.017614e+002, 8.367728e+001
8.022435e+002, 8.177851e+001
8.027256e+002, 8.018642e+001
8.032078e+002, 7.991155e+001
8.036899e+002, 8.041573e+001
8.041720e+002, 8.145726e+001
8.046541e+002, 8.278754e+001
8.051362e+002, 8.349910e+001
8.056183e+002, 8.272054e+001
8.061005e+002, 8.155717e+001
8.065826e+002, 8.113083e+001
8.070647e+002, 8.120592e+001
8.075468e+002, 8.124123e+001
8.080289e+002, 8.115567e+001
8.085110e+002, 8.118077e+001
8.089932e+002, 8.147314e+001
8.094753e+002, 8.201356e+001
8.099574e+002, 8.288243e+001
8.104395e+002, 8.432201e+001
8.109216e+002, 8.497886e+001
8.114037e+002, 8.448554e+001
8.118859e+002, 8.369969e+001
8.123680e+002, 8.270318e+001
8.128501e+002, 8.183174e+001
8.133322e+002, 8.176682e+001
8.138143e+002, 8.272614e+001
8.142964e+002, 8.308347e+001
8.147786e+002, 8.142636e+001
8.152607e+002, 8.017441e+001
8.157428e+002, 8.124676e+001
8.162249e+002, 8.336755e+001
8.167070e+002, 8.482832e+001
8.171891e+002, 8.524246e+001
8.176713e+002, 8.495065e+001
8.181534e+002, 8.397739e+001
8.186355e+002, 8.281083e+001
8.191176e+002, 8.247013e+001
8.195997e+002, 8.285906e+001
8.200818e+002, 8.317582e+001
8.205640e+002, 8.324893e+001
8.210461e+002, 8.358853e+001
8.215282e+002, 8.471652e+001
8.220103e+002, 8.619273e+001
8.224924e+002, 8.663886e+001
8.229745e+002, 8.548299e+001
8.234567e+002, 8.457374e+001
8.239388e+002, 8.392402e+001
8.244209e+002, 8.349987e+001
8.249030e+002, 8.339153e+001
8.253851e+002, 8.344856e+001
8.258672e+002, 8.349364e+001
8.263494e+002, 8.350057e+001
8.268315e+002, 8.352697e+001
8.273136e+002, 8.355716e+001
8.277957e+002, 8.365939e+001
8.282778e+002, 8.399196e+001
8.287599e+002, 8.440506e+001
8.292421e+002, 8.457623e+001
8.297242e+002, 8.448174e+001
8.302063e+002, 8.441231e+001
8.306884e+002, 8.459196e+001
8.311705e+002, 8.494070e+001
8.316526e+002, 8.529865e+001
8.321348e+002, 8.566819e+001
8.326169e+002, 8.587367e+001
8.330990e+002, 8.582666e+001
8.335811e+002, 8.584209e+001
8.340632e+002, 8.617430e+001
8.345453e+002, 8.663747e+001
8.350275e+002, 8.678574e+001
8.355096e+002, 8.639263e+001
8.359917e+002, 8.636827e+001
8.364738e+002, 8.735779e+001
8.369559e+002, 8.796101e+001
8.374380e+002, 8.721398e+001
8.379202e+002, 8.608868e+001
8.384023e+002, 8.573964e+001
8.388844e+002, 8.623508e+001
8.393665e+002, 8.673963e+001
8.398486e+002, 8.667220e+001
8.403307e+002, 8.658762e+001
8.408129e+002, 8.718159e+001
8.412950e+002, 8.813046e+001
8.417771e+002, 8.881992e+001
8.422592e+002, 8.915665e+001
8.427413e+002, 8.926386e+001
8.432234e+002, 8.920506e+001
8.437056e+002, 8.903782e+001
8.441877e+002, 8.881373e+001
8.446698e+002, 8.850214e+001
8.451519e+002, 8.853700e+001
8.456340e+002, 8.899319e+001
8.461161e+002, 8.963496e+001
8.465983e+002, 9.049911e+001
8.470804e+002, 9.137446e+001
8.475625e+002, 9.198231e+001
8.480446e+002, 9.232058e+001
8.485267e+002, 9.246139e+001
8.490089e+002, 9.233211e+001
8.494910e+002, 9.210221e+001
8.499731e+002, 9.161401e+001
8.504552e+002, 9.120272e+001
8.509373e+002, 9.122755e+001
8.514194e+002, 9.160609e+001
8.519016e+002, 9.204016e+001
8.523837e+002, 9.248763e+001
8.528658e+002, 9.263969e+001
8.533479e+002, 9.187694e+001
8.538300e+002, 9.078387e+001
8.543121e+002, 9.047126e+001
8.547943e+002, 9.087527e+001
8.552764e+002, 9.129646e+001
8.557585e+002, 9.143360e+001
8.562406e+002, 9.144276e+001
8.567227e+002, 9.159232e+001
8.572048e+002, 9.183256e+001
8.576870e+002, 9.133395e+001
8.581691e+002, 8.974380e+001
8.586512e+002, 8.887856e+001
8.591333e+002, 8.950352e+001
8.596154e+002, 9.048576e+001
8.600975e+002, 9.094698e+001
8.605797e+002, 9.092052e+001
8.610618e+002, 9.064330e+001
8.615439e+002, 8.984138e+001
8.620260e+002, 8.925388e+001
8.625081e+002, 8.937054e+001
8.629902e+002, 8.930442e+001
8.634724e+002, 8.837831e+001
8.639545e+002, 8.696862e+001
8.644366e+002, 8.550404e+001
8.649187e+002, 8.411750e+001
8.654008e+002, 8.350910e+001
8.658829e+002, 8.504361e+001
8.663651e+002, 8.686709e+001
8.668472e+002, 8.655756e+001
8.673293e+002, 8.487775e+001
8.678114e+002, 8.368605e+001
8.682935e+002, 8.338011e+001
8.687756e+002, 8.335075e+001
8.692578e+002, 8.312864e+001
8.697399e+002, 8.288170e+001
8.702220e+002, 8.317432e+001
8.707041e+002, 8.405623e+001
8.711862e+002, 8.430486e+001
8.716683e+002, 8.365791e+001
8.721505e+002, 8.296673e+001
8.726326e+002, 8.269402e+001
8.731147e+002, 8.259518e+001
8.735968e+002, 8.224924e+001
8.740789e+002, 8.160136e+001
8.745610e+002, 8.100179e+001
8.750432e+002, 8.032220e+001
8.755253e+002, 7.986135e+001
8.760074e+002, 7.980962e+001
8.764895e+002, 7.990593e+001
8.769716e+002, 7.992051e+001
8.774537e+002, 7.987899e+001
8.779359e+002, 7.997264e+001
8.784180e+002, 8.037269e+001
8.789001e+002, 8.065446e+001
8.793822e+002, 8.055180e+001
8.798643e+002, 8.019860e+001
8.803464e+002, 7.965486e+001
8.808286e+002, 7.900435e+001
8.813107e+002, 7.837981e+001
8.817928e+002, 7.783989e+001
8.822749e+002, 7.744035e+001
8.827570e+002, 7.721987e+001
8.832391e+002, 7.720097e+001
8.837213e+002, 7.756735e+001
8.842034e+002, 7.828572e+001
8.846855e+002, 7.878763e+001
8.851676e+002, 7.893907e+001
8.856497e+002, 7.885477e+001
8.861318e+002, 7.858721e+001
8.866140e+002, 7.819657e+001
8.870961e+002, 7.790000e+001
8.875782e+002, 7.779098e+001
8.880603e+002, 7.750868e+001
8.885424e+002, 7.660944e+001
8.890245e+002, 7.614953e+001
8.895067e+002, 7.702933e+001
8.899888e+002, 7.827852e+001
8.904709e+002, 7.871528e+001
8.909530e+002, 7.830125e+001
8.914351e+002, 7.801330e+001
8.919172e+002, 7.840513e+001
8.923994e+002, 7.851878e+001
8.928815e+002, 7.755264e+001
8.933636e+002, 7.643810e+001
8.938457e+002, 7.611072e+001
8.943278e+002, 7.647823e+001
8.948099e+002, 7.703981e+001
8.952921e+002, 7.763098e+001
8.957742e+002, 7.795589e+001
8.962563e+002, 7.753445e+001
8.967384e+002, 7.676424e+001
8.972205e+002, 7.630086e+001
8.977026e+002, 7.612926e+001
8.981848e+002, 7.609390e+001
8.986669e+002, 7.613658e+001
8.991490e+002, 7.612531e+001
8.996311e+002, 7.586094e+001
9.001132e+002, 7.553281e+001
9.005953e+002, 7.606319e+001
9.010775e+002, 7.759059e+001
9.015596e+002, 7.827494e+001
9.020417e+002, 7.760756e+001
9.025238e+002, 7.694649e+001
9.030059e+002, 7.722533e+001
9.034880e+002, 7.789324e+001
9.039702e+002, 7.780008e+001
9.044523e+002, 7.675516e+001
9.049344e+002, 7.570919e+001
9.054165e+002, 7.414135e+001
9.058986e+002, 7.324820e+001
9.063807e+002, 7.349866e+001
9.068629e+002, 7.436109e+001
9.073450e+002, 7.570982e+001
9.078271e+002, 7.729687e+001
9.083092e+002, 7.828313e+001
9.087913e+002, 7.822912e+001
9.092734e+002, 7.803539e+001
9.097556e+002, 7.789453e+001
9.102377e+002, 7.797106e+001
9.107198e+002, 7.844476e+001
9.112019e+002, 7.924020e+001
9.116840e+002, 8.032713e+001
9.121661e+002, 8.163631e+001
9.126483e+002, 8.269655e+001
9.131304e+002, 8.295032e+001
9.136125e+002, 8.286406e+001
9.140946e+002, 8.328183e+001
9.145767e+002, 8.400054e+001
9.150588e+002, 8.435930e+001
9.155410e+002, 8.425840e+001
9.160231e+002, 8.390203e+001
9.165052e+002, 8.338039e+001
9.169873e+002, 8.289742e+001
9.174694e+002, 8.296240e+001
9.179515e+002, 8.361156e+001
9.184337e+002, 8.367867e+001
9.189158e+002, 8.296079e+001
9.193979e+002, 8.264138e+001
9.198800e+002, 8.336321e+001
9.203621e+002, 8.415502e+001
9.208442e+002, 8.397381e+001
9.213264e+002, 8.289946e+001
9.218085e+002, 8.178084e+001
9.222906e+002, 8.037556e+001
9.227727e+002, 7.932016e+001
9.232548e+002, 7.887650e+001
9.237369e+002, 7.851629e+001
9.242191e+002, 7.793813e+001
9.247012e+002, 7.731454e+001
9.251833e+002, 7.702794e+001
9.256654e+002, 7.714815e+001
9.261475e+002, 7.687801e+001
9.266296e+002, 7.571114e+001
9.271118e+002, 7.441544e+001
9.275939e+002, 7.312437e+001
9.280760e+002, 7.208138e+001
9.285581e+002, 7.172652e+001
9.290402e+002, 7.186287e+001
9.295223e+002, 7.176817e+001
9.300045e+002, 7.108513e+001
9.304866e+002, 7.036472e+001
9.309687e+002, 7.021988e+001
9.314508e+002, 7.028677e+001
9.319329e+002, 7.008299e+001
9.324150e+002, 6.957983e+001
9.328972e+002, 6.859145e+001
9.333793e+002, 6.715935e+001
9.338614e+002, 6.608227e+001
9.343435e+002, 6.611427e+001
9.348256e+002, 6.686097e+001
9.353077e+002, 6.744208e+001
9.357899e+002, 6.785554e+001
9.362720e+002, 6.808469e+001
9.367541e+002, 6.812875e+001
9.372362e+002, 6.792871e+001
9.377183e+002, 6.741217e+001
9.382004e+002, 6.677503e+001
9.386826e+002, 6.633305e+001
9.391647e+002, 6.609441e+001
9.396468e+002, 6.557601e+001
9.401289e+002, 6.447859e+001
9.406110e+002, 6.385630e+001
9.410931e+002, 6.425101e+001
9.415753e+002, 6.472366e+001
9.420574e+002, 6.450298e+001
9.425395e+002, 6.388417e+001
9.430216e+002, 6.371328e+001
9.435037e+002, 6.423568e+001
9.439858e+002, 6.445839e+001
9.444680e+002, 6.404814e+001
9.449501e+002, 6.363712e+001
9.454322e+002, 6.343403e+001
9.459143e+002, 6.336386e+001
9.463964e+002, 6.340760e+001
9.468785e+002, 6.351175e+001
9.473607e+002, 6.349186e+001
9.478428e+002, 6.323461e+001
9.483249e+002, 6.295561e+001
9.488070e+002, 6.265412e+001
9.492891e+002, 6.248387e+001
9.497712e+002, 6.278933e+001
9.502534e+002, 6.328006e+001
9.507355e+002, 6.323361e+001
9.512176e+002, 6.255334e+001
9.516997e+002, 6.213566e+001
9.521818e+002, 6.295480e+001
9.526639e+002, 6.401537e+001
9.531461e+002, 6.368260e+001
9.536282e+002, 6.260400e+001
9.541103e+002, 6.248689e+001
9.545924e+002, 6.332720e+001
9.550745e+002, 6.369263e+001
9.555566e+002, 6.286287e+001
9.560388e+002, 6.182314e+001
9.565209e+002, 6.214936e+001
9.570030e+002, 6.341801e+001
9.574851e+002, 6.326023e+001
9.579672e+002, 6.168563e+001
9.584493e+002, 6.041060e+001
9.589315e+002, 5.978646e+001
9.594136e+002, 5.983721e+001
9.598957e+002, 6.072871e+001
9.603778e+002, 6.200834e+001
9.608599e+002, 6.245267e+001
9.613420e+002, 6.184844e+001
9.618242e+002, 6.144133e+001
9.623063e+002, 6.108468e+001
9.627884e+002, 6.137770e+001
9.632705e+002, 6.317929e+001
9.637526e+002, 6.482098e+001
9.642347e+002, 6.430260e+001
9.647169e+002, 6.200818e+001
9.651990e+002, 6.075898e+001
9.656811e+002, 6.159703e+001
9.661632e+002, 6.189248e+001
9.666453e+002, 6.094698e+001
9.671274e+002, 6.025647e+001
9.676096e+002, 6.069786e+001
9.680917e+002, 6.159978e+001
9.685738e+002, 6.214581e+001
9.690559e+002, 6.227971e+001
9.695380e+002, 6.229633e+001
9.700201e+002, 6.230103e+001
9.705023e+002, 6.215620e+001
9.709844e+002, 6.161516e+001
9.714665e+002, 6.108478e+001
9.719486e+002, 6.083990e+001
9.724307e+002, 6.087739e+001
9.729128e+002, 6.125455e+001
9.733950e+002, 6.196784e+001
9.738771e+002, 6.237926e+001
9.743592e+002, 6.170152e+001
9.748413e+002, 6.097555e+001
9.753234e+002, 6.142708e+001
9.758055e+002, 6.224738e+001
9.762877e+002, 6.216011e+001
9.767698e+002, 6.121166e+001
9.772519e+002, 6.013763e+001
9.777340e+002, 5.926604e+001
9.782161e+002, 5.877632e+001
9.786982e+002, 5.901360e+001
9.791804e+002, 5.968750e+001
9.796625e+002, 6.048664e+001
9.801446e+002, 6.122722e+001
9.806267e+002, 6.111975e+001
9.811088e+002, 6.012402e+001
9.815909e+002, 5.943103e+001
9.820731e+002, 5.990397e+001
9.825552e+002, 6.087065e+001
9.830373e+002, 6.103778e+001
9.835194e+002, 6.054753e+001
9.840015e+002, 6.050005e+001
9.844836e+002, 6.092632e+001
9.849658e+002, 6.126767e+001
9.854479e+002, 6.136757e+001
9.859300e+002, 6.113258e+001
9.864121e+002, 6.041094e+001
9.868942e+002, 5.938789e+001
9.873763e+002, 5.873745e+001
9.878585e+002, 5.849272e+001
9.883406e+002, 5.843250e+001
9.888227e+002, 5.860532e+001
9.893048e+002, 5.876249e+001
9.897869e+002, 5.881885e+001
9.902690e+002, 5.877378e+001
9.907512e+002, 5.856208e+001
9.912333e+002, 5.822161e+001
9.917154e+002, 5.827456e+001
9.921975e+002, 5.914114e+001
9.926796e+002, 5.948859e+001
9.931617e+002, 5.878173e+001
9.936439e+002, 5.816581e+001
9.941260e+002, 5.834809e+001
9.946081e+002, 5.883293e+001
9.950902e+002, 5.889446e+001
9.955723e+002, 5.851760e+001
9.960544e+002, 5.819726e+001
9.965366e+002, 5.792633e+001
9.970187e+002, 5.774842e+001
9.975008e+002, 5.778014e+001
9.979829e+002, 5.779543e+001
9.984650e+002, 5.762028e+001
9.989471e+002, 5.734889e+001
9.994293e+002, 5.704561e+001
9.999114e+002, 5.669507e+001
1.000393e+003, 5.685569e+001
1.000876e+003, 5.868397e+001
1.001358e+003, 5.977529e+001
1.001840e+003, 5.809980e+001
1.002322e+003, 5.611934e+001
1.002804e+003, 5.649745e+001
1.003286e+003, 5.828431e+001
1.003768e+003, 5.877301e+001
1.004250e+003, 5.715046e+001
1.004733e+003, 5.562788e+001
1.005215e+003, 5.542981e+001
1.005697e+003, 5.572677e+001
1.006179e+003, 5.612435e+001
1.006661e+003, 5.650665e+001
1.007143e+003, 5.663915e+001
1.007625e+003, 5.663678e+001
1.008107e+003, 5.700787e+001
1.008589e+003, 5.800887e+001
1.009072e+003, 5.878213e+001
1.009554e+003, 5.821252e+001
1.010036e+003, 5.734527e+001
1.010518e+003, 5.768975e+001
1.011000e+003, 5.860882e+001
1.011482e+003, 5.873133e+001
1.011964e+003, 5.795471e+001
1.012446e+003, 5.700362e+001
1.012929e+003, 5.622376e+001
1.013411e+003, 5.584465e+001
1.013893e+003, 5.646899e+001
1.014375e+003, 5.752646e+001
1.014857e+003, 5.767539e+001
1.015339e+003, 5.721181e+001
1.015821e+003, 5.747072e+001
1.016303e+003, 5.861895e+001
1.016785e+003, 5.933358e+001
1.017268e+003, 5.865600e+001
1.017750e+003, 5.742786e+001
1.018232e+003, 5.712141e+001
1.018714e+003, 5.745165e+001
1.019196e+003, 5.710410e+001
1.019678e+003, 5.614605e+001
1.020160e+003, 5.550742e+001
1.020642e+003, 5.544464e+001
1.021125e+003, 5.580129e+001
1.021607e+003, 5.650981e+001
1.022089e+003, 5.734327e+001
1.022571e+003, 5.784704e+001
1.023053e+003, 5.801888e+001
1.023535e+003, 5.755752e+001
1.024017e+003, 5.640635e+001
1.024499e+003, 5.583932e+001
1.024981e+003, 5.629417e+001
1.025464e+003, 5.721560e+001
1.025946e+003, 5.822351e+001
1.026428e+003, 5.908561e+001
1.026910e+003, 5.887908e+001
1.027392e+003, 5.741828e+001
1.027874e+003, 5.672980e+001
1.028356e+003, 5.701223e+001
1.028838e+003, 5.748151e+001
1.029321e+003, 5.798143e+001
1.029803e+003, 5.822382e+001
1.030285e+003, 5.784344e+001
1.030767e+003, 5.702343e+001
1.031249e+003, 5.662485e+001
1.031731e+003, 5.682087e+001
1.032213e+003, 5.674800e+001
1.032695e+003, 5.626783e+001
1.033177e+003, 5.579741e+001
1.033660e+003, 5.542694e+001
1.034142e+003, 5.522754e+001
1.034624e+003, 5.527453e+001
1.035106e+003, 5.555823e+001
1.035588e+003, 5.605799e+001
1.036070e+003, 5.711953e+001
1.036552e+003, 5.754602e+001
1.037034e+003, 5.703077e+001
1.037516e+003, 5.634721e+001
1.037999e+003, 5.547732e+001
1.038481e+003, 5.489121e+001
1.038963e+003, 5.518398e+001
1.039445e+003, 5.625295e+001
1.039927e+003, 5.732333e+001
1.040409e+003, 5.905891e+001
1.040891e+003, 5.960607e+001
1.041373e+003, 5.752967e+001
1.041855e+003, 5.609085e+001
1.042338e+003, 5.736530e+001
1.042820e+003, 5.920906e+001
1.043302e+003, 5.913544e+001
1.043784e+003, 5.747026e+001
1.044266e+003, 5.679295e+001
1.044748e+003, 5.807553e+001
1.045230e+003, 5.883520e+001
1.045712e+003, 5.838434e+001
1.046195e+003, 5.806482e+001
1.046677e+003, 5.838634e+001
1.047159e+003, 5.911987e+001
1.047641e+003, 6.040327e+001
1.048123e+003, 6.199212e+001
1.048605e+003, 6.239878e+001
1.049087e+003, 6.060268e+001
1.049569e+003, 5.919342e+001
1.050052e+003, 5.857336e+001
1.050534e+003, 5.837445e+001
1.051016e+003, 5.894300e+001
1.051498e+003, 5.948727e+001
1.051980e+003, 5.880873e+001
1.052462e+003, 5.717629e+001
1.052944e+003, 5.648548e+001
1.053426e+003, 5.770105e+001
1.053908e+003, 5.858193e+001
1.054391e+003, 5.861243e+001
1.054873e+003, 5.820624e+001
1.055355e+003, 5.695024e+001
1.055837e+003, 5.580262e+001
1.056319e+003, 5.621465e+001
1.056801e+003, 5.784523e+001
1.057283e+003, 5.850404e+001
1.057765e+003, 5.703710e+001
1.058248e+003, 5.610310e+001
1.058730e+003, 5.739949e+001
1.059212e+003, 5.837976e+001
1.059694e+003, 5.697883e+001
1.060176e+003, 5.494172e+001
1.060658e+003, 5.444040e+001
1.061140e+003, 5.531181e+001
1.061622e+003, 5.588029e+001
1.062104e+003, 5.555715e+001
1.062587e+003, 5.530272e+001
1.063069e+003, 5.574624e+001
1.063551e+003, 5.603183e+001
1.064033e+003, 5.563992e+001
1.064515e+003, 5.483094e+001
1.064997e+003, 5.357893e+001
1.065479e+003, 5.220690e+001
1.065961e+003, 5.176284e+001
1.066443e+003, 5.287289e+001
1.066926e+003, 5.375075e+001
1.067408e+003, 5.340898e+001
1.067890e+003, 5.292116e+001
1.068372e+003, 5.279329e+001
1.068854e+003, 5.296564e+001
1.069336e+003, 5.350061e+001
1.069818e+003, 5.422956e+001
1.070300e+003, 5.466925e+001
1.070782e+003, 5.461673e+001
1.071265e+003, 5.460062e+001
1.071747e+003, 5.515676e+001
1.072229e+003, 5.546941e+001
1.072711e+003, 5.472869e+001
1.073193e+003, 5.372736e+001
1.073675e+003, 5.346733e+001
1.074157e+003, 5.372316e+001
1.074639e+003, 5.352820e+001
1.075122e+003, 5.252772e+001
1.075604e+003, 5.175174e+001
1.076086e+003, 5.153099e+001
1.076568e+003, 5.183584e+001
1.077050e+003, 5.330035e+001
1.077532e+003, 5.476290e+001
1.078014e+003, 5.484625e+001
1.078496e+003, 5.393652e+001
1.078979e+003, 5.324770e+001
1.079461e+003, 5.309984e+001
1.079943e+003, 5.299884e+001
1.080425e+003, 5.267179e+001
1.080907e+003, 5.239404e+001
1.081389e+003, 5.218426e+001
1.081871e+003, 5.220992e+001
1.082353e+003, 5.292046e+001
1.082835e+003, 5.390284e+001
1.083318e+003, 5.419987e+001
1.083800e+003, 5.360724e+001
1.084282e+003, 5.315079e+001
1.084764e+003, 5.358544e+001
1.085246e+003, 5.386116e+001
1.085728e+003, 5.302900e+001
1.086210e+003, 5.220508e+001
1.086692e+003, 5.265543e+001
1.087175e+003, 5.371128e+001
1.087657e+003, 5.399608e+001
1.088139e+003, 5.331213e+001
1.088621e+003, 5.275020e+001
1.089103e+003, 5.313312e+001
1.089585e+003, 5.317553e+001
1.090067e+003, 5.162346e+001
1.090549e+003, 5.021411e+001
1.091031e+003, 5.053231e+001
1.091514e+003, 5.175694e+001
1.091996e+003, 5.255816e+001
1.092478e+003, 5.279773e+001
1.092960e+003, 5.317352e+001
1.093442e+003, 5.420365e+001
1.093924e+003, 5.486775e+001
1.094406e+003, 5.449000e+001
1.094888e+003, 5.394936e+001
1.095370e+003, 5.395054e+001
1.095853e+003, 5.404671e+001
1.096335e+003, 5.339356e+001
1.096817e+003, 5.217793e+001
1.097299e+003, 5.173631e+001
1.097781e+003, 5.287026e+001
1.098263e+003, 5.363668e+001
1.098745e+003, 5.337402e+001
1.099227e+003, 5.264764e+001
1.099709e+003, 5.091895e+001
1.100192e+003, 4.951539e+001
1.100674e+003, 5.044679e+001
1.101156e+003, 5.291950e+001
1.101638e+003, 5.390197e+001
1.102120e+003, 5.235757e+001
1.102602e+003, 5.109984e+001
1.103084e+003, 5.074651e+001
1.103566e+003, 5.088349e+001
1.104049e+003, 5.193427e+001
1.104531e+003, 5.288049e+001
1.105013e+003, 5.265849e+001
1.105495e+003, 5.170664e+001
1.105977e+003, 5.111284e+001
1.106459e+003, 5.101212e+001
1.106941e+003, 5.122347e+001
1.107423e+003, 5.214056e+001
1.107906e+003, 5.277703e+001
1.108388e+003, 5.263145e+001
1.108870e+003, 5.236947e+001
1.109352e+003, 5.238334e+001
1.109834e+003, 5.259813e+001
1.110316e+003, 5.299845e+001
1.110798e+003, 5.361797e+001
1.111280e+003, 5.360299e+001
1.111762e+003, 5.230412e+001
1.112245e+003, 5.125010e+001
1.112727e+003, 5.060472e+001
1.113209e+003, 5.026442e+001
1.113691e+003, 5.039332e+001
1.114173e+003, 5.066670e+001
1.114655e+003, 5.055943e+001
1.115137e+003, 5.012969e+001
1.115619e+003, 5.020874e+001
1.116102e+003, 5.136729e+001
1.116584e+003, 5.200841e+001
1.117066e+003, 5.159002e+001
1.117548e+003, 5.144816e+001
1.118030e+003, 5.252202e+001
1.118512e+003, 5.353004e+001
1.118994e+003, 5.301648e+001
1.119476e+003, 5.145315e+001
1.119958e+003, 5.078041e+001
1.120441e+003, 5.135868e+001
1.120923e+003, 5.166524e+001
1.121405e+003, 5.152011e+001
1.121887e+003, 5.152106e+001
1.122369e+003, 5.197314e+001
1.122851e+003, 5.231541e+001
1.123333e+003, 5.206152e+001
1.123815e+003, 5.147702e+001
1.124297e+003, 5.108463e+001
1.124780e+003, 5.084746e+001
1.125262e+003, 5.140043e+001
1.125744e+003, 5.313836e+001
1.126226e+003, 5.402559e+001
1.126708e+003, 5.329048e+001
1.127190e+003, 5.323326e+001
1.127672e+003, 5.546431e+001
1.128154e+003, 5.820124e+001
1.128636e+003, 5.885779e+001
1.129119e+003, 5.760490e+001
1.129601e+003, 5.548133e+001
1.130083e+003, 5.221540e+001
1.130565e+003, 5.124014e+001
1.131047e+003, 5.313960e+001
1.131529e+003, 5.517215e+001
1.132011e+003, 5.629066e+001
1.132493e+003, 5.677440e+001
1.132976e+003, 5.689077e+001
1.133458e+003, 5.660788e+001
1.133940e+003, 5.566742e+001
1.134422e+003, 5.414887e+001
1.134904e+003, 5.298394e+001
1.135386e+003, 5.223187e+001
1.135868e+003, 5.227976e+001
1.136350e+003, 5.321343e+001
1.136833e+003, 5.413797e+001
1.137315e+003, 5.442218e+001
1.137797e+003, 5.434221e+001
1.138279e+003, 5.429930e+001
1.138761e+003, 5.429198e+001
1.139243e+003, 5.442340e+001
1.139725e+003, 5.459245e+001
1.140207e+003, 5.423611e+001
1.140689e+003, 5.337386e+001
1.141172e+003, 5.275623e+001
1.141654e+003, 5.273625e+001
1.142136e+003, 5.294069e+001
1.142618e+003, 5.313215e+001
1.143100e+003, 5.311659e+001
1.143582e+003, 5.221812e+001
1.144064e+003, 5.101286e+001
1.144546e+003, 5.086217e+001
1.145029e+003, 5.153907e+001
1.145511e+003, 5.188433e+001
1.145993e+003, 5.161076e+001
1.146475e+003, 5.146179e+001
1.146957e+003, 5.201350e+001
1.147439e+003, 5.270612e+001
1.147921e+003, 5.313090e+001
1.148403e+003, 5.326613e+001
1.148885e+003, 5.280252e+001
1.149368e+003, 5.216414e+001
1.149850e+003, 5.210203e+001
1.150332e+003, 5.263097e+001
1.150814e+003, 5.331369e+001
1.151296e+003, 5.404480e+001
1.151778e+003, 5.444321e+001
1.152260e+003, 5.423381e+001
1.152742e+003, 5.366594e+001
1.153224e+003, 5.251954e+001
1.153707e+003, 5.141586e+001
1.154189e+003, 5.100265e+001
1.154671e+003, 5.116533e+001
1.155153e+003, 5.163074e+001
1.155635e+003, 5.235092e+001
1.156117e+003, 5.273358e+001
1.156599e+003, 5.247390e+001
1.157081e+003, 5.201943e+001
1.157563e+003, 5.119386e+001
1.158046e+003, 5.055961e+001
1.158528e+003, 5.043048e+001
1.159010e+003, 5.072388e+001
1.159492e+003, 5.157896e+001
1.159974e+003, 5.284327e+001
1.160456e+003, 5.336964e+001
1.160938e+003, 5.245934e+001
1.161420e+003, 5.198700e+001
1.161903e+003, 5.236439e+001
1.162385e+003, 5.270637e+001
1.162867e+003, 5.287322e+001
1.163349e+003, 5.279201e+001
1.163831e+003, 5.221606e+001
1.164313e+003, 5.145390e+001
1.164795e+003, 5.125648e+001
1.165277e+003, 5.165426e+001
1.165760e+003, 5.245752e+001
1.166242e+003, 5.402700e+001
1.166724e+003, 5.482701e+001
1.167206e+003, 5.453273e+001
1.167688e+003, 5.361842e+001
1.168170e+003, 5.205961e+001
1.168652e+003, 5.079445e+001
1.169134e+003, 5.121332e+001
1.169616e+003, 5.280769e+001
1.170099e+003, 5.302779e+001
1.170581e+003, 5.185152e+001
1.171063e+003, 5.124218e+001
1.171545e+003, 5.132240e+001
1.172027e+003, 5.126535e+001
1.172509e+003, 5.081162e+001
1.172991e+003, 5.070662e+001
1.173473e+003, 5.159338e+001
1.173956e+003, 5.271336e+001
1.174438e+003, 5.262861e+001
1.174920e+003, 5.173933e+001
1.175402e+003, 5.114535e+001
1.175884e+003, 5.092877e+001
1.176366e+003, 5.164095e+001
1.176848e+003, 5.307500e+001
1.177330e+003, 5.375328e+001
1.177813e+003, 5.308437e+001
1.178295e+003, 5.240474e+001
1.178777e+003, 5.313728e+001
1.179259e+003, 5.413136e+001
1.179741e+003, 5.370737e+001
1.180223e+003, 5.280489e+001
1.180705e+003, 5.291173e+001
1.181187e+003, 5.360022e+001
1.181669e+003, 5.369632e+001
1.182151e+003, 5.308922e+001
1.182634e+003, 5.259431e+001
1.183116e+003, 5.259137e+001
1.183598e+003, 5.271600e+001
1.184080e+003, 5.273426e+001
1.184562e+003, 5.283402e+001
1.185044e+003, 5.349716e+001
1.185526e+003, 5.400986e+001
1.186008e+003, 5.327715e+001
1.186490e+003, 5.188196e+001
1.186973e+003, 5.139138e+001
1.187455e+003, 5.212275e+001
1.187937e+003, 5.258654e+001
1.188419e+003, 5.206160e+001
1.188901e+003, 5.188927e+001
1.189383e+003, 5.282224e+001
1.189865e+003, 5.358880e+001
1.190347e+003, 5.351874e+001
1.190830e+003, 5.296571e+001
1.191312e+003, 5.197254e+001
1.191794e+003, 5.081019e+001
1.192276e+003, 5.091363e+001
1.192758e+003, 5.292485e+001
1.193240e+003, 5.401851e+001
1.193722e+003, 5.404532e+001
1.194204e+003, 5.346184e+001
1.194687e+003, 5.205700e+001
1.195169e+003, 5.114177e+001
1.195651e+003, 5.169408e+001
1.196133e+003, 5.278208e+001
1.196615e+003, 5.289209e+001
1.197097e+003, 5.220333e+001
1.197579e+003, 5.176495e+001
1.198061e+003, 5.157267e+001
1.198543e+003, 5.161601e+001
1.199026e+003, 5.187849e+001
1.199508e+003, 5.212318e+001
1.199990e+003, 5.227711e+001
1.200472e+003, 5.259808e+001
1.200954e+003, 5.332131e+001
1.201436e+003, 5.415512e+001
1.201918e+003, 5.469341e+001
1.202400e+003, 5.500735e+001
1.202883e+003, 5.522912e+001
1.203365e+003, 5.534597e+001
1.203847e+003, 5.522977e+001
1.204329e+003, 5.496568e+001
1.204811e+003, 5.497828e+001
1.205293e+003, 5.539848e+001
1.205775e+003, 5.548425e+001
1.206257e+003, 5.422576e+001
1.206740e+003, 5.315267e+001
1.207222e+003, 5.398320e+001
1.207704e+003, 5.490706e+001
1.208186e+003, 5.384135e+001
1.208668e+003, 5.202621e+001
1.209150e+003, 5.138414e+001
1.209632e+003, 5.196733e+001
1.210114e+003, 5.279394e+001
1.210596e+003, 5.383075e+001
1.211078e+003, 5.449040e+001
1.211561e+003, 5.422799e+001
1.212043e+003, 5.417384e+001
1.212525e+003, 5.510251e+001
1.213007e+003, 5.587034e+001
1.213489e+003, 5.562007e+001
1.213971e+003, 5.486084e+001
1.214453e+003, 5.440324e+001
1.214935e+003, 5.421356e+001
1.215417e+003, 5.357408e+001
1.215900e+003, 5.210312e+001
1.216382e+003, 5.176410e+001
1.216864e+003, 5.297387e+001
1.217346e+003, 5.385440e+001
1.217828e+003, 5.370670e+001
1.218310e+003, 5.383603e+001
1.218792e+003, 5.543285e+001
1.219274e+003, 5.714906e+001
1.219757e+003, 5.605000e+001
1.220239e+003, 5.297112e+001
1.220721e+003, 5.214299e+001
1.221203e+003, 5.307588e+001
1.221685e+003, 5.325227e+001
1.222167e+003, 5.255439e+001
1.222649e+003, 5.238037e+001
1.223131e+003, 5.317051e+001
1.223614e+003, 5.396735e+001
1.224096e+003, 5.399421e+001
1.224578e+003, 5.387849e+001
1.225060e+003, 5.451679e+001
1.225542e+003, 5.521656e+001
1.226024e+003, 5.505981e+001
1.226506e+003, 5.443634e+001
1.226988e+003, 5.392435e+001
1.227470e+003, 5.358684e+001
1.227953e+003, 5.330137e+001
1.228435e+003, 5.303613e+001
1.228917e+003, 5.283321e+001
1.229399e+003, 5.268792e+001
1.229881e+003, 5.263892e+001
1.230363e+003, 5.242485e+001
1.230845e+003, 5.262307e+001
1.231327e+003, 5.440759e+001
1.231810e+003, 5.617316e+001
1.232292e+003, 5.565852e+001
1.232774e+003, 5.347850e+001
1.233256e+003, 5.207623e+001
1.233738e+003, 5.153777e+001
1.234220e+003, 5.143115e+001
1.234702e+003, 5.182356e+001
1.235184e+003, 5.243413e+001
1.235667e+003, 5.322167e+001
1.236149e+003, 5.428435e+001
1.236631e+003, 5.580001e+001
1.237113e+003, 5.700051e+001
1.237595e+003, 5.690239e+001
1.238077e+003, 5.588681e+001
1.238559e+003, 5.503344e+001
1.239041e+003, 5.430009e+001
1.239523e+003, 5.322189e+001
1.240005e+003, 5.200984e+001
1.240488e+003, 5.196648e+001
1.240970e+003, 5.315618e+001
1.241452e+003, 5.425739e+001
1.241934e+003, 5.462367e+001
1.242416e+003, 5.481010e+001
1.242898e+003, 5.541378e+001
1.243380e+003, 5.598934e+001
1.243862e+003, 5.618549e+001
1.244344e+003, 5.602673e+001
1.244827e+003, 5.521734e+001
1.245309e+003, 5.425033e+001
1.245791e+003, 5.403239e+001
1.246273e+003, 5.450545e+001
1.246755e+003, 5.470105e+001
1.247237e+003, 5.419855e+001
1.247719e+003, 5.402405e+001
1.248201e+003, 5.480860e+001
1.248684e+003, 5.538761e+001
1.249166e+003, 5.538552e+001
1.249648e+003, 5.510775e+001
1.250130e+003, 5.453482e+001
1.250612e+003, 5.397471e+001
1.251094e+003, 5.384304e+001
1.251576e+003, 5.409642e+001
1.252058e+003, 5.452137e+001
1.252541e+003, 5.520241e+001
1.253023e+003, 5.534468e+001
1.253505e+003, 5.486192e+001
1.253987e+003, 5.465307e+001
1.254469e+003, 5.492887e+001
1.254951e+003, 5.543748e+001
1.255433e+003, 5.604983e+001
1.255915e+003, 5.655988e+001
1.256397e+003, 5.677681e+001
1.256880e+003, 5.663837e+001
1.257362e+003, 5.588964e+001
1.257844e+003, 5.477027e+001
1.258326e+003, 5.348600e+001
1.258808e+003, 5.233652e+001
1.259290e+003, 5.194362e+001
1.259772e+003, 5.232365e+001
1.260254e+003, 5.303758e+001
1.260737e+003, 5.396637e+001
1.261219e+003, 5.473691e+001
1.261701e+003, 5.505597e+001
1.262183e+003, 5.529787e+001
1.262665e+003, 5.575410e+001
1.263147e+003, 5.608481e+001
1.263629e+003, 5.587218e+001
1.264111e+003, 5.548779e+001
1.264594e+003, 5.548809e+001
1.265076e+003, 5.581917e+001
1.265558e+003, 5.611318e+001
1.266040e+003, 5.653504e+001
1.266522e+003, 5.624320e+001
1.267004e+003, 5.496011e+001
1.267486e+003, 5.389538e+001
1.267968e+003, 5.322830e+001
1.268450e+003, 5.312308e+001
1.268932e+003, 5.373650e+001
1.269415e+003, 5.444774e+001
1.269897e+003, 5.452476e+001
1.270379e+003, 5.427751e+001
1.270861e+003, 5.450620e+001
1.271343e+003, 5.501898e+001
1.271825e+003, 5.524093e+001
1.272307e+003, 5.522113e+001
1.272789e+003, 5.512944e+001
1.273271e+003, 5.503678e+001
1.273754e+003, 5.496579e+001
1.274236e+003, 5.493837e+001
1.274718e+003, 5.534509e+001
1.275200e+003, 5.701628e+001
1.275682e+003, 5.832678e+001
1.276164e+003, 5.797102e+001
1.276646e+003, 5.728902e+001
1.277128e+003, 5.728583e+001
1.277611e+003, 5.745917e+001
1.278093e+003, 5.710807e+001
1.278575e+003, 5.639398e+001
1.279057e+003, 5.592047e+001
1.279539e+003, 5.568806e+001
1.280021e+003, 5.590171e+001
1.280503e+003, 5.685419e+001
1.280985e+003, 5.737061e+001
1.281468e+003, 5.728069e+001
1.281950e+003, 5.697955e+001
1.282432e+003, 5.656575e+001
1.282914e+003, 5.618673e+001
1.283396e+003, 5.591469e+001
1.283878e+003, 5.597623e+001
1.284360e+003, 5.695109e+001
1.284842e+003, 5.850748e+001
1.285324e+003, 5.970922e+001
##END=



