##NAMES=Hedenbergite
##RRUFFID=R060040
##IDEAL CHEMISTRY=CaFe^2+^Si_2_O_6_
##LOCALITY=Rio Marina, Elba, Italy
##OWNER=RRUFF
##SOURCE=University of Arizona Mineral Museum
##DESCRIPTION=Radial aggregate of green thin bladed crystals
##STATUS=The identification of this mineral has been confirmed by X-ray diffraction and chemical analysis
##URL=rruff.info/R060040
##MEASURED CHEMISTRY=Ca_1.00_(Fe^2+^_0.89_Mg_0.09_Mn_0.02_)_Î£=1_Si_2.00_O_6_
9.059570e+001, 1.136720e+003
9.107782e+001, 1.131433e+003
9.155994e+001, 1.129609e+003
9.204205e+001, 1.134127e+003
9.252417e+001, 1.140137e+003
9.300629e+001, 1.145891e+003
9.348840e+001, 1.144960e+003
9.397052e+001, 1.130690e+003
9.445264e+001, 1.101850e+003
9.493475e+001, 1.073571e+003
9.541687e+001, 1.046773e+003
9.589898e+001, 1.022436e+003
9.638110e+001, 9.998840e+002
9.686321e+001, 9.783575e+002
9.734533e+001, 9.567991e+002
9.782745e+001, 9.338167e+002
9.830956e+001, 9.138532e+002
9.879168e+001, 8.970633e+002
9.927380e+001, 8.821732e+002
9.975591e+001, 8.686661e+002
1.002380e+002, 8.564200e+002
1.007201e+002, 8.457797e+002
1.012023e+002, 8.373699e+002
1.016844e+002, 8.305731e+002
1.021665e+002, 8.227537e+002
1.026486e+002, 8.123947e+002
1.031307e+002, 8.018434e+002
1.036128e+002, 7.932630e+002
1.040950e+002, 7.866879e+002
1.045771e+002, 7.812701e+002
1.050592e+002, 7.765004e+002
1.055413e+002, 7.722092e+002
1.060234e+002, 7.683212e+002
1.065055e+002, 7.643562e+002
1.069877e+002, 7.606320e+002
1.074698e+002, 7.588807e+002
1.079519e+002, 7.620035e+002
1.084340e+002, 7.633477e+002
1.089161e+002, 7.602265e+002
1.093982e+002, 7.532322e+002
1.098804e+002, 7.440179e+002
1.103625e+002, 7.333614e+002
1.108446e+002, 7.205599e+002
1.113267e+002, 7.102537e+002
1.118088e+002, 7.030595e+002
1.122909e+002, 6.975217e+002
1.127731e+002, 6.934524e+002
1.132552e+002, 6.906130e+002
1.137373e+002, 6.884294e+002
1.142194e+002, 6.861036e+002
1.147015e+002, 6.832047e+002
1.151836e+002, 6.809721e+002
1.156658e+002, 6.799814e+002
1.161479e+002, 6.793511e+002
1.166300e+002, 6.782472e+002
1.171121e+002, 6.763665e+002
1.175942e+002, 6.739186e+002
1.180763e+002, 6.713187e+002
1.185584e+002, 6.684484e+002
1.190406e+002, 6.656852e+002
1.195227e+002, 6.630375e+002
1.200048e+002, 6.605637e+002
1.204869e+002, 6.583314e+002
1.209690e+002, 6.561351e+002
1.214511e+002, 6.545146e+002
1.219333e+002, 6.541517e+002
1.224154e+002, 6.552328e+002
1.228975e+002, 6.572215e+002
1.233796e+002, 6.598383e+002
1.238617e+002, 6.631442e+002
1.243438e+002, 6.665707e+002
1.248260e+002, 6.705745e+002
1.253081e+002, 6.742751e+002
1.257902e+002, 6.767094e+002
1.262723e+002, 6.773409e+002
1.267544e+002, 6.767339e+002
1.272365e+002, 6.762734e+002
1.277187e+002, 6.768005e+002
1.282008e+002, 6.758898e+002
1.286829e+002, 6.731790e+002
1.291650e+002, 6.688139e+002
1.296471e+002, 6.629983e+002
1.301292e+002, 6.558455e+002
1.306114e+002, 6.473615e+002
1.310935e+002, 6.375616e+002
1.315756e+002, 6.242319e+002
1.320577e+002, 6.115837e+002
1.325398e+002, 6.006979e+002
1.330219e+002, 5.913966e+002
1.335041e+002, 5.830214e+002
1.339862e+002, 5.749431e+002
1.344683e+002, 5.670414e+002
1.349504e+002, 5.603418e+002
1.354325e+002, 5.548887e+002
1.359146e+002, 5.503026e+002
1.363968e+002, 5.466741e+002
1.368789e+002, 5.438962e+002
1.373610e+002, 5.413850e+002
1.378431e+002, 5.384667e+002
1.383252e+002, 5.349617e+002
1.388073e+002, 5.320142e+002
1.392895e+002, 5.296242e+002
1.397716e+002, 5.278345e+002
1.402537e+002, 5.270148e+002
1.407358e+002, 5.274906e+002
1.412179e+002, 5.279952e+002
1.417000e+002, 5.267275e+002
1.421821e+002, 5.238860e+002
1.426643e+002, 5.207360e+002
1.431464e+002, 5.176609e+002
1.436285e+002, 5.146609e+002
1.441106e+002, 5.116721e+002
1.445927e+002, 5.084904e+002
1.450748e+002, 5.055873e+002
1.455570e+002, 5.032650e+002
1.460391e+002, 5.015345e+002
1.465212e+002, 5.002367e+002
1.470033e+002, 4.992810e+002
1.474854e+002, 4.986779e+002
1.479675e+002, 4.983093e+002
1.484497e+002, 4.989330e+002
1.489318e+002, 4.992792e+002
1.494139e+002, 4.984274e+002
1.498960e+002, 4.962340e+002
1.503781e+002, 4.935014e+002
1.508602e+002, 4.915001e+002
1.513424e+002, 4.907527e+002
1.518245e+002, 4.895575e+002
1.523066e+002, 4.872316e+002
1.527887e+002, 4.847675e+002
1.532708e+002, 4.828818e+002
1.537529e+002, 4.818606e+002
1.542351e+002, 4.815445e+002
1.547172e+002, 4.815671e+002
1.551993e+002, 4.826470e+002
1.556814e+002, 4.831927e+002
1.561635e+002, 4.830220e+002
1.566456e+002, 4.823197e+002
1.571278e+002, 4.812800e+002
1.576099e+002, 4.799922e+002
1.580920e+002, 4.784700e+002
1.585741e+002, 4.767461e+002
1.590562e+002, 4.743147e+002
1.595383e+002, 4.722604e+002
1.600205e+002, 4.711282e+002
1.605026e+002, 4.705993e+002
1.609847e+002, 4.698510e+002
1.614668e+002, 4.682660e+002
1.619489e+002, 4.662127e+002
1.624310e+002, 4.652738e+002
1.629131e+002, 4.664314e+002
1.633953e+002, 4.676695e+002
1.638774e+002, 4.676996e+002
1.643595e+002, 4.666335e+002
1.648416e+002, 4.655585e+002
1.653237e+002, 4.651084e+002
1.658058e+002, 4.651461e+002
1.662880e+002, 4.653071e+002
1.667701e+002, 4.657560e+002
1.672522e+002, 4.661558e+002
1.677343e+002, 4.660273e+002
1.682164e+002, 4.652522e+002
1.686985e+002, 4.645130e+002
1.691807e+002, 4.641097e+002
1.696628e+002, 4.639998e+002
1.701449e+002, 4.642000e+002
1.706270e+002, 4.647692e+002
1.711091e+002, 4.656217e+002
1.715912e+002, 4.666169e+002
1.720734e+002, 4.679365e+002
1.725555e+002, 4.690479e+002
1.730376e+002, 4.696621e+002
1.735197e+002, 4.700011e+002
1.740018e+002, 4.703603e+002
1.744839e+002, 4.708732e+002
1.749661e+002, 4.715523e+002
1.754482e+002, 4.725050e+002
1.759303e+002, 4.744518e+002
1.764124e+002, 4.758307e+002
1.768945e+002, 4.759044e+002
1.773766e+002, 4.751480e+002
1.778588e+002, 4.743661e+002
1.783409e+002, 4.741120e+002
1.788230e+002, 4.743878e+002
1.793051e+002, 4.750102e+002
1.797872e+002, 4.767846e+002
1.802693e+002, 4.781175e+002
1.807515e+002, 4.784963e+002
1.812336e+002, 4.780067e+002
1.817157e+002, 4.769863e+002
1.821978e+002, 4.757152e+002
1.826799e+002, 4.742047e+002
1.831620e+002, 4.722153e+002
1.836441e+002, 4.689769e+002
1.841263e+002, 4.660352e+002
1.846084e+002, 4.645154e+002
1.850905e+002, 4.642183e+002
1.855726e+002, 4.638364e+002
1.860547e+002, 4.620600e+002
1.865368e+002, 4.586174e+002
1.870190e+002, 4.561115e+002
1.875011e+002, 4.553824e+002
1.879832e+002, 4.549753e+002
1.884653e+002, 4.537391e+002
1.889474e+002, 4.515769e+002
1.894296e+002, 4.493060e+002
1.899117e+002, 4.478871e+002
1.903938e+002, 4.472757e+002
1.908759e+002, 4.459279e+002
1.913580e+002, 4.430975e+002
1.918401e+002, 4.397262e+002
1.923223e+002, 4.368902e+002
1.928044e+002, 4.347710e+002
1.932865e+002, 4.328418e+002
1.937686e+002, 4.306247e+002
1.942507e+002, 4.281898e+002
1.947328e+002, 4.257125e+002
1.952150e+002, 4.234276e+002
1.956971e+002, 4.210981e+002
1.961792e+002, 4.181247e+002
1.966613e+002, 4.141618e+002
1.971434e+002, 4.102048e+002
1.976255e+002, 4.071943e+002
1.981077e+002, 4.047813e+002
1.985898e+002, 4.021373e+002
1.990719e+002, 3.984200e+002
1.995540e+002, 3.939972e+002
2.000361e+002, 3.905285e+002
2.005182e+002, 3.884164e+002
2.010004e+002, 3.868292e+002
2.014825e+002, 3.854488e+002
2.019646e+002, 3.841908e+002
2.024467e+002, 3.828858e+002
2.029288e+002, 3.813940e+002
2.034109e+002, 3.797266e+002
2.038930e+002, 3.781025e+002
2.043752e+002, 3.764845e+002
2.048573e+002, 3.749746e+002
2.053394e+002, 3.736923e+002
2.058215e+002, 3.725651e+002
2.063036e+002, 3.714132e+002
2.067857e+002, 3.700860e+002
2.072679e+002, 3.685732e+002
2.077500e+002, 3.670954e+002
2.082321e+002, 3.655291e+002
2.087142e+002, 3.641144e+002
2.091963e+002, 3.630011e+002
2.096784e+002, 3.621263e+002
2.101606e+002, 3.613133e+002
2.106427e+002, 3.603939e+002
2.111248e+002, 3.593445e+002
2.116069e+002, 3.584434e+002
2.120890e+002, 3.578853e+002
2.125711e+002, 3.572812e+002
2.130533e+002, 3.563701e+002
2.135354e+002, 3.552419e+002
2.140175e+002, 3.542036e+002
2.144996e+002, 3.535561e+002
2.149817e+002, 3.533732e+002
2.154638e+002, 3.530744e+002
2.159460e+002, 3.525613e+002
2.164281e+002, 3.520472e+002
2.169102e+002, 3.517751e+002
2.173923e+002, 3.516601e+002
2.178744e+002, 3.512905e+002
2.183565e+002, 3.502137e+002
2.188387e+002, 3.482977e+002
2.193208e+002, 3.469709e+002
2.198029e+002, 3.464220e+002
2.202850e+002, 3.462188e+002
2.207671e+002, 3.461621e+002
2.212492e+002, 3.462193e+002
2.217314e+002, 3.464033e+002
2.222135e+002, 3.468026e+002
2.226956e+002, 3.474178e+002
2.231777e+002, 3.476025e+002
2.236598e+002, 3.470785e+002
2.241419e+002, 3.463361e+002
2.246240e+002, 3.455387e+002
2.251062e+002, 3.447358e+002
2.255883e+002, 3.443966e+002
2.260704e+002, 3.452617e+002
2.265525e+002, 3.470747e+002
2.270346e+002, 3.478537e+002
2.275167e+002, 3.463380e+002
2.279989e+002, 3.444487e+002
2.284810e+002, 3.440558e+002
2.289631e+002, 3.452780e+002
2.294452e+002, 3.468846e+002
2.299273e+002, 3.481994e+002
2.304094e+002, 3.492043e+002
2.308916e+002, 3.498600e+002
2.313737e+002, 3.499003e+002
2.318558e+002, 3.497244e+002
2.323379e+002, 3.499042e+002
2.328200e+002, 3.505323e+002
2.333021e+002, 3.508575e+002
2.337843e+002, 3.499750e+002
2.342664e+002, 3.485454e+002
2.347485e+002, 3.476029e+002
2.352306e+002, 3.477020e+002
2.357127e+002, 3.481481e+002
2.361948e+002, 3.479070e+002
2.366770e+002, 3.467910e+002
2.371591e+002, 3.457605e+002
2.376412e+002, 3.456639e+002
2.381233e+002, 3.458188e+002
2.386054e+002, 3.453907e+002
2.390875e+002, 3.439178e+002
2.395697e+002, 3.420504e+002
2.400518e+002, 3.408753e+002
2.405339e+002, 3.405927e+002
2.410160e+002, 3.403541e+002
2.414981e+002, 3.398783e+002
2.419802e+002, 3.392640e+002
2.424624e+002, 3.386042e+002
2.429445e+002, 3.379455e+002
2.434266e+002, 3.372097e+002
2.439087e+002, 3.361873e+002
2.443908e+002, 3.346855e+002
2.448729e+002, 3.334337e+002
2.453550e+002, 3.325592e+002
2.458372e+002, 3.320288e+002
2.463193e+002, 3.319899e+002
2.468014e+002, 3.325255e+002
2.472835e+002, 3.331577e+002
2.477656e+002, 3.330199e+002
2.482477e+002, 3.318108e+002
2.487299e+002, 3.305137e+002
2.492120e+002, 3.291797e+002
2.496941e+002, 3.279127e+002
2.501762e+002, 3.268029e+002
2.506583e+002, 3.258754e+002
2.511404e+002, 3.250859e+002
2.516226e+002, 3.244005e+002
2.521047e+002, 3.239929e+002
2.525868e+002, 3.232867e+002
2.530689e+002, 3.219894e+002
2.535510e+002, 3.205871e+002
2.540331e+002, 3.193661e+002
2.545153e+002, 3.184204e+002
2.549974e+002, 3.177205e+002
2.554795e+002, 3.172873e+002
2.559616e+002, 3.174404e+002
2.564437e+002, 3.171503e+002
2.569258e+002, 3.159830e+002
2.574080e+002, 3.147536e+002
2.578901e+002, 3.140731e+002
2.583722e+002, 3.140104e+002
2.588543e+002, 3.141195e+002
2.593364e+002, 3.137904e+002
2.598185e+002, 3.128303e+002
2.603007e+002, 3.118932e+002
2.607828e+002, 3.107950e+002
2.612649e+002, 3.098408e+002
2.617470e+002, 3.092800e+002
2.622291e+002, 3.090998e+002
2.627112e+002, 3.090744e+002
2.631934e+002, 3.089588e+002
2.636755e+002, 3.087591e+002
2.641576e+002, 3.084214e+002
2.646397e+002, 3.078958e+002
2.651218e+002, 3.073044e+002
2.656039e+002, 3.067173e+002
2.660861e+002, 3.061357e+002
2.665682e+002, 3.055150e+002
2.670503e+002, 3.048085e+002
2.675324e+002, 3.040062e+002
2.680145e+002, 3.031840e+002
2.684966e+002, 3.021352e+002
2.689788e+002, 3.012520e+002
2.694609e+002, 3.009458e+002
2.699430e+002, 3.010483e+002
2.704251e+002, 3.009249e+002
2.709072e+002, 2.999797e+002
2.713893e+002, 2.981689e+002
2.718715e+002, 2.970503e+002
2.723536e+002, 2.969926e+002
2.728357e+002, 2.971027e+002
2.733178e+002, 2.971182e+002
2.737999e+002, 2.970025e+002
2.742820e+002, 2.967205e+002
2.747642e+002, 2.962098e+002
2.752463e+002, 2.955078e+002
2.757284e+002, 2.951061e+002
2.762105e+002, 2.951417e+002
2.766926e+002, 2.952459e+002
2.771747e+002, 2.953439e+002
2.776568e+002, 2.954175e+002
2.781389e+002, 2.954377e+002
2.786211e+002, 2.953848e+002
2.791032e+002, 2.952730e+002
2.795853e+002, 2.951595e+002
2.800674e+002, 2.950454e+002
2.805495e+002, 2.949296e+002
2.810316e+002, 2.948514e+002
2.815138e+002, 2.947677e+002
2.819959e+002, 2.945684e+002
2.824780e+002, 2.941844e+002
2.829601e+002, 2.937314e+002
2.834422e+002, 2.935412e+002
2.839243e+002, 2.938035e+002
2.844065e+002, 2.939324e+002
2.848886e+002, 2.937821e+002
2.853707e+002, 2.934357e+002
2.858528e+002, 2.929325e+002
2.863349e+002, 2.922510e+002
2.868170e+002, 2.916246e+002
2.872992e+002, 2.914879e+002
2.877813e+002, 2.919448e+002
2.882634e+002, 2.924750e+002
2.887455e+002, 2.931463e+002
2.892276e+002, 2.937896e+002
2.897097e+002, 2.941624e+002
2.901919e+002, 2.942038e+002
2.906740e+002, 2.940968e+002
2.911561e+002, 2.939992e+002
2.916382e+002, 2.938820e+002
2.921203e+002, 2.940532e+002
2.926024e+002, 2.949164e+002
2.930846e+002, 2.958710e+002
2.935667e+002, 2.962509e+002
2.940488e+002, 2.959803e+002
2.945309e+002, 2.955811e+002
2.950130e+002, 2.954867e+002
2.954951e+002, 2.957226e+002
2.959773e+002, 2.961320e+002
2.964594e+002, 2.968930e+002
2.969415e+002, 2.976925e+002
2.974236e+002, 2.981992e+002
2.979057e+002, 2.984354e+002
2.983878e+002, 2.988119e+002
2.988700e+002, 2.996702e+002
2.993521e+002, 3.009334e+002
2.998342e+002, 3.020071e+002
3.003163e+002, 3.028884e+002
3.007984e+002, 3.035800e+002
3.012805e+002, 3.039283e+002
3.017627e+002, 3.040298e+002
3.022448e+002, 3.043413e+002
3.027269e+002, 3.051520e+002
3.032090e+002, 3.063105e+002
3.036911e+002, 3.073389e+002
3.041732e+002, 3.082074e+002
3.046554e+002, 3.090240e+002
3.051375e+002, 3.099094e+002
3.056196e+002, 3.107877e+002
3.061017e+002, 3.114634e+002
3.065838e+002, 3.118646e+002
3.070659e+002, 3.120267e+002
3.075481e+002, 3.119640e+002
3.080302e+002, 3.116326e+002
3.085123e+002, 3.113225e+002
3.089944e+002, 3.113170e+002
3.094765e+002, 3.113565e+002
3.099586e+002, 3.109662e+002
3.104408e+002, 3.099990e+002
3.109229e+002, 3.087037e+002
3.114050e+002, 3.073304e+002
3.118871e+002, 3.058654e+002
3.123692e+002, 3.044940e+002
3.128513e+002, 3.033640e+002
3.133335e+002, 3.022941e+002
3.138156e+002, 3.010837e+002
3.142977e+002, 2.997077e+002
3.147798e+002, 2.981593e+002
3.152619e+002, 2.963244e+002
3.157440e+002, 2.942312e+002
3.162262e+002, 2.923871e+002
3.167083e+002, 2.909254e+002
3.171904e+002, 2.896616e+002
3.176725e+002, 2.885300e+002
3.181546e+002, 2.875018e+002
3.186367e+002, 2.863680e+002
3.191188e+002, 2.848835e+002
3.196010e+002, 2.831980e+002
3.200831e+002, 2.819471e+002
3.205652e+002, 2.814679e+002
3.210473e+002, 2.810672e+002
3.215294e+002, 2.804175e+002
3.220115e+002, 2.795449e+002
3.224937e+002, 2.784776e+002
3.229758e+002, 2.771449e+002
3.234579e+002, 2.757360e+002
3.239400e+002, 2.747667e+002
3.244221e+002, 2.743311e+002
3.249042e+002, 2.740199e+002
3.253864e+002, 2.738445e+002
3.258685e+002, 2.736742e+002
3.263506e+002, 2.731885e+002
3.268327e+002, 2.722279e+002
3.273148e+002, 2.711420e+002
3.277969e+002, 2.704776e+002
3.282791e+002, 2.702536e+002
3.287612e+002, 2.701902e+002
3.292433e+002, 2.705249e+002
3.297254e+002, 2.708638e+002
3.302075e+002, 2.706593e+002
3.306896e+002, 2.698169e+002
3.311718e+002, 2.688286e+002
3.316539e+002, 2.681607e+002
3.321360e+002, 2.678472e+002
3.326181e+002, 2.675739e+002
3.331002e+002, 2.675088e+002
3.335823e+002, 2.673486e+002
3.340645e+002, 2.666756e+002
3.345466e+002, 2.655832e+002
3.350287e+002, 2.647573e+002
3.355108e+002, 2.647384e+002
3.359929e+002, 2.654129e+002
3.364750e+002, 2.658377e+002
3.369572e+002, 2.657780e+002
3.374393e+002, 2.657474e+002
3.379214e+002, 2.661470e+002
3.384035e+002, 2.667477e+002
3.388856e+002, 2.669632e+002
3.393677e+002, 2.664835e+002
3.398499e+002, 2.655454e+002
3.403320e+002, 2.647643e+002
3.408141e+002, 2.641216e+002
3.412962e+002, 2.636338e+002
3.417783e+002, 2.633865e+002
3.422604e+002, 2.632663e+002
3.427426e+002, 2.632092e+002
3.432247e+002, 2.631985e+002
3.437068e+002, 2.630386e+002
3.441889e+002, 2.624384e+002
3.446710e+002, 2.612220e+002
3.451531e+002, 2.600061e+002
3.456353e+002, 2.587843e+002
3.461174e+002, 2.575808e+002
3.465995e+002, 2.563008e+002
3.470816e+002, 2.550020e+002
3.475637e+002, 2.540026e+002
3.480458e+002, 2.536891e+002
3.485280e+002, 2.541153e+002
3.490101e+002, 2.539397e+002
3.494922e+002, 2.526463e+002
3.499743e+002, 2.513808e+002
3.504564e+002, 2.506107e+002
3.509385e+002, 2.502612e+002
3.514207e+002, 2.501188e+002
3.519028e+002, 2.500851e+002
3.523849e+002, 2.501135e+002
3.528670e+002, 2.499956e+002
3.533491e+002, 2.495725e+002
3.538312e+002, 2.492027e+002
3.543134e+002, 2.488109e+002
3.547955e+002, 2.485417e+002
3.552776e+002, 2.485894e+002
3.557597e+002, 2.490180e+002
3.562418e+002, 2.496906e+002
3.567239e+002, 2.503859e+002
3.572061e+002, 2.511112e+002
3.576882e+002, 2.518468e+002
3.581703e+002, 2.527685e+002
3.586524e+002, 2.535707e+002
3.591345e+002, 2.539408e+002
3.596166e+002, 2.539209e+002
3.600987e+002, 2.538578e+002
3.605808e+002, 2.540936e+002
3.610630e+002, 2.546588e+002
3.615451e+002, 2.552267e+002
3.620272e+002, 2.557931e+002
3.625093e+002, 2.563636e+002
3.629914e+002, 2.568661e+002
3.634735e+002, 2.573823e+002
3.639557e+002, 2.580730e+002
3.644378e+002, 2.590524e+002
3.649199e+002, 2.602359e+002
3.654020e+002, 2.612459e+002
3.658841e+002, 2.617426e+002
3.663662e+002, 2.625486e+002
3.668484e+002, 2.640535e+002
3.673305e+002, 2.657451e+002
3.678126e+002, 2.670532e+002
3.682947e+002, 2.678124e+002
3.687768e+002, 2.684142e+002
3.692589e+002, 2.695327e+002
3.697411e+002, 2.714820e+002
3.702232e+002, 2.730842e+002
3.707053e+002, 2.739864e+002
3.711874e+002, 2.748217e+002
3.716695e+002, 2.759418e+002
3.721516e+002, 2.773308e+002
3.726338e+002, 2.787843e+002
3.731159e+002, 2.801801e+002
3.735980e+002, 2.815079e+002
3.740801e+002, 2.824894e+002
3.745622e+002, 2.829816e+002
3.750443e+002, 2.832631e+002
3.755265e+002, 2.835820e+002
3.760086e+002, 2.837375e+002
3.764907e+002, 2.833675e+002
3.769728e+002, 2.822242e+002
3.774549e+002, 2.806235e+002
3.779370e+002, 2.793325e+002
3.784192e+002, 2.785963e+002
3.789013e+002, 2.774659e+002
3.793834e+002, 2.755854e+002
3.798655e+002, 2.732746e+002
3.803476e+002, 2.706031e+002
3.808297e+002, 2.675965e+002
3.813119e+002, 2.646619e+002
3.817940e+002, 2.623662e+002
3.822761e+002, 2.606868e+002
3.827582e+002, 2.586615e+002
3.832403e+002, 2.559664e+002
3.837224e+002, 2.531229e+002
3.842046e+002, 2.503832e+002
3.846867e+002, 2.477861e+002
3.851688e+002, 2.453781e+002
3.856509e+002, 2.432188e+002
3.861330e+002, 2.412850e+002
3.866151e+002, 2.395254e+002
3.870973e+002, 2.379616e+002
3.875794e+002, 2.365129e+002
3.880615e+002, 2.352476e+002
3.885436e+002, 2.340315e+002
3.890257e+002, 2.326202e+002
3.895078e+002, 2.307884e+002
3.899900e+002, 2.290774e+002
3.904721e+002, 2.282111e+002
3.909542e+002, 2.280403e+002
3.914363e+002, 2.273406e+002
3.919184e+002, 2.254150e+002
3.924005e+002, 2.231579e+002
3.928827e+002, 2.218359e+002
3.933648e+002, 2.214841e+002
3.938469e+002, 2.212666e+002
3.943290e+002, 2.208649e+002
3.948111e+002, 2.203971e+002
3.952932e+002, 2.201164e+002
3.957754e+002, 2.200818e+002
3.962575e+002, 2.199673e+002
3.967396e+002, 2.194355e+002
3.972217e+002, 2.185193e+002
3.977038e+002, 2.177131e+002
3.981859e+002, 2.169294e+002
3.986681e+002, 2.163493e+002
3.991501e+002, 2.161895e+002
3.996323e+002, 2.163568e+002
4.001144e+002, 2.165505e+002
4.005965e+002, 2.166577e+002
4.010786e+002, 2.166342e+002
4.015607e+002, 2.163176e+002
4.020428e+002, 2.155580e+002
4.025250e+002, 2.148179e+002
4.030071e+002, 2.140519e+002
4.034892e+002, 2.134011e+002
4.039713e+002, 2.131490e+002
4.044534e+002, 2.133281e+002
4.049355e+002, 2.135178e+002
4.054177e+002, 2.131899e+002
4.058998e+002, 2.121844e+002
4.063819e+002, 2.114672e+002
4.068640e+002, 2.111565e+002
4.073461e+002, 2.109829e+002
4.078282e+002, 2.108528e+002
4.083104e+002, 2.107499e+002
4.087925e+002, 2.106665e+002
4.092746e+002, 2.105934e+002
4.097567e+002, 2.105444e+002
4.102388e+002, 2.105842e+002
4.107209e+002, 2.109126e+002
4.112031e+002, 2.110649e+002
4.116852e+002, 2.109821e+002
4.121673e+002, 2.107230e+002
4.126494e+002, 2.102774e+002
4.131315e+002, 2.096711e+002
4.136136e+002, 2.090610e+002
4.140958e+002, 2.086618e+002
4.145779e+002, 2.085158e+002
4.150600e+002, 2.084072e+002
4.155421e+002, 2.086162e+002
4.160242e+002, 2.085989e+002
4.165063e+002, 2.076850e+002
4.169885e+002, 2.063513e+002
4.174706e+002, 2.057969e+002
4.179527e+002, 2.070240e+002
4.184348e+002, 2.093650e+002
4.189169e+002, 2.104015e+002
4.193990e+002, 2.093850e+002
4.198812e+002, 2.087129e+002
4.203633e+002, 2.095926e+002
4.208454e+002, 2.108776e+002
4.213275e+002, 2.115228e+002
4.218096e+002, 2.112733e+002
4.222917e+002, 2.105954e+002
4.227739e+002, 2.098116e+002
4.232560e+002, 2.089383e+002
4.237381e+002, 2.082980e+002
4.242202e+002, 2.079762e+002
4.247023e+002, 2.078607e+002
4.251844e+002, 2.079668e+002
4.256666e+002, 2.082124e+002
4.261487e+002, 2.082939e+002
4.266308e+002, 2.075425e+002
4.271129e+002, 2.067986e+002
4.275950e+002, 2.077692e+002
4.280771e+002, 2.106031e+002
4.285593e+002, 2.127182e+002
4.290414e+002, 2.124965e+002
4.295235e+002, 2.107401e+002
4.300056e+002, 2.093975e+002
4.304877e+002, 2.085000e+002
4.309698e+002, 2.079585e+002
4.314520e+002, 2.078945e+002
4.319341e+002, 2.081344e+002
4.324162e+002, 2.083508e+002
4.328983e+002, 2.084673e+002
4.333804e+002, 2.085134e+002
4.338625e+002, 2.085011e+002
4.343447e+002, 2.084173e+002
4.348268e+002, 2.083959e+002
4.353089e+002, 2.085267e+002
4.357910e+002, 2.086474e+002
4.362731e+002, 2.086056e+002
4.367552e+002, 2.084493e+002
4.372374e+002, 2.084006e+002
4.377195e+002, 2.086291e+002
4.382016e+002, 2.089803e+002
4.386837e+002, 2.088566e+002
4.391658e+002, 2.075928e+002
4.396479e+002, 2.067029e+002
4.401301e+002, 2.063147e+002
4.406122e+002, 2.063300e+002
4.410943e+002, 2.068656e+002
4.415764e+002, 2.078383e+002
4.420585e+002, 2.087455e+002
4.425406e+002, 2.089717e+002
4.430227e+002, 2.084079e+002
4.435049e+002, 2.079698e+002
4.439870e+002, 2.077498e+002
4.444691e+002, 2.075647e+002
4.449512e+002, 2.073251e+002
4.454333e+002, 2.070919e+002
4.459154e+002, 2.069926e+002
4.463976e+002, 2.071089e+002
4.468797e+002, 2.073159e+002
4.473618e+002, 2.072864e+002
4.478439e+002, 2.068605e+002
4.483260e+002, 2.066752e+002
4.488081e+002, 2.071736e+002
4.492903e+002, 2.077101e+002
4.497724e+002, 2.078609e+002
4.502545e+002, 2.076151e+002
4.507366e+002, 2.072599e+002
4.512187e+002, 2.069811e+002
4.517008e+002, 2.067676e+002
4.521830e+002, 2.065732e+002
4.526651e+002, 2.063749e+002
4.531472e+002, 2.062512e+002
4.536293e+002, 2.062390e+002
4.541114e+002, 2.063331e+002
4.545935e+002, 2.066118e+002
4.550757e+002, 2.073111e+002
4.555578e+002, 2.077651e+002
4.560399e+002, 2.071490e+002
4.565220e+002, 2.057361e+002
4.570041e+002, 2.047402e+002
4.574862e+002, 2.045735e+002
4.579684e+002, 2.047897e+002
4.584505e+002, 2.048386e+002
4.589326e+002, 2.047216e+002
4.594147e+002, 2.046683e+002
4.598968e+002, 2.048505e+002
4.603789e+002, 2.050203e+002
4.608611e+002, 2.049516e+002
4.613432e+002, 2.046573e+002
4.618253e+002, 2.042927e+002
4.623074e+002, 2.039621e+002
4.627895e+002, 2.036230e+002
4.632716e+002, 2.030799e+002
4.637538e+002, 2.018790e+002
4.642359e+002, 2.010800e+002
4.647180e+002, 2.010467e+002
4.652001e+002, 2.013331e+002
4.656822e+002, 2.015445e+002
4.661643e+002, 2.015760e+002
4.666465e+002, 2.014511e+002
4.671286e+002, 2.011567e+002
4.676107e+002, 2.006440e+002
4.680928e+002, 2.004059e+002
4.685749e+002, 2.009101e+002
4.690570e+002, 2.011856e+002
4.695392e+002, 2.007495e+002
4.700213e+002, 1.999774e+002
4.705034e+002, 1.994131e+002
4.709855e+002, 1.992933e+002
4.714676e+002, 1.994999e+002
4.719497e+002, 1.999805e+002
4.724319e+002, 2.009389e+002
4.729140e+002, 2.012640e+002
4.733961e+002, 2.000099e+002
4.738782e+002, 1.987442e+002
4.743603e+002, 1.984183e+002
4.748424e+002, 1.989128e+002
4.753246e+002, 1.995237e+002
4.758067e+002, 1.999956e+002
4.762888e+002, 2.002480e+002
4.767709e+002, 1.999214e+002
4.772530e+002, 1.988681e+002
4.777351e+002, 1.981996e+002
4.782173e+002, 1.987144e+002
4.786994e+002, 1.997854e+002
4.791815e+002, 2.004062e+002
4.796636e+002, 2.004552e+002
4.801457e+002, 2.003555e+002
4.806278e+002, 2.002279e+002
4.811100e+002, 2.001152e+002
4.815920e+002, 2.000918e+002
4.820742e+002, 2.001705e+002
4.825563e+002, 2.003505e+002
4.830384e+002, 2.007152e+002
4.835205e+002, 2.012397e+002
4.840026e+002, 2.013381e+002
4.844847e+002, 2.004665e+002
4.849669e+002, 1.997828e+002
4.854490e+002, 1.999440e+002
4.859311e+002, 2.005723e+002
4.864132e+002, 2.009524e+002
4.868953e+002, 2.008204e+002
4.873774e+002, 2.005186e+002
4.878596e+002, 2.006238e+002
4.883417e+002, 2.013333e+002
4.888238e+002, 2.019202e+002
4.893059e+002, 2.020719e+002
4.897880e+002, 2.024170e+002
4.902701e+002, 2.036426e+002
4.907523e+002, 2.052971e+002
4.912344e+002, 2.062975e+002
4.917165e+002, 2.059067e+002
4.921986e+002, 2.046714e+002
4.926807e+002, 2.040896e+002
4.931628e+002, 2.043343e+002
4.936450e+002, 2.047598e+002
4.941271e+002, 2.053517e+002
4.946092e+002, 2.059954e+002
4.950913e+002, 2.066968e+002
4.955734e+002, 2.074182e+002
4.960555e+002, 2.079608e+002
4.965377e+002, 2.080337e+002
4.970198e+002, 2.078316e+002
4.975019e+002, 2.078651e+002
4.979840e+002, 2.081474e+002
4.984661e+002, 2.086726e+002
4.989482e+002, 2.097116e+002
4.994304e+002, 2.108914e+002
4.999125e+002, 2.114715e+002
5.003946e+002, 2.112011e+002
5.008767e+002, 2.108619e+002
5.013588e+002, 2.108035e+002
5.018409e+002, 2.109473e+002
5.023231e+002, 2.112325e+002
5.028052e+002, 2.116505e+002
5.032873e+002, 2.119281e+002
5.037694e+002, 2.117251e+002
5.042515e+002, 2.110173e+002
5.047336e+002, 2.107875e+002
5.052158e+002, 2.113445e+002
5.056979e+002, 2.119756e+002
5.061800e+002, 2.123782e+002
5.066621e+002, 2.127072e+002
5.071442e+002, 2.132641e+002
5.076263e+002, 2.141452e+002
5.081085e+002, 2.150984e+002
5.085906e+002, 2.157358e+002
5.090727e+002, 2.160103e+002
5.095548e+002, 2.161377e+002
5.100369e+002, 2.157866e+002
5.105190e+002, 2.156185e+002
5.110012e+002, 2.160581e+002
5.114833e+002, 2.168432e+002
5.119654e+002, 2.174609e+002
5.124475e+002, 2.176458e+002
5.129296e+002, 2.175790e+002
5.134117e+002, 2.175425e+002
5.138939e+002, 2.175233e+002
5.143760e+002, 2.176468e+002
5.148581e+002, 2.180719e+002
5.153402e+002, 2.185191e+002
5.158223e+002, 2.187499e+002
5.163044e+002, 2.187872e+002
5.167866e+002, 2.187965e+002
5.172687e+002, 2.185987e+002
5.177508e+002, 2.185539e+002
5.182329e+002, 2.194012e+002
5.187150e+002, 2.210518e+002
5.191971e+002, 2.222024e+002
5.196793e+002, 2.220659e+002
5.201614e+002, 2.212682e+002
5.206435e+002, 2.213370e+002
5.211256e+002, 2.227269e+002
5.216077e+002, 2.234824e+002
5.220898e+002, 2.228980e+002
5.225720e+002, 2.218112e+002
5.230541e+002, 2.208009e+002
5.235362e+002, 2.199833e+002
5.240183e+002, 2.194036e+002
5.245004e+002, 2.191305e+002
5.249825e+002, 2.190821e+002
5.254647e+002, 2.188065e+002
5.259468e+002, 2.178429e+002
5.264289e+002, 2.173341e+002
5.269110e+002, 2.175999e+002
5.273931e+002, 2.181766e+002
5.278752e+002, 2.188734e+002
5.283574e+002, 2.195543e+002
5.288395e+002, 2.199008e+002
5.293216e+002, 2.195243e+002
5.298037e+002, 2.185539e+002
5.302858e+002, 2.177254e+002
5.307679e+002, 2.169665e+002
5.312501e+002, 2.165272e+002
5.317322e+002, 2.171033e+002
5.322143e+002, 2.177735e+002
5.326964e+002, 2.173638e+002
5.331785e+002, 2.155222e+002
5.336606e+002, 2.138623e+002
5.341428e+002, 2.137500e+002
5.346249e+002, 2.145076e+002
5.351070e+002, 2.145674e+002
5.355891e+002, 2.136780e+002
5.360712e+002, 2.128279e+002
5.365533e+002, 2.128652e+002
5.370355e+002, 2.135925e+002
5.375176e+002, 2.137525e+002
5.379997e+002, 2.127240e+002
5.384818e+002, 2.119417e+002
5.389639e+002, 2.119195e+002
5.394460e+002, 2.123145e+002
5.399282e+002, 2.128033e+002
5.404103e+002, 2.132720e+002
5.408924e+002, 2.135820e+002
5.413745e+002, 2.135374e+002
5.418566e+002, 2.131192e+002
5.423387e+002, 2.130125e+002
5.428209e+002, 2.135911e+002
5.433029e+002, 2.140442e+002
5.437850e+002, 2.142158e+002
5.442672e+002, 2.141761e+002
5.447493e+002, 2.139872e+002
5.452314e+002, 2.136726e+002
5.457135e+002, 2.132796e+002
5.461956e+002, 2.128012e+002
5.466777e+002, 2.122562e+002
5.471599e+002, 2.118881e+002
5.476420e+002, 2.117246e+002
5.481241e+002, 2.117072e+002
5.486062e+002, 2.119412e+002
5.490883e+002, 2.122690e+002
5.495704e+002, 2.124185e+002
5.500526e+002, 2.122732e+002
5.505347e+002, 2.120983e+002
5.510168e+002, 2.120276e+002
5.514989e+002, 2.120523e+002
5.519810e+002, 2.121838e+002
5.524631e+002, 2.124275e+002
5.529453e+002, 2.126833e+002
5.534274e+002, 2.129082e+002
5.539095e+002, 2.131007e+002
5.543916e+002, 2.128740e+002
5.548737e+002, 2.116727e+002
5.553558e+002, 2.107793e+002
5.558380e+002, 2.108504e+002
5.563201e+002, 2.112813e+002
5.568022e+002, 2.114173e+002
5.572843e+002, 2.110511e+002
5.577664e+002, 2.101977e+002
5.582485e+002, 2.086287e+002
5.587307e+002, 2.062836e+002
5.592128e+002, 2.052399e+002
5.596949e+002, 2.068210e+002
5.601770e+002, 2.078129e+002
5.606591e+002, 2.067604e+002
5.611412e+002, 2.047639e+002
5.616234e+002, 2.031429e+002
5.621055e+002, 2.022526e+002
5.625876e+002, 2.015146e+002
5.630697e+002, 2.004124e+002
5.635518e+002, 1.990553e+002
5.640339e+002, 1.978166e+002
5.645161e+002, 1.967488e+002
5.649982e+002, 1.957164e+002
5.654803e+002, 1.945603e+002
5.659624e+002, 1.933672e+002
5.664445e+002, 1.924805e+002
5.669266e+002, 1.922209e+002
5.674088e+002, 1.918103e+002
5.678909e+002, 1.908796e+002
5.683730e+002, 1.897016e+002
5.688551e+002, 1.886303e+002
5.693372e+002, 1.877211e+002
5.698193e+002, 1.867297e+002
5.703015e+002, 1.853825e+002
5.707836e+002, 1.837190e+002
5.712657e+002, 1.826099e+002
5.717478e+002, 1.824548e+002
5.722299e+002, 1.823411e+002
5.727120e+002, 1.822189e+002
5.731942e+002, 1.820152e+002
5.736763e+002, 1.816892e+002
5.741584e+002, 1.812233e+002
5.746405e+002, 1.805859e+002
5.751226e+002, 1.796106e+002
5.756047e+002, 1.784223e+002
5.760869e+002, 1.776225e+002
5.765690e+002, 1.773383e+002
5.770511e+002, 1.768966e+002
5.775332e+002, 1.758004e+002
5.780153e+002, 1.744696e+002
5.784974e+002, 1.735869e+002
5.789796e+002, 1.732321e+002
5.794617e+002, 1.730136e+002
5.799438e+002, 1.728562e+002
5.804259e+002, 1.727164e+002
5.809080e+002, 1.725919e+002
5.813901e+002, 1.724556e+002
5.818723e+002, 1.721696e+002
5.823544e+002, 1.716305e+002
5.828365e+002, 1.709087e+002
5.833186e+002, 1.702330e+002
5.838007e+002, 1.694688e+002
5.842828e+002, 1.689729e+002
5.847650e+002, 1.689499e+002
5.852471e+002, 1.690118e+002
5.857292e+002, 1.689033e+002
5.862113e+002, 1.686453e+002
5.866934e+002, 1.684182e+002
5.871755e+002, 1.683798e+002
5.876577e+002, 1.683588e+002
5.881398e+002, 1.678467e+002
5.886219e+002, 1.667207e+002
5.891040e+002, 1.659619e+002
5.895861e+002, 1.660164e+002
5.900682e+002, 1.662858e+002
5.905504e+002, 1.661584e+002
5.910325e+002, 1.657077e+002
5.915146e+002, 1.654179e+002
5.919967e+002, 1.655506e+002
5.924788e+002, 1.658049e+002
5.929609e+002, 1.660721e+002
5.934431e+002, 1.662585e+002
5.939252e+002, 1.660129e+002
5.944073e+002, 1.651775e+002
5.948894e+002, 1.641894e+002
5.953715e+002, 1.636635e+002
5.958536e+002, 1.637051e+002
5.963358e+002, 1.637454e+002
5.968179e+002, 1.636770e+002
5.973000e+002, 1.637258e+002
5.977821e+002, 1.641275e+002
5.982642e+002, 1.646401e+002
5.987463e+002, 1.649493e+002
5.992285e+002, 1.649441e+002
5.997106e+002, 1.646799e+002
6.001927e+002, 1.640538e+002
6.006748e+002, 1.630923e+002
6.011569e+002, 1.626660e+002
6.016390e+002, 1.630115e+002
6.021212e+002, 1.634684e+002
6.026033e+002, 1.636644e+002
6.030854e+002, 1.637318e+002
6.035675e+002, 1.638733e+002
6.040496e+002, 1.641523e+002
6.045317e+002, 1.643885e+002
6.050139e+002, 1.646026e+002
6.054960e+002, 1.646705e+002
6.059781e+002, 1.641853e+002
6.064602e+002, 1.632022e+002
6.069423e+002, 1.626200e+002
6.074244e+002, 1.631884e+002
6.079066e+002, 1.645686e+002
6.083887e+002, 1.652211e+002
6.088708e+002, 1.645109e+002
6.093529e+002, 1.639481e+002
6.098350e+002, 1.635076e+002
6.103171e+002, 1.632946e+002
6.107993e+002, 1.635753e+002
6.112814e+002, 1.641781e+002
6.117635e+002, 1.645513e+002
6.122456e+002, 1.642830e+002
6.127277e+002, 1.636773e+002
6.132098e+002, 1.633643e+002
6.136920e+002, 1.633623e+002
6.141741e+002, 1.634294e+002
6.146562e+002, 1.635447e+002
6.151383e+002, 1.636601e+002
6.156204e+002, 1.637651e+002
6.161025e+002, 1.638467e+002
6.165847e+002, 1.637908e+002
6.170668e+002, 1.632378e+002
6.175489e+002, 1.628722e+002
6.180310e+002, 1.634234e+002
6.185131e+002, 1.644279e+002
6.189952e+002, 1.648687e+002
6.194774e+002, 1.644588e+002
6.199595e+002, 1.638199e+002
6.204416e+002, 1.636949e+002
6.209237e+002, 1.641251e+002
6.214058e+002, 1.644346e+002
6.218879e+002, 1.645093e+002
6.223701e+002, 1.646008e+002
6.228522e+002, 1.648651e+002
6.233343e+002, 1.651124e+002
6.238164e+002, 1.650885e+002
6.242985e+002, 1.647679e+002
6.247806e+002, 1.644532e+002
6.252628e+002, 1.643945e+002
6.257448e+002, 1.645282e+002
6.262269e+002, 1.647295e+002
6.267090e+002, 1.650097e+002
6.271912e+002, 1.651702e+002
6.276733e+002, 1.650512e+002
6.281554e+002, 1.648269e+002
6.286375e+002, 1.648549e+002
6.291196e+002, 1.651852e+002
6.296017e+002, 1.654653e+002
6.300839e+002, 1.654801e+002
6.305660e+002, 1.655736e+002
6.310481e+002, 1.660789e+002
6.315302e+002, 1.668517e+002
6.320123e+002, 1.675442e+002
6.324944e+002, 1.679944e+002
6.329766e+002, 1.682716e+002
6.334587e+002, 1.684561e+002
6.339408e+002, 1.685104e+002
6.344229e+002, 1.686688e+002
6.349050e+002, 1.689547e+002
6.353871e+002, 1.693236e+002
6.358693e+002, 1.698697e+002
6.363514e+002, 1.704398e+002
6.368335e+002, 1.707417e+002
6.373156e+002, 1.706259e+002
6.377977e+002, 1.706048e+002
6.382798e+002, 1.712745e+002
6.387620e+002, 1.722181e+002
6.392441e+002, 1.724760e+002
6.397262e+002, 1.719758e+002
6.402083e+002, 1.717475e+002
6.406904e+002, 1.725250e+002
6.411725e+002, 1.739934e+002
6.416547e+002, 1.751057e+002
6.421368e+002, 1.754274e+002
6.426189e+002, 1.760222e+002
6.431010e+002, 1.771275e+002
6.435831e+002, 1.782904e+002
6.440652e+002, 1.792007e+002
6.445474e+002, 1.799275e+002
6.450295e+002, 1.806861e+002
6.455116e+002, 1.815631e+002
6.459937e+002, 1.826246e+002
6.464758e+002, 1.840827e+002
6.469579e+002, 1.859328e+002
6.474401e+002, 1.875020e+002
6.479222e+002, 1.884727e+002
6.484043e+002, 1.896060e+002
6.488864e+002, 1.916683e+002
6.493685e+002, 1.943671e+002
6.498506e+002, 1.967297e+002
6.503328e+002, 1.986002e+002
6.508149e+002, 2.002585e+002
6.512970e+002, 2.014348e+002
6.517791e+002, 2.026601e+002
6.522612e+002, 2.046528e+002
6.527433e+002, 2.074176e+002
6.532255e+002, 2.103690e+002
6.537076e+002, 2.130547e+002
6.541897e+002, 2.156264e+002
6.546718e+002, 2.187332e+002
6.551539e+002, 2.226439e+002
6.556360e+002, 2.264144e+002
6.561182e+002, 2.296208e+002
6.566003e+002, 2.329145e+002
6.570824e+002, 2.368044e+002
6.575645e+002, 2.411007e+002
6.580466e+002, 2.451929e+002
6.585287e+002, 2.490032e+002
6.590109e+002, 2.523083e+002
6.594930e+002, 2.547982e+002
6.599751e+002, 2.566100e+002
6.604572e+002, 2.582337e+002
6.609393e+002, 2.597779e+002
6.614214e+002, 2.608370e+002
6.619036e+002, 2.611204e+002
6.623857e+002, 2.606068e+002
6.628678e+002, 2.590745e+002
6.633499e+002, 2.559031e+002
6.638320e+002, 2.525131e+002
6.643141e+002, 2.491719e+002
6.647963e+002, 2.455305e+002
6.652784e+002, 2.411110e+002
6.657605e+002, 2.360832e+002
6.662426e+002, 2.311582e+002
6.667247e+002, 2.267942e+002
6.672068e+002, 2.226959e+002
6.676890e+002, 2.181651e+002
6.681711e+002, 2.132247e+002
6.686532e+002, 2.086410e+002
6.691353e+002, 2.045653e+002
6.696174e+002, 2.009824e+002
6.700995e+002, 1.979923e+002
6.705817e+002, 1.955721e+002
6.710638e+002, 1.933877e+002
6.715459e+002, 1.916439e+002
6.720280e+002, 1.898756e+002
6.725101e+002, 1.877680e+002
6.729922e+002, 1.856799e+002
6.734744e+002, 1.840251e+002
6.739565e+002, 1.828229e+002
6.744386e+002, 1.817984e+002
6.749207e+002, 1.807564e+002
6.754028e+002, 1.797002e+002
6.758849e+002, 1.786105e+002
6.763671e+002, 1.774512e+002
6.768492e+002, 1.764256e+002
6.773313e+002, 1.756236e+002
6.778134e+002, 1.749072e+002
6.782955e+002, 1.741562e+002
6.787776e+002, 1.733932e+002
6.792598e+002, 1.727041e+002
6.797419e+002, 1.720873e+002
6.802240e+002, 1.715762e+002
6.807061e+002, 1.712466e+002
6.811882e+002, 1.710149e+002
6.816703e+002, 1.707964e+002
6.821525e+002, 1.705540e+002
6.826346e+002, 1.701441e+002
6.831167e+002, 1.693967e+002
6.835988e+002, 1.684490e+002
6.840809e+002, 1.680173e+002
6.845630e+002, 1.684380e+002
6.850452e+002, 1.686406e+002
6.855273e+002, 1.684573e+002
6.860094e+002, 1.680372e+002
6.864915e+002, 1.672937e+002
6.869736e+002, 1.663723e+002
6.874557e+002, 1.656662e+002
6.879379e+002, 1.653904e+002
6.884200e+002, 1.652584e+002
6.889021e+002, 1.649112e+002
6.893842e+002, 1.645301e+002
6.898663e+002, 1.647289e+002
6.903484e+002, 1.655939e+002
6.908306e+002, 1.661642e+002
6.913127e+002, 1.655804e+002
6.917948e+002, 1.641588e+002
6.922769e+002, 1.635089e+002
6.927590e+002, 1.643712e+002
6.932411e+002, 1.648326e+002
6.937233e+002, 1.645256e+002
6.942054e+002, 1.640762e+002
6.946875e+002, 1.638665e+002
6.951696e+002, 1.638315e+002
6.956517e+002, 1.637132e+002
6.961339e+002, 1.633734e+002
6.966160e+002, 1.629941e+002
6.970981e+002, 1.627964e+002
6.975802e+002, 1.627295e+002
6.980623e+002, 1.626068e+002
6.985444e+002, 1.623991e+002
6.990266e+002, 1.621641e+002
6.995087e+002, 1.619383e+002
6.999908e+002, 1.617171e+002
7.004729e+002, 1.614888e+002
7.009550e+002, 1.612117e+002
7.014371e+002, 1.609912e+002
7.019193e+002, 1.608599e+002
7.024014e+002, 1.607549e+002
7.028835e+002, 1.606613e+002
7.033656e+002, 1.605600e+002
7.038477e+002, 1.604047e+002
7.043298e+002, 1.601693e+002
7.048120e+002, 1.599471e+002
7.052941e+002, 1.598474e+002
7.057762e+002, 1.598625e+002
7.062583e+002, 1.599866e+002
7.067404e+002, 1.602425e+002
7.072225e+002, 1.604388e+002
7.077046e+002, 1.604367e+002
7.081867e+002, 1.603223e+002
7.086688e+002, 1.603421e+002
7.091509e+002, 1.606647e+002
7.096331e+002, 1.606842e+002
7.101152e+002, 1.601029e+002
7.105973e+002, 1.594564e+002
7.110794e+002, 1.589700e+002
7.115615e+002, 1.586707e+002
7.120436e+002, 1.586492e+002
7.125258e+002, 1.589247e+002
7.130079e+002, 1.591267e+002
7.134900e+002, 1.586037e+002
7.139721e+002, 1.575710e+002
7.144542e+002, 1.573673e+002
7.149363e+002, 1.581906e+002
7.154185e+002, 1.588096e+002
7.159006e+002, 1.585671e+002
7.163827e+002, 1.579111e+002
7.168648e+002, 1.575577e+002
7.173469e+002, 1.575157e+002
7.178290e+002, 1.576710e+002
7.183112e+002, 1.583535e+002
7.187933e+002, 1.588703e+002
7.192754e+002, 1.587928e+002
7.197575e+002, 1.583672e+002
7.202396e+002, 1.578880e+002
7.207217e+002, 1.574683e+002
7.212039e+002, 1.572073e+002
7.216860e+002, 1.572747e+002
7.221681e+002, 1.575635e+002
7.226502e+002, 1.576182e+002
7.231323e+002, 1.574028e+002
7.236144e+002, 1.572688e+002
7.240966e+002, 1.573763e+002
7.245787e+002, 1.575367e+002
7.250608e+002, 1.575104e+002
7.255429e+002, 1.573025e+002
7.260250e+002, 1.571672e+002
7.265071e+002, 1.572790e+002
7.269893e+002, 1.572738e+002
7.274714e+002, 1.568987e+002
7.279535e+002, 1.564103e+002
7.284356e+002, 1.560449e+002
7.289177e+002, 1.558680e+002
7.293998e+002, 1.559170e+002
7.298820e+002, 1.562644e+002
7.303641e+002, 1.567714e+002
7.308462e+002, 1.571569e+002
7.313283e+002, 1.574211e+002
7.318104e+002, 1.574582e+002
7.322925e+002, 1.571201e+002
7.327747e+002, 1.568531e+002
7.332568e+002, 1.571412e+002
7.337389e+002, 1.578301e+002
7.342210e+002, 1.581016e+002
7.347031e+002, 1.576911e+002
7.351852e+002, 1.572729e+002
7.356674e+002, 1.569483e+002
7.361495e+002, 1.566926e+002
7.366316e+002, 1.564546e+002
7.371137e+002, 1.562658e+002
7.375958e+002, 1.562097e+002
7.380779e+002, 1.563280e+002
7.385601e+002, 1.565894e+002
7.390422e+002, 1.570508e+002
7.395243e+002, 1.576661e+002
7.400064e+002, 1.579997e+002
7.404885e+002, 1.580182e+002
7.409706e+002, 1.577038e+002
7.414528e+002, 1.568063e+002
7.419349e+002, 1.557405e+002
7.424170e+002, 1.555165e+002
7.428991e+002, 1.564314e+002
7.433812e+002, 1.570795e+002
7.438633e+002, 1.572268e+002
7.443455e+002, 1.572106e+002
7.448276e+002, 1.570920e+002
7.453097e+002, 1.569728e+002
7.457918e+002, 1.569850e+002
7.462739e+002, 1.571631e+002
7.467560e+002, 1.574350e+002
7.472382e+002, 1.578933e+002
7.477203e+002, 1.583643e+002
7.482024e+002, 1.581454e+002
7.486845e+002, 1.572131e+002
7.491666e+002, 1.565792e+002
7.496487e+002, 1.566060e+002
7.501309e+002, 1.570016e+002
7.506130e+002, 1.575045e+002
7.510951e+002, 1.581272e+002
7.515772e+002, 1.585212e+002
7.520593e+002, 1.585939e+002
7.525414e+002, 1.585745e+002
7.530236e+002, 1.585195e+002
7.535057e+002, 1.583856e+002
7.539878e+002, 1.580659e+002
7.544699e+002, 1.576137e+002
7.549520e+002, 1.572186e+002
7.554341e+002, 1.569495e+002
7.559163e+002, 1.568648e+002
7.563984e+002, 1.572253e+002
7.568805e+002, 1.578740e+002
7.573626e+002, 1.580320e+002
7.578447e+002, 1.575440e+002
7.583268e+002, 1.570420e+002
7.588090e+002, 1.569631e+002
7.592911e+002, 1.572179e+002
7.597732e+002, 1.575125e+002
7.602553e+002, 1.579480e+002
7.607374e+002, 1.582441e+002
7.612195e+002, 1.583908e+002
7.617017e+002, 1.584250e+002
7.621838e+002, 1.583114e+002
7.626659e+002, 1.581185e+002
7.631480e+002, 1.579452e+002
7.636301e+002, 1.578200e+002
7.641122e+002, 1.577003e+002
7.645944e+002, 1.575584e+002
7.650765e+002, 1.573999e+002
7.655586e+002, 1.571580e+002
7.660407e+002, 1.568809e+002
7.665228e+002, 1.568566e+002
7.670049e+002, 1.572057e+002
7.674871e+002, 1.577148e+002
7.679692e+002, 1.581372e+002
7.684513e+002, 1.584814e+002
7.689334e+002, 1.585028e+002
7.694155e+002, 1.577945e+002
7.698976e+002, 1.574282e+002
7.703798e+002, 1.579871e+002
7.708619e+002, 1.586823e+002
7.713440e+002, 1.588201e+002
7.718261e+002, 1.584927e+002
7.723082e+002, 1.583565e+002
7.727903e+002, 1.588244e+002
7.732725e+002, 1.593024e+002
7.737546e+002, 1.593513e+002
7.742367e+002, 1.591543e+002
7.747188e+002, 1.589415e+002
7.752009e+002, 1.587735e+002
7.756830e+002, 1.587405e+002
7.761652e+002, 1.589300e+002
7.766473e+002, 1.591580e+002
7.771294e+002, 1.588352e+002
7.776115e+002, 1.577652e+002
7.780936e+002, 1.575512e+002
7.785757e+002, 1.588344e+002
7.790579e+002, 1.599858e+002
7.795400e+002, 1.600473e+002
7.800221e+002, 1.594502e+002
7.805042e+002, 1.588229e+002
7.809863e+002, 1.580949e+002
7.814684e+002, 1.577575e+002
7.819506e+002, 1.582381e+002
7.824327e+002, 1.588349e+002
7.829148e+002, 1.591133e+002
7.833969e+002, 1.591900e+002
7.838790e+002, 1.593449e+002
7.843611e+002, 1.596253e+002
7.848433e+002, 1.597657e+002
7.853254e+002, 1.594610e+002
7.858075e+002, 1.588679e+002
7.862896e+002, 1.583932e+002
7.867717e+002, 1.580361e+002
7.872538e+002, 1.580258e+002
7.877360e+002, 1.585090e+002
7.882181e+002, 1.590930e+002
7.887002e+002, 1.594651e+002
7.891823e+002, 1.596250e+002
7.896644e+002, 1.595554e+002
7.901465e+002, 1.588237e+002
7.906286e+002, 1.584955e+002
7.911107e+002, 1.590596e+002
7.915928e+002, 1.596713e+002
7.920750e+002, 1.597153e+002
7.925571e+002, 1.593909e+002
7.930392e+002, 1.592126e+002
7.935213e+002, 1.593765e+002
7.940034e+002, 1.596086e+002
7.944855e+002, 1.596644e+002
7.949677e+002, 1.596264e+002
7.954498e+002, 1.596851e+002
7.959319e+002, 1.598205e+002
7.964140e+002, 1.598269e+002
7.968961e+002, 1.596160e+002
7.973782e+002, 1.592667e+002
7.978604e+002, 1.588522e+002
7.983425e+002, 1.583568e+002
7.988246e+002, 1.581352e+002
7.993067e+002, 1.583456e+002
7.997888e+002, 1.585395e+002
8.002709e+002, 1.585686e+002
8.007531e+002, 1.585712e+002
8.012352e+002, 1.586782e+002
8.017173e+002, 1.588587e+002
8.021994e+002, 1.589451e+002
8.026815e+002, 1.588225e+002
8.031636e+002, 1.587022e+002
8.036458e+002, 1.586752e+002
8.041279e+002, 1.587235e+002
8.046100e+002, 1.587715e+002
8.050921e+002, 1.588672e+002
8.055742e+002, 1.592956e+002
8.060563e+002, 1.602424e+002
8.065385e+002, 1.611321e+002
8.070206e+002, 1.607959e+002
8.075027e+002, 1.593646e+002
8.079848e+002, 1.587165e+002
8.084669e+002, 1.590443e+002
8.089490e+002, 1.595802e+002
8.094312e+002, 1.601015e+002
8.099133e+002, 1.604988e+002
8.103954e+002, 1.605818e+002
8.108775e+002, 1.602988e+002
8.113596e+002, 1.600152e+002
8.118417e+002, 1.595727e+002
8.123239e+002, 1.593315e+002
8.128060e+002, 1.595584e+002
8.132881e+002, 1.599100e+002
8.137702e+002, 1.600501e+002
8.142523e+002, 1.599903e+002
8.147344e+002, 1.599627e+002
8.152166e+002, 1.600968e+002
8.156987e+002, 1.602767e+002
8.161808e+002, 1.604466e+002
8.166629e+002, 1.605530e+002
8.171450e+002, 1.603938e+002
8.176271e+002, 1.599898e+002
8.181093e+002, 1.597212e+002
8.185914e+002, 1.598202e+002
8.190735e+002, 1.600809e+002
8.195556e+002, 1.600783e+002
8.200377e+002, 1.597412e+002
8.205198e+002, 1.595801e+002
8.210020e+002, 1.596144e+002
8.214841e+002, 1.597889e+002
8.219662e+002, 1.603016e+002
8.224483e+002, 1.607879e+002
8.229304e+002, 1.607603e+002
8.234125e+002, 1.602382e+002
8.238947e+002, 1.598779e+002
8.243768e+002, 1.599693e+002
8.248589e+002, 1.600583e+002
8.253410e+002, 1.599210e+002
8.258231e+002, 1.596971e+002
8.263052e+002, 1.595603e+002
8.267874e+002, 1.595017e+002
8.272695e+002, 1.594054e+002
8.277516e+002, 1.592141e+002
8.282337e+002, 1.589198e+002
8.287158e+002, 1.583652e+002
8.291979e+002, 1.576827e+002
8.296801e+002, 1.574537e+002
8.301622e+002, 1.577301e+002
8.306443e+002, 1.583127e+002
8.311264e+002, 1.592363e+002
8.316085e+002, 1.599945e+002
8.320906e+002, 1.596096e+002
8.325728e+002, 1.577831e+002
8.330549e+002, 1.570141e+002
8.335370e+002, 1.582301e+002
8.340191e+002, 1.591799e+002
8.345012e+002, 1.592960e+002
8.349833e+002, 1.590170e+002
8.354655e+002, 1.585051e+002
8.359476e+002, 1.578845e+002
8.364297e+002, 1.576052e+002
8.369118e+002, 1.580599e+002
8.373939e+002, 1.584738e+002
8.378760e+002, 1.582270e+002
8.383582e+002, 1.578467e+002
8.388403e+002, 1.580929e+002
8.393224e+002, 1.588011e+002
8.398045e+002, 1.592294e+002
8.402866e+002, 1.590276e+002
8.407687e+002, 1.585101e+002
8.412509e+002, 1.580073e+002
8.417330e+002, 1.575478e+002
8.422151e+002, 1.572998e+002
8.426972e+002, 1.572677e+002
8.431793e+002, 1.574522e+002
8.436614e+002, 1.579012e+002
8.441436e+002, 1.584341e+002
8.446257e+002, 1.588535e+002
8.451078e+002, 1.591600e+002
8.455899e+002, 1.593946e+002
8.460720e+002, 1.595161e+002
8.465541e+002, 1.596185e+002
8.470363e+002, 1.596645e+002
8.475184e+002, 1.597353e+002
8.480005e+002, 1.597937e+002
8.484826e+002, 1.599317e+002
8.489647e+002, 1.604008e+002
8.494468e+002, 1.613654e+002
8.499290e+002, 1.622083e+002
8.504111e+002, 1.625257e+002
8.508932e+002, 1.626201e+002
8.513753e+002, 1.627208e+002
8.518574e+002, 1.628739e+002
8.523395e+002, 1.631516e+002
8.528217e+002, 1.635625e+002
8.533038e+002, 1.640096e+002
8.537859e+002, 1.644544e+002
8.542680e+002, 1.648081e+002
8.547501e+002, 1.647166e+002
8.552322e+002, 1.641809e+002
8.557144e+002, 1.636816e+002
8.561965e+002, 1.633175e+002
8.566786e+002, 1.630037e+002
8.571607e+002, 1.627224e+002
8.576428e+002, 1.624126e+002
8.581249e+002, 1.618569e+002
8.586071e+002, 1.608435e+002
8.590892e+002, 1.600458e+002
8.595713e+002, 1.593970e+002
8.600534e+002, 1.590324e+002
8.605355e+002, 1.592624e+002
8.610176e+002, 1.596514e+002
8.614998e+002, 1.596662e+002
8.619819e+002, 1.592567e+002
8.624640e+002, 1.587813e+002
8.629461e+002, 1.584294e+002
8.634282e+002, 1.580052e+002
8.639103e+002, 1.572523e+002
8.643925e+002, 1.564109e+002
8.648746e+002, 1.558461e+002
8.653567e+002, 1.555578e+002
8.658388e+002, 1.552833e+002
8.663209e+002, 1.548527e+002
8.668030e+002, 1.544935e+002
8.672852e+002, 1.546644e+002
8.677673e+002, 1.552433e+002
8.682494e+002, 1.555993e+002
8.687315e+002, 1.556944e+002
8.692136e+002, 1.555727e+002
8.696957e+002, 1.552131e+002
8.701779e+002, 1.547757e+002
8.706600e+002, 1.544682e+002
8.711421e+002, 1.542901e+002
8.716242e+002, 1.541895e+002
8.721063e+002, 1.542870e+002
8.725884e+002, 1.542489e+002
8.730705e+002, 1.537729e+002
8.735526e+002, 1.533774e+002
8.740347e+002, 1.534913e+002
8.745168e+002, 1.539113e+002
8.749990e+002, 1.541362e+002
8.754811e+002, 1.540672e+002
8.759632e+002, 1.538542e+002
8.764453e+002, 1.534014e+002
8.769274e+002, 1.529661e+002
8.774095e+002, 1.527576e+002
8.778917e+002, 1.526959e+002
8.783738e+002, 1.526310e+002
8.788559e+002, 1.525271e+002
8.793380e+002, 1.524387e+002
8.798201e+002, 1.524059e+002
8.803022e+002, 1.524160e+002
8.807844e+002, 1.524786e+002
8.812665e+002, 1.525671e+002
8.817486e+002, 1.525493e+002
8.822307e+002, 1.524140e+002
8.827128e+002, 1.523404e+002
8.831949e+002, 1.524440e+002
8.836771e+002, 1.526695e+002
8.841592e+002, 1.529638e+002
8.846413e+002, 1.533935e+002
8.851234e+002, 1.533438e+002
8.856055e+002, 1.525874e+002
8.860876e+002, 1.519065e+002
8.865698e+002, 1.515675e+002
8.870519e+002, 1.514204e+002
8.875340e+002, 1.512560e+002
8.880161e+002, 1.510947e+002
8.884982e+002, 1.512427e+002
8.889803e+002, 1.521593e+002
8.894625e+002, 1.527485e+002
8.899446e+002, 1.526313e+002
8.904267e+002, 1.523113e+002
8.909088e+002, 1.520811e+002
8.913909e+002, 1.519283e+002
8.918730e+002, 1.517407e+002
8.923552e+002, 1.514804e+002
8.928373e+002, 1.513354e+002
8.933194e+002, 1.516302e+002
8.938015e+002, 1.519293e+002
8.942836e+002, 1.516792e+002
8.947657e+002, 1.510959e+002
8.952479e+002, 1.506027e+002
8.957300e+002, 1.503148e+002
8.962121e+002, 1.502232e+002
8.966942e+002, 1.503419e+002
8.971763e+002, 1.505850e+002
8.976584e+002, 1.508017e+002
8.981406e+002, 1.509889e+002
8.986227e+002, 1.511738e+002
8.991048e+002, 1.513758e+002
8.995869e+002, 1.512992e+002
9.000690e+002, 1.507227e+002
9.005511e+002, 1.500259e+002
9.010333e+002, 1.497975e+002
9.015154e+002, 1.500654e+002
9.019975e+002, 1.501503e+002
9.024796e+002, 1.498170e+002
9.029617e+002, 1.497432e+002
9.034438e+002, 1.503053e+002
9.039260e+002, 1.509213e+002
9.044081e+002, 1.512142e+002
9.048902e+002, 1.512558e+002
9.053723e+002, 1.512254e+002
9.058544e+002, 1.511403e+002
9.063365e+002, 1.509889e+002
9.068187e+002, 1.507438e+002
9.073008e+002, 1.504578e+002
9.077829e+002, 1.500490e+002
9.082650e+002, 1.496799e+002
9.087471e+002, 1.495235e+002
9.092292e+002, 1.496279e+002
9.097114e+002, 1.500309e+002
9.101935e+002, 1.508918e+002
9.106756e+002, 1.518382e+002
9.111577e+002, 1.526494e+002
9.116398e+002, 1.532133e+002
9.121219e+002, 1.531796e+002
9.126041e+002, 1.526477e+002
9.130862e+002, 1.521535e+002
9.135683e+002, 1.519508e+002
9.140504e+002, 1.519607e+002
9.145325e+002, 1.522003e+002
9.150146e+002, 1.525680e+002
9.154968e+002, 1.523577e+002
9.159789e+002, 1.515415e+002
9.164610e+002, 1.510008e+002
9.169431e+002, 1.509763e+002
9.174252e+002, 1.511827e+002
9.179073e+002, 1.514187e+002
9.183895e+002, 1.516686e+002
9.188716e+002, 1.519020e+002
9.193537e+002, 1.522706e+002
9.198358e+002, 1.521969e+002
9.203179e+002, 1.510517e+002
9.208000e+002, 1.503668e+002
9.212822e+002, 1.513743e+002
9.217643e+002, 1.527344e+002
9.222464e+002, 1.529241e+002
9.227285e+002, 1.519645e+002
9.232106e+002, 1.510180e+002
9.236927e+002, 1.500244e+002
9.241749e+002, 1.493580e+002
9.246570e+002, 1.492632e+002
9.251391e+002, 1.494148e+002
9.256212e+002, 1.497334e+002
9.261033e+002, 1.500507e+002
9.265854e+002, 1.500597e+002
9.270676e+002, 1.496649e+002
9.275497e+002, 1.492078e+002
9.280318e+002, 1.488577e+002
9.285139e+002, 1.486069e+002
9.289960e+002, 1.486262e+002
9.294781e+002, 1.486735e+002
9.299603e+002, 1.481512e+002
9.304424e+002, 1.470869e+002
9.309245e+002, 1.462086e+002
9.314066e+002, 1.460046e+002
9.318887e+002, 1.460755e+002
9.323708e+002, 1.457847e+002
9.328530e+002, 1.452263e+002
9.333351e+002, 1.447699e+002
9.338172e+002, 1.444364e+002
9.342993e+002, 1.442258e+002
9.347814e+002, 1.441466e+002
9.352635e+002, 1.441333e+002
9.357457e+002, 1.441552e+002
9.362278e+002, 1.441551e+002
9.367099e+002, 1.437509e+002
9.371920e+002, 1.428246e+002
9.376741e+002, 1.419757e+002
9.381563e+002, 1.411845e+002
9.386384e+002, 1.406780e+002
9.391205e+002, 1.406989e+002
9.396026e+002, 1.409836e+002
9.400847e+002, 1.410935e+002
9.405668e+002, 1.410379e+002
9.410490e+002, 1.407545e+002
9.415311e+002, 1.399190e+002
9.420132e+002, 1.393083e+002
9.424953e+002, 1.392022e+002
9.429774e+002, 1.392498e+002
9.434595e+002, 1.392854e+002
9.439417e+002, 1.392550e+002
9.444238e+002, 1.390067e+002
9.449059e+002, 1.383771e+002
9.453880e+002, 1.380474e+002
9.458701e+002, 1.385735e+002
9.463522e+002, 1.391420e+002
9.468344e+002, 1.392718e+002
9.473165e+002, 1.390772e+002
9.477986e+002, 1.386121e+002
9.482807e+002, 1.379947e+002
9.487628e+002, 1.375891e+002
9.492449e+002, 1.376259e+002
9.497271e+002, 1.378478e+002
9.502092e+002, 1.380853e+002
9.506913e+002, 1.383042e+002
9.511734e+002, 1.384408e+002
9.516555e+002, 1.385103e+002
9.521376e+002, 1.385827e+002
9.526198e+002, 1.386786e+002
9.531019e+002, 1.387413e+002
9.535840e+002, 1.387028e+002
9.540661e+002, 1.386089e+002
9.545482e+002, 1.385609e+002
9.550303e+002, 1.385578e+002
9.555124e+002, 1.386529e+002
9.559945e+002, 1.388520e+002
9.564766e+002, 1.387964e+002
9.569587e+002, 1.382467e+002
9.574409e+002, 1.375984e+002
9.579230e+002, 1.375165e+002
9.584051e+002, 1.379883e+002
9.588872e+002, 1.383401e+002
9.593693e+002, 1.385672e+002
9.598514e+002, 1.386842e+002
9.603336e+002, 1.386513e+002
9.608157e+002, 1.386114e+002
9.612978e+002, 1.386995e+002
9.617799e+002, 1.388412e+002
9.622620e+002, 1.388098e+002
9.627441e+002, 1.384933e+002
9.632263e+002, 1.383526e+002
9.637084e+002, 1.385632e+002
9.641905e+002, 1.387135e+002
9.646726e+002, 1.387166e+002
9.651547e+002, 1.386002e+002
9.656368e+002, 1.382537e+002
9.661190e+002, 1.377830e+002
9.666011e+002, 1.376758e+002
9.670832e+002, 1.382910e+002
9.675653e+002, 1.386605e+002
9.680474e+002, 1.382143e+002
9.685295e+002, 1.378622e+002
9.690117e+002, 1.382792e+002
9.694938e+002, 1.390188e+002
9.699759e+002, 1.395240e+002
9.704580e+002, 1.397055e+002
9.709401e+002, 1.396534e+002
9.714222e+002, 1.392160e+002
9.719044e+002, 1.388652e+002
9.723865e+002, 1.388521e+002
9.728686e+002, 1.391128e+002
9.733507e+002, 1.398898e+002
9.738328e+002, 1.408110e+002
9.743149e+002, 1.410036e+002
9.747971e+002, 1.402657e+002
9.752792e+002, 1.394140e+002
9.757613e+002, 1.390314e+002
9.762434e+002, 1.389586e+002
9.767255e+002, 1.391344e+002
9.772076e+002, 1.394065e+002
9.776898e+002, 1.393887e+002
9.781719e+002, 1.391041e+002
9.786540e+002, 1.389620e+002
9.791361e+002, 1.391548e+002
9.796182e+002, 1.392964e+002
9.801003e+002, 1.387870e+002
9.805825e+002, 1.378817e+002
9.810646e+002, 1.374796e+002
9.815467e+002, 1.375256e+002
9.820288e+002, 1.375711e+002
9.825109e+002, 1.375280e+002
9.829930e+002, 1.375146e+002
9.834752e+002, 1.376176e+002
9.839573e+002, 1.377492e+002
9.844394e+002, 1.377159e+002
9.849215e+002, 1.375159e+002
9.854036e+002, 1.374879e+002
9.858857e+002, 1.376906e+002
9.863679e+002, 1.376499e+002
9.868500e+002, 1.371093e+002
9.873321e+002, 1.367341e+002
9.878142e+002, 1.371308e+002
9.882963e+002, 1.380454e+002
9.887784e+002, 1.386944e+002
9.892606e+002, 1.390527e+002
9.897427e+002, 1.392039e+002
9.902248e+002, 1.390069e+002
9.907069e+002, 1.388673e+002
9.911890e+002, 1.388466e+002
9.916711e+002, 1.390063e+002
9.921533e+002, 1.394837e+002
9.926354e+002, 1.402137e+002
9.931175e+002, 1.408008e+002
9.935996e+002, 1.411230e+002
9.940817e+002, 1.415216e+002
9.945638e+002, 1.421979e+002
9.950460e+002, 1.427198e+002
9.955281e+002, 1.425576e+002
9.960102e+002, 1.424086e+002
9.964923e+002, 1.431816e+002
9.969744e+002, 1.447658e+002
9.974565e+002, 1.460552e+002
9.979387e+002, 1.466812e+002
9.984208e+002, 1.472637e+002
9.989029e+002, 1.478078e+002
9.993850e+002, 1.485075e+002
9.998671e+002, 1.494195e+002
1.000349e+003, 1.505943e+002
1.000831e+003, 1.521657e+002
1.001313e+003, 1.541036e+002
1.001796e+003, 1.560324e+002
1.002278e+003, 1.577940e+002
1.002760e+003, 1.595067e+002
1.003242e+003, 1.611144e+002
1.003724e+003, 1.628005e+002
1.004206e+003, 1.646924e+002
1.004688e+003, 1.668284e+002
1.005170e+003, 1.692790e+002
1.005653e+003, 1.720533e+002
1.006135e+003, 1.750651e+002
1.006617e+003, 1.783076e+002
1.007099e+003, 1.817315e+002
1.007581e+003, 1.852265e+002
1.008063e+003, 1.888999e+002
1.008545e+003, 1.929273e+002
1.009027e+003, 1.972654e+002
1.009509e+003, 2.018024e+002
1.009992e+003, 2.064652e+002
1.010474e+003, 2.111552e+002
1.010956e+003, 2.158177e+002
1.011438e+003, 2.203740e+002
1.011920e+003, 2.249870e+002
1.012402e+003, 2.293054e+002
1.012884e+003, 2.327713e+002
1.013366e+003, 2.351619e+002
1.013849e+003, 2.359713e+002
1.014331e+003, 2.349837e+002
1.014813e+003, 2.324536e+002
1.015295e+003, 2.284246e+002
1.015777e+003, 2.232574e+002
1.016259e+003, 2.177360e+002
1.016741e+003, 2.118714e+002
1.017223e+003, 2.056366e+002
1.017705e+003, 1.991190e+002
1.018188e+003, 1.929645e+002
1.018670e+003, 1.875066e+002
1.019152e+003, 1.826325e+002
1.019634e+003, 1.781745e+002
1.020116e+003, 1.741753e+002
1.020598e+003, 1.707978e+002
1.021080e+003, 1.680434e+002
1.021562e+003, 1.656391e+002
1.022044e+003, 1.635335e+002
1.022527e+003, 1.618392e+002
1.023009e+003, 1.606347e+002
1.023491e+003, 1.598084e+002
1.023973e+003, 1.592431e+002
1.024455e+003, 1.589090e+002
1.024937e+003, 1.583296e+002
1.025419e+003, 1.574969e+002
1.025901e+003, 1.564271e+002
1.026384e+003, 1.550004e+002
1.026866e+003, 1.538951e+002
1.027348e+003, 1.535885e+002
1.027830e+003, 1.537410e+002
1.028312e+003, 1.537420e+002
1.028794e+003, 1.535850e+002
1.029276e+003, 1.534482e+002
1.029758e+003, 1.533585e+002
1.030240e+003, 1.531704e+002
1.030723e+003, 1.527696e+002
1.031205e+003, 1.524707e+002
1.031687e+003, 1.524880e+002
1.032169e+003, 1.527375e+002
1.032651e+003, 1.531007e+002
1.033133e+003, 1.536375e+002
1.033615e+003, 1.537280e+002
1.034097e+003, 1.529737e+002
1.034579e+003, 1.526776e+002
1.035062e+003, 1.534721e+002
1.035544e+003, 1.541783e+002
1.036026e+003, 1.538828e+002
1.036508e+003, 1.530482e+002
1.036990e+003, 1.526533e+002
1.037472e+003, 1.527872e+002
1.037954e+003, 1.528592e+002
1.038436e+003, 1.528898e+002
1.038919e+003, 1.528224e+002
1.039401e+003, 1.525684e+002
1.039883e+003, 1.523022e+002
1.040365e+003, 1.522437e+002
1.040847e+003, 1.522190e+002
1.041329e+003, 1.517726e+002
1.041811e+003, 1.507330e+002
1.042293e+003, 1.501821e+002
1.042776e+003, 1.507341e+002
1.043258e+003, 1.509408e+002
1.043740e+003, 1.502181e+002
1.044222e+003, 1.493907e+002
1.044704e+003, 1.489705e+002
1.045186e+003, 1.488311e+002
1.045668e+003, 1.487389e+002
1.046150e+003, 1.486980e+002
1.046632e+003, 1.485699e+002
1.047115e+003, 1.482827e+002
1.047597e+003, 1.479850e+002
1.048079e+003, 1.478320e+002
1.048561e+003, 1.475635e+002
1.049043e+003, 1.468559e+002
1.049525e+003, 1.459574e+002
1.050007e+003, 1.453454e+002
1.050489e+003, 1.451003e+002
1.050971e+003, 1.448454e+002
1.051454e+003, 1.444794e+002
1.051936e+003, 1.441364e+002
1.052418e+003, 1.439799e+002
1.052900e+003, 1.437392e+002
1.053382e+003, 1.431233e+002
1.053864e+003, 1.423188e+002
1.054346e+003, 1.416550e+002
1.054828e+003, 1.411765e+002
1.055311e+003, 1.408332e+002
1.055793e+003, 1.408904e+002
1.056275e+003, 1.407035e+002
1.056757e+003, 1.396676e+002
1.057239e+003, 1.386812e+002
1.057721e+003, 1.386491e+002
1.058203e+003, 1.390534e+002
1.058685e+003, 1.388839e+002
1.059167e+003, 1.379970e+002
1.059650e+003, 1.372068e+002
1.060132e+003, 1.367495e+002
1.060614e+003, 1.364726e+002
1.061096e+003, 1.365270e+002
1.061578e+003, 1.365335e+002
1.062060e+003, 1.360023e+002
1.062542e+003, 1.353121e+002
1.063024e+003, 1.352482e+002
1.063506e+003, 1.358608e+002
1.063989e+003, 1.361124e+002
1.064471e+003, 1.351989e+002
1.064953e+003, 1.344638e+002
1.065435e+003, 1.347288e+002
1.065917e+003, 1.351135e+002
1.066399e+003, 1.349540e+002
1.066881e+003, 1.344529e+002
1.067363e+003, 1.338930e+002
1.067846e+003, 1.333698e+002
1.068328e+003, 1.331164e+002
1.068810e+003, 1.334161e+002
1.069292e+003, 1.336578e+002
1.069774e+003, 1.336313e+002
1.070256e+003, 1.333818e+002
1.070738e+003, 1.327503e+002
1.071220e+003, 1.320295e+002
1.071703e+003, 1.315916e+002
1.072185e+003, 1.314805e+002
1.072667e+003, 1.315723e+002
1.073149e+003, 1.320192e+002
1.073631e+003, 1.322068e+002
1.074113e+003, 1.313789e+002
1.074595e+003, 1.306798e+002
1.075077e+003, 1.313012e+002
1.075559e+003, 1.323309e+002
1.076042e+003, 1.325170e+002
1.076524e+003, 1.318378e+002
1.077006e+003, 1.310450e+002
1.077488e+003, 1.303413e+002
1.077970e+003, 1.297188e+002
1.078452e+003, 1.287324e+002
1.078934e+003, 1.283076e+002
1.079416e+003, 1.298875e+002
1.079898e+003, 1.318125e+002
1.080380e+003, 1.319150e+002
1.080863e+003, 1.304663e+002
1.081345e+003, 1.291907e+002
1.081827e+003, 1.286131e+002
1.082309e+003, 1.282627e+002
1.082791e+003, 1.279643e+002
1.083273e+003, 1.277826e+002
1.083755e+003, 1.279953e+002
1.084237e+003, 1.281612e+002
1.084720e+003, 1.276590e+002
1.085202e+003, 1.267220e+002
1.085684e+003, 1.260720e+002
1.086166e+003, 1.259163e+002
1.086648e+003, 1.258624e+002
1.087130e+003, 1.259472e+002
1.087612e+003, 1.258401e+002
1.088094e+003, 1.251196e+002
1.088577e+003, 1.243428e+002
1.089059e+003, 1.241140e+002
1.089541e+003, 1.242206e+002
1.090023e+003, 1.241044e+002
1.090505e+003, 1.236488e+002
1.090987e+003, 1.233091e+002
1.091469e+003, 1.233094e+002
1.091951e+003, 1.233894e+002
1.092433e+003, 1.236747e+002
1.092916e+003, 1.237696e+002
1.093398e+003, 1.231630e+002
1.093880e+003, 1.222392e+002
1.094362e+003, 1.216388e+002
1.094844e+003, 1.214485e+002
1.095326e+003, 1.213733e+002
1.095808e+003, 1.213077e+002
1.096290e+003, 1.213665e+002
1.096772e+003, 1.216838e+002
1.097255e+003, 1.220334e+002
1.097737e+003, 1.223682e+002
1.098219e+003, 1.225901e+002
1.098701e+003, 1.225791e+002
1.099183e+003, 1.223360e+002
1.099665e+003, 1.219450e+002
1.100147e+003, 1.213228e+002
1.100629e+003, 1.207655e+002
1.101112e+003, 1.203707e+002
1.101594e+003, 1.200338e+002
1.102076e+003, 1.196249e+002
1.102558e+003, 1.193048e+002
1.103040e+003, 1.194549e+002
1.103522e+003, 1.198565e+002
1.104004e+003, 1.196055e+002
1.104486e+003, 1.182205e+002
1.104969e+003, 1.173067e+002
1.105451e+003, 1.173981e+002
1.105933e+003, 1.176799e+002
1.106415e+003, 1.181561e+002
1.106897e+003, 1.184494e+002
1.107379e+003, 1.180625e+002
1.107861e+003, 1.173077e+002
1.108343e+003, 1.169814e+002
1.108825e+003, 1.172247e+002
1.109307e+003, 1.174071e+002
1.109790e+003, 1.173974e+002
1.110272e+003, 1.174314e+002
1.110754e+003, 1.176911e+002
1.111236e+003, 1.178648e+002
1.111718e+003, 1.176552e+002
1.112200e+003, 1.172927e+002
1.112682e+003, 1.172139e+002
1.113164e+003, 1.174496e+002
1.113647e+003, 1.174115e+002
1.114129e+003, 1.169356e+002
1.114611e+003, 1.164549e+002
1.115093e+003, 1.158368e+002
1.115575e+003, 1.154487e+002
1.116057e+003, 1.156695e+002
1.116539e+003, 1.159889e+002
1.117021e+003, 1.157356e+002
1.117504e+003, 1.150198e+002
1.117986e+003, 1.146766e+002
1.118468e+003, 1.149584e+002
1.118950e+003, 1.149986e+002
1.119432e+003, 1.146181e+002
1.119914e+003, 1.143460e+002
1.120396e+003, 1.143950e+002
1.120878e+003, 1.145278e+002
1.121360e+003, 1.145449e+002
1.121843e+003, 1.144888e+002
1.122325e+003, 1.145079e+002
1.122807e+003, 1.146599e+002
1.123289e+003, 1.145019e+002
1.123771e+003, 1.139021e+002
1.124253e+003, 1.134533e+002
1.124735e+003, 1.133237e+002
1.125217e+003, 1.132504e+002
1.125699e+003, 1.130971e+002
1.126182e+003, 1.128287e+002
1.126664e+003, 1.123362e+002
1.127146e+003, 1.116482e+002
1.127628e+003, 1.113065e+002
1.128110e+003, 1.113404e+002
1.128592e+003, 1.114934e+002
1.129074e+003, 1.117529e+002
1.129556e+003, 1.119716e+002
1.130039e+003, 1.120805e+002
1.130521e+003, 1.121362e+002
1.131003e+003, 1.122219e+002
1.131485e+003, 1.122765e+002
1.131967e+003, 1.120116e+002
1.132449e+003, 1.114569e+002
1.132931e+003, 1.111909e+002
1.133413e+003, 1.112361e+002
1.133896e+003, 1.111844e+002
1.134378e+003, 1.109114e+002
1.134860e+003, 1.106828e+002
1.135342e+003, 1.107244e+002
1.135824e+003, 1.108306e+002
1.136306e+003, 1.105961e+002
1.136788e+003, 1.101106e+002
1.137270e+003, 1.096196e+002
1.137752e+003, 1.091905e+002
1.138234e+003, 1.092392e+002
1.138717e+003, 1.097515e+002
1.139199e+003, 1.100410e+002
1.139681e+003, 1.097557e+002
1.140163e+003, 1.093554e+002
1.140645e+003, 1.094505e+002
1.141127e+003, 1.096807e+002
1.141609e+003, 1.092139e+002
1.142091e+003, 1.084351e+002
1.142574e+003, 1.082933e+002
1.143056e+003, 1.086705e+002
1.143538e+003, 1.088260e+002
1.144020e+003, 1.085389e+002
1.144502e+003, 1.081144e+002
1.144984e+003, 1.076708e+002
1.145466e+003, 1.074113e+002
1.145948e+003, 1.076471e+002
1.146431e+003, 1.081086e+002
1.146913e+003, 1.087104e+002
1.147395e+003, 1.091588e+002
1.147877e+003, 1.087321e+002
1.148359e+003, 1.076030e+002
1.148841e+003, 1.069515e+002
1.149323e+003, 1.073378e+002
1.149805e+003, 1.078428e+002
1.150287e+003, 1.079982e+002
1.150770e+003, 1.079385e+002
1.151252e+003, 1.075981e+002
1.151734e+003, 1.072269e+002
1.152216e+003, 1.070614e+002
1.152698e+003, 1.070942e+002
1.153180e+003, 1.072607e+002
1.153662e+003, 1.075463e+002
1.154144e+003, 1.078686e+002
1.154626e+003, 1.084725e+002
1.155109e+003, 1.087237e+002
1.155591e+003, 1.080210e+002
1.156073e+003, 1.073350e+002
1.156555e+003, 1.073338e+002
1.157037e+003, 1.076617e+002
1.157519e+003, 1.078633e+002
1.158001e+003, 1.079204e+002
1.158483e+003, 1.079600e+002
1.158966e+003, 1.080649e+002
1.159448e+003, 1.080008e+002
1.159930e+003, 1.074800e+002
1.160412e+003, 1.071658e+002
1.160894e+003, 1.073582e+002
1.161376e+003, 1.076772e+002
1.161858e+003, 1.079182e+002
1.162340e+003, 1.080450e+002
1.162822e+003, 1.079465e+002
1.163305e+003, 1.075880e+002
1.163787e+003, 1.073684e+002
1.164269e+003, 1.072867e+002
1.164751e+003, 1.073823e+002
1.165233e+003, 1.077648e+002
1.165715e+003, 1.080060e+002
1.166197e+003, 1.078659e+002
1.166679e+003, 1.075965e+002
1.167161e+003, 1.075030e+002
1.167644e+003, 1.075217e+002
1.168126e+003, 1.073597e+002
1.168608e+003, 1.070071e+002
1.169090e+003, 1.068113e+002
1.169572e+003, 1.067933e+002
1.170054e+003, 1.066470e+002
1.170536e+003, 1.062811e+002
1.171018e+003, 1.062013e+002
1.171500e+003, 1.068000e+002
1.171983e+003, 1.075663e+002
1.172465e+003, 1.076273e+002
1.172947e+003, 1.072077e+002
1.173429e+003, 1.070593e+002
1.173911e+003, 1.071019e+002
1.174393e+003, 1.070399e+002
1.174875e+003, 1.068443e+002
1.175357e+003, 1.065220e+002
1.175840e+003, 1.061062e+002
1.176322e+003, 1.059923e+002
1.176804e+003, 1.066836e+002
1.177286e+003, 1.074287e+002
1.177768e+003, 1.071035e+002
1.178250e+003, 1.063757e+002
1.178732e+003, 1.062049e+002
1.179214e+003, 1.064078e+002
1.179697e+003, 1.064915e+002
1.180179e+003, 1.064155e+002
1.180661e+003, 1.064777e+002
1.181143e+003, 1.068351e+002
1.181625e+003, 1.070579e+002
1.182107e+003, 1.067273e+002
1.182589e+003, 1.063643e+002
1.183071e+003, 1.063110e+002
1.183553e+003, 1.063859e+002
1.184036e+003, 1.064476e+002
1.184518e+003, 1.064816e+002
1.185000e+003, 1.064735e+002
1.185482e+003, 1.064288e+002
1.185964e+003, 1.064576e+002
1.186446e+003, 1.067855e+002
1.186928e+003, 1.068656e+002
1.187410e+003, 1.063497e+002
1.187892e+003, 1.058908e+002
1.188375e+003, 1.058226e+002
1.188857e+003, 1.058827e+002
1.189339e+003, 1.057629e+002
1.189821e+003, 1.055952e+002
1.190303e+003, 1.058204e+002
1.190785e+003, 1.065832e+002
1.191267e+003, 1.068549e+002
1.191749e+003, 1.064252e+002
1.192232e+003, 1.060797e+002
1.192714e+003, 1.059182e+002
1.193196e+003, 1.059360e+002
1.193678e+003, 1.061670e+002
1.194160e+003, 1.064751e+002
1.194642e+003, 1.067087e+002
1.195124e+003, 1.068613e+002
1.195606e+003, 1.068882e+002
1.196089e+003, 1.067940e+002
1.196571e+003, 1.067043e+002
1.197053e+003, 1.066266e+002
1.197535e+003, 1.065939e+002
1.198017e+003, 1.066127e+002
1.198499e+003, 1.066627e+002
1.198981e+003, 1.067367e+002
1.199463e+003, 1.067560e+002
1.199945e+003, 1.065732e+002
1.200427e+003, 1.062965e+002
1.200910e+003, 1.060853e+002
1.201392e+003, 1.059725e+002
1.201874e+003, 1.061186e+002
1.202356e+003, 1.064179e+002
1.202838e+003, 1.064903e+002
1.203320e+003, 1.062767e+002
1.203802e+003, 1.061844e+002
1.204284e+003, 1.065450e+002
1.204767e+003, 1.068066e+002
1.205249e+003, 1.062687e+002
1.205731e+003, 1.057610e+002
1.206213e+003, 1.061883e+002
1.206695e+003, 1.068900e+002
1.207177e+003, 1.070839e+002
1.207659e+003, 1.068202e+002
1.208141e+003, 1.064454e+002
1.208624e+003, 1.060218e+002
1.209106e+003, 1.055936e+002
1.209588e+003, 1.048975e+002
1.210070e+003, 1.046125e+002
1.210552e+003, 1.052561e+002
1.211034e+003, 1.058930e+002
1.211516e+003, 1.061538e+002
1.211998e+003, 1.060906e+002
1.212480e+003, 1.055492e+002
1.212963e+003, 1.047633e+002
1.213445e+003, 1.046765e+002
1.213927e+003, 1.054751e+002
1.214409e+003, 1.060378e+002
1.214891e+003, 1.063461e+002
1.215373e+003, 1.064932e+002
1.215855e+003, 1.065050e+002
1.216337e+003, 1.062658e+002
1.216819e+003, 1.056612e+002
1.217302e+003, 1.050730e+002
1.217784e+003, 1.049950e+002
1.218266e+003, 1.052619e+002
1.218748e+003, 1.053831e+002
1.219230e+003, 1.053834e+002
1.219712e+003, 1.053698e+002
1.220194e+003, 1.053533e+002
1.220676e+003, 1.053929e+002
1.221159e+003, 1.054681e+002
1.221641e+003, 1.053216e+002
1.222123e+003, 1.048024e+002
1.222605e+003, 1.043246e+002
1.223087e+003, 1.043538e+002
1.223569e+003, 1.045930e+002
1.224051e+003, 1.047655e+002
1.224533e+003, 1.048909e+002
1.225016e+003, 1.049721e+002
1.225498e+003, 1.050352e+002
1.225980e+003, 1.051488e+002
1.226462e+003, 1.052997e+002
1.226944e+003, 1.053473e+002
1.227426e+003, 1.051873e+002
1.227908e+003, 1.050801e+002
1.228390e+003, 1.051019e+002
1.228872e+003, 1.052095e+002
1.229354e+003, 1.056084e+002
1.229837e+003, 1.058662e+002
1.230319e+003, 1.055054e+002
1.230801e+003, 1.048430e+002
1.231283e+003, 1.044421e+002
1.231765e+003, 1.042963e+002
1.232247e+003, 1.041870e+002
1.232729e+003, 1.040412e+002
1.233211e+003, 1.042194e+002
1.233694e+003, 1.049170e+002
1.234176e+003, 1.052661e+002
1.234658e+003, 1.049410e+002
1.235140e+003, 1.045073e+002
1.235622e+003, 1.043785e+002
1.236104e+003, 1.043565e+002
1.236586e+003, 1.040535e+002
1.237068e+003, 1.035911e+002
1.237551e+003, 1.035159e+002
1.238033e+003, 1.037442e+002
1.238515e+003, 1.039527e+002
1.238997e+003, 1.040856e+002
1.239479e+003, 1.039144e+002
1.239961e+003, 1.034929e+002
1.240443e+003, 1.037561e+002
1.240925e+003, 1.054824e+002
1.241407e+003, 1.071033e+002
1.241890e+003, 1.069908e+002
1.242372e+003, 1.061736e+002
1.242854e+003, 1.052086e+002
1.243336e+003, 1.044995e+002
1.243818e+003, 1.048970e+002
1.244300e+003, 1.057604e+002
1.244782e+003, 1.055085e+002
1.245264e+003, 1.039994e+002
1.245746e+003, 1.030499e+002
1.246229e+003, 1.035217e+002
1.246711e+003, 1.038605e+002
1.247193e+003, 1.036840e+002
1.247675e+003, 1.034975e+002
1.248157e+003, 1.034277e+002
1.248639e+003, 1.034671e+002
1.249121e+003, 1.037221e+002
1.249603e+003, 1.039658e+002
1.250085e+003, 1.037188e+002
1.250568e+003, 1.030309e+002
1.251050e+003, 1.028051e+002
1.251532e+003, 1.030875e+002
1.252014e+003, 1.033374e+002
1.252496e+003, 1.035146e+002
1.252978e+003, 1.036543e+002
1.253460e+003, 1.037672e+002
1.253942e+003, 1.038027e+002
1.254425e+003, 1.037107e+002
1.254907e+003, 1.036858e+002
1.255389e+003, 1.041791e+002
1.255871e+003, 1.047887e+002
1.256353e+003, 1.046524e+002
1.256835e+003, 1.041260e+002
1.257317e+003, 1.038044e+002
1.257799e+003, 1.037068e+002
1.258281e+003, 1.036631e+002
1.258764e+003, 1.036655e+002
1.259246e+003, 1.039403e+002
1.259728e+003, 1.047079e+002
1.260210e+003, 1.052761e+002
1.260692e+003, 1.053770e+002
1.261174e+003, 1.051329e+002
1.261656e+003, 1.040974e+002
1.262138e+003, 1.032515e+002
1.262620e+003, 1.037107e+002
1.263103e+003, 1.046328e+002
1.263585e+003, 1.045533e+002
1.264067e+003, 1.036121e+002
1.264549e+003, 1.030515e+002
1.265031e+003, 1.029396e+002
1.265513e+003, 1.029754e+002
1.265995e+003, 1.031613e+002
1.266477e+003, 1.035360e+002
1.266960e+003, 1.041694e+002
1.267442e+003, 1.045238e+002
1.267924e+003, 1.042725e+002
1.268406e+003, 1.038507e+002
1.268888e+003, 1.037686e+002
1.269370e+003, 1.039043e+002
1.269852e+003, 1.040558e+002
1.270334e+003, 1.041635e+002
1.270817e+003, 1.039859e+002
1.271299e+003, 1.036548e+002
1.271781e+003, 1.035499e+002
1.272263e+003, 1.036889e+002
1.272745e+003, 1.038428e+002
1.273227e+003, 1.039247e+002
1.273709e+003, 1.040333e+002
1.274191e+003, 1.043168e+002
1.274673e+003, 1.045192e+002
1.275156e+003, 1.044727e+002
1.275638e+003, 1.043489e+002
1.276120e+003, 1.042300e+002
1.276602e+003, 1.041209e+002
1.277084e+003, 1.040215e+002
1.277566e+003, 1.039290e+002
1.278048e+003, 1.038365e+002
1.278530e+003, 1.037412e+002
1.279012e+003, 1.036705e+002
1.279495e+003, 1.036050e+002
1.279977e+003, 1.036082e+002
1.280459e+003, 1.036814e+002
1.280941e+003, 1.039181e+002
1.281423e+003, 1.043779e+002
1.281905e+003, 1.047567e+002
1.282387e+003, 1.048018e+002
1.282869e+003, 1.047132e+002
1.283352e+003, 1.048903e+002
1.283834e+003, 1.051465e+002
1.284316e+003, 1.050733e+002
1.284798e+003, 1.046756e+002
##END=



