##NAMES=Hemihedrite
##RRUFFID=R140134
##IDEAL CHEMISTRY=Pb^2+^_10_Zn^2+^(Cr^6+^O_4_)_6_(SiO_4_)_2_(OH)_2_
##LOCALITY=Rat Tail Claim, Wickenburg Area, Belmont Mts, Maricopa County, Arizona, USA
##OWNER=RRUFF
##SOURCE=Ron Gibbs
##DESCRIPTION=Orange axe-head shaped crystals
##STATUS=The identification of this mineral is confirmed by single-crystal X-ray diffraction and chemical analysis.
##URL=rruff.info/R140134
##MEASURED CHEMISTRY=Pb_10.05_(Zn_0.91_Mg_0.02_)_∑=0.93_(Cr_5.98_S_0.01_P_0.01_)_∑=6.00_Si_1.97_O_34_H_2.16_ ; H_2_O calculated to achieve 34 O atoms.
9.059570e+001, 1.023050e+003
9.107782e+001, 9.916448e+002
9.155994e+001, 9.805271e+002
9.204205e+001, 1.003398e+003
9.252417e+001, 1.037327e+003
9.300629e+001, 1.075113e+003
9.348840e+001, 1.108351e+003
9.397052e+001, 1.129197e+003
9.445264e+001, 1.133707e+003
9.493475e+001, 1.134715e+003
9.541687e+001, 1.137536e+003
9.589898e+001, 1.143401e+003
9.638110e+001, 1.151261e+003
9.686321e+001, 1.160090e+003
9.734533e+001, 1.168623e+003
9.782745e+001, 1.174978e+003
9.830956e+001, 1.184146e+003
9.879168e+001, 1.196637e+003
9.927380e+001, 1.211018e+003
9.975591e+001, 1.227146e+003
1.002380e+002, 1.244652e+003
1.007201e+002, 1.262771e+003
1.012023e+002, 1.281128e+003
1.016844e+002, 1.299869e+003
1.021665e+002, 1.318915e+003
1.026486e+002, 1.341945e+003
1.031307e+002, 1.362955e+003
1.036128e+002, 1.377490e+003
1.040950e+002, 1.386162e+003
1.045771e+002, 1.385996e+003
1.050592e+002, 1.373817e+003
1.055413e+002, 1.351831e+003
1.060234e+002, 1.321034e+003
1.065055e+002, 1.279752e+003
1.069877e+002, 1.229560e+003
1.074698e+002, 1.176216e+003
1.079519e+002, 1.115955e+003
1.084340e+002, 1.056838e+003
1.089161e+002, 1.000828e+003
1.093982e+002, 9.481490e+002
1.098804e+002, 8.995419e+002
1.103625e+002, 8.554598e+002
1.108446e+002, 8.160930e+002
1.113267e+002, 7.814255e+002
1.118088e+002, 7.525472e+002
1.122909e+002, 7.268228e+002
1.127731e+002, 7.032539e+002
1.132552e+002, 6.817102e+002
1.137373e+002, 6.623534e+002
1.142194e+002, 6.457194e+002
1.147015e+002, 6.330184e+002
1.151836e+002, 6.210980e+002
1.156658e+002, 6.095989e+002
1.161479e+002, 5.989280e+002
1.166300e+002, 5.897061e+002
1.171121e+002, 5.821776e+002
1.175942e+002, 5.756429e+002
1.180763e+002, 5.685497e+002
1.185584e+002, 5.606762e+002
1.190406e+002, 5.528330e+002
1.195227e+002, 5.454309e+002
1.200048e+002, 5.382791e+002
1.204869e+002, 5.308107e+002
1.209690e+002, 5.228767e+002
1.214511e+002, 5.143514e+002
1.219333e+002, 5.051650e+002
1.224154e+002, 4.950149e+002
1.228975e+002, 4.847162e+002
1.233796e+002, 4.751050e+002
1.238617e+002, 4.662204e+002
1.243438e+002, 4.574596e+002
1.248260e+002, 4.485204e+002
1.253081e+002, 4.396128e+002
1.257902e+002, 4.307990e+002
1.262723e+002, 4.220122e+002
1.267544e+002, 4.135571e+002
1.272365e+002, 4.063284e+002
1.277187e+002, 4.009641e+002
1.282008e+002, 3.958181e+002
1.286829e+002, 3.900361e+002
1.291650e+002, 3.841603e+002
1.296471e+002, 3.789569e+002
1.301292e+002, 3.749452e+002
1.306114e+002, 3.720588e+002
1.310935e+002, 3.693263e+002
1.315756e+002, 3.666667e+002
1.320577e+002, 3.642411e+002
1.325398e+002, 3.618824e+002
1.330219e+002, 3.597708e+002
1.335041e+002, 3.583008e+002
1.339862e+002, 3.578336e+002
1.344683e+002, 3.585004e+002
1.349504e+002, 3.595195e+002
1.354325e+002, 3.610304e+002
1.359146e+002, 3.627047e+002
1.363968e+002, 3.643455e+002
1.368789e+002, 3.659349e+002
1.373610e+002, 3.675917e+002
1.378431e+002, 3.694516e+002
1.383252e+002, 3.715795e+002
1.388073e+002, 3.736339e+002
1.392895e+002, 3.757316e+002
1.397716e+002, 3.776996e+002
1.402537e+002, 3.794326e+002
1.407358e+002, 3.809644e+002
1.412179e+002, 3.819964e+002
1.417000e+002, 3.820255e+002
1.421821e+002, 3.811772e+002
1.426643e+002, 3.798492e+002
1.431464e+002, 3.785633e+002
1.436285e+002, 3.770132e+002
1.441106e+002, 3.739991e+002
1.445927e+002, 3.687454e+002
1.450748e+002, 3.623863e+002
1.455570e+002, 3.559088e+002
1.460391e+002, 3.493503e+002
1.465212e+002, 3.428481e+002
1.470033e+002, 3.364164e+002
1.474854e+002, 3.300035e+002
1.479675e+002, 3.240785e+002
1.484497e+002, 3.187704e+002
1.489318e+002, 3.139341e+002
1.494139e+002, 3.095338e+002
1.498960e+002, 3.055783e+002
1.503781e+002, 3.020403e+002
1.508602e+002, 2.988992e+002
1.513424e+002, 2.960397e+002
1.518245e+002, 2.938657e+002
1.523066e+002, 2.926469e+002
1.527887e+002, 2.918298e+002
1.532708e+002, 2.910175e+002
1.537529e+002, 2.900595e+002
1.542351e+002, 2.890048e+002
1.547172e+002, 2.879765e+002
1.551993e+002, 2.870042e+002
1.556814e+002, 2.860316e+002
1.561635e+002, 2.849044e+002
1.566456e+002, 2.838166e+002
1.571278e+002, 2.830859e+002
1.576099e+002, 2.828946e+002
1.580920e+002, 2.830481e+002
1.585741e+002, 2.826993e+002
1.590562e+002, 2.811349e+002
1.595383e+002, 2.799325e+002
1.600205e+002, 2.796218e+002
1.605026e+002, 2.799725e+002
1.609847e+002, 2.805057e+002
1.614668e+002, 2.810402e+002
1.619489e+002, 2.814783e+002
1.624310e+002, 2.814787e+002
1.629131e+002, 2.805456e+002
1.633953e+002, 2.796806e+002
1.638774e+002, 2.794610e+002
1.643595e+002, 2.798498e+002
1.648416e+002, 2.805201e+002
1.653237e+002, 2.814482e+002
1.658058e+002, 2.824861e+002
1.662880e+002, 2.832937e+002
1.667701e+002, 2.837064e+002
1.672522e+002, 2.839808e+002
1.677343e+002, 2.844995e+002
1.682164e+002, 2.853701e+002
1.686985e+002, 2.859672e+002
1.691807e+002, 2.857800e+002
1.696628e+002, 2.851356e+002
1.701449e+002, 2.843813e+002
1.706270e+002, 2.836888e+002
1.711091e+002, 2.829422e+002
1.715912e+002, 2.818207e+002
1.720734e+002, 2.800765e+002
1.725555e+002, 2.784068e+002
1.730376e+002, 2.773397e+002
1.735197e+002, 2.764579e+002
1.740018e+002, 2.751425e+002
1.744839e+002, 2.729842e+002
1.749661e+002, 2.701083e+002
1.754482e+002, 2.672887e+002
1.759303e+002, 2.645989e+002
1.764124e+002, 2.618825e+002
1.768945e+002, 2.591668e+002
1.773766e+002, 2.563965e+002
1.778588e+002, 2.535034e+002
1.783409e+002, 2.504064e+002
1.788230e+002, 2.470970e+002
1.793051e+002, 2.438637e+002
1.797872e+002, 2.406906e+002
1.802693e+002, 2.376011e+002
1.807515e+002, 2.345641e+002
1.812336e+002, 2.316124e+002
1.817157e+002, 2.288719e+002
1.821978e+002, 2.264767e+002
1.826799e+002, 2.244844e+002
1.831620e+002, 2.222602e+002
1.836441e+002, 2.197988e+002
1.841263e+002, 2.171725e+002
1.846084e+002, 2.142235e+002
1.850905e+002, 2.110611e+002
1.855726e+002, 2.081380e+002
1.860547e+002, 2.059546e+002
1.865368e+002, 2.046512e+002
1.870190e+002, 2.029574e+002
1.875011e+002, 2.005322e+002
1.879832e+002, 1.979917e+002
1.884653e+002, 1.957783e+002
1.889474e+002, 1.939482e+002
1.894296e+002, 1.922872e+002
1.899117e+002, 1.906073e+002
1.903938e+002, 1.889196e+002
1.908759e+002, 1.873169e+002
1.913580e+002, 1.856667e+002
1.918401e+002, 1.841810e+002
1.923223e+002, 1.832244e+002
1.928044e+002, 1.829305e+002
1.932865e+002, 1.826693e+002
1.937686e+002, 1.816817e+002
1.942507e+002, 1.801880e+002
1.947328e+002, 1.788400e+002
1.952150e+002, 1.779586e+002
1.956971e+002, 1.773322e+002
1.961792e+002, 1.764985e+002
1.966613e+002, 1.753024e+002
1.971434e+002, 1.741638e+002
1.976255e+002, 1.735095e+002
1.981077e+002, 1.731644e+002
1.985898e+002, 1.726945e+002
1.990719e+002, 1.717444e+002
1.995540e+002, 1.704480e+002
2.000361e+002, 1.693949e+002
2.005182e+002, 1.686658e+002
2.010004e+002, 1.681106e+002
2.014825e+002, 1.677229e+002
2.019646e+002, 1.674334e+002
2.024467e+002, 1.670793e+002
2.029288e+002, 1.664836e+002
2.034109e+002, 1.656699e+002
2.038930e+002, 1.650602e+002
2.043752e+002, 1.647903e+002
2.048573e+002, 1.646124e+002
2.053394e+002, 1.644191e+002
2.058215e+002, 1.642375e+002
2.063036e+002, 1.641483e+002
2.067857e+002, 1.642391e+002
2.072679e+002, 1.645213e+002
2.077500e+002, 1.647636e+002
2.082321e+002, 1.649935e+002
2.087142e+002, 1.651542e+002
2.091963e+002, 1.651468e+002
2.096784e+002, 1.650371e+002
2.101606e+002, 1.649695e+002
2.106427e+002, 1.650475e+002
2.111248e+002, 1.652485e+002
2.116069e+002, 1.658044e+002
2.120890e+002, 1.670663e+002
2.125711e+002, 1.683174e+002
2.130533e+002, 1.692696e+002
2.135354e+002, 1.699462e+002
2.140175e+002, 1.705344e+002
2.144996e+002, 1.711930e+002
2.149817e+002, 1.719241e+002
2.154638e+002, 1.727363e+002
2.159460e+002, 1.737968e+002
2.164281e+002, 1.747775e+002
2.169102e+002, 1.754536e+002
2.173923e+002, 1.758669e+002
2.178744e+002, 1.762739e+002
2.183565e+002, 1.769210e+002
2.188387e+002, 1.778517e+002
2.193208e+002, 1.786082e+002
2.198029e+002, 1.792210e+002
2.202850e+002, 1.796650e+002
2.207671e+002, 1.798968e+002
2.212492e+002, 1.799282e+002
2.217314e+002, 1.798395e+002
2.222135e+002, 1.796952e+002
2.226956e+002, 1.794847e+002
2.231777e+002, 1.791844e+002
2.236598e+002, 1.787674e+002
2.241419e+002, 1.782822e+002
2.246240e+002, 1.777672e+002
2.251062e+002, 1.772236e+002
2.255883e+002, 1.766303e+002
2.260704e+002, 1.759545e+002
2.265525e+002, 1.752055e+002
2.270346e+002, 1.744623e+002
2.275167e+002, 1.738742e+002
2.279989e+002, 1.732055e+002
2.284810e+002, 1.721211e+002
2.289631e+002, 1.705916e+002
2.294452e+002, 1.691846e+002
2.299273e+002, 1.684706e+002
2.304094e+002, 1.682110e+002
2.308916e+002, 1.677278e+002
2.313737e+002, 1.666333e+002
2.318558e+002, 1.654237e+002
2.323379e+002, 1.647598e+002
2.328200e+002, 1.647295e+002
2.333021e+002, 1.646255e+002
2.337843e+002, 1.638408e+002
2.342664e+002, 1.627126e+002
2.347485e+002, 1.617513e+002
2.352306e+002, 1.611870e+002
2.357127e+002, 1.607567e+002
2.361948e+002, 1.600927e+002
2.366770e+002, 1.591497e+002
2.371591e+002, 1.581431e+002
2.376412e+002, 1.571860e+002
2.381233e+002, 1.562225e+002
2.386054e+002, 1.551446e+002
2.390875e+002, 1.538344e+002
2.395697e+002, 1.525184e+002
2.400518e+002, 1.516062e+002
2.405339e+002, 1.512102e+002
2.410160e+002, 1.508507e+002
2.414981e+002, 1.503269e+002
2.419802e+002, 1.497523e+002
2.424624e+002, 1.492343e+002
2.429445e+002, 1.488153e+002
2.434266e+002, 1.484521e+002
2.439087e+002, 1.480808e+002
2.443908e+002, 1.477127e+002
2.448729e+002, 1.473024e+002
2.453550e+002, 1.466794e+002
2.458372e+002, 1.460903e+002
2.463193e+002, 1.457816e+002
2.468014e+002, 1.458446e+002
2.472835e+002, 1.461058e+002
2.477656e+002, 1.462575e+002
2.482477e+002, 1.462139e+002
2.487299e+002, 1.462686e+002
2.492120e+002, 1.465993e+002
2.496941e+002, 1.469618e+002
2.501762e+002, 1.471951e+002
2.506583e+002, 1.472462e+002
2.511404e+002, 1.471202e+002
2.516226e+002, 1.467646e+002
2.521047e+002, 1.459517e+002
2.525868e+002, 1.454463e+002
2.530689e+002, 1.455225e+002
2.535510e+002, 1.457434e+002
2.540331e+002, 1.457870e+002
2.545153e+002, 1.455790e+002
2.549974e+002, 1.452870e+002
2.554795e+002, 1.452014e+002
2.559616e+002, 1.455565e+002
2.564437e+002, 1.455964e+002
2.569258e+002, 1.450556e+002
2.574080e+002, 1.444400e+002
2.578901e+002, 1.440919e+002
2.583722e+002, 1.440658e+002
2.588543e+002, 1.441700e+002
2.593364e+002, 1.441535e+002
2.598185e+002, 1.439853e+002
2.603007e+002, 1.437611e+002
2.607828e+002, 1.434601e+002
2.612649e+002, 1.431299e+002
2.617470e+002, 1.427567e+002
2.622291e+002, 1.423625e+002
2.627112e+002, 1.420347e+002
2.631934e+002, 1.418864e+002
2.636755e+002, 1.419925e+002
2.641576e+002, 1.420058e+002
2.646397e+002, 1.418268e+002
2.651218e+002, 1.416556e+002
2.656039e+002, 1.415867e+002
2.660861e+002, 1.416308e+002
2.665682e+002, 1.417554e+002
2.670503e+002, 1.419239e+002
2.675324e+002, 1.421216e+002
2.680145e+002, 1.424814e+002
2.684966e+002, 1.431448e+002
2.689788e+002, 1.438064e+002
2.694609e+002, 1.443659e+002
2.699430e+002, 1.447967e+002
2.704251e+002, 1.450519e+002
2.709072e+002, 1.450516e+002
2.713893e+002, 1.447772e+002
2.718715e+002, 1.448360e+002
2.723536e+002, 1.453535e+002
2.728357e+002, 1.460002e+002
2.733178e+002, 1.466405e+002
2.737999e+002, 1.472927e+002
2.742820e+002, 1.480488e+002
2.747642e+002, 1.489895e+002
2.752463e+002, 1.500930e+002
2.757284e+002, 1.510653e+002
2.762105e+002, 1.516713e+002
2.766926e+002, 1.524300e+002
2.771747e+002, 1.536720e+002
2.776568e+002, 1.552070e+002
2.781389e+002, 1.565516e+002
2.786211e+002, 1.573946e+002
2.791032e+002, 1.579195e+002
2.795853e+002, 1.589552e+002
2.800674e+002, 1.608879e+002
2.805495e+002, 1.627689e+002
2.810316e+002, 1.642929e+002
2.815138e+002, 1.656159e+002
2.819959e+002, 1.670071e+002
2.824780e+002, 1.685774e+002
2.829601e+002, 1.702927e+002
2.834422e+002, 1.720420e+002
2.839243e+002, 1.738272e+002
2.844065e+002, 1.756486e+002
2.848886e+002, 1.774343e+002
2.853707e+002, 1.792758e+002
2.858528e+002, 1.813430e+002
2.863349e+002, 1.837126e+002
2.868170e+002, 1.862166e+002
2.872992e+002, 1.885942e+002
2.877813e+002, 1.907951e+002
2.882634e+002, 1.930217e+002
2.887455e+002, 1.951489e+002
2.892276e+002, 1.973690e+002
2.897097e+002, 1.999193e+002
2.901919e+002, 2.028587e+002
2.906740e+002, 2.060315e+002
2.911561e+002, 2.093469e+002
2.916382e+002, 2.128239e+002
2.921203e+002, 2.161938e+002
2.926024e+002, 2.192299e+002
2.930846e+002, 2.222602e+002
2.935667e+002, 2.256616e+002
2.940488e+002, 2.294897e+002
2.945309e+002, 2.333731e+002
2.950130e+002, 2.369146e+002
2.954951e+002, 2.401239e+002
2.959773e+002, 2.436822e+002
2.964594e+002, 2.477872e+002
2.969415e+002, 2.521225e+002
2.974236e+002, 2.563581e+002
2.979057e+002, 2.605031e+002
2.983878e+002, 2.649896e+002
2.988700e+002, 2.701762e+002
2.993521e+002, 2.760021e+002
2.998342e+002, 2.818130e+002
3.003163e+002, 2.875673e+002
3.007984e+002, 2.932944e+002
3.012805e+002, 2.988087e+002
3.017627e+002, 3.042448e+002
3.022448e+002, 3.103388e+002
3.027269e+002, 3.176585e+002
3.032090e+002, 3.258298e+002
3.036911e+002, 3.336582e+002
3.041732e+002, 3.407642e+002
3.046554e+002, 3.482160e+002
3.051375e+002, 3.566703e+002
3.056196e+002, 3.658521e+002
3.061017e+002, 3.750403e+002
3.065838e+002, 3.839241e+002
3.070659e+002, 3.927548e+002
3.075481e+002, 4.020275e+002
3.080302e+002, 4.118835e+002
3.085123e+002, 4.215525e+002
3.089944e+002, 4.307331e+002
3.094765e+002, 4.395638e+002
3.099586e+002, 4.481286e+002
3.104408e+002, 4.563782e+002
3.109229e+002, 4.645260e+002
3.114050e+002, 4.727526e+002
3.118871e+002, 4.810736e+002
3.123692e+002, 4.894638e+002
3.128513e+002, 4.973656e+002
3.133335e+002, 5.055789e+002
3.138156e+002, 5.150735e+002
3.142977e+002, 5.259672e+002
3.147798e+002, 5.380262e+002
3.152619e+002, 5.513435e+002
3.157440e+002, 5.659248e+002
3.162262e+002, 5.806960e+002
3.167083e+002, 5.948900e+002
3.171904e+002, 6.097282e+002
3.176725e+002, 6.259772e+002
3.181546e+002, 6.437619e+002
3.186367e+002, 6.631537e+002
3.191188e+002, 6.842287e+002
3.196010e+002, 7.071285e+002
3.200831e+002, 7.317950e+002
3.205652e+002, 7.581270e+002
3.210473e+002, 7.863458e+002
3.215294e+002, 8.166858e+002
3.220115e+002, 8.489826e+002
3.224937e+002, 8.830879e+002
3.229758e+002, 9.184642e+002
3.234579e+002, 9.559757e+002
3.239400e+002, 9.970012e+002
3.244221e+002, 1.042375e+003
3.249042e+002, 1.088859e+003
3.253864e+002, 1.134937e+003
3.258685e+002, 1.181467e+003
3.263506e+002, 1.230679e+003
3.268327e+002, 1.283520e+003
3.273148e+002, 1.338575e+003
3.277969e+002, 1.393789e+003
3.282791e+002, 1.448725e+003
3.287612e+002, 1.505694e+003
3.292433e+002, 1.565197e+003
3.297254e+002, 1.626744e+003
3.302075e+002, 1.689826e+003
3.306896e+002, 1.754359e+003
3.311718e+002, 1.820332e+003
3.316539e+002, 1.888676e+003
3.321360e+002, 1.959533e+003
3.326181e+002, 2.028853e+003
3.331002e+002, 2.097507e+003
3.335823e+002, 2.163372e+003
3.340645e+002, 2.225852e+003
3.345466e+002, 2.284319e+003
3.350287e+002, 2.338038e+003
3.355108e+002, 2.385806e+003
3.359929e+002, 2.427930e+003
3.364750e+002, 2.467237e+003
3.369572e+002, 2.503100e+003
3.374393e+002, 2.537598e+003
3.379214e+002, 2.572027e+003
3.384035e+002, 2.605880e+003
3.388856e+002, 2.638154e+003
3.393677e+002, 2.668868e+003
3.398499e+002, 2.696595e+003
3.403320e+002, 2.716938e+003
3.408141e+002, 2.731837e+003
3.412962e+002, 2.737591e+003
3.417783e+002, 2.736050e+003
3.422604e+002, 2.724046e+003
3.427426e+002, 2.696804e+003
3.432247e+002, 2.653101e+003
3.437068e+002, 2.596042e+003
3.441889e+002, 2.529131e+003
3.446710e+002, 2.449039e+003
3.451531e+002, 2.366586e+003
3.456353e+002, 2.279088e+003
3.461174e+002, 2.191789e+003
3.465995e+002, 2.107590e+003
3.470816e+002, 2.027706e+003
3.475637e+002, 1.952021e+003
3.480458e+002, 1.881090e+003
3.485280e+002, 1.814742e+003
3.490101e+002, 1.756884e+003
3.494922e+002, 1.706987e+003
3.499743e+002, 1.664394e+003
3.504564e+002, 1.630706e+003
3.509385e+002, 1.604538e+003
3.514207e+002, 1.583226e+003
3.519028e+002, 1.565644e+003
3.523849e+002, 1.551186e+003
3.528670e+002, 1.537156e+003
3.533491e+002, 1.525326e+003
3.538312e+002, 1.511777e+003
3.543134e+002, 1.496556e+003
3.547955e+002, 1.479198e+003
3.552776e+002, 1.459441e+003
3.557597e+002, 1.437140e+003
3.562418e+002, 1.411591e+003
3.567239e+002, 1.381283e+003
3.572061e+002, 1.344514e+003
3.576882e+002, 1.305792e+003
3.581703e+002, 1.263485e+003
3.586524e+002, 1.220574e+003
3.591345e+002, 1.178325e+003
3.596166e+002, 1.137250e+003
3.600987e+002, 1.098537e+003
3.605808e+002, 1.062867e+003
3.610630e+002, 1.030003e+003
3.615451e+002, 1.002774e+003
3.620272e+002, 9.827869e+002
3.625093e+002, 9.663557e+002
3.629914e+002, 9.539966e+002
3.634735e+002, 9.441455e+002
3.639557e+002, 9.346285e+002
3.644378e+002, 9.241292e+002
3.649199e+002, 9.128433e+002
3.654020e+002, 9.015364e+002
3.658841e+002, 8.893394e+002
3.663662e+002, 8.784498e+002
3.668484e+002, 8.680336e+002
3.673305e+002, 8.595272e+002
3.678126e+002, 8.547787e+002
3.682947e+002, 8.542591e+002
3.687768e+002, 8.561291e+002
3.692589e+002, 8.577670e+002
3.697411e+002, 8.592974e+002
3.702232e+002, 8.602079e+002
3.707053e+002, 8.620052e+002
3.711874e+002, 8.619816e+002
3.716695e+002, 8.597494e+002
3.721516e+002, 8.545763e+002
3.726338e+002, 8.446310e+002
3.731159e+002, 8.273619e+002
3.735980e+002, 8.030430e+002
3.740801e+002, 7.793489e+002
3.745622e+002, 7.539474e+002
3.750443e+002, 7.323965e+002
3.755265e+002, 7.158292e+002
3.760086e+002, 7.040867e+002
3.764907e+002, 6.970242e+002
3.769728e+002, 6.945829e+002
3.774549e+002, 6.966049e+002
3.779370e+002, 7.032063e+002
3.784192e+002, 7.155118e+002
3.789013e+002, 7.292932e+002
3.793834e+002, 7.457272e+002
3.798655e+002, 7.617687e+002
3.803476e+002, 7.757133e+002
3.808297e+002, 7.871703e+002
3.813119e+002, 7.948553e+002
3.817940e+002, 7.971530e+002
3.822761e+002, 7.941250e+002
3.827582e+002, 7.876210e+002
3.832403e+002, 7.750697e+002
3.837224e+002, 7.623209e+002
3.842046e+002, 7.516627e+002
3.846867e+002, 7.436989e+002
3.851688e+002, 7.401506e+002
3.856509e+002, 7.425266e+002
3.861330e+002, 7.499174e+002
3.866151e+002, 7.610849e+002
3.870973e+002, 7.768802e+002
3.875794e+002, 7.933177e+002
3.880615e+002, 8.112664e+002
3.885436e+002, 8.275670e+002
3.890257e+002, 8.374333e+002
3.895078e+002, 8.400667e+002
3.899900e+002, 8.358673e+002
3.904721e+002, 8.240973e+002
3.909542e+002, 8.051724e+002
3.914363e+002, 7.824957e+002
3.919184e+002, 7.563589e+002
3.924005e+002, 7.277586e+002
3.928827e+002, 6.979960e+002
3.933648e+002, 6.670871e+002
3.938469e+002, 6.355914e+002
3.943290e+002, 6.033408e+002
3.948111e+002, 5.708275e+002
3.952932e+002, 5.388492e+002
3.957754e+002, 5.071509e+002
3.962575e+002, 4.769674e+002
3.967396e+002, 4.488931e+002
3.972217e+002, 4.232175e+002
3.977038e+002, 4.004391e+002
3.981859e+002, 3.807757e+002
3.986681e+002, 3.636030e+002
3.991501e+002, 3.486172e+002
3.996323e+002, 3.357546e+002
4.001144e+002, 3.250158e+002
4.005965e+002, 3.166108e+002
4.010786e+002, 3.099969e+002
4.015607e+002, 3.038049e+002
4.020428e+002, 2.975933e+002
4.025250e+002, 2.924440e+002
4.030071e+002, 2.890848e+002
4.034892e+002, 2.866332e+002
4.039713e+002, 2.843331e+002
4.044534e+002, 2.819603e+002
4.049355e+002, 2.792484e+002
4.054177e+002, 2.759222e+002
4.058998e+002, 2.720240e+002
4.063819e+002, 2.671954e+002
4.068640e+002, 2.613163e+002
4.073461e+002, 2.547851e+002
4.078282e+002, 2.474870e+002
4.083104e+002, 2.396691e+002
4.087925e+002, 2.318306e+002
4.092746e+002, 2.242064e+002
4.097567e+002, 2.167629e+002
4.102388e+002, 2.091995e+002
4.107209e+002, 2.011220e+002
4.112031e+002, 1.934795e+002
4.116852e+002, 1.863568e+002
4.121673e+002, 1.796846e+002
4.126494e+002, 1.733306e+002
4.131315e+002, 1.672803e+002
4.136136e+002, 1.616965e+002
4.140958e+002, 1.568512e+002
4.145779e+002, 1.528530e+002
4.150600e+002, 1.490789e+002
4.155421e+002, 1.456187e+002
4.160242e+002, 1.423252e+002
4.165063e+002, 1.391432e+002
4.169885e+002, 1.360767e+002
4.174706e+002, 1.332180e+002
4.179527e+002, 1.306367e+002
4.184348e+002, 1.282672e+002
4.189169e+002, 1.258143e+002
4.193990e+002, 1.231726e+002
4.198812e+002, 1.207161e+002
4.203633e+002, 1.187171e+002
4.208454e+002, 1.168719e+002
4.213275e+002, 1.148800e+002
4.218096e+002, 1.126656e+002
4.222917e+002, 1.104928e+002
4.227739e+002, 1.086628e+002
4.232560e+002, 1.071634e+002
4.237381e+002, 1.056695e+002
4.242202e+002, 1.041213e+002
4.247023e+002, 1.025906e+002
4.251844e+002, 1.010838e+002
4.256666e+002, 9.962132e+001
4.261487e+002, 9.827312e+001
4.266308e+002, 9.717001e+001
4.271129e+002, 9.614981e+001
4.275950e+002, 9.493388e+001
4.280771e+002, 9.349760e+001
4.285593e+002, 9.215063e+001
4.290414e+002, 9.106677e+001
4.295235e+002, 9.018948e+001
4.300056e+002, 8.937415e+001
4.304877e+002, 8.867585e+001
4.309698e+002, 8.791320e+001
4.314520e+002, 8.687697e+001
4.319341e+002, 8.573548e+001
4.324162e+002, 8.488423e+001
4.328983e+002, 8.445947e+001
4.333804e+002, 8.408241e+001
4.338625e+002, 8.324986e+001
4.343447e+002, 8.187006e+001
4.348268e+002, 8.084187e+001
4.353089e+002, 8.047439e+001
4.357910e+002, 8.022787e+001
4.362731e+002, 7.976815e+001
4.367552e+002, 7.911987e+001
4.372374e+002, 7.843034e+001
4.377195e+002, 7.777173e+001
4.382016e+002, 7.716341e+001
4.386837e+002, 7.669351e+001
4.391658e+002, 7.673246e+001
4.396479e+002, 7.642931e+001
4.401301e+002, 7.539867e+001
4.406122e+002, 7.418926e+001
4.410943e+002, 7.331247e+001
4.415764e+002, 7.287499e+001
4.420585e+002, 7.266744e+001
4.425406e+002, 7.247630e+001
4.430227e+002, 7.231042e+001
4.435049e+002, 7.209433e+001
4.439870e+002, 7.179366e+001
4.444691e+002, 7.147850e+001
4.449512e+002, 7.116018e+001
4.454333e+002, 7.084556e+001
4.459154e+002, 7.055186e+001
4.463976e+002, 7.029768e+001
4.468797e+002, 7.003158e+001
4.473618e+002, 6.959301e+001
4.478439e+002, 6.885421e+001
4.483260e+002, 6.832632e+001
4.488081e+002, 6.829846e+001
4.492903e+002, 6.836745e+001
4.497724e+002, 6.828050e+001
4.502545e+002, 6.802760e+001
4.507366e+002, 6.776320e+001
4.512187e+002, 6.766302e+001
4.517008e+002, 6.766048e+001
4.521830e+002, 6.743742e+001
4.526651e+002, 6.689339e+001
4.531472e+002, 6.636852e+001
4.536293e+002, 6.611031e+001
4.541114e+002, 6.598704e+001
4.545935e+002, 6.581852e+001
4.550757e+002, 6.555405e+001
4.555578e+002, 6.526388e+001
4.560399e+002, 6.494263e+001
4.565220e+002, 6.462732e+001
4.570041e+002, 6.451815e+001
4.574862e+002, 6.475039e+001
4.579684e+002, 6.504008e+001
4.584505e+002, 6.498983e+001
4.589326e+002, 6.461058e+001
4.594147e+002, 6.420826e+001
4.598968e+002, 6.376997e+001
4.603789e+002, 6.337994e+001
4.608611e+002, 6.313602e+001
4.613432e+002, 6.302211e+001
4.618253e+002, 6.293830e+001
4.623074e+002, 6.283381e+001
4.627895e+002, 6.270152e+001
4.632716e+002, 6.250539e+001
4.637538e+002, 6.208351e+001
4.642359e+002, 6.181315e+001
4.647180e+002, 6.189941e+001
4.652001e+002, 6.206715e+001
4.656822e+002, 6.199813e+001
4.661643e+002, 6.165054e+001
4.666465e+002, 6.125237e+001
4.671286e+002, 6.105049e+001
4.676107e+002, 6.105909e+001
4.680928e+002, 6.111380e+001
4.685749e+002, 6.142448e+001
4.690570e+002, 6.155256e+001
4.695392e+002, 6.125073e+001
4.700213e+002, 6.072388e+001
4.705034e+002, 6.023996e+001
4.709855e+002, 5.991024e+001
4.714676e+002, 5.976051e+001
4.719497e+002, 5.987883e+001
4.724319e+002, 6.033167e+001
4.729140e+002, 6.076269e+001
4.733961e+002, 6.123968e+001
4.738782e+002, 6.157045e+001
4.743603e+002, 6.157402e+001
4.748424e+002, 6.131052e+001
4.753246e+002, 6.103445e+001
4.758067e+002, 6.086800e+001
4.762888e+002, 6.080135e+001
4.767709e+002, 6.080293e+001
4.772530e+002, 6.086541e+001
4.777351e+002, 6.105274e+001
4.782173e+002, 6.150785e+001
4.786994e+002, 6.204635e+001
4.791815e+002, 6.235583e+001
4.796636e+002, 6.235739e+001
4.801457e+002, 6.237376e+001
4.806278e+002, 6.259866e+001
4.811100e+002, 6.293889e+001
4.815920e+002, 6.320974e+001
4.820742e+002, 6.337500e+001
4.825563e+002, 6.356422e+001
4.830384e+002, 6.392613e+001
4.835205e+002, 6.445161e+001
4.840026e+002, 6.480466e+001
4.844847e+002, 6.473006e+001
4.849669e+002, 6.476846e+001
4.854490e+002, 6.522820e+001
4.859311e+002, 6.593314e+001
4.864132e+002, 6.658548e+001
4.868953e+002, 6.707500e+001
4.873774e+002, 6.744542e+001
4.878596e+002, 6.775157e+001
4.883417e+002, 6.793413e+001
4.888238e+002, 6.822557e+001
4.893059e+002, 6.889545e+001
4.897880e+002, 6.940051e+001
4.902701e+002, 6.926942e+001
4.907523e+002, 6.876445e+001
4.912344e+002, 6.854096e+001
4.917165e+002, 6.904784e+001
4.921986e+002, 6.993924e+001
4.926807e+002, 7.023207e+001
4.931628e+002, 6.972209e+001
4.936450e+002, 6.917716e+001
4.941271e+002, 6.875890e+001
4.946092e+002, 6.835917e+001
4.950913e+002, 6.798454e+001
4.955734e+002, 6.760014e+001
4.960555e+002, 6.700422e+001
4.965377e+002, 6.592239e+001
4.970198e+002, 6.453817e+001
4.975019e+002, 6.340002e+001
4.979840e+002, 6.258209e+001
4.984661e+002, 6.170187e+001
4.989482e+002, 6.050403e+001
4.994304e+002, 5.910994e+001
4.999125e+002, 5.774609e+001
5.003946e+002, 5.637103e+001
5.008767e+002, 5.514544e+001
5.013588e+002, 5.414567e+001
5.018409e+002, 5.334150e+001
5.023231e+002, 5.271283e+001
5.028052e+002, 5.226026e+001
5.032873e+002, 5.182233e+001
5.037694e+002, 5.122803e+001
5.042515e+002, 5.046560e+001
5.047336e+002, 4.986131e+001
5.052158e+002, 4.944092e+001
5.056979e+002, 4.912941e+001
5.061800e+002, 4.903278e+001
5.066621e+002, 4.898783e+001
5.071442e+002, 4.871133e+001
5.076263e+002, 4.811162e+001
5.081085e+002, 4.741279e+001
5.085906e+002, 4.696626e+001
5.090727e+002, 4.683611e+001
5.095548e+002, 4.672509e+001
5.100369e+002, 4.667350e+001
5.105190e+002, 4.660057e+001
5.110012e+002, 4.646216e+001
5.114833e+002, 4.628091e+001
5.119654e+002, 4.609492e+001
5.124475e+002, 4.591586e+001
5.129296e+002, 4.576455e+001
5.134117e+002, 4.568036e+001
5.138939e+002, 4.566704e+001
5.143760e+002, 4.569738e+001
5.148581e+002, 4.583951e+001
5.153402e+002, 4.594659e+001
5.158223e+002, 4.588884e+001
5.163044e+002, 4.568365e+001
5.167866e+002, 4.545341e+001
5.172687e+002, 4.518718e+001
5.177508e+002, 4.495858e+001
5.182329e+002, 4.487004e+001
5.187150e+002, 4.491738e+001
5.191971e+002, 4.502424e+001
5.196793e+002, 4.515255e+001
5.201614e+002, 4.532197e+001
5.206435e+002, 4.561464e+001
5.211256e+002, 4.614212e+001
5.216077e+002, 4.645496e+001
5.220898e+002, 4.626390e+001
5.225720e+002, 4.597610e+001
5.230541e+002, 4.593332e+001
5.235362e+002, 4.615169e+001
5.240183e+002, 4.649678e+001
5.245004e+002, 4.688438e+001
5.249825e+002, 4.729874e+001
5.254647e+002, 4.766975e+001
5.259468e+002, 4.801887e+001
5.264289e+002, 4.828119e+001
5.269110e+002, 4.832608e+001
5.273931e+002, 4.837452e+001
5.278752e+002, 4.863390e+001
5.283574e+002, 4.910689e+001
5.288395e+002, 4.961517e+001
5.293216e+002, 4.997028e+001
5.298037e+002, 5.021841e+001
5.302858e+002, 5.065978e+001
5.307679e+002, 5.134567e+001
5.312501e+002, 5.210447e+001
5.317322e+002, 5.298300e+001
5.322143e+002, 5.383800e+001
5.326964e+002, 5.452002e+001
5.331785e+002, 5.499635e+001
5.336606e+002, 5.536357e+001
5.341428e+002, 5.579438e+001
5.346249e+002, 5.614244e+001
5.351070e+002, 5.601348e+001
5.355891e+002, 5.532785e+001
5.360712e+002, 5.457438e+001
5.365533e+002, 5.418911e+001
5.370355e+002, 5.405327e+001
5.375176e+002, 5.346528e+001
5.379997e+002, 5.211300e+001
5.384818e+002, 5.073325e+001
5.389639e+002, 4.948486e+001
5.394460e+002, 4.834034e+001
5.399282e+002, 4.728173e+001
5.404103e+002, 4.629803e+001
5.408924e+002, 4.533723e+001
5.413745e+002, 4.433635e+001
5.418566e+002, 4.328951e+001
5.423387e+002, 4.240541e+001
5.428209e+002, 4.181678e+001
5.433029e+002, 4.124814e+001
5.437850e+002, 4.060384e+001
5.442672e+002, 3.997263e+001
5.447493e+002, 3.948084e+001
5.452314e+002, 3.915575e+001
5.457135e+002, 3.887380e+001
5.461956e+002, 3.849811e+001
5.466777e+002, 3.803742e+001
5.471599e+002, 3.762315e+001
5.476420e+002, 3.729765e+001
5.481241e+002, 3.694514e+001
5.486062e+002, 3.638176e+001
5.490883e+002, 3.576824e+001
5.495704e+002, 3.538466e+001
5.500526e+002, 3.534953e+001
5.505347e+002, 3.539811e+001
5.510168e+002, 3.539159e+001
5.514989e+002, 3.534436e+001
5.519810e+002, 3.529241e+001
5.524631e+002, 3.524392e+001
5.529453e+002, 3.516187e+001
5.534274e+002, 3.500062e+001
5.539095e+002, 3.475913e+001
5.543916e+002, 3.457072e+001
5.548737e+002, 3.446298e+001
5.553558e+002, 3.436640e+001
5.558380e+002, 3.429946e+001
5.563201e+002, 3.421531e+001
5.568022e+002, 3.404211e+001
5.572843e+002, 3.376910e+001
5.577664e+002, 3.347147e+001
5.582485e+002, 3.322262e+001
5.587307e+002, 3.302259e+001
5.592128e+002, 3.291085e+001
5.596949e+002, 3.299256e+001
5.601770e+002, 3.301109e+001
5.606591e+002, 3.279909e+001
5.611412e+002, 3.252003e+001
5.616234e+002, 3.240110e+001
5.621055e+002, 3.251481e+001
5.625876e+002, 3.262098e+001
5.630697e+002, 3.249751e+001
5.635518e+002, 3.219677e+001
5.640339e+002, 3.186520e+001
5.645161e+002, 3.149693e+001
5.649982e+002, 3.121004e+001
5.654803e+002, 3.110694e+001
5.659624e+002, 3.116096e+001
5.664445e+002, 3.121656e+001
5.669266e+002, 3.124685e+001
5.674088e+002, 3.131640e+001
5.678909e+002, 3.151208e+001
5.683730e+002, 3.172842e+001
5.688551e+002, 3.182135e+001
5.693372e+002, 3.177305e+001
5.698193e+002, 3.167773e+001
5.703015e+002, 3.162131e+001
5.707836e+002, 3.160096e+001
5.712657e+002, 3.156802e+001
5.717478e+002, 3.154725e+001
5.722299e+002, 3.147654e+001
5.727120e+002, 3.129801e+001
5.731942e+002, 3.109748e+001
5.736763e+002, 3.097273e+001
5.741584e+002, 3.092847e+001
5.746405e+002, 3.086581e+001
5.751226e+002, 3.065029e+001
5.756047e+002, 3.033835e+001
5.760869e+002, 3.018878e+001
5.765690e+002, 3.024252e+001
5.770511e+002, 3.028599e+001
5.775332e+002, 3.020192e+001
5.780153e+002, 3.005786e+001
5.784974e+002, 2.996168e+001
5.789796e+002, 2.991957e+001
5.794617e+002, 2.990550e+001
5.799438e+002, 2.996178e+001
5.804259e+002, 3.001031e+001
5.809080e+002, 2.992040e+001
5.813901e+002, 2.971173e+001
5.818723e+002, 2.956546e+001
5.823544e+002, 2.961077e+001
5.828365e+002, 2.977430e+001
5.833186e+002, 2.980370e+001
5.838007e+002, 2.955595e+001
5.842828e+002, 2.938987e+001
5.847650e+002, 2.942306e+001
5.852471e+002, 2.944090e+001
5.857292e+002, 2.921709e+001
5.862113e+002, 2.884003e+001
5.866934e+002, 2.862405e+001
5.871755e+002, 2.880971e+001
5.876577e+002, 2.919561e+001
5.881398e+002, 2.930310e+001
5.886219e+002, 2.909083e+001
5.891040e+002, 2.887674e+001
5.895861e+002, 2.870245e+001
5.900682e+002, 2.859002e+001
5.905504e+002, 2.859677e+001
5.910325e+002, 2.869786e+001
5.915146e+002, 2.872869e+001
5.919967e+002, 2.855555e+001
5.924788e+002, 2.836306e+001
5.929609e+002, 2.831052e+001
5.934431e+002, 2.836977e+001
5.939252e+002, 2.846424e+001
5.944073e+002, 2.857025e+001
5.948894e+002, 2.865914e+001
5.953715e+002, 2.868315e+001
5.958536e+002, 2.861457e+001
5.963358e+002, 2.860856e+001
5.968179e+002, 2.877485e+001
5.973000e+002, 2.887304e+001
5.977821e+002, 2.876057e+001
5.982642e+002, 2.854815e+001
5.987463e+002, 2.839025e+001
5.992285e+002, 2.834014e+001
5.997106e+002, 2.835359e+001
6.001927e+002, 2.837176e+001
6.006748e+002, 2.839675e+001
6.011569e+002, 2.851007e+001
6.016390e+002, 2.878991e+001
6.021212e+002, 2.899755e+001
6.026033e+002, 2.890393e+001
6.030854e+002, 2.867771e+001
6.035675e+002, 2.859754e+001
6.040496e+002, 2.877155e+001
6.045317e+002, 2.886546e+001
6.050139e+002, 2.857852e+001
6.054960e+002, 2.816575e+001
6.059781e+002, 2.802750e+001
6.064602e+002, 2.819272e+001
6.069423e+002, 2.842381e+001
6.074244e+002, 2.856605e+001
6.079066e+002, 2.862024e+001
6.083887e+002, 2.858408e+001
6.088708e+002, 2.824589e+001
6.093529e+002, 2.812843e+001
6.098350e+002, 2.848375e+001
6.103171e+002, 2.886954e+001
6.107993e+002, 2.895932e+001
6.112814e+002, 2.878444e+001
6.117635e+002, 2.856396e+001
6.122456e+002, 2.841652e+001
6.127277e+002, 2.834021e+001
6.132098e+002, 2.835066e+001
6.136920e+002, 2.845724e+001
6.141741e+002, 2.854146e+001
6.146562e+002, 2.857779e+001
6.151383e+002, 2.857798e+001
6.156204e+002, 2.852886e+001
6.161025e+002, 2.844313e+001
6.165847e+002, 2.840665e+001
6.170668e+002, 2.845702e+001
6.175489e+002, 2.854138e+001
6.180310e+002, 2.863649e+001
6.185131e+002, 2.873925e+001
6.189952e+002, 2.884666e+001
6.194774e+002, 2.895760e+001
6.199595e+002, 2.907357e+001
6.204416e+002, 2.920979e+001
6.209237e+002, 2.937696e+001
6.214058e+002, 2.940666e+001
6.218879e+002, 2.915506e+001
6.223701e+002, 2.893882e+001
6.228522e+002, 2.882106e+001
6.233343e+002, 2.877127e+001
6.238164e+002, 2.877552e+001
6.242985e+002, 2.882441e+001
6.247806e+002, 2.886920e+001
6.252628e+002, 2.883384e+001
6.257448e+002, 2.876914e+001
6.262269e+002, 2.884031e+001
6.267090e+002, 2.906475e+001
6.271912e+002, 2.925509e+001
6.276733e+002, 2.932425e+001
6.281554e+002, 2.931249e+001
6.286375e+002, 2.928955e+001
6.291196e+002, 2.925694e+001
6.296017e+002, 2.921119e+001
6.300839e+002, 2.909631e+001
6.305660e+002, 2.901706e+001
6.310481e+002, 2.908294e+001
6.315302e+002, 2.924088e+001
6.320123e+002, 2.934848e+001
6.324944e+002, 2.933978e+001
6.329766e+002, 2.929853e+001
6.334587e+002, 2.939010e+001
6.339408e+002, 2.966381e+001
6.344229e+002, 2.981120e+001
6.349050e+002, 2.971341e+001
6.353871e+002, 2.963767e+001
6.358693e+002, 2.971571e+001
6.363514e+002, 2.988253e+001
6.368335e+002, 3.005582e+001
6.373156e+002, 3.023135e+001
6.377977e+002, 3.033979e+001
6.382798e+002, 3.025154e+001
6.387620e+002, 3.008604e+001
6.392441e+002, 2.982763e+001
6.397262e+002, 2.952171e+001
6.402083e+002, 3.024566e+001
6.406904e+002, 3.310546e+001
6.411725e+002, 3.705263e+001
6.416547e+002, 3.856860e+001
6.421368e+002, 3.534556e+001
6.426189e+002, 3.299342e+001
6.431010e+002, 3.181643e+001
6.435831e+002, 3.123515e+001
6.440652e+002, 3.108228e+001
6.445474e+002, 3.120185e+001
6.450295e+002, 3.137454e+001
6.455116e+002, 3.150038e+001
6.459937e+002, 3.155447e+001
6.464758e+002, 3.141619e+001
6.469579e+002, 3.108902e+001
6.474401e+002, 3.102631e+001
6.479222e+002, 3.137378e+001
6.484043e+002, 3.183083e+001
6.488864e+002, 3.223059e+001
6.493685e+002, 3.255826e+001
6.498506e+002, 3.274784e+001
6.503328e+002, 3.269615e+001
6.508149e+002, 3.265843e+001
6.512970e+002, 3.272860e+001
6.517791e+002, 3.286990e+001
6.522612e+002, 3.309726e+001
6.527433e+002, 3.337308e+001
6.532255e+002, 3.351608e+001
6.537076e+002, 3.336170e+001
6.541897e+002, 3.303609e+001
6.546718e+002, 3.304022e+001
6.551539e+002, 3.355293e+001
6.556360e+002, 3.396101e+001
6.561182e+002, 3.412089e+001
6.566003e+002, 3.420359e+001
6.570824e+002, 3.424929e+001
6.575645e+002, 3.429013e+001
6.580466e+002, 3.439960e+001
6.585287e+002, 3.460273e+001
6.590109e+002, 3.488851e+001
6.594930e+002, 3.534306e+001
6.599751e+002, 3.586876e+001
6.604572e+002, 3.615996e+001
6.609393e+002, 3.614448e+001
6.614214e+002, 3.607439e+001
6.619036e+002, 3.617812e+001
6.623857e+002, 3.643276e+001
6.628678e+002, 3.658684e+001
6.633499e+002, 3.651969e+001
6.638320e+002, 3.651160e+001
6.643141e+002, 3.666307e+001
6.647963e+002, 3.682434e+001
6.652784e+002, 3.682933e+001
6.657605e+002, 3.672059e+001
6.662426e+002, 3.670448e+001
6.667247e+002, 3.693660e+001
6.672068e+002, 3.728692e+001
6.676890e+002, 3.752863e+001
6.681711e+002, 3.766412e+001
6.686532e+002, 3.777122e+001
6.691353e+002, 3.786393e+001
6.696174e+002, 3.793818e+001
6.700995e+002, 3.798511e+001
6.705817e+002, 3.800624e+001
6.710638e+002, 3.802472e+001
6.715459e+002, 3.802425e+001
6.720280e+002, 3.804115e+001
6.725101e+002, 3.807368e+001
6.729922e+002, 3.813679e+001
6.734744e+002, 3.829645e+001
6.739565e+002, 3.852287e+001
6.744386e+002, 3.864892e+001
6.749207e+002, 3.851763e+001
6.754028e+002, 3.824207e+001
6.758849e+002, 3.820222e+001
6.763671e+002, 3.844202e+001
6.768492e+002, 3.873211e+001
6.773313e+002, 3.911716e+001
6.778134e+002, 3.943954e+001
6.782955e+002, 3.956005e+001
6.787776e+002, 3.951783e+001
6.792598e+002, 3.944274e+001
6.797419e+002, 3.927117e+001
6.802240e+002, 3.919319e+001
6.807061e+002, 3.939143e+001
6.811882e+002, 3.972843e+001
6.816703e+002, 4.001213e+001
6.821525e+002, 4.019930e+001
6.826346e+002, 4.029519e+001
6.831167e+002, 4.028700e+001
6.835988e+002, 4.021112e+001
6.840809e+002, 4.025329e+001
6.845630e+002, 4.047073e+001
6.850452e+002, 4.068092e+001
6.855273e+002, 4.083389e+001
6.860094e+002, 4.099511e+001
6.864915e+002, 4.122619e+001
6.869736e+002, 4.149797e+001
6.874557e+002, 4.172641e+001
6.879379e+002, 4.188700e+001
6.884200e+002, 4.197972e+001
6.889021e+002, 4.175480e+001
6.893842e+002, 4.149967e+001
6.898663e+002, 4.189351e+001
6.903484e+002, 4.306121e+001
6.908306e+002, 4.479948e+001
6.913127e+002, 4.709039e+001
6.917948e+002, 4.972402e+001
6.922769e+002, 5.173368e+001
6.927590e+002, 5.388485e+001
6.932411e+002, 5.407733e+001
6.937233e+002, 5.019881e+001
6.942054e+002, 4.632081e+001
6.946875e+002, 4.512576e+001
6.951696e+002, 4.596238e+001
6.956517e+002, 4.673994e+001
6.961339e+002, 4.653825e+001
6.966160e+002, 4.598093e+001
6.970981e+002, 4.565120e+001
6.975802e+002, 4.553798e+001
6.980623e+002, 4.564557e+001
6.985444e+002, 4.598834e+001
6.990266e+002, 4.631566e+001
6.995087e+002, 4.636058e+001
6.999908e+002, 4.630994e+001
7.004729e+002, 4.688801e+001
7.009550e+002, 4.888965e+001
7.014371e+002, 5.029753e+001
7.019193e+002, 5.102078e+001
7.024014e+002, 5.120482e+001
7.028835e+002, 5.057936e+001
7.033656e+002, 4.954186e+001
7.038477e+002, 4.886432e+001
7.043298e+002, 4.889774e+001
7.048120e+002, 4.922850e+001
7.052941e+002, 4.935239e+001
7.057762e+002, 4.933083e+001
7.062583e+002, 4.950206e+001
7.067404e+002, 4.992835e+001
7.072225e+002, 5.031657e+001
7.077046e+002, 5.045066e+001
7.081867e+002, 5.046857e+001
7.086688e+002, 5.075324e+001
7.091509e+002, 5.149818e+001
7.096331e+002, 5.200103e+001
7.101152e+002, 5.194220e+001
7.105973e+002, 5.189785e+001
7.110794e+002, 5.228638e+001
7.115615e+002, 5.291164e+001
7.120436e+002, 5.339309e+001
7.125258e+002, 5.359476e+001
7.130079e+002, 5.365965e+001
7.134900e+002, 5.367068e+001
7.139721e+002, 5.367076e+001
7.144542e+002, 5.394576e+001
7.149363e+002, 5.454707e+001
7.154185e+002, 5.513807e+001
7.159006e+002, 5.556037e+001
7.163827e+002, 5.588802e+001
7.168648e+002, 5.622613e+001
7.173469e+002, 5.655761e+001
7.178290e+002, 5.698880e+001
7.183112e+002, 5.765963e+001
7.187933e+002, 5.829089e+001
7.192754e+002, 5.868130e+001
7.197575e+002, 5.896974e+001
7.202396e+002, 5.939412e+001
7.207217e+002, 5.999810e+001
7.212039e+002, 6.058612e+001
7.216860e+002, 6.093579e+001
7.221681e+002, 6.112240e+001
7.226502e+002, 6.143315e+001
7.231323e+002, 6.187568e+001
7.236144e+002, 6.239794e+001
7.240966e+002, 6.299746e+001
7.245787e+002, 6.364767e+001
7.250608e+002, 6.432543e+001
7.255429e+002, 6.503548e+001
7.260250e+002, 6.572402e+001
7.265071e+002, 6.639380e+001
7.269893e+002, 6.704055e+001
7.274714e+002, 6.759936e+001
7.279535e+002, 6.817371e+001
7.284356e+002, 6.891516e+001
7.289177e+002, 6.980642e+001
7.293998e+002, 7.065809e+001
7.298820e+002, 7.131717e+001
7.303641e+002, 7.187138e+001
7.308462e+002, 7.249401e+001
7.313283e+002, 7.318092e+001
7.318104e+002, 7.406381e+001
7.322925e+002, 7.525726e+001
7.327747e+002, 7.644090e+001
7.332568e+002, 7.731152e+001
7.337389e+002, 7.793925e+001
7.342210e+002, 7.871938e+001
7.347031e+002, 7.975327e+001
7.351852e+002, 8.077139e+001
7.356674e+002, 8.163883e+001
7.361495e+002, 8.253777e+001
7.366316e+002, 8.371406e+001
7.371137e+002, 8.505974e+001
7.375958e+002, 8.623069e+001
7.380779e+002, 8.705284e+001
7.385601e+002, 8.776855e+001
7.390422e+002, 8.872519e+001
7.395243e+002, 8.990615e+001
7.400064e+002, 9.117966e+001
7.404885e+002, 9.253345e+001
7.409706e+002, 9.399386e+001
7.414528e+002, 9.570361e+001
7.419349e+002, 9.743077e+001
7.424170e+002, 9.854642e+001
7.428991e+002, 9.872338e+001
7.433812e+002, 9.947031e+001
7.438633e+002, 1.014572e+002
7.443455e+002, 1.034718e+002
7.448276e+002, 1.048422e+002
7.453097e+002, 1.058323e+002
7.457918e+002, 1.068563e+002
7.462739e+002, 1.080443e+002
7.467560e+002, 1.093779e+002
7.472382e+002, 1.108732e+002
7.477203e+002, 1.124881e+002
7.482024e+002, 1.140695e+002
7.486845e+002, 1.156181e+002
7.491666e+002, 1.172776e+002
7.496487e+002, 1.191504e+002
7.501309e+002, 1.210107e+002
7.506130e+002, 1.225650e+002
7.510951e+002, 1.237776e+002
7.515772e+002, 1.252506e+002
7.520593e+002, 1.269650e+002
7.525414e+002, 1.289328e+002
7.530236e+002, 1.313956e+002
7.535057e+002, 1.339474e+002
7.539878e+002, 1.361652e+002
7.544699e+002, 1.380942e+002
7.549520e+002, 1.401246e+002
7.554341e+002, 1.424814e+002
7.559163e+002, 1.450567e+002
7.563984e+002, 1.477355e+002
7.568805e+002, 1.505083e+002
7.573626e+002, 1.532269e+002
7.578447e+002, 1.558561e+002
7.583268e+002, 1.587160e+002
7.588090e+002, 1.620526e+002
7.592911e+002, 1.657793e+002
7.597732e+002, 1.696109e+002
7.602553e+002, 1.734162e+002
7.607374e+002, 1.776138e+002
7.612195e+002, 1.823210e+002
7.617017e+002, 1.872543e+002
7.621838e+002, 1.921218e+002
7.626659e+002, 1.971779e+002
7.631480e+002, 2.028939e+002
7.636301e+002, 2.093965e+002
7.641122e+002, 2.162944e+002
7.645944e+002, 2.232091e+002
7.650765e+002, 2.303849e+002
7.655586e+002, 2.381362e+002
7.660407e+002, 2.465311e+002
7.665228e+002, 2.555953e+002
7.670049e+002, 2.653851e+002
7.674871e+002, 2.756956e+002
7.679692e+002, 2.861653e+002
7.684513e+002, 2.968554e+002
7.689334e+002, 3.080360e+002
7.694155e+002, 3.195832e+002
7.698976e+002, 3.319235e+002
7.703798e+002, 3.450161e+002
7.708619e+002, 3.590216e+002
7.713440e+002, 3.741426e+002
7.718261e+002, 3.902492e+002
7.723082e+002, 4.067220e+002
7.727903e+002, 4.232897e+002
7.732725e+002, 4.402223e+002
7.737546e+002, 4.575664e+002
7.742367e+002, 4.753714e+002
7.747188e+002, 4.937994e+002
7.752009e+002, 5.128109e+002
7.756830e+002, 5.320790e+002
7.761652e+002, 5.514884e+002
7.766473e+002, 5.710684e+002
7.771294e+002, 5.908090e+002
7.776115e+002, 6.107465e+002
7.780936e+002, 6.310400e+002
7.785757e+002, 6.524539e+002
7.790579e+002, 6.728684e+002
7.795400e+002, 6.907000e+002
7.800221e+002, 7.069192e+002
7.805042e+002, 7.232804e+002
7.809863e+002, 7.405147e+002
7.814684e+002, 7.551400e+002
7.819506e+002, 7.663715e+002
7.824327e+002, 7.746893e+002
7.829148e+002, 7.803747e+002
7.833969e+002, 7.834122e+002
7.838790e+002, 7.837786e+002
7.843611e+002, 7.814404e+002
7.848433e+002, 7.762015e+002
7.853254e+002, 7.676885e+002
7.858075e+002, 7.562520e+002
7.862896e+002, 7.428533e+002
7.867717e+002, 7.275330e+002
7.872538e+002, 7.105700e+002
7.877360e+002, 6.917076e+002
7.882181e+002, 6.721960e+002
7.887002e+002, 6.530872e+002
7.891823e+002, 6.343986e+002
7.896644e+002, 6.169424e+002
7.901465e+002, 6.006613e+002
7.906286e+002, 5.855383e+002
7.911107e+002, 5.719828e+002
7.915928e+002, 5.592139e+002
7.920750e+002, 5.461104e+002
7.925571e+002, 5.334749e+002
7.930392e+002, 5.228983e+002
7.935213e+002, 5.150381e+002
7.940034e+002, 5.089086e+002
7.944855e+002, 5.040396e+002
7.949677e+002, 5.001440e+002
7.954498e+002, 4.966201e+002
7.959319e+002, 4.935127e+002
7.964140e+002, 4.914136e+002
7.968961e+002, 4.905396e+002
7.973782e+002, 4.909306e+002
7.978604e+002, 4.927327e+002
7.983425e+002, 4.960011e+002
7.988246e+002, 4.995611e+002
7.993067e+002, 5.030316e+002
7.997888e+002, 5.074986e+002
8.002709e+002, 5.132565e+002
8.007531e+002, 5.201032e+002
8.012352e+002, 5.277000e+002
8.017173e+002, 5.362076e+002
8.021994e+002, 5.462651e+002
8.026815e+002, 5.580090e+002
8.031636e+002, 5.713562e+002
8.036458e+002, 5.860592e+002
8.041279e+002, 6.023602e+002
8.046100e+002, 6.208390e+002
8.050921e+002, 6.411638e+002
8.055742e+002, 6.623923e+002
8.060563e+002, 6.838371e+002
8.065385e+002, 7.063760e+002
8.070206e+002, 7.315627e+002
8.075027e+002, 7.592723e+002
8.079848e+002, 7.869124e+002
8.084669e+002, 8.142062e+002
8.089490e+002, 8.428700e+002
8.094312e+002, 8.732546e+002
8.099133e+002, 9.057627e+002
8.103954e+002, 9.412775e+002
8.108775e+002, 9.803176e+002
8.113596e+002, 1.019176e+003
8.118417e+002, 1.055975e+003
8.123239e+002, 1.094776e+003
8.128060e+002, 1.136470e+003
8.132881e+002, 1.180694e+003
8.137702e+002, 1.226840e+003
8.142523e+002, 1.274763e+003
8.147344e+002, 1.324431e+003
8.152166e+002, 1.376092e+003
8.156987e+002, 1.428730e+003
8.161808e+002, 1.481242e+003
8.166629e+002, 1.533334e+003
8.171450e+002, 1.585404e+003
8.176271e+002, 1.636971e+003
8.181093e+002, 1.684778e+003
8.185914e+002, 1.727192e+003
8.190735e+002, 1.763417e+003
8.195556e+002, 1.792320e+003
8.200377e+002, 1.814357e+003
8.205198e+002, 1.826175e+003
8.210020e+002, 1.827827e+003
8.214841e+002, 1.819195e+003
8.219662e+002, 1.798432e+003
8.224483e+002, 1.768294e+003
8.229304e+002, 1.731239e+003
8.234125e+002, 1.687400e+003
8.238947e+002, 1.639878e+003
8.243768e+002, 1.586556e+003
8.248589e+002, 1.533246e+003
8.253410e+002, 1.480720e+003
8.258231e+002, 1.430412e+003
8.263052e+002, 1.383437e+003
8.267874e+002, 1.340331e+003
8.272695e+002, 1.301967e+003
8.277516e+002, 1.268694e+003
8.282337e+002, 1.240155e+003
8.287158e+002, 1.215473e+003
8.291979e+002, 1.194970e+003
8.296801e+002, 1.180138e+003
8.301622e+002, 1.171171e+003
8.306443e+002, 1.167005e+003
8.311264e+002, 1.167418e+003
8.316085e+002, 1.171645e+003
8.320906e+002, 1.178446e+003
8.325728e+002, 1.187657e+003
8.330549e+002, 1.200240e+003
8.335370e+002, 1.216235e+003
8.340191e+002, 1.235559e+003
8.345012e+002, 1.257931e+003
8.349833e+002, 1.283403e+003
8.354655e+002, 1.312517e+003
8.359476e+002, 1.344997e+003
8.364297e+002, 1.379852e+003
8.369118e+002, 1.415813e+003
8.373939e+002, 1.455580e+003
8.378760e+002, 1.501646e+003
8.383582e+002, 1.551860e+003
8.388403e+002, 1.603998e+003
8.393224e+002, 1.657975e+003
8.398045e+002, 1.714826e+003
8.402866e+002, 1.774948e+003
8.407687e+002, 1.837193e+003
8.412509e+002, 1.900932e+003
8.417330e+002, 1.965223e+003
8.422151e+002, 2.024334e+003
8.426972e+002, 2.077911e+003
8.431793e+002, 2.126193e+003
8.436614e+002, 2.169452e+003
8.441436e+002, 2.205849e+003
8.446257e+002, 2.234085e+003
8.451078e+002, 2.254043e+003
8.455899e+002, 2.258239e+003
8.460720e+002, 2.243157e+003
8.465541e+002, 2.216684e+003
8.470363e+002, 2.177958e+003
8.475184e+002, 2.129842e+003
8.480005e+002, 2.071147e+003
8.484826e+002, 2.004787e+003
8.489647e+002, 1.935515e+003
8.494468e+002, 1.863324e+003
8.499290e+002, 1.793913e+003
8.504111e+002, 1.727753e+003
8.508932e+002, 1.667623e+003
8.513753e+002, 1.614636e+003
8.518574e+002, 1.569828e+003
8.523395e+002, 1.535217e+003
8.528217e+002, 1.511467e+003
8.533038e+002, 1.496841e+003
8.537859e+002, 1.490198e+003
8.542680e+002, 1.491337e+003
8.547501e+002, 1.499926e+003
8.552322e+002, 1.515965e+003
8.557144e+002, 1.538624e+003
8.561965e+002, 1.567986e+003
8.566786e+002, 1.602620e+003
8.571607e+002, 1.641792e+003
8.576428e+002, 1.684915e+003
8.581249e+002, 1.730728e+003
8.586071e+002, 1.781070e+003
8.590892e+002, 1.829818e+003
8.595713e+002, 1.877039e+003
8.600534e+002, 1.922591e+003
8.605355e+002, 1.969004e+003
8.610176e+002, 2.012439e+003
8.614998e+002, 2.049252e+003
8.619819e+002, 2.078875e+003
8.624640e+002, 2.100155e+003
8.629461e+002, 2.111617e+003
8.634282e+002, 2.115995e+003
8.639103e+002, 2.113804e+003
8.643925e+002, 2.106405e+003
8.648746e+002, 2.094574e+003
8.653567e+002, 2.079223e+003
8.658388e+002, 2.063203e+003
8.663209e+002, 2.048362e+003
8.668030e+002, 2.032184e+003
8.672852e+002, 2.011116e+003
8.677673e+002, 1.985460e+003
8.682494e+002, 1.957102e+003
8.687315e+002, 1.926295e+003
8.692136e+002, 1.889363e+003
8.696957e+002, 1.844580e+003
8.701779e+002, 1.793105e+003
8.706600e+002, 1.736738e+003
8.711421e+002, 1.675372e+003
8.716242e+002, 1.610240e+003
8.721063e+002, 1.539208e+003
8.725884e+002, 1.468143e+003
8.730705e+002, 1.397174e+003
8.735526e+002, 1.327795e+003
8.740347e+002, 1.260669e+003
8.745168e+002, 1.196153e+003
8.749990e+002, 1.133505e+003
8.754811e+002, 1.072427e+003
8.759632e+002, 1.015201e+003
8.764453e+002, 9.629169e+002
8.769274e+002, 9.148795e+002
8.774095e+002, 8.706938e+002
8.778917e+002, 8.304182e+002
8.783738e+002, 7.942737e+002
8.788559e+002, 7.622396e+002
8.793380e+002, 7.334994e+002
8.798201e+002, 7.075552e+002
8.803022e+002, 6.844313e+002
8.807844e+002, 6.642852e+002
8.812665e+002, 6.469004e+002
8.817486e+002, 6.317704e+002
8.822307e+002, 6.187640e+002
8.827128e+002, 6.076588e+002
8.831949e+002, 5.984589e+002
8.836771e+002, 5.907056e+002
8.841592e+002, 5.834547e+002
8.846413e+002, 5.765789e+002
8.851234e+002, 5.712520e+002
8.856055e+002, 5.683815e+002
8.860876e+002, 5.647997e+002
8.865698e+002, 5.593172e+002
8.870519e+002, 5.527307e+002
8.875340e+002, 5.458723e+002
8.880161e+002, 5.387130e+002
8.884982e+002, 5.305685e+002
8.889803e+002, 5.216794e+002
8.894625e+002, 5.114577e+002
8.899446e+002, 4.993084e+002
8.904267e+002, 4.862099e+002
8.909088e+002, 4.730820e+002
8.913909e+002, 4.594664e+002
8.918730e+002, 4.442793e+002
8.923552e+002, 4.270708e+002
8.928373e+002, 4.096324e+002
8.933194e+002, 3.925830e+002
8.938015e+002, 3.762632e+002
8.942836e+002, 3.612511e+002
8.947657e+002, 3.472472e+002
8.952479e+002, 3.336152e+002
8.957300e+002, 3.203874e+002
8.962121e+002, 3.083236e+002
8.966942e+002, 2.980836e+002
8.971763e+002, 2.893130e+002
8.976584e+002, 2.814546e+002
8.981406e+002, 2.745078e+002
8.986227e+002, 2.681226e+002
8.991048e+002, 2.622532e+002
8.995869e+002, 2.573524e+002
9.000690e+002, 2.536710e+002
9.005511e+002, 2.508979e+002
9.010333e+002, 2.485682e+002
9.015154e+002, 2.466726e+002
9.019975e+002, 2.454236e+002
9.024796e+002, 2.447670e+002
9.029617e+002, 2.448602e+002
9.034438e+002, 2.461006e+002
9.039260e+002, 2.477575e+002
9.044081e+002, 2.493543e+002
9.048902e+002, 2.509742e+002
9.053723e+002, 2.528102e+002
9.058544e+002, 2.548619e+002
9.063365e+002, 2.571749e+002
9.068187e+002, 2.599720e+002
9.073008e+002, 2.627992e+002
9.077829e+002, 2.654091e+002
9.082650e+002, 2.678351e+002
9.087471e+002, 2.701769e+002
9.092292e+002, 2.724287e+002
9.097114e+002, 2.745071e+002
9.101935e+002, 2.763340e+002
9.106756e+002, 2.779873e+002
9.111577e+002, 2.798055e+002
9.116398e+002, 2.814092e+002
9.121219e+002, 2.820006e+002
9.126041e+002, 2.816224e+002
9.130862e+002, 2.809541e+002
9.135683e+002, 2.803182e+002
9.140504e+002, 2.792869e+002
9.145325e+002, 2.773319e+002
9.150146e+002, 2.744760e+002
9.154968e+002, 2.706825e+002
9.159789e+002, 2.659260e+002
9.164610e+002, 2.606700e+002
9.169431e+002, 2.548237e+002
9.174252e+002, 2.492529e+002
9.179073e+002, 2.446383e+002
9.183895e+002, 2.408302e+002
9.188716e+002, 2.372732e+002
9.193537e+002, 2.339471e+002
9.198358e+002, 2.308569e+002
9.203179e+002, 2.281921e+002
9.208000e+002, 2.254842e+002
9.212822e+002, 2.226314e+002
9.217643e+002, 2.195823e+002
9.222464e+002, 2.163388e+002
9.227285e+002, 2.128898e+002
9.232106e+002, 2.090560e+002
9.236927e+002, 2.049545e+002
9.241749e+002, 2.002762e+002
9.246570e+002, 1.948024e+002
9.251391e+002, 1.888469e+002
9.256212e+002, 1.827077e+002
9.261033e+002, 1.762954e+002
9.265854e+002, 1.692345e+002
9.270676e+002, 1.613930e+002
9.275497e+002, 1.537664e+002
9.280318e+002, 1.469613e+002
9.285139e+002, 1.407892e+002
9.289960e+002, 1.350366e+002
9.294781e+002, 1.297200e+002
9.299603e+002, 1.248758e+002
9.304424e+002, 1.204701e+002
9.309245e+002, 1.164010e+002
9.314066e+002, 1.125893e+002
9.318887e+002, 1.091547e+002
9.323708e+002, 1.064832e+002
9.328530e+002, 1.043843e+002
9.333351e+002, 1.020433e+002
9.338172e+002, 9.943787e+001
9.342993e+002, 9.687627e+001
9.347814e+002, 9.447417e+001
9.352635e+002, 9.233556e+001
9.357457e+002, 9.061497e+001
9.362278e+002, 8.923924e+001
9.367099e+002, 8.775981e+001
9.371920e+002, 8.611112e+001
9.376741e+002, 8.462447e+001
9.381563e+002, 8.329678e+001
9.386384e+002, 8.223856e+001
9.391205e+002, 8.170432e+001
9.396026e+002, 8.130447e+001
9.400847e+002, 8.026826e+001
9.405668e+002, 7.842738e+001
9.410490e+002, 7.696004e+001
9.415311e+002, 7.610890e+001
9.420132e+002, 7.527966e+001
9.424953e+002, 7.425735e+001
9.429774e+002, 7.331347e+001
9.434595e+002, 7.276048e+001
9.439417e+002, 7.243210e+001
9.444238e+002, 7.185665e+001
9.449059e+002, 7.083543e+001
9.453880e+002, 6.997900e+001
9.458701e+002, 6.967673e+001
9.463522e+002, 6.942051e+001
9.468344e+002, 6.893137e+001
9.473165e+002, 6.825370e+001
9.477986e+002, 6.739617e+001
9.482807e+002, 6.642440e+001
9.487628e+002, 6.554342e+001
9.492449e+002, 6.486536e+001
9.497271e+002, 6.430914e+001
9.502092e+002, 6.386331e+001
9.506913e+002, 6.344674e+001
9.511734e+002, 6.283267e+001
9.516555e+002, 6.212676e+001
9.521376e+002, 6.176377e+001
9.526198e+002, 6.185867e+001
9.531019e+002, 6.195581e+001
9.535840e+002, 6.162306e+001
9.540661e+002, 6.097430e+001
9.545482e+002, 6.017211e+001
9.550303e+002, 5.927330e+001
9.555124e+002, 5.869801e+001
9.559945e+002, 5.850158e+001
9.564766e+002, 5.838832e+001
9.569587e+002, 5.821926e+001
9.574409e+002, 5.792315e+001
9.579230e+002, 5.734176e+001
9.584051e+002, 5.648027e+001
9.588872e+002, 5.589631e+001
9.593693e+002, 5.565607e+001
9.598514e+002, 5.539674e+001
9.603336e+002, 5.502190e+001
9.608157e+002, 5.466444e+001
9.612978e+002, 5.448249e+001
9.617799e+002, 5.435846e+001
9.622620e+002, 5.393224e+001
9.627441e+002, 5.301917e+001
9.632263e+002, 5.237819e+001
9.637084e+002, 5.218755e+001
9.641905e+002, 5.203271e+001
9.646726e+002, 5.181202e+001
9.651547e+002, 5.157505e+001
9.656368e+002, 5.138445e+001
9.661190e+002, 5.121831e+001
9.666011e+002, 5.098332e+001
9.670832e+002, 5.072545e+001
9.675653e+002, 5.028049e+001
9.680474e+002, 4.931481e+001
9.685295e+002, 4.847456e+001
9.690117e+002, 4.827406e+001
9.694938e+002, 4.834363e+001
9.699759e+002, 4.815510e+001
9.704580e+002, 4.767500e+001
9.709401e+002, 4.728476e+001
9.714222e+002, 4.721449e+001
9.719044e+002, 4.717564e+001
9.723865e+002, 4.707357e+001
9.728686e+002, 4.684301e+001
9.733507e+002, 4.627698e+001
9.738328e+002, 4.555622e+001
9.743149e+002, 4.509795e+001
9.747971e+002, 4.501263e+001
9.752792e+002, 4.502010e+001
9.757613e+002, 4.492323e+001
9.762434e+002, 4.477342e+001
9.767255e+002, 4.467187e+001
9.772076e+002, 4.455931e+001
9.776898e+002, 4.424718e+001
9.781719e+002, 4.376963e+001
9.786540e+002, 4.340697e+001
9.791361e+002, 4.328999e+001
9.796182e+002, 4.326964e+001
9.801003e+002, 4.318272e+001
9.805825e+002, 4.303455e+001
9.810646e+002, 4.280967e+001
9.815467e+002, 4.252717e+001
9.820288e+002, 4.235993e+001
9.825109e+002, 4.234243e+001
9.829930e+002, 4.234271e+001
9.834752e+002, 4.229078e+001
9.839573e+002, 4.213055e+001
9.844394e+002, 4.169329e+001
9.849215e+002, 4.097602e+001
9.854036e+002, 4.055836e+001
9.858857e+002, 4.049570e+001
9.863679e+002, 4.039746e+001
9.868500e+002, 4.013350e+001
9.873321e+002, 3.990054e+001
9.878142e+002, 3.986685e+001
9.882963e+002, 3.997935e+001
9.887784e+002, 4.009389e+001
9.892606e+002, 4.028150e+001
9.897427e+002, 4.019458e+001
9.902248e+002, 3.963548e+001
9.907069e+002, 3.919050e+001
9.911890e+002, 3.916563e+001
9.916711e+002, 3.918524e+001
9.921533e+002, 3.879616e+001
9.926354e+002, 3.810825e+001
9.931175e+002, 3.779304e+001
9.935996e+002, 3.823891e+001
9.940817e+002, 3.835825e+001
9.945638e+002, 3.788601e+001
9.950460e+002, 3.738409e+001
9.955281e+002, 3.699720e+001
9.960102e+002, 3.673835e+001
9.964923e+002, 3.667458e+001
9.969744e+002, 3.677043e+001
9.974565e+002, 3.678205e+001
9.979387e+002, 3.658535e+001
9.984208e+002, 3.643275e+001
9.989029e+002, 3.648332e+001
9.993850e+002, 3.649694e+001
9.998671e+002, 3.625039e+001
1.000349e+003, 3.591011e+001
1.000831e+003, 3.575873e+001
1.001313e+003, 3.580575e+001
1.001796e+003, 3.575584e+001
1.002278e+003, 3.539931e+001
1.002760e+003, 3.505300e+001
1.003242e+003, 3.488614e+001
1.003724e+003, 3.481104e+001
1.004206e+003, 3.480383e+001
1.004688e+003, 3.480292e+001
1.005170e+003, 3.468785e+001
1.005653e+003, 3.444300e+001
1.006135e+003, 3.422284e+001
1.006617e+003, 3.418320e+001
1.007099e+003, 3.412811e+001
1.007581e+003, 3.374736e+001
1.008063e+003, 3.331509e+001
1.008545e+003, 3.331392e+001
1.009027e+003, 3.361670e+001
1.009509e+003, 3.372764e+001
1.009992e+003, 3.348551e+001
1.010474e+003, 3.320209e+001
1.010956e+003, 3.318628e+001
1.011438e+003, 3.324993e+001
1.011920e+003, 3.307393e+001
1.012402e+003, 3.276574e+001
1.012884e+003, 3.259789e+001
1.013366e+003, 3.256657e+001
1.013849e+003, 3.245479e+001
1.014331e+003, 3.217124e+001
1.014813e+003, 3.192567e+001
1.015295e+003, 3.201088e+001
1.015777e+003, 3.226236e+001
1.016259e+003, 3.224365e+001
1.016741e+003, 3.201152e+001
1.017223e+003, 3.182347e+001
1.017705e+003, 3.171819e+001
1.018188e+003, 3.165920e+001
1.018670e+003, 3.163231e+001
1.019152e+003, 3.155886e+001
1.019634e+003, 3.127176e+001
1.020116e+003, 3.086161e+001
1.020598e+003, 3.084121e+001
1.021080e+003, 3.119053e+001
1.021562e+003, 3.136139e+001
1.022044e+003, 3.125428e+001
1.022527e+003, 3.103937e+001
1.023009e+003, 3.080047e+001
1.023491e+003, 3.057765e+001
1.023973e+003, 3.044456e+001
1.024455e+003, 3.039348e+001
1.024937e+003, 3.027794e+001
1.025419e+003, 3.007837e+001
1.025901e+003, 3.001886e+001
1.026384e+003, 3.019317e+001
1.026866e+003, 3.025866e+001
1.027348e+003, 2.996462e+001
1.027830e+003, 2.951135e+001
1.028312e+003, 2.926517e+001
1.028794e+003, 2.923023e+001
1.029276e+003, 2.929185e+001
1.029758e+003, 2.952113e+001
1.030240e+003, 2.957780e+001
1.030723e+003, 2.931800e+001
1.031205e+003, 2.906823e+001
1.031687e+003, 2.906529e+001
1.032169e+003, 2.918546e+001
1.032651e+003, 2.917714e+001
1.033133e+003, 2.902567e+001
1.033615e+003, 2.885429e+001
1.034097e+003, 2.856425e+001
1.034579e+003, 2.848471e+001
1.035062e+003, 2.882623e+001
1.035544e+003, 2.916797e+001
1.036026e+003, 2.924482e+001
1.036508e+003, 2.912351e+001
1.036990e+003, 2.891668e+001
1.037472e+003, 2.858763e+001
1.037954e+003, 2.838290e+001
1.038436e+003, 2.843618e+001
1.038919e+003, 2.840052e+001
1.039401e+003, 2.817817e+001
1.039883e+003, 2.789288e+001
1.040365e+003, 2.752409e+001
1.040847e+003, 2.717875e+001
1.041329e+003, 2.711654e+001
1.041811e+003, 2.740859e+001
1.042293e+003, 2.760427e+001
1.042776e+003, 2.769521e+001
1.043258e+003, 2.769054e+001
1.043740e+003, 2.758157e+001
1.044222e+003, 2.738857e+001
1.044704e+003, 2.700841e+001
1.045186e+003, 2.659191e+001
1.045668e+003, 2.646548e+001
1.046150e+003, 2.670226e+001
1.046632e+003, 2.685136e+001
1.047115e+003, 2.680273e+001
1.047597e+003, 2.674718e+001
1.048079e+003, 2.674698e+001
1.048561e+003, 2.673884e+001
1.049043e+003, 2.607788e+001
1.049525e+003, 2.559443e+001
1.050007e+003, 2.742116e+001
1.050489e+003, 3.215104e+001
1.050971e+003, 3.464760e+001
1.051454e+003, 3.241692e+001
1.051936e+003, 2.986994e+001
1.052418e+003, 2.784625e+001
1.052900e+003, 2.640418e+001
1.053382e+003, 2.579157e+001
1.053864e+003, 2.567930e+001
1.054346e+003, 2.550644e+001
1.054828e+003, 2.518937e+001
1.055311e+003, 2.496155e+001
1.055793e+003, 2.489610e+001
1.056275e+003, 2.491364e+001
1.056757e+003, 2.512038e+001
1.057239e+003, 2.527137e+001
1.057721e+003, 2.511066e+001
1.058203e+003, 2.479472e+001
1.058685e+003, 2.462136e+001
1.059167e+003, 2.463353e+001
1.059650e+003, 2.460259e+001
1.060132e+003, 2.434201e+001
1.060614e+003, 2.417713e+001
1.061096e+003, 2.434934e+001
1.061578e+003, 2.454759e+001
1.062060e+003, 2.454025e+001
1.062542e+003, 2.438986e+001
1.063024e+003, 2.420996e+001
1.063506e+003, 2.402404e+001
1.063989e+003, 2.384727e+001
1.064471e+003, 2.361904e+001
1.064953e+003, 2.349339e+001
1.065435e+003, 2.367245e+001
1.065917e+003, 2.384052e+001
1.066399e+003, 2.368370e+001
1.066881e+003, 2.338872e+001
1.067363e+003, 2.330420e+001
1.067846e+003, 2.344721e+001
1.068328e+003, 2.346696e+001
1.068810e+003, 2.309682e+001
1.069292e+003, 2.281967e+001
1.069774e+003, 2.298159e+001
1.070256e+003, 2.318538e+001
1.070738e+003, 2.312378e+001
1.071220e+003, 2.291738e+001
1.071703e+003, 2.274487e+001
1.072185e+003, 2.263444e+001
1.072667e+003, 2.255140e+001
1.073149e+003, 2.252009e+001
1.073631e+003, 2.242935e+001
1.074113e+003, 2.212191e+001
1.074595e+003, 2.184664e+001
1.075077e+003, 2.184427e+001
1.075559e+003, 2.194633e+001
1.076042e+003, 2.191595e+001
1.076524e+003, 2.175143e+001
1.077006e+003, 2.161033e+001
1.077488e+003, 2.155930e+001
1.077970e+003, 2.149403e+001
1.078452e+003, 2.125289e+001
1.078934e+003, 2.110486e+001
1.079416e+003, 2.138305e+001
1.079898e+003, 2.175195e+001
1.080380e+003, 2.179269e+001
1.080863e+003, 2.153671e+001
1.081345e+003, 2.124635e+001
1.081827e+003, 2.097641e+001
1.082309e+003, 2.080889e+001
1.082791e+003, 2.085407e+001
1.083273e+003, 2.092621e+001
1.083755e+003, 2.089041e+001
1.084237e+003, 2.083895e+001
1.084720e+003, 2.093293e+001
1.085202e+003, 2.109275e+001
1.085684e+003, 2.105220e+001
1.086166e+003, 2.071312e+001
1.086648e+003, 2.046905e+001
1.087130e+003, 2.053276e+001
1.087612e+003, 2.067520e+001
1.088094e+003, 2.085749e+001
1.088577e+003, 2.099473e+001
1.089059e+003, 2.101519e+001
1.089541e+003, 2.092941e+001
1.090023e+003, 2.075279e+001
1.090505e+003, 2.048742e+001
1.090987e+003, 2.024073e+001
1.091469e+003, 2.001944e+001
1.091951e+003, 1.986794e+001
1.092433e+003, 1.979928e+001
1.092916e+003, 1.981319e+001
1.093398e+003, 2.002137e+001
1.093880e+003, 2.026100e+001
1.094362e+003, 2.021224e+001
1.094844e+003, 1.985989e+001
1.095326e+003, 1.963742e+001
1.095808e+003, 1.977506e+001
1.096290e+003, 1.992401e+001
1.096772e+003, 2.001332e+001
1.097255e+003, 2.003244e+001
1.097737e+003, 1.990764e+001
1.098219e+003, 1.975021e+001
1.098701e+003, 1.973275e+001
1.099183e+003, 1.984106e+001
1.099665e+003, 1.986587e+001
1.100147e+003, 1.966806e+001
1.100629e+003, 1.957518e+001
1.101112e+003, 1.980574e+001
1.101594e+003, 2.000084e+001
1.102076e+003, 1.996257e+001
1.102558e+003, 1.981630e+001
1.103040e+003, 1.962066e+001
1.103522e+003, 1.943994e+001
1.104004e+003, 1.949500e+001
1.104486e+003, 1.995909e+001
1.104969e+003, 2.020454e+001
1.105451e+003, 1.989172e+001
1.105933e+003, 1.964109e+001
1.106415e+003, 1.974510e+001
1.106897e+003, 1.992429e+001
1.107379e+003, 1.995653e+001
1.107861e+003, 1.988326e+001
1.108343e+003, 1.980662e+001
1.108825e+003, 1.971050e+001
1.109307e+003, 1.974853e+001
1.109790e+003, 2.014132e+001
1.110272e+003, 2.037384e+001
1.110754e+003, 2.021513e+001
1.111236e+003, 2.000291e+001
1.111718e+003, 1.987657e+001
1.112200e+003, 1.985656e+001
1.112682e+003, 2.002712e+001
1.113164e+003, 2.040542e+001
1.113647e+003, 2.060514e+001
1.114129e+003, 2.058790e+001
1.114611e+003, 2.044999e+001
1.115093e+003, 2.002766e+001
1.115575e+003, 1.971902e+001
1.116057e+003, 1.975142e+001
1.116539e+003, 1.992775e+001
1.117021e+003, 2.003885e+001
1.117504e+003, 2.009089e+001
1.117986e+003, 2.012911e+001
1.118468e+003, 2.015177e+001
1.118950e+003, 2.015756e+001
1.119432e+003, 2.009241e+001
1.119914e+003, 2.013279e+001
1.120396e+003, 2.043105e+001
1.120878e+003, 2.068462e+001
1.121360e+003, 2.057081e+001
1.121843e+003, 2.026151e+001
1.122325e+003, 2.030199e+001
1.122807e+003, 2.080362e+001
1.123289e+003, 2.095361e+001
1.123771e+003, 2.064511e+001
1.124253e+003, 2.034069e+001
1.124735e+003, 2.011941e+001
1.125217e+003, 1.997341e+001
1.125699e+003, 1.989290e+001
1.126182e+003, 1.989967e+001
1.126664e+003, 2.005771e+001
1.127146e+003, 2.035174e+001
1.127628e+003, 2.048789e+001
1.128110e+003, 2.044768e+001
1.128592e+003, 2.041474e+001
1.129074e+003, 2.041784e+001
1.129556e+003, 2.037265e+001
1.130039e+003, 2.022651e+001
1.130521e+003, 2.010527e+001
1.131003e+003, 2.016199e+001
1.131485e+003, 2.034527e+001
1.131967e+003, 2.048379e+001
1.132449e+003, 2.057818e+001
1.132931e+003, 2.062128e+001
1.133413e+003, 2.061615e+001
1.133896e+003, 2.068800e+001
1.134378e+003, 2.087480e+001
1.134860e+003, 2.100307e+001
1.135342e+003, 2.093106e+001
1.135824e+003, 2.075834e+001
1.136306e+003, 2.062832e+001
1.136788e+003, 2.055639e+001
1.137270e+003, 2.066010e+001
1.137752e+003, 2.088598e+001
1.138234e+003, 2.094270e+001
1.138717e+003, 2.080538e+001
1.139199e+003, 2.069955e+001
1.139681e+003, 2.074023e+001
1.140163e+003, 2.089821e+001
1.140645e+003, 2.090802e+001
1.141127e+003, 2.123735e+001
1.141609e+003, 2.363115e+001
1.142091e+003, 2.665607e+001
1.142574e+003, 2.672803e+001
1.143056e+003, 2.433209e+001
1.143538e+003, 2.221174e+001
1.144020e+003, 2.127874e+001
1.144502e+003, 2.099233e+001
1.144984e+003, 2.112327e+001
1.145466e+003, 2.136514e+001
1.145948e+003, 2.140403e+001
1.146431e+003, 2.136244e+001
1.146913e+003, 2.141514e+001
1.147395e+003, 2.149691e+001
1.147877e+003, 2.144285e+001
1.148359e+003, 2.126613e+001
1.148841e+003, 2.113721e+001
1.149323e+003, 2.112475e+001
1.149805e+003, 2.118479e+001
1.150287e+003, 2.133681e+001
1.150770e+003, 2.149801e+001
1.151252e+003, 2.162391e+001
1.151734e+003, 2.171500e+001
1.152216e+003, 2.178543e+001
1.152698e+003, 2.181992e+001
1.153180e+003, 2.174304e+001
1.153662e+003, 2.154098e+001
1.154144e+003, 2.148049e+001
1.154626e+003, 2.181481e+001
1.155109e+003, 2.207150e+001
1.155591e+003, 2.205752e+001
1.156073e+003, 2.196022e+001
1.156555e+003, 2.183521e+001
1.157037e+003, 2.173580e+001
1.157519e+003, 2.173642e+001
1.158001e+003, 2.182512e+001
1.158483e+003, 2.189370e+001
1.158966e+003, 2.191241e+001
1.159448e+003, 2.195366e+001
1.159930e+003, 2.205447e+001
1.160412e+003, 2.213371e+001
1.160894e+003, 2.216619e+001
1.161376e+003, 2.217462e+001
1.161858e+003, 2.217242e+001
1.162340e+003, 2.215835e+001
1.162822e+003, 2.211512e+001
1.163305e+003, 2.202833e+001
1.163787e+003, 2.208314e+001
1.164269e+003, 2.237190e+001
1.164751e+003, 2.251254e+001
1.165233e+003, 2.238380e+001
1.165715e+003, 2.232411e+001
1.166197e+003, 2.252719e+001
1.166679e+003, 2.277750e+001
1.167161e+003, 2.280817e+001
1.167644e+003, 2.268559e+001
1.168126e+003, 2.270226e+001
1.168608e+003, 2.286572e+001
1.169090e+003, 2.290659e+001
1.169572e+003, 2.280795e+001
1.170054e+003, 2.283194e+001
1.170536e+003, 2.305468e+001
1.171018e+003, 2.315861e+001
1.171500e+003, 2.290097e+001
1.171983e+003, 2.257714e+001
1.172465e+003, 2.273858e+001
1.172947e+003, 2.319199e+001
1.173429e+003, 2.322978e+001
1.173911e+003, 2.298435e+001
1.174393e+003, 2.298990e+001
1.174875e+003, 2.325826e+001
1.175357e+003, 2.346667e+001
1.175840e+003, 2.349294e+001
1.176322e+003, 2.342474e+001
1.176804e+003, 2.329680e+001
1.177286e+003, 2.319747e+001
1.177768e+003, 2.324773e+001
1.178250e+003, 2.338834e+001
1.178732e+003, 2.361007e+001
1.179214e+003, 2.382079e+001
1.179697e+003, 2.379744e+001
1.180179e+003, 2.358136e+001
1.180661e+003, 2.349352e+001
1.181143e+003, 2.368293e+001
1.181625e+003, 2.387351e+001
1.182107e+003, 2.389248e+001
1.182589e+003, 2.386289e+001
1.183071e+003, 2.382065e+001
1.183553e+003, 2.380738e+001
1.184036e+003, 2.387744e+001
1.184518e+003, 2.399717e+001
1.185000e+003, 2.412809e+001
1.185482e+003, 2.425665e+001
1.185964e+003, 2.427900e+001
1.186446e+003, 2.406718e+001
1.186928e+003, 2.391775e+001
1.187410e+003, 2.388107e+001
1.187892e+003, 2.391488e+001
1.188375e+003, 2.404852e+001
1.188857e+003, 2.420570e+001
1.189339e+003, 2.435797e+001
1.189821e+003, 2.446792e+001
1.190303e+003, 2.439993e+001
1.190785e+003, 2.409813e+001
1.191267e+003, 2.396005e+001
1.191749e+003, 2.406091e+001
1.192232e+003, 2.410249e+001
1.192714e+003, 2.399141e+001
1.193196e+003, 2.396931e+001
1.193678e+003, 2.419294e+001
1.194160e+003, 2.445537e+001
1.194642e+003, 2.449622e+001
1.195124e+003, 2.437236e+001
1.195606e+003, 2.430006e+001
1.196089e+003, 2.427796e+001
1.196571e+003, 2.430208e+001
1.197053e+003, 2.436538e+001
1.197535e+003, 2.430463e+001
1.198017e+003, 2.408943e+001
1.198499e+003, 2.394670e+001
1.198981e+003, 2.402243e+001
1.199463e+003, 2.416314e+001
1.199945e+003, 2.416033e+001
1.200427e+003, 2.408325e+001
1.200910e+003, 2.407977e+001
1.201392e+003, 2.410699e+001
1.201874e+003, 2.401973e+001
1.202356e+003, 2.387883e+001
1.202838e+003, 2.393785e+001
1.203320e+003, 2.422990e+001
1.203802e+003, 2.445539e+001
1.204284e+003, 2.440975e+001
1.204767e+003, 2.433974e+001
1.205249e+003, 2.446902e+001
1.205731e+003, 2.461143e+001
1.206213e+003, 2.460577e+001
1.206695e+003, 2.452708e+001
1.207177e+003, 2.441869e+001
1.207659e+003, 2.433615e+001
1.208141e+003, 2.442575e+001
1.208624e+003, 2.473300e+001
1.209106e+003, 2.490156e+001
1.209588e+003, 2.469252e+001
1.210070e+003, 2.456698e+001
1.210552e+003, 2.473451e+001
1.211034e+003, 2.487153e+001
1.211516e+003, 2.476677e+001
1.211998e+003, 2.459622e+001
1.212480e+003, 2.452599e+001
1.212963e+003, 2.453846e+001
1.213445e+003, 2.457305e+001
1.213927e+003, 2.463929e+001
1.214409e+003, 2.467362e+001
1.214891e+003, 2.466202e+001
1.215373e+003, 2.467956e+001
1.215855e+003, 2.475038e+001
1.216337e+003, 2.479556e+001
1.216819e+003, 2.476548e+001
1.217302e+003, 2.473908e+001
1.217784e+003, 2.483358e+001
1.218266e+003, 2.497393e+001
1.218748e+003, 2.489870e+001
1.219230e+003, 2.465594e+001
1.219712e+003, 2.445568e+001
1.220194e+003, 2.432060e+001
1.220676e+003, 2.432436e+001
1.221159e+003, 2.445611e+001
1.221641e+003, 2.453317e+001
1.222123e+003, 2.445399e+001
1.222605e+003, 2.437416e+001
1.223087e+003, 2.446555e+001
1.223569e+003, 2.462321e+001
1.224051e+003, 2.480242e+001
1.224533e+003, 2.491634e+001
1.225016e+003, 2.476090e+001
1.225498e+003, 2.448609e+001
1.225980e+003, 2.441487e+001
1.226462e+003, 2.456804e+001
1.226944e+003, 2.468240e+001
1.227426e+003, 2.464857e+001
1.227908e+003, 2.462291e+001
1.228390e+003, 2.468802e+001
1.228872e+003, 2.473307e+001
1.229354e+003, 2.469157e+001
1.229837e+003, 2.463154e+001
1.230319e+003, 2.460072e+001
1.230801e+003, 2.459134e+001
1.231283e+003, 2.457453e+001
1.231765e+003, 2.455296e+001
1.232247e+003, 2.462860e+001
1.232729e+003, 2.489056e+001
1.233211e+003, 2.495490e+001
1.233694e+003, 2.472990e+001
1.234176e+003, 2.458010e+001
1.234658e+003, 2.462169e+001
1.235140e+003, 2.474967e+001
1.235622e+003, 2.491083e+001
1.236104e+003, 2.501693e+001
1.236586e+003, 2.487264e+001
1.237068e+003, 2.456615e+001
1.237551e+003, 2.450186e+001
1.238033e+003, 2.461298e+001
1.238515e+003, 2.457569e+001
1.238997e+003, 2.439991e+001
1.239479e+003, 2.431040e+001
1.239961e+003, 2.436407e+001
1.240443e+003, 2.444184e+001
1.240925e+003, 2.447100e+001
1.241407e+003, 2.448624e+001
1.241890e+003, 2.452388e+001
1.242372e+003, 2.456085e+001
1.242854e+003, 2.456824e+001
1.243336e+003, 2.456694e+001
1.243818e+003, 2.460583e+001
1.244300e+003, 2.464936e+001
1.244782e+003, 2.459183e+001
1.245264e+003, 2.443006e+001
1.245746e+003, 2.435270e+001
1.246229e+003, 2.442608e+001
1.246711e+003, 2.455478e+001
1.247193e+003, 2.483102e+001
1.247675e+003, 2.501172e+001
1.248157e+003, 2.493162e+001
1.248639e+003, 2.483267e+001
1.249121e+003, 2.490284e+001
1.249603e+003, 2.504060e+001
1.250085e+003, 2.503016e+001
1.250568e+003, 2.489478e+001
1.251050e+003, 2.512352e+001
1.251532e+003, 2.578990e+001
1.252014e+003, 2.592285e+001
1.252496e+003, 2.542436e+001
1.252978e+003, 2.515115e+001
1.253460e+003, 2.535920e+001
1.253942e+003, 2.562033e+001
1.254425e+003, 2.564346e+001
1.254907e+003, 2.553074e+001
1.255389e+003, 2.535693e+001
1.255871e+003, 2.519453e+001
1.256353e+003, 2.518109e+001
1.256835e+003, 2.528139e+001
1.257317e+003, 2.549244e+001
1.257799e+003, 2.574023e+001
1.258281e+003, 2.586807e+001
1.258764e+003, 2.585553e+001
1.259246e+003, 2.579361e+001
1.259728e+003, 2.567984e+001
1.260210e+003, 2.567964e+001
1.260692e+003, 2.602454e+001
1.261174e+003, 2.629746e+001
1.261656e+003, 2.627987e+001
1.262138e+003, 2.613653e+001
1.262620e+003, 2.586994e+001
1.263103e+003, 2.563791e+001
1.263585e+003, 2.574933e+001
1.264067e+003, 2.614160e+001
1.264549e+003, 2.627077e+001
1.265031e+003, 2.602696e+001
1.265513e+003, 2.588169e+001
1.265995e+003, 2.582854e+001
1.266477e+003, 2.595035e+001
1.266960e+003, 2.630233e+001
1.267442e+003, 2.656927e+001
1.267924e+003, 2.657048e+001
1.268406e+003, 2.645404e+001
1.268888e+003, 2.638877e+001
1.269370e+003, 2.634750e+001
1.269852e+003, 2.626058e+001
1.270334e+003, 2.614969e+001
1.270817e+003, 2.601718e+001
1.271299e+003, 2.592303e+001
1.271781e+003, 2.609162e+001
1.272263e+003, 2.646030e+001
1.272745e+003, 2.665282e+001
1.273227e+003, 2.652485e+001
1.273709e+003, 2.636572e+001
1.274191e+003, 2.634478e+001
1.274673e+003, 2.634079e+001
1.275156e+003, 2.628461e+001
1.275638e+003, 2.623380e+001
1.276120e+003, 2.622592e+001
1.276602e+003, 2.624446e+001
1.277084e+003, 2.626012e+001
1.277566e+003, 2.628656e+001
1.278048e+003, 2.638117e+001
1.278530e+003, 2.656188e+001
1.279012e+003, 2.664556e+001
1.279495e+003, 2.661912e+001
1.279977e+003, 2.651263e+001
1.280459e+003, 2.629176e+001
1.280941e+003, 2.621951e+001
1.281423e+003, 2.640720e+001
1.281905e+003, 2.662251e+001
1.282387e+003, 2.668553e+001
1.282869e+003, 2.665202e+001
1.283352e+003, 2.660406e+001
1.283834e+003, 2.653539e+001
1.284316e+003, 2.643071e+001
1.284798e+003, 2.629121e+001
##END=



