##NAMES=Hemihedrite
##RRUFFID=R140134
##IDEAL CHEMISTRY=Pb^2+^_10_Zn^2+^(Cr^6+^O_4_)_6_(SiO_4_)_2_(OH)_2_
##LOCALITY=Rat Tail Claim, Wickenburg Area, Belmont Mts, Maricopa County, Arizona, USA
##OWNER=RRUFF
##SOURCE=Ron Gibbs
##DESCRIPTION=Orange axe-head shaped crystals
##STATUS=The identification of this mineral is confirmed by single-crystal X-ray diffraction and chemical analysis.
##URL=rruff.info/R140134
##MEASURED CHEMISTRY=Pb_10.05_(Zn_0.91_Mg_0.02_)_∑=0.93_(Cr_5.98_S_0.01_P_0.01_)_∑=6.00_Si_1.97_O_34_H_2.16_ ; H_2_O calculated to achieve 34 O atoms.
8.930109e+001, 0.000000e+000
8.978320e+001, 1.480967e+002
9.026532e+001, 1.467890e+002
9.074744e+001, 1.467574e+002
9.122955e+001, 1.485143e+002
9.171167e+001, 1.509826e+002
9.219379e+001, 1.528258e+002
9.267590e+001, 1.541829e+002
9.315802e+001, 1.552846e+002
9.364014e+001, 1.561047e+002
9.412225e+001, 1.567980e+002
9.460437e+001, 1.577643e+002
9.508649e+001, 1.592874e+002
9.556860e+001, 1.609867e+002
9.605072e+001, 1.620516e+002
9.653284e+001, 1.625678e+002
9.701495e+001, 1.630727e+002
9.749707e+001, 1.640143e+002
9.797919e+001, 1.653723e+002
9.846130e+001, 1.670151e+002
9.894342e+001, 1.690809e+002
9.942554e+001, 1.715152e+002
9.990765e+001, 1.733668e+002
1.003898e+002, 1.745388e+002
1.008719e+002, 1.754119e+002
1.013540e+002, 1.765045e+002
1.018361e+002, 1.778323e+002
1.023182e+002, 1.793039e+002
1.028004e+002, 1.809409e+002
1.032825e+002, 1.827911e+002
1.037646e+002, 1.845687e+002
1.042467e+002, 1.862636e+002
1.047288e+002, 1.879013e+002
1.052109e+002, 1.895493e+002
1.056931e+002, 1.913861e+002
1.061752e+002, 1.930408e+002
1.066573e+002, 1.943904e+002
1.071394e+002, 1.954807e+002
1.076215e+002, 1.962451e+002
1.081036e+002, 1.966449e+002
1.085858e+002, 1.967298e+002
1.090679e+002, 1.966963e+002
1.095500e+002, 1.964455e+002
1.100321e+002, 1.961658e+002
1.105142e+002, 1.959600e+002
1.109963e+002, 1.960005e+002
1.114785e+002, 1.959321e+002
1.119606e+002, 1.956814e+002
1.124427e+002, 1.952573e+002
1.129248e+002, 1.948514e+002
1.134069e+002, 1.944235e+002
1.138890e+002, 1.940559e+002
1.143712e+002, 1.938100e+002
1.148533e+002, 1.940893e+002
1.153354e+002, 1.941378e+002
1.158175e+002, 1.936368e+002
1.162996e+002, 1.925292e+002
1.167817e+002, 1.913800e+002
1.172639e+002, 1.902110e+002
1.177460e+002, 1.891467e+002
1.182281e+002, 1.883459e+002
1.187102e+002, 1.882735e+002
1.191923e+002, 1.881923e+002
1.196744e+002, 1.875918e+002
1.201566e+002, 1.863167e+002
1.206387e+002, 1.849791e+002
1.211208e+002, 1.838096e+002
1.216029e+002, 1.828455e+002
1.220850e+002, 1.821831e+002
1.225671e+002, 1.821796e+002
1.230493e+002, 1.823575e+002
1.235314e+002, 1.822237e+002
1.240135e+002, 1.816539e+002
1.244956e+002, 1.808543e+002
1.249777e+002, 1.798617e+002
1.254598e+002, 1.787468e+002
1.259420e+002, 1.778086e+002
1.264241e+002, 1.773810e+002
1.269062e+002, 1.772426e+002
1.273883e+002, 1.769757e+002
1.278704e+002, 1.764310e+002
1.283525e+002, 1.757992e+002
1.288347e+002, 1.754056e+002
1.293168e+002, 1.752349e+002
1.297989e+002, 1.750554e+002
1.302810e+002, 1.746080e+002
1.307631e+002, 1.739721e+002
1.312452e+002, 1.734828e+002
1.317274e+002, 1.733559e+002
1.322095e+002, 1.733709e+002
1.326916e+002, 1.728582e+002
1.331737e+002, 1.717571e+002
1.336558e+002, 1.705260e+002
1.341379e+002, 1.695210e+002
1.346201e+002, 1.687435e+002
1.351022e+002, 1.682227e+002
1.355843e+002, 1.681228e+002
1.360664e+002, 1.683463e+002
1.365485e+002, 1.680580e+002
1.370306e+002, 1.670966e+002
1.375128e+002, 1.660007e+002
1.379949e+002, 1.655069e+002
1.384770e+002, 1.657735e+002
1.389591e+002, 1.658509e+002
1.394412e+002, 1.654136e+002
1.399233e+002, 1.644369e+002
1.404055e+002, 1.632632e+002
1.408876e+002, 1.617541e+002
1.413697e+002, 1.601789e+002
1.418518e+002, 1.589833e+002
1.423339e+002, 1.582650e+002
1.428160e+002, 1.577100e+002
1.432982e+002, 1.572465e+002
1.437803e+002, 1.569556e+002
1.442624e+002, 1.564999e+002
1.447445e+002, 1.558193e+002
1.452266e+002, 1.549917e+002
1.457087e+002, 1.542034e+002
1.461909e+002, 1.532930e+002
1.466730e+002, 1.526122e+002
1.471551e+002, 1.523483e+002
1.476372e+002, 1.530791e+002
1.481193e+002, 1.532502e+002
1.486014e+002, 1.525507e+002
1.490836e+002, 1.512526e+002
1.495657e+002, 1.502635e+002
1.500478e+002, 1.498553e+002
1.505299e+002, 1.495587e+002
1.510120e+002, 1.491675e+002
1.514941e+002, 1.484497e+002
1.519763e+002, 1.479118e+002
1.524584e+002, 1.476822e+002
1.529405e+002, 1.476855e+002
1.534226e+002, 1.475384e+002
1.539047e+002, 1.469475e+002
1.543868e+002, 1.463687e+002
1.548690e+002, 1.460498e+002
1.553511e+002, 1.463809e+002
1.558332e+002, 1.465863e+002
1.563153e+002, 1.465112e+002
1.567974e+002, 1.461811e+002
1.572795e+002, 1.458080e+002
1.577617e+002, 1.454220e+002
1.582438e+002, 1.450201e+002
1.587259e+002, 1.446004e+002
1.592080e+002, 1.441454e+002
1.596901e+002, 1.436927e+002
1.601722e+002, 1.431917e+002
1.606544e+002, 1.426553e+002
1.611365e+002, 1.422987e+002
1.616186e+002, 1.422998e+002
1.621007e+002, 1.424742e+002
1.625828e+002, 1.426518e+002
1.630649e+002, 1.429544e+002
1.635471e+002, 1.430989e+002
1.640292e+002, 1.428594e+002
1.645113e+002, 1.422272e+002
1.649934e+002, 1.416416e+002
1.654755e+002, 1.413546e+002
1.659576e+002, 1.412274e+002
1.664398e+002, 1.410923e+002
1.669219e+002, 1.409227e+002
1.674040e+002, 1.406924e+002
1.678861e+002, 1.403732e+002
1.683682e+002, 1.399593e+002
1.688503e+002, 1.395152e+002
1.693325e+002, 1.389865e+002
1.698146e+002, 1.384645e+002
1.702967e+002, 1.381026e+002
1.707788e+002, 1.381614e+002
1.712609e+002, 1.382987e+002
1.717430e+002, 1.381751e+002
1.722252e+002, 1.377470e+002
1.727073e+002, 1.372701e+002
1.731894e+002, 1.369857e+002
1.736715e+002, 1.368066e+002
1.741536e+002, 1.365486e+002
1.746357e+002, 1.360639e+002
1.751179e+002, 1.354711e+002
1.756000e+002, 1.348469e+002
1.760821e+002, 1.341671e+002
1.765642e+002, 1.336578e+002
1.770463e+002, 1.337243e+002
1.775284e+002, 1.341899e+002
1.780106e+002, 1.345116e+002
1.784927e+002, 1.343618e+002
1.789748e+002, 1.338899e+002
1.794569e+002, 1.332691e+002
1.799390e+002, 1.324452e+002
1.804211e+002, 1.317268e+002
1.809033e+002, 1.315748e+002
1.813854e+002, 1.318908e+002
1.818675e+002, 1.322058e+002
1.823496e+002, 1.321849e+002
1.828317e+002, 1.319688e+002
1.833138e+002, 1.319452e+002
1.837960e+002, 1.322240e+002
1.842781e+002, 1.325039e+002
1.847602e+002, 1.322572e+002
1.852423e+002, 1.315406e+002
1.857244e+002, 1.308538e+002
1.862065e+002, 1.305796e+002
1.866887e+002, 1.305968e+002
1.871708e+002, 1.304162e+002
1.876529e+002, 1.299327e+002
1.881350e+002, 1.293430e+002
1.886171e+002, 1.289684e+002
1.890992e+002, 1.288034e+002
1.895814e+002, 1.287747e+002
1.900635e+002, 1.289389e+002
1.905456e+002, 1.292491e+002
1.910277e+002, 1.293687e+002
1.915098e+002, 1.292518e+002
1.919919e+002, 1.289456e+002
1.924741e+002, 1.284789e+002
1.929562e+002, 1.278443e+002
1.934383e+002, 1.272546e+002
1.939204e+002, 1.268776e+002
1.944025e+002, 1.267025e+002
1.948846e+002, 1.265400e+002
1.953668e+002, 1.263524e+002
1.958489e+002, 1.261823e+002
1.963310e+002, 1.261596e+002
1.968131e+002, 1.263019e+002
1.972952e+002, 1.264551e+002
1.977773e+002, 1.264964e+002
1.982595e+002, 1.264208e+002
1.987416e+002, 1.264131e+002
1.992237e+002, 1.265270e+002
1.997058e+002, 1.266969e+002
2.001879e+002, 1.267530e+002
2.006700e+002, 1.266968e+002
2.011522e+002, 1.265257e+002
2.016343e+002, 1.261755e+002
2.021164e+002, 1.256153e+002
2.025985e+002, 1.252165e+002
2.030806e+002, 1.250854e+002
2.035627e+002, 1.251147e+002
2.040449e+002, 1.249251e+002
2.045270e+002, 1.244447e+002
2.050091e+002, 1.239795e+002
2.054912e+002, 1.237916e+002
2.059733e+002, 1.239507e+002
2.064554e+002, 1.239503e+002
2.069376e+002, 1.236772e+002
2.074197e+002, 1.232196e+002
2.079018e+002, 1.228975e+002
2.083839e+002, 1.227258e+002
2.088660e+002, 1.226540e+002
2.093481e+002, 1.227074e+002
2.098303e+002, 1.229622e+002
2.103124e+002, 1.229724e+002
2.107945e+002, 1.225465e+002
2.112766e+002, 1.218658e+002
2.117587e+002, 1.217554e+002
2.122408e+002, 1.224978e+002
2.127230e+002, 1.232175e+002
2.132051e+002, 1.232633e+002
2.136872e+002, 1.223839e+002
2.141693e+002, 1.216817e+002
2.146514e+002, 1.212626e+002
2.151335e+002, 1.211086e+002
2.156157e+002, 1.212045e+002
2.160978e+002, 1.216750e+002
2.165799e+002, 1.221592e+002
2.170620e+002, 1.224494e+002
2.175441e+002, 1.225583e+002
2.180262e+002, 1.223962e+002
2.185084e+002, 1.218112e+002
2.189905e+002, 1.209349e+002
2.194726e+002, 1.204696e+002
2.199547e+002, 1.205418e+002
2.204368e+002, 1.207978e+002
2.209189e+002, 1.210491e+002
2.214011e+002, 1.213672e+002
2.218832e+002, 1.214991e+002
2.223653e+002, 1.213938e+002
2.228474e+002, 1.210897e+002
2.233295e+002, 1.207159e+002
2.238116e+002, 1.201816e+002
2.242938e+002, 1.197345e+002
2.247759e+002, 1.195434e+002
2.252580e+002, 1.197123e+002
2.257401e+002, 1.199004e+002
2.262222e+002, 1.201518e+002
2.267043e+002, 1.204043e+002
2.271865e+002, 1.203593e+002
2.276686e+002, 1.197909e+002
2.281507e+002, 1.192605e+002
2.286328e+002, 1.191525e+002
2.291149e+002, 1.197916e+002
2.295970e+002, 1.200745e+002
2.300792e+002, 1.198043e+002
2.305613e+002, 1.191303e+002
2.310434e+002, 1.186371e+002
2.315255e+002, 1.183675e+002
2.320076e+002, 1.182269e+002
2.324897e+002, 1.181886e+002
2.329719e+002, 1.183300e+002
2.334540e+002, 1.184001e+002
2.339361e+002, 1.183484e+002
2.344182e+002, 1.182234e+002
2.349003e+002, 1.181895e+002
2.353824e+002, 1.182518e+002
2.358646e+002, 1.183977e+002
2.363467e+002, 1.186582e+002
2.368288e+002, 1.192075e+002
2.373109e+002, 1.194537e+002
2.377930e+002, 1.191972e+002
2.382751e+002, 1.186538e+002
2.387573e+002, 1.185225e+002
2.392394e+002, 1.190825e+002
2.397215e+002, 1.196467e+002
2.402036e+002, 1.199098e+002
2.406857e+002, 1.197735e+002
2.411678e+002, 1.195369e+002
2.416500e+002, 1.191168e+002
2.421321e+002, 1.186200e+002
2.426142e+002, 1.183214e+002
2.430963e+002, 1.183045e+002
2.435784e+002, 1.183665e+002
2.440605e+002, 1.184171e+002
2.445427e+002, 1.184129e+002
2.450248e+002, 1.185308e+002
2.455069e+002, 1.189007e+002
2.459890e+002, 1.193429e+002
2.464711e+002, 1.194205e+002
2.469532e+002, 1.188802e+002
2.474354e+002, 1.183993e+002
2.479175e+002, 1.182832e+002
2.483996e+002, 1.187145e+002
2.488817e+002, 1.189112e+002
2.493638e+002, 1.187866e+002
2.498459e+002, 1.184798e+002
2.503281e+002, 1.182318e+002
2.508102e+002, 1.180179e+002
2.512923e+002, 1.179116e+002
2.517744e+002, 1.179776e+002
2.522565e+002, 1.182950e+002
2.527386e+002, 1.184303e+002
2.532208e+002, 1.182503e+002
2.537029e+002, 1.179868e+002
2.541850e+002, 1.180334e+002
2.546671e+002, 1.185739e+002
2.551492e+002, 1.190650e+002
2.556313e+002, 1.193383e+002
2.561135e+002, 1.193705e+002
2.565956e+002, 1.192933e+002
2.570777e+002, 1.189722e+002
2.575598e+002, 1.186673e+002
2.580419e+002, 1.188149e+002
2.585240e+002, 1.197349e+002
2.590062e+002, 1.203604e+002
2.594883e+002, 1.202597e+002
2.599704e+002, 1.193577e+002
2.604525e+002, 1.189448e+002
2.609346e+002, 1.192090e+002
2.614167e+002, 1.197348e+002
2.618989e+002, 1.200735e+002
2.623810e+002, 1.202143e+002
2.628631e+002, 1.201778e+002
2.633452e+002, 1.198678e+002
2.638273e+002, 1.192865e+002
2.643094e+002, 1.191323e+002
2.647916e+002, 1.195622e+002
2.652737e+002, 1.201672e+002
2.657558e+002, 1.205733e+002
2.662379e+002, 1.207534e+002
2.667200e+002, 1.208118e+002
2.672021e+002, 1.207392e+002
2.676843e+002, 1.205505e+002
2.681664e+002, 1.203615e+002
2.686485e+002, 1.201206e+002
2.691306e+002, 1.199837e+002
2.696127e+002, 1.201413e+002
2.700948e+002, 1.206837e+002
2.705770e+002, 1.210861e+002
2.710591e+002, 1.211822e+002
2.715412e+002, 1.210711e+002
2.720233e+002, 1.213121e+002
2.725054e+002, 1.220411e+002
2.729875e+002, 1.227353e+002
2.734697e+002, 1.229354e+002
2.739518e+002, 1.225377e+002
2.744339e+002, 1.223464e+002
2.749160e+002, 1.224979e+002
2.753981e+002, 1.228909e+002
2.758802e+002, 1.232608e+002
2.763624e+002, 1.236220e+002
2.768445e+002, 1.238838e+002
2.773266e+002, 1.239297e+002
2.778087e+002, 1.237373e+002
2.782908e+002, 1.236742e+002
2.787729e+002, 1.237799e+002
2.792551e+002, 1.240203e+002
2.797372e+002, 1.243598e+002
2.802193e+002, 1.248245e+002
2.807014e+002, 1.252283e+002
2.811835e+002, 1.254445e+002
2.816656e+002, 1.254765e+002
2.821478e+002, 1.255452e+002
2.826299e+002, 1.256668e+002
2.831120e+002, 1.258127e+002
2.835941e+002, 1.258741e+002
2.840762e+002, 1.258392e+002
2.845583e+002, 1.259817e+002
2.850405e+002, 1.265609e+002
2.855226e+002, 1.275078e+002
2.860047e+002, 1.281438e+002
2.864868e+002, 1.284129e+002
2.869689e+002, 1.285448e+002
2.874510e+002, 1.288983e+002
2.879332e+002, 1.294561e+002
2.884153e+002, 1.298641e+002
2.888974e+002, 1.298468e+002
2.893795e+002, 1.295573e+002
2.898616e+002, 1.296176e+002
2.903438e+002, 1.300634e+002
2.908259e+002, 1.306098e+002
2.913080e+002, 1.309154e+002
2.917901e+002, 1.310238e+002
2.922722e+002, 1.312251e+002
2.927543e+002, 1.316857e+002
2.932365e+002, 1.322645e+002
2.937186e+002, 1.325473e+002
2.942007e+002, 1.325257e+002
2.946828e+002, 1.325737e+002
2.951649e+002, 1.331624e+002
2.956470e+002, 1.341158e+002
2.961292e+002, 1.348603e+002
2.966113e+002, 1.351691e+002
2.970934e+002, 1.352718e+002
2.975755e+002, 1.355583e+002
2.980576e+002, 1.360102e+002
2.985397e+002, 1.364134e+002
2.990219e+002, 1.365506e+002
2.995040e+002, 1.365340e+002
2.999861e+002, 1.365948e+002
3.004682e+002, 1.367702e+002
3.009503e+002, 1.370547e+002
3.014324e+002, 1.374674e+002
3.019146e+002, 1.379932e+002
3.023967e+002, 1.385832e+002
3.028788e+002, 1.393663e+002
3.033609e+002, 1.401433e+002
3.038430e+002, 1.405449e+002
3.043251e+002, 1.404351e+002
3.048073e+002, 1.402763e+002
3.052894e+002, 1.404949e+002
3.057715e+002, 1.409961e+002
3.062536e+002, 1.415575e+002
3.067357e+002, 1.420290e+002
3.072178e+002, 1.425154e+002
3.077000e+002, 1.431294e+002
3.081821e+002, 1.438860e+002
3.086642e+002, 1.446870e+002
3.091463e+002, 1.454834e+002
3.096284e+002, 1.462674e+002
3.101105e+002, 1.470399e+002
3.105927e+002, 1.477729e+002
3.110748e+002, 1.485011e+002
3.115569e+002, 1.491594e+002
3.120390e+002, 1.497558e+002
3.125211e+002, 1.506295e+002
3.130032e+002, 1.523396e+002
3.134854e+002, 1.543028e+002
3.139675e+002, 1.558765e+002
3.144496e+002, 1.563691e+002
3.149317e+002, 1.568565e+002
3.154138e+002, 1.578454e+002
3.158959e+002, 1.592897e+002
3.163781e+002, 1.609170e+002
3.168602e+002, 1.627343e+002
3.173423e+002, 1.646040e+002
3.178244e+002, 1.664039e+002
3.183065e+002, 1.679166e+002
3.187886e+002, 1.696276e+002
3.192708e+002, 1.718270e+002
3.197529e+002, 1.743558e+002
3.202350e+002, 1.767769e+002
3.207171e+002, 1.785595e+002
3.211992e+002, 1.804738e+002
3.216813e+002, 1.829495e+002
3.221635e+002, 1.863153e+002
3.226456e+002, 1.896069e+002
3.231277e+002, 1.924606e+002
3.236098e+002, 1.951508e+002
3.240919e+002, 1.981502e+002
3.245740e+002, 2.020973e+002
3.250562e+002, 2.058066e+002
3.255383e+002, 2.087676e+002
3.260204e+002, 2.106762e+002
3.265025e+002, 2.129963e+002
3.269846e+002, 2.159465e+002
3.274667e+002, 2.192976e+002
3.279489e+002, 2.228458e+002
3.284310e+002, 2.269004e+002
3.289131e+002, 2.308137e+002
3.293952e+002, 2.344570e+002
3.298773e+002, 2.378238e+002
3.303594e+002, 2.413257e+002
3.308416e+002, 2.451335e+002
3.313237e+002, 2.488956e+002
3.318058e+002, 2.523464e+002
3.322879e+002, 2.553730e+002
3.327700e+002, 2.582940e+002
3.332521e+002, 2.611647e+002
3.337343e+002, 2.639776e+002
3.342164e+002, 2.666984e+002
3.346985e+002, 2.692383e+002
3.351806e+002, 2.717711e+002
3.356627e+002, 2.744982e+002
3.361448e+002, 2.776973e+002
3.366270e+002, 2.801059e+002
3.371091e+002, 2.814521e+002
3.375912e+002, 2.821458e+002
3.380733e+002, 2.831231e+002
3.385554e+002, 2.845845e+002
3.390375e+002, 2.856568e+002
3.395197e+002, 2.859688e+002
3.400018e+002, 2.854974e+002
3.404839e+002, 2.846157e+002
3.409660e+002, 2.832550e+002
3.414481e+002, 2.816697e+002
3.419302e+002, 2.803195e+002
3.424124e+002, 2.792387e+002
3.428945e+002, 2.777495e+002
3.433766e+002, 2.756137e+002
3.438587e+002, 2.729082e+002
3.443408e+002, 2.697038e+002
3.448229e+002, 2.659289e+002
3.453051e+002, 2.622506e+002
3.457872e+002, 2.595277e+002
3.462693e+002, 2.575861e+002
3.467514e+002, 2.550921e+002
3.472335e+002, 2.516077e+002
3.477156e+002, 2.476864e+002
3.481978e+002, 2.444877e+002
3.486799e+002, 2.419712e+002
3.491620e+002, 2.396080e+002
3.496441e+002, 2.370564e+002
3.501262e+002, 2.343979e+002
3.506083e+002, 2.318270e+002
3.510905e+002, 2.293447e+002
3.515726e+002, 2.269439e+002
3.520547e+002, 2.244812e+002
3.525368e+002, 2.220568e+002
3.530189e+002, 2.199753e+002
3.535010e+002, 2.186190e+002
3.539832e+002, 2.175802e+002
3.544653e+002, 2.164381e+002
3.549474e+002, 2.151667e+002
3.554295e+002, 2.136936e+002
3.559116e+002, 2.116572e+002
3.563937e+002, 2.094321e+002
3.568759e+002, 2.076085e+002
3.573580e+002, 2.065857e+002
3.578401e+002, 2.058592e+002
3.583222e+002, 2.051958e+002
3.588043e+002, 2.045680e+002
3.592864e+002, 2.038449e+002
3.597686e+002, 2.029724e+002
3.602507e+002, 2.019610e+002
3.607328e+002, 2.007804e+002
3.612149e+002, 1.991218e+002
3.616970e+002, 1.977868e+002
3.621791e+002, 1.973436e+002
3.626613e+002, 1.974644e+002
3.631434e+002, 1.973967e+002
3.636255e+002, 1.968344e+002
3.641076e+002, 1.960802e+002
3.645897e+002, 1.952098e+002
3.650718e+002, 1.941645e+002
3.655540e+002, 1.932978e+002
3.660361e+002, 1.926148e+002
3.665182e+002, 1.921638e+002
3.670003e+002, 1.920029e+002
3.674824e+002, 1.926047e+002
3.679645e+002, 1.930217e+002
3.684467e+002, 1.929724e+002
3.689288e+002, 1.924326e+002
3.694109e+002, 1.920192e+002
3.698930e+002, 1.917002e+002
3.703751e+002, 1.915382e+002
3.708572e+002, 1.916037e+002
3.713394e+002, 1.921859e+002
3.718215e+002, 1.925132e+002
3.723036e+002, 1.925059e+002
3.727857e+002, 1.922041e+002
3.732678e+002, 1.917303e+002
3.737499e+002, 1.909862e+002
3.742321e+002, 1.902312e+002
3.747142e+002, 1.896185e+002
3.751963e+002, 1.892132e+002
3.756784e+002, 1.886096e+002
3.761605e+002, 1.876970e+002
3.766426e+002, 1.867278e+002
3.771248e+002, 1.861590e+002
3.776069e+002, 1.860454e+002
3.780890e+002, 1.859567e+002
3.785711e+002, 1.857650e+002
3.790532e+002, 1.854797e+002
3.795353e+002, 1.852488e+002
3.800175e+002, 1.851217e+002
3.804996e+002, 1.847897e+002
3.809817e+002, 1.838015e+002
3.814638e+002, 1.822520e+002
3.819459e+002, 1.808957e+002
3.824280e+002, 1.799369e+002
3.829102e+002, 1.791990e+002
3.833923e+002, 1.783311e+002
3.838744e+002, 1.773493e+002
3.843565e+002, 1.765037e+002
3.848386e+002, 1.760940e+002
3.853207e+002, 1.759136e+002
3.858029e+002, 1.755684e+002
3.862850e+002, 1.750130e+002
3.867671e+002, 1.743053e+002
3.872492e+002, 1.734242e+002
3.877313e+002, 1.724292e+002
3.882134e+002, 1.714718e+002
3.886956e+002, 1.708847e+002
3.891777e+002, 1.702107e+002
3.896598e+002, 1.689606e+002
3.901419e+002, 1.671577e+002
3.906240e+002, 1.652287e+002
3.911061e+002, 1.633571e+002
3.915883e+002, 1.615118e+002
3.920704e+002, 1.596365e+002
3.925525e+002, 1.575643e+002
3.930346e+002, 1.556776e+002
3.935167e+002, 1.542200e+002
3.939988e+002, 1.530733e+002
3.944810e+002, 1.518858e+002
3.949631e+002, 1.504706e+002
3.954452e+002, 1.490340e+002
3.959273e+002, 1.476214e+002
3.964094e+002, 1.461336e+002
3.968915e+002, 1.450046e+002
3.973737e+002, 1.445578e+002
3.978558e+002, 1.444299e+002
3.983379e+002, 1.441733e+002
3.988200e+002, 1.437245e+002
3.993021e+002, 1.431576e+002
3.997842e+002, 1.423518e+002
4.002664e+002, 1.413084e+002
4.007485e+002, 1.406753e+002
4.012306e+002, 1.408393e+002
4.017127e+002, 1.410404e+002
4.021948e+002, 1.407455e+002
4.026769e+002, 1.395402e+002
4.031591e+002, 1.387701e+002
4.036412e+002, 1.387289e+002
4.041233e+002, 1.390686e+002
4.046054e+002, 1.388670e+002
4.050875e+002, 1.379487e+002
4.055696e+002, 1.370161e+002
4.060518e+002, 1.363765e+002
4.065339e+002, 1.360410e+002
4.070160e+002, 1.356257e+002
4.074981e+002, 1.351099e+002
4.079802e+002, 1.345914e+002
4.084623e+002, 1.341556e+002
4.089445e+002, 1.338041e+002
4.094266e+002, 1.336343e+002
4.099087e+002, 1.337857e+002
4.103908e+002, 1.340446e+002
4.108729e+002, 1.338391e+002
4.113550e+002, 1.331815e+002
4.118372e+002, 1.324742e+002
4.123193e+002, 1.319595e+002
4.128014e+002, 1.316074e+002
4.132835e+002, 1.313639e+002
4.137656e+002, 1.312400e+002
4.142477e+002, 1.311391e+002
4.147299e+002, 1.309336e+002
4.152120e+002, 1.306663e+002
4.156941e+002, 1.304476e+002
4.161762e+002, 1.303956e+002
4.166583e+002, 1.303646e+002
4.171404e+002, 1.302160e+002
4.176226e+002, 1.299467e+002
4.181047e+002, 1.296467e+002
4.185868e+002, 1.293158e+002
4.190689e+002, 1.289991e+002
4.195510e+002, 1.287435e+002
4.200331e+002, 1.286745e+002
4.205153e+002, 1.285175e+002
4.209974e+002, 1.280826e+002
4.214795e+002, 1.274763e+002
4.219616e+002, 1.269849e+002
4.224437e+002, 1.267067e+002
4.229258e+002, 1.265344e+002
4.234080e+002, 1.264566e+002
4.238901e+002, 1.265245e+002
4.243722e+002, 1.265005e+002
4.248543e+002, 1.263152e+002
4.253364e+002, 1.260584e+002
4.258185e+002, 1.258168e+002
4.263007e+002, 1.255906e+002
4.267828e+002, 1.253777e+002
4.272649e+002, 1.251804e+002
4.277470e+002, 1.249977e+002
4.282291e+002, 1.248136e+002
4.287112e+002, 1.246135e+002
4.291934e+002, 1.244375e+002
4.296755e+002, 1.243012e+002
4.301576e+002, 1.242035e+002
4.306397e+002, 1.241690e+002
4.311218e+002, 1.242406e+002
4.316039e+002, 1.243049e+002
4.320861e+002, 1.241440e+002
4.325682e+002, 1.237402e+002
4.330503e+002, 1.233691e+002
4.335324e+002, 1.231225e+002
4.340145e+002, 1.229805e+002
4.344966e+002, 1.228882e+002
4.349788e+002, 1.228482e+002
4.354609e+002, 1.228209e+002
4.359430e+002, 1.227377e+002
4.364251e+002, 1.226409e+002
4.369072e+002, 1.226604e+002
4.373893e+002, 1.228484e+002
4.378715e+002, 1.230862e+002
4.383536e+002, 1.233306e+002
4.388357e+002, 1.235282e+002
4.393178e+002, 1.235289e+002
4.397999e+002, 1.230613e+002
4.402820e+002, 1.224801e+002
4.407642e+002, 1.221073e+002
4.412463e+002, 1.219563e+002
4.417284e+002, 1.218857e+002
4.422105e+002, 1.218613e+002
4.426926e+002, 1.218540e+002
4.431747e+002, 1.218325e+002
4.436569e+002, 1.216830e+002
4.441390e+002, 1.216424e+002
4.446211e+002, 1.219195e+002
4.451032e+002, 1.223791e+002
4.455853e+002, 1.226215e+002
4.460674e+002, 1.224126e+002
4.465496e+002, 1.221208e+002
4.470317e+002, 1.218533e+002
4.475138e+002, 1.215768e+002
4.479959e+002, 1.214695e+002
4.484780e+002, 1.216544e+002
4.489601e+002, 1.219276e+002
4.494423e+002, 1.221015e+002
4.499244e+002, 1.221783e+002
4.504065e+002, 1.221498e+002
4.508886e+002, 1.219860e+002
4.513707e+002, 1.217191e+002
4.518528e+002, 1.214642e+002
4.523350e+002, 1.212041e+002
4.528171e+002, 1.210015e+002
4.532992e+002, 1.208699e+002
4.537813e+002, 1.208073e+002
4.542634e+002, 1.209104e+002
4.547455e+002, 1.212285e+002
4.552277e+002, 1.215532e+002
4.557098e+002, 1.216081e+002
4.561919e+002, 1.214183e+002
4.566740e+002, 1.211528e+002
4.571561e+002, 1.208003e+002
4.576382e+002, 1.204661e+002
4.581204e+002, 1.203951e+002
4.586025e+002, 1.205546e+002
4.590846e+002, 1.207092e+002
4.595667e+002, 1.206925e+002
4.600488e+002, 1.205823e+002
4.605309e+002, 1.204794e+002
4.610131e+002, 1.204032e+002
4.614952e+002, 1.203183e+002
4.619773e+002, 1.201520e+002
4.624594e+002, 1.199738e+002
4.629415e+002, 1.198834e+002
4.634236e+002, 1.199561e+002
4.639058e+002, 1.200900e+002
4.643879e+002, 1.202922e+002
4.648700e+002, 1.205423e+002
4.653521e+002, 1.206995e+002
4.658342e+002, 1.206513e+002
4.663163e+002, 1.205577e+002
4.667985e+002, 1.205019e+002
4.672806e+002, 1.204786e+002
4.677627e+002, 1.205174e+002
4.682448e+002, 1.206725e+002
4.687269e+002, 1.208653e+002
4.692090e+002, 1.209954e+002
4.696912e+002, 1.210923e+002
4.701733e+002, 1.210639e+002
4.706554e+002, 1.208280e+002
4.711375e+002, 1.204211e+002
4.716196e+002, 1.202338e+002
4.721017e+002, 1.203393e+002
4.725839e+002, 1.204571e+002
4.730660e+002, 1.203689e+002
4.735481e+002, 1.200729e+002
4.740302e+002, 1.198554e+002
4.745123e+002, 1.197539e+002
4.749944e+002, 1.196978e+002
4.754766e+002, 1.195129e+002
4.759587e+002, 1.192441e+002
4.764408e+002, 1.191833e+002
4.769229e+002, 1.196129e+002
4.774050e+002, 1.202233e+002
4.778871e+002, 1.204725e+002
4.783693e+002, 1.203932e+002
4.788514e+002, 1.202733e+002
4.793335e+002, 1.202929e+002
4.798156e+002, 1.203966e+002
4.802977e+002, 1.205463e+002
4.807798e+002, 1.207752e+002
4.812620e+002, 1.209075e+002
4.817441e+002, 1.207895e+002
4.822262e+002, 1.205187e+002
4.827083e+002, 1.202391e+002
4.831904e+002, 1.198119e+002
4.836725e+002, 1.195597e+002
4.841547e+002, 1.196869e+002
4.846368e+002, 1.201632e+002
4.851189e+002, 1.205688e+002
4.856010e+002, 1.207714e+002
4.860831e+002, 1.209476e+002
4.865652e+002, 1.212148e+002
4.870474e+002, 1.217965e+002
4.875295e+002, 1.219610e+002
4.880116e+002, 1.214420e+002
4.884937e+002, 1.207008e+002
4.889758e+002, 1.204020e+002
4.894579e+002, 1.206775e+002
4.899401e+002, 1.210104e+002
4.904222e+002, 1.213389e+002
4.909043e+002, 1.216217e+002
4.913864e+002, 1.216173e+002
4.918685e+002, 1.212826e+002
4.923506e+002, 1.209566e+002
4.928328e+002, 1.209445e+002
4.933149e+002, 1.211581e+002
4.937970e+002, 1.211661e+002
4.942791e+002, 1.209112e+002
4.947612e+002, 1.205820e+002
4.952433e+002, 1.204130e+002
4.957255e+002, 1.203393e+002
4.962076e+002, 1.201857e+002
4.966897e+002, 1.197879e+002
4.971718e+002, 1.193831e+002
4.976539e+002, 1.192548e+002
4.981360e+002, 1.193364e+002
4.986182e+002, 1.193658e+002
4.991003e+002, 1.191563e+002
4.995824e+002, 1.188795e+002
5.000645e+002, 1.186517e+002
5.005466e+002, 1.184858e+002
5.010287e+002, 1.183549e+002
5.015109e+002, 1.182930e+002
5.019930e+002, 1.182416e+002
5.024751e+002, 1.181430e+002
5.029572e+002, 1.179422e+002
5.034393e+002, 1.177493e+002
5.039214e+002, 1.175997e+002
5.044036e+002, 1.174695e+002
5.048857e+002, 1.172507e+002
5.053678e+002, 1.168295e+002
5.058499e+002, 1.165169e+002
5.063320e+002, 1.164882e+002
5.068141e+002, 1.167736e+002
5.072963e+002, 1.168885e+002
5.077784e+002, 1.168066e+002
5.082605e+002, 1.166271e+002
5.087426e+002, 1.164367e+002
5.092247e+002, 1.162351e+002
5.097068e+002, 1.159894e+002
5.101890e+002, 1.156357e+002
5.106711e+002, 1.153431e+002
5.111532e+002, 1.155362e+002
5.116353e+002, 1.161047e+002
5.121174e+002, 1.165170e+002
5.125995e+002, 1.163762e+002
5.130817e+002, 1.159955e+002
5.135638e+002, 1.157005e+002
5.140459e+002, 1.155030e+002
5.145280e+002, 1.154254e+002
5.150101e+002, 1.156001e+002
5.154922e+002, 1.158418e+002
5.159744e+002, 1.159739e+002
5.164565e+002, 1.159251e+002
5.169386e+002, 1.158376e+002
5.174207e+002, 1.156556e+002
5.179028e+002, 1.154855e+002
5.183849e+002, 1.155008e+002
5.188671e+002, 1.160379e+002
5.193492e+002, 1.164295e+002
5.198313e+002, 1.164701e+002
5.203134e+002, 1.161885e+002
5.207955e+002, 1.160164e+002
5.212776e+002, 1.159527e+002
5.217598e+002, 1.159980e+002
5.222419e+002, 1.162340e+002
5.227240e+002, 1.167724e+002
5.232061e+002, 1.168540e+002
5.236882e+002, 1.163476e+002
5.241703e+002, 1.156359e+002
5.246525e+002, 1.151924e+002
5.251346e+002, 1.150056e+002
5.256167e+002, 1.149293e+002
5.260988e+002, 1.149298e+002
5.265809e+002, 1.150153e+002
5.270630e+002, 1.153176e+002
5.275452e+002, 1.157748e+002
5.280273e+002, 1.160366e+002
5.285094e+002, 1.156768e+002
5.289915e+002, 1.151267e+002
5.294736e+002, 1.148713e+002
5.299557e+002, 1.149508e+002
5.304379e+002, 1.151553e+002
5.309200e+002, 1.154798e+002
5.314021e+002, 1.158081e+002
5.318842e+002, 1.160259e+002
5.323663e+002, 1.160633e+002
5.328484e+002, 1.160450e+002
5.333306e+002, 1.160320e+002
5.338127e+002, 1.159798e+002
5.342948e+002, 1.157920e+002
5.347769e+002, 1.152123e+002
5.352590e+002, 1.147833e+002
5.357411e+002, 1.146661e+002
5.362233e+002, 1.148513e+002
5.367054e+002, 1.150306e+002
5.371875e+002, 1.152901e+002
5.376696e+002, 1.153786e+002
5.381517e+002, 1.150271e+002
5.386339e+002, 1.141858e+002
5.391160e+002, 1.136321e+002
5.395981e+002, 1.134245e+002
5.400802e+002, 1.134721e+002
5.405623e+002, 1.138008e+002
5.410444e+002, 1.143343e+002
5.415266e+002, 1.146320e+002
5.420087e+002, 1.144510e+002
5.424908e+002, 1.140867e+002
5.429729e+002, 1.139686e+002
5.434550e+002, 1.140426e+002
5.439371e+002, 1.140899e+002
5.444193e+002, 1.139263e+002
5.449014e+002, 1.137225e+002
5.453835e+002, 1.136213e+002
5.458656e+002, 1.136374e+002
5.463477e+002, 1.136856e+002
5.468298e+002, 1.138091e+002
5.473120e+002, 1.139052e+002
5.477941e+002, 1.138829e+002
5.482762e+002, 1.134579e+002
5.487583e+002, 1.132874e+002
5.492404e+002, 1.136499e+002
5.497225e+002, 1.142252e+002
5.502047e+002, 1.144492e+002
5.506868e+002, 1.141106e+002
5.511689e+002, 1.138335e+002
5.516510e+002, 1.138166e+002
5.521331e+002, 1.140008e+002
5.526152e+002, 1.139766e+002
5.530974e+002, 1.137120e+002
5.535795e+002, 1.134053e+002
5.540616e+002, 1.131458e+002
5.545437e+002, 1.129464e+002
5.550258e+002, 1.129304e+002
5.555079e+002, 1.131353e+002
5.559901e+002, 1.133144e+002
5.564722e+002, 1.130641e+002
5.569543e+002, 1.126121e+002
5.574364e+002, 1.124572e+002
5.579185e+002, 1.128960e+002
5.584006e+002, 1.134263e+002
5.588828e+002, 1.136723e+002
5.593649e+002, 1.137032e+002
5.598470e+002, 1.136867e+002
5.603291e+002, 1.135898e+002
5.608112e+002, 1.135457e+002
5.612933e+002, 1.136846e+002
5.617755e+002, 1.140094e+002
5.622576e+002, 1.141396e+002
5.627397e+002, 1.137630e+002
5.632218e+002, 1.133860e+002
5.637039e+002, 1.132577e+002
5.641860e+002, 1.134668e+002
5.646682e+002, 1.137183e+002
5.651503e+002, 1.140807e+002
5.656324e+002, 1.144070e+002
5.661145e+002, 1.144830e+002
5.665966e+002, 1.142879e+002
5.670787e+002, 1.140599e+002
5.675609e+002, 1.138426e+002
5.680430e+002, 1.136366e+002
5.685251e+002, 1.134165e+002
5.690072e+002, 1.131938e+002
5.694893e+002, 1.130686e+002
5.699714e+002, 1.131767e+002
5.704536e+002, 1.133763e+002
5.709357e+002, 1.134328e+002
5.714178e+002, 1.133532e+002
5.718999e+002, 1.133282e+002
5.723820e+002, 1.135440e+002
5.728641e+002, 1.138324e+002
5.733463e+002, 1.140485e+002
5.738284e+002, 1.141649e+002
5.743105e+002, 1.142127e+002
5.747926e+002, 1.141110e+002
5.752747e+002, 1.139767e+002
5.757568e+002, 1.139599e+002
5.762390e+002, 1.142046e+002
5.767211e+002, 1.143853e+002
5.772032e+002, 1.144224e+002
5.776853e+002, 1.143735e+002
5.781674e+002, 1.144531e+002
5.786495e+002, 1.147169e+002
5.791317e+002, 1.149497e+002
5.796138e+002, 1.150794e+002
5.800959e+002, 1.151055e+002
5.805780e+002, 1.149613e+002
5.810601e+002, 1.146248e+002
5.815422e+002, 1.143542e+002
5.820244e+002, 1.144761e+002
5.825065e+002, 1.148227e+002
5.829886e+002, 1.149263e+002
5.834707e+002, 1.146783e+002
5.839528e+002, 1.144527e+002
5.844349e+002, 1.146309e+002
5.849171e+002, 1.150362e+002
5.853992e+002, 1.154078e+002
5.858813e+002, 1.156940e+002
5.863634e+002, 1.158846e+002
5.868455e+002, 1.158989e+002
5.873276e+002, 1.158061e+002
5.878098e+002, 1.157967e+002
5.882919e+002, 1.160553e+002
5.887740e+002, 1.162484e+002
5.892561e+002, 1.162936e+002
5.897382e+002, 1.161899e+002
5.902203e+002, 1.158934e+002
5.907025e+002, 1.151871e+002
5.911846e+002, 1.146810e+002
5.916667e+002, 1.149112e+002
5.921488e+002, 1.159557e+002
5.926309e+002, 1.166236e+002
5.931130e+002, 1.168557e+002
5.935952e+002, 1.168023e+002
5.940773e+002, 1.164902e+002
5.945594e+002, 1.160151e+002
5.950415e+002, 1.157655e+002
5.955236e+002, 1.158929e+002
5.960057e+002, 1.161787e+002
5.964879e+002, 1.164771e+002
5.969700e+002, 1.167458e+002
5.974521e+002, 1.168803e+002
5.979342e+002, 1.166005e+002
5.984163e+002, 1.163781e+002
5.988984e+002, 1.165441e+002
5.993806e+002, 1.170575e+002
5.998627e+002, 1.174831e+002
6.003448e+002, 1.178209e+002
6.008269e+002, 1.179567e+002
6.013090e+002, 1.177610e+002
6.017911e+002, 1.170453e+002
6.022733e+002, 1.167623e+002
6.027554e+002, 1.170486e+002
6.032375e+002, 1.175739e+002
6.037196e+002, 1.181184e+002
6.042017e+002, 1.187215e+002
6.046838e+002, 1.189171e+002
6.051660e+002, 1.185440e+002
6.056481e+002, 1.179958e+002
6.061302e+002, 1.179799e+002
6.066123e+002, 1.183805e+002
6.070944e+002, 1.186435e+002
6.075765e+002, 1.183894e+002
6.080587e+002, 1.180724e+002
6.085408e+002, 1.182802e+002
6.090229e+002, 1.188925e+002
6.095050e+002, 1.194870e+002
6.099871e+002, 1.198450e+002
6.104692e+002, 1.201113e+002
6.109514e+002, 1.203910e+002
6.114335e+002, 1.207000e+002
6.119156e+002, 1.208726e+002
6.123977e+002, 1.207348e+002
6.128798e+002, 1.205564e+002
6.133619e+002, 1.205140e+002
6.138441e+002, 1.207495e+002
6.143262e+002, 1.207409e+002
6.148083e+002, 1.203304e+002
6.152904e+002, 1.198915e+002
6.157725e+002, 1.199942e+002
6.162546e+002, 1.206831e+002
6.167368e+002, 1.211170e+002
6.172189e+002, 1.210505e+002
6.177010e+002, 1.208082e+002
6.181831e+002, 1.210577e+002
6.186652e+002, 1.216729e+002
6.191473e+002, 1.221465e+002
6.196295e+002, 1.219521e+002
6.201116e+002, 1.216839e+002
6.205937e+002, 1.221134e+002
6.210758e+002, 1.230791e+002
6.215579e+002, 1.237823e+002
6.220400e+002, 1.235588e+002
6.225222e+002, 1.231575e+002
6.230043e+002, 1.229744e+002
6.234864e+002, 1.230599e+002
6.239685e+002, 1.232970e+002
6.244506e+002, 1.239309e+002
6.249327e+002, 1.244960e+002
6.254149e+002, 1.246354e+002
6.258970e+002, 1.241137e+002
6.263791e+002, 1.239016e+002
6.268612e+002, 1.241273e+002
6.273433e+002, 1.245076e+002
6.278254e+002, 1.245587e+002
6.283076e+002, 1.243075e+002
6.287897e+002, 1.243836e+002
6.292718e+002, 1.250844e+002
6.297539e+002, 1.259595e+002
6.302360e+002, 1.262310e+002
6.307181e+002, 1.260562e+002
6.312003e+002, 1.259273e+002
6.316824e+002, 1.262462e+002
6.321645e+002, 1.265862e+002
6.326466e+002, 1.265187e+002
6.331287e+002, 1.261192e+002
6.336108e+002, 1.259092e+002
6.340930e+002, 1.262811e+002
6.345751e+002, 1.267076e+002
6.350572e+002, 1.268541e+002
6.355393e+002, 1.265855e+002
6.360214e+002, 1.267172e+002
6.365035e+002, 1.275594e+002
6.369857e+002, 1.284238e+002
6.374678e+002, 1.287008e+002
6.379499e+002, 1.282677e+002
6.384320e+002, 1.281401e+002
6.389141e+002, 1.284137e+002
6.393962e+002, 1.289050e+002
6.398784e+002, 1.294437e+002
6.403605e+002, 1.300041e+002
6.408426e+002, 1.305104e+002
6.413247e+002, 1.309750e+002
6.418068e+002, 1.313065e+002
6.422889e+002, 1.312616e+002
6.427711e+002, 1.310121e+002
6.432532e+002, 1.309462e+002
6.437353e+002, 1.314729e+002
6.442174e+002, 1.319977e+002
6.446995e+002, 1.322109e+002
6.451816e+002, 1.321504e+002
6.456638e+002, 1.321284e+002
6.461459e+002, 1.321845e+002
6.466280e+002, 1.322940e+002
6.471101e+002, 1.324507e+002
6.475922e+002, 1.326526e+002
6.480743e+002, 1.328994e+002
6.485565e+002, 1.331771e+002
6.490386e+002, 1.335282e+002
6.495207e+002, 1.340447e+002
6.500028e+002, 1.346910e+002
6.504849e+002, 1.351384e+002
6.509670e+002, 1.353402e+002
6.514492e+002, 1.354716e+002
6.519313e+002, 1.356290e+002
6.524134e+002, 1.358631e+002
6.528955e+002, 1.363140e+002
6.533776e+002, 1.371899e+002
6.538597e+002, 1.379148e+002
6.543419e+002, 1.379631e+002
6.548240e+002, 1.376699e+002
6.553061e+002, 1.375469e+002
6.557882e+002, 1.379368e+002
6.562703e+002, 1.382772e+002
6.567524e+002, 1.383484e+002
6.572346e+002, 1.382827e+002
6.577167e+002, 1.385116e+002
6.581988e+002, 1.392241e+002
6.586809e+002, 1.397945e+002
6.591630e+002, 1.399281e+002
6.596451e+002, 1.397365e+002
6.601273e+002, 1.399732e+002
6.606094e+002, 1.406681e+002
6.610915e+002, 1.412297e+002
6.615736e+002, 1.410118e+002
6.620557e+002, 1.404548e+002
6.625378e+002, 1.405112e+002
6.630200e+002, 1.412244e+002
6.635021e+002, 1.419590e+002
6.639842e+002, 1.421679e+002
6.644663e+002, 1.422428e+002
6.649484e+002, 1.425841e+002
6.654305e+002, 1.434001e+002
6.659127e+002, 1.440774e+002
6.663948e+002, 1.444709e+002
6.668769e+002, 1.446508e+002
6.673590e+002, 1.446742e+002
6.678411e+002, 1.443536e+002
6.683232e+002, 1.442862e+002
6.688054e+002, 1.445868e+002
6.692875e+002, 1.450828e+002
6.697696e+002, 1.454575e+002
6.702517e+002, 1.457067e+002
6.707338e+002, 1.460609e+002
6.712159e+002, 1.466535e+002
6.716981e+002, 1.472921e+002
6.721802e+002, 1.476058e+002
6.726623e+002, 1.476611e+002
6.731444e+002, 1.477096e+002
6.736265e+002, 1.479191e+002
6.741086e+002, 1.481391e+002
6.745908e+002, 1.482127e+002
6.750729e+002, 1.481727e+002
6.755550e+002, 1.482438e+002
6.760371e+002, 1.485856e+002
6.765192e+002, 1.489759e+002
6.770013e+002, 1.492706e+002
6.774835e+002, 1.494344e+002
6.779656e+002, 1.499614e+002
6.784477e+002, 1.511456e+002
6.789298e+002, 1.521708e+002
6.794119e+002, 1.523125e+002
6.798940e+002, 1.515619e+002
6.803762e+002, 1.511974e+002
6.808583e+002, 1.512683e+002
6.813404e+002, 1.516321e+002
6.818225e+002, 1.523523e+002
6.823046e+002, 1.532212e+002
6.827867e+002, 1.537715e+002
6.832689e+002, 1.538055e+002
6.837510e+002, 1.538443e+002
6.842331e+002, 1.544105e+002
6.847152e+002, 1.551513e+002
6.851973e+002, 1.556051e+002
6.856794e+002, 1.551743e+002
6.861616e+002, 1.550248e+002
6.866437e+002, 1.555426e+002
6.871258e+002, 1.564260e+002
6.876079e+002, 1.571600e+002
6.880900e+002, 1.577274e+002
6.885721e+002, 1.581621e+002
6.890543e+002, 1.584379e+002
6.895364e+002, 1.585996e+002
6.900185e+002, 1.586951e+002
6.905006e+002, 1.587342e+002
6.909827e+002, 1.590218e+002
6.914648e+002, 1.599889e+002
6.919470e+002, 1.611584e+002
6.924291e+002, 1.617624e+002
6.929112e+002, 1.618797e+002
6.933933e+002, 1.619483e+002
6.938754e+002, 1.621160e+002
6.943575e+002, 1.623949e+002
6.948397e+002, 1.628318e+002
6.953218e+002, 1.634463e+002
6.958039e+002, 1.640200e+002
6.962860e+002, 1.645467e+002
6.967681e+002, 1.650101e+002
6.972502e+002, 1.653658e+002
6.977324e+002, 1.655437e+002
6.982145e+002, 1.660002e+002
6.986966e+002, 1.668082e+002
6.991787e+002, 1.676923e+002
6.996608e+002, 1.683830e+002
7.001429e+002, 1.689086e+002
7.006251e+002, 1.694216e+002
7.011072e+002, 1.699292e+002
7.015893e+002, 1.704888e+002
7.020714e+002, 1.712030e+002
7.025535e+002, 1.719892e+002
7.030356e+002, 1.727273e+002
7.035178e+002, 1.733465e+002
7.039999e+002, 1.739580e+002
7.044820e+002, 1.745735e+002
7.049641e+002, 1.752112e+002
7.054462e+002, 1.759209e+002
7.059283e+002, 1.768651e+002
7.064105e+002, 1.776171e+002
7.068926e+002, 1.780633e+002
7.073747e+002, 1.783245e+002
7.078568e+002, 1.786733e+002
7.083389e+002, 1.791128e+002
7.088210e+002, 1.796262e+002
7.093032e+002, 1.802214e+002
7.097853e+002, 1.808789e+002
7.102674e+002, 1.815555e+002
7.107495e+002, 1.822565e+002
7.112316e+002, 1.829766e+002
7.117137e+002, 1.836963e+002
7.121959e+002, 1.844465e+002
7.126780e+002, 1.853266e+002
7.131601e+002, 1.862988e+002
7.136422e+002, 1.870699e+002
7.141243e+002, 1.872095e+002
7.146064e+002, 1.874833e+002
7.150886e+002, 1.882605e+002
7.155707e+002, 1.895661e+002
7.160528e+002, 1.906776e+002
7.165349e+002, 1.915849e+002
7.170170e+002, 1.923492e+002
7.174991e+002, 1.930037e+002
7.179813e+002, 1.935491e+002
7.184634e+002, 1.939793e+002
7.189455e+002, 1.942832e+002
7.194276e+002, 1.946776e+002
7.199097e+002, 1.954106e+002
7.203918e+002, 1.963214e+002
7.208740e+002, 1.971868e+002
7.213561e+002, 1.979773e+002
7.218382e+002, 1.987478e+002
7.223203e+002, 1.994510e+002
7.228024e+002, 2.001949e+002
7.232845e+002, 2.010828e+002
7.237667e+002, 2.021815e+002
7.242488e+002, 2.033438e+002
7.247309e+002, 2.046289e+002
7.252130e+002, 2.059265e+002
7.256951e+002, 2.071322e+002
7.261772e+002, 2.082441e+002
7.266594e+002, 2.092126e+002
7.271415e+002, 2.099825e+002
7.276236e+002, 2.106944e+002
7.281057e+002, 2.115233e+002
7.285878e+002, 2.124531e+002
7.290699e+002, 2.134649e+002
7.295521e+002, 2.146531e+002
7.300342e+002, 2.157620e+002
7.305163e+002, 2.164782e+002
7.309984e+002, 2.170222e+002
7.314805e+002, 2.177864e+002
7.319626e+002, 2.188688e+002
7.324448e+002, 2.201991e+002
7.329269e+002, 2.219000e+002
7.334090e+002, 2.238039e+002
7.338911e+002, 2.254131e+002
7.343732e+002, 2.266728e+002
7.348553e+002, 2.277951e+002
7.353375e+002, 2.287995e+002
7.358196e+002, 2.297446e+002
7.363017e+002, 2.307594e+002
7.367838e+002, 2.318466e+002
7.372659e+002, 2.330228e+002
7.377480e+002, 2.343127e+002
7.382302e+002, 2.356825e+002
7.387123e+002, 2.372127e+002
7.391944e+002, 2.388413e+002
7.396765e+002, 2.402770e+002
7.401586e+002, 2.411021e+002
7.406407e+002, 2.420087e+002
7.411229e+002, 2.433809e+002
7.416050e+002, 2.452000e+002
7.420871e+002, 2.467489e+002
7.425692e+002, 2.478789e+002
7.430513e+002, 2.491108e+002
7.435334e+002, 2.507557e+002
7.440156e+002, 2.527729e+002
7.444977e+002, 2.548289e+002
7.449798e+002, 2.569334e+002
7.454619e+002, 2.588164e+002
7.459440e+002, 2.599558e+002
7.464261e+002, 2.608905e+002
7.469083e+002, 2.623589e+002
7.473904e+002, 2.644316e+002
7.478725e+002, 2.665557e+002
7.483546e+002, 2.685404e+002
7.488367e+002, 2.704084e+002
7.493188e+002, 2.721158e+002
7.498010e+002, 2.734914e+002
7.502831e+002, 2.752434e+002
7.507652e+002, 2.775355e+002
7.512473e+002, 2.799497e+002
7.517294e+002, 2.822278e+002
7.522115e+002, 2.843512e+002
7.526937e+002, 2.862790e+002
7.531758e+002, 2.879909e+002
7.536579e+002, 2.896869e+002
7.541400e+002, 2.915258e+002
7.546221e+002, 2.935057e+002
7.551042e+002, 2.956610e+002
7.555864e+002, 2.979941e+002
7.560685e+002, 3.004540e+002
7.565506e+002, 3.029933e+002
7.570327e+002, 3.056541e+002
7.575148e+002, 3.084091e+002
7.579969e+002, 3.115132e+002
7.584791e+002, 3.143766e+002
7.589612e+002, 3.168216e+002
7.594433e+002, 3.192192e+002
7.599254e+002, 3.219950e+002
7.604075e+002, 3.251839e+002
7.608896e+002, 3.283629e+002
7.613718e+002, 3.314038e+002
7.618539e+002, 3.346151e+002
7.623360e+002, 3.385375e+002
7.628181e+002, 3.429171e+002
7.633002e+002, 3.472085e+002
7.637823e+002, 3.512520e+002
7.642645e+002, 3.552556e+002
7.647466e+002, 3.592475e+002
7.652287e+002, 3.632804e+002
7.657108e+002, 3.675573e+002
7.661929e+002, 3.723381e+002
7.666750e+002, 3.770031e+002
7.671572e+002, 3.814344e+002
7.676393e+002, 3.857616e+002
7.681214e+002, 3.902365e+002
7.686035e+002, 3.948500e+002
7.690856e+002, 3.997994e+002
7.695677e+002, 4.052500e+002
7.700499e+002, 4.109141e+002
7.705320e+002, 4.164332e+002
7.710141e+002, 4.218037e+002
7.714962e+002, 4.270183e+002
7.719783e+002, 4.318398e+002
7.724604e+002, 4.367651e+002
7.729426e+002, 4.422416e+002
7.734247e+002, 4.479680e+002
7.739068e+002, 4.531760e+002
7.743889e+002, 4.573823e+002
7.748710e+002, 4.616500e+002
7.753531e+002, 4.662502e+002
7.758353e+002, 4.709897e+002
7.763174e+002, 4.752931e+002
7.767995e+002, 4.791129e+002
7.772816e+002, 4.828688e+002
7.777637e+002, 4.867939e+002
7.782458e+002, 4.906543e+002
7.787280e+002, 4.941477e+002
7.792101e+002, 4.972690e+002
7.796922e+002, 4.999307e+002
7.801743e+002, 5.019382e+002
7.806564e+002, 5.036679e+002
7.811385e+002, 5.052832e+002
7.816207e+002, 5.067962e+002
7.821028e+002, 5.082109e+002
7.825849e+002, 5.098153e+002
7.830670e+002, 5.108846e+002
7.835491e+002, 5.110836e+002
7.840313e+002, 5.106297e+002
7.845134e+002, 5.103996e+002
7.849955e+002, 5.103901e+002
7.854776e+002, 5.103677e+002
7.859597e+002, 5.103698e+002
7.864418e+002, 5.101801e+002
7.869240e+002, 5.092008e+002
7.874061e+002, 5.076698e+002
7.878882e+002, 5.064753e+002
7.883703e+002, 5.061139e+002
7.888524e+002, 5.061781e+002
7.893345e+002, 5.068036e+002
7.898167e+002, 5.078350e+002
7.902988e+002, 5.080342e+002
7.907809e+002, 5.064241e+002
7.912630e+002, 5.058056e+002
7.917451e+002, 5.074498e+002
7.922272e+002, 5.107728e+002
7.927094e+002, 5.132179e+002
7.931915e+002, 5.148104e+002
7.936736e+002, 5.166625e+002
7.941557e+002, 5.195287e+002
7.946378e+002, 5.229164e+002
7.951199e+002, 5.261857e+002
7.956021e+002, 5.293516e+002
7.960842e+002, 5.327274e+002
7.965663e+002, 5.361782e+002
7.970484e+002, 5.400809e+002
7.975305e+002, 5.445694e+002
7.980126e+002, 5.496136e+002
7.984948e+002, 5.552049e+002
7.989769e+002, 5.612287e+002
7.994590e+002, 5.680807e+002
7.999411e+002, 5.760800e+002
8.004232e+002, 5.849737e+002
8.009053e+002, 5.932302e+002
8.013875e+002, 6.009456e+002
8.018696e+002, 6.090187e+002
8.023517e+002, 6.178254e+002
8.028338e+002, 6.275205e+002
8.033159e+002, 6.383619e+002
8.037980e+002, 6.502631e+002
8.042802e+002, 6.625052e+002
8.047623e+002, 6.746918e+002
8.052444e+002, 6.873477e+002
8.057265e+002, 7.004171e+002
8.062086e+002, 7.139508e+002
8.066907e+002, 7.285988e+002
8.071729e+002, 7.445533e+002
8.076550e+002, 7.609631e+002
8.081371e+002, 7.775994e+002
8.086192e+002, 7.944717e+002
8.091013e+002, 8.115335e+002
8.095834e+002, 8.288290e+002
8.100656e+002, 8.466134e+002
8.105477e+002, 8.649391e+002
8.110298e+002, 8.838935e+002
8.115119e+002, 9.039609e+002
8.119940e+002, 9.250173e+002
8.124761e+002, 9.460475e+002
8.129583e+002, 9.669028e+002
8.134404e+002, 9.877902e+002
8.139225e+002, 1.008984e+003
8.144046e+002, 1.030210e+003
8.148867e+002, 1.050909e+003
8.153688e+002, 1.070902e+003
8.158510e+002, 1.090676e+003
8.163331e+002, 1.110611e+003
8.168152e+002, 1.130420e+003
8.172973e+002, 1.149546e+003
8.177794e+002, 1.167972e+003
8.182615e+002, 1.185407e+003
8.187437e+002, 1.201326e+003
8.192258e+002, 1.216306e+003
8.197079e+002, 1.231422e+003
8.201900e+002, 1.246193e+003
8.206721e+002, 1.257285e+003
8.211542e+002, 1.263433e+003
8.216364e+002, 1.268835e+003
8.221185e+002, 1.275104e+003
8.226006e+002, 1.281486e+003
8.230827e+002, 1.285564e+003
8.235648e+002, 1.287535e+003
8.240469e+002, 1.289200e+003
8.245291e+002, 1.292185e+003
8.250112e+002, 1.294779e+003
8.254933e+002, 1.294713e+003
8.259754e+002, 1.292844e+003
8.264575e+002, 1.291871e+003
8.269396e+002, 1.292748e+003
8.274218e+002, 1.294607e+003
8.279039e+002, 1.297502e+003
8.283860e+002, 1.301122e+003
8.288681e+002, 1.304170e+003
8.293502e+002, 1.306462e+003
8.298323e+002, 1.309441e+003
8.303145e+002, 1.313724e+003
8.307966e+002, 1.318810e+003
8.312787e+002, 1.323745e+003
8.317608e+002, 1.328683e+003
8.322429e+002, 1.333955e+003
8.327250e+002, 1.339073e+003
8.332072e+002, 1.345294e+003
8.336893e+002, 1.354493e+003
8.341714e+002, 1.365294e+003
8.346535e+002, 1.373921e+003
8.351356e+002, 1.378783e+003
8.356177e+002, 1.384098e+003
8.360999e+002, 1.390969e+003
8.365820e+002, 1.398453e+003
8.370641e+002, 1.404276e+003
8.375462e+002, 1.408589e+003
8.380283e+002, 1.413266e+003
8.385104e+002, 1.419461e+003
8.389926e+002, 1.425222e+003
8.394747e+002, 1.428469e+003
8.399568e+002, 1.429717e+003
8.404389e+002, 1.429894e+003
8.409210e+002, 1.429210e+003
8.414031e+002, 1.427536e+003
8.418853e+002, 1.424583e+003
8.423674e+002, 1.420744e+003
8.428495e+002, 1.416451e+003
8.433316e+002, 1.411609e+003
8.438137e+002, 1.406863e+003
8.442958e+002, 1.402560e+003
8.447780e+002, 1.397733e+003
8.452601e+002, 1.390300e+003
8.457422e+002, 1.381291e+003
8.462243e+002, 1.373001e+003
8.467064e+002, 1.366097e+003
8.471885e+002, 1.359917e+003
8.476707e+002, 1.353906e+003
8.481528e+002, 1.348503e+003
8.486349e+002, 1.344258e+003
8.491170e+002, 1.341459e+003
8.495991e+002, 1.339533e+003
8.500812e+002, 1.338843e+003
8.505634e+002, 1.338487e+003
8.510455e+002, 1.337167e+003
8.515276e+002, 1.335118e+003
8.520097e+002, 1.334031e+003
8.524918e+002, 1.334141e+003
8.529739e+002, 1.335165e+003
8.534561e+002, 1.336971e+003
8.539382e+002, 1.339461e+003
8.544203e+002, 1.342740e+003
8.549024e+002, 1.347308e+003
8.553845e+002, 1.350977e+003
8.558666e+002, 1.353038e+003
8.563488e+002, 1.354330e+003
8.568309e+002, 1.355435e+003
8.573130e+002, 1.356488e+003
8.577951e+002, 1.356269e+003
8.582772e+002, 1.354748e+003
8.587593e+002, 1.352003e+003
8.592415e+002, 1.348250e+003
8.597236e+002, 1.343256e+003
8.602057e+002, 1.336506e+003
8.606878e+002, 1.327980e+003
8.611699e+002, 1.318109e+003
8.616520e+002, 1.307447e+003
8.621342e+002, 1.295163e+003
8.626163e+002, 1.280459e+003
8.630984e+002, 1.263540e+003
8.635805e+002, 1.244737e+003
8.640626e+002, 1.223714e+003
8.645447e+002, 1.202184e+003
8.650269e+002, 1.181740e+003
8.655090e+002, 1.161432e+003
8.659911e+002, 1.138159e+003
8.664732e+002, 1.112353e+003
8.669553e+002, 1.086091e+003
8.674374e+002, 1.060639e+003
8.679196e+002, 1.035400e+003
8.684017e+002, 1.010570e+003
8.688838e+002, 9.860920e+002
8.693659e+002, 9.615375e+002
8.698480e+002, 9.370156e+002
8.703301e+002, 9.123726e+002
8.708123e+002, 8.868948e+002
8.712944e+002, 8.613221e+002
8.717765e+002, 8.379203e+002
8.722586e+002, 8.168291e+002
8.727407e+002, 7.964865e+002
8.732228e+002, 7.767458e+002
8.737050e+002, 7.571931e+002
8.741871e+002, 7.370089e+002
8.746692e+002, 7.168066e+002
8.751513e+002, 6.975945e+002
8.756334e+002, 6.798420e+002
8.761155e+002, 6.632580e+002
8.765977e+002, 6.478093e+002
8.770798e+002, 6.332605e+002
8.775619e+002, 6.192379e+002
8.780440e+002, 6.057551e+002
8.785261e+002, 5.926483e+002
8.790082e+002, 5.796169e+002
8.794904e+002, 5.672426e+002
8.799725e+002, 5.562326e+002
8.804546e+002, 5.461686e+002
8.809367e+002, 5.363566e+002
8.814188e+002, 5.267196e+002
8.819009e+002, 5.170552e+002
8.823831e+002, 5.071675e+002
8.828652e+002, 4.972159e+002
8.833473e+002, 4.874800e+002
8.838294e+002, 4.776131e+002
8.843115e+002, 4.691012e+002
8.847936e+002, 4.622631e+002
8.852758e+002, 4.557961e+002
8.857579e+002, 4.481415e+002
8.862400e+002, 4.398977e+002
8.867221e+002, 4.322462e+002
8.872042e+002, 4.253504e+002
8.876863e+002, 4.194397e+002
8.881685e+002, 4.147475e+002
8.886506e+002, 4.109408e+002
8.891327e+002, 4.081210e+002
8.896148e+002, 4.064886e+002
8.900969e+002, 4.038053e+002
8.905790e+002, 3.998211e+002
8.910612e+002, 3.953324e+002
8.915433e+002, 3.909835e+002
8.920254e+002, 3.864931e+002
8.925075e+002, 3.805020e+002
8.929896e+002, 3.731837e+002
8.934717e+002, 3.662079e+002
8.939539e+002, 3.602115e+002
8.944360e+002, 3.551410e+002
8.949181e+002, 3.511993e+002
8.954002e+002, 3.482245e+002
8.958823e+002, 3.454377e+002
8.963644e+002, 3.429460e+002
8.968466e+002, 3.402403e+002
8.973287e+002, 3.369617e+002
8.978108e+002, 3.335506e+002
8.982929e+002, 3.311943e+002
8.987750e+002, 3.297766e+002
8.992571e+002, 3.284811e+002
8.997393e+002, 3.271300e+002
9.002214e+002, 3.255873e+002
9.007035e+002, 3.234928e+002
9.011856e+002, 3.211957e+002
9.016677e+002, 3.193275e+002
9.021498e+002, 3.183097e+002
9.026320e+002, 3.173230e+002
9.031141e+002, 3.163622e+002
9.035962e+002, 3.153360e+002
9.040783e+002, 3.140597e+002
9.045604e+002, 3.125543e+002
9.050425e+002, 3.113622e+002
9.055247e+002, 3.106343e+002
9.060068e+002, 3.097589e+002
9.064889e+002, 3.078811e+002
9.069710e+002, 3.056851e+002
9.074531e+002, 3.039740e+002
9.079352e+002, 3.030132e+002
9.084174e+002, 3.019859e+002
9.088995e+002, 3.008105e+002
9.093816e+002, 2.994948e+002
9.098637e+002, 2.980434e+002
9.103458e+002, 2.964399e+002
9.108279e+002, 2.947882e+002
9.113101e+002, 2.930863e+002
9.117922e+002, 2.913810e+002
9.122743e+002, 2.896678e+002
9.127564e+002, 2.879913e+002
9.132385e+002, 2.865005e+002
9.137206e+002, 2.851413e+002
9.142028e+002, 2.835283e+002
9.146849e+002, 2.812753e+002
9.151670e+002, 2.790689e+002
9.156491e+002, 2.772111e+002
9.161312e+002, 2.755400e+002
9.166133e+002, 2.732663e+002
9.170955e+002, 2.703684e+002
9.175776e+002, 2.679120e+002
9.180597e+002, 2.665681e+002
9.185418e+002, 2.653983e+002
9.190239e+002, 2.631295e+002
9.195060e+002, 2.601790e+002
9.199882e+002, 2.573913e+002
9.204703e+002, 2.549100e+002
9.209524e+002, 2.527603e+002
9.214345e+002, 2.511192e+002
9.219166e+002, 2.496670e+002
9.223987e+002, 2.479957e+002
9.228809e+002, 2.460727e+002
9.233630e+002, 2.443188e+002
9.238451e+002, 2.427869e+002
9.243272e+002, 2.413146e+002
9.248093e+002, 2.397028e+002
9.252914e+002, 2.380716e+002
9.257736e+002, 2.366218e+002
9.262557e+002, 2.353972e+002
9.267378e+002, 2.342130e+002
9.272199e+002, 2.331058e+002
9.277020e+002, 2.319599e+002
9.281841e+002, 2.306679e+002
9.286663e+002, 2.292379e+002
9.291484e+002, 2.281251e+002
9.296305e+002, 2.273376e+002
9.301126e+002, 2.265137e+002
9.305947e+002, 2.253243e+002
9.310768e+002, 2.240141e+002
9.315590e+002, 2.228084e+002
9.320411e+002, 2.217380e+002
9.325232e+002, 2.209750e+002
9.330053e+002, 2.210243e+002
9.334874e+002, 2.208069e+002
9.339695e+002, 2.199071e+002
9.344517e+002, 2.186402e+002
9.349338e+002, 2.176969e+002
9.354159e+002, 2.170845e+002
9.358980e+002, 2.169563e+002
9.363801e+002, 2.176541e+002
9.368622e+002, 2.180762e+002
9.373444e+002, 2.164020e+002
9.378265e+002, 2.137697e+002
9.383086e+002, 2.118558e+002
9.387907e+002, 2.114701e+002
9.392728e+002, 2.111311e+002
9.397549e+002, 2.105755e+002
9.402371e+002, 2.100025e+002
9.407192e+002, 2.095911e+002
9.412013e+002, 2.093498e+002
9.416834e+002, 2.089871e+002
9.421655e+002, 2.084930e+002
9.426476e+002, 2.078951e+002
9.431298e+002, 2.070495e+002
9.436119e+002, 2.062274e+002
9.440940e+002, 2.058229e+002
9.445761e+002, 2.058289e+002
9.450582e+002, 2.055885e+002
9.455403e+002, 2.047001e+002
9.460225e+002, 2.038390e+002
9.465046e+002, 2.032047e+002
9.469867e+002, 2.027653e+002
9.474688e+002, 2.024325e+002
9.479509e+002, 2.021980e+002
9.484330e+002, 2.018629e+002
9.489152e+002, 2.012586e+002
9.493973e+002, 2.006343e+002
9.498794e+002, 2.002880e+002
9.503615e+002, 2.000793e+002
9.508436e+002, 1.997578e+002
9.513257e+002, 1.991482e+002
9.518079e+002, 1.985931e+002
9.522900e+002, 1.981391e+002
9.527721e+002, 1.977090e+002
9.532542e+002, 1.972554e+002
9.537363e+002, 1.967596e+002
9.542184e+002, 1.959986e+002
9.547006e+002, 1.949156e+002
9.551827e+002, 1.939461e+002
9.556648e+002, 1.935214e+002
9.561469e+002, 1.933015e+002
9.566290e+002, 1.930143e+002
9.571111e+002, 1.926246e+002
9.575933e+002, 1.922066e+002
9.580754e+002, 1.917796e+002
9.585575e+002, 1.912880e+002
9.590396e+002, 1.906396e+002
9.595217e+002, 1.899361e+002
9.600038e+002, 1.895362e+002
9.604860e+002, 1.894082e+002
9.609681e+002, 1.893870e+002
9.614502e+002, 1.895884e+002
9.619323e+002, 1.896623e+002
9.624144e+002, 1.892986e+002
9.628965e+002, 1.886707e+002
9.633787e+002, 1.881779e+002
9.638608e+002, 1.878841e+002
9.643429e+002, 1.875810e+002
9.648250e+002, 1.872312e+002
9.653071e+002, 1.868864e+002
9.657892e+002, 1.867108e+002
9.662714e+002, 1.865890e+002
9.667535e+002, 1.861576e+002
9.672356e+002, 1.853032e+002
9.677177e+002, 1.845705e+002
9.681998e+002, 1.844492e+002
9.686819e+002, 1.844136e+002
9.691641e+002, 1.840525e+002
9.696462e+002, 1.833222e+002
9.701283e+002, 1.828248e+002
9.706104e+002, 1.825866e+002
9.710925e+002, 1.823977e+002
9.715746e+002, 1.821307e+002
9.720568e+002, 1.818317e+002
9.725389e+002, 1.815934e+002
9.730210e+002, 1.813950e+002
9.735031e+002, 1.811764e+002
9.739852e+002, 1.808578e+002
9.744673e+002, 1.805800e+002
9.749495e+002, 1.803649e+002
9.754316e+002, 1.802234e+002
9.759137e+002, 1.802678e+002
9.763958e+002, 1.805289e+002
9.768779e+002, 1.803845e+002
9.773600e+002, 1.796499e+002
9.778422e+002, 1.788499e+002
9.783243e+002, 1.786619e+002
9.788064e+002, 1.786814e+002
9.792885e+002, 1.783524e+002
9.797706e+002, 1.774784e+002
9.802527e+002, 1.767966e+002
9.807349e+002, 1.764872e+002
9.812170e+002, 1.762950e+002
9.816991e+002, 1.760448e+002
9.821812e+002, 1.757826e+002
9.826633e+002, 1.760681e+002
9.831454e+002, 1.768280e+002
9.836276e+002, 1.772575e+002
9.841097e+002, 1.766277e+002
9.845918e+002, 1.757122e+002
9.850739e+002, 1.749304e+002
9.855560e+002, 1.743315e+002
9.860381e+002, 1.740885e+002
9.865203e+002, 1.744790e+002
9.870024e+002, 1.745999e+002
9.874845e+002, 1.742652e+002
9.879666e+002, 1.737675e+002
9.884487e+002, 1.735627e+002
9.889308e+002, 1.735451e+002
9.894130e+002, 1.733450e+002
9.898951e+002, 1.728617e+002
9.903772e+002, 1.725174e+002
9.908593e+002, 1.728803e+002
9.913414e+002, 1.732187e+002
9.918235e+002, 1.729211e+002
9.923057e+002, 1.719485e+002
9.927878e+002, 1.711484e+002
9.932699e+002, 1.704963e+002
9.937520e+002, 1.701118e+002
9.942341e+002, 1.702066e+002
9.947162e+002, 1.704973e+002
9.951984e+002, 1.704904e+002
9.956805e+002, 1.702732e+002
9.961626e+002, 1.700853e+002
9.966447e+002, 1.701466e+002
9.971268e+002, 1.700684e+002
9.976089e+002, 1.696498e+002
9.980911e+002, 1.691496e+002
9.985732e+002, 1.689800e+002
9.990553e+002, 1.691355e+002
9.995374e+002, 1.691182e+002
1.000020e+003, 1.688470e+002
1.000502e+003, 1.685860e+002
1.000984e+003, 1.688355e+002
1.001466e+003, 1.690464e+002
1.001948e+003, 1.684547e+002
1.002430e+003, 1.668656e+002
1.002912e+003, 1.661644e+002
1.003394e+003, 1.668921e+002
1.003876e+003, 1.676762e+002
1.004359e+003, 1.680072e+002
1.004841e+003, 1.679536e+002
1.005323e+003, 1.675712e+002
1.005805e+003, 1.669503e+002
1.006287e+003, 1.664750e+002
1.006769e+003, 1.664844e+002
1.007251e+003, 1.664505e+002
1.007733e+003, 1.659814e+002
1.008216e+003, 1.653650e+002
1.008698e+003, 1.650060e+002
1.009180e+003, 1.649537e+002
1.009662e+003, 1.649910e+002
1.010144e+003, 1.651257e+002
1.010626e+003, 1.652526e+002
1.011108e+003, 1.652941e+002
1.011590e+003, 1.652446e+002
1.012072e+003, 1.650548e+002
1.012555e+003, 1.647306e+002
1.013037e+003, 1.644499e+002
1.013519e+003, 1.642754e+002
1.014001e+003, 1.641549e+002
1.014483e+003, 1.640683e+002
1.014965e+003, 1.640217e+002
1.015447e+003, 1.641337e+002
1.015929e+003, 1.643660e+002
1.016411e+003, 1.642437e+002
1.016894e+003, 1.634413e+002
1.017376e+003, 1.626422e+002
1.017858e+003, 1.626379e+002
1.018340e+003, 1.629042e+002
1.018822e+003, 1.627493e+002
1.019304e+003, 1.617544e+002
1.019786e+003, 1.612228e+002
1.020268e+003, 1.612789e+002
1.020751e+003, 1.614724e+002
1.021233e+003, 1.614364e+002
1.021715e+003, 1.612778e+002
1.022197e+003, 1.613619e+002
1.022679e+003, 1.616298e+002
1.023161e+003, 1.617001e+002
1.023643e+003, 1.611414e+002
1.024125e+003, 1.606161e+002
1.024607e+003, 1.604704e+002
1.025090e+003, 1.605047e+002
1.025572e+003, 1.602446e+002
1.026054e+003, 1.596511e+002
1.026536e+003, 1.593264e+002
1.027018e+003, 1.594099e+002
1.027500e+003, 1.596311e+002
1.027982e+003, 1.597077e+002
1.028464e+003, 1.597561e+002
1.028947e+003, 1.599837e+002
1.029429e+003, 1.605240e+002
1.029911e+003, 1.606393e+002
1.030393e+003, 1.601629e+002
1.030875e+003, 1.595087e+002
1.031357e+003, 1.587848e+002
1.031839e+003, 1.580891e+002
1.032321e+003, 1.578234e+002
1.032803e+003, 1.579181e+002
1.033286e+003, 1.580614e+002
1.033768e+003, 1.582011e+002
1.034250e+003, 1.582419e+002
1.034732e+003, 1.580237e+002
1.035214e+003, 1.577365e+002
1.035696e+003, 1.576964e+002
1.036178e+003, 1.579954e+002
1.036660e+003, 1.579869e+002
1.037143e+003, 1.575913e+002
1.037625e+003, 1.571011e+002
1.038107e+003, 1.567486e+002
1.038589e+003, 1.564695e+002
1.039071e+003, 1.561053e+002
1.039553e+003, 1.556689e+002
1.040035e+003, 1.556052e+002
1.040517e+003, 1.565696e+002
1.041000e+003, 1.569950e+002
1.041482e+003, 1.561913e+002
1.041964e+003, 1.548371e+002
1.042446e+003, 1.547586e+002
1.042928e+003, 1.556241e+002
1.043410e+003, 1.560313e+002
1.043892e+003, 1.554056e+002
1.044374e+003, 1.547505e+002
1.044856e+003, 1.547393e+002
1.045339e+003, 1.549404e+002
1.045821e+003, 1.549693e+002
1.046303e+003, 1.548007e+002
1.046785e+003, 1.545715e+002
1.047267e+003, 1.542646e+002
1.047749e+003, 1.540545e+002
1.048231e+003, 1.542180e+002
1.048713e+003, 1.544354e+002
1.049195e+003, 1.543033e+002
1.049677e+003, 1.538799e+002
1.050160e+003, 1.533452e+002
1.050642e+003, 1.521910e+002
1.051124e+003, 1.518255e+002
1.051606e+003, 1.527955e+002
1.052088e+003, 1.540119e+002
1.052570e+003, 1.538176e+002
1.053052e+003, 1.525896e+002
1.053534e+003, 1.517999e+002
1.054017e+003, 1.516289e+002
1.054499e+003, 1.516323e+002
1.054981e+003, 1.516491e+002
1.055463e+003, 1.516483e+002
1.055945e+003, 1.516085e+002
1.056427e+003, 1.515354e+002
1.056909e+003, 1.514402e+002
1.057391e+003, 1.513192e+002
1.057874e+003, 1.512567e+002
1.058356e+003, 1.513405e+002
1.058838e+003, 1.513737e+002
1.059320e+003, 1.509472e+002
1.059802e+003, 1.503844e+002
1.060284e+003, 1.501650e+002
1.060766e+003, 1.506422e+002
1.061248e+003, 1.508636e+002
1.061730e+003, 1.507109e+002
1.062213e+003, 1.504696e+002
1.062695e+003, 1.503766e+002
1.063177e+003, 1.503550e+002
1.063659e+003, 1.500108e+002
1.064141e+003, 1.494404e+002
1.064623e+003, 1.491159e+002
1.065105e+003, 1.496411e+002
1.065587e+003, 1.500339e+002
1.066070e+003, 1.497436e+002
1.066552e+003, 1.491748e+002
1.067034e+003, 1.489421e+002
1.067516e+003, 1.490588e+002
1.067998e+003, 1.490505e+002
1.068480e+003, 1.488482e+002
1.068962e+003, 1.486638e+002
1.069444e+003, 1.487895e+002
1.069927e+003, 1.489509e+002
1.070409e+003, 1.488571e+002
1.070891e+003, 1.484914e+002
1.071373e+003, 1.482703e+002
1.071855e+003, 1.483086e+002
1.072337e+003, 1.481747e+002
1.072819e+003, 1.476170e+002
1.073301e+003, 1.470057e+002
1.073783e+003, 1.471361e+002
1.074266e+003, 1.476910e+002
1.074748e+003, 1.479810e+002
1.075230e+003, 1.477022e+002
1.075712e+003, 1.474908e+002
1.076194e+003, 1.476351e+002
1.076676e+003, 1.477541e+002
1.077158e+003, 1.475854e+002
1.077640e+003, 1.471657e+002
1.078122e+003, 1.468707e+002
1.078604e+003, 1.466896e+002
1.079087e+003, 1.465327e+002
1.079569e+003, 1.463519e+002
1.080051e+003, 1.461763e+002
1.080533e+003, 1.460403e+002
1.081015e+003, 1.459159e+002
1.081497e+003, 1.457056e+002
1.081979e+003, 1.453173e+002
1.082461e+003, 1.453723e+002
1.082944e+003, 1.459845e+002
1.083426e+003, 1.465737e+002
1.083908e+003, 1.464127e+002
1.084390e+003, 1.460202e+002
1.084872e+003, 1.461328e+002
1.085354e+003, 1.467223e+002
1.085836e+003, 1.468936e+002
1.086318e+003, 1.462056e+002
1.086801e+003, 1.457258e+002
1.087283e+003, 1.457864e+002
1.087765e+003, 1.460559e+002
1.088247e+003, 1.458593e+002
1.088729e+003, 1.453836e+002
1.089211e+003, 1.451347e+002
1.089693e+003, 1.452543e+002
1.090175e+003, 1.454042e+002
1.090657e+003, 1.454866e+002
1.091140e+003, 1.455073e+002
1.091622e+003, 1.454264e+002
1.092104e+003, 1.452763e+002
1.092586e+003, 1.454008e+002
1.093068e+003, 1.457677e+002
1.093550e+003, 1.459812e+002
1.094032e+003, 1.457892e+002
1.094514e+003, 1.455009e+002
1.094997e+003, 1.452618e+002
1.095479e+003, 1.451016e+002
1.095961e+003, 1.450686e+002
1.096443e+003, 1.452174e+002
1.096925e+003, 1.452800e+002
1.097407e+003, 1.452392e+002
1.097889e+003, 1.452190e+002
1.098371e+003, 1.453938e+002
1.098854e+003, 1.455915e+002
1.099336e+003, 1.455536e+002
1.099818e+003, 1.453364e+002
1.100300e+003, 1.451794e+002
1.100782e+003, 1.452097e+002
1.101264e+003, 1.451623e+002
1.101746e+003, 1.449673e+002
1.102228e+003, 1.447619e+002
1.102710e+003, 1.447406e+002
1.103193e+003, 1.448526e+002
1.103675e+003, 1.450164e+002
1.104157e+003, 1.452215e+002
1.104639e+003, 1.452962e+002
1.105121e+003, 1.449906e+002
1.105603e+003, 1.447476e+002
1.106085e+003, 1.447837e+002
1.106567e+003, 1.449769e+002
1.107049e+003, 1.448377e+002
1.107531e+003, 1.444447e+002
1.108014e+003, 1.444978e+002
1.108496e+003, 1.453479e+002
1.108978e+003, 1.461010e+002
1.109460e+003, 1.459728e+002
1.109942e+003, 1.455785e+002
1.110424e+003, 1.455056e+002
1.110906e+003, 1.457893e+002
1.111388e+003, 1.456320e+002
1.111871e+003, 1.449938e+002
1.112353e+003, 1.444856e+002
1.112835e+003, 1.444209e+002
1.113317e+003, 1.446260e+002
1.113799e+003, 1.451687e+002
1.114281e+003, 1.457710e+002
1.114763e+003, 1.459487e+002
1.115245e+003, 1.452703e+002
1.115728e+003, 1.449142e+002
1.116210e+003, 1.449207e+002
1.116692e+003, 1.451280e+002
1.117174e+003, 1.456442e+002
1.117656e+003, 1.461531e+002
1.118138e+003, 1.458197e+002
1.118620e+003, 1.448944e+002
1.119102e+003, 1.444478e+002
1.119584e+003, 1.454164e+002
1.120067e+003, 1.460986e+002
1.120549e+003, 1.461692e+002
1.121031e+003, 1.459556e+002
1.121513e+003, 1.459281e+002
1.121995e+003, 1.459841e+002
1.122477e+003, 1.457027e+002
1.122959e+003, 1.450507e+002
1.123441e+003, 1.445019e+002
1.123924e+003, 1.442934e+002
1.124406e+003, 1.442728e+002
1.124888e+003, 1.444298e+002
1.125370e+003, 1.446808e+002
1.125852e+003, 1.447974e+002
1.126334e+003, 1.447896e+002
1.126816e+003, 1.447539e+002
1.127298e+003, 1.447198e+002
1.127781e+003, 1.446404e+002
1.128263e+003, 1.443156e+002
1.128745e+003, 1.440652e+002
1.129227e+003, 1.442819e+002
1.129709e+003, 1.449293e+002
1.130191e+003, 1.450170e+002
1.130673e+003, 1.445025e+002
1.131155e+003, 1.441121e+002
1.131637e+003, 1.441951e+002
1.132120e+003, 1.444217e+002
1.132602e+003, 1.444899e+002
1.133084e+003, 1.444589e+002
1.133566e+003, 1.443981e+002
1.134048e+003, 1.442858e+002
1.134530e+003, 1.442482e+002
1.135012e+003, 1.442941e+002
1.135494e+003, 1.443732e+002
1.135976e+003, 1.444237e+002
1.136458e+003, 1.445071e+002
1.136941e+003, 1.447684e+002
1.137423e+003, 1.451387e+002
1.137905e+003, 1.454486e+002
1.138387e+003, 1.456029e+002
1.138869e+003, 1.457780e+002
1.139351e+003, 1.460126e+002
1.139833e+003, 1.462001e+002
1.140315e+003, 1.461968e+002
1.140798e+003, 1.460758e+002
1.141280e+003, 1.460249e+002
1.141762e+003, 1.460333e+002
1.142244e+003, 1.459864e+002
1.142726e+003, 1.457893e+002
1.143208e+003, 1.455828e+002
1.143690e+003, 1.453519e+002
1.144172e+003, 1.451820e+002
1.144655e+003, 1.452764e+002
1.145137e+003, 1.455503e+002
1.145619e+003, 1.456259e+002
1.146101e+003, 1.454552e+002
1.146583e+003, 1.453409e+002
1.147065e+003, 1.456081e+002
1.147547e+003, 1.457937e+002
1.148029e+003, 1.456314e+002
1.148511e+003, 1.452674e+002
1.148994e+003, 1.450718e+002
1.149476e+003, 1.450486e+002
1.149958e+003, 1.452923e+002
1.150440e+003, 1.458982e+002
1.150922e+003, 1.464030e+002
1.151404e+003, 1.463634e+002
1.151886e+003, 1.461798e+002
1.152368e+003, 1.461381e+002
1.152851e+003, 1.462312e+002
1.153333e+003, 1.464000e+002
1.153815e+003, 1.466435e+002
1.154297e+003, 1.467608e+002
1.154779e+003, 1.466367e+002
1.155261e+003, 1.464449e+002
1.155743e+003, 1.463506e+002
1.156225e+003, 1.462743e+002
1.156708e+003, 1.460849e+002
1.157190e+003, 1.457294e+002
1.157672e+003, 1.456536e+002
1.158154e+003, 1.458867e+002
1.158636e+003, 1.461564e+002
1.159118e+003, 1.463450e+002
1.159600e+003, 1.464568e+002
1.160082e+003, 1.464727e+002
1.160564e+003, 1.464243e+002
1.161047e+003, 1.463574e+002
1.161529e+003, 1.462224e+002
1.162011e+003, 1.462426e+002
1.162493e+003, 1.464695e+002
1.162975e+003, 1.466483e+002
1.163457e+003, 1.464425e+002
1.163939e+003, 1.461651e+002
1.164421e+003, 1.463692e+002
1.164903e+003, 1.468776e+002
1.165385e+003, 1.471326e+002
1.165868e+003, 1.467636e+002
1.166350e+003, 1.466101e+002
1.166832e+003, 1.467905e+002
1.167314e+003, 1.470320e+002
1.167796e+003, 1.471030e+002
1.168278e+003, 1.470126e+002
1.168760e+003, 1.466484e+002
1.169242e+003, 1.460829e+002
1.169725e+003, 1.457884e+002
1.170207e+003, 1.461872e+002
1.170689e+003, 1.464462e+002
1.171171e+003, 1.463877e+002
1.171653e+003, 1.462467e+002
1.172135e+003, 1.464514e+002
1.172617e+003, 1.468024e+002
1.173099e+003, 1.467849e+002
1.173582e+003, 1.463513e+002
1.174064e+003, 1.460282e+002
1.174546e+003, 1.460443e+002
1.175028e+003, 1.461733e+002
1.175510e+003, 1.464196e+002
1.175992e+003, 1.466699e+002
1.176474e+003, 1.465518e+002
1.176956e+003, 1.462565e+002
1.177438e+003, 1.464721e+002
1.177921e+003, 1.474235e+002
1.178403e+003, 1.479937e+002
1.178885e+003, 1.472402e+002
1.179367e+003, 1.465700e+002
1.179849e+003, 1.465836e+002
1.180331e+003, 1.470492e+002
1.180813e+003, 1.473409e+002
1.181295e+003, 1.474628e+002
1.181778e+003, 1.473890e+002
1.182260e+003, 1.470349e+002
1.182742e+003, 1.467767e+002
1.183224e+003, 1.468893e+002
1.183706e+003, 1.470410e+002
1.184188e+003, 1.470316e+002
1.184670e+003, 1.469049e+002
1.185152e+003, 1.469291e+002
1.185635e+003, 1.470686e+002
1.186117e+003, 1.471344e+002
1.186599e+003, 1.469919e+002
1.187081e+003, 1.468928e+002
1.187563e+003, 1.470604e+002
1.188045e+003, 1.472279e+002
1.188527e+003, 1.471146e+002
1.189009e+003, 1.467727e+002
1.189491e+003, 1.470100e+002
1.189974e+003, 1.477331e+002
1.190456e+003, 1.482539e+002
1.190938e+003, 1.480936e+002
1.191420e+003, 1.478354e+002
1.191902e+003, 1.477217e+002
1.192384e+003, 1.476814e+002
1.192866e+003, 1.476507e+002
1.193348e+003, 1.476299e+002
1.193830e+003, 1.475722e+002
1.194313e+003, 1.474826e+002
1.194795e+003, 1.474307e+002
1.195277e+003, 1.473891e+002
1.195759e+003, 1.474728e+002
1.196241e+003, 1.479641e+002
1.196723e+003, 1.484822e+002
1.197205e+003, 1.484868e+002
1.197687e+003, 1.479606e+002
1.198169e+003, 1.476199e+002
1.198652e+003, 1.474957e+002
1.199134e+003, 1.474688e+002
1.199616e+003, 1.476117e+002
1.200098e+003, 1.476707e+002
1.200580e+003, 1.473153e+002
1.201062e+003, 1.468611e+002
1.201544e+003, 1.468859e+002
1.202026e+003, 1.474082e+002
1.202509e+003, 1.476862e+002
1.202991e+003, 1.476533e+002
1.203473e+003, 1.476036e+002
1.203955e+003, 1.476968e+002
1.204437e+003, 1.478961e+002
1.204919e+003, 1.482685e+002
1.205401e+003, 1.487027e+002
1.205883e+003, 1.489893e+002
1.206365e+003, 1.491301e+002
1.206848e+003, 1.489707e+002
1.207330e+003, 1.484699e+002
1.207812e+003, 1.480240e+002
1.208294e+003, 1.478276e+002
1.208776e+003, 1.478921e+002
1.209258e+003, 1.484810e+002
1.209740e+003, 1.493019e+002
1.210222e+003, 1.494561e+002
1.210705e+003, 1.489369e+002
1.211187e+003, 1.487127e+002
1.211669e+003, 1.489866e+002
1.212151e+003, 1.492905e+002
1.212633e+003, 1.492386e+002
1.213115e+003, 1.490873e+002
1.213597e+003, 1.490470e+002
1.214079e+003, 1.490686e+002
1.214562e+003, 1.488926e+002
1.215044e+003, 1.485277e+002
1.215526e+003, 1.483746e+002
1.216008e+003, 1.485602e+002
1.216490e+003, 1.487674e+002
1.216972e+003, 1.486509e+002
1.217454e+003, 1.485436e+002
1.217936e+003, 1.488136e+002
1.218418e+003, 1.493235e+002
1.218901e+003, 1.492959e+002
1.219383e+003, 1.487540e+002
1.219865e+003, 1.482109e+002
1.220347e+003, 1.477440e+002
1.220829e+003, 1.475784e+002
1.221311e+003, 1.482227e+002
1.221793e+003, 1.489348e+002
1.222275e+003, 1.491564e+002
1.222757e+003, 1.489429e+002
1.223240e+003, 1.486473e+002
1.223722e+003, 1.482894e+002
1.224204e+003, 1.481512e+002
1.224686e+003, 1.484433e+002
1.225168e+003, 1.486349e+002
1.225650e+003, 1.480694e+002
1.226132e+003, 1.475474e+002
1.226614e+003, 1.477850e+002
1.227096e+003, 1.486523e+002
1.227579e+003, 1.489235e+002
1.228061e+003, 1.486582e+002
1.228543e+003, 1.483589e+002
1.229025e+003, 1.481703e+002
1.229507e+003, 1.481033e+002
1.229989e+003, 1.483154e+002
1.230471e+003, 1.485128e+002
1.230953e+003, 1.484136e+002
1.231436e+003, 1.480737e+002
1.231918e+003, 1.481142e+002
1.232400e+003, 1.484670e+002
1.232882e+003, 1.486696e+002
1.233364e+003, 1.484733e+002
1.233846e+003, 1.481990e+002
1.234328e+003, 1.479293e+002
1.234810e+003, 1.477087e+002
1.235292e+003, 1.475689e+002
1.235775e+003, 1.475089e+002
1.236257e+003, 1.475081e+002
1.236739e+003, 1.475684e+002
1.237221e+003, 1.477030e+002
1.237703e+003, 1.480593e+002
1.238185e+003, 1.482626e+002
1.238667e+003, 1.480531e+002
1.239149e+003, 1.477503e+002
1.239632e+003, 1.475685e+002
1.240114e+003, 1.474881e+002
1.240596e+003, 1.473204e+002
1.241078e+003, 1.471179e+002
1.241560e+003, 1.470997e+002
1.242042e+003, 1.475151e+002
1.242524e+003, 1.479229e+002
1.243006e+003, 1.483801e+002
1.243489e+003, 1.485781e+002
1.243971e+003, 1.480196e+002
1.244453e+003, 1.470003e+002
1.244935e+003, 1.469055e+002
1.245417e+003, 1.475029e+002
1.245899e+003, 1.479258e+002
1.246381e+003, 1.475216e+002
1.246863e+003, 1.473722e+002
1.247345e+003, 1.477813e+002
1.247828e+003, 1.481922e+002
1.248310e+003, 1.480083e+002
1.248792e+003, 1.474982e+002
1.249274e+003, 1.474602e+002
1.249756e+003, 1.477477e+002
1.250238e+003, 1.478291e+002
1.250720e+003, 1.470957e+002
1.251202e+003, 1.468607e+002
1.251684e+003, 1.474292e+002
1.252167e+003, 1.479957e+002
1.252649e+003, 1.477666e+002
1.253131e+003, 1.470906e+002
1.253613e+003, 1.465609e+002
1.254095e+003, 1.461783e+002
1.254577e+003, 1.459070e+002
1.255059e+003, 1.457023e+002
1.255541e+003, 1.456686e+002
1.256023e+003, 1.458105e+002
1.256506e+003, 1.461279e+002
1.256988e+003, 1.468765e+002
1.257470e+003, 1.476278e+002
1.257952e+003, 1.476349e+002
1.258434e+003, 1.471335e+002
1.258916e+003, 1.468757e+002
1.259398e+003, 1.471155e+002
1.259880e+003, 1.470721e+002
1.260363e+003, 1.466473e+002
1.260845e+003, 1.462740e+002
1.261327e+003, 1.465666e+002
1.261809e+003, 1.468862e+002
1.262291e+003, 1.463566e+002
1.262773e+003, 1.453536e+002
1.263255e+003, 1.449455e+002
1.263737e+003, 1.453334e+002
1.264219e+003, 1.454959e+002
1.264702e+003, 1.453572e+002
1.265184e+003, 1.451264e+002
1.265666e+003, 1.448161e+002
1.266148e+003, 1.446221e+002
1.266630e+003, 1.448735e+002
1.267112e+003, 1.452915e+002
1.267594e+003, 1.452573e+002
1.268076e+003, 1.447290e+002
1.268559e+003, 1.444350e+002
1.269041e+003, 1.444226e+002
1.269523e+003, 1.444757e+002
1.270005e+003, 1.444686e+002
1.270487e+003, 1.444577e+002
1.270969e+003, 1.445533e+002
1.271451e+003, 1.446150e+002
1.271933e+003, 1.443255e+002
1.272416e+003, 1.437437e+002
1.272898e+003, 1.437519e+002
1.273380e+003, 1.443463e+002
1.273862e+003, 1.448050e+002
1.274344e+003, 1.446416e+002
1.274826e+003, 1.443318e+002
1.275308e+003, 1.439035e+002
1.275790e+003, 1.435780e+002
1.276272e+003, 1.437730e+002
1.276755e+003, 1.443032e+002
1.277237e+003, 1.443709e+002
1.277719e+003, 1.440156e+002
1.278201e+003, 1.438436e+002
1.278683e+003, 1.444869e+002
1.279165e+003, 1.447849e+002
1.279647e+003, 1.443945e+002
1.280129e+003, 1.438703e+002
1.280611e+003, 1.439406e+002
1.281094e+003, 1.442873e+002
1.281576e+003, 1.441184e+002
1.282058e+003, 1.435425e+002
1.282540e+003, 1.433073e+002
1.283022e+003, 1.440676e+002
1.283504e+003, 1.441952e+002
1.283986e+003, 1.433412e+002
1.284468e+003, 1.424890e+002
1.284950e+003, 1.428431e+002
1.285433e+003, 1.436317e+002
1.285915e+003, 1.438577e+002
1.286397e+003, 1.436064e+002
1.286879e+003, 1.433746e+002
1.287361e+003, 1.432276e+002
1.287843e+003, 1.430059e+002
1.288325e+003, 1.426746e+002
1.288807e+003, 1.424638e+002
1.289290e+003, 1.427355e+002
1.289772e+003, 1.430638e+002
1.290254e+003, 1.430540e+002
1.290736e+003, 1.428161e+002
1.291218e+003, 1.426550e+002
1.291700e+003, 1.425773e+002
1.292182e+003, 1.424753e+002
1.292664e+003, 1.423408e+002
1.293146e+003, 1.422162e+002
1.293629e+003, 1.421295e+002
1.294111e+003, 1.420617e+002
1.294593e+003, 1.420241e+002
1.295075e+003, 1.419834e+002
1.295557e+003, 1.418786e+002
1.296039e+003, 1.417252e+002
1.296521e+003, 1.416567e+002
1.297003e+003, 1.416710e+002
1.297486e+003, 1.417077e+002
1.297968e+003, 1.418085e+002
1.298450e+003, 1.418546e+002
1.298932e+003, 1.418527e+002
1.299414e+003, 1.417538e+002
1.299896e+003, 1.414487e+002
1.300378e+003, 1.410209e+002
1.300860e+003, 1.406511e+002
1.301343e+003, 1.403766e+002
1.301825e+003, 1.402732e+002
##END=



