##NAMES=Hetaerolite
##RRUFFID=R061062
##IDEAL CHEMISTRY=Zn^2+^Mn^3+^_2_O_4_
##LOCALITY=Mohawk mine, San Bernardino County, California, USA
##OWNER=RRUFF
##SOURCE=Bob Jenkins
##DESCRIPTION=Dark gray semi-metallic aggregate of pseudo-octahedra, associated with platy chalcophanite.
##STATUS=The identification of this mineral is confirmed by single-crystal X-ray diffraction and chemical analysis.
##URL=rruff.info/R061062
##MEASURED CHEMISTRY=Zn_1.00_Mn^3+^_2.00_O_4_ ; lighter rim: Zn_1.00_(Mn^3+^_1.84_Fe^3+^_0.15_)_Î£=2_O_4_
147.5991, 573.0961
148.0812, 570.8806
148.5633, 570.7813
149.0454, 577.7906
149.5276, 581.4648
150.0097, 577.7300
150.4918, 561.7446
150.9739, 553.9924
151.4560, 561.2937
151.9381, 575.4844
152.4202, 584.5291
152.9024, 583.3297
153.3845, 580.4152
153.8666, 579.1818
154.3487, 584.4642
154.8308, 583.6907
155.3129, 568.2299
155.7951, 544.6982
156.2772, 531.0011
156.7593, 541.3000
157.2414, 555.8025
157.7235, 563.5458
158.2056, 554.0323
158.6878, 546.0093
159.1699, 543.7363
159.6520, 546.9002
160.1341, 552.5950
160.6162, 561.6472
161.0983, 572.0188
161.5805, 581.8671
162.0626, 593.0546
162.5447, 601.6043
163.0268, 606.1494
163.5089, 606.6566
163.9910, 603.0074
164.4732, 590.2889
164.9553, 574.2305
165.4374, 562.9140
165.9195, 562.3842
166.4016, 566.0096
166.8837, 569.3559
167.3659, 571.7199
167.8480, 574.5456
168.3301, 581.7452
168.8122, 590.4614
169.2943, 593.9042
169.7764, 583.9186
170.2586, 568.8121
170.7407, 556.6521
171.2228, 549.2744
171.7049, 544.6573
172.1870, 543.5012
172.6691, 544.6816
173.1513, 542.8565
173.6334, 528.6254
174.1155, 510.1769
174.5976, 500.6496
175.0797, 508.1209
175.5618, 522.0881
176.0440, 531.9526
176.5261, 537.6867
177.0082, 540.0853
177.4903, 539.5573
177.9724, 536.1232
178.4545, 529.9316
178.9367, 517.3931
179.4188, 503.2295
179.9009, 495.4912
180.3830, 494.5111
180.8651, 496.6007
181.3472, 498.4845
181.8293, 500.2827
182.3115, 502.5630
182.7936, 505.1681
183.2757, 508.4200
183.7578, 515.1305
184.2399, 527.0645
184.7220, 536.7776
185.2042, 530.7910
185.6863, 510.4969
186.1684, 490.4526
186.6505, 478.1689
187.1326, 472.9610
187.6147, 472.6448
188.0969, 478.0360
188.5790, 486.4238
189.0611, 493.5095
189.5432, 499.2699
190.0253, 503.5969
190.5074, 507.7310
190.9896, 511.1591
191.4717, 508.5491
191.9538, 496.1338
192.4359, 478.9385
192.9180, 471.6577
193.4001, 475.0547
193.8823, 482.6877
194.3644, 490.6274
194.8465, 498.9002
195.3286, 503.1733
195.8107, 501.2473
196.2928, 494.4280
196.7750, 489.8416
197.2571, 487.8449
197.7392, 486.8365
198.2213, 483.8557
198.7034, 478.2587
199.1855, 477.0753
199.6677, 484.8403
200.1498, 500.8807
200.6319, 509.6004
201.1140, 509.2496
201.5961, 505.1423
202.0782, 505.1926
202.5604, 510.3733
203.0425, 514.6776
203.5246, 516.1740
204.0067, 514.9569
204.4888, 509.9551
204.9709, 499.9248
205.4531, 487.5008
205.9352, 476.9189
206.4173, 467.1927
206.8994, 462.2953
207.3815, 466.0651
207.8636, 480.9159
208.3457, 491.0598
208.8279, 494.7888
209.3100, 494.1535
209.7921, 494.4860
210.2742, 495.8227
210.7563, 498.0316
211.2384, 501.7843
211.7206, 508.3746
212.2027, 511.4630
212.6848, 509.8341
213.1669, 504.3631
213.6490, 498.2592
214.1311, 490.5894
214.6133, 483.9556
215.0954, 479.6870
215.5775, 476.9227
216.0596, 479.7839
216.5417, 492.5441
217.0238, 512.8309
217.5060, 520.1553
217.9881, 509.6555
218.4702, 493.0786
218.9523, 479.1673
219.4344, 467.0762
219.9165, 460.3350
220.3987, 461.6755
220.8808, 470.9243
221.3629, 474.3006
221.8450, 470.1684
222.3271, 462.0602
222.8092, 452.0856
223.2914, 435.7298
223.7735, 427.3921
224.2556, 433.0556
224.7377, 454.6562
225.2198, 467.9070
225.7020, 470.5561
226.1841, 466.9454
226.6662, 461.5935
227.1483, 451.2142
227.6304, 445.1272
228.1125, 446.9224
228.5947, 458.6120
229.0768, 467.2382
229.5589, 473.5760
230.0410, 476.3953
230.5231, 472.7979
231.0052, 456.9948
231.4874, 444.4138
231.9695, 440.7743
232.4516, 449.0035
232.9337, 455.4201
233.4158, 459.4633
233.8979, 462.0116
234.3800, 465.0191
234.8622, 470.8733
235.3443, 473.4833
235.8264, 469.3780
236.3085, 453.4684
236.7906, 445.1465
237.2727, 449.1392
237.7549, 459.1471
238.2370, 459.6879
238.7191, 442.4924
239.2012, 427.5508
239.6833, 424.3376
240.1654, 440.6427
240.6476, 451.3858
241.1297, 454.9302
241.6118, 453.0887
242.0939, 450.8383
242.5760, 446.9059
243.0581, 444.3034
243.5403, 444.6501
244.0224, 449.1020
244.5045, 454.2037
244.9866, 461.4060
245.4687, 469.1485
245.9508, 471.4061
246.4330, 465.7820
246.9151, 458.0156
247.3972, 450.4745
247.8793, 440.7838
248.3614, 437.0385
248.8435, 442.0760
249.3257, 453.6826
249.8078, 462.2704
250.2899, 468.1560
250.7720, 470.6028
251.2541, 468.2810
251.7362, 457.2750
252.2184, 449.9544
252.7005, 447.2804
253.1826, 449.0229
253.6647, 454.9782
254.1468, 469.6000
254.6289, 482.0620
255.1111, 483.8564
255.5932, 468.9152
256.0753, 457.3144
256.5574, 451.4509
257.0395, 450.8161
257.5216, 451.2404
258.0038, 451.4683
258.4859, 454.6180
258.9680, 465.2334
259.4501, 490.7860
259.9322, 504.0768
260.4143, 497.5061
260.8965, 473.8757
261.3786, 460.7852
261.8607, 462.3215
262.3428, 467.7635
262.8249, 467.8031
263.3070, 459.3987
263.7892, 454.6978
264.2713, 456.5948
264.7534, 464.3495
265.2355, 470.8755
265.7176, 476.0377
266.1997, 480.2928
266.6819, 484.2774
267.1640, 488.3410
267.6461, 490.8155
268.1282, 491.3488
268.6103, 490.0010
269.0924, 487.0101
269.5746, 481.5943
270.0567, 476.0114
270.5388, 472.2442
271.0209, 470.4117
271.5030, 469.7872
271.9851, 470.5005
272.4673, 472.3815
272.9494, 473.3995
273.4315, 472.4030
273.9136, 473.2986
274.3957, 482.2125
274.8778, 501.4899
275.3599, 513.8001
275.8420, 512.9574
276.3242, 501.6267
276.8063, 496.5103
277.2884, 498.8324
277.7705, 503.9052
278.2526, 507.0639
278.7347, 508.0211
279.2169, 510.5578
279.6990, 516.0956
280.1811, 523.8672
280.6632, 530.0861
281.1453, 534.2229
281.6274, 538.7986
282.1096, 547.1537
282.5917, 559.3955
283.0738, 570.1239
283.5559, 578.7729
284.0380, 584.8002
284.5201, 584.2601
285.0023, 576.1383
285.4844, 567.5669
285.9665, 564.2358
286.4486, 566.1539
286.9307, 573.6116
287.4128, 588.7336
287.8950, 608.7586
288.3771, 624.4147
288.8592, 635.4720
289.3413, 645.5756
289.8234, 658.8156
290.3055, 674.4169
290.7877, 687.9356
291.2698, 696.7274
291.7519, 703.5955
292.2340, 715.9427
292.7161, 733.6579
293.1982, 752.6382
293.6804, 769.8917
294.1625, 785.5846
294.6446, 799.7848
295.1267, 811.8364
295.6088, 823.1982
296.0909, 836.4677
296.5731, 851.5374
297.0552, 867.4666
297.5373, 884.3698
298.0194, 901.4607
298.5015, 916.1088
298.9836, 924.8549
299.4658, 933.5079
299.9479, 953.5062
300.4300, 983.5091
300.9121, 1010.328
301.3942, 1020.312
301.8763, 1021.002
302.3585, 1025.349
302.8406, 1034.091
303.3227, 1050.953
303.8048, 1086.646
304.2869, 1137.608
304.7690, 1184.585
305.2512, 1208.633
305.7333, 1222.956
306.2154, 1245.966
306.6975, 1284.464
307.1796, 1329.241
307.6617, 1371.944
308.1439, 1413.194
308.6260, 1429.066
309.1081, 1533.251
309.5902, 1620.449
310.0723, 1691.566
310.5544, 1698.453
311.0366, 1788.292
311.5187, 1844.884
312.0008, 1900.108
312.4829, 2001.613
312.9650, 2017.839
313.4471, 2118.611
313.9293, 2185.644
314.4114, 2268.114
314.8935, 2317.134
315.3756, 2376.489
315.8577, 2433.830
316.3398, 2495.097
316.8220, 2566.254
317.3041, 2635.693
317.7862, 2696.608
318.2683, 2746.799
318.7504, 2790.853
319.2325, 2830.641
319.7147, 2865.133
320.1968, 2892.984
320.6789, 2921.858
321.1610, 2936.994
321.6431, 2930.601
322.1252, 2897.044
322.6074, 2854.536
323.0895, 2802.375
323.5716, 2743.955
324.0537, 2684.358
324.5358, 2631.009
325.0179, 2572.047
325.5001, 2502.546
325.9822, 2418.319
326.4643, 2335.817
326.9464, 2260.291
327.4285, 2185.669
327.9106, 2103.177
328.3928, 2001.246
328.8749, 1905.010
329.3570, 1819.616
329.8391, 1746.297
330.3212, 1677.662
330.8033, 1612.283
331.2854, 1552.608
331.7675, 1500.698
332.2497, 1458.822
332.7318, 1421.128
333.2139, 1388.464
333.6960, 1361.178
334.1781, 1327.077
334.6602, 1280.951
335.1424, 1233.947
335.6245, 1195.959
336.1066, 1168.100
336.5887, 1146.310
337.0708, 1131.269
337.5529, 1122.100
338.0351, 1109.790
338.5172, 1093.960
338.9993, 1075.756
339.4814, 1054.360
339.9635, 1028.865
340.4456, 1008.057
340.9278, 995.0231
341.4099, 987.3123
341.8920, 977.2431
342.3741, 964.4694
342.8562, 950.8566
343.3383, 936.5665
343.8205, 921.8780
344.3026, 910.4950
344.7847, 904.2808
345.2668, 900.1291
345.7489, 890.9435
346.2310, 876.8786
346.7132, 863.5833
347.1953, 855.3640
347.6774, 851.1104
348.1595, 846.3686
348.6416, 840.0369
349.1237, 835.0017
349.6059, 836.4872
350.0880, 843.3494
350.5701, 849.9188
351.0522, 853.8881
351.5343, 855.3754
352.0164, 854.1538
352.4986, 849.9500
352.9807, 844.7874
353.4628, 839.7059
353.9449, 835.1590
354.4270, 832.1695
354.9091, 830.9983
355.3913, 831.7468
355.8734, 827.4162
356.3555, 843.8170
356.8376, 855.3631
357.3197, 862.3159
357.8018, 850.9160
358.2840, 863.2157
358.7661, 866.0173
359.2482, 868.4290
359.7303, 884.0629
360.2124, 875.3326
360.6945, 890.7568
361.1767, 896.5402
361.6588, 906.7355
362.1409, 907.3747
362.6230, 910.9653
363.1051, 924.1153
363.5872, 931.9720
364.0694, 931.5125
364.5515, 941.9884
365.0336, 932.9241
365.5157, 941.0063
365.9978, 956.4868
366.4799, 966.9462
366.9621, 984.2186
367.4442, 995.6310
367.9263, 1003.498
368.4084, 1015.481
368.8905, 1038.286
369.3727, 1058.997
369.8548, 1071.855
370.3369, 1070.494
370.8190, 1075.441
371.3011, 1088.617
371.7832, 1107.294
372.2654, 1127.496
372.7475, 1151.053
373.2296, 1172.567
373.7117, 1190.529
374.1938, 1204.861
374.6759, 1215.714
375.1581, 1220.412
375.6402, 1225.617
376.1223, 1242.220
376.6044, 1273.704
377.0865, 1298.371
377.5686, 1307.687
378.0508, 1304.481
378.5329, 1309.919
379.0150, 1326.594
379.4971, 1340.859
379.9792, 1337.529
380.4613, 1317.723
380.9435, 1300.025
381.4256, 1289.789
381.9077, 1282.553
382.3898, 1271.034
382.8719, 1254.968
383.3540, 1230.584
383.8362, 1186.759
384.3183, 1131.964
384.8004, 1090.627
385.2825, 1068.920
385.7646, 1053.570
386.2467, 1030.722
386.7288, 1001.056
387.2109, 967.6428
387.6931, 925.5944
388.1752, 883.4944
388.6573, 854.2931
389.1394, 840.8024
389.6215, 828.9045
390.1036, 807.1074
390.5858, 780.5324
391.0679, 757.5502
391.5500, 743.6356
392.0321, 732.3666
392.5142, 721.0805
392.9963, 709.5992
393.4785, 696.1189
393.9606, 676.4484
394.4427, 655.9401
394.9248, 639.3940
395.4069, 632.7368
395.8890, 625.1324
396.3712, 610.9464
396.8533, 591.8872
397.3354, 580.4734
397.8175, 587.6014
398.2996, 596.0963
398.7817, 596.9865
399.2639, 583.6931
399.7460, 571.6924
400.2281, 559.9723
400.7102, 549.7163
401.1923, 543.6912
401.6744, 543.8190
402.1566, 545.4031
402.6387, 547.1970
403.1208, 549.7213
403.6029, 550.1683
404.0850, 548.5240
404.5671, 544.8067
405.0493, 537.2150
405.5314, 523.4755
406.0135, 516.3189
406.4956, 523.0457
406.9777, 540.6712
407.4598, 544.3314
407.9420, 531.6550
408.4241, 515.4966
408.9062, 507.8994
409.3883, 507.9922
409.8704, 508.8943
410.3525, 509.3365
410.8347, 509.5802
411.3168, 511.1056
411.7989, 513.6161
412.2810, 513.7546
412.7631, 506.7728
413.2452, 496.3731
413.7274, 489.7021
414.2095, 488.0539
414.6916, 488.8325
415.1737, 491.3029
415.6558, 494.4008
416.1379, 495.5261
416.6201, 492.3961
417.1022, 487.5892
417.5843, 482.0065
418.0664, 475.5927
418.5485, 471.9235
419.0306, 475.2305
419.5128, 481.4139
419.9949, 486.0190
420.4770, 487.4837
420.9591, 487.3846
421.4412, 484.7307
421.9233, 480.1488
422.4055, 478.1819
422.8876, 485.1020
423.3697, 491.1238
423.8518, 490.6483
424.3339, 470.7471
424.8160, 461.7624
425.2982, 471.9924
425.7803, 492.1400
426.2624, 501.2160
426.7445, 491.8130
427.2266, 482.2127
427.7087, 479.2225
428.1909, 484.5326
428.6730, 485.9167
429.1551, 481.3382
429.6372, 475.8828
430.1193, 476.9795
430.6014, 486.4381
431.0836, 491.7675
431.5657, 488.3904
432.0478, 478.7861
432.5299, 473.8232
433.0120, 473.8073
433.4941, 474.7187
433.9763, 472.9326
434.4584, 469.1655
434.9405, 466.6343
435.4226, 465.7611
435.9047, 466.4699
436.3868, 471.2985
436.8690, 478.5120
437.3511, 481.0615
437.8332, 467.6767
438.3153, 450.7399
438.7974, 447.6534
439.2795, 460.7968
439.7616, 474.7154
440.2437, 477.3772
440.7259, 474.0490
441.2080, 471.7939
441.6901, 474.8920
442.1722, 478.1387
442.6543, 478.2909
443.1364, 475.8401
443.6186, 474.8068
444.1007, 476.8509
444.5828, 480.5558
445.0649, 485.5403
445.5470, 498.2280
446.0291, 502.5604
446.5113, 487.5278
446.9934, 463.5776
447.4755, 454.0584
447.9576, 471.0019
448.4397, 488.0069
448.9218, 497.7869
449.4040, 499.4320
449.8861, 499.6031
450.3682, 498.1039
450.8503, 495.4052
451.3324, 491.6803
451.8145, 486.5948
452.2967, 481.9159
452.7788, 477.3353
453.2609, 473.6226
453.7430, 474.4153
454.2251, 480.1577
454.7072, 485.8185
455.1894, 487.6551
455.6715, 486.3147
456.1536, 483.9296
456.6357, 480.0300
457.1178, 477.6528
457.5999, 483.6666
458.0821, 495.1442
458.5642, 502.5037
459.0463, 496.8026
459.5284, 487.0961
460.0105, 483.1588
460.4926, 485.0452
460.9748, 490.1582
461.4569, 500.8593
461.9390, 512.2691
462.4211, 519.0815
462.9032, 516.4651
463.3853, 513.4539
463.8675, 514.4485
464.3496, 517.9695
464.8317, 519.7110
465.3138, 514.4337
465.7959, 510.6053
466.2780, 512.7322
466.7602, 524.4575
467.2423, 532.4733
467.7244, 533.3101
468.2065, 532.0740
468.6886, 534.9381
469.1707, 545.7940
469.6529, 553.3947
470.1350, 555.0721
470.6171, 551.5240
471.0992, 547.5826
471.5813, 542.2859
472.0634, 539.2311
472.5456, 541.8282
473.0277, 550.1490
473.5098, 557.5860
473.9919, 563.8922
474.4740, 568.4781
474.9561, 569.4785
475.4383, 567.3389
475.9204, 565.5007
476.4025, 566.4453
476.8846, 568.4758
477.3667, 567.8463
477.8488, 564.5959
478.3310, 561.9586
478.8131, 564.3466
479.2952, 568.3203
479.7773, 568.6660
480.2594, 560.4156
480.7415, 553.8200
481.2237, 557.7478
481.7058, 568.3394
482.1879, 575.6162
482.6700, 573.9934
483.1521, 569.5500
483.6342, 564.6014
484.1164, 558.8978
484.5985, 554.7194
485.0806, 555.9150
485.5627, 557.0729
486.0448, 552.6701
486.5269, 534.6712
487.0091, 523.0209
487.4912, 521.7128
487.9733, 528.8538
488.4554, 536.0422
488.9375, 545.5532
489.4196, 550.0835
489.9018, 542.1703
490.3839, 519.9705
490.8660, 510.4375
491.3481, 517.4876
491.8302, 529.1306
492.3123, 527.1777
492.7945, 513.3076
493.2766, 502.7499
493.7587, 502.1077
494.2408, 507.3657
494.7229, 512.8936
495.2050, 518.4428
495.6871, 520.7909
496.1693, 513.5178
496.6514, 503.5164
497.1335, 500.7094
497.6156, 510.1405
498.0977, 517.4022
498.5798, 509.3945
499.0620, 493.6905
499.5441, 482.9040
500.0262, 486.7902
500.5083, 491.2946
500.9904, 489.7657
501.4725, 481.8630
501.9547, 477.8197
502.4368, 482.3089
502.9189, 488.8563
503.4010, 493.4694
503.8831, 494.2991
504.3652, 496.6617
504.8474, 502.4959
505.3295, 508.9210
505.8116, 509.3907
506.2937, 501.7979
506.7758, 495.0087
507.2579, 492.8862
507.7401, 494.7098
508.2222, 493.0405
508.7043, 487.2222
509.1864, 482.0681
509.6685, 482.6781
510.1506, 487.8486
510.6328, 493.5119
511.1149, 500.0755
511.5970, 504.0423
512.0791, 497.3834
512.5612, 483.8912
513.0433, 474.9053
513.5255, 480.9182
514.0076, 490.7999
514.4897, 495.5123
514.9718, 494.5089
515.4539, 491.6642
515.9360, 485.4341
516.4182, 479.9778
516.9003, 478.8001
517.3824, 489.3074
517.8645, 495.9052
518.3466, 493.2857
518.8287, 484.9730
519.3109, 480.5842
519.7930, 481.7502
520.2751, 484.8336
520.7572, 489.7510
521.2393, 496.9905
521.7214, 499.3392
522.2036, 495.0262
522.6857, 489.1900
523.1678, 486.3498
523.6499, 486.5434
524.1320, 488.7067
524.6141, 493.7249
525.0963, 498.9068
525.5784, 498.2915
526.0605, 492.6225
526.5426, 487.5741
527.0247, 486.6947
527.5068, 488.0418
527.9890, 488.8833
528.4711, 489.1606
528.9532, 489.3379
529.4353, 490.1364
529.9174, 483.4737
530.3995, 494.2737
530.8817, 500.2190
531.3638, 501.5707
531.8459, 484.5699
532.3280, 491.2675
532.8101, 488.4679
533.2922, 485.2788
533.7744, 495.3117
534.2565, 480.9803
534.7386, 490.8037
535.2207, 490.9849
535.7028, 495.5790
536.1849, 490.6174
536.6671, 488.6071
537.1492, 496.1559
537.6313, 498.4117
538.1134, 485.9321
538.5955, 488.6050
539.0776, 493.5408
539.5598, 500.6851
540.0419, 505.7594
540.5240, 505.2049
541.0061, 501.7497
541.4882, 502.0022
541.9703, 505.8436
542.4525, 510.9264
542.9346, 517.1046
543.4167, 522.7075
543.8988, 524.7979
544.3809, 520.9622
544.8630, 518.4438
545.3452, 524.4601
545.8273, 534.0750
546.3094, 539.2069
546.7915, 529.8124
547.2736, 523.0657
547.7557, 527.4455
548.2379, 542.8539
548.7200, 549.5326
549.2021, 539.4234
549.6842, 528.3343
550.1663, 525.1044
550.6484, 534.1677
551.1306, 537.1898
551.6127, 531.5959
552.0948, 523.7085
552.5769, 523.5927
553.0590, 531.6324
553.5411, 538.4833
554.0233, 541.3911
554.5054, 541.5210
554.9875, 541.1762
555.4696, 540.3943
555.9517, 539.4935
556.4338, 535.7110
556.9160, 533.1826
557.3981, 539.8398
557.8802, 557.9210
558.3623, 573.1757
558.8444, 571.8922
559.3265, 564.5823
559.8087, 563.1776
560.2908, 581.4720
560.7729, 594.7307
561.2550, 592.0834
561.7371, 578.4590
562.2192, 571.5068
562.7014, 576.3443
563.1835, 583.3398
563.6656, 590.2857
564.1477, 597.4199
564.6298, 601.7642
565.1119, 602.2583
565.5941, 602.1191
566.0762, 604.2017
566.5583, 608.5074
567.0404, 614.0491
567.5225, 621.7821
568.0046, 628.2399
568.4868, 626.3591
568.9689, 617.6243
569.4510, 608.7717
569.9331, 599.4731
570.4152, 593.7672
570.8973, 599.1229
571.3795, 614.0473
571.8616, 626.5528
572.3437, 625.5101
572.8258, 621.9422
573.3079, 625.2412
573.7900, 641.1840
574.2722, 652.9010
574.7543, 653.3090
575.2364, 648.7375
575.7185, 647.1710
576.2006, 650.0849
576.6827, 654.0567
577.1648, 658.7680
577.6469, 664.2123
578.1290, 670.5635
578.6111, 678.6074
579.0933, 684.8129
579.5754, 686.3730
580.0575, 683.8623
580.5396, 683.6721
581.0217, 685.9663
581.5038, 689.0333
581.9860, 693.1752
582.4681, 696.6034
582.9502, 694.1875
583.4323, 681.4392
583.9144, 669.8566
584.3965, 671.2135
584.8787, 680.6394
585.3608, 688.1025
585.8429, 687.9758
586.3250, 686.4487
586.8071, 687.2111
587.2892, 690.1578
587.7714, 688.6344
588.2535, 672.9600
588.7356, 660.3611
589.2177, 660.3959
589.6998, 680.3903
590.1819, 690.3346
590.6641, 687.3239
591.1462, 678.7038
591.6283, 673.0615
592.1104, 670.4700
592.5925, 668.7281
593.0746, 666.9968
593.5568, 666.2557
594.0389, 670.9522
594.5210, 679.6257
595.0031, 683.8192
595.4852, 672.0817
595.9673, 657.3344
596.4495, 655.7156
596.9316, 667.6407
597.4137, 679.5110
597.8958, 687.3581
598.3779, 690.4337
598.8600, 687.1609
599.3422, 670.3227
599.8243, 660.1385
600.3064, 667.2599
600.7885, 679.8931
601.2706, 681.1821
601.7527, 663.9492
602.2349, 649.5701
602.7170, 642.2632
603.1991, 640.8522
603.6812, 641.5110
604.1633, 644.4763
604.6454, 647.7346
605.1276, 650.4874
605.6097, 652.6074
606.0918, 654.0859
606.5739, 654.9841
607.0560, 653.6637
607.5381, 645.1703
608.0203, 634.6956
608.5024, 630.0512
608.9845, 635.0841
609.4666, 641.7252
609.9487, 648.3685
610.4308, 653.1841
610.9130, 653.0827
611.3951, 639.3499
611.8772, 629.2159
612.3593, 627.5789
612.8414, 633.4409
613.3235, 641.5983
613.8057, 653.5520
614.2878, 665.2047
614.7699, 674.7175
615.2520, 682.0598
615.7341, 688.4868
616.2162, 694.4387
616.6984, 697.4631
617.1805, 690.4068
617.6626, 677.6838
618.1447, 676.5169
618.6268, 693.1806
619.1089, 713.3131
619.5911, 723.2751
620.0732, 725.8636
620.5553, 726.8992
621.0374, 725.6207
621.5195, 726.3631
622.0016, 734.0781
622.4838, 746.9315
622.9659, 753.8070
623.4480, 745.5710
623.9301, 737.3654
624.4122, 735.1896
624.8943, 740.0281
625.3765, 743.9637
625.8586, 745.3617
626.3407, 748.8164
626.8228, 761.1038
627.3049, 782.3593
627.7870, 795.3672
628.2692, 797.0120
628.7513, 792.9742
629.2334, 791.0983
629.7155, 790.3023
630.1976, 787.1559
630.6797, 778.5008
631.1619, 768.8321
631.6440, 760.7013
632.1261, 754.5334
632.6082, 751.9379
633.0903, 761.2236
633.5724, 767.6514
634.0546, 760.8270
634.5367, 736.8768
635.0188, 723.7968
635.5009, 730.5956
635.9830, 740.2199
636.4651, 740.4246
636.9473, 727.1332
637.4294, 721.5139
637.9115, 726.2701
638.3936, 735.1323
638.8757, 738.8684
639.3578, 738.2245
639.8400, 734.1184
640.3221, 743.1820
640.8042, 749.8187
641.2863, 754.1585
641.7684, 749.3217
642.2505, 756.3345
642.7327, 758.5997
643.2148, 760.6687
643.6969, 769.3492
644.1790, 765.8475
644.6611, 774.4228
645.1432, 778.1774
645.6254, 784.1394
646.1075, 785.3221
646.5896, 787.9811
647.0717, 795.4195
647.5538, 800.2110
648.0359, 800.8442
648.5181, 806.9464
649.0002, 805.3871
649.4823, 807.1743
649.9644, 808.9555
650.4465, 811.5543
650.9286, 816.5614
651.4108, 823.4690
651.8929, 830.6713
652.3750, 837.5560
652.8571, 844.3849
653.3392, 851.6406
653.8214, 859.1309
654.3035, 866.1808
654.7856, 872.3468
655.2677, 878.2008
655.7498, 883.7214
656.2319, 888.7274
656.7141, 894.7130
657.1962, 901.7087
657.6783, 909.6420
658.1604, 918.5707
658.6425, 928.6438
659.1246, 938.6196
659.6068, 948.4675
660.0889, 958.2106
660.5710, 966.5749
661.0531, 974.7034
661.5352, 986.9265
662.0173, 1004.752
662.4995, 1026.299
662.9816, 1051.647
663.4637, 1078.916
663.9458, 1104.640
664.4279, 1125.671
664.9100, 1146.074
665.3922, 1165.266
665.8743, 1184.097
666.3564, 1210.192
666.8385, 1254.720
667.3206, 1292.779
667.8027, 1309.361
668.2849, 1302.251
668.7670, 1322.038
669.2491, 1375.625
669.7312, 1431.961
670.2133, 1463.313
670.6954, 1474.962
671.1776, 1489.633
671.6597, 1509.689
672.1418, 1533.519
672.6239, 1560.819
673.1060, 1590.741
673.5881, 1622.423
674.0703, 1658.526
674.5524, 1691.532
675.0345, 1716.159
675.5166, 1735.480
675.9987, 1756.896
676.4808, 1789.328
676.9630, 1813.790
677.4451, 1825.880
677.9272, 1827.204
678.4093, 1825.186
678.8914, 1818.956
679.3735, 1812.938
679.8557, 1814.528
680.3378, 1818.571
680.8199, 1800.990
681.3020, 1761.736
681.7841, 1715.245
682.2662, 1669.455
682.7484, 1624.093
683.2305, 1578.430
683.7126, 1532.201
684.1947, 1484.412
684.6768, 1427.249
685.1589, 1371.725
685.6411, 1327.368
686.1232, 1305.831
686.6052, 1282.917
687.0873, 1259.310
687.5695, 1233.496
688.0516, 1202.530
688.5337, 1165.289
689.0158, 1127.399
689.4979, 1089.158
689.9800, 1052.286
690.4622, 1022.658
690.9443, 999.3490
691.4264, 975.9723
691.9085, 946.0803
692.3906, 916.5098
692.8727, 896.0704
693.3549, 883.2050
693.8370, 867.4956
694.3191, 837.6315
694.8012, 809.3000
695.2833, 792.1326
695.7654, 789.5265
696.2476, 782.2738
696.7297, 767.9821
697.2118, 752.2504
697.6939, 738.0317
698.1760, 724.9962
698.6581, 717.9169
699.1403, 717.8563
699.6224, 719.8207
700.1045, 719.0188
700.5866, 715.5643
701.0687, 709.5874
701.5508, 700.8436
702.0330, 690.4180
702.5151, 678.5445
702.9972, 665.8256
703.4793, 653.2830
703.9614, 640.9952
704.4435, 629.1974
704.9257, 617.8455
705.4078, 607.0281
705.8899, 588.2473
706.3720, 594.9600
706.8541, 596.8182
707.3362, 594.0832
707.8184, 572.9941
708.3005, 575.6050
708.7826, 568.7182
709.2647, 561.4419
709.7468, 567.3877
710.2289, 548.9696
710.7111, 554.7047
711.1932, 550.7991
711.6753, 551.3061
712.1574, 542.2571
712.6395, 536.1597
713.1216, 539.6218
713.6038, 537.7893
714.0859, 527.6409
714.5680, 528.4283
715.0501, 509.6758
715.5322, 508.0699
716.0143, 513.8625
716.4965, 504.1929
716.9786, 505.1555
717.4607, 502.0689
717.9428, 480.5825
718.4249, 491.0952
718.9070, 487.7699
719.3892, 470.2337
719.8713, 479.6505
720.3534, 464.0744
720.8355, 457.4189
721.3176, 457.6053
721.7997, 461.1021
722.2819, 462.9554
722.7640, 458.0524
723.2461, 448.8411
723.7282, 445.2064
724.2103, 450.7297
724.6924, 454.8708
725.1746, 453.7309
725.6567, 448.3975
726.1388, 445.2639
726.6209, 444.3793
727.1030, 442.1155
727.5851, 433.9464
728.0673, 423.8237
728.5494, 418.3628
729.0315, 417.7481
729.5136, 418.0837
729.9957, 416.8270
730.4778, 415.8728
730.9600, 417.4636
731.4421, 423.9826
731.9242, 424.8852
732.4063, 413.1423
732.8884, 402.0717
733.3705, 403.8614
733.8527, 422.1944
734.3348, 429.9159
734.8169, 423.6032
735.2990, 413.1594
735.7811, 412.7877
736.2632, 418.7362
736.7454, 417.5810
737.2275, 402.9656
737.7096, 389.3198
738.1917, 389.3947
738.6738, 398.1835
739.1559, 408.2556
739.6381, 422.0896
740.1202, 431.5115
740.6023, 434.0710
741.0844, 431.2354
741.5665, 424.4214
742.0486, 410.7874
742.5308, 401.6210
743.0129, 401.0343
743.4950, 405.9323
743.9771, 407.2514
744.4592, 405.5952
744.9413, 406.6544
745.4235, 418.0707
745.9056, 430.5907
746.3877, 433.3306
746.8698, 427.5977
747.3519, 420.5480
747.8340, 414.8436
748.3162, 408.8627
748.7983, 401.6251
749.2804, 393.0149
749.7625, 384.0129
750.2446, 371.6877
750.7267, 364.4669
751.2089, 370.5851
751.6910, 389.2361
752.1731, 395.3982
752.6552, 388.1313
753.1373, 380.5131
753.6194, 386.8792
754.1016, 398.9182
754.5837, 403.1575
755.0658, 397.0698
755.5479, 390.5930
756.0300, 390.3346
756.5121, 391.1119
756.9943, 387.8991
757.4764, 372.7843
757.9585, 369.3955
758.4406, 385.5319
758.9227, 404.3443
759.4048, 405.6328
759.8870, 388.4082
760.3691, 376.7965
760.8512, 374.5748
761.3333, 376.8748
761.8154, 378.3383
762.2975, 379.5248
762.7797, 381.8320
763.2618, 386.9060
763.7439, 391.1024
764.2260, 392.1708
764.7081, 391.1233
765.1902, 389.5811
765.6724, 384.0963
766.1545, 383.6845
766.6366, 393.3967
767.1187, 406.5480
767.6008, 405.0439
768.0829, 387.4925
768.5651, 375.6473
769.0472, 379.4338
769.5293, 389.7597
770.0114, 391.2821
770.4935, 385.4748
770.9756, 377.3390
771.4578, 364.1422
771.9399, 354.3539
772.4220, 353.9361
772.9041, 361.6137
773.3862, 370.8095
773.8683, 385.6940
774.3505, 395.3421
774.8326, 395.1245
775.3147, 386.6591
775.7968, 380.8515
776.2789, 377.7967
776.7610, 376.4993
777.2432, 378.7610
777.7253, 381.6459
778.2074, 377.2110
778.6895, 366.3516
779.1716, 357.5734
779.6537, 359.3149
780.1359, 362.1566
780.6180, 357.0039
781.1001, 341.9455
781.5822, 338.3436
782.0643, 357.8331
782.5464, 376.2630
783.0286, 380.2451
783.5107, 369.0636
783.9928, 362.7229
784.4749, 361.6107
784.9570, 362.7345
785.4391, 365.0764
785.9213, 367.4826
786.4034, 366.9223
786.8855, 362.9123
787.3676, 360.2691
787.8497, 365.7964
788.3318, 371.2664
788.8140, 369.1489
789.2961, 353.0367
789.7782, 344.4514
790.2603, 347.3753
790.7424, 353.5068
791.2245, 356.8869
791.7067, 357.5047
792.1888, 353.8959
792.6709, 344.8671
793.1530, 337.8458
793.6351, 345.2677
794.1172, 358.7362
794.5994, 362.7461
795.0815, 351.1830
795.5636, 340.6141
796.0457, 341.7590
796.5278, 346.6021
797.0099, 346.6453
797.4920, 334.8584
797.9741, 329.9348
798.4562, 335.1092
798.9384, 343.0642
799.4205, 343.5739
799.9026, 337.2560
800.3847, 334.4791
800.8668, 338.0992
801.3489, 341.7287
801.8311, 335.3572
802.3132, 324.8946
802.7953, 320.0593
803.2774, 329.5580
803.7595, 335.2198
804.2416, 324.9884
804.7238, 309.8233
805.2059, 305.5240
805.6880, 317.5780
806.1701, 327.0992
806.6522, 332.0335
807.1343, 333.9258
807.6165, 335.6841
808.0986, 336.9043
808.5807, 334.5849
809.0628, 325.7492
809.5449, 317.6638
810.0270, 318.7966
810.5092, 325.0276
810.9913, 329.5325
811.4734, 329.3311
811.9555, 328.2473
812.4376, 326.4166
812.9197, 315.6133
813.4019, 326.5679
813.8840, 332.6679
814.3661, 334.1742
814.8482, 317.3281
815.3303, 324.1803
815.8124, 321.5354
816.2946, 318.5009
816.7767, 328.6886
817.2588, 314.5118
817.7409, 324.4898
818.2230, 324.8256
818.7051, 329.5745
819.1873, 324.7674
819.6694, 322.9118
820.1515, 330.6152
820.6336, 333.0257
821.1157, 327.1186
821.5978, 332.1480
822.0800, 317.6374
822.5621, 320.2733
823.0442, 330.3073
823.5263, 324.8806
824.0084, 330.0847
824.4905, 331.2400
824.9727, 313.9954
825.4548, 328.7501
825.9369, 329.6661
826.4190, 316.3729
826.9011, 330.0311
827.3832, 318.6969
827.8654, 316.2833
828.3475, 320.5833
828.8296, 317.8848
829.3117, 326.2202
829.7938, 323.9258
830.2759, 320.6817
830.7581, 321.5822
831.2402, 310.7380
831.7223, 321.6826
832.2044, 317.7436
832.6865, 321.2029
833.1686, 326.3392
833.6508, 318.6353
834.1329, 324.5250
834.6150, 309.3342
835.0971, 311.7822
835.5792, 312.3309
836.0613, 324.1539
836.5435, 314.8167
837.0256, 316.6607
837.5077, 319.9628
837.9898, 318.3074
838.4719, 313.1398
838.9540, 308.3812
839.4362, 303.1312
839.9183, 301.5661
840.4004, 311.4237
840.8825, 325.5813
841.3646, 327.4964
841.8467, 306.5432
842.3289, 292.7331
842.8110, 292.0635
843.2931, 299.9437
843.7752, 309.1156
844.2573, 318.9474
844.7394, 324.5243
845.2216, 322.7549
845.7037, 318.7087
846.1858, 317.1060
846.6679, 317.0186
847.1500, 316.7768
847.6321, 316.7714
848.1143, 315.2911
848.5964, 309.9733
849.0785, 304.0944
849.5606, 303.8687
850.0427, 310.5323
850.5248, 314.5750
851.0070, 313.6860
851.4891, 310.3983
851.9712, 300.3656
852.4533, 311.4627
852.9354, 317.7053
853.4175, 319.3542
853.8997, 302.6506
854.3818, 309.6454
854.8639, 307.1429
855.3460, 304.2510
855.8281, 314.5812
856.3102, 300.5470
856.7924, 310.6675
857.2745, 311.1459
857.7566, 316.0372
858.2387, 311.3727
858.7208, 309.6597
859.2029, 317.5056
859.6851, 320.0587
860.1672, 314.2942
860.6493, 319.4660
861.1314, 305.0980
861.6135, 307.8765
862.0956, 318.0529
862.5778, 312.7689
863.0599, 306.2634
863.5420, 302.3609
864.0241, 296.3016
864.5062, 294.5903
864.9883, 298.6112
865.4705, 303.2903
865.9526, 302.6012
866.4347, 298.9579
866.9168, 295.9818
867.3989, 294.5142
867.8810, 293.3510
868.3632, 282.6218
868.8453, 293.7759
869.3274, 300.0755
869.8095, 301.7814
870.2916, 285.1349
870.7737, 292.1867
871.2559, 289.7413
871.7380, 286.9065
872.2201, 297.2937
872.7022, 283.3165
873.1843, 293.4941
873.6664, 294.0295
874.1486, 298.9779
874.6307, 294.3705
875.1128, 292.7145
875.5949, 300.6174
876.0770, 303.2275
876.5591, 297.5201
877.0413, 302.7490
877.5234, 288.4380
878.0055, 291.2735
878.4876, 301.5070
878.9697, 296.2800
879.4518, 301.6836
879.9340, 303.0385
880.4161, 297.9694
880.8982, 302.9525
881.3803, 307.2260
881.8624, 306.0727
882.3445, 290.6681
882.8267, 279.5445
883.3088, 280.4904
883.7909, 291.6720
884.2730, 300.2938
884.7551, 306.3625
885.2372, 309.4810
885.7194, 306.8235
886.2015, 302.7414
886.6836, 302.5659
887.1657, 296.5704
887.6478, 308.2116
888.1299, 314.9981
888.6121, 317.1910
889.0942, 301.0314
889.5763, 308.5702
890.0584, 306.6117
890.5405, 304.2638
891.0226, 315.1379
891.5048, 301.6478
891.9869, 312.3123
892.4690, 313.3346
892.9511, 318.7700
893.4332, 314.6494
893.9153, 313.4803
894.3975, 321.8704
894.8796, 324.9673
895.3617, 319.7468
895.8438, 325.4626
896.3259, 311.6385
896.8080, 314.9609
897.2902, 325.6815
897.7723, 320.9413
898.2544, 326.8319
898.7365, 328.6737
899.2186, 312.1157
899.7007, 327.5567
900.1829, 329.1594
900.6650, 316.5527
901.1471, 330.8974
901.6292, 326.5715
902.1113, 314.7468
902.5934, 309.5115
903.0756, 312.5988
903.5577, 318.4746
904.0398, 321.7359
904.5219, 323.1421
905.0040, 326.5072
905.4861, 332.2639
905.9682, 336.1763
906.4503, 333.3194
906.9324, 328.6960
907.4146, 326.5424
907.8967, 327.8528
908.3788, 328.0587
908.8609, 326.8583
909.3430, 324.8917
909.8251, 322.7467
910.3073, 320.1964
910.7894, 313.9852
911.2715, 304.6723
911.7536, 299.3075
912.2357, 306.8747
912.7178, 316.3248
913.2000, 316.8213
913.6821, 310.2646
914.1642, 310.2025
914.6463, 324.8362
915.1284, 336.3963
915.6105, 340.6713
916.0927, 338.5817
916.5748, 329.8934
917.0569, 315.7644
917.5390, 307.0110
918.0211, 309.6371
918.5032, 316.7044
918.9854, 322.0695
919.4675, 327.1958
919.9496, 334.8217
920.4317, 355.2098
920.9138, 364.0090
921.3959, 353.8183
921.8781, 336.9481
922.3602, 331.8864
922.8423, 337.7698
923.3244, 338.9805
923.8065, 332.0638
924.2886, 325.3220
924.7708, 328.7245
925.2529, 327.0036
925.7350, 337.5317
926.2171, 343.2051
926.6992, 344.2849
927.1813, 327.0123
927.6635, 333.4378
928.1456, 330.3663
928.6277, 326.9054
929.1098, 336.6665
929.5919, 322.0632
930.0740, 331.6147
930.5562, 331.5238
931.0383, 335.8461
931.5204, 330.6125
932.0025, 328.3304
932.4846, 335.6073
932.9667, 337.5913
933.4489, 331.2575
933.9310, 335.8603
934.4131, 320.9232
934.8952, 323.1327
935.3773, 332.7401
935.8594, 326.8870
936.3416, 331.6643
936.8237, 333.4763
937.3058, 331.0317
937.7879, 321.7266
938.2700, 318.6963
938.7521, 335.5358
939.2343, 345.0861
939.7164, 342.1376
940.1985, 332.6995
940.6806, 323.3969
941.1627, 314.6998
941.6448, 315.6862
942.1270, 330.0929
942.6091, 343.2411
943.0912, 336.8143
943.5733, 323.3420
944.0554, 317.6486
944.5375, 325.8363
945.0197, 330.7180
945.5018, 329.1860
945.9839, 326.4416
946.4660, 325.0848
946.9481, 325.2642
947.4302, 331.2709
947.9124, 342.8264
948.3945, 351.0932
948.8766, 345.3866
949.3587, 336.8534
949.8408, 335.7718
950.3229, 341.6066
950.8051, 344.8412
951.2872, 342.9829
951.7693, 331.7670
952.2514, 342.7365
952.7335, 348.8513
953.2156, 350.3726
953.6978, 333.5413
954.1799, 340.4084
954.6620, 337.7784
955.1441, 334.7588
955.6262, 344.9614
956.1083, 330.7995
956.5905, 340.7924
957.0726, 341.1431
957.5547, 345.9068
958.0368, 341.1147
958.5189, 339.2740
959.0010, 346.9922
959.4832, 349.4176
959.9653, 343.5255
960.4474, 348.5697
960.9295, 334.0740
961.4116, 336.7249
961.8937, 346.7737
962.3759, 341.3619
962.8580, 346.5809
963.3401, 347.7511
963.8222, 330.5214
964.3043, 345.2909
964.7864, 346.2219
965.2686, 332.9436
965.7507, 346.6167
966.2328, 339.3574
966.7149, 339.9818
967.1970, 337.7481
967.6791, 335.3362
968.1613, 332.4527
968.6434, 330.6914
969.1255, 333.9765
969.6076, 343.8222
970.0897, 352.7974
970.5718, 360.0977
971.0540, 364.9879
971.5361, 366.4231
972.0182, 364.8155
972.5003, 361.0564
972.9824, 355.4357
973.4645, 347.2701
973.9467, 328.9695
974.4288, 314.1595
974.9109, 313.7505
975.3930, 329.9801
975.8751, 339.4862
976.3572, 342.0543
976.8394, 341.1167
977.3215, 335.3182
977.8036, 329.8365
978.2857, 333.5171
978.7678, 344.4994
979.2499, 351.9114
979.7321, 351.6981
980.2142, 347.2217
980.6963, 336.1454
981.1784, 323.3899
981.6605, 323.1179
982.1426, 334.4598
982.6248, 345.4814
983.1069, 353.2144
983.5890, 357.9742
984.0711, 359.3892
984.5532, 358.2381
985.0353, 355.1190
985.5175, 345.6435
985.9996, 343.9001
986.4817, 353.8002
986.9638, 364.6506
987.4459, 365.9081
987.9280, 360.1814
988.4102, 361.0526
988.8923, 368.4581
989.3744, 372.1737
989.8565, 360.6372
990.3386, 347.5829
990.8207, 343.2837
991.3029, 346.4523
991.7850, 345.2368
992.2671, 338.1617
992.7492, 331.6972
993.2313, 327.1082
993.7134, 325.3037
994.1956, 328.4598
994.6777, 335.5516
995.1598, 345.0194
995.6419, 361.8016
996.1240, 370.8979
996.6061, 359.2047
997.0883, 342.9704
997.5704, 338.1537
998.0525, 346.8956
998.5346, 348.7473
999.0167, 342.6151
999.4988, 335.1906
999.9810, 332.9180
1000.463, 332.0724
1000.945, 325.2460
1001.427, 313.2069
1001.909, 311.6398
1002.392, 336.7189
1002.874, 354.8911
1003.356, 354.9721
1003.838, 342.9099
1004.320, 334.0208
1004.802, 328.3421
1005.284, 327.0166
1005.766, 331.7362
1006.248, 338.1639
1006.731, 346.2977
1007.213, 352.9275
1007.695, 353.0591
1008.177, 340.9404
1008.659, 336.2801
1009.141, 341.0732
1009.623, 347.5902
1010.105, 351.3230
1010.588, 351.0990
1011.070, 340.7463
1011.552, 321.3216
1012.034, 307.1760
1012.516, 310.4492
1012.998, 314.9613
1013.480, 313.0846
1013.962, 306.8518
1014.444, 303.7755
1014.927, 303.9933
1015.409, 303.6055
1015.891, 300.0777
1016.373, 298.5265
1016.855, 309.3391
1017.337, 324.3895
1017.819, 331.6664
1018.301, 324.0914
1018.783, 317.1546
1019.266, 309.7157
1019.748, 306.5562
1020.230, 314.4426
1020.712, 330.6401
1021.194, 340.2634
1021.676, 343.2253
1022.158, 342.5890
1022.640, 335.5121
1023.122, 329.9599
1023.605, 332.1873
1024.087, 340.4138
1024.569, 346.7422
1025.051, 351.9013
1025.533, 351.9810
1026.015, 345.3781
1026.497, 335.0574
1026.979, 320.6700
1027.462, 306.9010
1027.944, 303.9944
1028.426, 318.7032
1028.908, 328.7934
1029.390, 325.3084
1029.872, 319.0980
1030.354, 314.8336
1030.836, 312.7773
1031.318, 321.3582
1031.801, 339.4427
1032.283, 351.0702
1032.765, 337.9142
1033.247, 322.3356
1033.729, 325.5423
1034.211, 339.5379
1034.693, 338.3095
1035.175, 309.9731
1035.658, 294.7257
1036.140, 300.2298
1036.622, 314.1568
1037.104, 321.8686
1037.586, 324.9153
1038.068, 326.1479
1038.550, 325.9919
1039.032, 324.4341
1039.515, 318.9276
1039.997, 314.6721
1040.479, 315.2996
1040.961, 319.8536
1041.443, 318.5552
1041.925, 311.6266
1042.407, 306.6810
1042.889, 308.3643
1043.371, 312.3430
1043.854, 315.2391
1044.336, 317.5674
1044.818, 320.2023
1045.300, 323.5713
1045.782, 326.5208
1046.264, 328.6960
1046.746, 331.1770
1047.228, 337.3388
1047.710, 344.1634
1048.193, 341.8092
1048.675, 330.3391
1049.157, 323.0536
1049.639, 334.0746
1050.121, 341.8763
1050.603, 333.5831
1051.085, 316.2248
1051.567, 318.5620
1052.050, 340.0271
1052.532, 348.0021
1053.014, 328.2449
1053.496, 304.0131
1053.978, 294.2978
1054.460, 295.2723
1054.942, 304.4859
1055.424, 329.0580
1055.906, 338.3710
1056.389, 326.8961
1056.871, 314.7103
1057.353, 319.1568
1057.835, 331.8494
1058.317, 331.0958
1058.799, 319.5566
1059.281, 308.8176
1059.763, 302.4666
1060.245, 299.7565
1060.728, 300.4270
1061.210, 304.4258
1061.692, 313.9623
1062.174, 328.6223
1062.656, 335.7323
1063.138, 333.0409
1063.620, 327.0260
1064.102, 318.0452
1064.585, 312.1471
1065.067, 317.7723
1065.549, 336.4225
1066.031, 343.6381
1066.513, 336.1133
1066.995, 328.7178
1067.477, 328.1505
1067.959, 330.0112
1068.442, 325.8066
1068.924, 317.9460
1069.406, 311.3718
1069.888, 308.1539
1070.370, 305.5467
1070.852, 301.6808
1071.334, 299.7481
1071.816, 303.6660
1072.298, 312.6848
1072.781, 318.3131
1073.263, 320.4791
1073.745, 320.6156
1074.227, 318.4101
1074.709, 315.6380
1075.191, 311.7048
1075.673, 308.3181
1076.155, 311.8156
1076.637, 325.1698
1077.120, 327.5275
1077.602, 313.2020
1078.084, 295.9298
1078.566, 289.9069
1079.048, 291.1328
1079.530, 296.3962
1080.012, 306.4039
1080.494, 308.5293
1080.976, 296.2463
1081.459, 286.3824
1081.941, 286.1932
1082.423, 293.2617
1082.905, 304.0605
1083.387, 316.3687
1083.869, 323.2769
1084.351, 318.2310
1084.833, 313.9137
1085.316, 317.2361
1085.798, 322.0627
1086.280, 323.0119
1086.762, 319.8732
1087.244, 316.2625
1087.726, 312.2600
1088.208, 308.8359
1088.690, 306.8026
1089.172, 305.5348
1089.655, 304.4641
1090.137, 303.7541
1090.619, 304.1914
1091.101, 306.6506
1091.583, 306.8246
1092.065, 302.9889
1092.547, 300.2451
1093.029, 307.8475
1093.511, 319.5295
1093.994, 325.6049
1094.476, 324.4930
1094.958, 321.4890
1095.440, 304.8988
1095.922, 315.6748
1096.404, 321.5961
1096.886, 322.9238
1097.368, 305.8991
1097.851, 312.5721
1098.333, 309.7484
1098.815, 306.5354
1099.297, 316.5444
1099.779, 302.1889
1100.261, 311.9883
1100.743, 312.1455
1101.225, 316.7157
1101.708, 311.7294
1102.190, 309.6952
1102.672, 317.2199
1103.154, 319.4518
1103.636, 313.3661
1104.118, 318.2167
1104.600, 303.5276
1105.082, 305.9849
1105.564, 315.8402
1106.047, 310.2343
1106.529, 315.2596
1107.011, 316.2364
1107.493, 298.8131
1107.975, 313.3892
1108.457, 314.1266
1108.939, 300.6548
1109.421, 314.1343
1109.903, 314.7564
1110.386, 319.9302
1110.868, 313.6134
1111.350, 302.5020
1111.832, 300.7179
1112.314, 305.5229
1112.796, 308.6077
1113.278, 307.8877
1113.760, 306.3297
1114.243, 305.1517
1114.725, 303.5338
1115.207, 300.2816
1115.689, 295.9539
1116.171, 296.1278
1116.653, 300.4840
1117.135, 305.3971
1117.617, 310.6202
1118.099, 313.8763
1118.582, 310.8980
1119.064, 306.4634
1119.546, 307.1729
1120.028, 314.8992
1120.510, 320.9394
1120.992, 325.4397
1121.474, 326.1297
1121.956, 317.5074
1122.438, 307.1288
1122.921, 302.8884
1123.403, 303.8336
1123.885, 306.1109
1124.367, 310.4655
1124.849, 312.8613
1125.331, 312.5579
1125.813, 310.8435
1126.295, 308.0689
1126.778, 305.4840
1127.260, 305.1107
1127.742, 307.1750
1128.224, 311.4142
1128.706, 322.9319
1129.188, 328.8625
1129.670, 323.0929
1130.152, 312.4118
1130.635, 313.4231
1131.117, 322.4212
1131.599, 327.3331
1132.081, 323.8966
1132.563, 321.5548
1133.045, 315.1199
1133.527, 326.5908
1134.009, 333.2073
1134.491, 335.2299
1134.974, 318.9011
1135.456, 326.2697
1135.938, 324.1411
1136.420, 321.6231
1136.902, 332.3271
1137.384, 318.6668
1137.866, 329.1612
1138.348, 330.0135
1138.830, 335.2786
1139.313, 330.9888
1139.795, 329.6497
1140.277, 337.8694
1140.759, 340.7964
1141.241, 335.4056
1141.723, 340.9514
1142.205, 326.9572
1142.687, 330.1096
1143.170, 340.6607
1143.652, 335.7504
1144.134, 341.4709
1144.616, 343.1425
1145.098, 326.4145
1145.580, 341.6854
1146.062, 343.1179
1146.544, 330.3411
1147.026, 335.5120
1147.509, 347.4099
1147.991, 354.4515
1148.473, 356.8995
1148.955, 340.9949
1149.437, 348.7889
1149.919, 347.0854
1150.401, 344.9927
1150.883, 356.1221
1151.365, 342.8868
1151.848, 353.8082
1152.330, 355.0855
1152.812, 360.7761
1153.294, 356.9106
1153.776, 355.9967
1154.258, 364.6418
1154.740, 367.9939
1155.222, 363.0285
1155.705, 369.0010
1156.187, 355.4322
1156.669, 359.0097
1157.151, 369.9853
1157.633, 365.5005
1158.115, 371.6460
1158.597, 373.7431
1159.079, 357.4401
1159.562, 373.1381
1160.044, 374.9956
1160.526, 362.6442
1161.008, 377.2441
1161.490, 366.8514
1161.972, 365.3797
1162.454, 370.6212
1162.936, 365.4051
1163.418, 358.7401
1163.901, 345.6043
1164.383, 336.9973
1164.865, 343.6460
1165.347, 357.6105
1165.829, 364.4774
1166.311, 363.5084
1166.793, 363.3735
1167.275, 364.9553
1167.757, 363.8355
1168.240, 351.1707
1168.722, 338.9364
1169.204, 337.6709
1169.686, 345.6174
1170.168, 352.4128
1170.650, 358.3172
1171.132, 361.4766
1171.614, 361.1851
1172.097, 359.9713
1172.579, 360.6489
1173.061, 361.6106
1173.543, 361.4072
1174.025, 359.8150
1174.507, 356.9779
1174.989, 352.6317
1175.471, 347.7532
1175.953, 341.7309
1176.436, 337.7571
1176.918, 342.9545
1177.400, 351.2339
1177.882, 353.3079
1178.364, 345.5704
1178.846, 348.5618
1179.328, 367.3462
1179.810, 381.3668
1180.292, 380.5766
1180.775, 372.8131
1181.257, 369.9952
1181.739, 369.4807
1182.221, 366.1584
1182.703, 355.8663
1183.185, 352.1390
1183.667, 358.0481
1184.149, 363.6472
1184.631, 362.0528
1185.114, 357.0027
1185.596, 358.1048
1186.078, 361.6268
1186.560, 358.7693
1187.042, 337.7908
1187.524, 325.2165
1188.006, 323.7324
1188.488, 327.7191
1188.971, 335.1770
1189.453, 343.9309
1189.935, 347.4144
1190.417, 347.2844
1190.899, 349.2572
1191.381, 357.6529
1191.863, 365.6995
1192.345, 374.9642
1192.828, 379.3727
1193.310, 368.0317
1193.792, 348.1800
1194.274, 337.8180
1194.756, 336.8127
1195.238, 338.7127
1195.720, 345.2859
1196.202, 348.1850
1196.684, 344.2006
1197.167, 338.6151
1197.649, 339.0306
1198.131, 343.4623
1198.613, 346.4264
1199.095, 347.5822
1199.577, 349.7048
1200.059, 358.9778
1200.541, 361.9066
1201.023, 352.1353
1201.506, 338.4383
1201.988, 337.3127
1202.470, 344.8045
1202.952, 350.3866
1203.434, 352.5074
1203.916, 352.1189
1204.398, 347.0440
1204.880, 342.4195
1205.363, 339.0148
1205.845, 337.9244
1206.327, 345.6913
1206.809, 357.6295
1207.291, 356.1026
1207.773, 334.2825
1208.255, 321.4547
1208.737, 337.1269
1209.219, 355.5704
1209.702, 369.9081
1210.184, 378.1788
1210.666, 369.0531
1211.148, 349.4010
1211.630, 342.5205
1212.112, 359.8054
1212.594, 371.5091
1213.076, 361.3582
1213.558, 349.4215
1214.041, 343.7294
1214.523, 343.7694
1215.005, 351.6078
1215.487, 363.8381
1215.969, 369.9144
1216.451, 364.9617
1216.933, 356.5291
1217.415, 340.4734
1217.898, 329.7412
1218.380, 334.7711
1218.862, 350.3238
1219.344, 356.6248
1219.826, 355.2697
1220.308, 350.7430
1220.790, 340.9756
1221.272, 335.2758
1221.755, 336.5418
1222.237, 341.1392
1222.719, 349.3286
1223.201, 358.4405
1223.683, 353.7955
1224.165, 340.0513
1224.647, 333.9081
1225.129, 355.2638
1225.611, 365.8039
1226.094, 354.5746
1226.576, 339.2203
1227.058, 334.8922
1227.540, 338.3166
1228.022, 338.6648
1228.504, 336.6743
1228.986, 335.7265
1229.468, 338.5299
1229.950, 340.9260
1230.433, 344.0411
1230.915, 343.6542
1231.397, 330.8426
1231.879, 312.6682
1232.361, 309.8210
1232.843, 319.8979
1233.325, 330.2542
1233.807, 335.7730
1234.290, 342.3688
1234.772, 352.9351
1235.254, 360.0939
1235.736, 351.6843
1236.218, 335.6572
1236.700, 329.0544
1237.182, 331.1199
1237.664, 332.8361
1238.146, 326.6301
1238.629, 329.2089
1239.111, 345.6865
1239.593, 363.2041
1240.075, 367.9215
1240.557, 362.8614
1241.039, 346.2497
1241.521, 322.2673
1242.003, 316.2881
1242.485, 347.0716
1242.968, 364.9727
1243.450, 360.7076
1243.932, 348.2232
1244.414, 343.0175
1244.896, 340.5602
1245.378, 331.1581
1245.860, 316.6632
1246.342, 317.4625
1246.825, 341.9987
1247.307, 359.9306
1247.789, 366.0061
1248.271, 365.4456
1248.753, 360.8677
1249.235, 355.4695
1249.717, 354.8208
1250.199, 357.9862
1250.682, 352.5764
1251.164, 334.1952
1251.646, 326.7305
1252.128, 336.6250
1252.610, 348.6418
1253.092, 346.0734
1253.574, 338.7354
1254.056, 336.0988
1254.538, 338.1550
1255.021, 338.9407
1255.503, 338.2356
1255.985, 338.6595
1256.467, 341.0508
1256.949, 342.9100
1257.431, 342.5695
1257.913, 340.1883
1258.395, 334.6058
1258.877, 326.9680
1259.360, 322.5309
1259.842, 321.2330
1260.324, 317.3689
1260.806, 308.8697
1261.288, 303.2868
1261.770, 309.2301
1262.252, 317.5405
1262.734, 321.9262
1263.217, 323.5758
1263.699, 326.1034
1264.181, 329.5548
1264.663, 335.7469
1265.145, 346.1937
1265.627, 350.9529
##END=



