##NAMES=Heulandite-K
##RRUFFID=R061137
##IDEAL CHEMISTRY=(K,Ca,Na)_5_(Si_27_Al_9_)O_72_&#183;26H_2_O
##LOCALITY=Albero Bassi, Vicenza, Veneto, Italy
##OWNER=RRUFF
##SOURCE=Michael Scott
##DESCRIPTION=Coating of orange grains
##STATUS=The identification of this mineral is not yet confirmed.
##URL=rruff.info/R061137
148.7346, 1716.716
149.2167, 1734.050
149.6988, 1750.557
150.1809, 1759.299
150.6630, 1750.770
151.1452, 1737.288
151.6273, 1734.111
152.1094, 1753.118
152.5915, 1772.632
153.0736, 1786.358
153.5557, 1791.348
154.0379, 1795.985
154.5200, 1800.899
155.0021, 1806.069
155.4842, 1811.497
155.9663, 1823.961
156.4484, 1831.901
156.9306, 1828.472
157.4127, 1796.726
157.8948, 1775.584
158.3769, 1782.110
158.8590, 1809.067
159.3411, 1829.280
159.8233, 1829.382
160.3054, 1822.317
160.7875, 1817.414
161.2696, 1815.921
161.7517, 1818.204
162.2338, 1827.561
162.7160, 1843.138
163.1981, 1854.437
163.6802, 1851.866
164.1623, 1844.106
164.6444, 1840.402
165.1265, 1852.310
165.6087, 1863.311
166.0908, 1859.025
166.5729, 1837.635
167.0550, 1822.037
167.5371, 1832.904
168.0192, 1858.148
168.5014, 1878.292
168.9835, 1881.397
169.4656, 1877.012
169.9477, 1872.118
170.4298, 1866.753
170.9119, 1863.725
171.3941, 1868.470
171.8762, 1877.760
172.3583, 1883.578
172.8404, 1878.701
173.3225, 1868.770
173.8046, 1860.978
174.2868, 1856.887
174.7689, 1854.232
175.2510, 1851.783
175.7331, 1849.198
176.2152, 1845.007
176.6973, 1834.747
177.1795, 1822.502
177.6616, 1816.460
178.1437, 1820.453
178.6258, 1829.003
179.1079, 1834.594
179.5900, 1837.500
180.0722, 1840.577
180.5543, 1849.953
181.0364, 1861.955
181.5185, 1865.455
182.0006, 1853.486
182.4827, 1833.232
182.9649, 1814.846
183.4470, 1798.204
183.9291, 1789.592
184.4112, 1802.387
184.8933, 1831.895
185.3754, 1854.216
185.8576, 1856.860
186.3397, 1845.911
186.8218, 1841.782
187.3039, 1845.589
187.7860, 1850.381
188.2681, 1845.721
188.7503, 1832.554
189.2324, 1822.188
189.7145, 1821.587
190.1966, 1829.000
190.6787, 1833.159
191.1608, 1832.847
191.6430, 1832.115
192.1251, 1839.538
192.6072, 1855.440
193.0893, 1867.663
193.5714, 1867.575
194.0535, 1855.996
194.5357, 1848.494
195.0178, 1847.306
195.4999, 1848.519
195.9820, 1842.695
196.4641, 1828.575
196.9462, 1816.853
197.4284, 1815.040
197.9105, 1823.426
198.3926, 1831.989
198.8747, 1839.590
199.3568, 1846.924
199.8389, 1856.054
200.3211, 1867.191
200.8032, 1879.248
201.2853, 1893.281
201.7674, 1910.291
202.2495, 1919.768
202.7316, 1917.304
203.2138, 1906.751
203.6959, 1904.934
204.1780, 1913.490
204.6601, 1926.279
205.1422, 1937.667
205.6243, 1946.452
206.1065, 1960.856
206.5886, 1986.719
207.0707, 2020.975
207.5528, 2036.626
208.0349, 2027.810
208.5170, 2011.683
208.9992, 2004.470
209.4813, 2007.738
209.9634, 2014.572
210.4455, 2023.585
210.9276, 2034.716
211.4097, 2049.676
211.8919, 2070.037
212.3740, 2092.026
212.8561, 2111.447
213.3382, 2127.250
213.8203, 2143.515
214.3024, 2162.498
214.7846, 2184.800
215.2667, 2200.208
215.7488, 2204.498
216.2309, 2206.593
216.7130, 2219.362
217.1951, 2246.785
217.6773, 2276.146
218.1594, 2304.748
218.6415, 2333.444
219.1236, 2357.115
219.6057, 2374.198
220.0878, 2387.995
220.5700, 2404.053
221.0521, 2424.679
221.5342, 2443.296
222.0163, 2456.658
222.4984, 2461.595
222.9805, 2473.342
223.4627, 2496.486
223.9448, 2523.680
224.4269, 2539.974
224.9090, 2543.256
225.3911, 2539.527
225.8732, 2530.889
226.3554, 2517.439
226.8375, 2498.434
227.3196, 2471.509
227.8017, 2440.266
228.2838, 2412.493
228.7659, 2387.868
229.2481, 2367.599
229.7302, 2352.983
230.2123, 2346.804
230.6944, 2339.779
231.1765, 2330.843
231.6587, 2321.304
232.1408, 2315.145
232.6229, 2314.337
233.1050, 2314.200
233.5871, 2313.287
234.0692, 2314.935
234.5514, 2307.672
235.0335, 2284.196
235.5156, 2251.877
235.9977, 2237.495
236.4798, 2252.496
236.9619, 2269.927
237.4441, 2274.197
237.9262, 2254.596
238.4083, 2244.736
238.8904, 2250.758
239.3725, 2268.405
239.8546, 2277.157
240.3368, 2269.765
240.8189, 2262.789
241.3010, 2267.574
241.7831, 2295.096
242.2652, 2311.134
242.7473, 2307.302
243.2295, 2288.361
243.7116, 2283.763
244.1937, 2304.644
244.6758, 2325.492
245.1579, 2328.901
245.6400, 2304.804
246.1222, 2283.972
246.6043, 2268.342
247.0864, 2257.959
247.5685, 2254.271
248.0506, 2261.689
248.5327, 2269.990
249.0149, 2272.674
249.4970, 2269.625
249.9791, 2260.629
250.4612, 2241.955
250.9433, 2215.613
251.4254, 2200.739
251.9076, 2203.989
252.3897, 2209.770
252.8718, 2206.903
253.3539, 2192.727
253.8360, 2175.770
254.3181, 2154.756
254.8003, 2130.776
255.2824, 2115.059
255.7645, 2111.515
256.2466, 2110.684
256.7287, 2104.565
257.2108, 2088.674
257.6930, 2079.094
258.1751, 2080.699
258.6572, 2091.677
259.1393, 2095.401
259.6214, 2089.526
260.1035, 2079.914
260.5857, 2070.014
261.0678, 2057.552
261.5499, 2051.416
262.0320, 2055.191
262.5141, 2067.333
262.9962, 2073.300
263.4784, 2070.486
263.9605, 2065.938
264.4426, 2065.791
264.9247, 2072.097
265.4068, 2075.568
265.8889, 2072.809
266.3711, 2065.475
266.8532, 2066.534
267.3353, 2078.699
267.8174, 2094.025
268.2995, 2107.410
268.7816, 2119.345
269.2638, 2126.557
269.7459, 2127.287
270.2280, 2122.667
270.7101, 2118.273
271.1922, 2112.643
271.6743, 2110.800
272.1565, 2119.641
272.6386, 2142.407
273.1207, 2157.253
273.6028, 2157.912
274.0849, 2148.064
274.5670, 2146.198
275.0492, 2154.597
275.5313, 2164.304
276.0134, 2165.835
276.4955, 2157.769
276.9776, 2157.117
277.4597, 2169.381
277.9419, 2190.419
278.4240, 2203.636
278.9061, 2207.694
279.3882, 2209.586
279.8703, 2214.807
280.3524, 2223.452
280.8346, 2231.395
281.3167, 2236.307
281.7988, 2241.069
282.2809, 2257.054
282.7630, 2285.987
283.2451, 2314.240
283.7273, 2329.734
284.2094, 2333.043
284.6915, 2337.752
285.1736, 2346.353
285.6557, 2357.440
286.1378, 2367.551
286.6200, 2376.613
287.1021, 2385.787
287.5842, 2396.681
288.0663, 2408.787
288.5484, 2419.008
289.0305, 2426.509
289.5127, 2432.321
289.9948, 2437.781
290.4769, 2442.921
290.9590, 2449.863
291.4411, 2462.027
291.9232, 2477.760
292.4054, 2490.655
292.8875, 2500.062
293.3696, 2505.926
293.8517, 2508.346
294.3338, 2507.279
294.8159, 2501.943
295.2981, 2487.453
295.7802, 2468.139
296.2623, 2456.487
296.7444, 2455.851
297.2265, 2459.591
297.7086, 2460.121
298.1908, 2457.623
298.6729, 2453.064
299.1550, 2445.891
299.6371, 2437.242
300.1192, 2428.690
300.6013, 2419.934
301.0835, 2412.940
301.5656, 2411.671
302.0477, 2414.533
302.5298, 2416.289
303.0119, 2418.275
303.4940, 2415.881
303.9762, 2399.886
304.4583, 2366.103
304.9404, 2332.488
305.4225, 2313.564
305.9046, 2307.319
306.3867, 2308.933
306.8689, 2325.687
307.3510, 2344.176
307.8331, 2349.840
308.3152, 2340.183
308.7973, 2326.268
309.2794, 2315.245
309.7616, 2305.497
310.2437, 2294.050
310.7258, 2276.259
311.2079, 2258.711
311.6900, 2245.160
312.1721, 2236.039
312.6543, 2231.806
313.1364, 2235.860
313.6185, 2244.245
314.1006, 2251.614
314.5827, 2255.606
315.0648, 2258.350
315.5470, 2262.242
316.0291, 2267.579
316.5112, 2268.087
316.9933, 2254.286
317.4754, 2236.998
317.9576, 2227.395
318.4397, 2239.139
318.9218, 2249.252
319.4039, 2247.461
319.8860, 2233.693
320.3681, 2223.735
320.8503, 2225.990
321.3324, 2231.332
321.8145, 2232.570
322.2966, 2220.643
322.7787, 2212.695
323.2608, 2214.100
323.7430, 2224.025
324.2251, 2232.280
324.7072, 2238.868
325.1893, 2242.695
325.6714, 2243.100
326.1535, 2234.148
326.6357, 2228.580
327.1178, 2229.336
327.5999, 2235.085
328.0820, 2238.366
328.5641, 2240.244
329.0462, 2238.756
329.5284, 2232.157
330.0105, 2207.862
330.4926, 2198.747
330.9747, 2214.980
331.4568, 2246.151
331.9389, 2260.114
332.4211, 2245.951
332.9032, 2229.463
333.3853, 2222.207
333.8674, 2229.742
334.3495, 2230.602
334.8316, 2220.297
335.3138, 2206.132
335.7959, 2204.377
336.2780, 2220.809
336.7601, 2235.093
337.2422, 2237.388
337.7243, 2225.284
338.2065, 2222.075
338.6886, 2230.716
339.1707, 2243.618
339.6528, 2248.336
340.1349, 2242.950
340.6170, 2241.027
341.0992, 2249.900
341.5813, 2267.817
342.0634, 2274.703
342.5455, 2268.386
343.0276, 2258.569
343.5097, 2256.224
343.9919, 2261.159
344.4740, 2267.199
344.9561, 2274.226
345.4382, 2280.550
345.9203, 2278.899
346.4024, 2268.752
346.8846, 2258.915
347.3667, 2259.629
347.8488, 2267.949
348.3309, 2271.526
348.8130, 2264.224
349.2951, 2254.414
349.7773, 2257.881
350.2594, 2273.241
350.7415, 2288.310
351.2236, 2294.633
351.7057, 2294.755
352.1878, 2293.113
352.6700, 2290.105
353.1521, 2286.547
353.6342, 2281.861
354.1163, 2277.005
354.5984, 2275.049
355.0806, 2278.994
355.5627, 2286.082
356.0448, 2293.555
356.5269, 2300.918
357.0090, 2309.192
357.4911, 2322.589
357.9733, 2337.082
358.4554, 2345.466
358.9375, 2337.483
359.4196, 2327.787
359.9017, 2326.363
360.3839, 2335.029
360.8660, 2342.374
361.3481, 2341.968
361.8302, 2338.404
362.3123, 2336.831
362.7944, 2336.924
363.2766, 2340.898
363.7587, 2351.236
364.2408, 2367.862
364.7229, 2382.995
365.2050, 2399.683
365.6871, 2411.679
366.1693, 2414.686
366.6514, 2386.070
367.1335, 2373.514
367.6156, 2394.675
368.0977, 2442.761
368.5798, 2468.795
369.0620, 2449.699
369.5441, 2429.554
370.0262, 2430.099
370.5083, 2470.416
370.9904, 2498.482
371.4725, 2509.449
371.9547, 2509.219
372.4368, 2512.646
372.9189, 2521.811
373.4010, 2530.630
373.8831, 2535.557
374.3652, 2534.658
374.8474, 2540.870
375.3295, 2556.783
375.8116, 2576.479
376.2937, 2591.645
376.7758, 2601.417
377.2579, 2610.159
377.7401, 2620.039
378.2222, 2630.435
378.7043, 2633.127
379.1864, 2625.906
379.6685, 2620.433
380.1506, 2632.394
380.6328, 2659.909
381.1149, 2681.636
381.5970, 2688.753
382.0791, 2690.040
382.5612, 2708.020
383.0433, 2742.107
383.5255, 2774.661
384.0076, 2786.843
384.4897, 2788.023
384.9718, 2803.012
385.4539, 2841.632
385.9360, 2882.320
386.4182, 2897.348
386.9003, 2892.967
387.3824, 2890.679
387.8645, 2904.918
388.3466, 2926.219
388.8287, 2943.539
389.3109, 2954.444
389.7930, 2969.032
390.2751, 2997.180
390.7572, 3032.815
391.2393, 3066.419
391.7214, 3086.277
392.2036, 3110.078
392.6857, 3153.665
393.1678, 3217.637
393.6499, 3270.356
394.1320, 3290.474
394.6141, 3299.444
395.0963, 3315.152
395.5784, 3341.140
396.0605, 3374.805
396.5426, 3418.662
397.0247, 3471.032
397.5068, 3521.727
397.9890, 3570.760
398.4711, 3617.046
398.9532, 3659.757
399.4353, 3693.450
399.9174, 3732.869
400.3995, 3780.849
400.8817, 3833.494
401.3638, 3882.199
401.8459, 3924.192
402.3280, 3967.021
402.8101, 4015.328
403.2922, 4071.525
403.7744, 4114.464
404.2565, 4140.316
404.7386, 4158.624
405.2207, 4179.686
405.7028, 4203.064
406.1849, 4232.854
406.6671, 4274.475
407.1492, 4323.039
407.6313, 4353.283
408.1134, 4363.929
408.5955, 4367.569
409.0776, 4375.860
409.5598, 4386.847
410.0419, 4390.151
410.5240, 4384.619
411.0061, 4369.605
411.4882, 4340.589
411.9703, 4299.724
412.4525, 4257.464
412.9346, 4224.036
413.4167, 4192.172
413.8988, 4149.572
414.3809, 4094.654
414.8630, 4035.960
415.3452, 3979.960
415.8273, 3925.677
416.3094, 3872.482
416.7915, 3818.362
417.2736, 3766.435
417.7557, 3720.757
418.2379, 3680.565
418.7200, 3640.483
419.2021, 3596.425
419.6842, 3551.733
420.1663, 3508.994
420.6484, 3468.924
421.1306, 3430.751
421.6127, 3395.367
422.0948, 3362.245
422.5769, 3329.035
423.0590, 3297.264
423.5411, 3264.030
424.0233, 3227.049
424.5054, 3181.919
424.9875, 3145.329
425.4696, 3121.195
425.9517, 3103.944
426.4338, 3086.491
426.9160, 3070.614
427.3981, 3051.201
427.8802, 3024.772
428.3623, 2991.887
428.8444, 2968.540
429.3265, 2957.508
429.8087, 2949.999
430.2908, 2938.513
430.7729, 2922.549
431.2550, 2908.213
431.7371, 2896.434
432.2192, 2886.613
432.7014, 2878.405
433.1835, 2871.790
433.6656, 2864.042
434.1477, 2852.426
434.6298, 2838.383
435.1119, 2827.480
435.5941, 2820.644
436.0762, 2812.912
436.5583, 2794.463
437.0404, 2770.638
437.5225, 2754.426
438.0046, 2754.649
438.4868, 2762.619
438.9689, 2773.144
439.4510, 2785.465
439.9331, 2792.285
440.4152, 2786.094
440.8973, 2773.977
441.3795, 2762.152
441.8616, 2750.729
442.3437, 2742.045
442.8258, 2739.269
443.3079, 2739.971
443.7900, 2738.864
444.2722, 2731.685
444.7543, 2724.904
445.2364, 2719.716
445.7185, 2714.634
446.2006, 2717.864
446.6827, 2740.404
447.1649, 2766.150
447.6470, 2779.212
448.1291, 2769.870
448.6112, 2763.652
449.0933, 2765.235
449.5754, 2773.245
450.0576, 2779.420
450.5397, 2783.510
451.0218, 2786.288
451.5039, 2787.653
451.9860, 2787.202
452.4681, 2789.199
452.9503, 2795.042
453.4324, 2801.222
453.9145, 2799.756
454.3966, 2790.854
454.8787, 2786.476
455.3608, 2795.348
455.8430, 2811.814
456.3251, 2818.478
456.8072, 2815.239
457.2893, 2811.379
457.7714, 2819.673
458.2535, 2832.545
458.7357, 2833.967
459.2178, 2813.837
459.6999, 2791.172
460.1820, 2785.233
460.6641, 2790.805
461.1462, 2792.258
461.6284, 2772.571
462.1105, 2752.479
462.5926, 2750.125
463.0747, 2772.070
463.5568, 2785.119
464.0389, 2768.575
464.5211, 2740.495
465.0032, 2720.525
465.4853, 2719.064
465.9674, 2718.698
466.4495, 2714.377
466.9316, 2707.054
467.4138, 2707.239
467.8959, 2727.695
468.3780, 2742.031
468.8601, 2734.972
469.3422, 2693.554
469.8243, 2664.372
470.3065, 2649.763
470.7886, 2645.079
471.2707, 2644.269
471.7528, 2648.284
472.2349, 2651.206
472.7170, 2650.734
473.1992, 2647.574
473.6813, 2645.634
474.1634, 2645.088
474.6455, 2643.976
475.1276, 2636.630
475.6097, 2626.704
476.0919, 2628.123
476.5740, 2646.415
477.0561, 2669.800
477.5382, 2686.202
478.0203, 2696.271
478.5024, 2701.970
478.9846, 2697.297
479.4667, 2693.159
479.9488, 2700.617
480.4309, 2720.630
480.9130, 2742.457
481.3951, 2762.725
481.8773, 2780.886
482.3594, 2796.327
482.8415, 2806.397
483.3236, 2816.506
483.8057, 2827.466
484.2878, 2839.266
484.7700, 2852.086
485.2521, 2865.937
485.7342, 2880.873
486.2163, 2896.136
486.6984, 2910.433
487.1805, 2931.569
487.6627, 2966.293
488.1448, 3000.519
488.6269, 3014.957
489.1090, 3001.435
489.5911, 3001.938
490.0732, 3030.988
490.5554, 3077.118
491.0375, 3099.517
491.5196, 3096.323
492.0017, 3090.420
492.4838, 3095.464
492.9659, 3109.650
493.4481, 3129.546
493.9302, 3156.508
494.4123, 3179.155
494.8944, 3181.231
495.3765, 3169.232
495.8586, 3158.362
496.3408, 3159.269
496.8229, 3159.771
497.3050, 3146.669
497.7871, 3122.689
498.2692, 3101.952
498.7513, 3101.472
499.2335, 3100.532
499.7156, 3082.818
500.1977, 3037.712
500.6798, 2996.313
501.1619, 2963.985
501.6440, 2940.296
502.1262, 2924.450
502.6083, 2929.912
503.0904, 2927.494
503.5725, 2908.835
504.0546, 2875.234
504.5367, 2850.500
505.0189, 2839.448
505.5010, 2829.132
505.9831, 2809.292
506.4652, 2777.236
506.9473, 2754.954
507.4294, 2745.644
507.9116, 2742.449
508.3937, 2736.403
508.8758, 2727.414
509.3579, 2713.405
509.8400, 2689.166
510.3221, 2661.561
510.8043, 2646.782
511.2864, 2644.054
511.7685, 2642.125
512.2506, 2628.294
512.7327, 2612.192
513.2148, 2608.503
513.6970, 2624.634
514.1791, 2638.438
514.6612, 2632.162
515.1433, 2615.211
515.6254, 2602.600
516.1075, 2605.971
516.5897, 2608.044
517.0718, 2600.583
517.5539, 2583.741
518.0360, 2571.555
518.5181, 2568.579
519.0002, 2568.366
519.4824, 2568.346
519.9645, 2571.740
520.4466, 2567.331
520.9287, 2549.317
521.4108, 2528.469
521.8929, 2524.071
522.3751, 2539.968
522.8572, 2554.438
523.3393, 2562.457
523.8214, 2563.719
524.3035, 2553.423
524.7856, 2531.065
525.2678, 2509.964
525.7499, 2502.896
526.2320, 2504.747
526.7141, 2502.536
527.1962, 2493.939
527.6783, 2484.541
528.1605, 2478.446
528.6426, 2475.521
529.1247, 2475.387
529.6068, 2477.714
530.0889, 2482.969
530.5710, 2495.644
531.0532, 2513.391
531.5353, 2523.023
532.0174, 2509.485
532.4995, 2494.583
532.9816, 2491.255
533.4637, 2509.059
533.9459, 2519.264
534.4280, 2515.173
534.9101, 2506.726
535.3922, 2506.246
535.8743, 2518.216
536.3564, 2527.849
536.8386, 2533.469
537.3207, 2534.572
537.8028, 2526.455
538.2849, 2507.068
538.7670, 2491.104
539.2491, 2488.571
539.7313, 2497.295
540.2134, 2508.603
540.6955, 2522.997
541.1776, 2534.063
541.6597, 2529.707
542.1418, 2517.519
542.6240, 2514.490
543.1061, 2534.170
543.5882, 2553.625
544.0703, 2550.718
544.5524, 2532.308
545.0345, 2517.902
545.5167, 2519.281
545.9988, 2524.337
546.4809, 2527.095
546.9630, 2526.708
547.4451, 2526.069
547.9272, 2523.766
548.4094, 2522.526
548.8915, 2524.559
549.3736, 2531.955
549.8557, 2538.793
550.3378, 2544.495
550.8199, 2549.536
551.3021, 2555.156
551.7842, 2561.492
552.2663, 2567.964
552.7484, 2576.288
553.2305, 2584.720
553.7126, 2581.859
554.1948, 2567.045
554.6769, 2552.969
555.1590, 2550.647
555.6411, 2556.590
556.1232, 2565.376
556.6053, 2578.038
557.0875, 2586.417
557.5696, 2575.276
558.0517, 2555.993
558.5338, 2548.885
559.0159, 2579.391
559.4980, 2606.606
559.9802, 2606.101
560.4623, 2582.179
560.9444, 2569.781
561.4265, 2590.162
561.9086, 2611.597
562.3907, 2617.917
562.8729, 2602.137
563.3550, 2593.869
563.8371, 2596.512
564.3192, 2602.987
564.8013, 2604.975
565.2834, 2601.210
565.7656, 2600.072
566.2477, 2603.959
566.7298, 2610.435
567.2119, 2615.412
567.6940, 2618.715
568.1761, 2617.485
568.6583, 2604.875
569.1404, 2588.490
569.6225, 2582.561
570.1046, 2587.459
570.5867, 2594.670
571.0688, 2596.728
571.5510, 2598.466
572.0331, 2605.703
572.5152, 2623.665
572.9973, 2639.583
573.4794, 2650.517
573.9615, 2656.044
574.4437, 2655.131
574.9258, 2636.582
575.4079, 2624.144
575.8900, 2626.454
576.3721, 2641.275
576.8542, 2643.175
577.3364, 2622.815
577.8185, 2607.796
578.3006, 2619.162
578.7827, 2659.200
579.2648, 2679.893
579.7469, 2677.838
580.2291, 2667.659
580.7112, 2664.835
581.1933, 2668.217
581.6754, 2673.448
582.1575, 2679.479
582.6396, 2686.544
583.1218, 2697.819
583.6039, 2710.724
584.0860, 2717.957
584.5681, 2706.846
585.0502, 2696.255
585.5323, 2702.006
586.0145, 2724.776
586.4966, 2739.727
586.9787, 2733.640
587.4608, 2722.277
587.9429, 2714.738
588.4250, 2706.300
588.9072, 2712.489
589.3893, 2743.251
589.8714, 2780.455
590.3535, 2797.291
590.8356, 2789.240
591.3177, 2782.313
591.7999, 2780.981
592.2820, 2786.037
592.7641, 2804.228
593.2462, 2834.866
593.7283, 2860.433
594.2104, 2866.746
594.6926, 2862.642
595.1747, 2862.140
595.6568, 2865.925
596.1389, 2870.150
596.6210, 2868.438
597.1031, 2867.514
597.5853, 2875.068
598.0674, 2898.836
598.5495, 2920.044
599.0316, 2931.556
599.5137, 2937.592
599.9958, 2945.165
600.4780, 2952.085
600.9601, 2964.427
601.4423, 2987.552
601.9244, 3017.653
602.4065, 3034.214
602.8886, 3033.874
603.3707, 3030.401
603.8528, 3028.280
604.3350, 3028.245
604.8171, 3041.378
605.2992, 3069.582
605.7813, 3097.749
606.2634, 3109.687
606.7455, 3111.518
607.2277, 3116.198
607.7098, 3127.127
608.1919, 3140.292
608.6740, 3154.211
609.1561, 3167.950
609.6382, 3179.326
610.1204, 3188.390
610.6025, 3194.489
611.0846, 3195.490
611.5667, 3192.223
612.0488, 3192.345
612.5309, 3200.594
613.0131, 3206.999
613.4952, 3206.395
613.9773, 3197.282
614.4594, 3193.422
614.9415, 3196.549
615.4236, 3200.418
615.9058, 3198.055
616.3879, 3190.168
616.8700, 3183.355
617.3521, 3178.561
617.8342, 3175.488
618.3163, 3177.548
618.7985, 3181.167
619.2806, 3177.558
619.7627, 3155.359
620.2448, 3130.934
620.7269, 3114.892
621.2090, 3106.383
621.6912, 3100.534
622.1733, 3096.803
622.6554, 3094.473
623.1375, 3095.150
623.6196, 3101.271
624.1017, 3096.428
624.5839, 3070.138
625.0660, 3045.149
625.5481, 3041.995
626.0302, 3066.228
626.5123, 3077.569
626.9944, 3069.925
627.4766, 3055.031
627.9587, 3052.918
628.4408, 3060.718
628.9229, 3060.405
629.4050, 3038.267
629.8871, 3014.128
630.3693, 3015.921
630.8514, 3037.142
631.3335, 3056.084
631.8156, 3059.883
632.2977, 3059.410
632.7798, 3062.571
633.2620, 3070.206
633.7441, 3071.073
634.2262, 3055.030
634.7083, 3037.710
635.1904, 3027.817
635.6725, 3026.426
636.1547, 3030.039
636.6368, 3040.471
637.1189, 3053.213
637.6010, 3065.458
638.0831, 3077.379
638.5652, 3076.477
639.0474, 3054.767
639.5295, 3028.622
640.0116, 3028.391
640.4937, 3048.329
640.9758, 3068.274
641.4579, 3077.302
641.9401, 3082.580
642.4222, 3089.659
642.9043, 3098.384
643.3864, 3106.483
643.8685, 3113.245
644.3506, 3119.060
644.8328, 3124.030
645.3149, 3127.680
645.7970, 3131.764
646.2791, 3133.039
646.7612, 3138.217
647.2433, 3156.208
647.7255, 3192.201
648.2076, 3212.251
648.6897, 3210.151
649.1718, 3198.168
649.6539, 3192.553
650.1360, 3192.880
650.6182, 3197.434
651.1003, 3207.035
651.5824, 3218.868
652.0645, 3230.936
652.5466, 3242.519
653.0287, 3251.235
653.5109, 3252.386
653.9930, 3253.587
654.4751, 3258.168
654.9572, 3266.306
655.4393, 3278.536
655.9214, 3305.056
656.4036, 3326.210
656.8857, 3330.809
657.3678, 3313.124
657.8499, 3304.505
658.3320, 3306.133
658.8141, 3314.504
659.2963, 3329.675
659.7784, 3350.366
660.2605, 3361.788
660.7426, 3359.464
661.2247, 3353.414
661.7068, 3354.936
662.1890, 3362.315
662.6711, 3371.799
663.1532, 3388.928
663.6353, 3400.971
664.1174, 3396.725
664.5995, 3381.100
665.0817, 3370.184
665.5638, 3368.871
666.0459, 3372.036
666.5280, 3381.120
667.0101, 3396.096
667.4922, 3398.754
667.9744, 3385.597
668.4565, 3367.848
668.9386, 3349.548
669.4207, 3331.159
669.9028, 3323.398
670.3849, 3327.644
670.8671, 3334.847
671.3492, 3336.452
671.8313, 3334.144
672.3134, 3331.167
672.7955, 3328.785
673.2776, 3324.311
673.7598, 3311.596
674.2419, 3296.795
674.7240, 3289.044
675.2061, 3302.664
675.6882, 3309.565
676.1703, 3299.176
676.6525, 3278.405
677.1346, 3266.009
677.6167, 3266.061
678.0988, 3264.856
678.5809, 3257.142
679.0630, 3244.470
679.5452, 3235.436
680.0273, 3230.129
680.5094, 3223.582
680.9915, 3211.240
681.4736, 3195.875
681.9557, 3182.061
682.4379, 3169.954
682.9200, 3159.625
683.4021, 3148.485
683.8842, 3140.699
684.3663, 3140.977
684.8484, 3155.723
685.3306, 3165.453
685.8127, 3167.658
686.2948, 3163.079
686.7769, 3150.272
687.2590, 3122.786
687.7411, 3106.665
688.2233, 3109.000
688.7054, 3118.458
689.1875, 3110.381
689.6696, 3086.678
690.1517, 3069.582
690.6339, 3071.515
691.1160, 3079.972
691.5981, 3078.266
692.0802, 3068.399
692.5623, 3057.183
693.0444, 3042.820
693.5266, 3032.692
694.0087, 3035.652
694.4908, 3051.209
694.9729, 3055.966
695.4550, 3033.942
695.9371, 3012.955
696.4193, 3004.735
696.9014, 3010.594
697.3835, 3021.322
697.8656, 3039.676
698.3477, 3054.633
698.8298, 3055.215
699.3120, 3043.408
699.7941, 3025.949
700.2762, 3002.081
700.7583, 2981.889
701.2404, 2975.922
701.7225, 2979.865
702.2047, 2988.035
702.6868, 3003.955
703.1689, 3015.482
703.6510, 3017.037
704.1331, 3011.403
704.6152, 3003.219
705.0974, 2990.832
705.5795, 2978.645
706.0616, 2964.414
706.5437, 2951.869
707.0258, 2955.851
707.5079, 2978.921
707.9901, 2995.506
708.4722, 2992.891
708.9543, 2977.553
709.4364, 2961.112
709.9185, 2944.415
710.4006, 2932.907
710.8828, 2929.467
711.3649, 2932.881
711.8470, 2946.439
712.3291, 2970.544
712.8112, 2985.602
713.2933, 2981.440
713.7755, 2969.505
714.2576, 2954.805
714.7397, 2933.192
715.2218, 2925.020
715.7039, 2934.421
716.1860, 2949.397
716.6682, 2960.708
717.1503, 2968.083
717.6324, 2965.141
718.1145, 2949.092
718.5966, 2931.562
719.0787, 2925.751
719.5609, 2927.442
720.0430, 2928.915
720.5251, 2925.995
721.0072, 2925.232
721.4893, 2934.161
721.9714, 2946.498
722.4536, 2951.105
722.9357, 2938.190
723.4178, 2928.767
723.8999, 2928.684
724.3820, 2933.335
724.8641, 2925.406
725.3463, 2901.678
725.8284, 2888.347
726.3105, 2902.168
726.7926, 2928.948
727.2747, 2933.808
727.7568, 2919.510
728.2390, 2902.607
728.7211, 2890.704
729.2032, 2881.890
729.6853, 2874.865
730.1674, 2869.496
730.6495, 2865.791
731.1317, 2864.591
731.6138, 2864.268
732.0959, 2862.431
732.5780, 2857.153
733.0601, 2865.022
733.5422, 2891.780
734.0244, 2917.393
734.5065, 2923.166
734.9886, 2911.960
735.4707, 2902.691
735.9528, 2896.917
736.4349, 2892.566
736.9171, 2883.492
737.3992, 2876.169
737.8813, 2881.707
738.3634, 2910.410
738.8455, 2932.840
739.3276, 2937.069
739.8098, 2928.874
740.2919, 2914.651
740.7740, 2887.833
741.2561, 2867.742
741.7382, 2856.185
742.2203, 2851.745
742.7025, 2853.745
743.1846, 2862.203
743.6667, 2870.631
744.1488, 2878.917
744.6309, 2883.560
745.1130, 2876.798
745.5952, 2862.130
746.0773, 2848.971
746.5594, 2838.878
747.0415, 2834.348
747.5236, 2841.902
748.0057, 2857.485
748.4879, 2863.817
748.9700, 2847.336
749.4521, 2836.399
749.9342, 2840.911
750.4163, 2858.246
750.8984, 2868.743
751.3806, 2872.390
751.8627, 2869.878
752.3448, 2854.973
752.8269, 2835.654
753.3090, 2833.959
753.7911, 2848.513
754.2733, 2862.684
754.7554, 2863.489
755.2375, 2861.324
755.7196, 2866.023
756.2017, 2880.174
756.6838, 2886.862
757.1660, 2875.970
757.6481, 2863.530
758.1302, 2858.017
758.6123, 2860.881
759.0944, 2862.839
759.5765, 2863.349
760.0587, 2864.816
760.5408, 2872.199
761.0229, 2882.481
761.5050, 2885.031
761.9871, 2877.468
762.4692, 2869.614
762.9514, 2868.933
763.4335, 2872.514
763.9156, 2877.476
764.3977, 2885.288
764.8798, 2890.498
765.3619, 2893.468
765.8441, 2892.636
766.3262, 2884.683
766.8083, 2866.122
767.2904, 2853.488
767.7725, 2848.988
768.2546, 2850.491
768.7368, 2854.455
769.2189, 2861.426
769.7010, 2875.461
770.1831, 2904.509
770.6652, 2928.145
771.1473, 2919.258
771.6295, 2894.039
772.1116, 2881.086
772.5937, 2904.708
773.0758, 2923.078
773.5579, 2927.406
774.0400, 2920.569
774.5222, 2905.560
775.0043, 2877.173
775.4864, 2859.783
775.9685, 2862.304
776.4506, 2877.836
776.9327, 2895.801
777.4149, 2914.292
777.8970, 2923.650
778.3791, 2910.340
778.8612, 2892.810
779.3433, 2887.264
779.8254, 2891.093
780.3076, 2894.293
780.7897, 2886.399
781.2718, 2886.041
781.7539, 2905.098
782.2360, 2938.625
782.7181, 2947.788
783.2003, 2924.476
783.6824, 2907.680
784.1645, 2921.012
784.6466, 2953.319
785.1287, 2970.227
785.6108, 2972.812
786.0930, 2968.710
786.5751, 2953.671
787.0572, 2940.904
787.5393, 2944.827
788.0214, 2965.248
788.5035, 2979.621
788.9857, 2977.488
789.4678, 2972.727
789.9499, 2970.994
790.4320, 2972.477
790.9141, 2971.465
791.3962, 2967.496
791.8784, 2963.241
792.3605, 2958.253
792.8426, 2954.697
793.3247, 2962.156
793.8068, 2980.608
794.2889, 2993.003
794.7711, 2983.357
795.2532, 2965.702
795.7353, 2948.529
796.2174, 2931.167
796.6995, 2925.538
797.1816, 2944.161
797.6638, 2962.297
798.1459, 2960.750
798.6280, 2934.702
799.1101, 2937.363
799.5922, 2973.916
800.0743, 3009.841
800.5565, 3008.026
801.0386, 2984.095
801.5207, 2967.698
802.0028, 2962.434
802.4849, 2964.638
802.9670, 2980.796
803.4492, 2997.881
803.9313, 3004.117
804.4134, 2990.774
804.8955, 2983.573
805.3776, 2985.128
805.8597, 2989.566
806.3419, 2992.054
806.8240, 2992.624
807.3061, 2992.686
807.7882, 2992.486
808.2703, 2990.817
808.7524, 2983.327
809.2346, 2974.650
809.7167, 2973.129
810.1988, 2983.179
810.6809, 2990.324
811.1630, 2984.488
811.6451, 2975.378
812.1273, 2971.991
812.6094, 2975.741
813.0915, 2983.107
813.5736, 2995.990
814.0557, 3008.947
814.5378, 3015.398
815.0200, 3016.266
815.5021, 3015.591
815.9842, 3013.251
816.4663, 3013.423
816.9484, 3025.970
817.4305, 3040.756
817.9127, 3044.444
818.3948, 3025.710
818.8769, 3012.472
819.3590, 3016.312
819.8411, 3024.256
820.3232, 3024.268
820.8054, 3014.443
821.2875, 3004.637
821.7696, 2995.026
822.2517, 2987.598
822.7338, 2987.812
823.2159, 2991.973
823.6981, 2989.018
824.1802, 2973.668
824.6623, 2960.629
825.1444, 2960.046
825.6265, 2967.047
826.1086, 2976.435
826.5908, 2996.432
827.0729, 3004.006
827.5550, 2992.031
828.0371, 2975.382
828.5192, 2972.979
829.0013, 2984.866
829.4835, 2994.640
829.9656, 2999.790
830.4477, 3003.784
830.9298, 3014.566
831.4119, 3025.535
831.8940, 3024.281
832.3762, 2999.840
832.8583, 2981.825
833.3404, 2987.390
833.8225, 3001.166
834.3046, 3006.072
834.7867, 2997.131
835.2689, 2993.380
835.7510, 2997.349
836.2331, 3003.177
836.7152, 3000.394
837.1973, 2992.760
837.6794, 2997.150
838.1616, 3020.224
838.6437, 3038.157
839.1258, 3024.334
839.6079, 2998.312
840.0900, 2981.634
840.5721, 2981.561
841.0543, 2987.112
841.5364, 3004.488
842.0185, 3019.618
842.5006, 3015.275
842.9827, 2989.743
843.4648, 2974.732
843.9470, 2974.444
844.4291, 2978.156
844.9112, 2970.938
845.3933, 2960.845
845.8754, 2962.597
846.3575, 2982.870
846.8397, 3000.729
847.3218, 3006.785
847.8039, 3007.114
848.2860, 3006.795
848.7681, 3005.012
849.2502, 3004.980
849.7324, 3006.388
850.2145, 3010.339
850.6966, 3021.362
851.1787, 3036.171
851.6608, 3042.542
852.1429, 3038.892
852.6251, 3030.235
853.1072, 3011.968
853.5893, 2995.663
854.0714, 2993.659
854.5535, 3014.494
855.0356, 3028.210
855.5178, 3031.793
855.9999, 3029.528
856.4820, 3022.329
856.9641, 3010.103
857.4462, 3004.176
857.9283, 3005.177
858.4105, 3008.668
858.8926, 3013.265
859.3747, 3016.755
859.8568, 3014.557
860.3389, 3005.621
860.8210, 3001.150
861.3032, 3012.520
861.7853, 3023.182
862.2674, 3022.216
862.7495, 3007.766
863.2316, 3000.734
863.7137, 3001.768
864.1959, 3007.297
864.6780, 3020.214
865.1601, 3034.477
865.6422, 3034.257
866.1243, 3019.813
866.6064, 3001.269
867.0886, 2972.305
867.5707, 2952.187
868.0528, 2958.381
868.5349, 2993.661
869.0170, 3015.240
869.4991, 3017.854
869.9813, 3017.103
870.4634, 3019.775
870.9455, 3024.951
871.4276, 3028.285
871.9097, 3029.977
872.3918, 3032.299
872.8740, 3037.025
873.3561, 3042.684
873.8382, 3050.688
874.3203, 3059.459
874.8024, 3060.587
875.2845, 3042.243
875.7667, 3028.052
876.2488, 3024.781
876.7309, 3029.975
877.2130, 3031.990
877.6951, 3030.695
878.1772, 3036.113
878.6594, 3060.005
879.1415, 3084.977
879.6236, 3085.147
880.1057, 3067.735
880.5878, 3051.340
881.0699, 3040.122
881.5521, 3034.417
882.0342, 3035.721
882.5163, 3042.157
882.9984, 3052.909
883.4805, 3070.881
883.9626, 3075.055
884.4448, 3054.847
884.9269, 3029.997
885.4090, 3035.382
885.8911, 3060.374
886.3732, 3080.617
886.8553, 3088.907
887.3375, 3089.224
887.8196, 3078.368
888.3017, 3062.471
888.7838, 3049.672
889.2659, 3038.319
889.7480, 3035.133
890.2302, 3041.694
890.7123, 3053.746
891.1944, 3068.959
891.6765, 3085.083
892.1586, 3094.836
892.6407, 3096.199
893.1229, 3094.602
893.6050, 3092.652
894.0871, 3090.356
894.5692, 3087.471
895.0513, 3082.735
895.5334, 3080.088
896.0156, 3077.870
896.4977, 3080.630
896.9798, 3097.833
897.4619, 3125.148
897.9440, 3134.878
898.4261, 3125.576
898.9083, 3110.622
899.3904, 3093.582
899.8725, 3080.403
900.3546, 3078.992
900.8367, 3091.086
901.3188, 3097.857
901.8010, 3091.853
902.2831, 3088.683
902.7652, 3097.965
903.2473, 3117.050
903.7294, 3122.764
904.2115, 3115.544
904.6937, 3106.786
905.1758, 3102.685
905.6579, 3101.011
906.1400, 3102.552
906.6221, 3105.301
907.1042, 3101.158
907.5864, 3072.294
908.0685, 3055.602
908.5506, 3063.519
909.0327, 3087.955
909.5148, 3106.350
909.9969, 3118.704
910.4791, 3123.901
910.9612, 3117.671
911.4433, 3110.484
911.9254, 3122.007
912.4075, 3141.012
912.8896, 3146.287
913.3718, 3107.275
913.8539, 3084.756
914.3360, 3100.294
914.8181, 3129.029
915.3002, 3137.728
915.7823, 3124.535
916.2645, 3112.396
916.7466, 3103.603
917.2287, 3099.739
917.7108, 3105.698
918.1929, 3116.585
918.6750, 3125.710
919.1572, 3132.340
919.6393, 3134.824
920.1214, 3123.798
920.6035, 3115.840
921.0856, 3125.002
921.5677, 3155.699
922.0499, 3166.943
922.5320, 3156.512
923.0141, 3143.213
923.4962, 3141.914
923.9783, 3147.904
924.4604, 3158.313
924.9426, 3171.883
925.4247, 3176.222
925.9068, 3154.954
926.3889, 3134.922
926.8710, 3127.601
927.3531, 3131.689
927.8353, 3141.069
928.3174, 3157.396
928.7995, 3162.433
929.2816, 3137.373
929.7637, 3106.579
930.2459, 3116.366
930.7280, 3152.916
931.2101, 3177.287
931.6923, 3161.171
932.1744, 3146.171
932.6565, 3143.400
933.1386, 3149.766
933.6207, 3163.944
934.1028, 3188.535
934.5850, 3200.625
935.0671, 3193.999
935.5492, 3179.874
936.0313, 3170.311
936.5134, 3164.124
936.9955, 3158.617
937.4777, 3151.417
937.9598, 3150.294
938.4419, 3165.316
938.9240, 3181.766
939.4061, 3189.604
939.8882, 3188.296
940.3704, 3177.225
940.8525, 3153.941
941.3346, 3138.246
941.8167, 3155.853
942.2988, 3186.486
942.7809, 3201.384
943.2631, 3199.386
943.7452, 3195.262
944.2273, 3192.749
944.7094, 3191.221
945.1915, 3190.234
945.6736, 3189.924
946.1558, 3191.431
946.6379, 3194.843
947.1200, 3198.417
947.6021, 3202.278
948.0842, 3204.882
948.5663, 3202.335
949.0485, 3197.048
949.5306, 3194.459
950.0127, 3199.232
950.4948, 3203.396
950.9769, 3205.702
951.4590, 3206.491
951.9412, 3205.906
952.4233, 3203.913
952.9054, 3201.310
953.3875, 3197.453
953.8696, 3196.812
954.3517, 3208.356
954.8339, 3223.700
955.3160, 3231.711
955.7981, 3228.260
956.2802, 3226.696
956.7623, 3233.329
957.2444, 3237.676
957.7266, 3231.014
958.2087, 3214.290
958.6908, 3209.684
959.1729, 3217.119
959.6550, 3229.379
960.1371, 3251.649
960.6193, 3268.803
961.1014, 3260.927
961.5835, 3232.985
962.0656, 3212.493
962.5477, 3203.683
963.0298, 3204.722
963.5120, 3219.862
963.9941, 3240.685
964.4762, 3242.941
964.9583, 3230.150
965.4404, 3225.990
965.9225, 3241.336
966.4047, 3258.867
966.8868, 3265.359
967.3689, 3265.885
967.8510, 3266.887
968.3331, 3272.309
968.8152, 3271.759
969.2974, 3262.299
969.7795, 3252.999
970.2616, 3256.160
970.7437, 3266.662
971.2258, 3261.258
971.7079, 3239.059
972.1901, 3224.190
972.6722, 3241.301
973.1543, 3263.130
973.6364, 3271.196
974.1185, 3265.669
974.6006, 3262.022
975.0828, 3259.572
975.5649, 3261.995
976.0470, 3274.169
976.5291, 3288.556
977.0112, 3287.954
977.4933, 3276.882
977.9755, 3267.721
978.4576, 3261.911
978.9397, 3263.438
979.4218, 3284.397
979.9039, 3308.053
980.3860, 3309.673
980.8682, 3283.904
981.3503, 3270.658
981.8324, 3274.980
982.3145, 3285.412
982.7966, 3289.825
983.2787, 3292.719
983.7609, 3304.197
984.2430, 3327.260
984.7251, 3337.369
985.2072, 3311.167
985.6893, 3286.999
986.1714, 3283.301
986.6536, 3296.763
987.1357, 3298.170
987.6178, 3288.096
988.0999, 3281.498
988.5820, 3288.202
989.0641, 3300.288
989.5463, 3314.735
990.0284, 3328.377
990.5105, 3333.484
990.9926, 3319.464
991.4747, 3310.805
991.9568, 3309.902
992.4390, 3315.045
992.9211, 3326.691
993.4032, 3342.663
993.8853, 3353.419
994.3674, 3357.170
994.8495, 3358.049
995.3317, 3357.278
995.8138, 3356.110
996.2959, 3353.417
996.7780, 3347.887
997.2601, 3358.962
997.7422, 3394.292
998.2244, 3418.478
998.7065, 3405.182
999.1886, 3371.562
999.6707, 3348.931
1000.153, 3337.337
1000.635, 3337.681
1001.117, 3362.028
1001.599, 3384.649
1002.081, 3398.167
1002.563, 3404.272
1003.046, 3403.393
1003.528, 3394.863
1004.010, 3390.587
1004.492, 3393.840
1004.974, 3394.041
1005.456, 3369.527
1005.938, 3341.033
1006.420, 3334.298
1006.902, 3356.094
1007.385, 3383.844
1007.867, 3424.900
1008.349, 3455.211
1008.831, 3458.292
1009.313, 3440.640
1009.795, 3436.779
1010.277, 3444.678
1010.759, 3450.906
1011.242, 3452.304
1011.724, 3445.391
1012.206, 3418.277
1012.688, 3383.024
1013.170, 3367.598
1013.652, 3378.767
1014.134, 3391.298
1014.616, 3402.513
1015.098, 3413.321
1015.581, 3425.394
1016.063, 3437.571
1016.545, 3448.933
1017.027, 3459.998
1017.509, 3463.704
1017.991, 3447.383
1018.473, 3432.912
1018.955, 3432.147
1019.438, 3443.601
1019.920, 3453.149
1020.402, 3460.744
1020.884, 3465.848
1021.366, 3467.052
1021.848, 3466.779
1022.330, 3466.013
1022.812, 3465.770
1023.294, 3468.331
1023.777, 3480.550
1024.259, 3483.601
1024.741, 3471.742
1025.223, 3458.700
1025.705, 3464.293
1026.187, 3482.257
1026.669, 3492.023
1027.151, 3491.185
1027.633, 3485.958
1028.116, 3472.744
1028.598, 3462.840
1029.080, 3464.762
1029.562, 3476.883
1030.044, 3486.864
1030.526, 3494.059
1031.008, 3505.777
1031.490, 3529.906
1031.973, 3552.802
1032.455, 3552.843
1032.937, 3539.166
1033.419, 3527.690
1033.901, 3521.354
1034.383, 3521.281
1034.865, 3532.187
1035.347, 3542.451
1035.829, 3536.292
1036.312, 3518.274
1036.794, 3519.651
1037.276, 3541.111
1037.758, 3560.953
1038.240, 3561.820
1038.722, 3558.597
1039.204, 3559.309
1039.686, 3564.252
1040.168, 3575.053
1040.651, 3596.344
1041.133, 3599.308
1041.615, 3568.050
1042.097, 3533.275
1042.579, 3548.809
1043.061, 3589.845
1043.543, 3612.114
1044.025, 3597.131
1044.508, 3584.638
1044.990, 3583.560
1045.472, 3585.025
1045.954, 3581.249
1046.436, 3573.620
1046.918, 3583.586
1047.400, 3608.699
1047.882, 3625.437
1048.365, 3603.438
1048.847, 3583.619
1049.329, 3601.140
1049.811, 3640.610
1050.293, 3655.868
1050.775, 3637.089
1051.257, 3629.299
1051.739, 3641.896
1052.221, 3657.382
1052.703, 3649.105
1053.186, 3631.259
1053.668, 3629.458
1054.150, 3650.548
1054.632, 3660.078
1055.114, 3633.898
1055.596, 3613.669
1056.078, 3620.060
1056.560, 3645.406
1057.043, 3654.378
1057.525, 3649.190
1058.007, 3644.506
1058.489, 3651.838
1058.971, 3654.428
1059.453, 3630.630
1059.935, 3601.027
1060.417, 3596.911
1060.900, 3629.817
1061.382, 3644.622
1061.864, 3635.674
1062.346, 3628.864
1062.828, 3660.853
1063.310, 3701.232
1063.792, 3699.015
1064.274, 3658.477
1064.756, 3637.328
1065.239, 3676.785
1065.721, 3703.625
1066.203, 3697.741
1066.685, 3675.151
1067.167, 3667.455
1067.649, 3672.311
1068.131, 3681.548
1068.613, 3695.452
1069.095, 3704.457
1069.578, 3695.012
1070.060, 3684.231
1070.542, 3687.536
1071.024, 3706.151
1071.506, 3711.960
1071.988, 3703.900
1072.470, 3697.890
1072.952, 3706.901
1073.435, 3719.283
1073.917, 3719.789
1074.399, 3713.981
1074.881, 3714.669
1075.363, 3734.574
1075.845, 3743.330
1076.327, 3736.171
1076.809, 3723.335
1077.292, 3712.494
1077.774, 3705.638
1078.256, 3709.970
1078.738, 3725.646
1079.220, 3741.419
1079.702, 3753.306
1080.184, 3762.394
1080.666, 3769.428
1081.148, 3774.067
1081.630, 3775.251
1082.113, 3772.956
1082.595, 3766.133
1083.077, 3752.340
1083.559, 3740.620
1084.041, 3733.234
1084.523, 3735.303
1085.005, 3758.750
1085.487, 3813.847
1085.970, 3830.646
1086.452, 3799.891
1086.934, 3771.942
1087.416, 3788.627
1087.898, 3819.543
1088.380, 3809.092
1088.862, 3772.199
1089.344, 3749.097
1089.827, 3762.475
1090.309, 3778.619
1090.791, 3796.110
1091.273, 3811.144
1091.755, 3817.975
1092.237, 3818.297
1092.719, 3817.663
1093.201, 3816.588
1093.683, 3816.245
1094.166, 3818.861
1094.648, 3820.766
1095.130, 3818.657
1095.612, 3814.604
1096.094, 3814.507
1096.576, 3818.341
1097.058, 3829.105
1097.540, 3851.218
1098.023, 3867.693
1098.505, 3851.535
1098.987, 3826.856
1099.469, 3820.835
1099.951, 3840.758
1100.433, 3856.482
1100.915, 3868.161
1101.397, 3874.767
1101.880, 3871.605
1102.362, 3866.529
1102.844, 3878.245
1103.326, 3898.583
1103.808, 3908.912
1104.290, 3897.134
1104.772, 3881.223
1105.254, 3856.031
1105.736, 3838.184
1106.219, 3852.535
1106.701, 3889.059
1107.183, 3905.342
1107.665, 3900.867
1108.147, 3891.179
1108.629, 3878.920
1109.111, 3870.049
1109.593, 3870.281
1110.075, 3874.171
1110.558, 3867.113
1111.040, 3849.489
1111.522, 3847.350
1112.004, 3867.791
1112.486, 3888.938
1112.968, 3890.266
1113.450, 3884.697
1113.932, 3883.420
1114.415, 3887.204
1114.897, 3891.624
1115.379, 3898.663
1115.861, 3893.589
1116.343, 3861.501
1116.825, 3829.992
1117.307, 3846.143
1117.789, 3886.357
1118.271, 3912.854
1118.754, 3910.723
1119.236, 3905.780
1119.718, 3894.307
1120.200, 3890.473
1120.682, 3912.860
1121.164, 3948.477
1121.646, 3959.276
1122.128, 3949.749
1122.610, 3936.640
1123.093, 3924.699
1123.575, 3913.070
1124.057, 3901.138
1124.539, 3889.760
1125.021, 3877.125
1125.503, 3865.168
1125.985, 3871.225
1126.467, 3896.101
1126.950, 3915.689
1127.432, 3912.231
1127.914, 3901.126
1128.396, 3883.715
1128.878, 3867.165
1129.360, 3879.362
1129.842, 3921.049
1130.324, 3933.658
1130.807, 3898.030
1131.289, 3858.650
1131.771, 3854.920
1132.253, 3868.018
1132.735, 3883.239
1133.217, 3899.384
1133.699, 3907.287
1134.181, 3906.087
1134.663, 3900.884
1135.146, 3891.676
1135.628, 3883.001
1136.110, 3878.946
1136.592, 3880.229
1137.074, 3888.958
1137.556, 3915.385
1138.038, 3925.677
1138.520, 3913.217
1139.002, 3900.688
1139.485, 3909.551
1139.967, 3927.480
1140.449, 3923.549
1140.931, 3904.774
1141.413, 3894.246
1141.895, 3912.358
1142.377, 3922.567
1142.859, 3916.503
1143.342, 3905.946
1143.824, 3905.635
1144.306, 3912.052
1144.788, 3909.574
1145.270, 3898.482
1145.752, 3894.110
1146.234, 3912.982
1146.716, 3930.441
1147.198, 3938.764
1147.681, 3939.084
1148.163, 3930.025
1148.645, 3913.418
1149.127, 3903.901
1149.609, 3903.907
1150.091, 3912.246
1150.573, 3939.237
1151.055, 3964.012
1151.537, 3971.262
1152.020, 3964.005
1152.502, 3957.898
1152.984, 3952.881
1153.466, 3944.159
1153.948, 3927.717
1154.430, 3914.004
1154.912, 3912.550
1155.394, 3918.406
1155.877, 3929.391
1156.359, 3946.798
1156.841, 3946.632
1157.323, 3926.270
1157.805, 3912.563
1158.287, 3924.246
1158.769, 3944.483
1159.251, 3961.647
1159.734, 3972.154
1160.216, 3968.019
1160.698, 3934.255
1161.180, 3921.873
1161.662, 3935.380
1162.144, 3952.046
1162.626, 3953.234
1163.108, 3947.229
1163.590, 3946.524
1164.073, 3949.188
1164.555, 3948.024
1165.037, 3938.759
1165.519, 3929.353
1166.001, 3918.672
1166.483, 3912.814
1166.965, 3921.640
1167.447, 3938.892
1167.929, 3953.202
1168.412, 3964.099
1168.894, 3974.688
1169.376, 3991.999
1169.858, 3999.230
1170.340, 3990.577
1170.822, 3974.401
1171.304, 3961.154
1171.786, 3951.575
1172.269, 3949.244
1172.751, 3955.029
1173.233, 3959.688
1173.715, 3957.969
1174.197, 3956.767
1174.679, 3958.722
1175.161, 3962.406
1175.643, 3966.421
1176.125, 3969.048
1176.608, 3962.317
1177.090, 3939.388
1177.572, 3926.076
1178.054, 3939.283
1178.536, 3960.507
1179.018, 3983.612
1179.500, 4006.330
1179.982, 4017.962
1180.464, 4019.206
1180.947, 4012.643
1181.429, 3993.252
1181.911, 3977.724
1182.393, 3974.970
1182.875, 3978.868
1183.357, 3987.785
1183.839, 4000.837
1184.321, 3994.606
1184.804, 3972.502
1185.286, 3962.316
1185.768, 3994.493
1186.250, 4025.407
1186.732, 4033.625
1187.214, 4027.869
1187.696, 4013.631
1188.178, 3989.987
1188.661, 3992.292
1189.143, 4020.479
1189.625, 4041.859
1190.107, 4025.666
1190.589, 4004.955
1191.071, 4003.380
1191.553, 4009.829
1192.035, 4001.008
1192.517, 3975.325
1193.000, 3969.756
1193.482, 3988.328
1193.964, 4006.499
1194.446, 3998.995
1194.928, 3989.447
1195.410, 3996.728
1195.892, 4015.358
1196.374, 4028.573
1196.856, 4036.056
1197.339, 4043.752
1197.821, 4053.044
1198.303, 4058.628
1198.785, 4052.808
1199.267, 4043.778
1199.749, 4035.565
1200.231, 4029.755
1200.713, 4035.768
1201.196, 4054.979
1201.678, 4065.296
1202.160, 4058.418
1202.642, 4052.721
1203.124, 4072.145
1203.606, 4096.265
1204.088, 4105.250
1204.570, 4098.971
1205.052, 4084.413
1205.535, 4059.904
1206.017, 4055.313
1206.499, 4089.209
1206.981, 4125.300
1207.463, 4130.233
1207.945, 4115.958
1208.427, 4088.549
1208.909, 4046.781
1209.391, 4036.190
1209.874, 4059.157
1210.356, 4076.924
1210.838, 4066.401
1211.320, 4053.537
1211.802, 4069.309
1212.284, 4095.286
1212.766, 4105.560
1213.248, 4096.632
1213.731, 4089.927
1214.213, 4085.210
1214.695, 4085.241
1215.177, 4093.972
1215.659, 4105.419
1216.141, 4112.920
1216.623, 4120.080
1217.105, 4133.885
1217.588, 4158.652
1218.070, 4172.567
1218.552, 4175.008
1219.034, 4174.653
1219.516, 4181.168
1219.998, 4183.992
1220.480, 4166.260
1220.962, 4140.757
1221.444, 4132.335
1221.927, 4144.295
1222.409, 4162.555
1222.891, 4187.671
1223.373, 4202.907
1223.855, 4178.896
1224.337, 4155.710
1224.819, 4179.338
1225.301, 4226.074
1225.783, 4233.689
1226.266, 4193.857
1226.748, 4169.523
1227.230, 4166.483
1227.712, 4170.857
1228.194, 4168.869
1228.676, 4171.948
1229.158, 4193.752
1229.640, 4227.478
1230.123, 4254.513
1230.605, 4275.702
1231.087, 4277.162
1231.569, 4255.539
1232.051, 4237.392
1232.533, 4252.536
1233.015, 4272.568
1233.497, 4271.542
1233.979, 4258.382
1234.462, 4263.739
1234.944, 4288.344
1235.426, 4302.114
1235.908, 4299.705
1236.390, 4292.031
1236.872, 4277.545
1237.354, 4270.608
1237.836, 4288.228
1238.318, 4320.656
1238.801, 4341.223
1239.283, 4350.333
1239.765, 4356.466
1240.247, 4361.166
1240.729, 4365.093
1241.211, 4364.667
1241.693, 4368.085
1242.175, 4384.500
1242.658, 4407.667
1243.140, 4413.264
1243.622, 4403.645
1244.104, 4398.769
1244.586, 4404.052
1245.068, 4411.710
1245.550, 4419.557
1246.032, 4425.348
1246.515, 4428.494
1246.997, 4428.685
1247.479, 4420.251
1247.961, 4406.709
1248.443, 4408.017
1248.925, 4433.885
1249.407, 4456.257
1249.889, 4456.023
1250.371, 4454.349
1250.854, 4463.659
1251.336, 4478.758
1251.818, 4475.833
1252.300, 4462.149
1252.782, 4466.200
1253.264, 4505.001
1253.746, 4531.952
1254.228, 4517.935
1254.710, 4506.097
1255.193, 4519.914
1255.675, 4548.483
1256.157, 4560.759
1256.639, 4560.847
1257.121, 4559.222
1257.603, 4560.666
1258.085, 4553.180
1258.567, 4519.563
1259.050, 4506.680
1259.532, 4551.589
1260.014, 4624.640
1260.496, 4657.849
1260.978, 4662.875
1261.460, 4664.055
1261.942, 4666.391
1262.424, 4668.484
1262.906, 4670.642
1263.389, 4670.984
1263.871, 4662.910
1264.353, 4658.091
1264.835, 4682.396
1265.317, 4722.773
1265.799, 4756.498
1266.281, 4781.238
1266.763, 4788.750
1267.245, 4774.798
1267.728, 4763.501
1268.210, 4770.111
1268.692, 4786.072
1269.174, 4807.991
1269.656, 4829.125
1270.138, 4834.582
1270.620, 4814.800
1271.102, 4821.961
1271.585, 4858.419
1272.067, 4892.809
1272.549, 4902.349
1273.031, 4907.018
1273.513, 4929.827
1273.995, 4955.183
1274.477, 4957.728
1274.959, 4932.087
1275.442, 4931.307
1275.924, 4954.743
1276.406, 4981.513
1276.888, 5004.243
1277.370, 5021.256
1277.852, 5030.542
1278.334, 5033.995
1278.816, 5032.682
1279.298, 5026.734
1279.781, 5020.733
1280.263, 5015.513
1280.745, 5016.793
1281.227, 5033.863
1281.709, 5049.729
1282.191, 5054.123
1282.673, 5060.497
1283.155, 5085.652
1283.637, 5123.242
1284.120, 5137.078
1284.602, 5132.532
1285.084, 5132.716
1285.566, 5148.308
1286.048, 5169.689
1286.530, 5199.587
1287.012, 5225.908
1287.494, 5234.855
1287.977, 5234.263
1288.459, 5237.204
1288.941, 5246.149
1289.423, 5267.569
1289.905, 5320.153
1290.387, 5355.748
1290.869, 5370.241
1291.351, 5378.651
1291.833, 5396.549
1292.316, 5412.461
1292.798, 5402.301
1293.280, 5380.136
1293.762, 5380.003
1294.244, 5408.289
1294.726, 5444.792
1295.208, 5490.808
1295.690, 5527.388
1296.172, 5533.906
1296.655, 5532.949
1297.137, 5539.784
1297.619, 5552.670
1298.101, 5569.840
1298.583, 5592.779
1299.065, 5597.071
1299.547, 5583.849
1300.029, 5580.833
1300.512, 5613.364
1300.994, 5649.933
1301.476, 5679.366
1301.958, 5702.175
1302.440, 5715.601
1302.922, 5721.480
1303.404, 5736.437
1303.886, 5758.580
1304.369, 5776.959
1304.851, 5782.364
1305.333, 5788.944
1305.815, 5794.900
1306.297, 5810.001
1306.779, 5853.293
1307.261, 5908.061
1307.743, 5929.275
1308.225, 5926.197
1308.708, 5926.427
1309.190, 5944.337
1309.672, 5954.037
1310.154, 5951.984
1310.636, 5953.358
1311.118, 5972.447
1311.600, 5999.408
1312.082, 6025.661
1312.564, 6049.427
1313.047, 6066.427
1313.529, 6076.331
1314.011, 6081.946
1314.493, 6083.179
1314.975, 6082.179
1315.457, 6073.186
1315.939, 6070.243
1316.421, 6092.353
1316.904, 6119.956
1317.386, 6127.787
1317.868, 6115.925
1318.350, 6110.112
1318.832, 6110.305
##END=



