##NAMES=Heulandite-Ca
##RRUFFID=R061012
##IDEAL CHEMISTRY=(Ca,Na,K)_5_(Si_27_Al_9_)O_72_&#183;26H_2_O
##LOCALITY=Patterson, New Jersey, USA
##OWNER=RRUFF
##SOURCE=Michael Scott
##DESCRIPTION=Aggregate of white or colorless tabular coffin-shaped crystals
##STATUS=The identification of this mineral has been confirmed only by single crystal X-ray diffraction.
##URL=rruff.info/R061012
##MEASURED CHEMISTRY=(Ca_2.94_Na_1.55_K_0.51_)_Σ=5_(Si_28.06_Al_7.94_)_36_O_72_·19.5H_2_O
142.2531, 8857.281
142.7353, 8927.119
143.2174, 9003.690
143.6995, 9062.714
144.1816, 9091.780
144.6637, 9078.059
145.1458, 9078.022
145.6280, 9103.421
146.1101, 9138.849
146.5922, 9149.832
147.0743, 9119.854
147.5564, 9083.193
148.0385, 9053.909
148.5207, 9039.207
149.0028, 9021.702
149.4849, 8996.323
149.9670, 8965.984
150.4491, 8949.151
150.9312, 8956.717
151.4134, 8971.525
151.8955, 8984.440
152.3776, 8994.389
152.8597, 9004.635
153.3418, 9019.184
153.8239, 9038.645
154.3061, 9048.318
154.7882, 9029.603
155.2703, 9007.998
155.7524, 9006.331
156.2345, 9056.662
156.7166, 9101.473
157.1988, 9119.124
157.6809, 9100.996
158.1630, 9088.385
158.6451, 9103.283
159.1272, 9126.854
159.6093, 9132.203
160.0915, 9099.465
160.5736, 9053.780
161.0557, 9006.105
161.5378, 8956.604
162.0199, 8907.696
162.5020, 8868.440
162.9841, 8831.689
163.4663, 8778.317
163.9484, 8691.866
164.4305, 8590.715
164.9126, 8488.472
165.3947, 8390.371
165.8768, 8290.155
166.3590, 8181.712
166.8411, 8067.909
167.3232, 7957.193
167.8053, 7857.892
168.2874, 7763.468
168.7695, 7666.760
169.2517, 7557.776
169.7338, 7451.071
170.2159, 7357.584
170.6980, 7278.773
171.1801, 7205.856
171.6622, 7130.377
172.1444, 7057.254
172.6265, 6994.680
173.1086, 6960.347
173.5907, 6931.543
174.0728, 6879.071
174.5549, 6798.108
175.0371, 6715.605
175.5192, 6658.682
176.0013, 6619.879
176.4834, 6580.245
176.9655, 6525.353
177.4476, 6464.771
177.9298, 6413.242
178.4119, 6372.401
178.8940, 6340.289
179.3761, 6320.208
179.8582, 6309.056
180.3403, 6290.458
180.8225, 6241.197
181.3046, 6176.863
181.7867, 6135.740
182.2688, 6133.542
182.7509, 6145.042
183.2330, 6126.804
183.7152, 6080.537
184.1973, 6032.891
184.6794, 6007.917
185.1615, 6000.189
185.6436, 5989.171
186.1257, 5966.333
186.6079, 5938.994
187.0900, 5926.804
187.5721, 5930.700
188.0542, 5936.403
188.5363, 5931.859
189.0184, 5917.554
189.5006, 5896.349
189.9827, 5866.326
190.4648, 5830.344
190.9469, 5796.773
191.4290, 5765.287
191.9111, 5740.307
192.3932, 5731.377
192.8754, 5738.411
193.3575, 5742.092
193.8396, 5737.635
194.3217, 5724.609
194.8038, 5693.277
195.2859, 5637.372
195.7681, 5577.696
196.2502, 5548.755
196.7323, 5553.624
197.2144, 5558.513
197.6965, 5546.725
198.1786, 5518.317
198.6608, 5488.961
199.1429, 5459.108
199.6250, 5428.957
200.1071, 5395.944
200.5892, 5358.167
201.0714, 5326.767
201.5535, 5312.709
202.0356, 5318.489
202.5177, 5312.128
202.9998, 5287.640
203.4819, 5250.602
203.9641, 5220.972
204.4462, 5200.654
204.9283, 5180.622
205.4104, 5153.050
205.8925, 5115.461
206.3746, 5083.934
206.8568, 5063.690
207.3389, 5050.905
207.8210, 5023.660
208.3031, 4975.572
208.7852, 4927.755
209.2673, 4901.043
209.7495, 4903.214
210.2316, 4896.851
210.7137, 4871.758
211.1958, 4830.256
211.6779, 4799.944
212.1600, 4783.417
212.6422, 4773.513
213.1243, 4763.416
213.6064, 4752.939
214.0885, 4742.883
214.5706, 4733.281
215.0527, 4723.966
215.5349, 4715.742
216.0170, 4710.435
216.4991, 4703.589
216.9812, 4688.831
217.4633, 4662.667
217.9454, 4636.693
218.4276, 4612.667
218.9097, 4589.937
219.3918, 4576.395
219.8739, 4576.472
220.3560, 4582.127
220.8381, 4580.773
221.3203, 4567.922
221.8024, 4557.660
222.2845, 4556.152
222.7666, 4567.271
223.2487, 4571.313
223.7308, 4564.644
224.2129, 4553.161
224.6951, 4548.047
225.1772, 4552.226
225.6593, 4557.555
226.1414, 4560.064
226.6235, 4555.957
227.1056, 4559.812
227.5878, 4575.148
228.0699, 4596.915
228.5520, 4614.182
229.0341, 4624.707
229.5162, 4633.757
229.9983, 4643.683
230.4805, 4655.036
230.9626, 4665.864
231.4447, 4676.443
231.9268, 4686.452
232.4089, 4694.231
232.8910, 4697.586
233.3732, 4702.127
233.8553, 4711.583
234.3374, 4731.606
234.8195, 4743.977
235.3016, 4740.615
235.7837, 4728.704
236.2659, 4739.242
236.7480, 4786.833
237.2301, 4837.974
237.7122, 4872.411
238.1943, 4878.331
238.6764, 4892.852
239.1586, 4926.379
239.6407, 4972.973
240.1228, 4995.300
240.6049, 4977.549
241.0870, 4955.388
241.5691, 4951.825
242.0513, 4973.695
242.5334, 5000.542
243.0155, 5031.597
243.4976, 5066.327
243.9797, 5101.768
244.4618, 5140.754
244.9440, 5176.125
245.4261, 5202.715
245.9082, 5219.444
246.3903, 5228.366
246.8724, 5224.917
247.3545, 5210.750
247.8367, 5211.389
248.3188, 5237.545
248.8009, 5266.217
249.2830, 5278.285
249.7651, 5266.324
250.2472, 5253.697
250.7294, 5244.122
251.2115, 5237.609
251.6936, 5228.951
252.1757, 5213.448
252.6578, 5201.671
253.1399, 5204.735
253.6220, 5234.140
254.1042, 5253.883
254.5863, 5256.065
255.0684, 5241.096
255.5505, 5224.974
256.0326, 5204.272
256.5147, 5186.223
256.9969, 5178.670
257.4790, 5188.472
257.9611, 5192.462
258.4432, 5184.697
258.9253, 5164.951
259.4074, 5146.635
259.8896, 5127.570
260.3717, 5112.181
260.8538, 5105.905
261.3359, 5113.642
261.8180, 5117.679
262.3001, 5112.337
262.7823, 5097.585
263.2644, 5090.319
263.7465, 5094.520
264.2286, 5100.878
264.7107, 5099.441
265.1928, 5088.854
265.6750, 5074.688
266.1571, 5057.849
266.6392, 5038.561
267.1213, 5012.948
267.6034, 4970.100
268.0855, 4926.415
268.5677, 4938.244
269.0498, 4941.030
269.5319, 4935.261
270.0140, 4895.307
270.4961, 4899.495
270.9782, 4885.992
271.4604, 4871.763
271.9425, 4882.163
272.4246, 4858.595
272.9067, 4856.785
273.3888, 4854.845
273.8709, 4851.035
274.3531, 4845.387
274.8352, 4837.616
275.3173, 4826.320
275.7994, 4815.828
276.2815, 4811.843
276.7636, 4815.208
277.2458, 4818.850
277.7279, 4821.438
278.2100, 4822.737
278.6921, 4820.626
279.1742, 4814.604
279.6563, 4806.305
280.1385, 4796.761
280.6206, 4785.908
281.1027, 4776.165
281.5848, 4768.505
282.0669, 4762.688
282.5490, 4757.183
283.0312, 4752.034
283.5133, 4747.240
283.9954, 4743.083
284.4775, 4739.597
284.9596, 4735.670
285.4417, 4730.805
285.9239, 4725.289
286.4060, 4719.107
286.8881, 4711.713
287.3702, 4707.293
287.8523, 4711.836
288.3344, 4724.690
288.8166, 4737.537
289.2987, 4749.624
289.7808, 4759.532
290.2629, 4762.485
290.7450, 4758.196
291.2271, 4749.321
291.7093, 4733.497
292.1914, 4713.167
292.6735, 4702.732
293.1556, 4711.054
293.6377, 4729.991
294.1198, 4741.471
294.6020, 4745.453
295.0841, 4747.478
295.5662, 4756.126
296.0483, 4768.006
296.5304, 4770.036
297.0125, 4752.476
297.4947, 4727.508
297.9768, 4716.833
298.4589, 4719.997
298.9410, 4727.955
299.4231, 4732.353
299.9052, 4735.589
300.3873, 4743.950
300.8694, 4763.527
301.3516, 4784.489
301.8337, 4792.561
302.3158, 4788.604
302.7979, 4782.758
303.2800, 4780.309
303.7621, 4781.231
304.2443, 4786.066
304.7264, 4797.580
305.2085, 4809.625
305.6906, 4818.306
306.1727, 4823.077
306.6548, 4821.238
307.1370, 4802.981
307.6191, 4779.797
308.1012, 4767.198
308.5833, 4775.252
309.0654, 4786.430
309.5475, 4785.813
310.0297, 4776.309
310.5118, 4768.693
310.9939, 4766.137
311.4760, 4769.817
311.9581, 4782.819
312.4402, 4814.294
312.9224, 4840.460
313.4045, 4831.494
313.8866, 4786.603
314.3687, 4815.328
314.8508, 4835.010
315.3329, 4846.136
315.8151, 4823.080
316.2972, 4844.164
316.7793, 4847.557
317.2614, 4850.226
317.7435, 4877.522
318.2256, 4859.436
318.7078, 4886.344
319.1899, 4895.290
319.6720, 4912.456
320.1541, 4911.822
320.6362, 4916.686
321.1183, 4939.355
321.6005, 4952.167
322.0826, 4949.485
322.5647, 4967.173
323.0468, 4948.465
323.5289, 4961.695
324.0110, 4988.705
324.4932, 4972.660
324.9753, 4977.770
325.4574, 4988.295
325.9395, 5004.134
326.4216, 5034.820
326.9037, 5061.778
327.3859, 5078.275
327.8680, 5079.392
328.3501, 5087.048
328.8322, 5108.917
329.3143, 5134.087
329.7964, 5150.279
330.2786, 5151.012
330.7607, 5150.836
331.2428, 5150.336
331.7249, 5148.256
332.2070, 5158.866
332.6891, 5194.142
333.1713, 5232.508
333.6534, 5250.927
334.1355, 5236.720
334.6176, 5228.346
335.0997, 5235.588
335.5818, 5257.448
336.0640, 5270.754
336.5461, 5272.794
337.0282, 5270.063
337.5103, 5265.866
337.9924, 5257.323
338.4745, 5258.471
338.9567, 5274.878
339.4388, 5302.535
339.9209, 5321.272
340.4030, 5328.162
340.8851, 5334.973
341.3672, 5353.450
341.8494, 5385.127
342.3315, 5405.615
342.8136, 5408.039
343.2957, 5401.516
343.7778, 5408.883
344.2599, 5430.807
344.7421, 5459.847
345.2242, 5494.251
345.7063, 5533.036
346.1884, 5564.467
346.6705, 5585.176
347.1526, 5602.541
347.6348, 5629.625
348.1169, 5665.084
348.5990, 5699.487
349.0811, 5725.965
349.5632, 5746.647
350.0453, 5766.293
350.5275, 5784.621
351.0096, 5803.416
351.4917, 5823.093
351.9738, 5844.650
352.4559, 5871.712
352.9380, 5910.789
353.4202, 5954.297
353.9023, 5991.208
354.3844, 6020.935
354.8665, 6049.146
355.3486, 6079.228
355.8307, 6111.182
356.3129, 6145.533
356.7950, 6187.449
357.2771, 6227.728
357.7592, 6254.638
358.2413, 6269.168
358.7234, 6290.847
359.2056, 6338.944
359.6877, 6396.515
360.1698, 6446.093
360.6519, 6468.652
361.1340, 6494.994
361.6161, 6545.697
362.0982, 6615.112
362.5804, 6672.233
363.0625, 6691.523
363.5446, 6703.728
364.0267, 6729.358
364.5088, 6782.778
364.9909, 6835.703
365.4731, 6878.034
365.9552, 6915.340
366.4373, 6963.724
366.9194, 7045.191
367.4015, 7122.654
367.8836, 7179.247
368.3658, 7194.188
368.8479, 7225.612
369.3300, 7285.291
369.8121, 7359.748
370.2942, 7424.039
370.7763, 7474.254
371.2585, 7519.624
371.7406, 7562.358
372.2227, 7601.701
372.7048, 7638.063
373.1869, 7663.404
373.6690, 7692.198
374.1512, 7745.818
374.6333, 7837.489
375.1154, 7919.835
375.5975, 7979.558
376.0796, 8018.470
376.5617, 8062.947
377.0439, 8113.255
377.5260, 8168.453
378.0081, 8229.624
378.4902, 8298.469
378.9723, 8359.681
379.4544, 8407.964
379.9366, 8449.412
380.4187, 8500.497
380.9008, 8560.914
381.3829, 8635.651
381.8650, 8741.325
382.3471, 8869.493
382.8293, 8969.652
383.3114, 9030.848
383.7935, 9073.952
384.2756, 9120.599
384.7577, 9173.584
385.2398, 9248.349
385.7220, 9351.979
386.2041, 9484.222
386.6862, 9666.160
387.1683, 9912.787
387.6504, 10126.67
388.1325, 10188.17
388.6147, 10152.47
389.0968, 10129.42
389.5789, 10164.62
390.0610, 10233.59
390.5431, 10325.52
391.0252, 10439.61
391.5074, 10551.24
391.9895, 10644.09
392.4716, 10730.18
392.9537, 10821.42
393.4358, 10930.47
393.9179, 11037.56
394.4001, 11136.06
394.8822, 11226.69
395.3643, 11315.32
395.8464, 11396.64
396.3285, 11481.46
396.8106, 11576.20
397.2928, 11696.78
397.7749, 11804.71
398.2570, 11895.29
398.7391, 11969.86
399.2212, 12031.73
399.7033, 12081.76
400.1855, 12118.59
400.6676, 12140.83
401.1497, 12145.80
401.6318, 12145.11
402.1139, 12137.36
402.5960, 12125.22
403.0782, 12114.92
403.5603, 12117.33
404.0424, 12096.79
404.5245, 12039.82
405.0066, 11949.08
405.4887, 11858.78
405.9709, 11767.38
406.4530, 11679.48
406.9351, 11604.07
407.4172, 11543.24
407.8993, 11460.95
408.3814, 11345.36
408.8636, 11209.34
409.3457, 11087.86
409.8278, 10980.75
410.3099, 10865.75
410.7920, 10718.32
411.2741, 10550.35
411.7563, 10409.91
412.2384, 10306.75
412.7205, 10211.17
413.2026, 10079.09
413.6847, 9919.563
414.1668, 9766.058
414.6490, 9642.955
415.1311, 9529.183
415.6132, 9391.131
416.0953, 9225.532
416.5774, 9071.130
417.0595, 8973.091
417.5417, 8894.196
418.0238, 8784.910
418.5059, 8597.078
418.9880, 8405.203
419.4701, 8250.707
419.9522, 8127.269
420.4344, 8009.635
420.9165, 7895.891
421.3986, 7780.132
421.8807, 7655.732
422.3628, 7509.694
422.8449, 7377.975
423.3270, 7282.417
423.8091, 7205.627
424.2913, 7110.321
424.7734, 6966.138
425.2555, 6831.160
425.7376, 6726.467
426.2197, 6662.123
426.7018, 6580.940
427.1840, 6467.842
427.6661, 6349.053
428.1482, 6254.041
428.6303, 6192.419
429.1124, 6128.086
429.5945, 6050.242
430.0767, 5963.629
430.5588, 5897.527
431.0409, 5858.356
431.5230, 5820.696
432.0051, 5761.993
432.4872, 5681.985
432.9694, 5617.746
433.4515, 5575.736
433.9336, 5543.685
434.4157, 5496.778
434.8978, 5436.774
435.3799, 5382.908
435.8621, 5347.453
436.3442, 5324.887
436.8263, 5305.024
437.3084, 5287.718
437.7905, 5269.148
438.2726, 5239.292
438.7548, 5206.267
439.2369, 5185.670
439.7190, 5196.489
440.2011, 5209.798
440.6832, 5197.884
441.1653, 5165.316
441.6475, 5136.539
442.1296, 5128.518
442.6117, 5126.813
443.0938, 5119.343
443.5759, 5097.371
444.0580, 5082.188
444.5402, 5089.115
445.0223, 5106.714
445.5044, 5114.150
445.9865, 5092.071
446.4686, 5073.809
446.9507, 5071.960
447.4329, 5090.993
447.9150, 5105.434
448.3971, 5109.238
448.8792, 5112.826
449.3613, 5125.900
449.8434, 5153.516
450.3256, 5180.464
450.8077, 5205.076
451.2898, 5227.252
451.7719, 5245.134
452.2540, 5256.583
452.7361, 5269.458
453.2183, 5283.973
453.7004, 5299.584
454.1825, 5341.895
454.6646, 5418.827
455.1467, 5504.476
455.6288, 5554.304
456.1110, 5572.888
456.5931, 5597.252
457.0752, 5644.667
457.5573, 5707.046
458.0394, 5765.651
458.5215, 5821.265
459.0037, 5882.597
459.4858, 5963.258
459.9679, 6053.302
460.4500, 6133.344
460.9321, 6193.316
461.4142, 6254.049
461.8964, 6335.365
462.3785, 6430.414
462.8606, 6521.283
463.3427, 6597.097
463.8248, 6670.099
464.3069, 6745.246
464.7891, 6823.476
465.2712, 6907.422
465.7533, 7001.697
466.2354, 7100.616
466.7175, 7196.991
467.1996, 7293.206
467.6818, 7382.429
468.1639, 7457.664
468.6460, 7521.482
469.1281, 7603.746
469.6102, 7710.448
470.0923, 7826.640
470.5745, 7928.188
471.0566, 7989.669
471.5387, 8145.274
472.0208, 8291.845
472.5029, 8429.851
472.9850, 8533.672
473.4672, 8681.669
473.9493, 8811.950
474.4314, 8941.497
474.9135, 9095.680
475.3956, 9204.472
475.8777, 9295.424
476.3599, 9397.246
476.8420, 9491.148
477.3241, 9583.070
477.8062, 9691.856
478.2883, 9834.368
478.7704, 9965.855
479.2526, 10036.33
479.7347, 10057.57
480.2168, 10062.02
480.6989, 10069.86
481.1810, 10064.37
481.6631, 10034.73
482.1453, 9979.672
482.6274, 9898.364
483.1095, 9782.108
483.5916, 9642.666
484.0737, 9493.306
484.5558, 9341.920
485.0379, 9172.595
485.5201, 8973.019
486.0022, 8750.208
486.4843, 8543.364
486.9664, 8373.007
487.4485, 8196.274
487.9306, 7988.197
488.4128, 7732.954
488.8949, 7515.574
489.3770, 7345.864
489.8591, 7198.662
490.3412, 7040.970
490.8233, 6868.529
491.3055, 6712.476
491.7876, 6589.597
492.2697, 6486.576
492.7518, 6351.811
493.2339, 6185.703
493.7160, 6022.688
494.1982, 5892.815
494.6803, 5785.634
495.1624, 5676.448
495.6445, 5557.955
496.1266, 5449.257
496.6087, 5375.965
497.0909, 5324.130
497.5730, 5263.561
498.0551, 5165.666
498.5372, 5045.983
499.0193, 5017.068
499.5014, 4979.106
499.9836, 4932.580
500.4657, 4851.881
500.9478, 4815.321
501.4299, 4761.075
501.9120, 4706.103
502.3941, 4675.756
502.8763, 4600.017
503.3584, 4569.283
503.8405, 4520.586
504.3226, 4480.112
504.8047, 4445.845
505.2868, 4404.334
505.7690, 4348.430
506.2511, 4299.784
506.7332, 4256.258
507.2153, 4225.380
507.6974, 4220.388
508.1795, 4242.729
508.6617, 4248.450
509.1438, 4228.799
509.6259, 4181.103
510.1080, 4186.784
510.5901, 4183.423
511.0722, 4171.504
511.5544, 4125.399
512.0365, 4123.439
512.5186, 4103.788
513.0007, 4083.414
513.4828, 4087.666
513.9650, 4046.531
514.4471, 4050.394
514.9292, 4036.296
515.4113, 4030.417
515.8934, 4006.740
516.3755, 4004.247
516.8576, 4002.869
517.3397, 3996.840
517.8218, 3976.253
518.3040, 3959.639
518.7861, 3957.171
519.2682, 3972.594
519.7503, 3975.010
520.2324, 3951.335
520.7145, 3926.435
521.1967, 3921.400
521.6788, 3949.759
522.1609, 3958.705
522.6430, 3935.862
523.1251, 3898.240
523.6072, 3887.662
524.0894, 3907.280
524.5715, 3923.299
525.0536, 3919.359
525.5357, 3900.000
526.0178, 3880.384
526.4999, 3860.155
526.9821, 3845.610
527.4642, 3848.126
527.9463, 3859.283
528.4284, 3862.230
528.9105, 3851.004
529.3926, 3836.171
529.8748, 3825.743
530.3569, 3818.389
530.8390, 3811.511
531.3211, 3802.781
531.8032, 3795.406
532.2853, 3792.671
532.7675, 3794.910
533.2496, 3793.024
533.7317, 3781.327
534.2138, 3767.554
534.6959, 3756.505
535.1780, 3746.692
535.6602, 3742.763
536.1423, 3748.159
536.6244, 3757.523
537.1065, 3759.555
537.5886, 3750.405
538.0707, 3746.720
538.5529, 3756.463
539.0350, 3776.449
539.5171, 3786.552
539.9992, 3786.059
540.4813, 3781.950
540.9634, 3777.551
541.4456, 3773.778
541.9277, 3774.534
542.4098, 3781.295
542.8919, 3788.833
543.3740, 3793.646
543.8561, 3794.860
544.3383, 3790.662
544.8204, 3774.412
545.3025, 3757.475
545.7846, 3745.561
546.2667, 3738.913
546.7488, 3738.071
547.2310, 3748.843
547.7131, 3761.352
548.1952, 3769.789
548.6773, 3769.376
549.1594, 3774.242
549.6415, 3792.496
550.1237, 3811.609
550.6058, 3814.539
551.0879, 3792.021
551.5700, 3776.864
552.0521, 3777.864
552.5342, 3790.085
553.0164, 3794.060
553.4985, 3788.930
553.9806, 3782.241
554.4627, 3776.310
554.9448, 3772.234
555.4269, 3778.930
555.9091, 3798.621
556.3912, 3811.879
556.8733, 3788.521
557.3554, 3746.901
557.8375, 3720.344
558.3196, 3724.336
558.8018, 3738.796
559.2839, 3754.724
559.7660, 3770.602
560.2481, 3782.916
560.7302, 3780.776
561.2123, 3783.111
561.6945, 3805.371
562.1766, 3854.489
562.6587, 3877.098
563.1408, 3843.645
563.6229, 3804.485
564.1050, 3796.169
564.5872, 3838.011
565.0693, 3861.465
565.5514, 3858.746
566.0335, 3839.854
566.5156, 3819.123
566.9977, 3795.481
567.4799, 3786.968
567.9620, 3809.106
568.4441, 3848.120
568.9262, 3862.386
569.4083, 3853.158
569.8904, 3841.444
570.3726, 3842.231
570.8547, 3850.246
571.3368, 3858.859
571.8189, 3867.373
572.3010, 3874.840
572.7831, 3879.836
573.2653, 3883.606
573.7474, 3887.662
574.2295, 3895.560
574.7116, 3900.567
575.1937, 3895.773
575.6758, 3885.152
576.1580, 3887.442
576.6401, 3915.544
577.1222, 3941.271
577.6043, 3953.473
578.0864, 3950.480
578.5685, 3950.691
579.0507, 3955.099
579.5328, 3960.346
580.0149, 3959.515
580.4970, 3953.450
580.9791, 3963.686
581.4612, 3998.328
581.9434, 4039.073
582.4255, 4054.700
582.9076, 4051.441
583.3897, 4049.884
583.8718, 4066.426
584.3539, 4084.257
584.8361, 4082.975
585.3182, 4065.423
585.8003, 4056.422
586.2824, 4075.599
586.7645, 4102.111
587.2466, 4121.876
587.7288, 4128.467
588.2109, 4140.714
588.6930, 4171.020
589.1751, 4202.602
589.6572, 4217.904
590.1393, 4209.000
590.6215, 4199.731
591.1036, 4189.602
591.5857, 4183.238
592.0678, 4197.497
592.5499, 4234.526
593.0320, 4273.142
593.5142, 4302.789
593.9963, 4325.878
594.4784, 4350.365
594.9605, 4376.473
595.4426, 4402.029
595.9247, 4428.281
596.4069, 4452.143
596.8890, 4467.456
597.3711, 4469.053
597.8532, 4474.014
598.3353, 4491.326
598.8174, 4518.250
599.2996, 4551.008
599.7817, 4598.776
600.2638, 4640.795
600.7459, 4668.137
601.2280, 4684.120
601.7101, 4706.614
602.1923, 4740.735
602.6744, 4773.189
603.1565, 4798.737
603.6386, 4817.518
604.1207, 4828.524
604.6028, 4830.161
605.0850, 4830.258
605.5671, 4835.192
606.0492, 4844.885
606.5313, 4860.036
607.0134, 4882.484
607.4955, 4905.510
607.9777, 4926.250
608.4598, 4941.733
608.9419, 4946.000
609.4240, 4921.891
609.9061, 4898.528
610.3882, 4898.936
610.8704, 4917.739
611.3525, 4924.469
611.8346, 4900.193
612.3167, 4871.250
612.7988, 4850.804
613.2809, 4842.180
613.7631, 4826.757
614.2452, 4801.804
614.7273, 4773.748
615.2094, 4749.611
615.6915, 4730.718
616.1736, 4705.411
616.6558, 4671.079
617.1379, 4632.617
617.6200, 4595.007
618.1021, 4559.340
618.5842, 4532.139
619.0663, 4525.880
619.5485, 4521.682
620.0306, 4490.852
620.5127, 4439.064
620.9948, 4393.856
621.4769, 4378.437
621.9590, 4368.842
622.4412, 4339.642
622.9233, 4277.078
623.4054, 4262.563
623.8875, 4263.965
624.3696, 4256.325
624.8517, 4240.131
625.3339, 4189.746
625.8160, 4183.509
626.2981, 4159.580
626.7802, 4134.926
627.2623, 4134.900
627.7444, 4089.494
628.2266, 4089.072
628.7087, 4070.698
629.1908, 4060.541
629.6729, 4010.655
630.1550, 3964.732
630.6371, 3927.050
631.1193, 3930.536
631.6014, 3946.365
632.0835, 3945.011
632.5656, 3924.036
633.0477, 3902.914
633.5298, 3891.507
634.0120, 3882.488
634.4941, 3870.160
634.9762, 3848.953
635.4583, 3832.714
635.9404, 3826.076
636.4225, 3821.849
636.9047, 3809.285
637.3868, 3785.055
637.8689, 3765.006
638.3510, 3755.165
638.8331, 3749.065
639.3152, 3724.932
639.7973, 3684.331
640.2794, 3652.913
640.7615, 3652.618
641.2437, 3667.018
641.7258, 3673.426
642.2079, 3671.380
642.6900, 3659.484
643.1721, 3624.083
643.6542, 3586.563
644.1364, 3565.510
644.6185, 3569.400
645.1006, 3571.959
645.5827, 3564.164
646.0648, 3553.870
646.5469, 3549.173
647.0291, 3554.918
647.5112, 3556.354
647.9933, 3551.545
648.4754, 3542.064
648.9575, 3529.749
649.4396, 3513.895
649.9218, 3502.923
650.4039, 3502.131
650.8860, 3506.526
651.3681, 3504.052
651.8502, 3495.859
652.3323, 3489.423
652.8145, 3492.866
653.2966, 3498.253
653.7787, 3498.188
654.2608, 3491.960
654.7429, 3483.670
655.2250, 3473.724
655.7072, 3463.183
656.1893, 3452.963
656.6714, 3444.690
657.1535, 3433.839
657.6356, 3418.406
658.1177, 3402.010
658.5999, 3388.350
659.0820, 3376.539
659.5641, 3373.741
660.0462, 3385.154
660.5283, 3401.073
661.0104, 3401.293
661.4926, 3387.873
661.9747, 3372.448
662.4568, 3354.807
662.9389, 3341.968
663.4210, 3347.625
663.9031, 3368.369
664.3853, 3382.995
664.8674, 3373.120
665.3495, 3359.937
665.8316, 3358.882
666.3137, 3377.016
666.7958, 3378.305
667.2780, 3348.498
667.7601, 3312.737
668.2422, 3287.480
668.7243, 3271.932
669.2064, 3270.875
669.6885, 3288.678
670.1707, 3312.221
670.6528, 3325.341
671.1349, 3328.506
671.6170, 3323.603
672.0991, 3308.229
672.5812, 3290.361
673.0634, 3276.923
673.5455, 3268.443
674.0276, 3266.060
674.5097, 3276.262
674.9918, 3287.488
675.4739, 3294.162
675.9561, 3296.427
676.4382, 3298.276
676.9203, 3286.708
677.4024, 3308.840
677.8845, 3321.929
678.3666, 3326.461
678.8488, 3296.809
679.3309, 3311.299
679.8130, 3308.099
680.2951, 3304.174
680.7772, 3324.876
681.2593, 3300.196
681.7415, 3320.509
682.2236, 3322.861
682.7057, 3333.433
683.1878, 3326.206
683.6699, 3324.476
684.1520, 3340.551
684.6342, 3346.768
685.1163, 3337.491
685.5984, 3348.586
686.0805, 3323.284
686.5626, 3329.921
687.0447, 3350.337
687.5269, 3341.956
688.0090, 3353.376
688.4911, 3357.254
688.9732, 3326.860
689.4553, 3356.070
689.9374, 3336.690
690.4196, 3329.631
690.9017, 3326.171
691.3838, 3326.069
691.8659, 3324.186
692.3480, 3310.505
692.8301, 3296.045
693.3123, 3296.177
693.7944, 3314.502
694.2765, 3330.482
694.7586, 3329.859
695.2407, 3326.122
695.7228, 3331.460
696.2050, 3367.760
696.6871, 3377.819
697.1692, 3347.191
697.6513, 3303.725
698.1334, 3284.154
698.6155, 3291.031
699.0977, 3302.305
699.5798, 3315.180
700.0619, 3328.452
700.5440, 3345.424
701.0261, 3362.393
701.5082, 3364.801
701.9904, 3325.762
702.4725, 3285.876
702.9546, 3289.457
703.4367, 3323.694
703.9188, 3342.284
704.4009, 3310.054
704.8831, 3276.231
705.3652, 3260.850
705.8473, 3264.214
706.3294, 3275.107
706.8115, 3298.594
707.2936, 3319.797
707.7758, 3329.913
708.2579, 3328.999
708.7400, 3323.075
709.2221, 3311.504
709.7042, 3301.000
710.1863, 3299.738
710.6685, 3303.746
711.1506, 3305.050
711.6327, 3301.360
712.1148, 3299.127
712.5969, 3304.113
713.0790, 3312.138
713.5612, 3318.525
714.0433, 3322.998
714.5254, 3324.411
715.0075, 3321.692
715.4896, 3316.436
715.9717, 3309.819
716.4539, 3299.585
716.9360, 3297.318
717.4181, 3307.635
717.9002, 3325.510
718.3823, 3344.118
718.8644, 3361.690
719.3466, 3367.074
719.8287, 3340.249
720.3108, 3308.074
720.7929, 3301.639
721.2750, 3316.637
721.7571, 3332.311
722.2393, 3343.553
722.7214, 3349.525
723.2035, 3348.419
723.6856, 3339.636
724.1677, 3330.402
724.6498, 3319.210
725.1320, 3309.993
725.6141, 3302.800
726.0962, 3284.596
726.5783, 3307.059
727.0604, 3320.481
727.5425, 3325.345
728.0247, 3296.026
728.5068, 3310.848
728.9889, 3307.980
729.4710, 3304.387
729.9531, 3325.422
730.4352, 3301.074
730.9174, 3321.719
731.3995, 3324.404
731.8816, 3335.308
732.3637, 3328.413
732.8458, 3327.016
733.3279, 3343.423
733.8101, 3349.973
734.2922, 3340.241
734.7743, 3343.835
735.2564, 3331.122
735.7385, 3312.047
736.2206, 3307.661
736.7028, 3315.347
737.1849, 3322.627
737.6670, 3324.513
738.1491, 3323.444
738.6312, 3319.926
739.1133, 3315.121
739.5955, 3312.525
740.0776, 3311.563
740.5597, 3314.949
741.0418, 3327.850
741.5239, 3348.123
742.0060, 3357.509
742.4882, 3352.110
742.9703, 3344.348
743.4524, 3339.107
743.9345, 3336.349
744.4166, 3336.828
744.8987, 3340.472
745.3809, 3346.619
745.8630, 3358.114
746.3451, 3370.063
746.8272, 3374.320
747.3093, 3369.534
747.7914, 3367.897
748.2736, 3381.541
748.7557, 3380.610
749.2378, 3403.744
749.7199, 3417.836
750.2020, 3423.371
750.6841, 3394.722
751.1663, 3410.216
751.6484, 3408.018
752.1305, 3405.096
752.6126, 3426.802
753.0947, 3403.125
753.5768, 3424.440
754.0590, 3427.796
754.5411, 3439.370
755.0232, 3433.146
755.5053, 3432.420
755.9874, 3449.498
756.4695, 3456.718
756.9517, 3448.445
757.4338, 3460.542
757.9159, 3436.244
758.3980, 3443.884
758.8801, 3465.303
759.3622, 3457.925
759.8444, 3448.335
760.3265, 3453.541
760.8086, 3465.107
761.2907, 3487.110
761.7728, 3509.896
762.2549, 3511.597
762.7370, 3498.315
763.2191, 3491.130
763.7012, 3504.378
764.1833, 3523.497
764.6655, 3541.252
765.1476, 3557.458
765.6297, 3572.516
766.1118, 3587.414
766.5939, 3599.630
767.0760, 3605.475
767.5582, 3606.571
768.0403, 3622.534
768.5224, 3655.494
769.0045, 3686.052
769.4866, 3699.566
769.9688, 3702.603
770.4509, 3713.688
770.9330, 3731.800
771.4151, 3743.588
771.8972, 3729.946
772.3793, 3714.307
772.8615, 3717.259
773.3436, 3743.298
773.8257, 3760.782
774.3078, 3756.111
774.7899, 3751.357
775.2720, 3760.043
775.7542, 3785.071
776.2363, 3800.498
776.7184, 3805.740
777.2005, 3804.305
777.6826, 3792.160
778.1647, 3776.619
778.6469, 3777.312
779.1290, 3797.600
779.6111, 3822.594
780.0932, 3856.157
780.5753, 3881.442
781.0574, 3878.274
781.5396, 3819.001
782.0217, 3786.161
782.5038, 3802.497
782.9859, 3832.415
783.4680, 3842.734
783.9501, 3830.965
784.4323, 3816.972
784.9144, 3801.405
785.3965, 3788.545
785.8786, 3787.949
786.3607, 3794.242
786.8428, 3793.491
787.3250, 3779.887
787.8071, 3764.708
788.2892, 3755.358
788.7713, 3748.655
789.2534, 3740.233
789.7355, 3725.661
790.2177, 3713.920
790.6998, 3704.195
791.1819, 3698.404
791.6640, 3702.632
792.1461, 3718.351
792.6282, 3723.623
793.1104, 3711.478
793.5925, 3691.421
794.0746, 3676.410
794.5567, 3664.986
795.0388, 3652.719
795.5209, 3636.039
796.0031, 3620.667
796.4852, 3610.198
796.9673, 3603.045
797.4494, 3595.329
797.9315, 3584.561
798.4136, 3576.121
798.8958, 3568.761
799.3779, 3565.727
799.8600, 3582.325
800.3421, 3618.267
800.8242, 3638.581
801.3063, 3624.173
801.7885, 3594.142
802.2706, 3570.233
802.7527, 3553.310
803.2348, 3545.885
803.7169, 3554.895
804.1990, 3567.954
804.6812, 3585.610
805.1633, 3603.889
805.6454, 3606.308
806.1275, 3582.869
806.6096, 3564.072
807.0917, 3557.931
807.5739, 3562.934
808.0560, 3577.281
808.5381, 3599.995
809.0202, 3619.199
809.5023, 3631.355
809.9844, 3634.805
810.4666, 3618.130
810.9487, 3588.943
811.4308, 3576.504
811.9129, 3613.384
812.3950, 3646.765
812.8771, 3654.165
813.3593, 3640.143
813.8414, 3631.994
814.3235, 3630.051
814.8056, 3632.954
815.2877, 3643.977
815.7698, 3657.960
816.2520, 3657.303
816.7341, 3643.792
817.2162, 3628.437
817.6983, 3619.286
818.1804, 3609.972
818.6625, 3592.053
819.1447, 3567.472
819.6268, 3553.140
820.1089, 3557.654
820.5910, 3568.489
821.0731, 3586.774
821.5552, 3609.726
822.0374, 3611.842
822.5195, 3590.899
823.0016, 3569.910
823.4837, 3565.212
823.9658, 3567.765
824.4479, 3557.340
824.9301, 3536.313
825.4122, 3521.594
825.8943, 3530.615
826.3764, 3540.374
826.8585, 3536.392
827.3406, 3518.125
827.8228, 3504.845
828.3049, 3495.007
828.7870, 3494.124
829.2691, 3509.938
829.7512, 3537.369
830.2333, 3544.501
830.7155, 3532.162
831.1976, 3515.399
831.6797, 3498.501
832.1618, 3485.884
832.6439, 3487.309
833.1260, 3500.557
833.6082, 3505.486
834.0903, 3481.714
834.5724, 3462.095
835.0545, 3463.300
835.5366, 3483.319
836.0187, 3488.588
836.5009, 3475.668
836.9830, 3463.538
837.4651, 3464.726
837.9472, 3473.244
838.4293, 3473.094
838.9114, 3465.528
839.3936, 3459.022
839.8757, 3463.220
840.3578, 3466.148
840.8399, 3457.327
841.3220, 3437.515
841.8041, 3425.855
842.2863, 3432.309
842.7684, 3431.867
843.2505, 3408.485
843.7326, 3369.724
844.2147, 3368.240
844.6968, 3402.901
845.1790, 3434.341
845.6611, 3438.644
846.1432, 3427.569
846.6253, 3409.646
847.1074, 3387.130
847.5895, 3369.661
848.0717, 3358.818
848.5538, 3356.665
849.0359, 3369.653
849.5180, 3393.355
850.0001, 3400.084
850.4822, 3386.489
850.9644, 3371.824
851.4465, 3364.449
851.9286, 3361.729
852.4107, 3358.043
852.8928, 3353.582
853.3749, 3349.139
853.8571, 3343.281
854.3392, 3339.325
854.8213, 3342.811
855.3034, 3350.994
855.7855, 3348.734
856.2676, 3324.501
856.7498, 3310.492
857.2319, 3319.271
857.7140, 3342.205
858.1961, 3351.119
858.6782, 3347.163
859.1603, 3344.369
859.6425, 3349.814
860.1246, 3358.512
860.6067, 3369.069
861.0888, 3378.863
861.5709, 3380.870
862.0530, 3361.282
862.5352, 3347.796
863.0173, 3349.953
863.4994, 3360.964
863.9815, 3362.828
864.4636, 3354.220
864.9457, 3349.414
865.4279, 3355.369
865.9100, 3362.650
866.3921, 3352.038
866.8742, 3330.914
867.3563, 3316.098
867.8384, 3316.198
868.3206, 3322.320
868.8027, 3336.684
869.2848, 3353.490
869.7669, 3363.057
870.2490, 3367.285
870.7311, 3356.183
871.2133, 3321.657
871.6954, 3283.586
872.1775, 3280.473
872.6596, 3303.762
873.1417, 3321.673
873.6238, 3323.390
874.1060, 3322.518
874.5881, 3331.394
875.0702, 3342.829
875.5523, 3347.686
876.0344, 3338.068
876.5165, 3330.206
876.9987, 3323.969
877.4808, 3320.106
877.9629, 3320.310
878.4450, 3324.310
878.9271, 3329.841
879.4092, 3337.978
879.8914, 3340.069
880.3735, 3316.625
880.8556, 3287.193
881.3377, 3278.200
881.8198, 3304.806
882.3019, 3323.701
882.7841, 3319.623
883.2662, 3310.988
883.7483, 3311.534
884.2304, 3322.972
884.7125, 3329.423
885.1946, 3330.234
885.6768, 3328.097
886.1588, 3322.626
886.6409, 3317.125
887.1230, 3316.797
887.6052, 3322.343
888.0873, 3330.499
888.5694, 3345.970
889.0515, 3358.317
889.5336, 3360.176
890.0157, 3350.667
890.4979, 3343.320
890.9800, 3337.167
891.4621, 3337.276
891.9442, 3351.968
892.4263, 3374.010
892.9084, 3386.176
893.3906, 3388.864
893.8727, 3388.589
894.3548, 3389.646
894.8369, 3388.081
895.3190, 3376.604
895.8011, 3357.285
896.2833, 3356.731
896.7654, 3384.390
897.2475, 3407.077
897.7296, 3411.511
898.2117, 3402.913
898.6938, 3393.910
899.1760, 3384.478
899.6581, 3374.509
900.1402, 3361.439
900.6223, 3350.205
901.1044, 3346.524
901.5865, 3347.151
902.0687, 3342.813
902.5508, 3324.585
903.0329, 3316.461
903.5150, 3324.778
903.9971, 3342.180
904.4792, 3355.229
904.9614, 3364.205
905.4435, 3371.732
905.9256, 3380.587
906.4077, 3383.353
906.8898, 3367.455
907.3719, 3343.729
907.8541, 3326.986
908.3362, 3320.871
908.8183, 3323.110
909.3004, 3339.558
909.7825, 3356.772
910.2646, 3355.394
910.7468, 3337.520
911.2289, 3335.067
911.7110, 3353.393
912.1931, 3373.249
912.6752, 3380.508
913.1573, 3377.892
913.6395, 3364.080
914.1216, 3332.856
914.6037, 3320.104
915.0858, 3345.822
915.5679, 3373.522
916.0500, 3379.925
916.5322, 3365.482
917.0143, 3364.421
917.4964, 3377.113
917.9785, 3387.814
918.4606, 3383.613
918.9427, 3372.355
919.4249, 3356.643
919.9070, 3339.093
920.3891, 3337.391
920.8712, 3378.652
921.3533, 3411.460
921.8354, 3415.252
922.3176, 3398.003
922.7997, 3399.037
923.2818, 3418.711
923.7639, 3432.172
924.2460, 3425.390
924.7281, 3411.175
925.2103, 3402.029
925.6924, 3397.966
926.1745, 3399.026
926.6566, 3414.825
927.1387, 3423.205
927.6208, 3413.894
928.1030, 3399.599
928.5851, 3402.167
929.0672, 3422.726
929.5493, 3439.366
930.0314, 3448.261
930.5135, 3452.734
930.9957, 3454.663
931.4778, 3455.365
931.9599, 3457.413
932.4420, 3464.024
932.9241, 3464.310
933.4063, 3444.346
933.8884, 3427.285
934.3705, 3433.619
934.8526, 3467.382
935.3347, 3477.089
935.8168, 3460.750
936.2990, 3439.898
936.7811, 3431.498
937.2632, 3429.499
937.7453, 3426.140
938.2274, 3421.116
938.7095, 3419.879
939.1917, 3427.996
939.6738, 3436.196
940.1559, 3441.206
940.6380, 3443.425
941.1201, 3445.867
941.6022, 3448.592
942.0844, 3447.909
942.5665, 3437.228
943.0486, 3427.143
943.5307, 3435.076
944.0128, 3453.700
944.4949, 3465.695
944.9771, 3459.737
945.4592, 3453.767
945.9413, 3449.298
946.4234, 3447.837
946.9055, 3454.851
947.3876, 3470.190
947.8698, 3475.117
948.3519, 3464.411
948.8340, 3450.511
949.3161, 3441.953
949.7982, 3440.447
950.2803, 3449.394
950.7625, 3473.883
951.2446, 3495.549
951.7267, 3514.678
952.2088, 3527.172
952.6909, 3525.739
953.1730, 3510.739
953.6552, 3515.990
954.1373, 3541.603
954.6194, 3561.883
955.1015, 3548.378
955.5836, 3527.660
956.0657, 3524.926
956.5479, 3539.711
957.0300, 3554.046
957.5121, 3569.568
957.9942, 3576.411
958.4763, 3567.439
958.9584, 3550.518
959.4406, 3551.379
959.9227, 3567.572
960.4048, 3582.012
960.8869, 3587.327
961.3690, 3589.370
961.8511, 3589.983
962.3333, 3591.239
962.8154, 3596.804
963.2975, 3614.894
963.7796, 3623.003
964.2617, 3616.622
964.7438, 3606.619
965.2260, 3605.503
965.7081, 3611.853
966.1902, 3621.478
966.6723, 3634.102
967.1544, 3645.767
967.6365, 3652.086
968.1187, 3657.460
968.6008, 3665.719
969.0829, 3677.648
969.5650, 3686.720
970.0471, 3692.556
970.5292, 3696.612
971.0114, 3696.274
971.4935, 3696.292
971.9756, 3716.781
972.4577, 3750.981
972.9398, 3771.833
973.4219, 3751.973
973.9041, 3731.314
974.3862, 3730.717
974.8683, 3740.914
975.3504, 3739.602
975.8325, 3721.408
976.3146, 3716.197
976.7968, 3731.496
977.2789, 3753.255
977.7610, 3763.578
978.2431, 3767.047
978.7252, 3771.809
979.2073, 3779.627
979.6895, 3788.495
980.1716, 3798.025
980.6537, 3807.997
981.1358, 3818.246
981.6179, 3828.804
982.1000, 3841.065
982.5822, 3855.467
983.0643, 3866.510
983.5464, 3868.863
984.0285, 3866.822
984.5106, 3862.679
984.9927, 3857.853
985.4749, 3858.025
985.9570, 3872.482
986.4391, 3882.049
986.9212, 3880.845
987.4033, 3873.997
987.8854, 3873.812
988.3676, 3879.209
988.8497, 3881.161
989.3318, 3875.595
989.8139, 3870.736
990.2960, 3874.708
990.7781, 3882.855
991.2603, 3889.701
991.7424, 3894.679
992.2245, 3897.216
992.7066, 3894.966
993.1887, 3895.524
993.6708, 3909.677
994.1530, 3931.399
994.6351, 3937.881
995.1172, 3930.115
995.5993, 3924.266
996.0814, 3929.908
996.5635, 3939.884
997.0457, 3955.482
997.5278, 3972.753
998.0099, 3972.073
998.4920, 3946.818
998.9741, 3938.090
999.4562, 3961.803
999.9384, 3998.373
1000.420, 4024.786
1000.903, 4040.899
1001.385, 4045.818
1001.867, 4031.442
1002.349, 4021.708
1002.831, 4025.853
1003.313, 4033.506
1003.795, 4036.859
1004.277, 4035.856
1004.760, 4033.539
1005.242, 4029.858
1005.724, 4029.843
1006.206, 4037.227
1006.688, 4050.090
1007.170, 4071.991
1007.652, 4100.645
1008.134, 4114.966
1008.616, 4107.140
1009.099, 4096.860
1009.581, 4088.478
1010.063, 4081.352
1010.545, 4074.235
1011.027, 4066.879
1011.509, 4057.343
1011.991, 4039.993
1012.473, 4032.161
1012.955, 4056.926
1013.438, 4088.024
1013.920, 4096.998
1014.402, 4076.291
1014.884, 4060.773
1015.366, 4050.354
1015.848, 4045.141
1016.330, 4044.694
1016.812, 4049.807
1017.294, 4066.036
1017.777, 4090.990
1018.259, 4108.539
1018.741, 4106.254
1019.223, 4103.883
1019.705, 4107.667
1020.187, 4114.823
1020.669, 4117.295
1021.151, 4115.564
1021.634, 4116.331
1022.116, 4121.821
1022.598, 4128.878
1023.080, 4130.990
1023.562, 4134.906
1024.044, 4150.464
1024.526, 4189.330
1025.008, 4209.285
1025.490, 4206.473
1025.973, 4195.684
1026.455, 4184.892
1026.937, 4174.912
1027.419, 4166.896
1027.901, 4161.385
1028.383, 4161.409
1028.865, 4174.534
1029.347, 4186.786
1029.830, 4191.354
1030.312, 4191.916
1030.794, 4197.609
1031.276, 4209.398
1031.758, 4210.789
1032.240, 4195.793
1032.722, 4180.739
1033.204, 4187.011
1033.687, 4201.462
1034.169, 4207.719
1034.651, 4200.290
1035.133, 4195.817
1035.615, 4196.635
1036.097, 4198.040
1036.579, 4196.263
1037.061, 4193.021
1037.543, 4198.763
1038.026, 4210.797
1038.508, 4215.832
1038.990, 4190.079
1039.472, 4210.427
1039.954, 4221.732
1040.436, 4224.481
1040.918, 4193.046
1041.400, 4205.752
1041.882, 4200.769
1042.365, 4195.060
1042.847, 4213.979
1043.329, 4187.516
1043.811, 4206.044
1044.293, 4206.613
1044.775, 4215.402
1045.257, 4206.391
1045.739, 4202.878
1046.222, 4217.169
1046.704, 4221.603
1047.186, 4210.543
1047.668, 4219.854
1048.150, 4192.769
1048.632, 4197.622
1049.114, 4216.255
1049.596, 4206.090
1050.078, 4215.727
1050.561, 4217.821
1051.043, 4185.644
1051.525, 4213.070
1052.007, 4214.719
1052.489, 4189.902
1052.971, 4215.286
1053.453, 4194.117
1053.935, 4189.565
1054.417, 4197.518
1054.900, 4192.434
1055.382, 4207.903
1055.864, 4203.572
1056.346, 4197.473
1056.828, 4205.547
1057.310, 4230.062
1057.792, 4242.344
1058.274, 4243.709
1058.757, 4238.086
1059.239, 4224.375
1059.721, 4212.519
1060.203, 4205.892
1060.685, 4206.024
1061.167, 4216.692
1061.649, 4239.586
1062.131, 4248.120
1062.614, 4241.416
1063.096, 4233.121
1063.578, 4235.705
1064.060, 4237.867
1064.542, 4216.781
1065.024, 4184.691
1065.506, 4172.529
1065.988, 4204.488
1066.470, 4232.390
1066.953, 4252.974
1067.435, 4268.235
1067.917, 4277.639
1068.399, 4283.799
1068.881, 4296.503
1069.363, 4316.629
1069.845, 4333.011
1070.327, 4343.254
1070.809, 4343.137
1071.292, 4321.300
1071.774, 4287.414
1072.256, 4293.267
1072.738, 4339.552
1073.220, 4371.720
1073.702, 4366.769
1074.184, 4352.599
1074.666, 4353.086
1075.148, 4363.483
1075.631, 4379.031
1076.113, 4405.191
1076.595, 4421.411
1077.077, 4428.531
1077.559, 4424.390
1078.041, 4392.491
1078.523, 4353.876
1079.005, 4361.757
1079.488, 4407.108
1079.970, 4450.004
1080.452, 4478.801
1080.934, 4495.280
1081.416, 4494.577
1081.898, 4488.256
1082.380, 4493.692
1082.862, 4509.946
1083.344, 4531.436
1083.827, 4557.835
1084.309, 4578.107
1084.791, 4576.283
1085.273, 4570.893
1085.755, 4576.879
1086.237, 4593.556
1086.719, 4607.498
1087.201, 4618.589
1087.683, 4627.667
1088.166, 4634.212
1088.648, 4640.252
1089.130, 4652.327
1089.612, 4664.489
1090.094, 4665.912
1090.576, 4642.271
1091.058, 4635.969
1091.540, 4655.572
1092.023, 4679.786
1092.505, 4694.046
1092.987, 4700.333
1093.469, 4704.345
1093.951, 4706.410
1094.433, 4708.483
1094.915, 4712.227
1095.397, 4714.958
1095.880, 4712.064
1096.362, 4710.144
1096.844, 4723.240
1097.326, 4750.430
1097.808, 4759.988
1098.290, 4747.005
1098.772, 4733.775
1099.254, 4739.870
1099.736, 4751.856
1100.219, 4758.354
1100.701, 4759.750
1101.183, 4769.177
1101.665, 4789.051
1102.147, 4806.236
1102.629, 4818.221
1103.111, 4821.298
1103.593, 4800.264
1104.075, 4770.590
1104.558, 4756.206
1105.040, 4767.794
1105.522, 4778.917
1106.004, 4785.749
1106.486, 4795.198
1106.968, 4820.331
1107.450, 4848.723
1107.932, 4828.693
1108.415, 4774.818
1108.897, 4740.439
1109.379, 4767.581
1109.861, 4796.862
1110.343, 4814.938
1110.825, 4823.830
1111.307, 4822.762
1111.789, 4812.485
1112.271, 4806.754
1112.754, 4806.454
1113.236, 4806.188
1113.718, 4802.703
1114.200, 4797.232
1114.682, 4784.546
1115.164, 4770.313
1115.646, 4780.916
1116.128, 4822.952
1116.610, 4837.810
1117.093, 4806.268
1117.575, 4770.463
1118.057, 4784.836
1118.539, 4816.875
1119.021, 4828.461
1119.503, 4811.052
1119.985, 4797.956
1120.467, 4793.154
1120.950, 4784.873
1121.432, 4762.980
1121.914, 4740.686
1122.396, 4746.874
1122.878, 4772.135
1123.360, 4796.887
1123.842, 4821.403
1124.324, 4831.354
1124.807, 4818.613
1125.289, 4801.389
1125.771, 4793.899
1126.253, 4793.730
1126.735, 4787.252
1127.217, 4775.838
1127.699, 4768.547
1128.181, 4771.996
1128.663, 4778.215
1129.146, 4781.953
1129.628, 4787.953
1130.110, 4810.364
1130.592, 4848.084
1131.074, 4847.994
1131.556, 4804.083
1132.038, 4756.930
1132.520, 4728.799
1133.002, 4716.870
1133.485, 4726.033
1133.967, 4750.917
1134.449, 4768.258
1134.931, 4778.083
1135.413, 4783.243
1135.895, 4785.593
1136.377, 4779.223
1136.859, 4743.383
1137.342, 4703.494
1137.824, 4694.361
1138.306, 4727.854
1138.788, 4731.348
1139.270, 4693.005
1139.752, 4661.975
1140.234, 4662.830
1140.716, 4678.729
1141.198, 4686.846
1141.681, 4687.283
1142.163, 4679.489
1142.645, 4656.774
1143.127, 4640.093
1143.609, 4634.360
1144.091, 4628.224
1144.573, 4608.230
1145.055, 4582.732
1145.537, 4580.720
1146.020, 4597.723
1146.502, 4615.748
1146.984, 4634.733
1147.466, 4643.160
1147.948, 4636.063
1148.430, 4621.447
1148.912, 4608.424
1149.394, 4595.833
1149.877, 4572.550
1150.359, 4539.342
1150.841, 4516.477
1151.323, 4526.760
1151.805, 4538.761
1152.287, 4536.787
1152.769, 4527.008
1153.251, 4523.181
1153.734, 4524.838
1154.216, 4520.369
1154.698, 4507.206
1155.180, 4494.296
1155.662, 4490.978
1156.144, 4488.670
1156.626, 4477.071
1157.108, 4459.493
1157.590, 4461.200
1158.073, 4483.895
1158.555, 4490.978
1159.037, 4465.908
1159.519, 4435.946
1160.001, 4427.543
1160.483, 4429.380
1160.965, 4430.207
1161.447, 4429.438
1161.929, 4421.587
1162.412, 4405.203
1162.894, 4391.687
1163.376, 4391.055
1163.858, 4390.900
1164.340, 4371.583
1164.822, 4343.113
1165.304, 4321.263
1165.786, 4305.302
1166.269, 4308.007
1166.751, 4335.760
1167.233, 4360.344
1167.715, 4359.879
1168.197, 4331.683
1168.679, 4344.308
1169.161, 4347.887
1169.643, 4342.913
1170.125, 4303.752
1170.608, 4308.717
1171.090, 4296.010
1171.572, 4282.576
1172.054, 4293.771
1172.536, 4259.583
1173.018, 4270.388
1173.500, 4263.231
1173.982, 4264.294
1174.464, 4247.560
1174.947, 4236.305
1175.429, 4242.873
1175.911, 4239.581
1176.393, 4220.797
1176.875, 4222.383
1177.357, 4187.572
1177.839, 4184.702
1178.321, 4195.609
1178.804, 4177.705
1179.286, 4179.615
1179.768, 4173.987
1180.250, 4134.083
1180.732, 4153.784
1181.214, 4137.807
1181.696, 4134.167
1182.178, 4118.526
1182.661, 4103.688
1183.143, 4095.321
1183.625, 4089.959
1184.107, 4088.146
1184.589, 4087.308
1185.071, 4069.941
1185.553, 4042.471
1186.035, 4038.504
1186.517, 4083.292
1187.000, 4117.881
1187.482, 4104.026
1187.964, 4078.975
1188.446, 4070.199
1188.928, 4074.660
1189.410, 4052.262
1189.892, 4008.722
1190.374, 3986.325
1190.856, 4025.291
1191.339, 4060.293
1191.821, 4057.381
1192.303, 4035.631
1192.785, 4008.283
1193.267, 3974.841
1193.749, 3963.075
1194.231, 3971.848
1194.713, 3984.276
1195.195, 4000.688
1195.678, 4006.308
1196.160, 3980.160
1196.642, 3945.393
1197.124, 3937.446
1197.606, 3957.810
1198.088, 3954.727
1198.570, 3926.190
1199.052, 3904.556
1199.535, 3920.782
1200.017, 3942.829
1200.499, 3953.103
1200.981, 3953.981
1201.463, 3950.358
1201.945, 3942.107
1202.427, 3930.018
1202.909, 3913.702
1203.391, 3902.257
1203.874, 3905.884
1204.356, 3914.317
1204.838, 3924.016
1205.320, 3932.068
1205.802, 3929.781
1206.284, 3916.811
1206.766, 3904.795
1207.248, 3895.087
1207.730, 3891.816
1208.213, 3904.627
1208.695, 3919.924
1209.177, 3927.634
1209.659, 3928.389
1210.141, 3924.516
1210.623, 3915.860
1211.105, 3910.022
1211.587, 3909.992
1212.070, 3908.855
1212.552, 3896.802
1213.034, 3883.927
1213.516, 3880.657
1213.998, 3885.585
1214.480, 3885.193
1214.962, 3879.419
1215.444, 3876.448
1215.927, 3881.851
1216.409, 3883.131
1216.891, 3855.509
1217.373, 3829.397
1217.855, 3840.178
1218.337, 3886.900
1218.819, 3911.072
1219.301, 3912.738
1219.783, 3903.092
1220.266, 3879.358
1220.748, 3860.022
1221.230, 3864.632
1221.712, 3878.249
1222.194, 3883.513
1222.676, 3879.060
1223.158, 3887.637
1223.640, 3908.838
1224.122, 3923.186
1224.605, 3914.779
1225.087, 3903.869
1225.569, 3906.557
1226.051, 3913.903
1226.533, 3914.087
1227.015, 3905.851
1227.497, 3904.658
1227.979, 3910.295
1228.462, 3915.346
1228.944, 3915.786
1229.426, 3913.728
1229.908, 3906.121
1230.390, 3899.590
1230.872, 3905.144
1231.354, 3924.152
1231.836, 3925.812
1232.318, 3910.284
1232.801, 3898.153
1233.283, 3903.535
1233.765, 3914.712
1234.247, 3928.635
1234.729, 3942.238
1235.211, 3952.563
1235.693, 3959.525
1236.175, 3954.528
1236.657, 3938.006
1237.140, 3926.420
1237.622, 3939.197
1238.104, 3949.902
1238.586, 3941.772
1239.068, 3926.252
1239.550, 3919.793
1240.032, 3921.338
1240.514, 3917.016
1240.997, 3906.211
1241.479, 3898.672
1241.961, 3902.738
1242.443, 3908.638
1242.925, 3910.897
1243.407, 3913.485
1243.889, 3925.349
1244.371, 3944.072
1244.854, 3954.342
1245.336, 3954.800
1245.818, 3953.210
1246.300, 3951.820
1246.782, 3951.460
1247.264, 3953.967
1247.746, 3955.813
1248.228, 3949.510
1248.710, 3937.281
1249.193, 3925.567
1249.675, 3915.234
1250.157, 3912.450
1250.639, 3926.069
1251.121, 3941.419
1251.603, 3958.258
1252.085, 3969.292
1252.567, 3951.016
1253.049, 3918.666
1253.532, 3914.568
1254.014, 3945.387
1254.496, 3962.672
1254.978, 3933.061
1255.460, 3916.472
1255.942, 3932.164
1256.424, 3961.097
1256.906, 3976.969
1257.389, 3979.317
1257.871, 3959.509
1258.353, 3913.889
1258.835, 3895.948
1259.317, 3927.146
1259.799, 3954.281
1260.281, 3962.723
1260.763, 3959.153
1261.245, 3951.843
1261.728, 3940.446
1262.210, 3918.999
1262.692, 3885.024
1263.174, 3880.244
1263.656, 3915.116
1264.138, 3946.365
1264.620, 3962.188
1265.102, 3964.467
1265.584, 3937.934
1266.067, 3909.616
1266.549, 3920.874
1267.031, 3978.527
1267.513, 4006.530
1267.995, 4000.862
1268.477, 3989.278
1268.959, 3977.031
1269.441, 3972.646
1269.924, 3993.380
1270.406, 4020.734
1270.888, 4037.039
1271.370, 4041.939
1271.852, 4031.995
1272.334, 4006.915
1272.816, 3996.780
1273.298, 4017.781
1273.781, 4036.100
1274.263, 4015.474
1274.745, 3988.971
1275.227, 3985.837
1275.709, 4001.580
1276.191, 4001.348
1276.673, 3987.427
1277.155, 3976.627
1277.637, 3974.053
1278.120, 3976.741
1278.602, 3987.937
1279.084, 3998.894
1279.566, 4002.952
1280.048, 4003.238
1280.530, 4018.670
1281.012, 4042.262
1281.494, 4045.806
1281.976, 4010.972
1282.459, 3989.289
1282.941, 4006.976
1283.423, 4027.567
1283.905, 4036.129
1284.387, 4034.467
1284.869, 4019.808
1285.351, 4000.571
1285.833, 3997.137
1286.316, 4021.872
1286.798, 4038.060
1287.280, 4042.059
1287.762, 4036.920
1288.244, 4019.263
1288.726, 4000.352
1289.208, 3998.224
1289.690, 4008.531
1290.172, 4028.122
1290.655, 4063.698
1291.137, 4067.948
1291.619, 4033.897
1292.101, 4010.187
1292.583, 4023.805
1293.065, 4045.260
1293.547, 4040.051
1294.029, 4024.706
1294.511, 4019.921
1294.994, 4026.408
1295.476, 4026.126
1295.958, 4023.837
1296.440, 4038.679
1296.922, 4073.971
##END=



