##NAMES=Heulandite-Ca
##RRUFFID=R060465
##IDEAL CHEMISTRY=(Ca,Na,K)_5_(Si_27_Al_9_)O_72_&#183;26H_2_O
##LOCALITY=Garrawilla, near Gunnadah, New South Wales, Australia
##OWNER=RRUFF
##SOURCE=Michael Scott
##DESCRIPTION=Orange fan of platy crystals
##STATUS=The identification of this mineral has been confirmed by X-ray diffraction and chemical analysis
##URL=rruff.info/R060465
##MEASURED CHEMISTRY=(Ca_0.66_Na_0.24_K_0.10_)_5_(Si_0.77_Al_0.23_)_36_O_72_Â·24H_2_O
179.7447, 367.6332
180.2268, 368.4044
180.7090, 370.8925
181.1911, 374.2923
181.6732, 376.0366
182.1553, 374.0013
182.6374, 369.6451
183.1195, 365.8159
183.6017, 362.4617
184.0838, 360.0323
184.5659, 359.1550
185.0480, 359.6668
185.5301, 360.7458
186.0123, 362.2896
186.4944, 364.1171
186.9765, 365.8956
187.4586, 367.8529
187.9407, 368.9493
188.4228, 366.8219
188.9050, 361.8277
189.3871, 357.6646
189.8692, 356.7570
190.3513, 358.4778
190.8334, 359.6464
191.3155, 359.9781
191.7977, 360.0762
192.2798, 360.9256
192.7619, 362.5253
193.2440, 364.2829
193.7261, 366.4898
194.2082, 368.9662
194.6904, 369.3017
195.1725, 366.8773
195.6546, 363.2668
196.1367, 361.6034
196.6188, 362.0107
197.1009, 362.5201
197.5831, 361.7382
198.0652, 359.6657
198.5473, 358.9872
199.0294, 360.2928
199.5115, 362.4179
199.9937, 362.7441
200.4758, 360.9847
200.9579, 359.2328
201.4400, 358.8163
201.9221, 359.8580
202.4042, 360.3068
202.8864, 359.7009
203.3685, 358.7798
203.8506, 359.7000
204.3327, 363.0171
204.8148, 365.8792
205.2969, 366.4211
205.7791, 364.2485
206.2612, 362.6686
206.7433, 361.9989
207.2254, 361.9274
207.7075, 361.6093
208.1896, 360.8917
208.6718, 360.3719
209.1539, 360.3829
209.6360, 360.9825
210.1181, 361.7805
210.6002, 362.6451
211.0823, 363.7589
211.5645, 366.0976
212.0466, 370.7202
212.5287, 374.1049
213.0108, 373.8413
213.4929, 368.6868
213.9750, 364.8305
214.4572, 362.8208
214.9393, 362.2349
215.4214, 361.7492
215.9035, 361.1668
216.3856, 361.0786
216.8678, 361.9656
217.3499, 364.2880
217.8320, 366.1392
218.3141, 367.5756
218.7962, 368.4249
219.2783, 367.7700
219.7605, 364.4241
220.2426, 361.7195
220.7247, 361.8557
221.2068, 366.4397
221.6889, 369.1031
222.1710, 368.6807
222.6532, 366.3724
223.1353, 365.9744
223.6174, 368.0981
224.0995, 371.1138
224.5816, 374.5291
225.0637, 379.3670
225.5459, 381.9261
226.0280, 381.0538
226.5101, 378.0727
226.9922, 377.3242
227.4743, 380.6250
227.9564, 383.2924
228.4386, 382.5222
228.9207, 375.5051
229.4028, 372.0431
229.8849, 373.6186
230.3670, 378.4892
230.8492, 381.9046
231.3313, 383.5383
231.8134, 384.1690
232.2955, 384.0906
232.7776, 383.1358
233.2597, 381.7805
233.7419, 379.4803
234.2240, 376.9388
234.7061, 376.2232
235.1882, 378.5292
235.6703, 380.8486
236.1524, 381.8300
236.6346, 380.6391
237.1167, 379.9908
237.5988, 379.8413
238.0809, 380.2354
238.5630, 381.3729
239.0451, 383.6882
239.5273, 386.0772
240.0094, 388.1463
240.4915, 389.9718
240.9736, 391.1582
241.4557, 391.0684
241.9378, 390.6134
242.4200, 391.9801
242.9021, 397.0811
243.3842, 401.0172
243.8663, 401.4153
244.3484, 396.1484
244.8306, 393.8529
245.3127, 395.8671
245.7948, 400.1548
246.2769, 402.9819
246.7590, 403.7246
247.2411, 404.0370
247.7233, 404.6109
248.2054, 405.8511
248.6875, 405.7928
249.1696, 403.9748
249.6517, 401.1835
250.1338, 398.5675
250.6160, 395.7753
251.0981, 393.8139
251.5802, 393.3379
252.0623, 394.8754
252.5444, 395.0787
253.0265, 393.3459
253.5087, 390.7762
253.9908, 388.9342
254.4729, 387.9843
254.9550, 387.3965
255.4371, 386.9866
255.9192, 386.7095
256.4014, 387.2012
256.8835, 389.4062
257.3656, 391.4406
257.8477, 390.5853
258.3298, 384.8811
258.8120, 380.7610
259.2941, 380.5568
259.7762, 384.6570
260.2583, 385.6716
260.7404, 382.1124
261.2225, 377.3146
261.7047, 374.9262
262.1868, 375.9383
262.6689, 376.7638
263.1510, 376.7278
263.6331, 375.8371
264.1152, 374.1975
264.5974, 371.4193
265.0795, 368.5071
265.5616, 366.4820
266.0437, 365.4532
266.5258, 364.8300
267.0079, 364.3956
267.4901, 364.2338
267.9722, 365.4452
268.4543, 368.9232
268.9364, 372.0354
269.4185, 372.1489
269.9006, 368.2929
270.3828, 365.7837
270.8649, 365.8347
271.3470, 367.7935
271.8291, 368.6614
272.3112, 368.3889
272.7933, 367.1440
273.2755, 364.6045
273.7576, 360.3996
274.2397, 357.3855
274.7218, 356.0319
275.2039, 356.0161
275.6860, 356.5988
276.1682, 357.9915
276.6503, 359.2072
277.1324, 359.8603
277.6145, 360.0105
278.0966, 358.5016
278.5787, 354.4687
279.0609, 349.6776
279.5430, 348.4247
280.0251, 351.2502
280.5072, 354.3940
280.9893, 356.0363
281.4715, 356.1754
281.9536, 355.2420
282.4357, 352.9478
282.9178, 350.1773
283.3999, 348.3403
283.8820, 347.4457
284.3642, 347.1932
284.8463, 347.9819
285.3284, 349.6172
285.8105, 349.5802
286.2926, 347.4675
286.7747, 344.9053
287.2569, 344.3800
287.7390, 345.8060
288.2211, 347.0155
288.7032, 346.9218
289.1853, 345.8609
289.6674, 345.2195
290.1496, 344.9723
290.6317, 345.2805
291.1138, 346.9036
291.5959, 349.5657
292.0780, 351.2543
292.5602, 351.0002
293.0423, 349.4670
293.5244, 348.3465
294.0065, 347.6679
294.4886, 346.9023
294.9707, 344.9997
295.4529, 342.4662
295.9350, 341.2446
296.4171, 342.2736
296.8992, 344.4550
297.3813, 346.2859
297.8634, 347.7135
298.3456, 348.1547
298.8277, 345.9973
299.3098, 342.5694
299.7919, 340.9568
300.2740, 342.2655
300.7561, 344.8243
301.2383, 346.8207
301.7204, 348.2859
302.2025, 349.2115
302.6846, 349.3120
303.1667, 348.9639
303.6488, 348.7443
304.1310, 348.7764
304.6131, 348.8369
305.0952, 348.8924
305.5773, 348.8274
306.0594, 348.3332
306.5415, 347.0119
307.0237, 345.2924
307.5058, 343.1270
307.9879, 340.2697
308.4700, 338.7820
308.9521, 341.5967
309.4343, 346.7226
309.9164, 350.7048
310.3985, 351.8482
310.8806, 351.4505
311.3627, 349.7437
311.8448, 346.7072
312.3270, 344.8472
312.8091, 347.4138
313.2912, 351.4413
313.7733, 353.4265
314.2554, 349.1812
314.7375, 345.1279
315.2197, 345.0677
315.7018, 348.5961
316.1839, 352.1264
316.6660, 354.5387
317.1481, 356.0189
317.6302, 356.6582
318.1124, 355.8153
318.5945, 354.9850
319.0766, 354.6528
319.5587, 354.7302
320.0408, 354.9004
320.5229, 354.6567
321.0051, 354.7618
321.4872, 355.9059
321.9693, 359.6899
322.4514, 361.6630
322.9335, 359.6876
323.4156, 355.3958
323.8978, 351.9327
324.3799, 349.0788
324.8620, 347.7999
325.3441, 348.8284
325.8262, 353.1393
326.3083, 356.8061
326.7905, 359.8790
327.2726, 362.0479
327.7547, 362.9004
328.2368, 360.5665
328.7189, 358.8693
329.2010, 358.8130
329.6832, 360.6011
330.1653, 361.7598
330.6474, 361.9897
331.1295, 361.8057
331.6116, 361.5474
332.0938, 360.5428
332.5759, 360.6108
333.0580, 362.7291
333.5401, 366.4260
334.0222, 367.8940
334.5043, 365.9548
334.9865, 363.4303
335.4686, 361.9172
335.9507, 361.5591
336.4328, 361.8549
336.9149, 362.9165
337.3970, 364.5586
337.8792, 366.4675
338.3613, 369.0838
338.8434, 370.8124
339.3255, 370.3076
339.8076, 366.9715
340.2898, 366.3447
340.7719, 369.1763
341.2540, 373.4236
341.7361, 376.2880
342.2182, 377.6656
342.7003, 378.1961
343.1825, 377.6668
343.6646, 376.3488
344.1467, 376.3243
344.6288, 377.8178
345.1109, 379.4626
345.5930, 379.5781
346.0752, 378.3525
346.5573, 377.7572
347.0394, 378.3914
347.5215, 379.8247
348.0036, 381.1876
348.4857, 382.4744
348.9679, 383.7877
349.4500, 385.2903
349.9321, 386.8974
350.4142, 388.1781
350.8963, 388.7928
351.3784, 389.7769
351.8606, 393.1870
352.3427, 398.3273
352.8248, 402.6997
353.3069, 404.5926
353.7890, 404.9471
354.2711, 404.6451
354.7533, 403.6075
355.2354, 403.2564
355.7175, 405.4393
356.1996, 409.0839
356.6817, 412.3194
357.1638, 414.0343
357.6460, 415.2755
358.1281, 417.1214
358.6102, 419.4720
359.0923, 421.0551
359.5744, 420.0511
360.0565, 418.3960
360.5387, 417.9845
361.0208, 419.8579
361.5029, 422.4293
361.9850, 425.3835
362.4671, 428.5469
362.9492, 431.3428
363.4314, 433.4144
363.9135, 435.1808
364.3956, 436.8516
364.8777, 438.4372
365.3598, 439.9958
365.8419, 440.8760
366.3241, 441.8801
366.8062, 444.2133
367.2883, 449.1877
367.7704, 454.4011
368.2526, 459.5416
368.7347, 464.8290
369.2168, 468.6700
369.6989, 469.9434
370.1810, 470.4751
370.6631, 471.8199
371.1453, 475.0684
371.6274, 477.4796
372.1095, 478.3396
372.5916, 477.9692
373.0737, 478.3661
373.5558, 479.2231
374.0380, 481.2980
374.5201, 485.5207
375.0022, 493.1033
375.4843, 498.4734
375.9664, 500.6387
376.4485, 501.2163
376.9307, 503.4449
377.4128, 507.5203
377.8949, 512.3718
378.3770, 518.0901
378.8591, 524.5298
379.3412, 528.9050
379.8234, 530.8430
380.3055, 531.8976
380.7876, 533.3946
381.2697, 535.3749
381.7518, 538.3734
382.2339, 542.7567
382.7161, 548.0585
383.1982, 553.4365
383.6803, 558.8422
384.1624, 564.1561
384.6445, 568.6725
385.1266, 572.9962
385.6088, 579.0045
386.0909, 587.4622
386.5730, 596.0734
387.0551, 601.7573
387.5372, 605.2430
388.0193, 608.7191
388.5015, 613.3383
388.9836, 618.4719
389.4657, 623.0313
389.9478, 626.9034
390.4299, 632.0331
390.9120, 641.8340
391.3942, 653.0316
391.8763, 661.4156
392.3584, 662.4232
392.8405, 663.2620
393.3226, 667.7294
393.8047, 675.2440
394.2869, 683.1418
394.7690, 691.3963
395.2511, 699.0275
395.7332, 705.1929
396.2154, 708.5893
396.6975, 712.9691
397.1796, 720.6474
397.6617, 729.6212
398.1438, 736.4036
398.6259, 737.6857
399.1081, 739.5698
399.5902, 744.3403
400.0723, 752.7208
400.5544, 758.9886
401.0365, 761.7658
401.5186, 763.4464
402.0008, 766.1304
402.4829, 771.5242
402.9650, 774.6629
403.4471, 774.5887
403.9292, 771.8383
404.4113, 768.5492
404.8935, 764.4242
405.3756, 760.4008
405.8577, 757.5262
406.3398, 756.3582
406.8219, 752.0640
407.3040, 743.7717
407.7862, 733.9279
408.2683, 725.9607
408.7504, 719.9312
409.2325, 714.0789
409.7146, 708.0487
410.1967, 701.7490
410.6789, 694.2462
411.1610, 685.5123
411.6431, 676.4707
412.1252, 667.5502
412.6073, 658.9788
413.0894, 651.6355
413.5716, 646.1638
414.0537, 641.2684
414.5358, 635.6021
415.0179, 629.2961
415.5000, 622.5886
415.9821, 615.7382
416.4643, 608.5490
416.9464, 600.3291
417.4285, 590.9383
417.9106, 582.5268
418.3927, 577.4528
418.8748, 573.7947
419.3570, 569.3674
419.8391, 562.4254
420.3212, 555.4953
420.8033, 550.0828
421.2854, 545.7439
421.7675, 540.2739
422.2497, 530.8061
422.7318, 521.6747
423.2139, 515.7300
423.6960, 515.9583
424.1781, 513.5470
424.6602, 504.8248
425.1424, 493.6755
425.6245, 485.9360
426.1066, 485.2270
426.5887, 483.4696
427.0709, 478.4815
427.5530, 470.2626
428.0351, 463.6016
428.5172, 458.6756
428.9993, 454.9576
429.4814, 452.4693
429.9636, 451.9315
430.4457, 449.6260
430.9278, 444.6262
431.4099, 438.3110
431.8920, 433.8513
432.3741, 431.4320
432.8563, 429.1204
433.3384, 425.8499
433.8205, 421.8291
434.3026, 418.6918
434.7847, 416.4978
435.2668, 414.5771
435.7490, 411.8523
436.2311, 408.7337
436.7132, 407.0267
437.1953, 408.1390
437.6774, 409.5472
438.1595, 406.9021
438.6417, 401.2047
439.1238, 396.5970
439.6059, 396.4589
440.0880, 398.2318
440.5701, 399.2558
441.0522, 399.1682
441.5344, 398.8788
442.0165, 399.0748
442.4986, 399.3675
442.9807, 399.2778
443.4628, 398.1051
443.9449, 397.0509
444.4271, 397.2398
444.9092, 398.2464
445.3913, 397.6439
445.8734, 391.8434
446.3555, 386.5874
446.8376, 385.0893
447.3198, 390.6177
447.8019, 393.8411
448.2840, 393.2733
448.7661, 390.8319
449.2482, 389.0582
449.7303, 387.8060
450.2125, 387.5890
450.6946, 389.1716
451.1767, 392.2984
451.6588, 392.6065
452.1409, 388.7185
452.6230, 385.2163
453.1052, 385.8372
453.5873, 390.9467
454.0694, 395.4258
454.5515, 398.8531
455.0337, 401.5411
455.5158, 403.9956
455.9979, 406.2059
456.4800, 407.6808
456.9621, 407.4946
457.4442, 406.6523
457.9264, 407.7371
458.4085, 410.6860
458.8906, 414.0328
459.3727, 416.7173
459.8548, 418.9694
460.3369, 420.9888
460.8191, 422.6049
461.3012, 424.5838
461.7833, 428.0717
462.2654, 432.3726
462.7475, 436.0221
463.2296, 437.6639
463.7118, 439.1179
464.1939, 441.6444
464.6760, 445.3566
465.1581, 448.4323
465.6402, 449.3975
466.1223, 450.0328
466.6045, 451.5760
467.0866, 455.2391
467.5687, 458.4966
468.0508, 461.2500
468.5329, 463.5140
469.0150, 465.3065
469.4972, 466.2329
469.9793, 467.2712
470.4614, 468.9161
470.9435, 471.2510
471.4256, 472.2408
471.9077, 471.0377
472.3899, 470.1952
472.8720, 472.6695
473.3541, 478.9230
473.8362, 483.1260
474.3183, 483.9489
474.8004, 483.2286
475.2826, 484.2750
475.7647, 487.0449
476.2468, 490.9545
476.7289, 495.7974
477.2110, 501.5714
477.6931, 509.0622
478.1753, 518.2819
478.6574, 526.0543
479.1395, 527.6589
479.6216, 526.7280
480.1037, 528.9080
480.5858, 537.1466
481.0680, 546.0228
481.5501, 551.6252
482.0322, 555.1607
482.5143, 559.0847
482.9964, 565.9482
483.4786, 572.0609
483.9607, 576.1838
484.4428, 578.2529
484.9249, 577.1663
485.4070, 569.3326
485.8892, 560.3870
486.3713, 554.3654
486.8534, 553.9373
487.3355, 552.7077
487.8176, 550.8246
488.2997, 547.9587
488.7819, 543.1765
489.2640, 535.7384
489.7461, 527.9904
490.2282, 520.8619
490.7103, 514.1921
491.1924, 505.8904
491.6746, 495.3628
492.1567, 485.4111
492.6388, 479.5941
493.1209, 477.1923
493.6030, 472.2746
494.0851, 463.3989
494.5673, 453.3646
495.0494, 446.4275
495.5315, 441.8706
496.0136, 437.3694
496.4957, 431.3570
496.9778, 425.0801
497.4600, 419.5404
497.9421, 414.7925
498.4242, 410.9897
498.9063, 409.4135
499.3884, 408.1177
499.8705, 405.1015
500.3527, 398.9879
500.8348, 393.6786
501.3169, 391.6519
501.7990, 391.0494
502.2811, 389.2331
502.7632, 383.4885
503.2454, 378.9475
503.7275, 377.6209
504.2096, 379.0795
504.6917, 378.2690
505.1738, 373.1750
505.6559, 368.5697
506.1381, 367.4420
506.6202, 371.1574
507.1023, 372.7641
507.5844, 371.9289
508.0665, 369.6056
508.5486, 366.5471
509.0308, 362.7014
509.5129, 360.0210
509.9950, 359.3073
510.4771, 359.7277
510.9592, 359.4152
511.4413, 358.4608
511.9235, 357.7719
512.4056, 358.3929
512.8877, 359.4562
513.3698, 359.6075
513.8519, 358.7041
514.3340, 357.4999
514.8162, 356.9147
515.2983, 356.2118
515.7804, 354.3968
516.2625, 349.1765
516.7446, 345.3481
517.2267, 345.7058
517.7089, 348.9281
518.1910, 351.7784
518.6731, 354.1364
519.1552, 355.4945
519.6373, 355.1051
520.1194, 352.6833
520.6016, 351.8260
521.0837, 353.9282
521.5658, 356.0439
522.0479, 355.6339
522.5300, 351.4473
523.0121, 349.4733
523.4943, 350.6889
523.9764, 353.5045
524.4585, 355.5233
524.9406, 356.7282
525.4227, 356.3734
525.9048, 352.9204
526.3870, 348.3459
526.8691, 348.3880
527.3513, 352.7485
527.8334, 356.8639
528.3155, 357.1811
528.7976, 355.3301
529.2797, 353.4083
529.7618, 351.5429
530.2440, 350.4010
530.7261, 351.3501
531.2082, 353.0284
531.6903, 353.6775
532.1724, 351.4428
532.6545, 349.4562
533.1367, 349.1094
533.6188, 349.8895
534.1009, 349.9353
534.5830, 347.9639
535.0651, 346.1983
535.5472, 345.5119
536.0294, 346.1208
536.5115, 346.2327
536.9936, 345.7929
537.4757, 344.9374
537.9578, 343.2788
538.4399, 340.3141
538.9221, 340.0716
539.4042, 343.8287
539.8863, 348.9618
540.3684, 350.5486
540.8505, 348.8626
541.3326, 347.1750
541.8148, 346.9738
542.2969, 347.4990
542.7790, 347.2898
543.2611, 346.4548
543.7432, 345.8493
544.2253, 346.5391
544.7075, 347.4948
545.1896, 347.4955
545.6717, 346.1822
546.1538, 345.0256
546.6359, 344.5162
547.1180, 344.6337
547.6002, 345.3665
548.0823, 349.2774
548.5644, 350.8486
549.0465, 346.8040
549.5286, 339.5966
550.0107, 336.4317
550.4929, 339.5312
550.9750, 343.3947
551.4571, 346.7495
551.9392, 349.6051
552.4213, 350.1662
552.9034, 347.7656
553.3856, 345.1699
553.8677, 344.6830
554.3498, 346.1547
554.8319, 348.0753
555.3140, 350.5726
555.7961, 352.4655
556.2783, 351.5187
556.7604, 348.6440
557.2425, 346.4202
557.7246, 346.0001
558.2067, 346.4351
558.6888, 347.1369
559.1710, 347.9958
559.6531, 348.6226
560.1352, 349.0830
560.6173, 349.0507
561.0994, 347.9942
561.5815, 345.6679
562.0637, 344.1812
562.5458, 344.7411
563.0279, 345.7739
563.5100, 346.1087
563.9921, 345.1075
564.4742, 344.5063
564.9564, 344.3667
565.4385, 344.6143
565.9206, 345.2510
566.4027, 346.3944
566.8848, 347.3362
567.3669, 348.0603
567.8491, 348.3315
568.3312, 347.0225
568.8133, 344.1996
569.2954, 341.4179
569.7775, 338.9585
570.2596, 337.4454
570.7418, 338.7105
571.2239, 342.9558
571.7060, 347.1000
572.1881, 348.5779
572.6702, 348.7829
573.1523, 349.3426
573.6345, 351.2307
574.1166, 352.4668
574.5987, 352.0043
575.0808, 350.4693
575.5629, 348.8830
576.0450, 346.2779
576.5272, 345.0023
577.0093, 346.2263
577.4914, 349.4103
577.9735, 350.8398
578.4556, 349.6171
578.9377, 348.4763
579.4199, 348.8833
579.9020, 350.8692
580.3841, 352.6233
580.8662, 354.1526
581.3483, 355.4187
581.8304, 356.5253
582.3126, 357.3450
582.7947, 357.4101
583.2768, 356.5980
583.7589, 355.1206
584.2410, 352.4080
584.7231, 349.2554
585.2053, 347.2386
585.6874, 348.2248
586.1696, 349.3976
586.6517, 348.5870
587.1338, 346.4445
587.6159, 345.9290
588.0980, 349.3450
588.5801, 353.1671
589.0623, 355.9471
589.5444, 357.5570
590.0265, 358.8676
590.5086, 359.8632
590.9907, 360.5844
591.4728, 360.9814
591.9550, 360.9726
592.4371, 361.2263
592.9192, 361.8646
593.4013, 362.6214
593.8834, 362.8969
594.3655, 362.8411
594.8477, 363.4488
595.3298, 365.4066
595.8119, 367.7137
596.2940, 368.9840
596.7761, 369.4295
597.2582, 369.8009
597.7404, 370.5937
598.2225, 371.3663
598.7046, 371.7916
599.1867, 371.8448
599.6688, 371.8001
600.1509, 370.5542
600.6331, 370.0836
601.1152, 371.9231
601.5973, 377.8545
602.0794, 381.8576
602.5615, 382.9721
603.0436, 383.0433
603.5258, 384.1457
604.0079, 386.4804
604.4900, 388.8332
604.9721, 391.1725
605.4542, 393.1750
605.9363, 393.9412
606.4185, 393.5926
606.9006, 393.2205
607.3827, 393.3290
607.8648, 393.7033
608.3469, 393.9572
608.8290, 394.1552
609.3112, 394.6417
609.7933, 395.2422
610.2754, 396.4725
610.7575, 399.3468
611.2396, 404.3131
611.7217, 407.6319
612.2039, 407.5424
612.6860, 405.8100
613.1681, 403.6940
613.6502, 400.6568
614.1323, 398.2907
614.6144, 396.7339
615.0966, 395.7652
615.5787, 395.1640
616.0608, 395.0321
616.5429, 394.6147
617.0250, 393.6480
617.5071, 392.4052
617.9893, 391.5654
618.4714, 391.0780
618.9535, 390.5554
619.4356, 390.0744
619.9177, 389.2838
620.3998, 387.4018
620.8820, 384.5740
621.3641, 382.1122
621.8462, 380.5812
622.3283, 379.7784
622.8104, 379.8499
623.2925, 381.2547
623.7747, 381.6868
624.2568, 379.7580
624.7389, 377.2879
625.2210, 375.8434
625.7031, 376.4461
626.1852, 375.7126
626.6674, 373.0335
627.1495, 369.4523
627.6316, 366.3636
628.1137, 363.7327
628.5958, 362.6308
629.0779, 364.0897
629.5601, 366.4290
630.0422, 365.8598
630.5243, 362.9913
631.0064, 360.6677
631.4885, 361.3546
631.9706, 362.7248
632.4528, 362.2860
632.9349, 360.1642
633.4170, 358.5836
633.8991, 359.1390
634.3812, 360.0717
634.8633, 360.1409
635.3455, 358.5658
635.8276, 358.3774
636.3097, 361.1617
636.7918, 363.9503
637.2739, 363.8786
637.7560, 359.8759
638.2382, 357.4732
638.7203, 357.5522
639.2024, 358.5241
639.6845, 357.6450
640.1666, 355.2059
640.6487, 353.7600
641.1309, 354.5898
641.6130, 356.0203
642.0951, 355.7372
642.5772, 354.1346
643.0594, 352.3358
643.5415, 350.7457
644.0236, 349.2382
644.5057, 347.1865
644.9879, 344.8110
645.4700, 344.1318
645.9521, 347.6444
646.4342, 351.1273
646.9163, 352.9200
647.3984, 352.9883
647.8806, 351.3293
648.3627, 346.5970
648.8448, 342.6502
649.3269, 343.4844
649.8090, 349.1011
650.2911, 352.2880
650.7733, 352.2269
651.2554, 351.1455
651.7375, 351.9132
652.2196, 353.7334
652.7017, 354.5432
653.1838, 353.2545
653.6660, 351.7999
654.1481, 352.0123
654.6302, 353.0342
655.1123, 353.3551
655.5944, 351.8774
656.0765, 350.2380
656.5587, 348.3842
657.0408, 346.6481
657.5229, 346.5697
658.0050, 349.2948
658.4871, 351.7333
658.9692, 352.8695
659.4514, 352.7613
659.9335, 351.7518
660.4156, 349.6862
660.8977, 348.0141
661.3798, 348.0915
661.8619, 349.3518
662.3441, 350.2647
662.8262, 350.7358
663.3083, 351.2148
663.7904, 352.3931
664.2725, 353.6178
664.7546, 354.1025
665.2368, 353.4344
665.7189, 352.7394
666.2010, 352.0996
666.6831, 351.7619
667.1652, 352.0689
667.6473, 353.8188
668.1295, 354.8743
668.6116, 354.8954
669.0937, 354.3010
669.5758, 354.0035
670.0579, 354.0880
670.5400, 353.5387
671.0222, 351.6609
671.5043, 349.3878
671.9864, 348.8768
672.4685, 349.8143
672.9506, 350.6675
673.4327, 350.2077
673.9149, 349.5390
674.3970, 349.3584
674.8791, 349.7584
675.3612, 351.1833
675.8433, 356.2214
676.3254, 360.3141
676.8076, 360.3145
677.2897, 355.0936
677.7718, 352.3787
678.2539, 353.6271
678.7360, 355.4003
679.2181, 355.1597
679.7003, 352.6052
680.1824, 351.2409
680.6645, 351.1961
681.1466, 352.2595
681.6287, 355.1869
682.1108, 359.0484
682.5930, 361.0608
683.0751, 360.4264
683.5572, 358.7635
684.0393, 356.3213
684.5214, 354.0385
685.0035, 353.2396
685.4857, 356.0936
685.9678, 358.4498
686.4499, 359.0832
686.9320, 358.5117
687.4141, 357.8922
687.8962, 356.9865
688.3784, 356.5255
688.8605, 356.8305
689.3426, 357.6327
689.8247, 357.9289
690.3068, 357.7008
690.7889, 357.6225
691.2711, 358.4892
691.7532, 359.5171
692.2353, 358.5778
692.7174, 356.0428
693.1995, 354.1929
693.6816, 355.2387
694.1638, 356.8952
694.6459, 357.2284
695.1280, 356.0190
695.6101, 355.4670
696.0922, 356.6554
696.5743, 358.2112
697.0565, 359.4117
697.5386, 360.1944
698.0207, 361.1342
698.5028, 362.7013
698.9849, 363.4407
699.4670, 361.1502
699.9492, 356.2581
700.4313, 353.4957
700.9135, 353.6516
701.3956, 354.6392
701.8777, 354.0754
702.3598, 352.8181
702.8419, 352.3892
703.3240, 353.5348
703.8062, 354.8888
704.2883, 356.0799
704.7704, 356.9343
705.2525, 357.1796
705.7346, 356.2133
706.2167, 355.3265
706.6989, 354.5219
707.1810, 353.9298
707.6631, 353.8435
708.1452, 354.2883
708.6273, 355.2492
709.1094, 357.2010
709.5916, 359.2072
710.0737, 358.3601
710.5558, 355.2833
711.0379, 353.1529
711.5200, 354.5831
712.0021, 357.0343
712.4843, 358.2331
712.9664, 358.3877
713.4485, 358.7977
713.9306, 361.3340
714.4127, 362.9561
714.8948, 361.4281
715.3770, 356.6777
715.8591, 354.3119
716.3412, 355.3443
716.8233, 356.7622
717.3054, 356.5686
717.7875, 354.8791
718.2697, 355.0689
718.7518, 357.2920
719.2339, 359.3629
719.7160, 358.7220
720.1981, 356.9479
720.6802, 356.7496
721.1624, 358.5849
721.6445, 360.4893
722.1266, 361.8021
722.6087, 362.3660
723.0908, 361.9498
723.5729, 359.9569
724.0551, 358.1149
724.5372, 356.4240
725.0193, 354.9956
725.5014, 353.9326
725.9835, 353.2137
726.4656, 352.9393
726.9478, 353.0432
727.4299, 353.8018
727.9120, 356.3817
728.3941, 360.0215
728.8762, 362.0265
729.3583, 361.0386
729.8405, 359.5308
730.3226, 359.4885
730.8047, 360.3408
731.2868, 361.1453
731.7689, 360.8797
732.2510, 361.4003
732.7332, 364.4974
733.2153, 368.3621
733.6974, 369.0525
734.1795, 365.1768
734.6616, 362.0049
735.1437, 361.2528
735.6259, 361.6869
736.1080, 359.5204
736.5901, 355.1367
737.0722, 351.9427
737.5543, 351.9980
738.0364, 353.7615
738.5186, 356.1283
739.0007, 358.7879
739.4828, 360.7154
739.9649, 361.0341
740.4470, 360.9344
740.9291, 360.6677
741.4113, 360.3235
741.8934, 360.8368
742.3755, 363.3767
742.8576, 364.5605
743.3397, 361.9850
743.8218, 356.5183
744.3040, 356.4209
744.7861, 361.8479
745.2682, 366.5464
745.7503, 364.5990
746.2324, 359.8745
746.7145, 359.0888
747.1967, 362.2059
747.6788, 364.9458
748.1609, 364.6108
748.6430, 363.3475
749.1251, 362.4351
749.6072, 362.0105
750.0894, 361.9281
750.5715, 362.2158
751.0536, 362.7835
751.5357, 363.6140
752.0178, 364.7364
752.4999, 365.9678
752.9821, 367.3722
753.4642, 368.5190
753.9463, 368.8332
754.4284, 368.6247
754.9105, 368.4950
755.3926, 368.5205
755.8748, 368.5872
756.3569, 368.6393
756.8390, 368.6813
757.3211, 368.7292
757.8032, 368.8441
758.2853, 368.7900
758.7675, 368.2879
759.2496, 367.8781
759.7318, 368.0218
760.2139, 368.7315
760.6960, 370.1284
761.1781, 372.4808
761.6602, 374.5795
762.1423, 374.3286
762.6245, 372.7296
763.1066, 372.3851
763.5887, 374.2450
764.0708, 376.1272
764.5529, 376.3935
765.0350, 375.8583
765.5172, 375.4853
765.9993, 374.9027
766.4814, 375.3636
766.9635, 377.7020
767.4456, 380.4751
767.9277, 381.6876
768.4099, 381.0987
768.8920, 380.5811
769.3741, 380.4706
769.8562, 380.4156
770.3383, 379.6074
770.8204, 378.4269
771.3026, 377.8972
771.7847, 378.3475
772.2668, 379.5174
772.7489, 382.3102
773.2310, 385.4402
773.7131, 386.8576
774.1953, 384.4600
774.6774, 382.4549
775.1595, 381.0508
775.6416, 380.4325
776.1237, 381.2433
776.6058, 383.7365
777.0880, 385.5719
777.5701, 385.8088
778.0522, 385.7933
778.5343, 388.7198
779.0164, 393.3449
779.4985, 396.0348
779.9807, 394.2035
780.4628, 391.3155
780.9449, 388.8696
781.4270, 386.9607
781.9091, 385.7299
782.3912, 385.8563
782.8734, 385.8707
783.3555, 385.4290
783.8376, 384.8264
784.3197, 384.8415
784.8018, 385.5212
785.2839, 386.3307
785.7661, 387.2036
786.2482, 387.9729
786.7303, 388.1954
787.2124, 388.0608
787.6945, 388.1134
788.1766, 389.2460
788.6588, 389.9839
789.1409, 389.6018
789.6230, 388.2524
790.1051, 386.2948
790.5872, 382.8414
791.0693, 380.2886
791.5515, 379.2794
792.0336, 379.4067
792.5157, 379.3423
792.9978, 379.0816
793.4799, 379.9702
793.9620, 383.0132
794.4442, 386.8897
794.9263, 390.8185
795.4084, 394.0786
795.8905, 394.7364
796.3726, 388.9231
796.8547, 383.4687
797.3369, 381.4747
797.8190, 382.1838
798.3011, 382.5485
798.7832, 382.0914
799.2653, 382.1839
799.7474, 383.4864
800.2296, 385.3075
800.7117, 385.7285
801.1938, 384.8117
801.6759, 383.1736
802.1580, 380.3456
802.6401, 377.7169
803.1223, 376.6317
803.6044, 377.0539
804.0865, 378.8776
804.5686, 384.3119
805.0507, 388.6699
805.5328, 390.0310
806.0150, 389.2636
806.4971, 388.4374
806.9792, 387.5010
807.4613, 386.6134
807.9434, 385.5833
808.4255, 384.8851
808.9077, 386.3020
809.3898, 389.2349
809.8719, 390.9429
810.3540, 388.6304
810.8361, 386.3011
811.3182, 387.8545
811.8004, 391.7715
812.2825, 394.4872
812.7646, 393.8308
813.2467, 393.4245
813.7288, 394.1162
814.2109, 395.4301
814.6931, 395.9536
815.1752, 395.5303
815.6573, 396.0168
816.1394, 398.5061
816.6215, 401.2876
817.1037, 400.8544
817.5858, 398.3582
818.0679, 396.8235
818.5500, 398.2144
819.0322, 400.1351
819.5143, 401.3834
819.9964, 402.3221
820.4785, 403.8036
820.9606, 406.9974
821.4427, 408.4452
821.9249, 406.9224
822.4070, 404.1007
822.8891, 404.0695
823.3712, 406.4458
823.8533, 406.7776
824.3354, 403.0799
824.8176, 398.3952
825.2997, 395.9779
825.7818, 395.0564
826.2639, 394.3553
826.7460, 393.5348
827.2281, 392.7737
827.7103, 392.4090
828.1924, 391.9814
828.6745, 390.7953
829.1566, 388.6729
829.6387, 386.4109
830.1208, 383.9339
830.6030, 381.8266
831.0851, 381.6419
831.5672, 382.6015
832.0493, 382.3286
832.5314, 379.5307
833.0135, 377.1456
833.4957, 377.8620
833.9778, 379.8585
834.4599, 381.0127
834.9420, 380.9439
835.4241, 379.6974
835.9063, 376.1855
836.3884, 372.8257
836.8705, 373.4152
837.3526, 377.7841
837.8347, 379.0404
838.3168, 375.8654
838.7990, 372.1944
839.2811, 372.5767
839.7632, 374.8509
840.2453, 375.9791
840.7274, 375.0323
841.2095, 374.0732
841.6917, 373.8587
842.1738, 373.8558
842.6559, 373.5704
843.1380, 372.7250
843.6201, 372.8324
844.1022, 374.2816
844.5844, 375.3430
845.0665, 373.9409
845.5486, 370.9104
846.0307, 368.3344
846.5128, 366.3836
846.9949, 365.4202
847.4771, 366.5285
847.9592, 368.1206
848.4413, 369.0692
848.9234, 369.2147
849.4055, 368.6878
849.8876, 367.0254
850.3698, 365.4731
850.8519, 364.7078
851.3340, 364.6995
851.8161, 365.2177
852.2982, 366.2582
852.7803, 367.7035
853.2625, 370.5403
853.7446, 373.0195
854.2267, 372.9734
854.7088, 370.5136
855.1909, 368.0206
855.6730, 365.3445
856.1552, 363.8665
856.6373, 364.7578
857.1194, 367.5211
857.6015, 367.4916
858.0836, 364.1373
858.5657, 362.0977
859.0479, 364.5787
859.5300, 369.0720
860.0121, 370.7414
860.4942, 370.1645
860.9763, 369.3142
861.4584, 368.0746
861.9406, 367.9309
862.4227, 370.8557
862.9048, 375.5340
863.3869, 377.2611
863.8690, 374.6657
864.3511, 372.6076
864.8333, 372.4901
865.3154, 373.1625
865.7975, 371.5108
866.2796, 368.2818
866.7617, 366.9842
867.2438, 370.6279
867.7260, 373.5247
868.2081, 369.0393
868.6902, 361.6553
869.1723, 358.2988
869.6544, 364.5916
870.1365, 369.0967
870.6187, 370.8356
871.1008, 371.0125
871.5829, 371.1200
872.0650, 371.1458
872.5471, 370.6658
873.0292, 369.5048
873.5114, 368.4316
873.9935, 368.5325
874.4756, 369.0614
874.9577, 368.8619
875.4399, 367.1250
875.9220, 366.5675
876.4041, 369.5548
876.8862, 372.5215
877.3683, 372.7628
877.8505, 369.5468
878.3326, 369.0302
878.8147, 371.5785
879.2968, 374.1191
879.7789, 373.2568
880.2610, 370.9186
880.7432, 370.4271
881.2253, 371.9373
881.7074, 373.3564
882.1895, 373.3796
882.6716, 373.3436
883.1537, 374.3819
883.6359, 376.3729
884.1180, 376.4689
884.6001, 374.2826
885.0822, 371.8372
885.5643, 369.9047
886.0464, 368.5017
886.5286, 367.5589
887.0107, 367.1502
887.4928, 367.5836
887.9749, 370.2602
888.4570, 372.5504
888.9391, 372.5873
889.4213, 371.1325
889.9034, 370.8680
890.3855, 372.8243
890.8676, 373.5533
891.3497, 371.9380
891.8318, 369.3600
892.3140, 368.2494
892.7961, 368.4074
893.2782, 369.1303
893.7603, 370.4025
894.2424, 371.7104
894.7245, 373.4026
895.2067, 374.5783
895.6888, 374.0909
896.1709, 369.6851
896.6530, 366.9896
897.1351, 366.3372
897.6172, 366.9117
898.0994, 368.7541
898.5815, 371.4247
899.0636, 370.6621
899.5457, 365.8288
900.0278, 362.1781
900.5099, 365.7829
900.9921, 371.3896
901.4742, 374.1614
901.9563, 373.1948
902.4384, 371.8135
902.9205, 369.8527
903.4026, 368.4289
903.8848, 368.3442
904.3669, 369.3549
904.8490, 369.1503
905.3311, 367.7850
905.8132, 366.7561
906.2953, 366.8304
906.7775, 367.7832
907.2596, 369.7720
907.7417, 372.4908
908.2238, 374.9505
908.7059, 377.3768
909.1880, 378.8190
909.6702, 379.0526
910.1523, 378.2303
910.6344, 376.3509
911.1165, 373.4493
911.5986, 371.0559
912.0807, 369.4456
912.5629, 368.8670
913.0450, 370.5278
913.5271, 373.0922
914.0092, 374.5087
914.4913, 373.1055
914.9734, 372.5357
915.4556, 374.2197
915.9377, 376.1084
916.4198, 375.8027
916.9019, 373.0318
917.3840, 373.6461
917.8661, 378.3578
918.3483, 382.5632
918.8304, 381.2380
919.3125, 377.5183
919.7946, 375.1466
920.2767, 374.5362
920.7589, 374.1405
921.2410, 373.4217
921.7231, 372.9182
922.2052, 372.7729
922.6873, 373.0049
923.1694, 373.8997
923.6516, 375.4637
924.1337, 377.1598
924.6158, 379.2525
925.0979, 380.8564
925.5800, 380.3589
926.0621, 378.4316
926.5443, 376.7456
927.0264, 374.8098
927.5085, 374.6432
927.9906, 377.5073
928.4727, 381.6435
928.9548, 384.3074
929.4370, 385.4860
929.9191, 385.3573
930.4012, 383.7234
930.8833, 381.7977
931.3654, 381.1855
931.8475, 381.0270
932.3297, 379.8013
932.8118, 376.4771
933.2939, 374.9256
933.7761, 378.2182
934.2582, 381.3454
934.7403, 380.8438
935.2224, 376.5702
935.7045, 375.0919
936.1866, 376.4804
936.6688, 378.3001
937.1509, 379.0866
937.6330, 379.2108
938.1151, 378.7592
938.5972, 377.9300
939.0793, 377.6216
939.5615, 379.1017
940.0436, 379.8648
940.5257, 378.8397
941.0078, 376.9577
941.4899, 377.0833
941.9720, 379.1176
942.4542, 380.3131
942.9363, 379.6490
943.4184, 378.4619
943.9005, 378.1069
944.3826, 378.1830
944.8647, 378.0825
945.3469, 377.1790
945.8290, 377.1379
946.3111, 379.0080
946.7932, 380.5569
947.2753, 379.0960
947.7574, 374.8736
948.2396, 373.8689
948.7217, 376.2954
949.2038, 379.2189
949.6859, 380.9803
950.1680, 381.7468
950.6501, 381.2435
951.1323, 379.5840
951.6144, 378.6082
952.0965, 379.0620
952.5786, 379.2492
953.0607, 378.2979
953.5428, 376.9672
954.0250, 378.2361
954.5071, 381.5258
954.9892, 383.3060
955.4713, 381.2306
955.9534, 378.8569
956.4355, 378.9934
956.9177, 380.4513
957.3998, 381.5262
957.8819, 381.9609
958.3640, 382.0430
958.8461, 381.6445
959.3282, 381.1691
959.8104, 381.0174
960.2925, 381.1497
960.7746, 381.4970
961.2567, 382.0540
961.7388, 382.5865
962.2209, 383.3525
962.7031, 383.7032
963.1852, 382.4635
963.6673, 379.8420
964.1494, 380.2690
964.6315, 385.0644
965.1136, 388.1808
965.5958, 386.5247
966.0779, 382.6769
966.5600, 381.6563
967.0421, 382.8818
967.5242, 384.8703
968.0063, 388.5088
968.4885, 390.7900
968.9706, 389.2267
969.4527, 386.4447
969.9348, 385.5796
970.4169, 386.9093
970.8990, 389.2757
971.3812, 392.9292
971.8633, 395.7900
972.3454, 394.8596
972.8275, 392.2235
973.3096, 391.1914
973.7917, 392.0396
974.2739, 392.1253
974.7560, 388.4503
975.2381, 386.1802
975.7202, 387.8364
976.2023, 392.4626
976.6844, 395.6420
977.1666, 397.3962
977.6487, 397.1623
978.1308, 393.5258
978.6129, 389.7206
979.0950, 389.6261
979.5771, 391.5668
980.0593, 392.7798
980.5414, 391.2707
981.0235, 391.0484
981.5056, 393.1411
981.9877, 395.2903
982.4698, 394.7588
982.9520, 392.0881
983.4341, 390.6266
983.9162, 390.5858
984.3983, 391.4174
984.8804, 393.7003
985.3625, 395.8996
985.8447, 396.8717
986.3268, 396.5609
986.8089, 395.8022
987.2910, 394.2036
987.7731, 393.3735
988.2552, 394.1543
988.7374, 395.5749
989.2195, 395.9195
989.7016, 395.2647
990.1837, 393.5391
990.6658, 389.2805
991.1479, 386.8183
991.6301, 389.1684
992.1122, 393.4376
992.5944, 396.9799
993.0765, 399.7913
993.5586, 401.8012
994.0407, 403.1271
994.5228, 402.6708
995.0049, 396.6240
995.4871, 390.0067
995.9692, 391.0707
996.4513, 398.7578
996.9334, 403.6930
997.4155, 400.2383
997.8976, 396.9039
998.3798, 395.5927
998.8619, 395.7540
999.3440, 396.2221
999.8261, 396.9757
1000.308, 397.8127
1000.790, 398.7208
1001.272, 399.5577
1001.755, 400.6805
1002.237, 401.4106
1002.719, 400.8675
1003.201, 398.3718
1003.683, 396.3739
1004.165, 394.7642
1004.647, 393.8940
1005.129, 394.2159
1005.612, 395.3888
1006.094, 396.7393
1006.576, 398.1190
1007.058, 398.8823
1007.540, 397.3905
1008.022, 396.6560
1008.504, 398.7907
1008.986, 402.1621
1009.468, 404.1147
1009.951, 404.5559
1010.433, 404.0237
1010.915, 402.4137
1011.397, 400.6837
1011.879, 399.5314
1012.361, 399.1017
1012.843, 399.9014
1013.325, 402.2217
1013.807, 403.7301
1014.290, 403.6664
1014.772, 403.3008
1015.254, 403.2387
1015.736, 403.2838
1016.218, 402.2066
1016.700, 400.3065
1017.182, 399.3597
1017.664, 401.1949
1018.147, 402.8737
1018.629, 401.6504
1019.111, 399.4424
1019.593, 399.3153
1020.075, 402.3595
1020.557, 404.4282
1021.039, 405.2961
1021.521, 405.4091
1022.003, 404.9350
1022.486, 404.1021
1022.968, 403.1432
1023.450, 402.1303
1023.932, 401.6102
1024.414, 401.9660
1024.896, 402.6855
1025.378, 403.5726
1025.860, 404.8888
1026.343, 406.3118
1026.825, 408.3828
1027.307, 410.5840
1027.789, 413.1190
1028.271, 414.8026
1028.753, 413.6878
1029.235, 411.6259
1029.717, 410.6816
1030.199, 411.3724
1030.682, 412.4520
1031.164, 414.1325
1031.646, 415.6354
1032.128, 416.6088
1032.610, 417.0194
1033.092, 416.1647
1033.574, 414.5484
1034.056, 414.0498
1034.539, 417.7828
1035.021, 419.9750
1035.503, 417.5771
1035.985, 413.4867
1036.467, 411.2027
1036.949, 410.7474
1037.431, 412.3577
1037.913, 416.3092
1038.396, 419.6883
1038.878, 419.5913
1039.360, 417.9293
1039.842, 416.2626
1040.324, 414.7549
1040.806, 413.4728
1041.288, 412.4624
1041.770, 411.4764
1042.252, 410.2326
1042.734, 409.2103
1043.217, 409.6812
1043.699, 411.1546
1044.181, 412.3883
1044.663, 413.1589
1045.145, 413.3081
1045.627, 411.3377
1046.109, 409.9698
1046.591, 412.0122
1047.074, 417.7481
1047.556, 418.4659
1048.038, 414.1534
1048.520, 410.7280
1049.002, 413.0708
1049.484, 417.1810
1049.966, 420.6999
1050.448, 423.1581
1050.931, 423.1779
1051.413, 418.8452
1051.895, 416.4208
1052.377, 417.0048
1052.859, 418.6320
1053.341, 419.0050
1053.823, 418.5724
1054.305, 418.4219
1054.787, 418.6808
1055.270, 418.5222
1055.752, 415.8313
1056.234, 414.6928
1056.716, 417.5888
1057.198, 423.0898
1057.680, 425.7035
1058.162, 425.5248
1058.644, 423.8346
1059.126, 420.4520
1059.609, 417.1903
1060.091, 415.5905
1060.573, 415.0909
1061.055, 415.2326
1061.537, 416.1759
1062.019, 416.8271
1062.501, 417.1307
1062.983, 417.3680
1063.466, 417.7789
1063.948, 418.2232
1064.430, 418.9578
1064.912, 419.5396
1065.394, 418.6263
1065.876, 412.4023
1066.358, 409.3516
1066.840, 412.2033
1067.323, 417.0363
1067.805, 418.6615
1068.287, 417.6970
1068.769, 418.9550
1069.251, 422.8043
1069.733, 425.8555
1070.215, 425.2251
1070.697, 423.4277
1071.179, 421.1494
1071.661, 419.0180
1072.144, 420.2784
1072.626, 425.7715
1073.108, 428.5972
1073.590, 426.4335
1074.072, 422.5959
1074.554, 420.2253
1075.036, 419.2447
1075.518, 419.8907
1076.001, 422.7752
1076.483, 424.5648
1076.965, 424.5436
1077.447, 424.4267
1077.929, 425.2130
1078.411, 425.3257
1078.893, 425.5812
1079.375, 426.3800
1079.858, 426.3432
1080.340, 427.1841
1080.822, 428.2185
1081.304, 429.4025
1081.786, 430.5191
1082.268, 431.4340
1082.750, 432.1429
1083.232, 431.9390
1083.714, 430.8221
1084.197, 430.3327
1084.679, 432.3401
1085.161, 434.6980
1085.643, 436.2741
1086.125, 436.8089
1086.607, 435.7172
1087.089, 432.2943
1087.571, 429.7363
1088.054, 428.4433
1088.536, 428.3876
1089.018, 430.3547
1089.500, 433.1325
1089.982, 435.1572
1090.464, 436.2569
1090.946, 436.0814
1091.428, 432.8735
1091.911, 431.2836
1092.393, 433.4255
1092.875, 437.3704
1093.357, 438.7641
1093.839, 438.0368
1094.321, 436.2036
1094.803, 432.7187
1095.285, 430.8685
1095.767, 433.9626
1096.250, 437.6960
1096.732, 438.9973
1097.214, 438.0361
1097.696, 438.8913
1098.178, 441.4282
1098.660, 442.7525
1099.142, 439.7136
1099.624, 436.8896
1100.106, 439.6041
1100.589, 444.0795
1101.071, 443.7970
1101.553, 435.7019
1102.035, 433.1224
1102.517, 437.2455
1102.999, 441.5602
1103.481, 439.4594
1103.963, 435.0551
1104.446, 433.5575
1104.928, 434.6638
1105.410, 436.3788
1105.892, 438.9461
1106.374, 440.9446
1106.856, 442.3036
1107.338, 442.7884
1107.820, 441.0616
1108.302, 438.4510
1108.785, 438.7148
1109.267, 442.2661
1109.749, 444.8576
1110.231, 443.4303
1110.713, 442.1782
1111.195, 442.9126
1111.677, 444.7342
1112.159, 444.9733
1112.641, 443.9110
1113.124, 443.3389
1113.606, 443.8287
1114.088, 444.3477
1114.570, 444.2575
1115.052, 443.8580
1115.534, 443.0674
1116.016, 441.9732
1116.498, 442.9962
1116.981, 446.2505
1117.463, 448.2757
1117.945, 447.0754
1118.427, 444.7682
1118.909, 442.6387
1119.391, 441.0949
1119.873, 440.8849
1120.355, 442.6617
1120.838, 443.9722
1121.320, 444.8816
1121.802, 445.0191
1122.284, 443.6071
1122.766, 441.5974
1123.248, 440.2123
1123.730, 439.4203
1124.212, 439.0921
1124.694, 439.0649
1125.177, 439.9372
1125.659, 442.3344
1126.141, 444.4904
1126.623, 444.3065
1127.105, 442.4634
1127.587, 440.0547
1128.069, 437.4418
1128.551, 436.6619
1129.033, 440.5377
1129.516, 443.9801
1129.998, 445.5905
1130.480, 446.0041
1130.962, 446.2125
1131.444, 446.1917
1131.926, 445.8041
1132.408, 445.0214
1132.890, 444.0692
1133.373, 442.9172
1133.855, 441.7957
1134.337, 440.4776
1134.819, 439.3524
1135.301, 440.4606
1135.783, 443.6729
1136.265, 445.1500
1136.747, 443.5318
1137.229, 441.4664
1137.712, 441.0758
1138.194, 441.3650
1138.676, 441.8308
1139.158, 442.4293
1139.640, 440.5321
1140.122, 435.6352
1140.604, 433.1534
1141.086, 436.2245
1141.569, 440.9181
1142.051, 443.4147
1142.533, 444.5309
1143.015, 445.3337
1143.497, 445.8717
1143.979, 446.4930
1144.461, 447.2722
1144.943, 447.8150
1145.426, 447.9205
1145.908, 447.5929
1146.390, 446.4539
1146.872, 444.9461
1147.354, 443.9857
1147.836, 444.1871
1148.318, 444.4307
1148.800, 444.5985
1149.282, 445.0096
1149.765, 446.2982
1150.247, 447.8932
1150.729, 448.6279
1151.211, 448.5129
1151.693, 447.7331
1152.175, 446.0767
1152.657, 443.9670
1153.139, 440.6916
1153.621, 438.2295
1154.104, 440.0519
1154.586, 444.5594
1155.068, 446.1189
1155.550, 444.6050
1156.032, 442.8665
1156.514, 441.6314
1156.996, 441.3396
1157.478, 442.7338
1157.961, 444.4387
1158.443, 443.2485
1158.925, 439.9326
1159.407, 439.1398
1159.889, 441.5737
1160.371, 444.2937
1160.853, 445.8077
1161.335, 446.8047
1161.818, 447.5378
1162.300, 448.0961
1162.782, 448.9218
1163.264, 449.9183
1163.746, 449.9168
1164.228, 448.5656
1164.710, 446.7984
1165.192, 444.2481
1165.674, 442.4873
1166.156, 443.2701
1166.639, 446.0006
1167.121, 446.8153
1167.603, 445.7284
1168.085, 445.1836
1168.567, 446.2166
1169.049, 447.2560
1169.531, 446.1825
1170.013, 444.9756
1170.496, 446.2184
1170.978, 449.9926
1171.460, 451.1966
1171.942, 449.7341
1172.424, 447.4778
1172.906, 444.9375
1173.388, 442.5270
1173.870, 439.4966
1174.353, 437.4663
1174.835, 439.6664
1175.317, 447.8497
1175.799, 449.6864
1176.281, 444.4054
1176.763, 439.0634
1177.245, 437.3446
1177.727, 437.8954
1178.209, 440.3465
1178.692, 443.5719
1179.174, 445.6082
1179.656, 445.7962
1180.138, 446.0094
1180.620, 446.2677
1181.102, 446.4374
1181.584, 447.0177
1182.066, 446.9992
1182.548, 443.8433
1183.031, 439.2560
1183.513, 437.3824
1183.995, 440.4797
1184.477, 442.4865
1184.959, 443.0650
1185.441, 442.9674
1185.923, 442.6318
1186.405, 442.1814
1186.888, 441.5261
1187.370, 440.8848
1187.852, 441.0994
1188.334, 443.3194
1188.816, 444.1684
1189.298, 443.1101
1189.780, 441.4187
1190.262, 440.3348
1190.745, 439.5016
1191.227, 437.8263
1191.709, 438.2650
1192.191, 435.5630
1192.673, 439.3786
1193.155, 442.3262
1193.637, 443.8923
1194.119, 444.0839
1194.601, 441.9544
1195.084, 438.9675
1195.566, 437.3242
1196.048, 437.1726
1196.530, 438.0964
1197.012, 440.9490
1197.494, 443.0236
1197.976, 443.9792
1198.458, 443.5537
1198.941, 439.4683
1199.423, 434.5874
1199.905, 435.0273
1200.387, 441.2084
1200.869, 444.3803
1201.351, 441.3928
1201.833, 438.2121
1202.315, 435.9337
1202.797, 434.8263
1203.280, 436.2205
1203.762, 438.7422
1204.244, 439.9185
1204.726, 439.3182
1205.208, 438.7652
1205.690, 438.5186
1206.172, 438.5580
1206.654, 439.1305
1207.136, 439.5266
1207.619, 438.2015
1208.101, 435.9284
1208.583, 433.7924
1209.065, 431.8248
1209.547, 431.4254
1210.029, 433.3848
1210.511, 435.4163
1210.993, 436.8218
1211.476, 437.6927
1211.958, 438.0941
1212.440, 438.1657
1212.922, 438.2760
1213.404, 438.6848
1213.886, 437.8249
1214.368, 434.3965
1214.850, 432.6734
1215.333, 435.3054
1215.815, 439.3445
1216.297, 439.2097
1216.779, 436.6101
1217.261, 434.5415
1217.743, 433.6451
1218.225, 433.3626
1218.707, 433.7520
1219.189, 434.3012
1219.672, 434.5615
1220.154, 435.1193
1220.636, 438.1107
1221.118, 441.8481
1221.600, 443.1252
1222.082, 440.1116
1222.564, 437.8200
1223.046, 436.2457
1223.528, 436.1610
1224.011, 438.7148
1224.493, 442.0967
1224.975, 443.3011
1225.457, 443.0683
1225.939, 442.6979
1226.421, 442.5141
1226.903, 441.9747
1227.385, 440.9462
1227.868, 440.0078
1228.350, 439.3107
1228.832, 439.0790
1229.314, 440.2798
1229.796, 441.9782
1230.278, 442.4762
1230.760, 440.7814
1231.242, 439.7928
1231.724, 439.5604
1232.207, 439.7766
1232.689, 440.5687
1233.171, 441.3775
1233.653, 441.3817
1234.135, 440.9410
1234.617, 440.6644
1235.099, 440.6952
1235.581, 440.6149
1236.063, 440.3643
1236.546, 440.4781
1237.028, 441.9697
1237.510, 443.2833
1237.992, 441.8994
1238.474, 439.5569
1238.956, 439.4208
1239.438, 442.4903
1239.920, 443.8687
1240.403, 443.4384
1240.885, 442.6317
1241.367, 441.9675
1241.849, 441.7089
1242.331, 442.7315
1242.813, 443.9828
1243.295, 443.7991
1243.777, 441.7975
1244.260, 440.2805
1244.742, 439.2267
1245.224, 438.6647
1245.706, 437.8156
1246.188, 438.3154
1246.670, 443.7347
1247.152, 449.7070
1247.634, 449.7948
1248.116, 443.3281
1248.599, 441.4044
1249.081, 443.7716
1249.563, 445.6176
1250.045, 442.2654
1250.527, 439.7194
1251.009, 442.9173
1251.491, 447.2402
1251.973, 447.5116
1252.455, 443.9725
1252.938, 442.4669
1253.420, 442.9466
1253.902, 444.4745
1254.384, 449.1679
1254.866, 451.3612
1255.348, 446.6912
1255.830, 441.0257
1256.313, 439.6909
1256.795, 442.0329
1257.277, 444.4588
1257.759, 446.8084
1258.241, 448.4876
1258.723, 448.7869
1259.205, 449.0619
1259.687, 450.0133
1260.169, 450.3996
1260.651, 448.0343
1261.134, 444.4385
1261.616, 445.5375
1262.098, 449.9003
1262.580, 452.4305
1263.062, 449.5367
1263.544, 447.1497
1264.026, 445.7886
1264.508, 445.0201
1264.991, 444.6246
1265.473, 444.5124
1265.955, 444.1667
1266.437, 443.9834
1266.919, 445.0450
1267.401, 449.5029
1267.883, 451.4009
1268.365, 449.9520
1268.848, 448.7307
1269.330, 451.5145
1269.812, 455.2947
1270.294, 456.0666
1270.776, 454.8809
1271.258, 453.9967
1271.740, 453.4715
1272.222, 454.0215
1272.704, 455.8119
1273.187, 457.1474
1273.669, 456.1844
1274.151, 454.9076
1274.633, 455.3142
1275.115, 454.6841
1275.597, 456.5862
1276.079, 455.4035
1276.561, 455.8764
1277.043, 457.9462
1277.526, 459.2562
1278.008, 457.8383
1278.490, 455.8506
1278.972, 453.7371
1279.454, 452.3614
1279.936, 453.0925
1280.418, 455.7863
1280.900, 455.8914
1281.383, 453.8043
1281.865, 452.0975
1282.347, 451.2784
1282.829, 452.1841
1283.311, 456.5996
1283.793, 461.0239
1284.275, 462.7582
1284.757, 462.3027
1285.240, 461.1777
1285.722, 459.6880
1286.204, 458.9034
1286.686, 460.3687
1287.168, 460.3482
1287.650, 457.8208
1288.132, 455.3476
1288.614, 454.5776
1289.096, 455.1694
1289.578, 457.4105
1290.061, 460.2373
1290.543, 461.4063
1291.025, 459.5329
1291.507, 457.6700
1291.989, 455.6396
1292.471, 454.4250
1292.953, 454.7380
1293.435, 455.9589
1293.918, 458.1398
1294.400, 460.3587
1294.882, 461.0724
1295.364, 460.0670
1295.846, 459.6379
1296.328, 459.8075
1296.810, 459.8386
1297.292, 459.1173
1297.775, 458.5442
1298.257, 459.2012
1298.739, 460.1174
1299.221, 460.3672
1299.703, 460.0073
1300.185, 459.9956
1300.667, 460.0932
1301.149, 458.4977
1301.631, 453.2508
1302.114, 449.5222
1302.596, 449.5555
##END=



