##NAMES=Hillite
##RRUFFID=R061014
##IDEAL CHEMISTRY=Ca_2_Zn^2+^(P^5+^O_4_)_2_&#183;2H_2_O
##LOCALITY=Reaphook Hill, South Australia
##OWNER=RRUFF
##SOURCE=Michael Scott
##DESCRIPTION=Colorless pillow-shaped aggregate associated with colorless bladed scholzite.
##STATUS=The identification of this mineral has been confirmed only by single crystal X-ray diffraction.
##URL=rruff.info/R061014
164.9126, 1622.125
165.3947, 1629.998
165.8768, 1639.114
166.3590, 1651.148
166.8411, 1665.196
167.3232, 1676.887
167.8053, 1682.097
168.2874, 1684.315
168.7695, 1687.328
169.2517, 1693.989
169.7338, 1700.903
170.2159, 1706.035
170.6980, 1709.305
171.1801, 1710.432
171.6622, 1705.946
172.1444, 1699.444
172.6265, 1696.894
173.1086, 1702.375
173.5907, 1712.341
174.0728, 1724.400
174.5549, 1738.987
175.0371, 1751.916
175.5192, 1757.641
176.0013, 1758.413
176.4834, 1760.101
176.9655, 1765.295
177.4476, 1773.447
177.9298, 1784.049
178.4119, 1797.533
178.8940, 1812.266
179.3761, 1829.162
179.8582, 1847.001
180.3403, 1860.505
180.8224, 1859.708
181.3046, 1851.991
181.7867, 1856.254
182.2688, 1880.151
182.7509, 1911.027
183.2330, 1928.105
183.7151, 1931.649
184.1973, 1932.490
184.6794, 1942.243
185.1615, 1957.301
185.6436, 1961.966
186.1257, 1945.668
186.6078, 1920.630
187.0900, 1919.166
187.5721, 1942.687
188.0542, 1969.520
188.5363, 1977.344
189.0184, 1968.418
189.5005, 1961.055
189.9827, 1959.785
190.4648, 1964.649
190.9469, 1979.342
191.4290, 2006.025
191.9111, 2032.049
192.3932, 2039.244
192.8754, 2027.778
193.3575, 2018.548
193.8396, 2023.362
194.3217, 2040.354
194.8038, 2047.045
195.2859, 2041.901
195.7681, 2030.096
196.2502, 2018.566
196.7323, 2007.443
197.2144, 1995.972
197.6965, 1982.052
198.1786, 1965.683
198.6608, 1956.367
199.1429, 1956.548
199.6250, 1961.491
200.1071, 1960.204
200.5892, 1951.089
201.0714, 1943.738
201.5535, 1945.038
202.0356, 1955.985
202.5177, 1964.174
202.9998, 1967.816
203.4819, 1968.339
203.9641, 1969.494
204.4462, 1970.615
204.9283, 1974.239
205.4104, 1983.749
205.8925, 2001.038
206.3746, 2013.271
206.8568, 2016.149
207.3389, 2012.848
207.8210, 2022.017
208.3031, 2049.608
208.7852, 2076.450
209.2673, 2083.227
209.7494, 2062.374
210.2316, 2051.418
210.7137, 2060.079
211.1958, 2086.545
211.6779, 2107.010
212.1600, 2119.866
212.6421, 2129.791
213.1243, 2141.403
213.6064, 2155.103
214.0885, 2168.949
214.5706, 2182.945
215.0527, 2197.183
215.5348, 2208.570
216.0170, 2216.069
216.4991, 2221.735
216.9812, 2228.834
217.4633, 2239.827
217.9454, 2245.872
218.4275, 2243.309
218.9097, 2230.790
219.3918, 2220.580
219.8739, 2216.373
220.3560, 2211.423
220.8381, 2192.927
221.3202, 2150.348
221.8024, 2116.338
222.2845, 2105.258
222.7666, 2126.068
223.2487, 2132.395
223.7308, 2118.169
224.2129, 2093.044
224.6951, 2074.631
225.1772, 2064.217
225.6593, 2057.990
226.1414, 2055.538
226.6235, 2059.975
227.1056, 2058.969
227.5878, 2049.634
228.0699, 2035.874
228.5520, 2026.134
229.0341, 2020.804
229.5162, 2018.961
229.9983, 2020.764
230.4805, 2028.569
230.9626, 2034.586
231.4447, 2038.066
231.9268, 2039.776
232.4089, 2041.860
232.8910, 2043.879
233.3732, 2046.992
233.8553, 2051.746
234.3374, 2058.278
234.8195, 2066.636
235.3016, 2078.730
235.7837, 2092.789
236.2658, 2100.975
236.7480, 2099.086
237.2301, 2096.847
237.7122, 2100.310
238.1943, 2113.754
238.6764, 2124.113
239.1585, 2130.115
239.6407, 2132.225
240.1228, 2132.814
240.6049, 2129.568
241.0870, 2127.662
241.5691, 2130.811
242.0512, 2141.927
242.5334, 2152.088
243.0155, 2159.554
243.4976, 2164.844
243.9797, 2173.356
244.4618, 2188.009
244.9439, 2202.091
245.4261, 2210.219
245.9082, 2208.402
246.3903, 2208.675
246.8724, 2214.448
247.3545, 2224.878
247.8366, 2227.508
248.3188, 2216.764
248.8009, 2204.728
249.2830, 2201.876
249.7651, 2213.863
250.2472, 2223.778
250.7293, 2230.715
251.2115, 2234.563
251.6936, 2228.673
252.1757, 2206.504
252.6578, 2182.288
253.1399, 2168.199
253.6220, 2168.934
254.1042, 2169.626
254.5863, 2166.447
255.0684, 2159.584
255.5505, 2160.743
256.0326, 2175.625
256.5147, 2191.789
256.9969, 2197.167
257.4790, 2186.293
257.9611, 2176.724
258.4432, 2171.440
258.9253, 2170.400
259.4074, 2171.695
259.8896, 2176.739
260.3717, 2182.233
260.8538, 2184.949
261.3359, 2184.030
261.8180, 2182.170
262.3001, 2178.894
262.7823, 2174.197
263.2644, 2174.476
263.7465, 2182.286
264.2286, 2191.618
264.7107, 2195.774
265.1928, 2193.689
265.6750, 2189.711
266.1571, 2183.620
266.6392, 2175.531
267.1213, 2172.653
267.6034, 2177.164
268.0855, 2183.704
268.5677, 2185.628
269.0498, 2181.006
269.5319, 2179.062
270.0140, 2183.298
270.4961, 2193.510
270.9782, 2199.855
271.4604, 2201.439
271.9425, 2200.963
272.4246, 2200.805
272.9067, 2200.482
273.3888, 2203.057
273.8709, 2211.390
274.3531, 2224.675
274.8352, 2228.609
275.3173, 2219.656
275.7994, 2208.788
276.2815, 2208.167
276.7636, 2218.381
277.2457, 2234.692
277.7278, 2259.808
278.2100, 2291.664
278.6921, 2306.703
279.1742, 2300.369
279.6563, 2289.835
280.1384, 2297.301
280.6205, 2324.128
281.1027, 2345.629
281.5848, 2351.873
282.0669, 2345.842
282.5490, 2347.480
283.0311, 2357.873
283.5132, 2371.920
283.9954, 2384.622
284.4775, 2396.041
284.9596, 2406.949
285.4417, 2416.539
285.9238, 2425.894
286.4059, 2441.689
286.8881, 2465.060
287.3702, 2487.586
287.8523, 2497.448
288.3344, 2495.966
288.8165, 2499.855
289.2986, 2518.613
289.7808, 2545.162
290.2629, 2556.259
290.7450, 2550.908
291.2271, 2539.200
291.7092, 2527.856
292.1913, 2517.555
292.6735, 2512.917
293.1556, 2520.696
293.6377, 2532.441
294.1198, 2526.939
294.6019, 2503.750
295.0840, 2476.671
295.5662, 2458.504
296.0483, 2446.732
296.5304, 2432.438
297.0125, 2410.610
297.4946, 2386.601
297.9767, 2369.606
298.4589, 2359.438
298.9410, 2354.103
299.4231, 2354.681
299.9052, 2358.861
300.3873, 2360.968
300.8694, 2357.072
301.3516, 2352.344
301.8337, 2355.836
302.3158, 2366.504
302.7979, 2374.432
303.2800, 2370.075
303.7621, 2358.310
304.2443, 2346.709
304.7264, 2334.959
305.2085, 2327.365
305.6906, 2332.727
306.1727, 2348.424
306.6548, 2360.187
307.1370, 2353.738
307.6191, 2339.445
308.1012, 2330.656
308.5833, 2333.730
309.0654, 2339.135
309.5475, 2337.866
310.0297, 2332.104
310.5118, 2330.032
310.9939, 2339.009
311.4760, 2352.567
311.9581, 2365.943
312.4402, 2382.030
312.9224, 2390.644
313.4045, 2379.733
313.8866, 2355.634
314.3687, 2336.769
314.8508, 2331.508
315.3329, 2334.719
315.8151, 2343.806
316.2972, 2361.761
316.7793, 2378.687
317.2614, 2391.214
317.7435, 2399.902
318.2256, 2405.978
318.7078, 2406.893
319.1899, 2407.508
319.6720, 2410.691
320.1541, 2418.171
320.6362, 2424.965
321.1183, 2425.465
321.6005, 2424.616
322.0826, 2431.482
322.5647, 2456.127
323.0468, 2482.119
323.5289, 2503.320
324.0110, 2518.424
324.4932, 2530.863
324.9753, 2540.486
325.4574, 2547.639
325.9395, 2552.663
326.4216, 2557.094
326.9037, 2557.937
327.3859, 2553.081
327.8680, 2539.752
328.3501, 2530.418
328.8322, 2528.763
329.3143, 2529.699
329.7964, 2527.649
330.2786, 2524.172
330.7607, 2515.710
331.2428, 2499.198
331.7249, 2473.233
332.2070, 2453.778
332.6891, 2442.753
333.1712, 2436.725
333.6534, 2432.803
334.1355, 2433.019
334.6176, 2431.120
335.0997, 2424.201
335.5818, 2412.742
336.0639, 2408.116
336.5461, 2412.476
337.0282, 2420.354
337.5103, 2429.202
337.9924, 2441.496
338.4745, 2443.741
338.9566, 2428.580
339.4388, 2401.789
339.9209, 2394.766
340.4030, 2413.641
340.8851, 2433.262
341.3672, 2430.520
341.8493, 2403.598
342.3315, 2387.970
342.8136, 2391.041
343.2957, 2405.422
343.7778, 2412.988
344.2599, 2413.371
344.7420, 2411.350
345.2242, 2408.594
345.7063, 2405.539
346.1884, 2405.535
346.6705, 2409.028
347.1526, 2415.307
347.6347, 2425.251
348.1169, 2438.097
348.5990, 2447.874
349.0811, 2448.252
349.5632, 2442.952
350.0453, 2441.161
350.5274, 2443.905
351.0096, 2448.291
351.4917, 2452.326
351.9738, 2455.575
352.4559, 2456.769
352.9380, 2452.595
353.4201, 2447.221
353.9023, 2446.914
354.3844, 2452.259
354.8665, 2458.290
355.3486, 2460.171
355.8307, 2460.197
356.3128, 2462.113
356.7950, 2473.305
357.2771, 2482.826
357.7592, 2479.728
358.2413, 2464.629
358.7234, 2450.817
359.2055, 2445.240
359.6877, 2445.001
360.1698, 2447.124
360.6519, 2449.878
361.1340, 2455.511
361.6161, 2468.972
362.0982, 2487.951
362.5804, 2499.747
363.0625, 2495.220
363.5446, 2484.834
364.0267, 2475.246
364.5088, 2466.048
364.9909, 2460.044
365.4731, 2457.876
365.9552, 2459.336
366.4373, 2463.764
366.9194, 2476.235
367.4015, 2487.577
367.8836, 2493.462
368.3658, 2488.030
368.8479, 2487.751
369.3300, 2499.316
369.8121, 2514.845
370.2942, 2519.636
370.7763, 2501.121
371.2585, 2487.642
371.7406, 2489.770
372.2227, 2512.616
372.7048, 2525.135
373.1869, 2521.833
373.6690, 2512.902
374.1512, 2511.056
374.6333, 2519.628
375.1154, 2526.353
375.5975, 2526.402
376.0796, 2520.667
376.5617, 2526.048
377.0439, 2546.833
377.5260, 2568.032
378.0081, 2573.380
378.4902, 2561.322
378.9723, 2554.611
379.4544, 2559.407
379.9366, 2571.006
380.4187, 2574.416
380.9008, 2569.008
381.3829, 2564.112
381.8650, 2568.408
382.3471, 2579.692
382.8293, 2586.252
383.3114, 2585.716
383.7935, 2581.961
384.2756, 2579.309
384.7577, 2577.989
385.2398, 2579.466
385.7219, 2587.578
386.2040, 2598.083
386.6862, 2602.533
387.1683, 2599.316
387.6504, 2596.342
388.1325, 2601.669
388.6146, 2612.604
389.0967, 2623.521
389.5789, 2635.036
390.0610, 2643.652
390.5431, 2645.148
391.0252, 2639.621
391.5073, 2633.310
391.9894, 2626.094
392.4716, 2621.441
392.9537, 2622.976
393.4358, 2638.379
393.9179, 2653.724
394.4000, 2662.867
394.8821, 2667.028
395.3643, 2672.980
395.8464, 2684.699
396.3285, 2697.498
396.8106, 2708.690
397.2927, 2719.676
397.7748, 2726.352
398.2570, 2724.261
398.7391, 2717.406
399.2212, 2715.514
399.7033, 2724.037
400.1854, 2732.386
400.6675, 2736.209
401.1497, 2732.045
401.6318, 2735.617
402.1139, 2749.487
402.5960, 2769.305
403.0781, 2790.324
403.5602, 2814.561
404.0424, 2835.524
404.5245, 2851.485
405.0066, 2862.500
405.4887, 2870.278
405.9708, 2872.504
406.4529, 2877.066
406.9351, 2892.871
407.4172, 2920.879
407.8993, 2945.683
408.3814, 2964.207
408.8635, 2978.478
409.3456, 2992.593
409.8278, 3006.577
410.3099, 3023.165
410.7920, 3045.315
411.2741, 3071.613
411.7562, 3095.875
412.2383, 3116.571
412.7205, 3138.947
413.2026, 3172.647
413.6847, 3214.687
414.1668, 3254.408
414.6489, 3283.510
415.1310, 3309.287
415.6132, 3341.510
416.0953, 3380.914
416.5774, 3420.812
417.0595, 3458.253
417.5416, 3493.468
418.0237, 3527.465
418.5059, 3560.254
418.9880, 3591.837
419.4701, 3622.653
419.9522, 3652.558
420.4343, 3679.141
420.9164, 3698.097
421.3986, 3715.811
421.8807, 3737.866
422.3628, 3775.830
422.8449, 3799.511
423.3270, 3793.306
423.8091, 3769.888
424.2913, 3754.641
424.7734, 3756.765
425.2555, 3761.043
425.7376, 3763.201
426.2197, 3762.095
426.7018, 3764.447
427.1840, 3775.709
427.6661, 3785.870
428.1482, 3783.142
428.6303, 3761.167
429.1124, 3741.602
429.5945, 3731.339
430.0767, 3727.040
430.5588, 3706.475
431.0409, 3665.860
431.5230, 3621.173
432.0051, 3583.408
432.4872, 3552.454
432.9694, 3522.951
433.4515, 3494.369
433.9336, 3466.022
434.4157, 3436.284
434.8978, 3405.302
435.3799, 3374.386
435.8621, 3345.138
436.3442, 3316.196
436.8263, 3283.250
437.3084, 3245.510
437.7905, 3210.620
438.2726, 3186.022
438.7548, 3169.209
439.2369, 3155.687
439.7190, 3146.383
440.2011, 3137.327
440.6832, 3123.583
441.1653, 3106.385
441.6474, 3092.713
442.1295, 3087.311
442.6117, 3086.209
443.0938, 3086.630
443.5759, 3088.708
444.0580, 3091.006
444.5401, 3093.064
445.0222, 3095.073
445.5044, 3097.323
445.9865, 3103.207
446.4686, 3106.334
446.9507, 3101.943
447.4328, 3086.303
447.9149, 3082.248
448.3971, 3099.950
448.8792, 3121.881
449.3613, 3132.779
449.8434, 3126.979
450.3255, 3121.347
450.8076, 3117.301
451.2898, 3115.107
451.7719, 3116.711
452.2540, 3123.056
452.7361, 3130.283
453.2182, 3137.586
453.7003, 3145.004
454.1825, 3145.966
454.6646, 3138.672
455.1467, 3128.703
455.6288, 3124.444
456.1109, 3125.378
456.5930, 3127.239
457.0752, 3129.867
457.5573, 3131.721
458.0394, 3129.342
458.5215, 3122.786
459.0036, 3114.008
459.4857, 3102.286
459.9679, 3089.870
460.4500, 3080.958
460.9321, 3078.265
461.4142, 3076.064
461.8963, 3069.262
462.3784, 3059.532
462.8606, 3051.324
463.3427, 3050.871
463.8248, 3049.145
464.3069, 3039.593
464.7890, 3019.433
465.2711, 3001.744
465.7533, 2986.327
466.2354, 2976.311
466.7175, 2975.235
467.1996, 2999.744
467.6817, 3014.577
468.1638, 3008.851
468.6460, 2986.240
469.1281, 2977.052
469.6102, 2989.473
470.0923, 3004.065
470.5744, 3010.275
471.0565, 3005.337
471.5387, 3001.961
472.0208, 3002.174
472.5029, 3001.799
472.9850, 2992.074
473.4671, 2972.113
473.9492, 2954.027
474.4314, 2940.614
474.9135, 2932.789
475.3956, 2937.974
475.8777, 2957.031
476.3598, 2973.750
476.8419, 2968.557
477.3241, 2950.294
477.8062, 2940.010
478.2883, 2943.626
478.7704, 2953.889
479.2525, 2967.982
479.7346, 2983.429
480.2168, 2993.068
480.6989, 2987.135
481.1810, 2978.296
481.6631, 2975.564
482.1452, 2979.966
482.6273, 2986.635
483.1095, 2999.013
483.5916, 3010.004
484.0737, 3012.638
484.5558, 2992.778
485.0379, 2978.563
485.5201, 2979.213
486.0022, 2991.215
486.4843, 2996.439
486.9664, 2989.296
487.4485, 2981.836
487.9306, 2979.258
488.4128, 2983.550
488.8949, 2985.840
489.3770, 2986.271
489.8591, 2984.810
490.3412, 2979.278
490.8233, 2968.109
491.3055, 2965.005
491.7876, 2977.158
492.2697, 2998.275
492.7518, 3008.294
493.2339, 3006.999
493.7160, 3000.351
494.1982, 2987.626
494.6803, 2972.927
495.1624, 2968.114
495.6445, 2975.909
496.1266, 2987.958
496.6087, 3000.100
497.0908, 3010.256
497.5729, 3014.476
498.0551, 3005.051
498.5372, 2993.782
499.0193, 2988.475
499.5014, 2988.979
499.9835, 2991.474
500.4656, 2995.856
500.9478, 3000.761
501.4299, 3005.247
501.9120, 3008.157
502.3941, 3012.235
502.8762, 3019.331
503.3583, 3027.441
503.8405, 3032.551
504.3226, 3028.973
504.8047, 3030.711
505.2868, 3044.821
505.7689, 3070.983
506.2510, 3081.458
506.7332, 3069.958
507.2153, 3055.881
507.6974, 3056.384
508.1795, 3072.084
508.6616, 3084.475
509.1437, 3092.279
509.6259, 3094.187
510.1080, 3082.264
510.5901, 3059.194
511.0722, 3044.256
511.5543, 3054.119
512.0364, 3075.298
512.5186, 3085.899
513.0007, 3086.096
513.4828, 3084.503
513.9649, 3086.767
514.4470, 3091.049
514.9291, 3095.320
515.4113, 3099.391
515.8934, 3102.680
516.3755, 3102.485
516.8576, 3101.392
517.3397, 3104.857
517.8218, 3126.937
518.3040, 3141.959
518.7861, 3135.037
519.2682, 3100.346
519.7503, 3085.493
520.2324, 3104.368
520.7145, 3130.612
521.1967, 3145.059
521.6788, 3144.224
522.1609, 3141.112
522.6430, 3135.237
523.1251, 3128.958
523.6072, 3129.087
524.0894, 3136.540
524.5715, 3141.373
525.0536, 3136.561
525.5357, 3125.550
526.0178, 3121.311
526.4999, 3123.887
526.9821, 3132.278
527.4642, 3151.342
527.9463, 3174.710
528.4284, 3189.636
528.9105, 3192.648
529.3926, 3188.621
529.8748, 3175.705
530.3569, 3158.865
530.8390, 3148.991
531.3211, 3153.400
531.8032, 3163.588
532.2853, 3178.426
532.7675, 3198.053
533.2496, 3211.667
533.7317, 3211.112
534.2138, 3208.001
534.6959, 3210.155
535.1780, 3222.478
535.6602, 3232.901
536.1423, 3243.992
536.6244, 3251.864
537.1065, 3245.074
537.5886, 3214.406
538.0707, 3199.786
538.5529, 3218.588
539.0350, 3264.735
539.5171, 3302.880
539.9992, 3333.121
540.4813, 3353.750
540.9634, 3358.833
541.4456, 3352.852
541.9277, 3348.501
542.4098, 3346.694
542.8919, 3349.844
543.3740, 3363.545
543.8561, 3383.924
544.3383, 3403.119
544.8204, 3413.834
545.3025, 3425.632
545.7846, 3445.718
546.2667, 3473.069
546.7488, 3499.712
547.2310, 3522.273
547.7131, 3543.489
548.1952, 3565.294
548.6773, 3589.499
549.1594, 3610.227
549.6415, 3621.983
550.1237, 3633.399
550.6058, 3656.809
551.0879, 3700.143
551.5700, 3734.614
552.0521, 3751.950
552.5342, 3757.139
553.0164, 3769.781
553.4985, 3790.656
553.9806, 3812.732
554.4627, 3833.061
554.9448, 3851.367
555.4269, 3868.172
555.9091, 3884.443
556.3912, 3891.710
556.8733, 3877.431
557.3554, 3848.927
557.8375, 3819.371
558.3196, 3794.408
558.8018, 3767.198
559.2839, 3728.172
559.7660, 3682.790
560.2481, 3644.251
560.7302, 3623.535
561.2123, 3605.307
561.6945, 3582.928
562.1766, 3555.599
562.6587, 3527.045
563.1408, 3487.981
563.6229, 3455.774
564.1050, 3444.813
564.5872, 3469.646
565.0693, 3477.528
565.5514, 3459.103
566.0335, 3428.706
566.5156, 3415.146
566.9977, 3419.523
567.4799, 3425.537
567.9620, 3428.072
568.4441, 3427.618
568.9262, 3425.698
569.4083, 3422.241
569.8904, 3416.096
570.3726, 3399.831
570.8547, 3382.885
571.3368, 3379.974
571.8189, 3395.914
572.3010, 3412.718
572.7831, 3418.792
573.2653, 3418.932
573.7474, 3419.164
574.2295, 3419.194
574.7116, 3421.850
575.1937, 3432.348
575.6758, 3447.534
576.1580, 3452.162
576.6401, 3438.379
577.1222, 3423.522
577.6042, 3413.615
578.0864, 3408.993
578.5685, 3404.789
579.0506, 3398.906
579.5327, 3398.340
580.0148, 3415.936
580.4969, 3450.224
580.9791, 3467.287
581.4612, 3457.417
581.9433, 3438.789
582.4254, 3438.951
582.9075, 3453.900
583.3896, 3470.546
583.8718, 3484.298
584.3539, 3495.706
584.8360, 3504.736
585.3181, 3511.571
585.8002, 3518.164
586.2823, 3524.948
586.7645, 3532.092
587.2466, 3539.413
587.7287, 3546.014
588.2108, 3555.192
588.6929, 3566.901
589.1750, 3581.667
589.6572, 3600.750
590.1393, 3627.804
590.6214, 3651.404
591.1035, 3669.409
591.5856, 3683.449
592.0677, 3698.072
592.5499, 3713.353
593.0320, 3728.778
593.5141, 3748.260
593.9962, 3767.892
594.4783, 3768.125
594.9604, 3748.908
595.4426, 3733.832
595.9247, 3750.224
596.4068, 3779.676
596.8889, 3795.726
597.3710, 3789.664
597.8531, 3780.206
598.3353, 3778.093
598.8174, 3779.110
599.2995, 3777.235
599.7816, 3767.824
600.2637, 3758.619
600.7458, 3753.549
601.2280, 3750.941
601.7101, 3741.192
602.1922, 3718.731
602.6743, 3698.083
603.1564, 3686.257
603.6385, 3683.701
604.1207, 3678.718
604.6028, 3670.340
605.0849, 3663.009
605.5670, 3663.447
606.0491, 3669.450
606.5313, 3670.136
607.0134, 3662.755
607.4955, 3652.243
607.9776, 3642.594
608.4597, 3634.102
608.9418, 3627.180
609.4240, 3619.867
609.9061, 3616.175
610.3882, 3622.712
610.8703, 3636.764
611.3524, 3643.133
611.8345, 3628.778
612.3167, 3613.600
612.7988, 3607.122
613.2809, 3611.183
613.7630, 3616.220
614.2451, 3623.700
614.7272, 3630.402
615.2094, 3633.033
615.6915, 3631.157
616.1736, 3628.858
616.6557, 3626.325
617.1378, 3624.138
617.6199, 3622.330
618.1021, 3621.331
618.5842, 3623.681
619.0663, 3632.801
619.5484, 3643.801
620.0305, 3650.330
620.5126, 3653.208
620.9948, 3656.875
621.4769, 3665.679
621.9590, 3674.498
622.4411, 3679.948
622.9232, 3681.373
623.4053, 3681.452
623.8875, 3680.736
624.3696, 3678.783
624.8517, 3674.597
625.3338, 3663.834
625.8159, 3661.508
626.2980, 3672.353
626.7802, 3687.627
627.2623, 3691.819
627.7444, 3684.453
628.2265, 3674.855
628.7086, 3664.085
629.1907, 3654.535
629.6729, 3652.434
630.1550, 3656.910
630.6371, 3662.865
631.1192, 3671.150
631.6013, 3676.927
632.0834, 3674.185
632.5656, 3662.375
633.0477, 3649.250
633.5298, 3633.794
634.0119, 3621.038
634.4940, 3615.001
634.9761, 3618.284
635.4583, 3625.054
635.9404, 3639.979
636.4225, 3655.047
636.9046, 3659.076
637.3867, 3649.113
637.8688, 3637.805
638.3510, 3627.145
638.8331, 3617.201
639.3152, 3607.966
639.7973, 3599.588
640.2794, 3592.988
640.7615, 3588.627
641.2437, 3586.567
641.7258, 3589.773
642.2079, 3597.427
642.6900, 3599.625
643.1721, 3585.683
643.6542, 3566.497
644.1364, 3549.299
644.6185, 3533.761
645.1006, 3526.432
645.5827, 3537.229
646.0648, 3552.595
646.5469, 3558.578
647.0291, 3547.132
647.5112, 3542.638
647.9933, 3551.935
648.4754, 3564.954
648.9575, 3555.953
649.4396, 3522.757
649.9218, 3498.879
650.4039, 3498.657
650.8860, 3513.705
651.3681, 3531.321
651.8502, 3549.848
652.3323, 3558.072
652.8145, 3537.340
653.2966, 3510.540
653.7787, 3501.595
654.2608, 3513.381
654.7429, 3521.615
655.2250, 3512.500
655.7072, 3498.790
656.1893, 3489.612
656.6714, 3486.681
657.1535, 3487.760
657.6356, 3497.564
658.1177, 3507.220
658.5999, 3502.069
659.0820, 3477.543
659.5641, 3465.170
660.0462, 3475.121
660.5283, 3494.781
661.0104, 3500.402
661.4926, 3493.232
661.9747, 3480.176
662.4568, 3455.422
662.9389, 3432.448
663.4210, 3429.623
663.9031, 3444.463
664.3853, 3460.698
664.8674, 3472.654
665.3495, 3481.492
665.8316, 3487.763
666.3137, 3491.465
666.7958, 3491.940
667.2780, 3484.999
667.7601, 3478.478
668.2422, 3478.226
668.7243, 3485.553
669.2064, 3494.059
669.6885, 3505.189
670.1707, 3513.393
670.6528, 3508.078
671.1349, 3491.604
671.6170, 3479.209
672.0991, 3477.912
672.5812, 3478.479
673.0634, 3464.721
673.5455, 3443.964
674.0276, 3434.447
674.5097, 3459.598
674.9918, 3484.598
675.4739, 3489.931
675.9561, 3477.077
676.4382, 3467.269
676.9203, 3462.233
677.4024, 3461.924
677.8845, 3467.744
678.3666, 3480.709
678.8488, 3488.696
679.3309, 3490.574
679.8130, 3490.292
680.2951, 3490.921
680.7772, 3492.174
681.2593, 3492.145
681.7415, 3489.965
682.2236, 3489.769
682.7057, 3501.184
683.1878, 3516.205
683.6699, 3521.095
684.1520, 3503.832
684.6342, 3488.414
685.1163, 3489.142
685.5984, 3498.711
686.0805, 3503.203
686.5626, 3488.011
687.0447, 3483.114
687.5268, 3499.409
688.0089, 3529.850
688.4910, 3543.655
688.9731, 3538.484
689.4553, 3526.603
689.9374, 3508.399
690.4195, 3487.976
690.9016, 3484.951
691.3837, 3498.742
691.8658, 3515.839
692.3480, 3531.128
692.8301, 3541.889
693.3122, 3542.840
693.7943, 3532.038
694.2764, 3523.359
694.7585, 3525.975
695.2407, 3531.549
695.7228, 3532.919
696.2049, 3523.579
696.6870, 3519.969
697.1691, 3525.735
697.6512, 3534.114
698.1334, 3535.625
698.6155, 3529.326
699.0976, 3524.189
699.5797, 3521.598
700.0618, 3521.424
700.5439, 3524.217
701.0261, 3529.389
701.5082, 3534.688
701.9903, 3540.219
702.4724, 3544.403
702.9545, 3545.838
703.4366, 3544.702
703.9188, 3541.676
704.4009, 3532.577
704.8830, 3525.657
705.3651, 3525.689
705.8472, 3532.741
706.3293, 3537.707
706.8115, 3540.904
707.2936, 3541.323
707.7757, 3536.299
708.2578, 3525.902
708.7399, 3523.532
709.2220, 3530.033
709.7042, 3538.654
710.1863, 3542.591
710.6684, 3544.194
711.1505, 3547.214
711.6326, 3551.865
712.1147, 3559.994
712.5969, 3580.774
713.0790, 3602.201
713.5611, 3610.714
714.0432, 3584.983
714.5253, 3569.238
715.0074, 3570.281
715.4896, 3581.487
715.9717, 3593.402
716.4538, 3607.279
716.9359, 3616.107
717.4180, 3616.784
717.9001, 3613.012
718.3823, 3614.968
718.8644, 3621.372
719.3465, 3623.945
719.8286, 3613.908
720.3107, 3601.065
720.7928, 3595.524
721.2750, 3596.526
721.7571, 3600.193
722.2392, 3604.129
722.7213, 3610.902
723.2034, 3626.205
723.6855, 3651.935
724.1677, 3657.959
724.6498, 3631.321
725.1319, 3604.996
725.6140, 3601.610
726.0961, 3622.353
726.5782, 3628.012
727.0604, 3616.581
727.5425, 3603.183
728.0246, 3601.119
728.5067, 3607.767
728.9888, 3620.430
729.4709, 3640.777
729.9531, 3656.323
730.4352, 3653.484
730.9173, 3644.118
731.3994, 3640.906
731.8815, 3655.182
732.3636, 3663.855
732.8458, 3659.933
733.3279, 3652.923
733.8100, 3658.864
734.2921, 3682.057
734.7742, 3696.782
735.2563, 3695.877
735.7385, 3687.019
736.2206, 3684.301
736.7027, 3687.021
737.1848, 3691.838
737.6669, 3700.721
738.1490, 3708.152
738.6312, 3708.820
739.1133, 3703.945
739.5954, 3697.024
740.0775, 3678.543
740.5596, 3669.050
741.0417, 3684.035
741.5239, 3719.025
742.0060, 3735.727
742.4881, 3726.820
742.9702, 3716.133
743.4523, 3716.397
743.9344, 3725.375
744.4166, 3725.404
744.8987, 3716.179
745.3808, 3711.264
745.8629, 3726.921
746.3450, 3750.019
746.8271, 3763.822
747.3093, 3766.394
747.7914, 3765.197
748.2735, 3757.313
748.7556, 3751.641
749.2377, 3757.636
749.7198, 3790.702
750.2020, 3796.682
750.6841, 3763.784
751.1662, 3720.290
751.6483, 3689.998
752.1304, 3673.078
752.6125, 3676.829
753.0947, 3705.631
753.5768, 3740.240
754.0589, 3757.341
754.5410, 3762.915
755.0231, 3768.248
755.5052, 3776.663
755.9874, 3785.074
756.4695, 3792.338
756.9516, 3798.274
757.4337, 3802.781
757.9158, 3808.065
758.3979, 3808.473
758.8801, 3801.022
759.3622, 3790.122
759.8443, 3785.257
760.3264, 3787.041
760.8085, 3790.086
761.2906, 3792.523
761.7728, 3795.835
762.2549, 3802.785
762.7370, 3812.950
763.2191, 3824.760
763.7012, 3847.070
764.1833, 3861.950
764.6655, 3851.190
765.1476, 3820.642
765.6297, 3801.172
766.1118, 3803.249
766.5939, 3810.827
767.0760, 3820.342
767.5582, 3831.598
768.0403, 3844.438
768.5224, 3859.058
769.0045, 3872.054
769.4866, 3882.812
769.9688, 3889.999
770.4509, 3886.473
770.9330, 3873.553
771.4151, 3866.128
771.8972, 3880.048
772.3793, 3898.902
772.8615, 3912.138
773.3436, 3918.936
773.8257, 3918.113
774.3078, 3897.751
774.7899, 3882.137
775.2720, 3887.864
775.7542, 3919.735
776.2363, 3931.653
776.7184, 3919.454
777.2005, 3906.838
777.6826, 3921.264
778.1647, 3951.075
778.6469, 3966.122
779.1290, 3961.665
779.6111, 3955.207
780.0932, 3963.161
780.5753, 3972.759
781.0574, 3970.118
781.5396, 3941.489
782.0217, 3925.907
782.5038, 3928.321
782.9859, 3942.738
783.4680, 3968.698
783.9501, 4010.831
784.4323, 4029.902
784.9144, 4018.323
785.3965, 3996.370
785.8786, 3988.965
786.3607, 3991.549
786.8428, 3991.533
787.3250, 3982.321
787.8071, 3979.069
788.2892, 3996.419
788.7713, 4023.756
789.2534, 4047.420
789.7355, 4065.708
790.2177, 4077.692
790.6998, 4080.558
791.1819, 4078.999
791.6640, 4079.765
792.1461, 4082.699
792.6282, 4090.191
793.1104, 4105.328
793.5925, 4119.811
794.0746, 4116.593
794.5567, 4102.986
795.0388, 4097.040
795.5209, 4114.888
796.0031, 4131.699
796.4852, 4134.344
796.9672, 4127.378
797.4493, 4120.240
797.9315, 4106.688
798.4136, 4105.361
798.8957, 4123.890
799.3778, 4153.615
799.8599, 4170.811
800.3420, 4175.526
800.8242, 4181.213
801.3063, 4194.448
801.7884, 4209.181
802.2705, 4217.455
802.7526, 4219.943
803.2347, 4218.413
803.7169, 4206.633
804.1990, 4198.090
804.6811, 4202.616
805.1632, 4216.192
805.6453, 4219.229
806.1274, 4202.440
806.6096, 4194.904
807.0917, 4208.335
807.5738, 4235.477
808.0559, 4248.732
808.5380, 4249.587
809.0201, 4255.858
809.5023, 4288.852
809.9844, 4323.589
810.4665, 4325.386
810.9486, 4303.627
811.4307, 4294.873
811.9128, 4326.770
812.3950, 4359.901
812.8771, 4380.504
813.3592, 4389.960
813.8413, 4394.991
814.3234, 4393.399
814.8055, 4395.561
815.2877, 4408.992
815.7698, 4428.419
816.2519, 4438.018
816.7340, 4438.497
817.2161, 4433.680
817.6982, 4421.035
818.1804, 4408.051
818.6625, 4396.035
819.1446, 4386.854
819.6267, 4393.756
820.1088, 4446.754
820.5909, 4485.344
821.0731, 4482.614
821.5552, 4445.864
822.0373, 4444.463
822.5194, 4482.570
823.0015, 4516.311
823.4836, 4513.591
823.9658, 4492.615
824.4479, 4488.855
824.9300, 4499.975
825.4121, 4510.392
825.8942, 4509.348
826.3763, 4507.469
826.8585, 4509.329
827.3406, 4515.451
827.8227, 4528.551
828.3048, 4556.901
828.7869, 4575.982
829.2690, 4570.398
829.7512, 4545.949
830.2333, 4536.219
830.7154, 4540.641
831.1975, 4547.865
831.6796, 4551.241
832.1617, 4553.262
832.6439, 4555.819
833.1260, 4559.191
833.6081, 4564.549
834.0902, 4574.492
834.5723, 4584.529
835.0544, 4596.407
835.5366, 4608.959
836.0187, 4598.774
836.5008, 4558.661
836.9829, 4527.625
837.4650, 4534.312
837.9471, 4562.463
838.4293, 4565.969
838.9114, 4549.579
839.3935, 4545.250
839.8756, 4593.225
840.3577, 4641.097
840.8398, 4652.022
841.3220, 4626.722
841.8041, 4606.830
842.2862, 4594.585
842.7683, 4588.529
843.2504, 4587.806
843.7325, 4592.730
844.2147, 4611.909
844.6968, 4644.403
845.1789, 4663.802
845.6610, 4640.890
846.1431, 4605.271
846.6252, 4592.211
847.1074, 4598.494
847.5895, 4604.750
848.0716, 4600.100
848.5537, 4597.951
849.0358, 4607.350
849.5179, 4624.704
850.0001, 4626.369
850.4822, 4609.017
850.9643, 4591.763
851.4464, 4581.612
851.9285, 4578.098
852.4106, 4583.761
852.8928, 4596.195
853.3749, 4604.999
853.8570, 4599.592
854.3391, 4593.608
854.8212, 4596.108
855.3033, 4605.428
855.7855, 4612.190
856.2676, 4616.555
856.7497, 4616.653
857.2318, 4610.342
857.7139, 4600.129
858.1960, 4591.860
858.6782, 4585.898
859.1603, 4587.716
859.6424, 4606.004
860.1245, 4626.855
860.6066, 4634.623
861.0887, 4633.464
861.5709, 4633.975
862.0530, 4643.496
862.5351, 4650.257
863.0172, 4651.432
863.4993, 4648.335
863.9814, 4643.517
864.4636, 4636.714
864.9457, 4630.900
865.4278, 4626.107
865.9099, 4624.325
866.3920, 4631.430
866.8741, 4644.072
867.3563, 4654.587
867.8384, 4664.551
868.3205, 4666.523
868.8026, 4651.239
869.2847, 4627.623
869.7668, 4612.738
870.2490, 4610.405
870.7311, 4606.685
871.2132, 4597.609
871.6953, 4589.872
872.1774, 4601.669
872.6595, 4625.617
873.1417, 4631.586
873.6238, 4601.375
874.1059, 4574.791
874.5880, 4588.502
875.0701, 4620.931
875.5522, 4644.726
876.0344, 4653.326
876.5165, 4654.196
876.9986, 4644.454
877.4807, 4630.715
877.9628, 4620.118
878.4449, 4612.769
878.9271, 4608.364
879.4092, 4606.826
879.8913, 4608.866
880.3734, 4621.739
880.8555, 4635.649
881.3376, 4635.639
881.8198, 4608.652
882.3019, 4596.861
882.7840, 4618.881
883.2661, 4649.507
883.7482, 4673.149
884.2303, 4690.232
884.7125, 4694.756
885.1946, 4685.352
885.6767, 4671.603
886.1588, 4658.888
886.6409, 4649.381
887.1230, 4647.206
887.6052, 4653.063
888.0873, 4660.916
888.5694, 4670.840
889.0515, 4679.723
889.5336, 4686.377
890.0157, 4690.937
890.4979, 4689.021
890.9800, 4678.220
891.4621, 4670.839
891.9442, 4678.728
892.4263, 4694.861
892.9084, 4701.166
893.3906, 4698.586
893.8727, 4697.650
894.3548, 4707.589
894.8369, 4717.632
895.3190, 4720.552
895.8011, 4716.844
896.2833, 4716.354
896.7654, 4720.177
897.2475, 4725.429
897.7296, 4734.721
898.2117, 4742.472
898.6938, 4724.918
899.1760, 4688.399
899.6581, 4663.064
900.1402, 4673.100
900.6223, 4690.578
901.1044, 4697.271
901.5865, 4697.531
902.0687, 4703.582
902.5508, 4724.952
903.0329, 4735.911
903.5150, 4728.796
903.9971, 4712.975
904.4792, 4704.473
904.9614, 4703.502
905.4435, 4714.477
905.9256, 4746.625
906.4077, 4772.026
906.8898, 4754.875
907.3719, 4720.396
907.8540, 4703.162
908.3361, 4730.037
908.8182, 4747.007
909.3004, 4746.038
909.7825, 4742.688
910.2646, 4759.330
910.7467, 4793.495
911.2288, 4809.237
911.7109, 4800.854
912.1931, 4786.105
912.6752, 4778.291
913.1573, 4774.507
913.6394, 4770.809
914.1215, 4765.135
914.6036, 4766.846
915.0858, 4781.448
915.5679, 4798.863
916.0500, 4815.209
916.5321, 4830.363
917.0142, 4835.574
917.4963, 4830.719
917.9785, 4826.119
918.4606, 4828.556
918.9427, 4835.777
919.4248, 4844.906
919.9069, 4856.053
920.3890, 4872.027
920.8712, 4894.234
921.3533, 4921.496
921.8354, 4959.200
922.3175, 5000.796
922.7996, 5013.842
923.2817, 4997.616
923.7639, 4983.073
924.2460, 4979.231
924.7281, 4988.344
925.2102, 5023.733
925.6923, 5073.460
926.1744, 5110.714
926.6566, 5109.651
927.1387, 5116.119
927.6208, 5143.229
928.1029, 5179.204
928.5850, 5203.621
929.0671, 5215.610
929.5493, 5238.917
930.0314, 5279.436
930.5135, 5327.053
930.9956, 5373.938
931.4777, 5417.876
931.9598, 5450.571
932.4420, 5457.714
932.9241, 5490.055
933.4062, 5574.413
933.8883, 5675.150
934.3704, 5768.729
934.8525, 5852.641
935.3347, 5954.158
935.8168, 6073.966
936.2989, 6199.905
936.7810, 6311.109
937.2631, 6427.376
937.7452, 6574.659
938.2274, 6753.587
938.7095, 6939.808
939.1916, 7126.537
939.6737, 7318.224
940.1558, 7512.006
940.6379, 7709.474
941.1201, 7924.457
941.6022, 8156.014
942.0843, 8414.644
942.5664, 8717.649
943.0485, 9033.894
943.5306, 9309.466
944.0128, 9564.610
944.4949, 9847.087
944.9770, 10239.21
945.4591, 10573.54
945.9412, 10831.66
946.4233, 11010.59
946.9055, 11116.11
947.3876, 11147.98
947.8697, 11068.05
948.3518, 10865.41
948.8339, 10569.85
949.3160, 10184.42
949.7982, 9741.409
950.2803, 9267.202
950.7624, 8743.287
951.2445, 8261.095
951.7266, 7823.482
952.2087, 7436.986
952.6909, 7112.600
953.1730, 6849.788
953.6551, 6605.513
954.1372, 6381.556
954.6193, 6189.007
955.1014, 6046.357
955.5836, 5934.637
956.0657, 5844.741
956.5478, 5773.744
957.0299, 5701.267
957.5120, 5614.340
957.9941, 5541.884
958.4763, 5497.049
958.9584, 5469.856
959.4405, 5427.692
959.9226, 5373.935
960.4047, 5333.668
960.8868, 5325.495
961.3690, 5320.786
961.8511, 5292.532
962.3332, 5253.976
962.8153, 5226.008
963.2974, 5219.235
963.7795, 5210.239
964.2617, 5197.727
964.7438, 5183.286
965.2259, 5165.833
965.7080, 5147.919
966.1901, 5141.037
966.6722, 5147.003
967.1544, 5158.343
967.6365, 5174.689
968.1186, 5190.751
968.6007, 5203.973
969.0828, 5214.968
969.5649, 5210.846
970.0471, 5185.923
970.5292, 5162.094
971.0113, 5147.777
971.4934, 5143.873
971.9755, 5160.557
972.4576, 5191.596
972.9398, 5211.862
973.4219, 5200.266
973.9040, 5184.888
974.3861, 5176.376
974.8682, 5173.146
975.3503, 5170.114
975.8325, 5165.053
976.3146, 5172.701
976.7967, 5200.466
977.2788, 5226.333
977.7609, 5215.761
978.2430, 5184.191
978.7252, 5157.276
979.2073, 5138.301
979.6894, 5132.506
980.1715, 5151.795
980.6536, 5177.069
981.1357, 5196.533
981.6179, 5209.868
982.1000, 5226.299
982.5821, 5246.449
983.0642, 5262.254
983.5463, 5263.958
984.0284, 5261.136
984.5106, 5265.066
984.9927, 5274.558
985.4748, 5282.445
985.9569, 5285.405
986.4390, 5287.787
986.9211, 5288.180
987.4033, 5290.335
987.8854, 5305.858
988.3675, 5332.647
988.8496, 5354.562
989.3317, 5367.318
989.8138, 5373.819
990.2960, 5372.069
990.7781, 5367.661
991.2602, 5367.223
991.7423, 5372.402
992.2244, 5380.494
992.7065, 5393.148
993.1887, 5405.076
993.6708, 5405.380
994.1529, 5401.881
994.6350, 5428.315
995.1171, 5481.965
995.5992, 5526.616
996.0814, 5526.523
996.5635, 5525.193
997.0456, 5550.596
997.5277, 5595.453
998.0098, 5627.092
998.4919, 5643.173
998.9741, 5659.427
999.4562, 5682.324
999.9383, 5703.178
1000.420, 5702.693
1000.903, 5691.800
1001.385, 5693.056
1001.867, 5727.553
1002.349, 5744.023
1002.831, 5713.397
1003.313, 5675.796
1003.795, 5667.113
1004.277, 5688.687
1004.759, 5684.841
1005.242, 5653.643
1005.724, 5622.426
1006.206, 5618.250
1006.688, 5618.316
1007.170, 5601.787
1007.652, 5568.775
1008.134, 5530.076
1008.616, 5474.347
1009.099, 5438.139
1009.581, 5438.580
1010.063, 5455.026
1010.545, 5439.062
1011.027, 5398.255
1011.509, 5360.219
1011.991, 5333.201
1012.473, 5311.438
1012.955, 5295.277
1013.438, 5280.309
1013.920, 5260.434
1014.402, 5231.509
1014.884, 5215.298
1015.366, 5213.977
1015.848, 5213.789
1016.330, 5199.718
1016.812, 5181.470
1017.294, 5175.971
1017.777, 5182.065
1018.259, 5187.941
1018.741, 5190.959
1019.223, 5191.245
1019.705, 5188.330
1020.187, 5183.210
1020.669, 5176.149
1021.151, 5167.885
1021.633, 5168.631
1022.116, 5183.881
1022.598, 5200.420
1023.080, 5208.992
1023.562, 5210.820
1024.044, 5206.625
1024.526, 5193.767
1025.008, 5180.956
1025.490, 5166.038
1025.973, 5156.208
1026.455, 5161.727
1026.937, 5175.289
1027.419, 5173.244
1027.901, 5158.597
1028.383, 5151.009
1028.865, 5167.248
1029.347, 5184.739
1029.829, 5200.044
1030.312, 5208.693
1030.794, 5195.399
1031.276, 5157.792
1031.758, 5138.870
1032.240, 5151.365
1032.722, 5168.938
1033.204, 5156.723
1033.686, 5136.480
1034.169, 5137.046
1034.651, 5171.012
1035.133, 5191.461
1035.615, 5189.356
1036.097, 5183.702
1036.579, 5185.583
1037.061, 5191.944
1037.543, 5186.776
1038.026, 5173.569
1038.508, 5170.236
1038.990, 5205.606
1039.472, 5231.528
1039.954, 5213.723
1040.436, 5176.535
1040.918, 5163.301
1041.400, 5179.263
1041.882, 5190.464
1042.365, 5192.842
1042.847, 5192.578
1043.329, 5195.965
1043.811, 5200.874
1044.293, 5206.729
1044.775, 5214.008
1045.257, 5210.553
1045.739, 5183.846
1046.221, 5162.384
1046.704, 5157.443
1047.186, 5165.486
1047.668, 5178.253
1048.150, 5194.434
1048.632, 5208.104
1049.114, 5220.166
1049.596, 5223.865
1050.078, 5202.839
1050.561, 5178.293
1051.043, 5177.282
1051.525, 5206.196
1052.007, 5234.514
1052.489, 5262.972
1052.971, 5280.533
1053.453, 5266.480
1053.935, 5242.547
1054.417, 5237.853
1054.900, 5251.290
1055.382, 5265.435
1055.864, 5283.426
1056.346, 5289.616
1056.828, 5275.684
1057.310, 5253.248
1057.792, 5247.160
1058.274, 5253.970
1058.756, 5260.356
1059.239, 5263.681
1059.721, 5264.457
1060.203, 5260.004
1060.685, 5255.722
1061.167, 5257.620
1061.649, 5266.949
1062.131, 5263.163
1062.613, 5244.539
1063.096, 5233.850
1063.578, 5255.935
1064.060, 5284.933
1064.542, 5288.537
1065.024, 5273.765
1065.506, 5257.659
1065.988, 5229.742
1066.470, 5226.354
1066.953, 5261.175
1067.435, 5302.000
1067.917, 5305.220
1068.399, 5281.146
1068.881, 5258.012
1069.363, 5238.922
1069.845, 5232.060
1070.327, 5253.446
1070.809, 5276.770
1071.292, 5288.194
1071.774, 5289.995
1072.256, 5292.364
1072.738, 5295.177
1073.220, 5303.408
1073.702, 5322.051
1074.184, 5338.944
1074.666, 5338.445
1075.148, 5330.233
1075.630, 5327.199
1076.113, 5336.642
1076.595, 5336.101
1077.077, 5321.265
1077.559, 5309.956
1078.041, 5318.045
1078.523, 5337.864
1079.005, 5355.810
1079.487, 5370.773
1079.970, 5379.204
1080.452, 5373.597
1080.934, 5368.692
1081.416, 5367.472
1081.898, 5368.961
1082.380, 5368.493
1082.862, 5367.589
1083.344, 5387.203
1083.827, 5431.572
1084.309, 5469.055
1084.791, 5460.119
1085.273, 5447.354
1085.755, 5468.877
1086.237, 5521.432
1086.719, 5554.299
1087.201, 5564.345
1087.683, 5574.082
1088.166, 5589.411
1088.648, 5612.057
1089.130, 5646.386
1089.612, 5688.987
1090.094, 5735.053
1090.576, 5787.298
1091.058, 5834.134
1091.540, 5871.851
1092.022, 5909.456
1092.505, 5953.583
1092.987, 6002.613
1093.469, 6049.332
1093.951, 6094.925
1094.433, 6147.761
1094.915, 6217.543
1095.397, 6287.677
1095.879, 6358.217
1096.362, 6422.015
1096.844, 6468.810
1097.326, 6498.389
1097.808, 6515.731
1098.290, 6521.635
1098.772, 6512.604
1099.254, 6484.538
1099.736, 6441.665
1100.219, 6387.695
1100.701, 6321.499
1101.183, 6234.213
1101.665, 6119.939
1102.147, 6008.999
1102.629, 5909.235
1103.111, 5825.354
1103.593, 5772.213
1104.075, 5737.408
1104.557, 5700.216
1105.040, 5651.360
1105.522, 5617.327
1106.004, 5603.271
1106.486, 5596.894
1106.968, 5594.872
1107.450, 5593.415
1107.932, 5575.240
1108.414, 5545.908
1108.897, 5525.230
1109.379, 5536.298
1109.861, 5539.978
1110.343, 5517.505
1110.825, 5489.099
1111.307, 5478.217
1111.789, 5483.773
1112.271, 5483.616
1112.754, 5476.221
1113.236, 5468.209
1113.718, 5459.692
1114.200, 5456.055
1114.682, 5467.402
1115.164, 5486.877
1115.646, 5486.583
1116.128, 5462.716
1116.610, 5446.198
1117.093, 5444.700
1117.575, 5447.557
1118.057, 5441.539
1118.539, 5433.893
1119.021, 5434.130
1119.503, 5445.212
1119.985, 5452.092
1120.467, 5453.954
1120.949, 5452.252
1121.432, 5444.325
1121.914, 5437.370
1122.396, 5452.100
1122.878, 5477.601
1123.360, 5489.036
1123.842, 5464.771
1124.324, 5454.272
1124.806, 5473.150
1125.289, 5493.853
1125.771, 5492.074
1126.253, 5473.449
1126.735, 5463.953
1127.217, 5464.198
1127.699, 5477.543
1128.181, 5526.419
1128.663, 5563.951
1129.146, 5567.289
1129.628, 5551.244
1130.110, 5527.336
1130.592, 5496.213
1131.074, 5495.081
1131.556, 5528.409
1132.038, 5562.468
1132.520, 5576.592
1133.002, 5577.699
1133.484, 5564.346
1133.967, 5541.692
1134.449, 5530.574
1134.931, 5531.663
1135.413, 5541.894
1135.895, 5563.665
1136.377, 5583.007
1136.859, 5583.748
1137.341, 5574.202
1137.824, 5560.620
1138.306, 5541.672
1138.788, 5539.126
1139.270, 5559.580
1139.752, 5573.083
1140.234, 5562.931
1140.716, 5542.939
1141.198, 5535.863
1141.681, 5536.872
1142.163, 5536.758
1142.645, 5528.983
1143.127, 5530.121
1143.609, 5546.805
1144.091, 5562.050
1144.573, 5562.214
1145.055, 5552.165
1145.537, 5547.148
1146.020, 5545.514
1146.502, 5540.563
1146.984, 5523.802
1147.466, 5511.270
1147.948, 5507.734
1148.430, 5507.866
1148.912, 5504.479
1149.394, 5498.817
1149.876, 5498.658
1150.359, 5504.256
1150.841, 5514.119
1151.323, 5537.649
1151.805, 5553.007
1152.287, 5540.604
1152.769, 5517.906
1153.251, 5524.784
1153.733, 5559.769
1154.216, 5588.932
1154.698, 5607.579
1155.180, 5613.352
1155.662, 5593.446
1156.144, 5569.367
1156.626, 5555.257
1157.108, 5551.321
1157.590, 5562.905
1158.073, 5591.140
1158.555, 5613.420
1159.037, 5622.640
1159.519, 5623.585
1160.001, 5615.833
1160.483, 5605.416
1160.965, 5598.872
1161.447, 5596.925
1161.929, 5598.127
1162.411, 5603.667
1162.894, 5604.594
1163.376, 5593.852
1163.858, 5579.738
1164.340, 5569.499
1164.822, 5564.584
1165.304, 5567.977
1165.786, 5589.902
1166.268, 5597.203
1166.751, 5586.499
1167.233, 5573.473
1167.715, 5567.085
1168.197, 5567.087
1168.679, 5578.467
1169.161, 5595.837
1169.643, 5603.853
1170.125, 5582.352
1170.608, 5577.760
1171.090, 5598.292
1171.572, 5623.636
1172.054, 5632.035
1172.536, 5629.391
1173.018, 5623.873
1173.500, 5617.533
1173.982, 5619.759
1174.464, 5643.202
1174.947, 5663.813
1175.429, 5679.231
1175.911, 5686.911
1176.393, 5677.092
1176.875, 5657.579
1177.357, 5649.317
1177.839, 5655.057
1178.321, 5662.705
1178.803, 5673.564
1179.286, 5676.595
1179.768, 5662.846
1180.250, 5644.614
1180.732, 5656.986
1181.214, 5689.218
1181.696, 5702.998
1182.178, 5685.360
1182.660, 5672.064
1183.142, 5686.122
1183.625, 5701.299
1184.107, 5702.875
1184.589, 5696.530
1185.071, 5710.517
1185.553, 5738.609
1186.035, 5749.454
1186.517, 5723.563
1186.999, 5701.782
1187.482, 5712.527
1187.964, 5726.278
1188.446, 5720.738
1188.928, 5698.953
1189.410, 5691.039
1189.892, 5695.895
1190.374, 5705.506
1190.856, 5723.794
1191.339, 5734.954
1191.821, 5722.011
1192.303, 5704.842
1192.785, 5704.760
1193.267, 5722.303
1193.749, 5721.983
1194.231, 5705.215
1194.713, 5692.446
1195.195, 5704.813
1195.677, 5714.685
1196.160, 5694.711
1196.642, 5670.345
1197.124, 5683.022
1197.606, 5734.834
1198.088, 5750.828
1198.570, 5728.097
1199.052, 5708.352
1199.534, 5733.291
1200.017, 5757.990
1200.499, 5748.205
1200.981, 5720.197
1201.463, 5708.199
1201.945, 5712.903
1202.427, 5709.744
1202.909, 5695.731
1203.391, 5681.278
1203.874, 5663.414
1204.356, 5658.646
1204.838, 5694.094
1205.320, 5750.079
1205.802, 5766.752
1206.284, 5742.450
1206.766, 5735.477
1207.248, 5758.168
1207.730, 5783.153
1208.213, 5789.419
1208.695, 5787.154
1209.177, 5781.982
1209.659, 5775.335
1210.141, 5770.593
1210.623, 5767.651
1211.105, 5772.938
1211.587, 5790.735
1212.069, 5805.480
1212.552, 5796.471
1213.034, 5783.378
1213.516, 5784.755
1213.998, 5798.912
1214.480, 5811.942
1214.962, 5824.095
1215.444, 5824.896
1215.926, 5806.939
1216.409, 5788.256
1216.891, 5783.699
1217.373, 5786.478
1217.855, 5789.316
1218.337, 5792.002
1218.819, 5810.862
1219.301, 5845.942
1219.783, 5855.760
1220.266, 5805.537
1220.748, 5758.018
1221.230, 5775.695
1221.712, 5814.203
1222.194, 5824.513
1222.676, 5803.828
1223.158, 5790.467
1223.640, 5784.344
1224.122, 5784.881
1224.604, 5794.859
1225.087, 5807.143
1225.569, 5819.249
1226.051, 5829.016
1226.533, 5833.176
1227.015, 5830.679
1227.497, 5837.503
1227.979, 5853.092
1228.461, 5858.738
1228.944, 5828.663
1229.426, 5800.925
1229.908, 5802.186
1230.390, 5818.219
1230.872, 5830.811
1231.354, 5840.110
1231.836, 5844.472
1232.318, 5843.982
1232.801, 5841.600
1233.283, 5835.744
1233.765, 5832.204
1234.247, 5836.306
1234.729, 5843.479
1235.211, 5847.331
1235.693, 5847.861
1236.175, 5850.366
1236.657, 5854.999
1237.140, 5861.083
1237.622, 5867.679
1238.104, 5876.289
1238.586, 5897.198
1239.068, 5914.643
1239.550, 5897.436
1240.032, 5850.684
1240.514, 5836.048
1240.996, 5856.982
1241.479, 5880.585
1241.961, 5890.292
1242.443, 5893.740
1242.925, 5891.308
1243.407, 5887.094
1243.889, 5885.135
1244.371, 5886.538
1244.853, 5902.851
1245.336, 5934.079
1245.818, 5957.051
1246.300, 5953.603
1246.782, 5944.850
1247.264, 5936.382
1247.746, 5929.699
1248.228, 5928.453
1248.710, 5931.339
1249.193, 5933.275
1249.675, 5933.827
1250.157, 5935.307
1250.639, 5940.727
1251.121, 5945.006
1251.603, 5945.727
1252.085, 5946.263
1252.567, 5957.535
1253.049, 5972.257
1253.531, 5968.681
1254.014, 5943.207
1254.496, 5926.022
1254.978, 5932.489
1255.460, 5938.954
1255.942, 5938.920
1256.424, 5936.257
1256.906, 5934.919
1257.388, 5936.793
1257.871, 5949.023
1258.353, 5973.715
1258.835, 5986.161
1259.317, 5980.504
1259.799, 5967.541
1260.281, 5946.870
1260.763, 5928.668
1261.245, 5937.712
1261.728, 5955.225
1262.210, 5948.589
1262.692, 5910.548
1263.174, 5894.193
1263.656, 5906.237
1264.138, 5925.268
1264.620, 5948.248
1265.102, 5966.057
1265.584, 5960.406
1266.067, 5946.219
1266.549, 5941.482
1267.031, 5948.683
1267.513, 5958.853
1267.995, 5971.865
1268.477, 5988.130
1268.959, 6009.822
1269.441, 6028.282
1269.923, 6036.681
1270.406, 6035.218
1270.888, 6014.887
1271.370, 5978.834
1271.852, 5986.103
1272.334, 6037.140
1272.816, 6071.429
1273.298, 6066.566
1273.780, 6048.875
1274.263, 6034.387
1274.745, 6020.454
1275.227, 6002.352
1275.709, 5982.698
1276.191, 5982.169
1276.673, 5999.050
1277.155, 6021.116
1277.637, 6049.719
##END=



