##NAMES=Hodgkinsonite
##RRUFFID=R140280
##IDEAL CHEMISTRY=Zn^2+^_2_Mn^2+^SiO_4_(OH)_2_
##LOCALITY=Parker Shaft, Franklin mine, Franklin, Franklin Mining District, Sussex County, New Jersey, USA
##OWNER=RRUFF
##SOURCE=Marcus Origlieri
##DESCRIPTION=Pinkish striated subhedral crystals, associated with franklinite and calcite
##STATUS=The identification of this mineral has been confirmed by single-crystal X-ray diffraction.
##URL=rruff.info/R140280
8.930109e+001, 0.000000e+000
8.978320e+001, 7.876989e+003
9.026532e+001, 7.824660e+003
9.074744e+001, 7.826162e+003
9.122955e+001, 7.905076e+003
9.171167e+001, 8.013121e+003
9.219379e+001, 8.087739e+003
9.267590e+001, 8.136504e+003
9.315802e+001, 8.173076e+003
9.364014e+001, 8.202044e+003
9.412225e+001, 8.227384e+003
9.460437e+001, 8.256709e+003
9.508649e+001, 8.294660e+003
9.556860e+001, 8.333733e+003
9.605072e+001, 8.363013e+003
9.653284e+001, 8.388523e+003
9.701495e+001, 8.417741e+003
9.749707e+001, 8.454076e+003
9.797919e+001, 8.496994e+003
9.846130e+001, 8.550164e+003
9.894342e+001, 8.614239e+003
9.942554e+001, 8.689143e+003
9.990765e+001, 8.779804e+003
1.003898e+002, 8.895324e+003
1.008719e+002, 9.010174e+003
1.013540e+002, 9.084642e+003
1.018361e+002, 9.111844e+003
1.023182e+002, 9.131092e+003
1.028004e+002, 9.153575e+003
1.032825e+002, 9.174592e+003
1.037646e+002, 9.217587e+003
1.042467e+002, 9.285565e+003
1.047288e+002, 9.372865e+003
1.052109e+002, 9.466582e+003
1.056931e+002, 9.568228e+003
1.061752e+002, 9.675751e+003
1.066573e+002, 9.790729e+003
1.071394e+002, 9.922225e+003
1.076215e+002, 1.004597e+004
1.081036e+002, 1.016208e+004
1.085858e+002, 1.027104e+004
1.090679e+002, 1.037223e+004
1.095500e+002, 1.046090e+004
1.100321e+002, 1.054668e+004
1.105142e+002, 1.063411e+004
1.109963e+002, 1.073192e+004
1.114785e+002, 1.082262e+004
1.119606e+002, 1.090241e+004
1.124427e+002, 1.097190e+004
1.129248e+002, 1.103998e+004
1.134069e+002, 1.111185e+004
1.138890e+002, 1.118097e+004
1.143712e+002, 1.124293e+004
1.148533e+002, 1.129931e+004
1.153354e+002, 1.134596e+004
1.158175e+002, 1.138017e+004
1.162996e+002, 1.140192e+004
1.167817e+002, 1.141823e+004
1.172639e+002, 1.142851e+004
1.177460e+002, 1.143588e+004
1.182281e+002, 1.144426e+004
1.187102e+002, 1.145481e+004
1.191923e+002, 1.146682e+004
1.196744e+002, 1.147892e+004
1.201566e+002, 1.149008e+004
1.206387e+002, 1.150454e+004
1.211208e+002, 1.152202e+004
1.216029e+002, 1.154412e+004
1.220850e+002, 1.157420e+004
1.225671e+002, 1.162025e+004
1.230493e+002, 1.167189e+004
1.235314e+002, 1.172318e+004
1.240135e+002, 1.178006e+004
1.244956e+002, 1.181823e+004
1.249777e+002, 1.180773e+004
1.254598e+002, 1.175564e+004
1.259420e+002, 1.168911e+004
1.264241e+002, 1.161356e+004
1.269062e+002, 1.153666e+004
1.273883e+002, 1.147302e+004
1.278704e+002, 1.142737e+004
1.283525e+002, 1.139379e+004
1.288347e+002, 1.136423e+004
1.293168e+002, 1.133864e+004
1.297989e+002, 1.131859e+004
1.302810e+002, 1.130783e+004
1.307631e+002, 1.130438e+004
1.312452e+002, 1.129986e+004
1.317274e+002, 1.129262e+004
1.322095e+002, 1.128288e+004
1.326916e+002, 1.126895e+004
1.331737e+002, 1.124985e+004
1.336558e+002, 1.123378e+004
1.341379e+002, 1.122929e+004
1.346201e+002, 1.123633e+004
1.351022e+002, 1.124684e+004
1.355843e+002, 1.125812e+004
1.360664e+002, 1.127073e+004
1.365485e+002, 1.129030e+004
1.370306e+002, 1.131993e+004
1.375128e+002, 1.134934e+004
1.379949e+002, 1.136673e+004
1.384770e+002, 1.137096e+004
1.389591e+002, 1.136853e+004
1.394412e+002, 1.136135e+004
1.399233e+002, 1.134945e+004
1.404055e+002, 1.133162e+004
1.408876e+002, 1.130772e+004
1.413697e+002, 1.127742e+004
1.418518e+002, 1.123900e+004
1.423339e+002, 1.118924e+004
1.428160e+002, 1.113857e+004
1.432982e+002, 1.108977e+004
1.437803e+002, 1.104212e+004
1.442624e+002, 1.099996e+004
1.447445e+002, 1.096403e+004
1.452266e+002, 1.093345e+004
1.457087e+002, 1.090787e+004
1.461909e+002, 1.088867e+004
1.466730e+002, 1.087238e+004
1.471551e+002, 1.085802e+004
1.476372e+002, 1.085002e+004
1.481193e+002, 1.083686e+004
1.486014e+002, 1.081482e+004
1.490836e+002, 1.078728e+004
1.495657e+002, 1.076478e+004
1.500478e+002, 1.074836e+004
1.505299e+002, 1.073668e+004
1.510120e+002, 1.072912e+004
1.514941e+002, 1.072754e+004
1.519763e+002, 1.072774e+004
1.524584e+002, 1.073262e+004
1.529405e+002, 1.074027e+004
1.534226e+002, 1.074149e+004
1.539047e+002, 1.072638e+004
1.543868e+002, 1.071050e+004
1.548690e+002, 1.070230e+004
1.553511e+002, 1.071186e+004
1.558332e+002, 1.071932e+004
1.563153e+002, 1.071879e+004
1.567974e+002, 1.071171e+004
1.572795e+002, 1.070981e+004
1.577617e+002, 1.071864e+004
1.582438e+002, 1.073214e+004
1.587259e+002, 1.074599e+004
1.592080e+002, 1.075740e+004
1.596901e+002, 1.077105e+004
1.601722e+002, 1.078783e+004
1.606544e+002, 1.080789e+004
1.611365e+002, 1.083236e+004
1.616186e+002, 1.086288e+004
1.621007e+002, 1.089724e+004
1.625828e+002, 1.093415e+004
1.630649e+002, 1.097278e+004
1.635471e+002, 1.101366e+004
1.640292e+002, 1.105950e+004
1.645113e+002, 1.111028e+004
1.649934e+002, 1.115615e+004
1.654755e+002, 1.118831e+004
1.659576e+002, 1.121369e+004
1.664398e+002, 1.124050e+004
1.669219e+002, 1.126928e+004
1.674040e+002, 1.130260e+004
1.678861e+002, 1.134287e+004
1.683682e+002, 1.139061e+004
1.688503e+002, 1.144051e+004
1.693325e+002, 1.150707e+004
1.698146e+002, 1.157190e+004
1.702967e+002, 1.160454e+004
1.707788e+002, 1.159215e+004
1.712609e+002, 1.154212e+004
1.717430e+002, 1.145130e+004
1.722252e+002, 1.131536e+004
1.727073e+002, 1.117488e+004
1.731894e+002, 1.105467e+004
1.736715e+002, 1.095301e+004
1.741536e+002, 1.086963e+004
1.746357e+002, 1.080540e+004
1.751179e+002, 1.075681e+004
1.756000e+002, 1.072080e+004
1.760821e+002, 1.069815e+004
1.765642e+002, 1.068430e+004
1.770463e+002, 1.068217e+004
1.775284e+002, 1.068699e+004
1.780106e+002, 1.068432e+004
1.784927e+002, 1.066440e+004
1.789748e+002, 1.063244e+004
1.794569e+002, 1.059607e+004
1.799390e+002, 1.055447e+004
1.804211e+002, 1.051336e+004
1.809033e+002, 1.047738e+004
1.813854e+002, 1.044661e+004
1.818675e+002, 1.042190e+004
1.823496e+002, 1.040196e+004
1.828317e+002, 1.038847e+004
1.833138e+002, 1.038587e+004
1.837960e+002, 1.039648e+004
1.842781e+002, 1.041287e+004
1.847602e+002, 1.042888e+004
1.852423e+002, 1.044361e+004
1.857244e+002, 1.044857e+004
1.862065e+002, 1.043443e+004
1.866887e+002, 1.040533e+004
1.871708e+002, 1.037600e+004
1.876529e+002, 1.034696e+004
1.881350e+002, 1.032028e+004
1.886171e+002, 1.030025e+004
1.890992e+002, 1.028661e+004
1.895814e+002, 1.027718e+004
1.900635e+002, 1.027072e+004
1.905456e+002, 1.026725e+004
1.910277e+002, 1.026773e+004
1.915098e+002, 1.027306e+004
1.919919e+002, 1.028123e+004
1.924741e+002, 1.028793e+004
1.929562e+002, 1.029306e+004
1.934383e+002, 1.029870e+004
1.939204e+002, 1.030522e+004
1.944025e+002, 1.031277e+004
1.948846e+002, 1.032407e+004
1.953668e+002, 1.033913e+004
1.958489e+002, 1.035840e+004
1.963310e+002, 1.038412e+004
1.968131e+002, 1.041680e+004
1.972952e+002, 1.045150e+004
1.977773e+002, 1.048299e+004
1.982595e+002, 1.051079e+004
1.987416e+002, 1.054831e+004
1.992237e+002, 1.059677e+004
1.997058e+002, 1.065579e+004
2.001879e+002, 1.072346e+004
2.006700e+002, 1.080033e+004
2.011522e+002, 1.088680e+004
2.016343e+002, 1.098661e+004
2.021164e+002, 1.110145e+004
2.025985e+002, 1.121408e+004
2.030806e+002, 1.132317e+004
2.035627e+002, 1.142731e+004
2.040449e+002, 1.152668e+004
2.045270e+002, 1.162884e+004
2.050091e+002, 1.170112e+004
2.054912e+002, 1.172335e+004
2.059733e+002, 1.169519e+004
2.064554e+002, 1.161590e+004
2.069376e+002, 1.147638e+004
2.074197e+002, 1.128849e+004
2.079018e+002, 1.108567e+004
2.083839e+002, 1.086000e+004
2.088660e+002, 1.063888e+004
2.093481e+002, 1.044113e+004
2.098303e+002, 1.026531e+004
2.103124e+002, 1.011525e+004
2.107945e+002, 9.993550e+003
2.112766e+002, 9.898231e+003
2.117587e+002, 9.817691e+003
2.122408e+002, 9.754005e+003
2.127230e+002, 9.700600e+003
2.132051e+002, 9.652916e+003
2.136872e+002, 9.610944e+003
2.141693e+002, 9.574420e+003
2.146514e+002, 9.544270e+003
2.151335e+002, 9.519337e+003
2.156157e+002, 9.496254e+003
2.160978e+002, 9.474718e+003
2.165799e+002, 9.454676e+003
2.170620e+002, 9.436027e+003
2.175441e+002, 9.419021e+003
2.180262e+002, 9.402014e+003
2.185084e+002, 9.384099e+003
2.189905e+002, 9.365770e+003
2.194726e+002, 9.350891e+003
2.199547e+002, 9.341081e+003
2.204368e+002, 9.331769e+003
2.209189e+002, 9.319927e+003
2.214011e+002, 9.304016e+003
2.218832e+002, 9.289819e+003
2.223653e+002, 9.277632e+003
2.228474e+002, 9.267674e+003
2.233295e+002, 9.260762e+003
2.238116e+002, 9.259724e+003
2.242938e+002, 9.257681e+003
2.247759e+002, 9.249702e+003
2.252580e+002, 9.232020e+003
2.257401e+002, 9.217486e+003
2.262222e+002, 9.206913e+003
2.267043e+002, 9.200022e+003
2.271865e+002, 9.195979e+003
2.276686e+002, 9.196890e+003
2.281507e+002, 9.197455e+003
2.286328e+002, 9.194716e+003
2.291149e+002, 9.188103e+003
2.295970e+002, 9.179243e+003
2.300792e+002, 9.166679e+003
2.305613e+002, 9.152012e+003
2.310434e+002, 9.141814e+003
2.315255e+002, 9.137217e+003
2.320076e+002, 9.135899e+003
2.324897e+002, 9.137424e+003
2.329719e+002, 9.144607e+003
2.334540e+002, 9.148514e+003
2.339361e+002, 9.147334e+003
2.344182e+002, 9.142892e+003
2.349003e+002, 9.141513e+003
2.353824e+002, 9.144740e+003
2.358646e+002, 9.148832e+003
2.363467e+002, 9.151943e+003
2.368288e+002, 9.153611e+003
2.373109e+002, 9.154976e+003
2.377930e+002, 9.155601e+003
2.382751e+002, 9.155796e+003
2.387573e+002, 9.156706e+003
2.392394e+002, 9.158399e+003
2.397215e+002, 9.160299e+003
2.402036e+002, 9.162123e+003
2.406857e+002, 9.163801e+003
2.411678e+002, 9.165424e+003
2.416500e+002, 9.168450e+003
2.421321e+002, 9.170905e+003
2.426142e+002, 9.167085e+003
2.430963e+002, 9.152564e+003
2.435784e+002, 9.138295e+003
2.440605e+002, 9.129310e+003
2.445427e+002, 9.128154e+003
2.450248e+002, 9.125618e+003
2.455069e+002, 9.120651e+003
2.459890e+002, 9.114843e+003
2.464711e+002, 9.112140e+003
2.469532e+002, 9.115372e+003
2.474354e+002, 9.117250e+003
2.479175e+002, 9.114325e+003
2.483996e+002, 9.103989e+003
2.488817e+002, 9.097744e+003
2.493638e+002, 9.096241e+003
2.498459e+002, 9.098673e+003
2.503281e+002, 9.103777e+003
2.508102e+002, 9.112878e+003
2.512923e+002, 9.122661e+003
2.517744e+002, 9.131924e+003
2.522565e+002, 9.140009e+003
2.527386e+002, 9.150351e+003
2.532208e+002, 9.163625e+003
2.537029e+002, 9.178676e+003
2.541850e+002, 9.194017e+003
2.546671e+002, 9.209765e+003
2.551492e+002, 9.225332e+003
2.556313e+002, 9.239761e+003
2.561135e+002, 9.252186e+003
2.565956e+002, 9.268223e+003
2.570777e+002, 9.289333e+003
2.575598e+002, 9.312090e+003
2.580419e+002, 9.332443e+003
2.585240e+002, 9.351063e+003
2.590062e+002, 9.364844e+003
2.594883e+002, 9.372131e+003
2.599704e+002, 9.372410e+003
2.604525e+002, 9.371544e+003
2.609346e+002, 9.368572e+003
2.614167e+002, 9.365713e+003
2.618989e+002, 9.365455e+003
2.623810e+002, 9.368000e+003
2.628631e+002, 9.372951e+003
2.633452e+002, 9.379957e+003
2.638273e+002, 9.389280e+003
2.643094e+002, 9.403277e+003
2.647916e+002, 9.423308e+003
2.652737e+002, 9.446584e+003
2.657558e+002, 9.471344e+003
2.662379e+002, 9.498312e+003
2.667200e+002, 9.524476e+003
2.672021e+002, 9.550792e+003
2.676843e+002, 9.576466e+003
2.681664e+002, 9.594505e+003
2.686485e+002, 9.603646e+003
2.691306e+002, 9.607561e+003
2.696127e+002, 9.609106e+003
2.700948e+002, 9.608453e+003
2.705770e+002, 9.603779e+003
2.710591e+002, 9.593775e+003
2.715412e+002, 9.579390e+003
2.720233e+002, 9.565229e+003
2.725054e+002, 9.551585e+003
2.729875e+002, 9.537509e+003
2.734697e+002, 9.521549e+003
2.739518e+002, 9.502753e+003
2.744339e+002, 9.487232e+003
2.749160e+002, 9.475970e+003
2.753981e+002, 9.468362e+003
2.758802e+002, 9.461426e+003
2.763624e+002, 9.454207e+003
2.768445e+002, 9.452225e+003
2.773266e+002, 9.460851e+003
2.778087e+002, 9.480937e+003
2.782908e+002, 9.499627e+003
2.787729e+002, 9.515391e+003
2.792551e+002, 9.529950e+003
2.797372e+002, 9.548304e+003
2.802193e+002, 9.571718e+003
2.807014e+002, 9.591311e+003
2.811835e+002, 9.602890e+003
2.816656e+002, 9.606497e+003
2.821478e+002, 9.603825e+003
2.826299e+002, 9.594860e+003
2.831120e+002, 9.579802e+003
2.835941e+002, 9.559769e+003
2.840762e+002, 9.534780e+003
2.845583e+002, 9.501603e+003
2.850405e+002, 9.455301e+003
2.855226e+002, 9.397420e+003
2.860047e+002, 9.342514e+003
2.864868e+002, 9.291222e+003
2.869689e+002, 9.240970e+003
2.874510e+002, 9.186471e+003
2.879332e+002, 9.128108e+003
2.884153e+002, 9.073986e+003
2.888974e+002, 9.029657e+003
2.893795e+002, 8.992672e+003
2.898616e+002, 8.955458e+003
2.903438e+002, 8.917779e+003
2.908259e+002, 8.881350e+003
2.913080e+002, 8.849101e+003
2.917901e+002, 8.820489e+003
2.922722e+002, 8.790104e+003
2.927543e+002, 8.754188e+003
2.932365e+002, 8.716608e+003
2.937186e+002, 8.687689e+003
2.942007e+002, 8.667780e+003
2.946828e+002, 8.650549e+003
2.951649e+002, 8.629854e+003
2.956470e+002, 8.607310e+003
2.961292e+002, 8.587649e+003
2.966113e+002, 8.573021e+003
2.970934e+002, 8.561224e+003
2.975755e+002, 8.549259e+003
2.980576e+002, 8.537042e+003
2.985397e+002, 8.524166e+003
2.990219e+002, 8.507898e+003
2.995040e+002, 8.490811e+003
2.999861e+002, 8.479240e+003
3.004682e+002, 8.476018e+003
3.009503e+002, 8.475577e+003
3.014324e+002, 8.471677e+003
3.019146e+002, 8.464910e+003
3.023967e+002, 8.457375e+003
3.028788e+002, 8.448271e+003
3.033609e+002, 8.439950e+003
3.038430e+002, 8.436533e+003
3.043251e+002, 8.439364e+003
3.048073e+002, 8.444051e+003
3.052894e+002, 8.445674e+003
3.057715e+002, 8.445814e+003
3.062536e+002, 8.448452e+003
3.067357e+002, 8.455211e+003
3.072178e+002, 8.465492e+003
3.077000e+002, 8.479741e+003
3.081821e+002, 8.498312e+003
3.086642e+002, 8.516357e+003
3.091463e+002, 8.529743e+003
3.096284e+002, 8.540165e+003
3.101105e+002, 8.550521e+003
3.105927e+002, 8.561254e+003
3.110748e+002, 8.572670e+003
3.115569e+002, 8.585901e+003
3.120390e+002, 8.600926e+003
3.125211e+002, 8.614709e+003
3.130032e+002, 8.622833e+003
3.134854e+002, 8.630135e+003
3.139675e+002, 8.641661e+003
3.144496e+002, 8.663176e+003
3.149317e+002, 8.685780e+003
3.154138e+002, 8.704199e+003
3.158959e+002, 8.719522e+003
3.163781e+002, 8.738505e+003
3.168602e+002, 8.765123e+003
3.173423e+002, 8.795854e+003
3.178244e+002, 8.828014e+003
3.183065e+002, 8.859720e+003
3.187886e+002, 8.894639e+003
3.192708e+002, 8.931819e+003
3.197529e+002, 8.972640e+003
3.202350e+002, 9.021204e+003
3.207171e+002, 9.082732e+003
3.211992e+002, 9.148590e+003
3.216813e+002, 9.214726e+003
3.221635e+002, 9.280878e+003
3.226456e+002, 9.346332e+003
3.231277e+002, 9.412700e+003
3.236098e+002, 9.477863e+003
3.240919e+002, 9.538595e+003
3.245740e+002, 9.603744e+003
3.250562e+002, 9.654917e+003
3.255383e+002, 9.688681e+003
3.260204e+002, 9.707222e+003
3.265025e+002, 9.698548e+003
3.269846e+002, 9.653587e+003
3.274667e+002, 9.584614e+003
3.279489e+002, 9.504072e+003
3.284310e+002, 9.405451e+003
3.289131e+002, 9.302932e+003
3.293952e+002, 9.194301e+003
3.298773e+002, 9.079217e+003
3.303594e+002, 8.975089e+003
3.308416e+002, 8.884366e+003
3.313237e+002, 8.803681e+003
3.318058e+002, 8.730992e+003
3.322879e+002, 8.665633e+003
3.327700e+002, 8.609229e+003
3.332521e+002, 8.562935e+003
3.337343e+002, 8.525261e+003
3.342164e+002, 8.489274e+003
3.346985e+002, 8.455604e+003
3.351806e+002, 8.423052e+003
3.356627e+002, 8.390368e+003
3.361448e+002, 8.356213e+003
3.366270e+002, 8.326799e+003
3.371091e+002, 8.303069e+003
3.375912e+002, 8.283885e+003
3.380733e+002, 8.267224e+003
3.385554e+002, 8.254067e+003
3.390375e+002, 8.240910e+003
3.395197e+002, 8.225965e+003
3.400018e+002, 8.209201e+003
3.404839e+002, 8.193785e+003
3.409660e+002, 8.179660e+003
3.414481e+002, 8.167613e+003
3.419302e+002, 8.160256e+003
3.424124e+002, 8.157968e+003
3.428945e+002, 8.153678e+003
3.433766e+002, 8.144369e+003
3.438587e+002, 8.131353e+003
3.443408e+002, 8.119626e+003
3.448229e+002, 8.109039e+003
3.453051e+002, 8.101103e+003
3.457872e+002, 8.099142e+003
3.462693e+002, 8.102034e+003
3.467514e+002, 8.101892e+003
3.472335e+002, 8.096189e+003
3.477156e+002, 8.087943e+003
3.481978e+002, 8.083442e+003
3.486799e+002, 8.082467e+003
3.491620e+002, 8.081464e+003
3.496441e+002, 8.076635e+003
3.501262e+002, 8.070208e+003
3.506083e+002, 8.067721e+003
3.510905e+002, 8.070359e+003
3.515726e+002, 8.075160e+003
3.520547e+002, 8.078125e+003
3.525368e+002, 8.080253e+003
3.530189e+002, 8.084586e+003
3.535010e+002, 8.094132e+003
3.539832e+002, 8.105968e+003
3.544653e+002, 8.117532e+003
3.549474e+002, 8.128873e+003
3.554295e+002, 8.137311e+003
3.559116e+002, 8.139999e+003
3.563937e+002, 8.138568e+003
3.568759e+002, 8.135482e+003
3.573580e+002, 8.131208e+003
3.578401e+002, 8.125905e+003
3.583222e+002, 8.120157e+003
3.588043e+002, 8.113699e+003
3.592864e+002, 8.105200e+003
3.597686e+002, 8.093073e+003
3.602507e+002, 8.079010e+003
3.607328e+002, 8.064188e+003
3.612149e+002, 8.046563e+003
3.616970e+002, 8.031831e+003
3.621791e+002, 8.025212e+003
3.626613e+002, 8.023140e+003
3.631434e+002, 8.017500e+003
3.636255e+002, 8.003292e+003
3.641076e+002, 7.986723e+003
3.645897e+002, 7.969945e+003
3.650718e+002, 7.952878e+003
3.655540e+002, 7.937782e+003
3.660361e+002, 7.926053e+003
3.665182e+002, 7.916209e+003
3.670003e+002, 7.906483e+003
3.674824e+002, 7.897195e+003
3.679645e+002, 7.887641e+003
3.684467e+002, 7.877967e+003
3.689288e+002, 7.868464e+003
3.694109e+002, 7.857748e+003
3.698930e+002, 7.844273e+003
3.703751e+002, 7.831028e+003
3.708572e+002, 7.819970e+003
3.713394e+002, 7.811692e+003
3.718215e+002, 7.805046e+003
3.723036e+002, 7.800467e+003
3.727857e+002, 7.797450e+003
3.732678e+002, 7.794040e+003
3.737499e+002, 7.789472e+003
3.742321e+002, 7.785594e+003
3.747142e+002, 7.783039e+003
3.751963e+002, 7.781484e+003
3.756784e+002, 7.782302e+003
3.761605e+002, 7.785751e+003
3.766426e+002, 7.791095e+003
3.771248e+002, 7.798238e+003
3.776069e+002, 7.808133e+003
3.780890e+002, 7.814228e+003
3.785711e+002, 7.812913e+003
3.790532e+002, 7.805484e+003
3.795353e+002, 7.801925e+003
3.800175e+002, 7.802880e+003
3.804996e+002, 7.804470e+003
3.809817e+002, 7.803173e+003
3.814638e+002, 7.799216e+003
3.819459e+002, 7.794181e+003
3.824280e+002, 7.788326e+003
3.829102e+002, 7.781647e+003
3.833923e+002, 7.774489e+003
3.838744e+002, 7.766667e+003
3.843565e+002, 7.757461e+003
3.848386e+002, 7.745347e+003
3.853207e+002, 7.731643e+003
3.858029e+002, 7.719166e+003
3.862850e+002, 7.707916e+003
3.867671e+002, 7.698618e+003
3.872492e+002, 7.694377e+003
3.877313e+002, 7.692688e+003
3.882134e+002, 7.687912e+003
3.886956e+002, 7.674817e+003
3.891777e+002, 7.659435e+003
3.896598e+002, 7.646883e+003
3.901419e+002, 7.637291e+003
3.906240e+002, 7.629097e+003
3.911061e+002, 7.623067e+003
3.915883e+002, 7.617281e+003
3.920704e+002, 7.609530e+003
3.925525e+002, 7.597317e+003
3.930346e+002, 7.585872e+003
3.935167e+002, 7.577730e+003
3.939988e+002, 7.572175e+003
3.944810e+002, 7.567011e+003
3.949631e+002, 7.560533e+003
3.954452e+002, 7.554993e+003
3.959273e+002, 7.552196e+003
3.964094e+002, 7.553945e+003
3.968915e+002, 7.553232e+003
3.973737e+002, 7.546393e+003
3.978558e+002, 7.537078e+003
3.983379e+002, 7.529790e+003
3.988200e+002, 7.526942e+003
3.993021e+002, 7.523830e+003
3.997842e+002, 7.519627e+003
4.002664e+002, 7.514260e+003
4.007485e+002, 7.507815e+003
4.012306e+002, 7.498741e+003
4.017127e+002, 7.489984e+003
4.021948e+002, 7.483600e+003
4.026769e+002, 7.481002e+003
4.031591e+002, 7.477743e+003
4.036412e+002, 7.474423e+003
4.041233e+002, 7.469888e+003
4.046054e+002, 7.460444e+003
4.050875e+002, 7.444575e+003
4.055696e+002, 7.428615e+003
4.060518e+002, 7.414747e+003
4.065339e+002, 7.403019e+003
4.070160e+002, 7.394875e+003
4.074981e+002, 7.391574e+003
4.079802e+002, 7.388921e+003
4.084623e+002, 7.381547e+003
4.089445e+002, 7.369595e+003
4.094266e+002, 7.358256e+003
4.099087e+002, 7.349122e+003
4.103908e+002, 7.341472e+003
4.108729e+002, 7.332743e+003
4.113550e+002, 7.323090e+003
4.118372e+002, 7.316171e+003
4.123193e+002, 7.317487e+003
4.128014e+002, 7.323206e+003
4.132835e+002, 7.323168e+003
4.137656e+002, 7.314657e+003
4.142477e+002, 7.305667e+003
4.147299e+002, 7.306250e+003
4.152120e+002, 7.313065e+003
4.156941e+002, 7.318187e+003
4.161762e+002, 7.315821e+003
4.166583e+002, 7.311222e+003
4.171404e+002, 7.309526e+003
4.176226e+002, 7.310562e+003
4.181047e+002, 7.310329e+003
4.185868e+002, 7.304299e+003
4.190689e+002, 7.296751e+003
4.195510e+002, 7.291896e+003
4.200331e+002, 7.293920e+003
4.205153e+002, 7.294655e+003
4.209974e+002, 7.289846e+003
4.214795e+002, 7.281403e+003
4.219616e+002, 7.274275e+003
4.224437e+002, 7.274351e+003
4.229258e+002, 7.272212e+003
4.234080e+002, 7.262692e+003
4.238901e+002, 7.242315e+003
4.243722e+002, 7.226333e+003
4.248543e+002, 7.219228e+003
4.253364e+002, 7.215702e+003
4.258185e+002, 7.210620e+003
4.263007e+002, 7.202470e+003
4.267828e+002, 7.195011e+003
4.272649e+002, 7.188868e+003
4.277470e+002, 7.183900e+003
4.282291e+002, 7.179331e+003
4.287112e+002, 7.176014e+003
4.291934e+002, 7.171489e+003
4.296755e+002, 7.163509e+003
4.301576e+002, 7.150854e+003
4.306397e+002, 7.140689e+003
4.311218e+002, 7.133192e+003
4.316039e+002, 7.128117e+003
4.320861e+002, 7.126175e+003
4.325682e+002, 7.127676e+003
4.330503e+002, 7.127412e+003
4.335324e+002, 7.123178e+003
4.340145e+002, 7.115932e+003
4.344966e+002, 7.108583e+003
4.349788e+002, 7.101178e+003
4.354609e+002, 7.094308e+003
4.359430e+002, 7.087854e+003
4.364251e+002, 7.082313e+003
4.369072e+002, 7.079472e+003
4.373893e+002, 7.080539e+003
4.378715e+002, 7.082114e+003
4.383536e+002, 7.079255e+003
4.388357e+002, 7.073567e+003
4.393178e+002, 7.069518e+003
4.397999e+002, 7.070646e+003
4.402820e+002, 7.073555e+003
4.407642e+002, 7.075433e+003
4.412463e+002, 7.076048e+003
4.417284e+002, 7.075575e+003
4.422105e+002, 7.073627e+003
4.426926e+002, 7.070698e+003
4.431747e+002, 7.067205e+003
4.436569e+002, 7.061589e+003
4.441390e+002, 7.057253e+003
4.446211e+002, 7.056478e+003
4.451032e+002, 7.057928e+003
4.455853e+002, 7.057813e+003
4.460674e+002, 7.052177e+003
4.465496e+002, 7.047868e+003
4.470317e+002, 7.048578e+003
4.475138e+002, 7.057535e+003
4.479959e+002, 7.061530e+003
4.484780e+002, 7.057485e+003
4.489601e+002, 7.050966e+003
4.494423e+002, 7.047261e+003
4.499244e+002, 7.047292e+003
4.504065e+002, 7.048682e+003
4.508886e+002, 7.051407e+003
4.513707e+002, 7.055232e+003
4.518528e+002, 7.059221e+003
4.523350e+002, 7.063299e+003
4.528171e+002, 7.067582e+003
4.532992e+002, 7.071103e+003
4.537813e+002, 7.073729e+003
4.542634e+002, 7.081492e+003
4.547455e+002, 7.095388e+003
4.552277e+002, 7.111261e+003
4.557098e+002, 7.123089e+003
4.561919e+002, 7.131560e+003
4.566740e+002, 7.142829e+003
4.571561e+002, 7.159587e+003
4.576382e+002, 7.179433e+003
4.581204e+002, 7.197799e+003
4.586025e+002, 7.215110e+003
4.590846e+002, 7.232967e+003
4.595667e+002, 7.252703e+003
4.600488e+002, 7.273894e+003
4.605309e+002, 7.296819e+003
4.610131e+002, 7.322178e+003
4.614952e+002, 7.346100e+003
4.619773e+002, 7.368239e+003
4.624594e+002, 7.386396e+003
4.629415e+002, 7.397563e+003
4.634236e+002, 7.402903e+003
4.639058e+002, 7.398622e+003
4.643879e+002, 7.380950e+003
4.648700e+002, 7.350867e+003
4.653521e+002, 7.316539e+003
4.658342e+002, 7.275068e+003
4.663163e+002, 7.233053e+003
4.667985e+002, 7.193874e+003
4.672806e+002, 7.157778e+003
4.677627e+002, 7.124686e+003
4.682448e+002, 7.093646e+003
4.687269e+002, 7.066252e+003
4.692090e+002, 7.044822e+003
4.696912e+002, 7.032347e+003
4.701733e+002, 7.019874e+003
4.706554e+002, 7.004747e+003
4.711375e+002, 6.987519e+003
4.716196e+002, 6.973991e+003
4.721017e+002, 6.964931e+003
4.725839e+002, 6.957308e+003
4.730660e+002, 6.949790e+003
4.735481e+002, 6.942440e+003
4.740302e+002, 6.931300e+003
4.745123e+002, 6.915043e+003
4.749944e+002, 6.897932e+003
4.754766e+002, 6.887460e+003
4.759587e+002, 6.882587e+003
4.764408e+002, 6.876142e+003
4.769229e+002, 6.863996e+003
4.774050e+002, 6.849573e+003
4.778871e+002, 6.838261e+003
4.783693e+002, 6.829981e+003
4.788514e+002, 6.823518e+003
4.793335e+002, 6.819528e+003
4.798156e+002, 6.816232e+003
4.802977e+002, 6.810771e+003
4.807798e+002, 6.801302e+003
4.812620e+002, 6.794175e+003
4.817441e+002, 6.795386e+003
4.822262e+002, 6.800656e+003
4.827083e+002, 6.803700e+003
4.831904e+002, 6.799989e+003
4.836725e+002, 6.795851e+003
4.841547e+002, 6.794054e+003
4.846368e+002, 6.794331e+003
4.851189e+002, 6.792892e+003
4.856010e+002, 6.785016e+003
4.860831e+002, 6.778526e+003
4.865652e+002, 6.777983e+003
4.870474e+002, 6.789079e+003
4.875295e+002, 6.793531e+003
4.880116e+002, 6.788096e+003
4.884937e+002, 6.778356e+003
4.889758e+002, 6.772080e+003
4.894579e+002, 6.770242e+003
4.899401e+002, 6.769010e+003
4.904222e+002, 6.767813e+003
4.909043e+002, 6.766464e+003
4.913864e+002, 6.763483e+003
4.918685e+002, 6.758513e+003
4.923506e+002, 6.754334e+003
4.928328e+002, 6.754179e+003
4.933149e+002, 6.756799e+003
4.937970e+002, 6.756095e+003
4.942791e+002, 6.751312e+003
4.947612e+002, 6.744916e+003
4.952433e+002, 6.738018e+003
4.957255e+002, 6.731664e+003
4.962076e+002, 6.728492e+003
4.966897e+002, 6.731592e+003
4.971718e+002, 6.736310e+003
4.976539e+002, 6.738617e+003
4.981360e+002, 6.738838e+003
4.986182e+002, 6.738167e+003
4.991003e+002, 6.734480e+003
4.995824e+002, 6.732017e+003
5.000645e+002, 6.734770e+003
5.005466e+002, 6.744716e+003
5.010287e+002, 6.752699e+003
5.015109e+002, 6.753058e+003
5.019930e+002, 6.751445e+003
5.024751e+002, 6.753498e+003
5.029572e+002, 6.762699e+003
5.034393e+002, 6.772236e+003
5.039214e+002, 6.782067e+003
5.044036e+002, 6.791635e+003
5.048857e+002, 6.798867e+003
5.053678e+002, 6.801317e+003
5.058499e+002, 6.805907e+003
5.063320e+002, 6.816652e+003
5.068141e+002, 6.834286e+003
5.072963e+002, 6.846496e+003
5.077784e+002, 6.851485e+003
5.082605e+002, 6.856333e+003
5.087426e+002, 6.869216e+003
5.092247e+002, 6.889617e+003
5.097068e+002, 6.909708e+003
5.101890e+002, 6.927915e+003
5.106711e+002, 6.945283e+003
5.111532e+002, 6.963185e+003
5.116353e+002, 6.981530e+003
5.121174e+002, 6.999559e+003
5.125995e+002, 7.016112e+003
5.130817e+002, 7.032667e+003
5.135638e+002, 7.051837e+003
5.140459e+002, 7.073479e+003
5.145280e+002, 7.093931e+003
5.150101e+002, 7.110776e+003
5.154922e+002, 7.125518e+003
5.159744e+002, 7.139047e+003
5.164565e+002, 7.150242e+003
5.169386e+002, 7.163264e+003
5.174207e+002, 7.182932e+003
5.179028e+002, 7.204703e+003
5.183849e+002, 7.221089e+003
5.188671e+002, 7.228265e+003
5.193492e+002, 7.232674e+003
5.198313e+002, 7.234905e+003
5.203134e+002, 7.235115e+003
5.207955e+002, 7.236885e+003
5.212776e+002, 7.243585e+003
5.217598e+002, 7.246702e+003
5.222419e+002, 7.240486e+003
5.227240e+002, 7.222937e+003
5.232061e+002, 7.206370e+003
5.236882e+002, 7.191195e+003
5.241703e+002, 7.176271e+003
5.246525e+002, 7.159821e+003
5.251346e+002, 7.141932e+003
5.256167e+002, 7.124597e+003
5.260988e+002, 7.108808e+003
5.265809e+002, 7.093775e+003
5.270630e+002, 7.077404e+003
5.275452e+002, 7.060279e+003
5.280273e+002, 7.045114e+003
5.285094e+002, 7.033837e+003
5.289915e+002, 7.025148e+003
5.294736e+002, 7.017193e+003
5.299557e+002, 7.009752e+003
5.304379e+002, 7.004408e+003
5.309200e+002, 7.003872e+003
5.314021e+002, 7.004857e+003
5.318842e+002, 7.004119e+003
5.323663e+002, 7.000154e+003
5.328484e+002, 6.995214e+003
5.333306e+002, 6.990518e+003
5.338127e+002, 6.985073e+003
5.342948e+002, 6.976978e+003
5.347769e+002, 6.966351e+003
5.352590e+002, 6.952588e+003
5.357411e+002, 6.935039e+003
5.362233e+002, 6.913925e+003
5.367054e+002, 6.892011e+003
5.371875e+002, 6.868864e+003
5.376696e+002, 6.846385e+003
5.381517e+002, 6.827115e+003
5.386339e+002, 6.811988e+003
5.391160e+002, 6.789280e+003
5.395981e+002, 6.756467e+003
5.400802e+002, 6.721831e+003
5.405623e+002, 6.696235e+003
5.410444e+002, 6.678340e+003
5.415266e+002, 6.659602e+003
5.420087e+002, 6.635659e+003
5.424908e+002, 6.611425e+003
5.429729e+002, 6.595715e+003
5.434550e+002, 6.586739e+003
5.439371e+002, 6.576935e+003
5.444193e+002, 6.559500e+003
5.449014e+002, 6.540924e+003
5.453835e+002, 6.526764e+003
5.458656e+002, 6.517620e+003
5.463477e+002, 6.509508e+003
5.468298e+002, 6.502173e+003
5.473120e+002, 6.494222e+003
5.477941e+002, 6.484534e+003
5.482762e+002, 6.470624e+003
5.487583e+002, 6.457960e+003
5.492404e+002, 6.447234e+003
5.497225e+002, 6.437838e+003
5.502047e+002, 6.428716e+003
5.506868e+002, 6.419357e+003
5.511689e+002, 6.411379e+003
5.516510e+002, 6.406176e+003
5.521331e+002, 6.402943e+003
5.526152e+002, 6.395527e+003
5.530974e+002, 6.383007e+003
5.535795e+002, 6.371289e+003
5.540616e+002, 6.364835e+003
5.545437e+002, 6.362915e+003
5.550258e+002, 6.361091e+003
5.555079e+002, 6.359242e+003
5.559901e+002, 6.357370e+003
5.564722e+002, 6.354737e+003
5.569543e+002, 6.352174e+003
5.574364e+002, 6.351517e+003
5.579185e+002, 6.354202e+003
5.584006e+002, 6.357425e+003
5.588828e+002, 6.357406e+003
5.593649e+002, 6.356095e+003
5.598470e+002, 6.358078e+003
5.603291e+002, 6.367760e+003
5.608112e+002, 6.378535e+003
5.612933e+002, 6.387994e+003
5.617755e+002, 6.395888e+003
5.622576e+002, 6.401954e+003
5.627397e+002, 6.403756e+003
5.632218e+002, 6.405411e+003
5.637039e+002, 6.408855e+003
5.641860e+002, 6.414335e+003
5.646682e+002, 6.421133e+003
5.651503e+002, 6.429507e+003
5.656324e+002, 6.439155e+003
5.661145e+002, 6.450174e+003
5.665966e+002, 6.463084e+003
5.670787e+002, 6.474174e+003
5.675609e+002, 6.481850e+003
5.680430e+002, 6.488572e+003
5.685251e+002, 6.499329e+003
5.690072e+002, 6.513990e+003
5.694893e+002, 6.530231e+003
5.699714e+002, 6.548649e+003
5.704536e+002, 6.567226e+003
5.709357e+002, 6.582227e+003
5.714178e+002, 6.593791e+003
5.718999e+002, 6.606384e+003
5.723820e+002, 6.624969e+003
5.728641e+002, 6.644467e+003
5.733463e+002, 6.660740e+003
5.738284e+002, 6.674256e+003
5.743105e+002, 6.681428e+003
5.747926e+002, 6.678196e+003
5.752747e+002, 6.669029e+003
5.757568e+002, 6.659632e+003
5.762390e+002, 6.655918e+003
5.767211e+002, 6.644286e+003
5.772032e+002, 6.620734e+003
5.776853e+002, 6.588294e+003
5.781674e+002, 6.557706e+003
5.786495e+002, 6.528962e+003
5.791317e+002, 6.502287e+003
5.796138e+002, 6.478651e+003
5.800959e+002, 6.457532e+003
5.805780e+002, 6.433001e+003
5.810601e+002, 6.404296e+003
5.815422e+002, 6.378673e+003
5.820244e+002, 6.364630e+003
5.825065e+002, 6.358085e+003
5.829886e+002, 6.348269e+003
5.834707e+002, 6.332705e+003
5.839528e+002, 6.318803e+003
5.844349e+002, 6.313941e+003
5.849171e+002, 6.314806e+003
5.853992e+002, 6.316506e+003
5.858813e+002, 6.318726e+003
5.863634e+002, 6.319854e+003
5.868455e+002, 6.317121e+003
5.873276e+002, 6.312519e+003
5.878098e+002, 6.311751e+003
5.882919e+002, 6.318691e+003
5.887740e+002, 6.326720e+003
5.892561e+002, 6.334151e+003
5.897382e+002, 6.340958e+003
5.902203e+002, 6.346613e+003
5.907025e+002, 6.349144e+003
5.911846e+002, 6.353900e+003
5.916667e+002, 6.365787e+003
5.921488e+002, 6.385624e+003
5.926309e+002, 6.401426e+003
5.931130e+002, 6.412538e+003
5.935952e+002, 6.421110e+003
5.940773e+002, 6.430722e+003
5.945594e+002, 6.440327e+003
5.950415e+002, 6.445366e+003
5.955236e+002, 6.444078e+003
5.960057e+002, 6.439273e+003
5.964879e+002, 6.434674e+003
5.969700e+002, 6.429061e+003
5.974521e+002, 6.419525e+003
5.979342e+002, 6.406030e+003
5.984163e+002, 6.386977e+003
5.988984e+002, 6.359336e+003
5.993806e+002, 6.323963e+003
5.998627e+002, 6.289490e+003
6.003448e+002, 6.258576e+003
6.008269e+002, 6.228344e+003
6.013090e+002, 6.196511e+003
6.017911e+002, 6.161368e+003
6.022733e+002, 6.130969e+003
6.027554e+002, 6.106778e+003
6.032375e+002, 6.085263e+003
6.037196e+002, 6.062842e+003
6.042017e+002, 6.038797e+003
6.046838e+002, 6.020113e+003
6.051660e+002, 6.008516e+003
6.056481e+002, 6.000161e+003
6.061302e+002, 5.988980e+003
6.066123e+002, 5.975651e+003
6.070944e+002, 5.963208e+003
6.075765e+002, 5.951931e+003
6.080587e+002, 5.942781e+003
6.085408e+002, 5.938221e+003
6.090229e+002, 5.936984e+003
6.095050e+002, 5.934426e+003
6.099871e+002, 5.926595e+003
6.104692e+002, 5.917909e+003
6.109514e+002, 5.911322e+003
6.114335e+002, 5.907089e+003
6.119156e+002, 5.901800e+003
6.123977e+002, 5.893321e+003
6.128798e+002, 5.884620e+003
6.133619e+002, 5.877534e+003
6.138441e+002, 5.872510e+003
6.143262e+002, 5.868015e+003
6.148083e+002, 5.864335e+003
6.152904e+002, 5.860859e+003
6.157725e+002, 5.857126e+003
6.162546e+002, 5.853237e+003
6.167368e+002, 5.848075e+003
6.172189e+002, 5.840999e+003
6.177010e+002, 5.833274e+003
6.181831e+002, 5.827391e+003
6.186652e+002, 5.822971e+003
6.191473e+002, 5.818418e+003
6.196295e+002, 5.811620e+003
6.201116e+002, 5.805292e+003
6.205937e+002, 5.803296e+003
6.210758e+002, 5.804693e+003
6.215579e+002, 5.804744e+003
6.220400e+002, 5.800653e+003
6.225222e+002, 5.794877e+003
6.230043e+002, 5.787777e+003
6.234864e+002, 5.778454e+003
6.239685e+002, 5.773322e+003
6.244506e+002, 5.776554e+003
6.249327e+002, 5.781124e+003
6.254149e+002, 5.782657e+003
6.258970e+002, 5.780831e+003
6.263791e+002, 5.776338e+003
6.268612e+002, 5.767908e+003
6.273433e+002, 5.758983e+003
6.278254e+002, 5.755448e+003
6.283076e+002, 5.756972e+003
6.287897e+002, 5.756333e+003
6.292718e+002, 5.751159e+003
6.297539e+002, 5.743899e+003
6.302360e+002, 5.737644e+003
6.307181e+002, 5.732508e+003
6.312003e+002, 5.728923e+003
6.316824e+002, 5.728866e+003
6.321645e+002, 5.729102e+003
6.326466e+002, 5.726210e+003
6.331287e+002, 5.720863e+003
6.336108e+002, 5.717693e+003
6.340930e+002, 5.721630e+003
6.345751e+002, 5.725317e+003
6.350572e+002, 5.724642e+003
6.355393e+002, 5.718447e+003
6.360214e+002, 5.712959e+003
6.365035e+002, 5.708145e+003
6.369857e+002, 5.704008e+003
6.374678e+002, 5.700833e+003
6.379499e+002, 5.698861e+003
6.384320e+002, 5.695916e+003
6.389141e+002, 5.691656e+003
6.393962e+002, 5.687021e+003
6.398784e+002, 5.682346e+003
6.403605e+002, 5.678185e+003
6.408426e+002, 5.677433e+003
6.413247e+002, 5.683132e+003
6.418068e+002, 5.688526e+003
6.422889e+002, 5.684631e+003
6.427711e+002, 5.674875e+003
6.432532e+002, 5.666901e+003
6.437353e+002, 5.665209e+003
6.442174e+002, 5.665163e+003
6.446995e+002, 5.665363e+003
6.451816e+002, 5.665592e+003
6.456638e+002, 5.664832e+003
6.461459e+002, 5.661054e+003
6.466280e+002, 5.658240e+003
6.471101e+002, 5.658645e+003
6.475922e+002, 5.662657e+003
6.480743e+002, 5.661629e+003
6.485565e+002, 5.653838e+003
6.490386e+002, 5.645269e+003
6.495207e+002, 5.640619e+003
6.500028e+002, 5.639474e+003
6.504849e+002, 5.638898e+003
6.509670e+002, 5.638703e+003
6.514492e+002, 5.638693e+003
6.519313e+002, 5.639005e+003
6.524134e+002, 5.639286e+003
6.528955e+002, 5.638974e+003
6.533776e+002, 5.638151e+003
6.538597e+002, 5.636273e+003
6.543419e+002, 5.633443e+003
6.548240e+002, 5.629300e+003
6.553061e+002, 5.623312e+003
6.557882e+002, 5.611479e+003
6.562703e+002, 5.602400e+003
6.567524e+002, 5.599981e+003
6.572346e+002, 5.601827e+003
6.577167e+002, 5.600519e+003
6.581988e+002, 5.594443e+003
6.586809e+002, 5.589014e+003
6.591630e+002, 5.585882e+003
6.596451e+002, 5.584888e+003
6.601273e+002, 5.586011e+003
6.606094e+002, 5.589380e+003
6.610915e+002, 5.591415e+003
6.615736e+002, 5.588106e+003
6.620557e+002, 5.582139e+003
6.625378e+002, 5.579025e+003
6.630200e+002, 5.578984e+003
6.635021e+002, 5.579474e+003
6.639842e+002, 5.579217e+003
6.644663e+002, 5.578300e+003
6.649484e+002, 5.576677e+003
6.654305e+002, 5.573960e+003
6.659127e+002, 5.571674e+003
6.663948e+002, 5.571672e+003
6.668769e+002, 5.571540e+003
6.673590e+002, 5.568397e+003
6.678411e+002, 5.558180e+003
6.683232e+002, 5.554532e+003
6.688054e+002, 5.562011e+003
6.692875e+002, 5.572683e+003
6.697696e+002, 5.570923e+003
6.702517e+002, 5.556443e+003
6.707338e+002, 5.543921e+003
6.712159e+002, 5.537825e+003
6.716981e+002, 5.535889e+003
6.721802e+002, 5.536021e+003
6.726623e+002, 5.537377e+003
6.731444e+002, 5.536965e+003
6.736265e+002, 5.530879e+003
6.741086e+002, 5.524381e+003
6.745908e+002, 5.522503e+003
6.750729e+002, 5.524416e+003
6.755550e+002, 5.523929e+003
6.760371e+002, 5.514143e+003
6.765192e+002, 5.506220e+003
6.770013e+002, 5.507266e+003
6.774835e+002, 5.518941e+003
6.779656e+002, 5.520860e+003
6.784477e+002, 5.508154e+003
6.789298e+002, 5.494557e+003
6.794119e+002, 5.490218e+003
6.798940e+002, 5.495151e+003
6.803762e+002, 5.499474e+003
6.808583e+002, 5.503002e+003
6.813404e+002, 5.505030e+003
6.818225e+002, 5.504287e+003
6.823046e+002, 5.501584e+003
6.827867e+002, 5.498638e+003
6.832689e+002, 5.495890e+003
6.837510e+002, 5.492664e+003
6.842331e+002, 5.487524e+003
6.847152e+002, 5.482029e+003
6.851973e+002, 5.478291e+003
6.856794e+002, 5.478111e+003
6.861616e+002, 5.478278e+003
6.866437e+002, 5.478959e+003
6.871258e+002, 5.479494e+003
6.876079e+002, 5.478308e+003
6.880900e+002, 5.474171e+003
6.885721e+002, 5.471665e+003
6.890543e+002, 5.472441e+003
6.895364e+002, 5.475166e+003
6.900185e+002, 5.476193e+003
6.905006e+002, 5.475487e+003
6.909827e+002, 5.473544e+003
6.914648e+002, 5.470112e+003
6.919470e+002, 5.465768e+003
6.924291e+002, 5.460812e+003
6.929112e+002, 5.455481e+003
6.933933e+002, 5.451162e+003
6.938754e+002, 5.449630e+003
6.943575e+002, 5.448572e+003
6.948397e+002, 5.446443e+003
6.953218e+002, 5.443063e+003
6.958039e+002, 5.440003e+003
6.962860e+002, 5.438467e+003
6.967681e+002, 5.436498e+003
6.972502e+002, 5.432683e+003
6.977324e+002, 5.426204e+003
6.982145e+002, 5.422958e+003
6.986966e+002, 5.424124e+003
6.991787e+002, 5.425294e+003
6.996608e+002, 5.420333e+003
7.001429e+002, 5.411073e+003
7.006251e+002, 5.407391e+003
7.011072e+002, 5.411400e+003
7.015893e+002, 5.416007e+003
7.020714e+002, 5.412596e+003
7.025535e+002, 5.405661e+003
7.030356e+002, 5.402096e+003
7.035178e+002, 5.406616e+003
7.039999e+002, 5.409881e+003
7.044820e+002, 5.406143e+003
7.049641e+002, 5.399524e+003
7.054462e+002, 5.396637e+003
7.059283e+002, 5.401898e+003
7.064105e+002, 5.404294e+003
7.068926e+002, 5.401658e+003
7.073747e+002, 5.395876e+003
7.078568e+002, 5.391010e+003
7.083389e+002, 5.387031e+003
7.088210e+002, 5.384667e+003
7.093032e+002, 5.385435e+003
7.097853e+002, 5.386821e+003
7.102674e+002, 5.382411e+003
7.107495e+002, 5.373623e+003
7.112316e+002, 5.366539e+003
7.117137e+002, 5.365280e+003
7.121959e+002, 5.366270e+003
7.126780e+002, 5.368403e+003
7.131601e+002, 5.371071e+003
7.136422e+002, 5.370731e+003
7.141243e+002, 5.362306e+003
7.146064e+002, 5.354594e+003
7.150886e+002, 5.351584e+003
7.155707e+002, 5.353427e+003
7.160528e+002, 5.354001e+003
7.165349e+002, 5.353356e+003
7.170170e+002, 5.351406e+003
7.174991e+002, 5.347109e+003
7.179813e+002, 5.341050e+003
7.184634e+002, 5.338114e+003
7.189455e+002, 5.338569e+003
7.194276e+002, 5.339115e+003
7.199097e+002, 5.336414e+003
7.203918e+002, 5.332294e+003
7.208740e+002, 5.329025e+003
7.213561e+002, 5.326833e+003
7.218382e+002, 5.325921e+003
7.223203e+002, 5.327929e+003
7.228024e+002, 5.330274e+003
7.232845e+002, 5.330708e+003
7.237667e+002, 5.328635e+003
7.242488e+002, 5.324958e+003
7.247309e+002, 5.318509e+003
7.252130e+002, 5.311576e+003
7.256951e+002, 5.306683e+003
7.261772e+002, 5.303891e+003
7.266594e+002, 5.302904e+003
7.271415e+002, 5.304442e+003
7.276236e+002, 5.305727e+003
7.281057e+002, 5.302178e+003
7.285878e+002, 5.295306e+003
7.290699e+002, 5.288929e+003
7.295521e+002, 5.284181e+003
7.300342e+002, 5.280549e+003
7.305163e+002, 5.278578e+003
7.309984e+002, 5.277362e+003
7.314805e+002, 5.275264e+003
7.319626e+002, 5.270071e+003
7.324448e+002, 5.266253e+003
7.329269e+002, 5.265487e+003
7.334090e+002, 5.266407e+003
7.338911e+002, 5.265145e+003
7.343732e+002, 5.261210e+003
7.348553e+002, 5.257148e+003
7.353375e+002, 5.253696e+003
7.358196e+002, 5.250694e+003
7.363017e+002, 5.247218e+003
7.367838e+002, 5.243557e+003
7.372659e+002, 5.241468e+003
7.377480e+002, 5.243643e+003
7.382302e+002, 5.246526e+003
7.387123e+002, 5.247058e+003
7.391944e+002, 5.245366e+003
7.396765e+002, 5.242427e+003
7.401586e+002, 5.235877e+003
7.406407e+002, 5.230696e+003
7.411229e+002, 5.230372e+003
7.416050e+002, 5.234552e+003
7.420871e+002, 5.235139e+003
7.425692e+002, 5.230878e+003
7.430513e+002, 5.226021e+003
7.435334e+002, 5.222333e+003
7.440156e+002, 5.219880e+003
7.444977e+002, 5.220019e+003
7.449798e+002, 5.222756e+003
7.454619e+002, 5.224578e+003
7.459440e+002, 5.221264e+003
7.464261e+002, 5.216220e+003
7.469083e+002, 5.214044e+003
7.473904e+002, 5.215168e+003
7.478725e+002, 5.215920e+003
7.483546e+002, 5.213866e+003
7.488367e+002, 5.211271e+003
7.493188e+002, 5.209342e+003
7.498010e+002, 5.207732e+003
7.502831e+002, 5.208766e+003
7.507652e+002, 5.214882e+003
7.512473e+002, 5.219764e+003
7.517294e+002, 5.217576e+003
7.522115e+002, 5.208442e+003
7.526937e+002, 5.199951e+003
7.531758e+002, 5.192403e+003
7.536579e+002, 5.186493e+003
7.541400e+002, 5.183534e+003
7.546221e+002, 5.182557e+003
7.551042e+002, 5.182209e+003
7.555864e+002, 5.182599e+003
7.560685e+002, 5.182402e+003
7.565506e+002, 5.181636e+003
7.570327e+002, 5.179648e+003
7.575148e+002, 5.175739e+003
7.579969e+002, 5.165999e+003
7.584791e+002, 5.160456e+003
7.589612e+002, 5.160771e+003
7.594433e+002, 5.163390e+003
7.599254e+002, 5.163820e+003
7.604075e+002, 5.161884e+003
7.608896e+002, 5.161140e+003
7.613718e+002, 5.162478e+003
7.618539e+002, 5.163823e+003
7.623360e+002, 5.161572e+003
7.628181e+002, 5.157372e+003
7.633002e+002, 5.154858e+003
7.637823e+002, 5.156157e+003
7.642645e+002, 5.157417e+003
7.647466e+002, 5.156363e+003
7.652287e+002, 5.154016e+003
7.657108e+002, 5.151871e+003
7.661929e+002, 5.150141e+003
7.666750e+002, 5.148817e+003
7.671572e+002, 5.148160e+003
7.676393e+002, 5.147787e+003
7.681214e+002, 5.147102e+003
7.686035e+002, 5.146146e+003
7.690856e+002, 5.144287e+003
7.695677e+002, 5.141229e+003
7.700499e+002, 5.137355e+003
7.705320e+002, 5.133144e+003
7.710141e+002, 5.128552e+003
7.714962e+002, 5.123517e+003
7.719783e+002, 5.117565e+003
7.724604e+002, 5.111533e+003
7.729426e+002, 5.105625e+003
7.734247e+002, 5.099979e+003
7.739068e+002, 5.095047e+003
7.743889e+002, 5.091718e+003
7.748710e+002, 5.087830e+003
7.753531e+002, 5.082664e+003
7.758353e+002, 5.076893e+003
7.763174e+002, 5.072792e+003
7.767995e+002, 5.070549e+003
7.772816e+002, 5.067380e+003
7.777637e+002, 5.061446e+003
7.782458e+002, 5.055010e+003
7.787280e+002, 5.052773e+003
7.792101e+002, 5.053434e+003
7.796922e+002, 5.052801e+003
7.801743e+002, 5.047654e+003
7.806564e+002, 5.041884e+003
7.811385e+002, 5.036689e+003
7.816207e+002, 5.032333e+003
7.821028e+002, 5.030088e+003
7.825849e+002, 5.032075e+003
7.830670e+002, 5.032477e+003
7.835491e+002, 5.028485e+003
7.840313e+002, 5.022001e+003
7.845134e+002, 5.022032e+003
7.849955e+002, 5.028662e+003
7.854776e+002, 5.033001e+003
7.859597e+002, 5.029834e+003
7.864418e+002, 5.022600e+003
7.869240e+002, 5.015190e+003
7.874061e+002, 5.008140e+003
7.878882e+002, 5.003578e+003
7.883703e+002, 5.004409e+003
7.888524e+002, 5.006368e+003
7.893345e+002, 5.008287e+003
7.898167e+002, 5.009846e+003
7.902988e+002, 5.009180e+003
7.907809e+002, 5.005120e+003
7.912630e+002, 5.001127e+003
7.917451e+002, 4.998518e+003
7.922272e+002, 4.996938e+003
7.927094e+002, 4.994200e+003
7.931915e+002, 4.990409e+003
7.936736e+002, 4.987190e+003
7.941557e+002, 4.985711e+003
7.946378e+002, 4.985209e+003
7.951199e+002, 4.985497e+003
7.956021e+002, 4.986147e+003
7.960842e+002, 4.985283e+003
7.965663e+002, 4.979729e+003
7.970484e+002, 4.974728e+003
7.975305e+002, 4.973049e+003
7.980126e+002, 4.974310e+003
7.984948e+002, 4.975282e+003
7.989769e+002, 4.976116e+003
7.994590e+002, 4.976237e+003
7.999411e+002, 4.974945e+003
8.004232e+002, 4.972899e+003
8.009053e+002, 4.973006e+003
8.013875e+002, 4.975084e+003
8.018696e+002, 4.977165e+003
8.023517e+002, 4.977591e+003
8.028338e+002, 4.977820e+003
8.033159e+002, 4.979688e+003
8.037980e+002, 4.982841e+003
8.042802e+002, 4.985062e+003
8.047623e+002, 4.985108e+003
8.052444e+002, 4.984521e+003
8.057265e+002, 4.983537e+003
8.062086e+002, 4.982226e+003
8.066907e+002, 4.981463e+003
8.071729e+002, 4.981061e+003
8.076550e+002, 4.981827e+003
8.081371e+002, 4.985520e+003
8.086192e+002, 4.990046e+003
8.091013e+002, 4.989212e+003
8.095834e+002, 4.983751e+003
8.100656e+002, 4.977806e+003
8.105477e+002, 4.971784e+003
8.110298e+002, 4.967976e+003
8.115119e+002, 4.969888e+003
8.119940e+002, 4.976510e+003
8.124761e+002, 4.979506e+003
8.129583e+002, 4.974251e+003
8.134404e+002, 4.969739e+003
8.139225e+002, 4.969273e+003
8.144046e+002, 4.971943e+003
8.148867e+002, 4.971388e+003
8.153688e+002, 4.967407e+003
8.158510e+002, 4.964554e+003
8.163331e+002, 4.965732e+003
8.168152e+002, 4.969118e+003
8.172973e+002, 4.972093e+003
8.177794e+002, 4.974614e+003
8.182615e+002, 4.976631e+003
8.187437e+002, 4.976925e+003
8.192258e+002, 4.977713e+003
8.197079e+002, 4.980743e+003
8.201900e+002, 4.985474e+003
8.206721e+002, 4.987886e+003
8.211542e+002, 4.986463e+003
8.216364e+002, 4.986097e+003
8.221185e+002, 4.989136e+003
8.226006e+002, 4.994037e+003
8.230827e+002, 4.995263e+003
8.235648e+002, 4.993292e+003
8.240469e+002, 4.991838e+003
8.245291e+002, 4.991997e+003
8.250112e+002, 4.994352e+003
8.254933e+002, 5.001588e+003
8.259754e+002, 5.011826e+003
8.264575e+002, 5.019061e+003
8.269396e+002, 5.016217e+003
8.274218e+002, 5.016205e+003
8.279039e+002, 5.022401e+003
8.283860e+002, 5.033852e+003
8.288681e+002, 5.047254e+003
8.293502e+002, 5.062703e+003
8.298323e+002, 5.080292e+003
8.303145e+002, 5.100485e+003
8.307966e+002, 5.122299e+003
8.312787e+002, 5.142344e+003
8.317608e+002, 5.162283e+003
8.322429e+002, 5.186647e+003
8.327250e+002, 5.218679e+003
8.332072e+002, 5.254917e+003
8.336893e+002, 5.294560e+003
8.341714e+002, 5.337050e+003
8.346535e+002, 5.380990e+003
8.351356e+002, 5.425566e+003
8.356177e+002, 5.472598e+003
8.360999e+002, 5.523045e+003
8.365820e+002, 5.576202e+003
8.370641e+002, 5.629594e+003
8.375462e+002, 5.683734e+003
8.380283e+002, 5.744562e+003
8.385104e+002, 5.814717e+003
8.389926e+002, 5.890944e+003
8.394747e+002, 5.969911e+003
8.399568e+002, 6.051979e+003
8.404389e+002, 6.139035e+003
8.409210e+002, 6.229219e+003
8.414031e+002, 6.326874e+003
8.418853e+002, 6.433608e+003
8.423674e+002, 6.547132e+003
8.428495e+002, 6.664974e+003
8.433316e+002, 6.787954e+003
8.438137e+002, 6.911497e+003
8.442958e+002, 7.035972e+003
8.447780e+002, 7.157787e+003
8.452601e+002, 7.276772e+003
8.457422e+002, 7.388086e+003
8.462243e+002, 7.484432e+003
8.467064e+002, 7.567920e+003
8.471885e+002, 7.625313e+003
8.476707e+002, 7.652328e+003
8.481528e+002, 7.647638e+003
8.486349e+002, 7.608019e+003
8.491170e+002, 7.530051e+003
8.495991e+002, 7.425098e+003
8.500812e+002, 7.288221e+003
8.505634e+002, 7.132476e+003
8.510455e+002, 6.965647e+003
8.515276e+002, 6.789615e+003
8.520097e+002, 6.616997e+003
8.524918e+002, 6.448075e+003
8.529739e+002, 6.287917e+003
8.534561e+002, 6.138363e+003
8.539382e+002, 6.001088e+003
8.544203e+002, 5.879230e+003
8.549024e+002, 5.774269e+003
8.553845e+002, 5.680583e+003
8.558666e+002, 5.598758e+003
8.563488e+002, 5.524474e+003
8.568309e+002, 5.456412e+003
8.573130e+002, 5.393494e+003
8.577951e+002, 5.339483e+003
8.582772e+002, 5.295142e+003
8.587593e+002, 5.257024e+003
8.592415e+002, 5.224149e+003
8.597236e+002, 5.194939e+003
8.602057e+002, 5.165974e+003
8.606878e+002, 5.137115e+003
8.611699e+002, 5.110238e+003
8.616520e+002, 5.085312e+003
8.621342e+002, 5.063244e+003
8.626163e+002, 5.045408e+003
8.630984e+002, 5.032048e+003
8.635805e+002, 5.016730e+003
8.640626e+002, 4.998325e+003
8.645447e+002, 4.981928e+003
8.650269e+002, 4.972351e+003
8.655090e+002, 4.966891e+003
8.659911e+002, 4.954421e+003
8.664732e+002, 4.936362e+003
8.669553e+002, 4.921869e+003
8.674374e+002, 4.919110e+003
8.679196e+002, 4.919905e+003
8.684017e+002, 4.919590e+003
8.688838e+002, 4.917946e+003
8.693659e+002, 4.915269e+003
8.698480e+002, 4.911370e+003
8.703301e+002, 4.906752e+003
8.708123e+002, 4.901414e+003
8.712944e+002, 4.895344e+003
8.717765e+002, 4.888001e+003
8.722586e+002, 4.879609e+003
8.727407e+002, 4.872304e+003
8.732228e+002, 4.868545e+003
8.737050e+002, 4.864622e+003
8.741871e+002, 4.856470e+003
8.746692e+002, 4.845324e+003
8.751513e+002, 4.833712e+003
8.756334e+002, 4.820783e+003
8.761155e+002, 4.809834e+003
8.765977e+002, 4.801425e+003
8.770798e+002, 4.795202e+003
8.775619e+002, 4.791622e+003
8.780440e+002, 4.791147e+003
8.785261e+002, 4.786174e+003
8.790082e+002, 4.773286e+003
8.794904e+002, 4.760516e+003
8.799725e+002, 4.760191e+003
8.804546e+002, 4.766754e+003
8.809367e+002, 4.770210e+003
8.814188e+002, 4.765854e+003
8.819009e+002, 4.762422e+003
8.823831e+002, 4.761513e+003
8.828652e+002, 4.763993e+003
8.833473e+002, 4.771257e+003
8.838294e+002, 4.785762e+003
8.843115e+002, 4.795058e+003
8.847936e+002, 4.797514e+003
8.852758e+002, 4.799480e+003
8.857579e+002, 4.808721e+003
8.862400e+002, 4.822199e+003
8.867221e+002, 4.832303e+003
8.872042e+002, 4.837860e+003
8.876863e+002, 4.845003e+003
8.881685e+002, 4.859048e+003
8.886506e+002, 4.874624e+003
8.891327e+002, 4.887562e+003
8.896148e+002, 4.897125e+003
8.900969e+002, 4.908540e+003
8.905790e+002, 4.922295e+003
8.910612e+002, 4.936663e+003
8.915433e+002, 4.951804e+003
8.920254e+002, 4.966573e+003
8.925075e+002, 4.976082e+003
8.929896e+002, 4.980702e+003
8.934717e+002, 4.983656e+003
8.939539e+002, 4.990063e+003
8.944360e+002, 4.992734e+003
8.949181e+002, 4.988293e+003
8.954002e+002, 4.976176e+003
8.958823e+002, 4.953928e+003
8.963644e+002, 4.916404e+003
8.968466e+002, 4.879411e+003
8.973287e+002, 4.847605e+003
8.978108e+002, 4.818589e+003
8.982929e+002, 4.783100e+003
8.987750e+002, 4.742813e+003
8.992571e+002, 4.707439e+003
8.997393e+002, 4.683086e+003
9.002214e+002, 4.661472e+003
9.007035e+002, 4.634194e+003
9.011856e+002, 4.605441e+003
9.016677e+002, 4.582815e+003
9.021498e+002, 4.573407e+003
9.026320e+002, 4.562025e+003
9.031141e+002, 4.545810e+003
9.035962e+002, 4.529281e+003
9.040783e+002, 4.519788e+003
9.045604e+002, 4.516632e+003
9.050425e+002, 4.511963e+003
9.055247e+002, 4.504572e+003
9.060068e+002, 4.495955e+003
9.064889e+002, 4.485063e+003
9.069710e+002, 4.475097e+003
9.074531e+002, 4.470415e+003
9.079352e+002, 4.473591e+003
9.084174e+002, 4.474871e+003
9.088995e+002, 4.472813e+003
9.093816e+002, 4.468697e+003
9.098637e+002, 4.462306e+003
9.103458e+002, 4.453582e+003
9.108279e+002, 4.449444e+003
9.113101e+002, 4.449956e+003
9.117922e+002, 4.450989e+003
9.122743e+002, 4.449460e+003
9.127564e+002, 4.446864e+003
9.132385e+002, 4.444421e+003
9.137206e+002, 4.442272e+003
9.142028e+002, 4.440990e+003
9.146849e+002, 4.442076e+003
9.151670e+002, 4.442505e+003
9.156491e+002, 4.441300e+003
9.161312e+002, 4.438838e+003
9.166133e+002, 4.436038e+003
9.170955e+002, 4.432905e+003
9.175776e+002, 4.431510e+003
9.180597e+002, 4.433460e+003
9.185418e+002, 4.436292e+003
9.190239e+002, 4.437295e+003
9.195060e+002, 4.436851e+003
9.199882e+002, 4.435681e+003
9.204703e+002, 4.433196e+003
9.209524e+002, 4.431008e+003
9.214345e+002, 4.429801e+003
9.219166e+002, 4.428562e+003
9.223987e+002, 4.426096e+003
9.228809e+002, 4.422308e+003
9.233630e+002, 4.417440e+003
9.238451e+002, 4.411372e+003
9.243272e+002, 4.404656e+003
9.248093e+002, 4.397344e+003
9.252914e+002, 4.390061e+003
9.257736e+002, 4.383946e+003
9.262557e+002, 4.379355e+003
9.267378e+002, 4.374658e+003
9.272199e+002, 4.370353e+003
9.277020e+002, 4.365014e+003
9.281841e+002, 4.357152e+003
9.286663e+002, 4.346846e+003
9.291484e+002, 4.340825e+003
9.296305e+002, 4.339251e+003
9.301126e+002, 4.337747e+003
9.305947e+002, 4.332532e+003
9.310768e+002, 4.326373e+003
9.315590e+002, 4.323111e+003
9.320411e+002, 4.322139e+003
9.325232e+002, 4.320952e+003
9.330053e+002, 4.319632e+003
9.334874e+002, 4.316570e+003
9.339695e+002, 4.309736e+003
9.344517e+002, 4.301761e+003
9.349338e+002, 4.299683e+003
9.354159e+002, 4.303657e+003
9.358980e+002, 4.307129e+003
9.363801e+002, 4.307861e+003
9.368622e+002, 4.308667e+003
9.373444e+002, 4.313641e+003
9.378265e+002, 4.320595e+003
9.383086e+002, 4.326164e+003
9.387907e+002, 4.327566e+003
9.392728e+002, 4.331355e+003
9.397549e+002, 4.340965e+003
9.402371e+002, 4.350775e+003
9.407192e+002, 4.355021e+003
9.412013e+002, 4.353328e+003
9.416834e+002, 4.358463e+003
9.421655e+002, 4.371068e+003
9.426476e+002, 4.384666e+003
9.431298e+002, 4.392560e+003
9.436119e+002, 4.399200e+003
9.440940e+002, 4.409567e+003
9.445761e+002, 4.423969e+003
9.450582e+002, 4.439047e+003
9.455403e+002, 4.455580e+003
9.460225e+002, 4.470689e+003
9.465046e+002, 4.482755e+003
9.469867e+002, 4.492836e+003
9.474688e+002, 4.505066e+003
9.479509e+002, 4.519371e+003
9.484330e+002, 4.536835e+003
9.489152e+002, 4.559964e+003
9.493973e+002, 4.583597e+003
9.498794e+002, 4.602739e+003
9.503615e+002, 4.618846e+003
9.508436e+002, 4.634573e+003
9.513257e+002, 4.649761e+003
9.518079e+002, 4.665874e+003
9.522900e+002, 4.684962e+003
9.527721e+002, 4.702359e+003
9.532542e+002, 4.712556e+003
9.537363e+002, 4.715914e+003
9.542184e+002, 4.715274e+003
9.547006e+002, 4.711047e+003
9.551827e+002, 4.701594e+003
9.556648e+002, 4.683561e+003
9.561469e+002, 4.661043e+003
9.566290e+002, 4.637950e+003
9.571111e+002, 4.614823e+003
9.575933e+002, 4.588163e+003
9.580754e+002, 4.556671e+003
9.585575e+002, 4.524058e+003
9.590396e+002, 4.491882e+003
9.595217e+002, 4.460352e+003
9.600038e+002, 4.429046e+003
9.604860e+002, 4.398319e+003
9.609681e+002, 4.369929e+003
9.614502e+002, 4.344888e+003
9.619323e+002, 4.322669e+003
9.624144e+002, 4.304405e+003
9.628965e+002, 4.288677e+003
9.633787e+002, 4.272700e+003
9.638608e+002, 4.255589e+003
9.643429e+002, 4.239832e+003
9.648250e+002, 4.225927e+003
9.653071e+002, 4.212568e+003
9.657892e+002, 4.197046e+003
9.662714e+002, 4.180971e+003
9.667535e+002, 4.168655e+003
9.672356e+002, 4.161423e+003
9.677177e+002, 4.154342e+003
9.681998e+002, 4.144349e+003
9.686819e+002, 4.133921e+003
9.691641e+002, 4.124825e+003
9.696462e+002, 4.117000e+003
9.701283e+002, 4.110407e+003
9.706104e+002, 4.105234e+003
9.710925e+002, 4.099733e+003
9.715746e+002, 4.091862e+003
9.720568e+002, 4.083475e+003
9.725389e+002, 4.078827e+003
9.730210e+002, 4.076651e+003
9.735031e+002, 4.072930e+003
9.739852e+002, 4.063648e+003
9.744673e+002, 4.055383e+003
9.749495e+002, 4.050428e+003
9.754316e+002, 4.047376e+003
9.759137e+002, 4.044353e+003
9.763958e+002, 4.041473e+003
9.768779e+002, 4.037008e+003
9.773600e+002, 4.030220e+003
9.778422e+002, 4.024046e+003
9.783243e+002, 4.022897e+003
9.788064e+002, 4.023555e+003
9.792885e+002, 4.021802e+003
9.797706e+002, 4.016408e+003
9.802527e+002, 4.011341e+003
9.807349e+002, 4.006982e+003
9.812170e+002, 4.003393e+003
9.816991e+002, 4.000948e+003
9.821812e+002, 3.999389e+003
9.826633e+002, 3.996948e+003
9.831454e+002, 3.993639e+003
9.836276e+002, 3.990078e+003
9.841097e+002, 3.985436e+003
9.845918e+002, 3.981667e+003
9.850739e+002, 3.981423e+003
9.855560e+002, 3.983155e+003
9.860381e+002, 3.982720e+003
9.865203e+002, 3.979388e+003
9.870024e+002, 3.974544e+003
9.874845e+002, 3.967455e+003
9.879666e+002, 3.960750e+003
9.884487e+002, 3.958611e+003
9.889308e+002, 3.960021e+003
9.894130e+002, 3.962717e+003
9.898951e+002, 3.966841e+003
9.903772e+002, 3.968320e+003
9.908593e+002, 3.963060e+003
9.913414e+002, 3.955645e+003
9.918235e+002, 3.948804e+003
9.923057e+002, 3.942500e+003
9.927878e+002, 3.939111e+003
9.932699e+002, 3.939001e+003
9.937520e+002, 3.939292e+003
9.942341e+002, 3.938767e+003
9.947162e+002, 3.937390e+003
9.951984e+002, 3.934836e+003
9.956805e+002, 3.931365e+003
9.961626e+002, 3.927788e+003
9.966447e+002, 3.924369e+003
9.971268e+002, 3.920850e+003
9.976089e+002, 3.916798e+003
9.980911e+002, 3.912864e+003
9.985732e+002, 3.909615e+003
9.990553e+002, 3.907039e+003
9.995374e+002, 3.907631e+003
1.000020e+003, 3.912112e+003
1.000502e+003, 3.915833e+003
1.000984e+003, 3.913715e+003
1.001466e+003, 3.909211e+003
1.001948e+003, 3.905067e+003
1.002430e+003, 3.901538e+003
1.002912e+003, 3.900544e+003
1.003394e+003, 3.904254e+003
1.003876e+003, 3.906271e+003
1.004359e+003, 3.903430e+003
1.004841e+003, 3.897351e+003
1.005323e+003, 3.892380e+003
1.005805e+003, 3.888527e+003
1.006287e+003, 3.885985e+003
1.006769e+003, 3.886048e+003
1.007251e+003, 3.885856e+003
1.007733e+003, 3.882707e+003
1.008216e+003, 3.879058e+003
1.008698e+003, 3.878658e+003
1.009180e+003, 3.883071e+003
1.009662e+003, 3.884432e+003
1.010144e+003, 3.881866e+003
1.010626e+003, 3.878520e+003
1.011108e+003, 3.878295e+003
1.011590e+003, 3.878930e+003
1.012072e+003, 3.876430e+003
1.012555e+003, 3.870706e+003
1.013037e+003, 3.866015e+003
1.013519e+003, 3.864503e+003
1.014001e+003, 3.863484e+003
1.014483e+003, 3.861986e+003
1.014965e+003, 3.860342e+003
1.015447e+003, 3.859978e+003
1.015929e+003, 3.860747e+003
1.016411e+003, 3.861093e+003
1.016894e+003, 3.860658e+003
1.017376e+003, 3.859333e+003
1.017858e+003, 3.856387e+003
1.018340e+003, 3.852799e+003
1.018822e+003, 3.849796e+003
1.019304e+003, 3.847482e+003
1.019786e+003, 3.846114e+003
1.020268e+003, 3.846166e+003
1.020751e+003, 3.846018e+003
1.021233e+003, 3.844351e+003
1.021715e+003, 3.841561e+003
1.022197e+003, 3.838198e+003
1.022679e+003, 3.834508e+003
1.023161e+003, 3.831843e+003
1.023643e+003, 3.831485e+003
1.024125e+003, 3.831576e+003
1.024607e+003, 3.831073e+003
1.025090e+003, 3.830564e+003
1.025572e+003, 3.831790e+003
1.026054e+003, 3.834937e+003
1.026536e+003, 3.836421e+003
1.027018e+003, 3.835357e+003
1.027500e+003, 3.833441e+003
1.027982e+003, 3.832720e+003
1.028464e+003, 3.832024e+003
1.028947e+003, 3.829612e+003
1.029429e+003, 3.824626e+003
1.029911e+003, 3.821580e+003
1.030393e+003, 3.822177e+003
1.030875e+003, 3.822086e+003
1.031357e+003, 3.818643e+003
1.031839e+003, 3.813143e+003
1.032321e+003, 3.809713e+003
1.032803e+003, 3.808212e+003
1.033286e+003, 3.807767e+003
1.033768e+003, 3.808893e+003
1.034250e+003, 3.809970e+003
1.034732e+003, 3.811004e+003
1.035214e+003, 3.811156e+003
1.035696e+003, 3.808646e+003
1.036178e+003, 3.802242e+003
1.036660e+003, 3.800091e+003
1.037143e+003, 3.803157e+003
1.037625e+003, 3.807203e+003
1.038107e+003, 3.809259e+003
1.038589e+003, 3.809403e+003
1.039071e+003, 3.807104e+003
1.039553e+003, 3.802477e+003
1.040035e+003, 3.798265e+003
1.040517e+003, 3.794806e+003
1.041000e+003, 3.792151e+003
1.041482e+003, 3.790392e+003
1.041964e+003, 3.789501e+003
1.042446e+003, 3.790334e+003
1.042928e+003, 3.792214e+003
1.043410e+003, 3.791833e+003
1.043892e+003, 3.787127e+003
1.044374e+003, 3.783423e+003
1.044856e+003, 3.786782e+003
1.045339e+003, 3.790681e+003
1.045821e+003, 3.788604e+003
1.046303e+003, 3.779269e+003
1.046785e+003, 3.773541e+003
1.047267e+003, 3.771637e+003
1.047749e+003, 3.771518e+003
1.048231e+003, 3.773130e+003
1.048713e+003, 3.774874e+003
1.049195e+003, 3.774659e+003
1.049677e+003, 3.772827e+003
1.050160e+003, 3.770437e+003
1.050642e+003, 3.766769e+003
1.051124e+003, 3.763922e+003
1.051606e+003, 3.762138e+003
1.052088e+003, 3.761163e+003
1.052570e+003, 3.761487e+003
1.053052e+003, 3.762399e+003
1.053534e+003, 3.760388e+003
1.054017e+003, 3.754919e+003
1.054499e+003, 3.750553e+003
1.054981e+003, 3.750821e+003
1.055463e+003, 3.752495e+003
1.055945e+003, 3.754619e+003
1.056427e+003, 3.756636e+003
1.056909e+003, 3.754627e+003
1.057391e+003, 3.748256e+003
1.057874e+003, 3.742073e+003
1.058356e+003, 3.737456e+003
1.058838e+003, 3.734179e+003
1.059320e+003, 3.731993e+003
1.059802e+003, 3.731003e+003
1.060284e+003, 3.731544e+003
1.060766e+003, 3.735445e+003
1.061248e+003, 3.736480e+003
1.061730e+003, 3.733247e+003
1.062213e+003, 3.729567e+003
1.062695e+003, 3.728088e+003
1.063177e+003, 3.728335e+003
1.063659e+003, 3.728802e+003
1.064141e+003, 3.729425e+003
1.064623e+003, 3.730048e+003
1.065105e+003, 3.731851e+003
1.065587e+003, 3.732072e+003
1.066070e+003, 3.728009e+003
1.066552e+003, 3.722453e+003
1.067034e+003, 3.719461e+003
1.067516e+003, 3.719065e+003
1.067998e+003, 3.720210e+003
1.068480e+003, 3.723034e+003
1.068962e+003, 3.724636e+003
1.069444e+003, 3.720468e+003
1.069927e+003, 3.715296e+003
1.070409e+003, 3.714337e+003
1.070891e+003, 3.717930e+003
1.071373e+003, 3.718044e+003
1.071855e+003, 3.712935e+003
1.072337e+003, 3.708846e+003
1.072819e+003, 3.707987e+003
1.073301e+003, 3.708778e+003
1.073783e+003, 3.708832e+003
1.074266e+003, 3.708236e+003
1.074748e+003, 3.706993e+003
1.075230e+003, 3.704529e+003
1.075712e+003, 3.703098e+003
1.076194e+003, 3.704906e+003
1.076676e+003, 3.706053e+003
1.077158e+003, 3.703470e+003
1.077640e+003, 3.697737e+003
1.078122e+003, 3.695173e+003
1.078604e+003, 3.695458e+003
1.079087e+003, 3.695937e+003
1.079569e+003, 3.695760e+003
1.080051e+003, 3.694621e+003
1.080533e+003, 3.690642e+003
1.081015e+003, 3.686200e+003
1.081497e+003, 3.685972e+003
1.081979e+003, 3.691649e+003
1.082461e+003, 3.692805e+003
1.082944e+003, 3.687965e+003
1.083426e+003, 3.683375e+003
1.083908e+003, 3.687108e+003
1.084390e+003, 3.693183e+003
1.084872e+003, 3.693556e+003
1.085354e+003, 3.688403e+003
1.085836e+003, 3.685915e+003
1.086318e+003, 3.689015e+003
1.086801e+003, 3.691584e+003
1.087283e+003, 3.692394e+003
1.087765e+003, 3.691657e+003
1.088247e+003, 3.688613e+003
1.088729e+003, 3.684450e+003
1.089211e+003, 3.682745e+003
1.089693e+003, 3.684892e+003
1.090175e+003, 3.685959e+003
1.090657e+003, 3.682441e+003
1.091140e+003, 3.678571e+003
1.091622e+003, 3.676493e+003
1.092104e+003, 3.676061e+003
1.092586e+003, 3.676636e+003
1.093068e+003, 3.678087e+003
1.093550e+003, 3.678895e+003
1.094032e+003, 3.678515e+003
1.094514e+003, 3.677090e+003
1.094997e+003, 3.673546e+003
1.095479e+003, 3.669594e+003
1.095961e+003, 3.667523e+003
1.096443e+003, 3.667747e+003
1.096925e+003, 3.668701e+003
1.097407e+003, 3.670483e+003
1.097889e+003, 3.672332e+003
1.098371e+003, 3.673940e+003
1.098854e+003, 3.675052e+003
1.099336e+003, 3.675673e+003
1.099818e+003, 3.675539e+003
1.100300e+003, 3.673616e+003
1.100782e+003, 3.667565e+003
1.101264e+003, 3.663454e+003
1.101746e+003, 3.662501e+003
1.102228e+003, 3.662834e+003
1.102710e+003, 3.662278e+003
1.103193e+003, 3.661015e+003
1.103675e+003, 3.658963e+003
1.104157e+003, 3.656155e+003
1.104639e+003, 3.654873e+003
1.105121e+003, 3.658777e+003
1.105603e+003, 3.661337e+003
1.106085e+003, 3.659876e+003
1.106567e+003, 3.655480e+003
1.107049e+003, 3.650493e+003
1.107531e+003, 3.645241e+003
1.108014e+003, 3.643092e+003
1.108496e+003, 3.645611e+003
1.108978e+003, 3.648779e+003
1.109460e+003, 3.649082e+003
1.109942e+003, 3.649233e+003
1.110424e+003, 3.652445e+003
1.110906e+003, 3.659017e+003
1.111388e+003, 3.660159e+003
1.111871e+003, 3.655524e+003
1.112353e+003, 3.650315e+003
1.112835e+003, 3.646967e+003
1.113317e+003, 3.644567e+003
1.113799e+003, 3.641799e+003
1.114281e+003, 3.639493e+003
1.114763e+003, 3.639130e+003
1.115245e+003, 3.642385e+003
1.115728e+003, 3.644914e+003
1.116210e+003, 3.646972e+003
1.116692e+003, 3.647636e+003
1.117174e+003, 3.644568e+003
1.117656e+003, 3.640356e+003
1.118138e+003, 3.640450e+003
1.118620e+003, 3.643859e+003
1.119102e+003, 3.646074e+003
1.119584e+003, 3.644734e+003
1.120067e+003, 3.642825e+003
1.120549e+003, 3.640040e+003
1.121031e+003, 3.637886e+003
1.121513e+003, 3.639319e+003
1.121995e+003, 3.643048e+003
1.122477e+003, 3.644646e+003
1.122959e+003, 3.643705e+003
1.123441e+003, 3.642012e+003
1.123924e+003, 3.640387e+003
1.124406e+003, 3.638260e+003
1.124888e+003, 3.634876e+003
1.125370e+003, 3.631141e+003
1.125852e+003, 3.629980e+003
1.126334e+003, 3.631159e+003
1.126816e+003, 3.631320e+003
1.127298e+003, 3.629390e+003
1.127781e+003, 3.628128e+003
1.128263e+003, 3.630991e+003
1.128745e+003, 3.634347e+003
1.129227e+003, 3.634995e+003
1.129709e+003, 3.633052e+003
1.130191e+003, 3.631787e+003
1.130673e+003, 3.631317e+003
1.131155e+003, 3.629043e+003
1.131637e+003, 3.621702e+003
1.132120e+003, 3.616038e+003
1.132602e+003, 3.622369e+003
1.133084e+003, 3.633474e+003
1.133566e+003, 3.638801e+003
1.134048e+003, 3.635209e+003
1.134530e+003, 3.632365e+003
1.135012e+003, 3.630295e+003
1.135494e+003, 3.628706e+003
1.135976e+003, 3.626906e+003
1.136458e+003, 3.625768e+003
1.136941e+003, 3.627340e+003
1.137423e+003, 3.630690e+003
1.137905e+003, 3.633516e+003
1.138387e+003, 3.636035e+003
1.138869e+003, 3.636265e+003
1.139351e+003, 3.632984e+003
1.139833e+003, 3.629834e+003
1.140315e+003, 3.631393e+003
1.140798e+003, 3.635512e+003
1.141280e+003, 3.636655e+003
1.141762e+003, 3.635137e+003
1.142244e+003, 3.634445e+003
1.142726e+003, 3.637959e+003
1.143208e+003, 3.639697e+003
1.143690e+003, 3.637751e+003
1.144172e+003, 3.634233e+003
1.144655e+003, 3.632129e+003
1.145137e+003, 3.631277e+003
1.145619e+003, 3.630883e+003
1.146101e+003, 3.630884e+003
1.146583e+003, 3.631300e+003
1.147065e+003, 3.633193e+003
1.147547e+003, 3.634396e+003
1.148029e+003, 3.633637e+003
1.148511e+003, 3.631722e+003
1.148994e+003, 3.630985e+003
1.149476e+003, 3.631290e+003
1.149958e+003, 3.630863e+003
1.150440e+003, 3.628755e+003
1.150922e+003, 3.628600e+003
1.151404e+003, 3.636218e+003
1.151886e+003, 3.643995e+003
1.152368e+003, 3.645337e+003
1.152851e+003, 3.641037e+003
1.153333e+003, 3.639237e+003
1.153815e+003, 3.639899e+003
1.154297e+003, 3.640841e+003
1.154779e+003, 3.641234e+003
1.155261e+003, 3.641521e+003
1.155743e+003, 3.642226e+003
1.156225e+003, 3.642941e+003
1.156708e+003, 3.642953e+003
1.157190e+003, 3.641946e+003
1.157672e+003, 3.642974e+003
1.158154e+003, 3.646454e+003
1.158636e+003, 3.648518e+003
1.159118e+003, 3.646315e+003
1.159600e+003, 3.642474e+003
1.160082e+003, 3.638453e+003
1.160564e+003, 3.635383e+003
1.161047e+003, 3.635576e+003
1.161529e+003, 3.642274e+003
1.162011e+003, 3.644943e+003
1.162493e+003, 3.642841e+003
1.162975e+003, 3.639853e+003
1.163457e+003, 3.639355e+003
1.163939e+003, 3.639513e+003
1.164421e+003, 3.636658e+003
1.164903e+003, 3.632223e+003
1.165385e+003, 3.630759e+003
1.165868e+003, 3.635742e+003
1.166350e+003, 3.638798e+003
1.166832e+003, 3.638710e+003
1.167314e+003, 3.638031e+003
1.167796e+003, 3.639649e+003
1.168278e+003, 3.642375e+003
1.168760e+003, 3.644224e+003
1.169242e+003, 3.645168e+003
1.169725e+003, 3.645817e+003
1.170207e+003, 3.646807e+003
1.170689e+003, 3.646790e+003
1.171171e+003, 3.645296e+003
1.171653e+003, 3.643317e+003
1.172135e+003, 3.641560e+003
1.172617e+003, 3.640603e+003
1.173099e+003, 3.642495e+003
1.173582e+003, 3.647361e+003
1.174064e+003, 3.650734e+003
1.174546e+003, 3.649211e+003
1.175028e+003, 3.648246e+003
1.175510e+003, 3.649523e+003
1.175992e+003, 3.651682e+003
1.176474e+003, 3.650989e+003
1.176956e+003, 3.648966e+003
1.177438e+003, 3.651220e+003
1.177921e+003, 3.659628e+003
1.178403e+003, 3.664641e+003
1.178885e+003, 3.658454e+003
1.179367e+003, 3.652415e+003
1.179849e+003, 3.650584e+003
1.180331e+003, 3.652421e+003
1.180813e+003, 3.659374e+003
1.181295e+003, 3.668876e+003
1.181778e+003, 3.669826e+003
1.182260e+003, 3.656055e+003
1.182742e+003, 3.645117e+003
1.183224e+003, 3.647426e+003
1.183706e+003, 3.652480e+003
1.184188e+003, 3.654665e+003
1.184670e+003, 3.654568e+003
1.185152e+003, 3.655486e+003
1.185635e+003, 3.657103e+003
1.186117e+003, 3.657824e+003
1.186599e+003, 3.656459e+003
1.187081e+003, 3.655247e+003
1.187563e+003, 3.655437e+003
1.188045e+003, 3.656089e+003
1.188527e+003, 3.656439e+003
1.189009e+003, 3.656561e+003
1.189491e+003, 3.657327e+003
1.189974e+003, 3.658722e+003
1.190456e+003, 3.660631e+003
1.190938e+003, 3.664154e+003
1.191420e+003, 3.666621e+003
1.191902e+003, 3.666065e+003
1.192384e+003, 3.664254e+003
1.192866e+003, 3.662646e+003
1.193348e+003, 3.661214e+003
1.193830e+003, 3.661684e+003
1.194313e+003, 3.663844e+003
1.194795e+003, 3.665242e+003
1.195277e+003, 3.663676e+003
1.195759e+003, 3.661740e+003
1.196241e+003, 3.659992e+003
1.196723e+003, 3.659243e+003
1.197205e+003, 3.661380e+003
1.197687e+003, 3.666591e+003
1.198169e+003, 3.667573e+003
1.198652e+003, 3.664144e+003
1.199134e+003, 3.659686e+003
1.199616e+003, 3.654798e+003
1.200098e+003, 3.651455e+003
1.200580e+003, 3.652272e+003
1.201062e+003, 3.654852e+003
1.201544e+003, 3.654914e+003
1.202026e+003, 3.652359e+003
1.202509e+003, 3.651875e+003
1.202991e+003, 3.653879e+003
1.203473e+003, 3.655932e+003
1.203955e+003, 3.656185e+003
1.204437e+003, 3.655923e+003
1.204919e+003, 3.655228e+003
1.205401e+003, 3.654807e+003
1.205883e+003, 3.656422e+003
1.206365e+003, 3.660090e+003
1.206848e+003, 3.663879e+003
1.207330e+003, 3.667576e+003
1.207812e+003, 3.670215e+003
1.208294e+003, 3.670122e+003
1.208776e+003, 3.669591e+003
1.209258e+003, 3.670213e+003
1.209740e+003, 3.671701e+003
1.210222e+003, 3.673711e+003
1.210705e+003, 3.676313e+003
1.211187e+003, 3.676330e+003
1.211669e+003, 3.672983e+003
1.212151e+003, 3.669543e+003
1.212633e+003, 3.669497e+003
1.213115e+003, 3.669674e+003
1.213597e+003, 3.666784e+003
1.214079e+003, 3.662220e+003
1.214562e+003, 3.661672e+003
1.215044e+003, 3.665038e+003
1.215526e+003, 3.667292e+003
1.216008e+003, 3.667109e+003
1.216490e+003, 3.666621e+003
1.216972e+003, 3.667688e+003
1.217454e+003, 3.668875e+003
1.217936e+003, 3.668566e+003
1.218418e+003, 3.667286e+003
1.218901e+003, 3.668647e+003
1.219383e+003, 3.672420e+003
1.219865e+003, 3.674002e+003
1.220347e+003, 3.671528e+003
1.220829e+003, 3.668695e+003
1.221311e+003, 3.667515e+003
1.221793e+003, 3.667777e+003
1.222275e+003, 3.669743e+003
1.222757e+003, 3.673021e+003
1.223240e+003, 3.675052e+003
1.223722e+003, 3.675881e+003
1.224204e+003, 3.675555e+003
1.224686e+003, 3.673883e+003
1.225168e+003, 3.671869e+003
1.225650e+003, 3.669306e+003
1.226132e+003, 3.667596e+003
1.226614e+003, 3.668088e+003
1.227096e+003, 3.670450e+003
1.227579e+003, 3.671272e+003
1.228061e+003, 3.670769e+003
1.228543e+003, 3.670810e+003
1.229025e+003, 3.672382e+003
1.229507e+003, 3.673917e+003
1.229989e+003, 3.673818e+003
1.230471e+003, 3.673916e+003
1.230953e+003, 3.676223e+003
1.231436e+003, 3.680160e+003
1.231918e+003, 3.678774e+003
1.232400e+003, 3.673207e+003
1.232882e+003, 3.671715e+003
1.233364e+003, 3.680634e+003
1.233846e+003, 3.688731e+003
1.234328e+003, 3.690433e+003
1.234810e+003, 3.689248e+003
1.235292e+003, 3.686857e+003
1.235775e+003, 3.683718e+003
1.236257e+003, 3.683688e+003
1.236739e+003, 3.686310e+003
1.237221e+003, 3.689032e+003
1.237703e+003, 3.690870e+003
1.238185e+003, 3.692463e+003
1.238667e+003, 3.693893e+003
1.239149e+003, 3.695289e+003
1.239632e+003, 3.696717e+003
1.240114e+003, 3.698159e+003
1.240596e+003, 3.699435e+003
1.241078e+003, 3.700718e+003
1.241560e+003, 3.702851e+003
1.242042e+003, 3.708540e+003
1.242524e+003, 3.711439e+003
1.243006e+003, 3.708127e+003
1.243489e+003, 3.704156e+003
1.243971e+003, 3.703779e+003
1.244453e+003, 3.706371e+003
1.244935e+003, 3.710617e+003
1.245417e+003, 3.715713e+003
1.245899e+003, 3.718546e+003
1.246381e+003, 3.715140e+003
1.246863e+003, 3.713358e+003
1.247345e+003, 3.714577e+003
1.247828e+003, 3.717102e+003
1.248310e+003, 3.719833e+003
1.248792e+003, 3.722668e+003
1.249274e+003, 3.725548e+003
1.249756e+003, 3.728323e+003
1.250238e+003, 3.730497e+003
1.250720e+003, 3.732650e+003
1.251202e+003, 3.732582e+003
1.251684e+003, 3.729127e+003
1.252167e+003, 3.725932e+003
1.252649e+003, 3.726730e+003
1.253131e+003, 3.729659e+003
1.253613e+003, 3.731114e+003
1.254095e+003, 3.731475e+003
1.254577e+003, 3.732250e+003
1.255059e+003, 3.733673e+003
1.255541e+003, 3.735767e+003
1.256023e+003, 3.738655e+003
1.256506e+003, 3.741672e+003
1.256988e+003, 3.744821e+003
1.257470e+003, 3.747387e+003
1.257952e+003, 3.747470e+003
1.258434e+003, 3.746161e+003
1.258916e+003, 3.746969e+003
1.259398e+003, 3.751890e+003
1.259880e+003, 3.753932e+003
1.260363e+003, 3.752250e+003
1.260845e+003, 3.750628e+003
1.261327e+003, 3.754163e+003
1.261809e+003, 3.757780e+003
1.262291e+003, 3.754521e+003
1.262773e+003, 3.747362e+003
1.263255e+003, 3.744676e+003
1.263737e+003, 3.747842e+003
1.264219e+003, 3.749939e+003
1.264702e+003, 3.750445e+003
1.265184e+003, 3.750628e+003
1.265666e+003, 3.751221e+003
1.266148e+003, 3.752133e+003
1.266630e+003, 3.753288e+003
1.267112e+003, 3.754776e+003
1.267594e+003, 3.756923e+003
1.268076e+003, 3.759879e+003
1.268559e+003, 3.761562e+003
1.269041e+003, 3.761851e+003
1.269523e+003, 3.761638e+003
1.270005e+003, 3.759705e+003
1.270487e+003, 3.759434e+003
1.270969e+003, 3.765116e+003
1.271451e+003, 3.772281e+003
1.271933e+003, 3.774206e+003
1.272416e+003, 3.771398e+003
1.272898e+003, 3.770860e+003
1.273380e+003, 3.772893e+003
1.273862e+003, 3.775674e+003
1.274344e+003, 3.778946e+003
1.274826e+003, 3.781742e+003
1.275308e+003, 3.783672e+003
1.275790e+003, 3.785136e+003
1.276272e+003, 3.786521e+003
1.276755e+003, 3.787884e+003
1.277237e+003, 3.789778e+003
1.277719e+003, 3.792027e+003
1.278201e+003, 3.793284e+003
1.278683e+003, 3.791771e+003
1.279165e+003, 3.790803e+003
1.279647e+003, 3.790705e+003
1.280129e+003, 3.791849e+003
1.280611e+003, 3.795750e+003
1.281094e+003, 3.800749e+003
1.281576e+003, 3.802685e+003
1.282058e+003, 3.802175e+003
1.282540e+003, 3.803218e+003
1.283022e+003, 3.808436e+003
1.283504e+003, 3.812130e+003
1.283986e+003, 3.813567e+003
1.284468e+003, 3.813929e+003
1.284950e+003, 3.812928e+003
1.285433e+003, 3.812584e+003
1.285915e+003, 3.817026e+003
1.286397e+003, 3.824644e+003
1.286879e+003, 3.828733e+003
1.287361e+003, 3.827875e+003
1.287843e+003, 3.827491e+003
1.288325e+003, 3.828108e+003
1.288807e+003, 3.828864e+003
1.289290e+003, 3.828642e+003
1.289772e+003, 3.828599e+003
1.290254e+003, 3.829779e+003
1.290736e+003, 3.831951e+003
1.291218e+003, 3.834587e+003
1.291700e+003, 3.837794e+003
1.292182e+003, 3.839376e+003
1.292664e+003, 3.839170e+003
1.293146e+003, 3.839861e+003
1.293629e+003, 3.844652e+003
1.294111e+003, 3.849402e+003
1.294593e+003, 3.852206e+003
1.295075e+003, 3.853163e+003
1.295557e+003, 3.850894e+003
1.296039e+003, 3.846231e+003
1.296521e+003, 3.847424e+003
1.297003e+003, 3.853964e+003
1.297486e+003, 3.858293e+003
1.297968e+003, 3.853841e+003
1.298450e+003, 3.850824e+003
1.298932e+003, 3.852289e+003
1.299414e+003, 3.855568e+003
1.299896e+003, 3.858033e+003
1.300378e+003, 3.859995e+003
1.300860e+003, 3.862421e+003
1.301343e+003, 3.865305e+003
1.301825e+003, 3.868251e+003
##END=



