##NAMES=Hoelite
##RRUFFID=R060874
##IDEAL CHEMISTRY=C_14_H_8_O_2_
##LOCALITY=Kladno, Central Bohemia Region, Bohemia, Czech Republic
##OWNER=RRUFF
##SOURCE=Michael Scott
##DESCRIPTION=Straw-yellow acicular crystals
##STATUS=The identification of this mineral has been confirmed by single-crystal X-ray diffraction.
##URL=rruff.info/R060874
117.6661, 4548.136
118.1482, 4799.202
118.6303, 5054.552
119.1124, 5296.424
119.5946, 5548.270
120.0767, 5838.724
120.5588, 6205.079
121.0409, 6596.727
121.5230, 6985.438
122.0051, 7367.786
122.4873, 7741.359
122.9694, 8103.974
123.4515, 8454.328
123.9336, 8785.297
124.4157, 9109.090
124.8979, 9406.734
125.3800, 9651.214
125.8621, 9834.032
126.3442, 9969.803
126.8263, 10068.52
127.3084, 10131.31
127.7905, 10172.81
128.2727, 10209.67
128.7548, 10234.35
129.2369, 10220.68
129.7190, 10136.17
130.2011, 10021.94
130.6832, 9970.535
131.1654, 9984.998
131.6475, 10033.39
132.1296, 10083.28
132.6117, 10136.03
133.0938, 10206.09
133.5759, 10291.17
134.0581, 10394.88
134.5402, 10551.47
135.0223, 10774.01
135.5044, 11021.88
135.9865, 11223.02
136.4686, 11370.18
136.9508, 11517.44
137.4329, 11690.54
137.9150, 11889.79
138.3971, 12101.16
138.8792, 12334.87
139.3613, 12574.97
139.8434, 12774.03
140.3256, 12922.71
140.8077, 13056.76
141.2898, 13205.18
141.7719, 13381.60
142.2540, 13528.17
142.7361, 13631.64
143.2183, 13696.52
143.7004, 13759.35
144.1825, 13820.66
144.6646, 13878.71
145.1467, 13931.06
145.6288, 13977.81
146.1110, 14018.18
146.5931, 14052.44
147.0752, 14081.15
147.5573, 14096.74
148.0394, 14082.95
148.5215, 14062.78
149.0037, 14064.53
149.4858, 14103.91
149.9679, 14149.01
150.4500, 14194.20
150.9321, 14242.22
151.4142, 14284.30
151.8964, 14308.57
152.3785, 14328.85
152.8606, 14370.48
153.3427, 14452.12
153.8248, 14543.94
154.3069, 14635.50
154.7890, 14732.16
155.2712, 14823.05
155.7533, 14908.03
156.2354, 14986.70
156.7175, 15059.30
157.1996, 15107.67
157.6817, 15161.69
158.1639, 15239.09
158.6460, 15370.17
159.1281, 15497.57
159.6102, 15603.23
160.0923, 15688.50
160.5744, 15771.98
161.0566, 15862.97
161.5387, 15952.15
162.0208, 16031.09
162.5029, 16090.25
162.9850, 16142.77
163.4671, 16192.89
163.9493, 16239.99
164.4314, 16287.05
164.9135, 16342.75
165.3956, 16397.77
165.8777, 16439.88
166.3598, 16452.55
166.8420, 16459.17
167.3241, 16477.82
167.8062, 16513.32
168.2883, 16547.46
168.7704, 16560.15
169.2525, 16563.75
169.7346, 16582.60
170.2168, 16645.15
170.6989, 16721.46
171.1810, 16781.16
171.6631, 16815.06
172.1452, 16845.15
172.6273, 16890.17
173.1095, 16947.01
173.5916, 17006.71
174.0737, 17065.61
174.5558, 17123.65
175.0379, 17179.08
175.5201, 17229.13
176.0022, 17280.55
176.4843, 17343.82
176.9664, 17416.62
177.4485, 17486.52
177.9306, 17540.70
178.4128, 17585.03
178.8949, 17632.87
179.3770, 17689.58
179.8591, 17750.55
180.3412, 17811.15
180.8233, 17871.79
181.3055, 17927.11
181.7876, 17967.82
182.2697, 17998.48
182.7518, 18035.27
183.2339, 18081.88
183.7160, 18138.64
184.1981, 18211.92
184.6803, 18303.90
185.1624, 18390.61
185.6445, 18438.84
186.1266, 18454.50
186.6087, 18475.96
187.0908, 18523.77
187.5730, 18591.06
188.0551, 18650.46
188.5372, 18701.90
189.0193, 18747.24
189.5014, 18789.01
189.9835, 18827.69
190.4657, 18864.76
190.9478, 18902.23
191.4299, 18939.80
191.9120, 18968.68
192.3941, 18983.99
192.8762, 19000.44
193.3584, 19053.31
193.8405, 19144.66
194.3226, 19225.68
194.8047, 19257.63
195.2868, 19243.17
195.7689, 19249.15
196.2511, 19284.64
196.7332, 19340.39
197.2153, 19400.28
197.6974, 19467.57
198.1795, 19521.59
198.6616, 19536.89
199.1437, 19510.28
199.6259, 19513.91
200.1080, 19563.52
200.5901, 19646.49
201.0722, 19719.02
201.5543, 19779.21
202.0364, 19836.77
202.5186, 19897.79
203.0007, 19961.82
203.4828, 20029.48
203.9649, 20100.71
204.4470, 20175.01
204.9291, 20251.97
205.4113, 20334.84
205.8934, 20411.00
206.3755, 20466.17
206.8576, 20495.07
207.3397, 20526.38
207.8218, 20569.19
208.3040, 20621.55
208.7861, 20653.79
209.2682, 20655.70
209.7503, 20656.82
210.2324, 20692.11
210.7145, 20773.27
211.1967, 20850.44
211.6788, 20912.70
212.1609, 20960.47
212.6430, 21002.04
213.1251, 21030.37
213.6072, 21062.60
214.0894, 21125.27
214.5715, 21235.15
215.0536, 21330.84
215.5357, 21388.70
216.0178, 21403.22
216.4999, 21432.73
216.9820, 21481.05
217.4642, 21538.36
217.9463, 21590.89
218.4284, 21632.87
218.9105, 21679.52
219.3926, 21739.90
219.8747, 21820.02
220.3569, 21876.29
220.8390, 21898.28
221.3211, 21904.06
221.8032, 21925.10
222.2853, 21967.16
222.7674, 22014.66
223.2496, 22063.30
223.7317, 22115.81
224.2138, 22163.22
224.6959, 22201.16
225.1780, 22237.52
225.6601, 22291.39
226.1423, 22373.75
226.6244, 22454.44
227.1065, 22518.39
227.5886, 22553.84
228.0707, 22605.50
228.5528, 22684.44
229.0350, 22775.77
229.5171, 22839.96
229.9992, 22856.83
230.4813, 22878.40
230.9634, 22929.06
231.4455, 23028.16
231.9276, 23113.42
232.4098, 23178.52
232.8919, 23231.28
233.3740, 23292.58
233.8561, 23370.21
234.3382, 23445.79
234.8203, 23512.60
235.3025, 23573.37
235.7846, 23617.38
236.2667, 23630.96
236.7488, 23628.61
237.2309, 23663.95
237.7130, 23762.00
238.1952, 23863.48
238.6773, 23936.36
239.1594, 23963.70
239.6415, 23998.86
240.1236, 24047.24
240.6057, 24105.88
241.0879, 24162.51
241.5700, 24213.99
242.0521, 24266.99
242.5342, 24325.53
243.0163, 24393.26
243.4984, 24458.06
243.9806, 24517.38
244.4627, 24572.16
244.9448, 24627.90
245.4269, 24681.65
245.9090, 24738.20
246.3911, 24800.84
246.8732, 24871.18
247.3554, 24941.91
247.8375, 25013.42
248.3196, 25084.37
248.8017, 25148.60
249.2838, 25200.92
249.7659, 25252.58
250.2481, 25314.12
250.7302, 25400.87
251.2123, 25465.03
251.6944, 25495.97
252.1765, 25501.01
252.6586, 25518.09
253.1408, 25552.71
253.6229, 25594.65
254.1050, 25639.29
254.5871, 25689.86
255.0692, 25736.19
255.5513, 25773.02
256.0334, 25804.03
256.5156, 25855.88
256.9977, 25945.20
257.4798, 26031.18
257.9619, 26079.26
258.4440, 26061.88
258.9261, 26078.30
259.4083, 26149.63
259.8904, 26264.70
260.3725, 26353.66
260.8546, 26399.70
261.3367, 26446.11
261.8188, 26530.36
262.3010, 26677.92
262.7831, 26786.70
263.2652, 26830.14
263.7473, 26823.37
264.2294, 26855.61
264.7115, 26939.24
265.1937, 27038.44
265.6758, 27133.36
266.1579, 27229.93
266.6400, 27294.50
267.1221, 27309.18
267.6042, 27289.05
268.0864, 27310.33
268.5685, 27389.16
269.0506, 27476.76
269.5327, 27533.09
270.0148, 27546.12
270.4969, 27586.74
270.9791, 27675.45
271.4612, 27797.09
271.9433, 27878.15
272.4254, 27907.10
272.9075, 27928.17
273.3896, 27971.28
273.8718, 28038.13
274.3539, 28115.61
274.8360, 28207.51
275.3181, 28307.29
275.8002, 28393.65
276.2823, 28465.63
276.7645, 28525.83
277.2466, 28566.55
277.7287, 28582.46
278.2108, 28631.73
278.6929, 28732.11
279.1750, 28862.34
279.6572, 28959.14
280.1393, 29018.12
280.6214, 29063.71
281.1035, 29106.40
281.5856, 29145.69
282.0677, 29201.03
282.5499, 29281.80
283.0320, 29372.42
283.5141, 29426.51
283.9962, 29439.36
284.4783, 29459.76
284.9604, 29530.85
285.4425, 29649.38
285.9247, 29745.60
286.4068, 29808.57
286.8889, 29851.15
287.3710, 29894.12
287.8531, 29937.59
288.3352, 29986.34
288.8174, 30043.61
289.2995, 30108.99
289.7816, 30181.49
290.2637, 30261.33
290.7458, 30343.59
291.2279, 30420.13
291.7101, 30490.73
292.1922, 30555.91
292.6743, 30614.06
293.1564, 30666.36
293.6385, 30714.64
294.1206, 30757.00
294.6028, 30800.88
295.0849, 30858.71
295.5670, 30929.54
296.0491, 31004.75
296.5312, 31085.44
297.0133, 31167.35
297.4955, 31239.19
297.9776, 31299.10
298.4597, 31351.61
298.9418, 31389.44
299.4239, 31420.06
299.9060, 31469.76
300.3882, 31555.44
300.8703, 31667.69
301.3524, 31791.42
301.8345, 31925.46
302.3166, 32064.28
302.7987, 32222.23
303.2809, 32381.77
303.7630, 32504.80
304.2451, 32531.02
304.7272, 32525.78
305.2093, 32567.55
305.6914, 32662.82
306.1736, 32778.28
306.6557, 32909.20
307.1378, 33041.52
307.6199, 33150.17
308.1020, 33215.41
308.5841, 33260.32
309.0663, 33299.70
309.5484, 33335.16
310.0305, 33380.68
310.5126, 33459.46
310.9947, 33552.14
311.4768, 33630.93
311.9590, 33658.92
312.4411, 33690.32
312.9232, 33773.25
313.4053, 33906.11
313.8874, 34017.92
314.3695, 34049.93
314.8516, 34053.26
315.3337, 34081.11
315.8159, 34185.99
316.2980, 34286.41
316.7801, 34335.38
317.2622, 34339.80
317.7443, 34364.84
318.2264, 34464.73
318.7086, 34580.67
319.1907, 34667.93
319.6728, 34667.29
320.1549, 34687.38
320.6370, 34764.41
321.1191, 34890.06
321.6013, 35022.72
322.0834, 35164.79
322.5655, 35299.93
323.0476, 35418.23
323.5297, 35517.16
324.0118, 35598.89
324.4940, 35652.81
324.9761, 35686.86
325.4582, 35728.38
325.9403, 35758.16
326.4224, 35812.68
326.9045, 35912.04
327.3867, 36119.01
327.8688, 36273.23
328.3509, 36335.10
328.8330, 36343.38
329.3151, 36385.51
329.7972, 36488.11
330.2794, 36597.67
330.7615, 36698.84
331.2436, 36790.95
331.7257, 36878.75
332.2078, 36965.79
332.6899, 37048.11
333.1721, 37116.72
333.6542, 37154.71
334.1363, 37207.42
334.6184, 37296.62
335.1005, 37431.10
335.5826, 37534.28
336.0648, 37591.78
336.5469, 37634.13
337.0290, 37700.36
337.5111, 37797.65
337.9932, 37897.05
338.4753, 37989.72
338.9575, 38075.30
339.4396, 38169.38
339.9217, 38275.54
340.4038, 38380.19
340.8859, 38469.08
341.3680, 38539.10
341.8502, 38614.95
342.3323, 38703.31
342.8144, 38800.93
343.2965, 38890.13
343.7786, 38972.24
344.2607, 39048.72
344.7429, 39121.21
345.2250, 39190.70
345.7071, 39257.92
346.1892, 39317.26
346.6713, 39384.79
347.1534, 39514.74
347.6355, 39703.43
348.1176, 39870.25
348.5998, 39937.66
349.0819, 39937.89
349.5640, 39972.10
350.0461, 40056.15
350.5282, 40165.00
351.0103, 40263.56
351.4925, 40356.76
351.9746, 40470.38
352.4567, 40653.04
352.9388, 40851.95
353.4209, 40977.13
353.9030, 41011.57
354.3852, 41035.34
354.8673, 41128.43
355.3494, 41264.02
355.8315, 41387.78
356.3136, 41470.77
356.7957, 41537.05
357.2779, 41607.52
357.7600, 41684.30
358.2421, 41752.92
358.7242, 41791.58
359.2063, 41822.43
359.6884, 41871.24
360.1706, 41959.12
360.6527, 42055.65
361.1348, 42150.89
361.6169, 42243.85
362.0990, 42326.52
362.5811, 42364.87
363.0633, 42409.04
363.5454, 42496.94
364.0275, 42708.00
364.5096, 42877.66
364.9917, 42941.77
365.4738, 42928.00
365.9560, 42936.84
366.4381, 42983.22
366.9202, 43059.88
367.4023, 43167.45
367.8844, 43334.59
368.3665, 43486.03
368.8487, 43622.63
369.3308, 43742.61
369.8129, 43837.75
370.2950, 43864.79
370.7771, 43917.98
371.2592, 44032.68
371.7414, 44226.69
372.2235, 44401.85
372.7056, 44567.37
373.1877, 44705.55
373.6698, 44779.11
374.1519, 44737.29
374.6341, 44749.63
375.1162, 44870.57
375.5983, 45092.91
376.0804, 45277.10
376.5625, 45415.66
377.0446, 45527.72
377.5267, 45630.43
378.0089, 45727.05
378.4910, 45791.95
378.9731, 45808.44
379.4552, 45800.68
379.9373, 45842.92
380.4194, 45940.22
380.9016, 46048.29
381.3837, 46134.62
381.8658, 46205.58
382.3479, 46297.81
382.8300, 46416.83
383.3121, 46556.14
383.7943, 46723.66
384.2764, 46909.31
384.7585, 47061.73
385.2406, 47108.64
385.7227, 47111.46
386.2048, 47196.02
386.6870, 47373.79
387.1691, 47559.90
387.6512, 47654.85
388.1333, 47698.05
388.6154, 47768.37
389.0975, 47932.93
389.5797, 48113.31
390.0618, 48234.34
390.5439, 48301.63
391.0260, 48364.15
391.5081, 48455.09
391.9902, 48555.22
392.4724, 48646.09
392.9545, 48704.34
393.4366, 48778.33
393.9187, 48907.77
394.4008, 49074.44
394.8829, 49222.81
395.3651, 49334.86
395.8472, 49423.65
396.3293, 49491.35
396.8114, 49519.84
397.2935, 49567.07
397.7756, 49642.36
398.2578, 49740.37
398.7399, 49853.53
399.2220, 50001.52
399.7041, 50142.31
400.1862, 50273.50
400.6683, 50401.13
401.1505, 50471.30
401.6326, 50412.44
402.1147, 50354.75
402.5968, 50438.31
403.0789, 50763.08
403.5610, 51009.85
404.0432, 51102.13
404.5253, 51069.65
405.0074, 51099.04
405.4895, 51206.00
405.9716, 51338.82
406.4537, 51474.13
406.9359, 51615.71
407.4180, 51709.34
407.9001, 51726.26
408.3822, 51727.60
408.8643, 51855.87
409.3464, 52112.54
409.8285, 52356.38
410.3106, 52492.36
410.7928, 52552.03
411.2749, 52661.67
411.7570, 52831.64
412.2391, 53006.93
412.7212, 53118.76
413.2033, 53187.71
413.6855, 53273.92
414.1676, 53411.81
414.6497, 53569.32
415.1318, 53705.02
415.6139, 53821.35
416.0960, 53931.88
416.5782, 54038.70
417.0603, 54148.14
417.5424, 54270.25
418.0245, 54423.18
418.5066, 54558.18
418.9887, 54633.32
419.4709, 54668.68
419.9530, 54715.00
420.4351, 54820.83
420.9172, 54921.38
421.3993, 54965.69
421.8814, 54922.07
422.3636, 54941.03
422.8457, 55114.64
423.3278, 55347.91
423.8099, 55531.88
424.2920, 55622.98
424.7741, 55701.36
425.2563, 55773.30
425.7384, 55840.66
426.2205, 55929.79
426.7026, 56061.41
427.1847, 56193.78
427.6668, 56297.57
428.1490, 56358.81
428.6311, 56418.19
429.1132, 56461.30
429.5953, 56511.81
430.0774, 56645.44
430.5595, 56887.35
431.0417, 57114.81
431.5238, 57269.68
432.0059, 57352.13
432.4880, 57405.98
432.9701, 57423.53
433.4522, 57438.76
433.9344, 57495.44
434.4165, 57590.12
434.8986, 57695.50
435.3807, 57808.61
435.8628, 57924.55
436.3449, 58024.00
436.8271, 58110.02
437.3092, 58216.08
437.7913, 58390.80
438.2734, 58594.88
438.7555, 58759.00
439.2376, 58854.77
439.7197, 58948.15
440.2018, 59111.24
440.6840, 59313.22
441.1661, 59487.43
441.6482, 59570.82
442.1303, 59636.51
442.6124, 59733.82
443.0945, 59869.88
443.5767, 59994.51
444.0588, 60078.75
444.5409, 60148.81
445.0230, 60229.40
445.5051, 60342.50
445.9872, 60449.71
446.4694, 60544.16
446.9515, 60627.89
447.4336, 60706.92
447.9157, 60750.55
448.3978, 60821.10
448.8799, 60954.31
449.3621, 61207.11
449.8442, 61382.39
450.3263, 61440.48
450.8084, 61453.03
451.2905, 61540.63
451.7726, 61731.36
452.2548, 61894.16
452.7369, 61972.99
453.2190, 61982.25
453.7011, 62058.87
454.1832, 62212.03
454.6653, 62384.24
455.1475, 62528.13
455.6296, 62646.38
456.1117, 62769.06
456.5938, 62902.82
457.0759, 63038.88
457.5580, 63163.90
458.0402, 63278.32
458.5223, 63381.65
459.0044, 63463.25
459.4865, 63539.61
459.9686, 63636.73
460.4507, 63757.00
460.9329, 63881.73
461.4150, 63992.64
461.8971, 64098.53
462.3792, 64211.30
462.8613, 64368.11
463.3434, 64500.25
463.8256, 64538.83
464.3077, 64511.97
464.7898, 64546.69
465.2719, 64756.69
465.7540, 64982.18
466.2361, 65132.14
466.7183, 65136.68
467.2004, 65198.54
467.6825, 65370.22
468.1646, 65590.38
468.6467, 65781.06
469.1288, 65925.45
469.6109, 66061.35
470.0930, 66193.12
470.5752, 66319.99
471.0573, 66458.00
471.5394, 66612.49
472.0215, 66761.66
472.5036, 66885.20
472.9857, 66980.31
473.4679, 67082.95
473.9500, 67200.45
474.4321, 67319.06
474.9142, 67407.77
475.3963, 67470.05
475.8784, 67538.66
476.3606, 67659.68
476.8427, 67795.60
477.3248, 67836.73
477.8069, 67783.71
478.2890, 67749.67
478.7711, 67852.75
479.2533, 68032.48
479.7354, 68195.68
480.2175, 68305.17
480.6996, 68409.30
481.1817, 68529.79
481.6638, 68668.06
482.1460, 68828.81
482.6281, 69037.52
483.1102, 69243.70
483.5923, 69409.06
484.0744, 69513.40
484.5565, 69644.78
485.0387, 69856.85
485.5208, 70080.65
486.0029, 70248.50
486.4850, 70315.25
486.9671, 70382.88
487.4492, 70461.16
487.9314, 70549.34
488.4135, 70642.70
488.8956, 70749.41
489.3777, 70850.91
489.8598, 70945.15
490.3419, 71036.48
490.8241, 71090.78
491.3062, 71094.80
491.7883, 71100.27
492.2704, 71193.39
492.7525, 71366.85
493.2346, 71509.36
493.7168, 71562.04
494.1989, 71580.22
494.6810, 71672.41
495.1631, 71831.37
495.6452, 72010.20
496.1273, 72208.00
496.6095, 72392.15
497.0916, 72493.76
497.5737, 72483.26
498.0558, 72490.06
498.5379, 72636.35
499.0201, 72850.56
499.5022, 73024.95
499.9843, 73099.58
500.4664, 73152.48
500.9485, 73190.54
501.4306, 73222.66
501.9127, 73315.45
502.3948, 73573.69
502.8770, 73826.95
503.3591, 73973.62
503.8412, 73916.34
504.3233, 73946.83
504.8054, 74096.09
505.2875, 74311.10
505.7697, 74521.91
506.2518, 74736.37
506.7339, 74921.32
507.2160, 75051.71
507.6981, 75143.02
508.1802, 75304.97
508.6624, 75550.73
509.1445, 75785.08
509.6266, 75938.62
510.1087, 76020.85
510.5908, 76057.88
511.0729, 76038.38
511.5551, 76032.88
512.0372, 76134.82
512.5193, 76321.44
513.0014, 76528.09
513.4835, 76780.43
513.9656, 77005.21
514.4478, 77101.70
514.9299, 77089.85
515.4120, 77118.77
515.8941, 77301.18
516.3762, 77527.52
516.8583, 77712.41
517.3405, 77812.67
517.8226, 77934.72
518.3047, 78114.53
518.7868, 78324.34
519.2689, 78522.88
519.7510, 78712.41
520.2332, 78885.60
520.7153, 79026.80
521.1974, 79142.61
521.6795, 79302.66
522.1616, 79545.56
522.6437, 79757.03
523.1259, 79836.66
523.6080, 79770.27
524.0901, 79798.84
524.5722, 79959.55
525.0543, 80154.23
525.5364, 80224.09
526.0186, 80192.82
526.5007, 80221.32
526.9828, 80396.55
527.4649, 80638.18
527.9470, 80839.59
528.4291, 80996.73
528.9113, 81109.64
529.3934, 81110.68
529.8755, 81101.34
530.3576, 81205.02
530.8397, 81473.09
531.3218, 81697.16
531.8040, 81706.39
532.2861, 81640.12
532.7682, 81666.54
533.2503, 81958.67
533.7324, 82200.91
534.2145, 82294.86
534.6967, 82269.38
535.1788, 82304.15
535.6609, 82423.38
536.1430, 82575.66
536.6251, 82742.07
537.1072, 82929.91
537.5894, 83110.73
538.0715, 83286.76
538.5536, 83451.98
539.0357, 83593.78
539.5178, 83711.39
539.9999, 83818.43
540.4821, 83900.12
540.9642, 83990.23
541.4463, 84172.23
541.9284, 84430.51
542.4105, 84679.18
542.8926, 84850.62
543.3748, 84990.99
543.8569, 85166.58
544.3390, 85380.34
544.8211, 85567.12
545.3032, 85655.34
545.7853, 85711.28
546.2675, 85803.20
546.7495, 85980.38
547.2316, 86152.63
547.7137, 86308.90
548.1959, 86443.28
548.6780, 86546.03
549.1601, 86551.73
549.6422, 86600.95
550.1243, 86748.78
550.6064, 86999.27
551.0886, 87191.00
551.5707, 87310.63
552.0528, 87397.55
552.5349, 87467.80
553.0170, 87518.88
553.4991, 87608.28
553.9813, 87749.66
554.4634, 87908.07
554.9455, 88016.80
555.4276, 88089.03
555.9097, 88195.84
556.3918, 88377.77
556.8740, 88600.49
557.3561, 88850.91
557.8382, 89116.04
558.3203, 89319.30
558.8024, 89344.88
559.2845, 89333.79
559.7667, 89404.61
560.2488, 89587.34
560.7309, 89794.41
561.2130, 90030.06
561.6951, 90260.24
562.1772, 90451.21
562.6594, 90516.70
563.1415, 90642.72
563.6236, 90883.80
564.1057, 91192.98
564.5878, 91416.35
565.0699, 91517.65
565.5521, 91607.12
566.0342, 91724.72
566.5163, 91868.73
566.9984, 92029.34
567.4805, 92206.41
567.9626, 92396.08
568.4448, 92606.36
568.9269, 92828.63
569.4090, 93045.60
569.8911, 93261.88
570.3732, 93444.80
570.8553, 93522.97
571.3375, 93538.48
571.8196, 93581.89
572.3017, 93688.91
572.7838, 93840.03
573.2659, 94059.14
573.7480, 94330.16
574.2302, 94544.81
574.7123, 94619.54
575.1944, 94664.98
575.6765, 94743.59
576.1586, 94884.00
576.6407, 94992.89
577.1229, 95042.41
577.6050, 95088.57
578.0871, 95202.48
578.5692, 95414.64
579.0513, 95589.59
579.5334, 95692.27
580.0156, 95758.47
580.4977, 95868.80
580.9798, 96023.38
581.4619, 96221.48
581.9440, 96512.54
582.4261, 96834.77
582.9083, 97024.83
583.3904, 97083.05
583.8725, 97151.59
584.3546, 97365.09
584.8367, 97627.64
585.3188, 97829.22
585.8010, 97909.92
586.2831, 98013.06
586.7652, 98233.39
587.2473, 98502.84
587.7294, 98726.56
588.2115, 98832.57
588.6937, 98954.23
589.1758, 99111.39
589.6579, 99302.59
590.1400, 99531.96
590.6221, 99848.81
591.1042, 100105.6
591.5864, 100199.9
592.0685, 100130.9
592.5506, 100156.2
593.0327, 100285.3
593.5148, 100467.6
593.9969, 100661.3
594.4791, 100867.5
594.9612, 101102.7
595.4433, 101391.3
595.9254, 101656.8
596.4075, 101784.2
596.8896, 101829.9
597.3718, 101910.8
597.8539, 102117.2
598.3360, 102337.1
598.8181, 102496.2
599.3002, 102605.0
599.7823, 102758.2
600.2645, 103032.8
600.7466, 103310.0
601.2287, 103526.8
601.7108, 103660.6
602.1929, 103822.2
602.6750, 104009.2
603.1572, 104224.3
603.6393, 104491.2
604.1214, 104819.1
604.6035, 105080.9
605.0856, 105236.6
605.5677, 105355.6
606.0499, 105577.2
606.5320, 105883.6
607.0141, 106178.6
607.4962, 106422.7
607.9783, 106629.0
608.4604, 106784.1
608.9425, 106900.8
609.4246, 107050.8
609.9067, 107319.8
610.3889, 107605.6
610.8710, 107817.1
611.3531, 107906.6
611.8352, 108076.9
612.3173, 108489.8
612.7994, 108930.0
613.2816, 109209.4
613.7637, 109236.6
614.2458, 109274.9
614.7279, 109321.2
615.2100, 109408.2
615.6921, 109629.6
616.1743, 110006.7
616.6564, 110347.4
617.1385, 110571.6
617.6206, 110719.9
618.1027, 110887.9
618.5848, 111074.3
619.0670, 111286.1
619.5491, 111524.7
620.0312, 111789.7
620.5133, 112096.6
620.9954, 112448.3
621.4775, 112781.3
621.9597, 113058.9
622.4418, 113299.6
622.9239, 113524.2
623.4060, 113750.8
623.8881, 113936.5
624.3702, 114024.1
624.8524, 114084.2
625.3345, 114241.9
625.8166, 114558.8
626.2987, 114828.9
626.7808, 114994.9
627.2629, 115085.2
627.7451, 115201.8
628.2272, 115345.5
628.7093, 115512.8
629.1914, 115716.8
629.6735, 115943.7
630.1556, 116159.2
630.6378, 116365.4
631.1199, 116544.3
631.6020, 116640.7
632.0841, 116724.1
632.5662, 116879.5
633.0483, 117162.0
633.5305, 117425.7
634.0126, 117580.4
634.4947, 117695.0
634.9768, 117856.8
635.4589, 118168.4
635.9410, 118394.4
636.4232, 118453.4
636.9053, 118420.7
637.3874, 118548.9
637.8695, 118878.1
638.3516, 119199.8
638.8337, 119431.6
639.3159, 119586.7
639.7980, 119722.4
640.2801, 119839.3
640.7622, 119966.4
641.2443, 120125.6
641.7264, 120313.2
642.2086, 120523.6
642.6907, 120760.1
643.1728, 121020.3
643.6549, 121362.4
644.1370, 121705.4
644.6191, 121970.2
645.1013, 122005.2
645.5834, 122131.7
646.0655, 122472.7
646.5476, 122909.7
647.0297, 123236.9
647.5118, 123392.0
647.9940, 123570.8
648.4761, 123815.4
648.9582, 124112.5
649.4403, 124450.9
649.9224, 124826.6
650.4045, 125161.5
650.8867, 125380.1
651.3688, 125531.6
651.8509, 125736.3
652.3330, 125996.8
652.8151, 126251.3
653.2972, 126469.9
653.7794, 126653.8
654.2615, 126790.2
654.7436, 126855.4
655.2257, 126951.3
655.7078, 127130.1
656.1899, 127350.1
656.6721, 127566.2
657.1542, 127795.2
657.6363, 127986.4
658.1184, 128111.2
658.6005, 128212.2
659.0826, 128396.2
659.5648, 128676.3
660.0469, 128914.1
660.5290, 129043.2
661.0111, 129111.2
661.4932, 129233.2
661.9753, 129405.0
662.4575, 129589.3
662.9396, 129765.1
663.4217, 129946.6
663.9038, 130151.2
664.3859, 130383.5
664.8680, 130624.0
665.3502, 130890.5
665.8323, 131149.0
666.3144, 131370.0
666.7965, 131505.9
667.2786, 131689.4
667.7607, 131918.8
668.2429, 132187.0
668.7250, 132495.5
669.2071, 132847.4
669.6892, 133170.8
670.1713, 133450.5
670.6534, 133693.1
671.1355, 133900.9
671.6176, 134080.2
672.0997, 134268.1
672.5818, 134522.3
673.0640, 134759.3
673.5461, 134882.0
674.0282, 134914.2
674.5103, 134934.4
674.9924, 134939.7
675.4745, 134988.8
675.9567, 135124.4
676.4388, 135359.4
676.9209, 135618.3
677.4030, 135949.7
677.8851, 136248.4
678.3672, 136429.4
678.8494, 136451.4
679.3315, 136591.8
679.8136, 136860.4
680.2957, 137195.2
680.7778, 137541.3
681.2599, 137890.9
681.7421, 138200.5
682.2242, 138450.2
682.7063, 138689.6
683.1884, 138963.0
683.6705, 139262.9
684.1526, 139580.0
684.6348, 139982.4
685.1169, 140325.5
685.5990, 140517.9
686.0811, 140610.1
686.5632, 140749.7
687.0453, 140995.5
687.5275, 141222.3
688.0096, 141384.4
688.4917, 141500.6
688.9738, 141702.3
689.4559, 142003.3
689.9380, 142311.3
690.4202, 142566.1
690.9023, 142783.9
691.3844, 143010.3
691.8665, 143241.9
692.3486, 143465.4
692.8307, 143647.3
693.3129, 143825.8
693.7950, 144038.1
694.2771, 144285.6
694.7592, 144573.2
695.2413, 145013.9
695.7234, 145437.1
696.2056, 145661.7
696.6877, 145501.4
697.1698, 145505.5
697.6519, 145779.6
698.1340, 146145.0
698.6161, 146289.6
699.0983, 146205.9
699.5804, 146182.6
700.0625, 146299.2
700.5446, 146508.2
701.0267, 146774.3
701.5089, 147073.2
701.9910, 147322.4
702.4731, 147391.7
702.9552, 147471.0
703.4373, 147740.0
703.9194, 148153.9
704.4016, 148481.2
704.8837, 148569.0
705.3658, 148638.3
705.8479, 148775.5
706.3300, 148981.0
706.8121, 149165.7
707.2943, 149310.7
707.7764, 149477.1
708.2585, 149717.5
708.7406, 150026.9
709.2227, 150336.2
709.7048, 150648.8
710.1870, 150939.1
710.6691, 151193.3
711.1512, 151405.9
711.6333, 151566.7
712.1154, 151657.9
712.5975, 151754.2
713.0797, 151858.6
713.5618, 152005.1
714.0439, 152229.9
714.5260, 152620.7
715.0081, 152983.9
715.4902, 153293.0
715.9724, 153570.4
716.4545, 153841.3
716.9366, 154102.8
717.4187, 154388.0
717.9008, 154734.4
718.3829, 155074.8
718.8651, 155222.7
719.3472, 155227.7
719.8293, 155321.8
720.3114, 155726.1
720.7935, 156189.7
721.2756, 156489.0
721.7578, 156653.8
722.2399, 156826.6
722.7220, 157059.0
723.2041, 157310.9
723.6862, 157589.8
724.1683, 157900.3
724.6505, 158092.5
725.1326, 158094.2
725.6147, 158128.9
726.0968, 158372.6
726.5789, 158804.7
727.0610, 159114.4
727.5432, 159291.3
728.0253, 159429.3
728.5074, 159606.6
728.9895, 159804.0
729.4716, 159986.4
729.9537, 160145.1
730.4359, 160316.0
730.9180, 160510.2
731.4000, 160732.9
731.8821, 160991.5
732.3643, 161365.5
732.8464, 161661.6
733.3285, 161849.8
733.8106, 161982.7
734.2927, 162121.6
734.7748, 162261.4
735.2570, 162430.2
735.7391, 162634.0
736.2212, 162862.6
736.7033, 163103.3
737.1854, 163355.7
737.6675, 163622.6
738.1497, 163959.4
738.6318, 164254.4
739.1139, 164372.9
739.5960, 164391.5
740.0781, 164510.1
740.5602, 164938.8
741.0424, 165305.7
741.5245, 165471.5
742.0066, 165488.1
742.4887, 165642.9
742.9708, 165950.9
743.4529, 166330.0
743.9351, 166779.6
744.4172, 167257.6
744.8993, 167588.5
745.3814, 167776.6
745.8635, 167975.7
746.3456, 168305.2
746.8278, 168681.3
747.3099, 169022.4
747.7920, 169321.6
748.2741, 169600.0
748.7562, 169929.1
749.2383, 170192.0
749.7205, 170305.8
750.2026, 170232.8
750.6847, 170233.4
751.1668, 170345.0
751.6489, 170479.7
752.1310, 170542.3
752.6132, 170552.3
753.0953, 170661.3
753.5774, 170888.4
754.0595, 171185.7
754.5416, 171596.8
755.0237, 172014.0
755.5059, 172263.8
755.9880, 172204.1
756.4701, 172208.0
756.9522, 172503.3
757.4343, 172898.6
757.9164, 173160.4
758.3986, 173208.7
758.8807, 173252.3
759.3628, 173292.0
759.8449, 173352.8
760.3270, 173508.0
760.8091, 173756.3
761.2913, 173925.9
761.7734, 173941.3
762.2555, 173940.4
762.7376, 174131.5
763.2197, 174449.3
763.7018, 174739.5
764.1840, 174894.3
764.6661, 175057.9
765.1482, 175277.1
765.6303, 175547.1
766.1124, 175856.5
766.5945, 176235.5
767.0767, 176585.0
767.5588, 176856.8
768.0409, 177079.3
768.5230, 177384.4
769.0051, 177765.5
769.4872, 178126.9
769.9694, 178385.7
770.4515, 178616.8
770.9336, 178989.7
771.4157, 179463.7
771.8978, 179858.3
772.3799, 180100.1
772.8621, 180221.6
773.3442, 180171.1
773.8263, 179961.2
774.3084, 179941.5
774.7905, 180260.2
775.2726, 180573.1
775.7548, 180726.8
776.2369, 180737.4
776.7190, 180792.5
777.2011, 180895.5
777.6832, 181043.2
778.1653, 181249.5
778.6475, 181493.3
779.1296, 181726.4
779.6117, 181946.5
780.0938, 182219.8
780.5759, 182681.8
781.0580, 183123.2
781.5402, 183378.5
782.0223, 183359.7
782.5044, 183432.8
782.9865, 183635.6
783.4686, 183869.7
783.9507, 184059.4
784.4329, 184200.9
784.9150, 184402.0
785.3971, 184675.1
785.8792, 184950.9
786.3613, 185175.3
786.8434, 185364.0
787.3256, 185519.0
787.8077, 185626.2
788.2898, 185802.4
788.7719, 186186.0
789.2540, 186616.1
789.7361, 186936.0
790.2183, 187040.5
790.7004, 187246.9
791.1825, 187592.3
791.6646, 187980.2
792.1467, 188324.6
792.6288, 188619.6
793.1110, 188823.5
793.5930, 188902.3
794.0751, 189001.0
794.5573, 189358.2
795.0394, 189814.8
795.5215, 190093.3
796.0036, 190011.0
796.4857, 190009.0
796.9678, 190391.8
797.4500, 190876.3
797.9321, 191119.5
798.4142, 190981.4
798.8963, 190918.2
799.3784, 190961.9
799.8605, 191099.2
800.3427, 191371.8
800.8248, 191744.3
801.3069, 191977.2
801.7890, 191958.3
802.2711, 191927.2
802.7532, 192167.0
803.2354, 192542.2
803.7175, 192853.9
804.1996, 192951.1
804.6817, 193076.9
805.1638, 193335.1
805.6459, 193628.8
806.1281, 193819.6
806.6102, 193885.1
807.0923, 193904.4
807.5744, 193840.4
808.0565, 193831.2
808.5386, 194230.3
809.0208, 194915.0
809.5029, 195405.0
809.9850, 195435.2
810.4671, 195383.6
810.9492, 195531.3
811.4313, 195802.9
811.9135, 196065.9
812.3956, 196296.4
812.8777, 196497.4
813.3598, 196637.8
813.8419, 196763.9
814.3240, 196998.7
814.8062, 197359.9
815.2883, 197626.7
815.7704, 197704.5
816.2525, 197717.5
816.7346, 197881.3
817.2167, 198143.6
817.6989, 198367.9
818.1810, 198461.0
818.6631, 198540.1
819.1452, 198649.8
819.6273, 198791.3
820.1094, 198969.8
820.5916, 199246.0
821.0737, 199448.5
821.5558, 199500.4
822.0379, 199503.2
822.5200, 199729.0
823.0021, 200158.1
823.4843, 200539.4
823.9664, 200761.5
824.4485, 200918.8
824.9306, 201097.2
825.4127, 201293.4
825.8948, 201504.1
826.3770, 201785.2
826.8591, 202006.1
827.3412, 201997.7
827.8233, 201919.3
828.3054, 202164.7
828.7875, 202896.5
829.2697, 203374.6
829.7518, 203354.5
830.2339, 203082.8
830.7160, 203041.6
831.1981, 203190.1
831.6802, 203362.0
832.1624, 203538.3
832.6445, 203665.3
833.1266, 203640.6
833.6087, 203548.8
834.0908, 203567.7
834.5729, 203887.5
835.0551, 204125.4
835.5372, 204198.2
836.0193, 204177.4
836.5014, 204207.6
836.9835, 204287.7
837.4656, 204465.3
837.9478, 204814.1
838.4299, 205159.1
838.9120, 205190.1
839.3941, 205034.5
839.8762, 204979.2
840.3583, 205287.8
840.8405, 205551.3
841.3226, 205563.0
841.8047, 205445.1
842.2868, 205443.0
842.7689, 205590.1
843.2510, 205768.6
843.7332, 205979.5
844.2153, 206172.5
844.6974, 206200.4
845.1795, 206110.2
845.6616, 206124.0
846.1437, 206377.9
846.6259, 206644.6
847.1080, 206717.8
847.5901, 206687.1
848.0722, 206702.0
848.5543, 206898.3
849.0364, 207004.8
849.5186, 206972.8
850.0007, 206863.4
850.4828, 206740.8
850.9649, 206603.6
851.4470, 206636.5
851.9291, 206938.3
852.4113, 207274.5
852.8934, 207295.4
853.3755, 207158.1
853.8576, 207142.7
854.3397, 207396.9
854.8218, 207693.6
855.3039, 208024.3
855.7860, 208327.4
856.2681, 208501.5
856.7502, 208461.6
857.2324, 208565.7
857.7145, 208870.7
858.1966, 209257.8
858.6787, 209570.5
859.1608, 209825.6
859.6429, 210100.3
860.1251, 210415.8
860.6072, 210700.1
861.0893, 210888.3
861.5714, 211018.7
862.0535, 211133.1
862.5356, 211169.4
863.0178, 211317.3
863.4999, 211649.9
863.9820, 211995.7
864.4641, 212141.5
864.9462, 212106.9
865.4283, 212149.1
865.9105, 212300.7
866.3926, 212477.2
866.8747, 212630.4
867.3568, 212748.8
867.8389, 212793.8
868.3210, 212726.3
868.8032, 212742.5
869.2853, 213021.9
869.7674, 213300.6
870.2495, 213382.8
870.7316, 213205.0
871.2137, 213252.6
871.6959, 213550.4
872.1780, 213939.7
872.6601, 214352.9
873.1422, 214734.7
873.6243, 214951.7
874.1064, 214986.6
874.5886, 215062.0
875.0707, 215340.1
875.5528, 215647.5
876.0349, 215853.0
876.5170, 215937.9
876.9991, 216114.0
877.4813, 216398.4
877.9634, 216717.3
878.4455, 217050.7
878.9276, 217384.2
879.4097, 217638.9
879.8918, 217827.3
880.3740, 218036.4
880.8561, 218399.8
881.3382, 218741.8
881.8203, 218907.6
882.3024, 218907.8
882.7845, 219001.9
883.2667, 219250.2
883.7488, 219505.4
884.2309, 219701.2
884.7130, 219866.8
885.1951, 220150.0
885.6772, 220533.8
886.1594, 220881.6
886.6415, 221068.6
887.1236, 221227.7
887.6057, 221490.8
888.0878, 221826.6
888.5699, 222135.5
889.0521, 222404.5
889.5342, 222629.2
890.0163, 222771.4
890.4984, 222893.2
890.9805, 223152.9
891.4626, 223550.9
891.9448, 224000.0
892.4269, 224495.4
892.9090, 224966.3
893.3911, 225288.7
893.8732, 225518.8
894.3553, 225767.4
894.8375, 226083.5
895.3196, 226391.9
895.8017, 226688.3
896.2838, 226955.5
896.7659, 227175.2
897.2480, 227341.7
897.7302, 227506.1
898.2123, 227688.5
898.6944, 227824.1
899.1765, 227798.3
899.6586, 227686.0
900.1407, 227626.5
900.6229, 227675.5
901.1050, 227699.8
901.5871, 227526.5
902.0692, 227403.0
902.5513, 227550.0
903.0334, 228077.0
903.5156, 228433.9
903.9977, 228593.0
904.4798, 228684.6
904.9619, 228762.0
905.4440, 228866.1
905.9261, 229147.2
906.4083, 229602.5
906.8904, 229981.3
907.3725, 230021.5
907.8546, 230029.9
908.3367, 230235.0
908.8188, 230649.5
909.3010, 230925.3
909.7831, 231036.3
910.2652, 231097.2
910.7473, 231138.6
911.2294, 231183.2
911.7115, 231293.6
912.1937, 231466.4
912.6758, 231684.5
913.1579, 231968.7
913.6400, 232258.8
914.1221, 232509.8
914.6042, 232733.6
915.0864, 232992.1
915.5685, 233326.7
916.0506, 233599.8
916.5327, 233761.5
917.0148, 233877.2
917.4969, 234136.3
917.9790, 234482.9
918.4611, 234660.5
918.9432, 234428.3
919.4254, 234303.4
919.9075, 234738.5
920.3896, 235465.5
920.8717, 236089.3
921.3538, 236556.5
921.8359, 236923.5
922.3181, 237137.1
922.8002, 237339.8
923.2823, 237725.1
923.7644, 238248.9
924.2465, 238696.1
924.7286, 239031.1
925.2108, 239353.5
925.6929, 239706.7
926.1750, 240098.2
926.6571, 240585.9
927.1392, 241256.8
927.6213, 241617.7
928.1035, 241515.6
928.5856, 241389.6
929.0677, 241536.3
929.5498, 241901.3
930.0319, 242193.8
930.5140, 242415.5
930.9962, 242570.1
931.4783, 242586.3
931.9604, 242604.5
932.4425, 242749.1
932.9246, 243001.5
933.4067, 243202.7
933.8889, 243297.3
934.3710, 243420.6
934.8531, 243611.1
935.3352, 243848.3
935.8173, 244070.2
936.2994, 244283.7
936.7816, 244513.4
937.2637, 244779.3
937.7458, 245049.6
938.2279, 245324.0
938.7100, 245580.4
939.1921, 245774.7
939.6743, 245832.4
940.1564, 245961.9
940.6385, 246198.2
941.1206, 246467.8
941.6027, 246712.3
942.0848, 246917.9
942.5670, 246973.3
943.0491, 246836.3
943.5312, 246815.4
944.0133, 247313.8
944.4954, 247906.9
944.9775, 248216.8
945.4597, 248126.9
945.9418, 248130.2
946.4239, 248243.7
946.9060, 248420.4
947.3881, 248656.2
947.8702, 248934.8
948.3524, 249188.1
948.8345, 249420.4
949.3166, 249653.4
949.7987, 249932.4
950.2808, 250189.0
950.7629, 250328.3
951.2451, 250397.2
951.7272, 250603.6
952.2093, 250988.8
952.6914, 251412.8
953.1735, 251885.2
953.6556, 252304.7
954.1378, 252369.1
954.6199, 252209.8
955.1020, 252220.6
955.5841, 252595.8
956.0662, 253021.2
956.5483, 253374.1
957.0305, 253668.4
957.5126, 253916.5
957.9947, 254086.4
958.4768, 254332.9
958.9589, 254687.7
959.4410, 255034.1
959.9232, 255198.4
960.4053, 255284.0
960.8874, 255545.3
961.3695, 256000.7
961.8516, 256418.8
962.3337, 256607.9
962.8159, 256789.1
963.2980, 257090.2
963.7801, 257495.0
964.2622, 257904.2
964.7443, 258343.3
965.2264, 258624.0
965.7086, 258573.3
966.1907, 258404.3
966.6728, 258456.1
967.1549, 258675.4
967.6370, 258919.3
968.1191, 259148.9
968.6013, 259385.0
969.0834, 259598.5
969.5655, 259847.7
970.0476, 260291.0
970.5297, 260955.5
971.0118, 261300.9
971.4940, 261193.1
971.9761, 261038.9
972.4582, 261314.6
972.9403, 261781.5
973.4224, 262148.4
973.9045, 262351.8
974.3867, 262514.1
974.8688, 262483.9
975.3509, 262639.9
975.8330, 263314.3
976.3151, 264432.6
976.7972, 264871.9
977.2794, 264662.6
977.7615, 264497.5
978.2435, 264940.1
978.7256, 265497.6
979.2078, 265719.7
979.6899, 265691.6
980.1720, 265745.9
980.6541, 265928.0
981.1362, 266206.6
981.6183, 266632.1
982.1005, 267078.2
982.5826, 267294.8
983.0647, 267332.8
983.5468, 267377.5
984.0289, 267470.8
984.5110, 267605.2
984.9932, 267891.8
985.4753, 268152.0
985.9574, 268147.4
986.4395, 267715.4
986.9216, 267722.1
987.4037, 268293.1
987.8859, 268891.8
988.3680, 269042.8
988.8501, 268949.4
989.3322, 269068.3
989.8143, 269385.2
990.2964, 269747.6
990.7786, 270183.8
991.2607, 270533.3
991.7428, 270661.9
992.2249, 270666.2
992.7070, 270817.0
993.1891, 271137.5
993.6713, 271387.0
994.1534, 271470.9
994.6355, 271551.4
995.1176, 271867.2
995.5997, 272311.5
996.0818, 272723.2
996.5640, 273088.5
997.0461, 273356.5
997.5282, 273432.1
998.0103, 273510.5
998.4924, 273753.4
998.9745, 274150.5
999.4567, 274508.6
999.9388, 274826.3
1000.421, 275113.9
1000.903, 275314.0
1001.385, 275543.9
1001.867, 276012.3
1002.349, 276643.3
1002.831, 276860.6
1003.314, 276303.7
1003.796, 276113.3
1004.278, 276684.8
1004.760, 277592.7
1005.242, 278043.7
1005.724, 278136.9
1006.206, 278158.2
1006.688, 278148.0
1007.171, 278198.7
1007.653, 278440.1
1008.135, 278712.0
1008.617, 278858.0
1009.099, 278838.3
1009.581, 278867.2
1010.063, 278934.5
1010.545, 279126.8
1011.027, 279683.2
1011.510, 280305.3
1011.992, 280464.6
1012.474, 280235.0
1012.956, 280168.9
1013.438, 280612.3
1013.920, 281042.0
1014.402, 281348.2
1014.884, 281539.0
1015.367, 281546.3
1015.849, 281408.2
1016.331, 281536.3
1016.813, 282146.9
1017.295, 282713.2
1017.777, 282597.2
1018.259, 282302.8
1018.741, 282419.5
1019.223, 283244.4
1019.706, 283707.7
1020.188, 283708.7
1020.670, 283617.0
1021.152, 283614.3
1021.634, 283739.6
1022.116, 284210.8
1022.598, 284948.1
1023.080, 285524.3
1023.563, 285498.0
1024.045, 285514.6
1024.527, 285879.0
1025.009, 286427.7
1025.491, 286855.9
1025.973, 287162.0
1026.455, 287276.4
1026.937, 287120.0
1027.419, 287023.0
1027.901, 287506.2
1028.384, 288180.9
1028.866, 288555.4
1029.348, 288472.2
1029.830, 288428.6
1030.312, 288448.8
1030.794, 288571.0
1031.276, 288923.5
1031.758, 289396.1
1032.241, 289375.6
1032.723, 288970.9
1033.205, 288714.0
1033.687, 289009.3
1034.169, 289397.4
1034.651, 289656.4
1035.133, 289848.2
1035.615, 290090.2
1036.098, 290380.1
1036.580, 290680.8
1037.062, 290977.6
1037.544, 291276.5
1038.026, 291586.8
1038.508, 291889.8
1038.990, 292189.3
1039.472, 292486.9
1039.954, 292665.4
1040.437, 292637.1
1040.919, 292577.0
1041.401, 292533.8
1041.883, 292526.6
1042.365, 292685.7
1042.847, 292969.0
1043.329, 293092.1
1043.811, 292836.3
1044.293, 292552.8
1044.776, 292394.3
1045.258, 292374.0
1045.740, 292531.6
1046.222, 292971.7
1046.704, 293160.6
1047.186, 293017.4
1047.668, 292902.4
1048.150, 293232.4
1048.633, 293741.2
1049.115, 294018.0
1049.597, 294060.3
1050.079, 294118.5
1050.561, 294089.7
1051.043, 294362.6
1051.525, 295220.6
1052.007, 296289.4
1052.490, 296489.1
1052.972, 295993.4
1053.454, 295810.8
1053.936, 296297.7
1054.418, 296864.0
1054.900, 297074.4
1055.382, 297164.0
1055.864, 297354.9
1056.346, 297661.5
1056.828, 298005.9
1057.311, 298416.5
1057.793, 298674.3
1058.275, 298467.6
1058.757, 298128.4
1059.239, 298225.1
1059.721, 298619.0
1060.203, 298871.2
1060.685, 298805.0
1061.168, 298637.9
1061.650, 298344.5
1062.132, 298065.8
1062.614, 298059.4
1063.096, 298258.6
1063.578, 298324.3
1064.060, 298204.2
1064.542, 298095.8
1065.025, 298074.9
1065.507, 298157.7
1065.989, 298434.5
1066.471, 298855.8
1066.953, 299012.3
1067.435, 298868.6
1067.917, 298770.7
1068.399, 298854.2
1068.881, 299035.1
1069.364, 299250.4
1069.846, 299474.3
1070.328, 299659.6
1070.810, 299698.8
1071.292, 299895.9
1071.774, 300346.6
1072.256, 300773.9
1072.738, 300881.1
1073.220, 300770.9
1073.703, 300863.1
1074.185, 301126.6
1074.667, 301310.5
1075.149, 301190.4
1075.631, 301072.0
1076.113, 301111.5
1076.595, 301233.6
1077.077, 301306.4
1077.559, 301337.8
1078.042, 301341.1
1078.524, 301330.9
1079.006, 301276.2
1079.488, 301031.6
1079.970, 300814.0
1080.452, 300870.3
1080.934, 301275.3
1081.416, 301546.5
1081.899, 301629.7
1082.381, 301733.5
1082.863, 301941.9
1083.345, 302216.5
1083.827, 302526.3
1084.309, 302832.2
1084.791, 303057.2
1085.273, 303018.1
1085.755, 303150.4
1086.238, 303681.9
1086.720, 304207.7
1087.202, 304339.7
1087.684, 304131.1
1088.166, 304043.8
1088.648, 304088.9
1089.130, 304195.8
1089.612, 304415.3
1090.094, 304598.8
1090.577, 304605.1
1091.059, 304529.1
1091.541, 304614.1
1092.023, 304891.0
1092.505, 305125.1
1092.987, 305269.3
1093.469, 305395.5
1093.951, 305554.1
1094.434, 305744.8
1094.916, 305991.8
1095.398, 306303.6
1095.880, 306493.7
1096.362, 306498.4
1096.844, 306503.1
1097.326, 306584.4
1097.808, 306701.9
1098.291, 306744.7
1098.773, 306758.2
1099.255, 306867.8
1099.737, 307223.4
1100.219, 307465.5
1100.701, 307426.5
1101.183, 307329.3
1101.665, 307334.1
1102.147, 307435.9
1102.630, 307496.5
1103.112, 307524.5
1103.594, 307623.0
1104.076, 307984.5
1104.558, 308291.1
1105.040, 308256.4
1105.522, 308053.8
1106.004, 308050.5
1106.486, 308269.8
1106.969, 308560.7
1107.451, 308933.7
1107.933, 309173.9
1108.415, 308962.4
1108.897, 308581.0
1109.379, 308302.6
1109.861, 308160.8
1110.343, 308142.1
1110.826, 308339.3
1111.308, 308404.9
1111.790, 308174.5
1112.272, 307875.6
1112.754, 307959.3
1113.236, 308253.4
1113.718, 308379.7
1114.200, 308143.2
1114.682, 308086.0
1115.165, 308440.0
1115.647, 308831.1
1116.129, 309070.5
1116.611, 309164.0
1117.093, 309100.7
1117.575, 308913.7
1118.057, 308780.3
1118.539, 308870.7
1119.021, 308935.8
1119.504, 308854.0
1119.986, 308709.2
1120.468, 308573.8
1120.950, 308448.5
1121.432, 308440.5
1121.914, 308562.0
1122.396, 308720.1
1122.878, 308884.8
1123.361, 309032.7
1123.843, 309118.1
1124.325, 309171.8
1124.807, 309313.5
1125.289, 309562.8
1125.771, 309797.0
1126.253, 309974.1
1126.735, 310198.9
1127.218, 310679.9
1127.700, 311223.2
1128.182, 311545.3
1128.664, 311582.8
1129.146, 311738.6
1129.628, 312085.7
1130.110, 312423.7
1130.592, 312705.1
1131.074, 312886.6
1131.557, 312770.2
1132.039, 312508.1
1132.521, 312476.9
1133.003, 312898.1
1133.485, 313234.3
1133.967, 313436.7
1134.449, 313454.6
1134.931, 313170.8
1135.413, 312688.5
1135.896, 312563.6
1136.378, 312731.1
1136.860, 312856.0
1137.342, 312752.5
1137.824, 312606.8
1138.306, 312366.3
1138.788, 312203.1
1139.270, 312355.7
1139.752, 312817.8
1140.235, 313039.1
1140.717, 312992.4
1141.199, 312982.1
1141.681, 313332.0
1142.163, 313671.1
1142.645, 313743.3
1143.127, 313598.1
1143.609, 313377.4
1144.092, 313054.2
1144.574, 312945.3
1145.056, 313156.1
1145.538, 313288.2
1146.020, 312714.1
1146.502, 312044.4
1146.984, 312002.7
1147.466, 312638.6
1147.948, 312940.3
1148.431, 312800.1
1148.913, 312690.7
1149.395, 312728.6
1149.877, 312906.4
1150.359, 313319.9
1150.841, 313804.9
1151.323, 314104.8
1151.805, 314078.0
1152.287, 314184.3
1152.770, 314474.3
1153.252, 314805.9
1153.734, 315137.7
1154.216, 315432.7
1154.698, 315600.6
1155.180, 315671.9
1155.662, 315718.7
1156.144, 315786.9
1156.627, 315802.1
1157.109, 315744.8
1157.591, 315676.3
1158.073, 315631.4
1158.555, 315622.2
1159.037, 315720.5
1159.519, 315896.1
1160.001, 315996.4
1160.484, 315926.2
1160.966, 315779.9
1161.448, 315482.6
1161.930, 315218.4
1162.412, 315283.3
1162.894, 315607.8
1163.376, 315699.2
1163.858, 315531.6
1164.340, 315337.0
1164.823, 315246.9
1165.305, 315189.8
1165.787, 315190.0
1166.269, 315184.5
1166.751, 314938.1
1167.233, 314490.2
1167.715, 314506.7
1168.197, 315162.1
1168.679, 315722.5
1169.162, 315372.7
1169.644, 314944.7
1170.126, 315087.7
1170.608, 315678.8
1171.090, 316220.3
1171.572, 316702.7
1172.054, 316946.0
1172.536, 316785.3
1173.019, 316708.3
1173.501, 317375.5
1173.983, 318188.9
1174.465, 318492.4
1174.947, 318245.4
1175.429, 318132.8
1175.911, 318161.3
1176.393, 318308.7
1176.875, 318648.7
1177.358, 318973.9
1177.840, 319037.4
1178.322, 318958.6
1178.804, 318891.4
1179.286, 318841.0
1179.768, 318870.8
1180.250, 318994.4
1180.732, 319118.3
1181.214, 319121.2
1181.697, 319135.3
1182.179, 319330.2
1182.661, 319655.1
1183.143, 320016.8
1183.625, 320505.0
1184.107, 320753.1
1184.589, 320715.9
1185.071, 320554.7
1185.554, 320287.1
1186.036, 320056.8
1186.518, 320166.8
1187.000, 320516.2
1187.482, 320676.9
1187.964, 320427.5
1188.446, 320355.7
1188.928, 320608.4
1189.411, 320814.2
1189.893, 320371.5
1190.375, 319703.5
1190.857, 319562.1
1191.339, 319935.3
1191.821, 320199.3
1192.303, 320178.1
1192.785, 320122.9
1193.267, 320038.3
1193.750, 320023.9
1194.232, 320338.2
1194.714, 320777.6
1195.196, 320959.1
1195.678, 320824.6
1196.160, 320700.0
1196.642, 320620.9
1197.124, 320617.1
1197.606, 320713.4
1198.089, 320859.9
1198.571, 320965.4
1199.053, 321050.8
1199.535, 321164.4
1200.017, 321326.2
1200.499, 321463.7
1200.981, 321578.9
1201.463, 321642.7
1201.945, 321609.0
1202.428, 321552.1
1202.910, 321669.8
1203.392, 321896.8
1203.874, 322087.3
1204.356, 322201.2
1204.838, 322267.9
1205.320, 322218.8
1205.802, 322253.5
1206.285, 322545.9
1206.767, 322961.2
1207.249, 323039.4
1207.731, 322912.4
1208.213, 322940.2
1208.695, 323320.6
1209.177, 323752.8
1209.659, 324312.2
1210.141, 324699.3
1210.624, 324536.8
1211.106, 324065.5
1211.588, 324150.6
1212.070, 324630.9
1212.552, 324975.3
1213.034, 324771.4
1213.516, 324688.3
1213.998, 324872.3
1214.480, 325099.1
1214.963, 325145.1
1215.445, 325076.9
1215.927, 325143.7
1216.409, 325311.4
1216.891, 325391.9
1217.373, 325186.8
1217.855, 325081.3
1218.337, 325183.7
1218.820, 325341.4
1219.302, 325365.8
1219.784, 325317.3
1220.266, 325373.7
1220.748, 325528.9
1221.230, 325667.5
1221.712, 325695.8
1222.194, 325767.9
1222.677, 325918.8
1223.159, 326102.4
1223.641, 326247.7
1224.123, 326374.4
1224.605, 326531.8
1225.087, 326722.3
1225.569, 326949.4
1226.051, 327250.0
1226.533, 327541.9
1227.016, 327829.6
1227.498, 328065.1
1227.980, 328135.7
1228.462, 328111.4
1228.944, 328094.9
1229.426, 328103.6
1229.908, 328321.0
1230.390, 329098.7
1230.872, 329613.2
1231.355, 329588.8
1231.837, 329328.8
1232.319, 329295.1
1232.801, 329426.3
1233.283, 329625.6
1233.765, 329883.0
1234.247, 330103.7
1234.729, 330205.3
1235.212, 330392.1
1235.694, 330776.6
1236.176, 331176.5
1236.658, 331129.3
1237.140, 330909.9
1237.622, 331081.9
1238.104, 331839.2
1238.586, 332238.4
1239.068, 332082.5
1239.551, 331852.5
1240.033, 331689.4
1240.515, 331633.2
1240.997, 331828.6
1241.479, 332153.4
1241.961, 332433.9
1242.443, 332675.7
1242.925, 332634.6
1243.407, 332163.0
1243.890, 331902.3
1244.372, 332204.2
1244.854, 332747.4
1245.336, 333033.4
1245.818, 333209.2
1246.300, 333498.6
1246.782, 333979.8
1247.264, 334401.3
1247.747, 334770.1
1248.229, 334981.4
1248.711, 334948.4
1249.193, 334773.3
1249.675, 334479.4
1250.157, 334182.2
1250.639, 334090.6
1251.121, 334310.6
1251.604, 334366.0
1252.086, 334248.3
1252.568, 334133.6
1253.050, 334119.0
1253.532, 334167.8
1254.014, 334248.8
1254.496, 334367.2
1254.978, 334527.7
1255.460, 334722.1
1255.943, 334949.4
1256.425, 335202.7
1256.907, 335401.9
1257.389, 335416.3
1257.871, 335439.7
1258.353, 335673.0
1258.835, 335966.8
1259.317, 336153.3
1259.799, 336244.9
1260.281, 335963.0
1260.764, 335336.1
1261.246, 334963.1
1261.728, 335601.0
1262.210, 336168.0
1262.692, 335977.5
1263.174, 335453.6
1263.656, 334996.0
1264.138, 334617.4
1264.621, 334698.0
1265.103, 335199.3
1265.585, 335663.3
1266.067, 335777.3
1266.549, 335864.8
1267.031, 335941.2
1267.513, 336151.3
1267.995, 336766.4
1268.478, 337665.1
1268.960, 337990.9
1269.442, 337842.9
1269.924, 337995.7
1270.406, 339290.5
1270.888, 340248.9
1271.370, 340468.1
1271.852, 340351.3
1272.334, 340134.2
1272.817, 339936.1
1273.299, 340278.8
1273.781, 341029.5
1274.263, 341551.6
1274.745, 341401.9
1275.227, 341301.5
1275.709, 341344.2
1276.191, 341467.9
1276.673, 341760.9
1277.156, 342029.8
1277.638, 341772.0
1278.120, 341152.2
1278.602, 340844.0
1279.084, 341181.7
1279.566, 341439.3
1280.048, 341566.8
1280.530, 341609.5
1281.013, 341504.0
1281.495, 341414.0
1281.977, 341547.3
1282.459, 341862.5
1282.941, 342227.2
1283.423, 342693.1
1283.905, 342833.7
1284.387, 342563.8
1284.870, 342404.2
1285.352, 343017.4
1285.834, 343714.4
1286.316, 343897.6
1286.798, 343730.6
1287.280, 343655.4
1287.762, 343669.6
1288.244, 343925.7
1288.726, 344432.0
1289.208, 344765.2
1289.691, 344397.5
1290.173, 344018.3
1290.655, 344067.7
1291.137, 344335.3
1291.619, 344545.8
1292.101, 344679.5
1292.583, 344795.5
1293.065, 344966.0
1293.548, 345087.6
1294.030, 345012.7
1294.512, 344922.2
1294.994, 344849.5
1295.476, 344808.5
1295.958, 344825.9
1296.440, 344817.8
##END=



