##NAMES=Hoganite
##RRUFFID=R160076
##IDEAL CHEMISTRY=Cu^2+^(CH_3_COO)_2_&#183;H_2_O
##LOCALITY=Courtland, Cochise County, Arizona
##OWNER=RRUFF
##SOURCE=Marcus Origlieri
##DESCRIPTION=Deep blue individual or aggregates of euhedral crystals.
##STATUS=The identification of this mineral has been confirmed only by single crystal X-ray diffraction.
##URL=rruff.info/R160076
8.813672e+001, 2.266066e+002
8.861884e+001, 2.184220e+002
8.910095e+001, 2.180346e+002
8.958307e+001, 2.302570e+002
9.006519e+001, 2.486143e+002
9.054730e+001, 2.666989e+002
9.102942e+001, 2.847807e+002
9.151154e+001, 3.020313e+002
9.199365e+001, 3.173408e+002
9.247577e+001, 3.313187e+002
9.295789e+001, 3.456277e+002
9.344000e+001, 3.602709e+002
9.392212e+001, 3.755343e+002
9.440424e+001, 3.933546e+002
9.488635e+001, 4.142049e+002
9.536847e+001, 4.369194e+002
9.585059e+001, 4.599058e+002
9.633270e+001, 4.831937e+002
9.681482e+001, 5.059651e+002
9.729694e+001, 5.286011e+002
9.777905e+001, 5.509727e+002
9.826117e+001, 5.688554e+002
9.874329e+001, 5.810627e+002
9.922540e+001, 5.893824e+002
9.970752e+001, 5.976274e+002
1.001896e+002, 6.053159e+002
1.006718e+002, 6.142753e+002
1.011539e+002, 6.251354e+002
1.016360e+002, 6.374874e+002
1.021181e+002, 6.535673e+002
1.026002e+002, 6.737587e+002
1.030823e+002, 6.977832e+002
1.035645e+002, 7.241184e+002
1.040466e+002, 7.536764e+002
1.045287e+002, 7.845437e+002
1.050108e+002, 8.162582e+002
1.054929e+002, 8.519293e+002
1.059750e+002, 8.827894e+002
1.064572e+002, 9.077174e+002
1.069393e+002, 9.269802e+002
1.074214e+002, 9.399888e+002
1.079035e+002, 9.466331e+002
1.083856e+002, 9.475560e+002
1.088677e+002, 9.433976e+002
1.093499e+002, 9.293105e+002
1.098320e+002, 9.149890e+002
1.103141e+002, 9.010856e+002
1.107962e+002, 8.849664e+002
1.112783e+002, 8.767778e+002
1.117604e+002, 8.797157e+002
1.122426e+002, 8.902996e+002
1.127247e+002, 9.032454e+002
1.132068e+002, 9.185775e+002
1.136889e+002, 9.354573e+002
1.141710e+002, 9.537225e+002
1.146531e+002, 9.745397e+002
1.151353e+002, 9.944315e+002
1.156174e+002, 1.013548e+003
1.160995e+002, 1.031360e+003
1.165816e+002, 1.046774e+003
1.170637e+002, 1.060659e+003
1.175458e+002, 1.071191e+003
1.180280e+002, 1.077077e+003
1.185101e+002, 1.076444e+003
1.189922e+002, 1.072845e+003
1.194743e+002, 1.067656e+003
1.199564e+002, 1.060881e+003
1.204385e+002, 1.052692e+003
1.209207e+002, 1.042838e+003
1.214028e+002, 1.031668e+003
1.218849e+002, 1.019649e+003
1.223670e+002, 1.007181e+003
1.228491e+002, 9.934266e+002
1.233312e+002, 9.780865e+002
1.238134e+002, 9.610081e+002
1.242955e+002, 9.414264e+002
1.247776e+002, 9.173602e+002
1.252597e+002, 8.902422e+002
1.257418e+002, 8.630096e+002
1.262239e+002, 8.368763e+002
1.267061e+002, 8.110985e+002
1.271882e+002, 7.854675e+002
1.276703e+002, 7.597828e+002
1.281524e+002, 7.336685e+002
1.286345e+002, 7.063336e+002
1.291166e+002, 6.780571e+002
1.295988e+002, 6.500819e+002
1.300809e+002, 6.227792e+002
1.305630e+002, 5.962383e+002
1.310451e+002, 5.706477e+002
1.315272e+002, 5.462042e+002
1.320093e+002, 5.228138e+002
1.324915e+002, 4.999740e+002
1.329736e+002, 4.777030e+002
1.334557e+002, 4.564365e+002
1.339378e+002, 4.364999e+002
1.344199e+002, 4.178393e+002
1.349020e+002, 4.008749e+002
1.353842e+002, 3.855921e+002
1.358663e+002, 3.721143e+002
1.363484e+002, 3.600020e+002
1.368305e+002, 3.492525e+002
1.373126e+002, 3.399636e+002
1.377947e+002, 3.326736e+002
1.382769e+002, 3.276542e+002
1.387590e+002, 3.225576e+002
1.392411e+002, 3.171324e+002
1.397232e+002, 3.114820e+002
1.402053e+002, 3.063529e+002
1.406874e+002, 3.017690e+002
1.411696e+002, 2.975441e+002
1.416517e+002, 2.935468e+002
1.421338e+002, 2.895868e+002
1.426159e+002, 2.864293e+002
1.430980e+002, 2.846287e+002
1.435801e+002, 2.839798e+002
1.440623e+002, 2.818454e+002
1.445444e+002, 2.774642e+002
1.450265e+002, 2.724681e+002
1.455086e+002, 2.682623e+002
1.459907e+002, 2.655486e+002
1.464728e+002, 2.624623e+002
1.469550e+002, 2.585558e+002
1.474371e+002, 2.537783e+002
1.479192e+002, 2.493229e+002
1.484013e+002, 2.453291e+002
1.488834e+002, 2.415889e+002
1.493655e+002, 2.378615e+002
1.498477e+002, 2.340168e+002
1.503298e+002, 2.303487e+002
1.508119e+002, 2.270215e+002
1.512940e+002, 2.241422e+002
1.517761e+002, 2.210212e+002
1.522583e+002, 2.169618e+002
1.527404e+002, 2.129543e+002
1.532225e+002, 2.100148e+002
1.537046e+002, 2.089049e+002
1.541867e+002, 2.082827e+002
1.546688e+002, 2.079749e+002
1.551510e+002, 2.081473e+002
1.556331e+002, 2.079017e+002
1.561152e+002, 2.063816e+002
1.565973e+002, 2.045351e+002
1.570794e+002, 2.036463e+002
1.575615e+002, 2.046379e+002
1.580437e+002, 2.060943e+002
1.585258e+002, 2.073555e+002
1.590079e+002, 2.080695e+002
1.594900e+002, 2.094509e+002
1.599721e+002, 2.120554e+002
1.604542e+002, 2.155427e+002
1.609364e+002, 2.193162e+002
1.614185e+002, 2.233791e+002
1.619006e+002, 2.275250e+002
1.623827e+002, 2.315474e+002
1.628648e+002, 2.351631e+002
1.633469e+002, 2.392401e+002
1.638291e+002, 2.439682e+002
1.643112e+002, 2.494044e+002
1.647933e+002, 2.557929e+002
1.652754e+002, 2.638133e+002
1.657575e+002, 2.725020e+002
1.662396e+002, 2.811418e+002
1.667218e+002, 2.895351e+002
1.672039e+002, 2.979676e+002
1.676860e+002, 3.066548e+002
1.681681e+002, 3.154946e+002
1.686502e+002, 3.244669e+002
1.691323e+002, 3.327392e+002
1.696145e+002, 3.413780e+002
1.700966e+002, 3.515869e+002
1.705787e+002, 3.644349e+002
1.710608e+002, 3.777282e+002
1.715429e+002, 3.895137e+002
1.720250e+002, 4.001706e+002
1.725072e+002, 4.108293e+002
1.729893e+002, 4.226891e+002
1.734714e+002, 4.350773e+002
1.739535e+002, 4.470125e+002
1.744356e+002, 4.579241e+002
1.749177e+002, 4.686530e+002
1.753999e+002, 4.795711e+002
1.758820e+002, 4.909649e+002
1.763641e+002, 5.040861e+002
1.768462e+002, 5.210959e+002
1.773283e+002, 5.405931e+002
1.778104e+002, 5.601170e+002
1.782926e+002, 5.792200e+002
1.787747e+002, 5.975300e+002
1.792568e+002, 6.155333e+002
1.797389e+002, 6.329319e+002
1.802210e+002, 6.469745e+002
1.807031e+002, 6.559731e+002
1.811853e+002, 6.597020e+002
1.816674e+002, 6.568026e+002
1.821495e+002, 6.447468e+002
1.826316e+002, 6.270656e+002
1.831137e+002, 6.107830e+002
1.835958e+002, 5.957977e+002
1.840780e+002, 5.798773e+002
1.845601e+002, 5.598636e+002
1.850422e+002, 5.368593e+002
1.855243e+002, 5.138105e+002
1.860064e+002, 4.916466e+002
1.864885e+002, 4.702167e+002
1.869707e+002, 4.499128e+002
1.874528e+002, 4.305968e+002
1.879349e+002, 4.119656e+002
1.884170e+002, 3.936408e+002
1.888991e+002, 3.756454e+002
1.893812e+002, 3.581636e+002
1.898634e+002, 3.406519e+002
1.903455e+002, 3.236289e+002
1.908276e+002, 3.092581e+002
1.913097e+002, 2.977481e+002
1.917918e+002, 2.870640e+002
1.922739e+002, 2.743587e+002
1.927561e+002, 2.595401e+002
1.932382e+002, 2.462957e+002
1.937203e+002, 2.360229e+002
1.942024e+002, 2.283431e+002
1.946845e+002, 2.207907e+002
1.951666e+002, 2.132841e+002
1.956488e+002, 2.063285e+002
1.961309e+002, 2.008085e+002
1.966130e+002, 1.967397e+002
1.970951e+002, 1.926479e+002
1.975772e+002, 1.876568e+002
1.980593e+002, 1.819687e+002
1.985415e+002, 1.779680e+002
1.990236e+002, 1.759392e+002
1.995057e+002, 1.748673e+002
1.999878e+002, 1.734314e+002
2.004699e+002, 1.715174e+002
2.009520e+002, 1.701320e+002
2.014342e+002, 1.696519e+002
2.019163e+002, 1.700620e+002
2.023984e+002, 1.709277e+002
2.028805e+002, 1.723038e+002
2.033626e+002, 1.740385e+002
2.038447e+002, 1.757879e+002
2.043269e+002, 1.773947e+002
2.048090e+002, 1.798044e+002
2.052911e+002, 1.833210e+002
2.057732e+002, 1.879644e+002
2.062553e+002, 1.933042e+002
2.067374e+002, 1.993447e+002
2.072196e+002, 2.060705e+002
2.077017e+002, 2.133518e+002
2.081838e+002, 2.210219e+002
2.086659e+002, 2.298813e+002
2.091480e+002, 2.402622e+002
2.096301e+002, 2.523462e+002
2.101123e+002, 2.648202e+002
2.105944e+002, 2.781203e+002
2.110765e+002, 2.913433e+002
2.115586e+002, 3.034610e+002
2.120407e+002, 3.147868e+002
2.125228e+002, 3.240876e+002
2.130050e+002, 3.305785e+002
2.134871e+002, 3.339754e+002
2.139692e+002, 3.371592e+002
2.144513e+002, 3.402739e+002
2.149334e+002, 3.430139e+002
2.154155e+002, 3.448217e+002
2.158977e+002, 3.451828e+002
2.163798e+002, 3.458331e+002
2.168619e+002, 3.469202e+002
2.173440e+002, 3.481674e+002
2.178261e+002, 3.520600e+002
2.183082e+002, 3.589631e+002
2.187904e+002, 3.680784e+002
2.192725e+002, 3.784254e+002
2.197546e+002, 3.900750e+002
2.202367e+002, 4.026326e+002
2.207188e+002, 4.160030e+002
2.212009e+002, 4.304445e+002
2.216831e+002, 4.450257e+002
2.221652e+002, 4.605580e+002
2.226473e+002, 4.755079e+002
2.231294e+002, 4.872441e+002
2.236115e+002, 4.945073e+002
2.240936e+002, 5.013530e+002
2.245758e+002, 5.093694e+002
2.250579e+002, 5.190668e+002
2.255400e+002, 5.258671e+002
2.260221e+002, 5.288299e+002
2.265042e+002, 5.297401e+002
2.269863e+002, 5.307769e+002
2.274685e+002, 5.319852e+002
2.279506e+002, 5.332508e+002
2.284327e+002, 5.346147e+002
2.289148e+002, 5.361497e+002
2.293969e+002, 5.372327e+002
2.298790e+002, 5.376893e+002
2.303612e+002, 5.378236e+002
2.308433e+002, 5.381030e+002
2.313254e+002, 5.390764e+002
2.318075e+002, 5.392504e+002
2.322896e+002, 5.388455e+002
2.327717e+002, 5.382515e+002
2.332539e+002, 5.335344e+002
2.337360e+002, 5.243505e+002
2.342181e+002, 5.115194e+002
2.347002e+002, 4.955087e+002
2.351823e+002, 4.750552e+002
2.356644e+002, 4.538796e+002
2.361466e+002, 4.326448e+002
2.366287e+002, 4.114354e+002
2.371108e+002, 3.900338e+002
2.375929e+002, 3.679023e+002
2.380750e+002, 3.465175e+002
2.385571e+002, 3.276107e+002
2.390393e+002, 3.120389e+002
2.395214e+002, 2.973056e+002
2.400035e+002, 2.825567e+002
2.404856e+002, 2.675033e+002
2.409677e+002, 2.556184e+002
2.414498e+002, 2.478982e+002
2.419320e+002, 2.423811e+002
2.424141e+002, 2.370514e+002
2.428962e+002, 2.311873e+002
2.433783e+002, 2.268573e+002
2.438604e+002, 2.245040e+002
2.443425e+002, 2.241220e+002
2.448247e+002, 2.248518e+002
2.453068e+002, 2.267586e+002
2.457889e+002, 2.297001e+002
2.462710e+002, 2.336331e+002
2.467531e+002, 2.387937e+002
2.472352e+002, 2.444340e+002
2.477174e+002, 2.502180e+002
2.481995e+002, 2.561661e+002
2.486816e+002, 2.638357e+002
2.491637e+002, 2.737805e+002
2.496458e+002, 2.848448e+002
2.501279e+002, 2.960306e+002
2.506101e+002, 3.073475e+002
2.510922e+002, 3.191674e+002
2.515743e+002, 3.325313e+002
2.520564e+002, 3.468624e+002
2.525385e+002, 3.569060e+002
2.530206e+002, 3.626163e+002
2.535028e+002, 3.641159e+002
2.539849e+002, 3.613362e+002
2.544670e+002, 3.537212e+002
2.549491e+002, 3.430014e+002
2.554312e+002, 3.282436e+002
2.559133e+002, 3.103926e+002
2.563955e+002, 2.935863e+002
2.568776e+002, 2.774199e+002
2.573597e+002, 2.628115e+002
2.578418e+002, 2.502975e+002
2.583239e+002, 2.397886e+002
2.588061e+002, 2.313903e+002
2.592882e+002, 2.254008e+002
2.597703e+002, 2.214209e+002
2.602524e+002, 2.180061e+002
2.607345e+002, 2.148530e+002
2.612166e+002, 2.127697e+002
2.616988e+002, 2.124314e+002
2.621809e+002, 2.145152e+002
2.626630e+002, 2.161037e+002
2.631451e+002, 2.167597e+002
2.636272e+002, 2.169911e+002
2.641093e+002, 2.182678e+002
2.645915e+002, 2.210660e+002
2.650736e+002, 2.238783e+002
2.655557e+002, 2.259952e+002
2.660378e+002, 2.272094e+002
2.665199e+002, 2.285098e+002
2.670020e+002, 2.301156e+002
2.674842e+002, 2.316454e+002
2.679663e+002, 2.321871e+002
2.684484e+002, 2.315094e+002
2.689305e+002, 2.305069e+002
2.694126e+002, 2.293483e+002
2.698947e+002, 2.278270e+002
2.703769e+002, 2.274144e+002
2.708590e+002, 2.284308e+002
2.713411e+002, 2.301264e+002
2.718232e+002, 2.311129e+002
2.723053e+002, 2.311040e+002
2.727874e+002, 2.314503e+002
2.732696e+002, 2.325108e+002
2.737517e+002, 2.342713e+002
2.742338e+002, 2.373797e+002
2.747159e+002, 2.422089e+002
2.751980e+002, 2.476775e+002
2.756801e+002, 2.520583e+002
2.761623e+002, 2.550876e+002
2.766444e+002, 2.586091e+002
2.771265e+002, 2.631791e+002
2.776086e+002, 2.688317e+002
2.780907e+002, 2.750042e+002
2.785728e+002, 2.817550e+002
2.790550e+002, 2.889666e+002
2.795371e+002, 2.966747e+002
2.800192e+002, 3.049356e+002
2.805013e+002, 3.129589e+002
2.809834e+002, 3.202571e+002
2.814655e+002, 3.271469e+002
2.819477e+002, 3.352692e+002
2.824298e+002, 3.446023e+002
2.829119e+002, 3.549117e+002
2.833940e+002, 3.662267e+002
2.838761e+002, 3.785307e+002
2.843582e+002, 3.908082e+002
2.848404e+002, 4.028500e+002
2.853225e+002, 4.147068e+002
2.858046e+002, 4.268593e+002
2.862867e+002, 4.392972e+002
2.867688e+002, 4.509626e+002
2.872509e+002, 4.601194e+002
2.877331e+002, 4.671796e+002
2.882152e+002, 4.760963e+002
2.886973e+002, 4.880969e+002
2.891794e+002, 5.015789e+002
2.896615e+002, 5.127825e+002
2.901436e+002, 5.218192e+002
2.906258e+002, 5.305579e+002
2.911079e+002, 5.407303e+002
2.915900e+002, 5.518578e+002
2.920721e+002, 5.617289e+002
2.925542e+002, 5.697332e+002
2.930363e+002, 5.770197e+002
2.935185e+002, 5.860986e+002
2.940006e+002, 5.966776e+002
2.944827e+002, 6.053045e+002
2.949648e+002, 6.081392e+002
2.954469e+002, 6.077322e+002
2.959290e+002, 6.113698e+002
2.964112e+002, 6.201051e+002
2.968933e+002, 6.302794e+002
2.973754e+002, 6.373852e+002
2.978575e+002, 6.420121e+002
2.983396e+002, 6.464949e+002
2.988217e+002, 6.513929e+002
2.993039e+002, 6.569920e+002
2.997860e+002, 6.638537e+002
3.002681e+002, 6.720660e+002
3.007502e+002, 6.808781e+002
3.012323e+002, 6.888497e+002
3.017144e+002, 6.968314e+002
3.021966e+002, 7.064683e+002
3.026787e+002, 7.197942e+002
3.031608e+002, 7.344937e+002
3.036429e+002, 7.472830e+002
3.041250e+002, 7.582169e+002
3.046071e+002, 7.706006e+002
3.050893e+002, 7.880645e+002
3.055714e+002, 8.084910e+002
3.060535e+002, 8.276602e+002
3.065356e+002, 8.417100e+002
3.070177e+002, 8.569364e+002
3.074998e+002, 8.801968e+002
3.079820e+002, 9.104070e+002
3.084641e+002, 9.407100e+002
3.089462e+002, 9.646552e+002
3.094283e+002, 9.873862e+002
3.099104e+002, 1.014291e+003
3.103925e+002, 1.046714e+003
3.108747e+002, 1.082774e+003
3.113568e+002, 1.121237e+003
3.118389e+002, 1.162062e+003
3.123210e+002, 1.204954e+003
3.128031e+002, 1.250822e+003
3.132852e+002, 1.298560e+003
3.137674e+002, 1.347522e+003
3.142495e+002, 1.396626e+003
3.147316e+002, 1.447982e+003
3.152137e+002, 1.504183e+003
3.156958e+002, 1.562706e+003
3.161779e+002, 1.619237e+003
3.166601e+002, 1.670632e+003
3.171422e+002, 1.720866e+003
3.176243e+002, 1.772814e+003
3.181064e+002, 1.827163e+003
3.185885e+002, 1.877014e+003
3.190706e+002, 1.920718e+003
3.195528e+002, 1.958373e+003
3.200349e+002, 1.990084e+003
3.205170e+002, 2.021059e+003
3.209991e+002, 2.041187e+003
3.214812e+002, 2.047300e+003
3.219633e+002, 2.039224e+003
3.224455e+002, 2.019307e+003
3.229276e+002, 1.984482e+003
3.234097e+002, 1.939953e+003
3.238918e+002, 1.889614e+003
3.243739e+002, 1.835408e+003
3.248560e+002, 1.773866e+003
3.253382e+002, 1.701885e+003
3.258203e+002, 1.620497e+003
3.263024e+002, 1.539367e+003
3.267845e+002, 1.457459e+003
3.272666e+002, 1.376640e+003
3.277487e+002, 1.297474e+003
3.282309e+002, 1.219064e+003
3.287130e+002, 1.144644e+003
3.291951e+002, 1.074704e+003
3.296772e+002, 1.008749e+003
3.301593e+002, 9.451789e+002
3.306414e+002, 8.825189e+002
3.311236e+002, 8.248024e+002
3.316057e+002, 7.734917e+002
3.320878e+002, 7.302369e+002
3.325699e+002, 6.881915e+002
3.330520e+002, 6.469921e+002
3.335341e+002, 6.076323e+002
3.340163e+002, 5.717141e+002
3.344984e+002, 5.398968e+002
3.349805e+002, 5.108706e+002
3.354626e+002, 4.843556e+002
3.359447e+002, 4.602957e+002
3.364268e+002, 4.377861e+002
3.369090e+002, 4.166990e+002
3.373911e+002, 3.970112e+002
3.378732e+002, 3.789774e+002
3.383553e+002, 3.627695e+002
3.388374e+002, 3.475148e+002
3.393195e+002, 3.327727e+002
3.398017e+002, 3.188564e+002
3.402838e+002, 3.068959e+002
3.407659e+002, 2.972481e+002
3.412480e+002, 2.881570e+002
3.417301e+002, 2.781787e+002
3.422122e+002, 2.673073e+002
3.426944e+002, 2.566689e+002
3.431765e+002, 2.462243e+002
3.436586e+002, 2.363147e+002
3.441407e+002, 2.281076e+002
3.446228e+002, 2.216640e+002
3.451049e+002, 2.155945e+002
3.455871e+002, 2.089051e+002
3.460692e+002, 2.018266e+002
3.465513e+002, 1.964606e+002
3.470334e+002, 1.931335e+002
3.475155e+002, 1.902851e+002
3.479977e+002, 1.857141e+002
3.484798e+002, 1.797525e+002
3.489619e+002, 1.743553e+002
3.494440e+002, 1.707285e+002
3.499261e+002, 1.680508e+002
3.504082e+002, 1.645304e+002
3.508904e+002, 1.601674e+002
3.513725e+002, 1.559715e+002
3.518546e+002, 1.529727e+002
3.523367e+002, 1.507381e+002
3.528188e+002, 1.483257e+002
3.533009e+002, 1.453805e+002
3.537831e+002, 1.422493e+002
3.542652e+002, 1.390565e+002
3.547473e+002, 1.359119e+002
3.552294e+002, 1.333215e+002
3.557115e+002, 1.319351e+002
3.561936e+002, 1.311236e+002
3.566758e+002, 1.302451e+002
3.571579e+002, 1.291987e+002
3.576400e+002, 1.280206e+002
3.581221e+002, 1.266518e+002
3.586042e+002, 1.251796e+002
3.590863e+002, 1.237468e+002
3.595685e+002, 1.226481e+002
3.600506e+002, 1.214431e+002
3.605327e+002, 1.196789e+002
3.610148e+002, 1.172257e+002
3.614969e+002, 1.151535e+002
3.619790e+002, 1.142956e+002
3.624612e+002, 1.139050e+002
3.629433e+002, 1.131697e+002
3.634254e+002, 1.114139e+002
3.639075e+002, 1.097296e+002
3.643896e+002, 1.084432e+002
3.648717e+002, 1.075393e+002
3.653539e+002, 1.067728e+002
3.658360e+002, 1.064284e+002
3.663181e+002, 1.059806e+002
3.668002e+002, 1.050989e+002
3.672823e+002, 1.030653e+002
3.677644e+002, 1.014636e+002
3.682466e+002, 1.007516e+002
3.687287e+002, 1.005641e+002
3.692108e+002, 9.989373e+001
3.696929e+002, 9.840789e+001
3.701750e+002, 9.677839e+001
3.706571e+002, 9.524237e+001
3.711393e+002, 9.384013e+001
3.716214e+002, 9.236101e+001
3.721035e+002, 9.079478e+001
3.725856e+002, 8.914584e+001
3.730677e+002, 8.741998e+001
3.735498e+002, 8.552497e+001
3.740320e+002, 8.372920e+001
3.745141e+002, 8.211888e+001
3.749962e+002, 8.069090e+001
3.754783e+002, 7.924830e+001
3.759604e+002, 7.772510e+001
3.764425e+002, 7.636495e+001
3.769247e+002, 7.554023e+001
3.774068e+002, 7.539889e+001
3.778889e+002, 7.464216e+001
3.783710e+002, 7.292237e+001
3.788531e+002, 7.068846e+001
3.793352e+002, 6.900206e+001
3.798174e+002, 6.791063e+001
3.802995e+002, 6.695290e+001
3.807816e+002, 6.591698e+001
3.812637e+002, 6.480112e+001
3.817458e+002, 6.364690e+001
3.822279e+002, 6.242361e+001
3.827101e+002, 6.122861e+001
3.831922e+002, 6.029691e+001
3.836743e+002, 5.952578e+001
3.841564e+002, 5.845294e+001
3.846385e+002, 5.643055e+001
3.851206e+002, 5.420974e+001
3.856028e+002, 5.331582e+001
3.860849e+002, 5.369131e+001
3.865670e+002, 5.423312e+001
3.870491e+002, 5.426067e+001
3.875312e+002, 5.384133e+001
3.880133e+002, 5.305554e+001
3.884955e+002, 5.182250e+001
3.889776e+002, 5.041592e+001
3.894597e+002, 4.883459e+001
3.899418e+002, 4.724491e+001
3.904239e+002, 4.612179e+001
3.909060e+002, 4.625564e+001
3.913882e+002, 4.660738e+001
3.918703e+002, 4.627436e+001
3.923524e+002, 4.500774e+001
3.928345e+002, 4.384623e+001
3.933166e+002, 4.335178e+001
3.937987e+002, 4.323197e+001
3.942809e+002, 4.312186e+001
3.947630e+002, 4.298309e+001
3.952451e+002, 4.276584e+001
3.957272e+002, 4.243448e+001
3.962093e+002, 4.199372e+001
3.966914e+002, 4.151987e+001
3.971736e+002, 4.104000e+001
3.976557e+002, 4.052376e+001
3.981378e+002, 3.994875e+001
3.986199e+002, 3.912371e+001
3.991020e+002, 3.848965e+001
3.995841e+002, 3.817081e+001
4.000663e+002, 3.804483e+001
4.005484e+002, 3.780585e+001
4.010305e+002, 3.722749e+001
4.015126e+002, 3.682552e+001
4.019947e+002, 3.686408e+001
4.024768e+002, 3.750311e+001
4.029590e+002, 3.769547e+001
4.034411e+002, 3.725514e+001
4.039232e+002, 3.658079e+001
4.044053e+002, 3.621523e+001
4.048874e+002, 3.640022e+001
4.053695e+002, 3.596384e+001
4.058517e+002, 3.430595e+001
4.063338e+002, 3.191676e+001
4.068159e+002, 3.107850e+001
4.072980e+002, 3.204902e+001
4.077801e+002, 3.332375e+001
4.082622e+002, 3.382671e+001
4.087444e+002, 3.362150e+001
4.092265e+002, 3.355995e+001
4.097086e+002, 3.372868e+001
4.101907e+002, 3.403423e+001
4.106728e+002, 3.458449e+001
4.111549e+002, 3.527338e+001
4.116371e+002, 3.538426e+001
4.121192e+002, 3.396115e+001
4.126013e+002, 3.188830e+001
4.130834e+002, 3.108279e+001
4.135655e+002, 3.154871e+001
4.140476e+002, 3.225315e+001
4.145298e+002, 3.237882e+001
4.150119e+002, 3.216277e+001
4.154940e+002, 3.197849e+001
4.159761e+002, 3.186365e+001
4.164582e+002, 3.191334e+001
4.169403e+002, 3.242316e+001
4.174225e+002, 3.320042e+001
4.179046e+002, 3.368607e+001
4.183867e+002, 3.325428e+001
4.188688e+002, 3.264959e+001
4.193509e+002, 3.238124e+001
4.198330e+002, 3.253877e+001
4.203152e+002, 3.285875e+001
4.207973e+002, 3.364543e+001
4.212794e+002, 3.439494e+001
4.217615e+002, 3.453103e+001
4.222436e+002, 3.324779e+001
4.227257e+002, 3.204000e+001
4.232079e+002, 3.125417e+001
4.236900e+002, 3.088210e+001
4.241721e+002, 3.064399e+001
4.246542e+002, 3.045227e+001
4.251363e+002, 3.043762e+001
4.256184e+002, 3.066930e+001
4.261006e+002, 3.121796e+001
4.265827e+002, 3.190455e+001
4.270648e+002, 3.295807e+001
4.275469e+002, 3.403744e+001
4.280290e+002, 3.444330e+001
4.285111e+002, 3.383231e+001
4.289933e+002, 3.331419e+001
4.294754e+002, 3.322060e+001
4.299575e+002, 3.354364e+001
4.304396e+002, 3.402846e+001
4.309217e+002, 3.478819e+001
4.314038e+002, 3.538756e+001
4.318860e+002, 3.527529e+001
4.323681e+002, 3.444205e+001
4.328502e+002, 3.393181e+001
4.333323e+002, 3.398816e+001
4.338144e+002, 3.431155e+001
4.342965e+002, 3.429130e+001
4.347787e+002, 3.395419e+001
4.352608e+002, 3.364054e+001
4.357429e+002, 3.349136e+001
4.362250e+002, 3.350662e+001
4.367071e+002, 3.376664e+001
4.371892e+002, 3.429297e+001
4.376714e+002, 3.477448e+001
4.381535e+002, 3.477834e+001
4.386356e+002, 3.455529e+001
4.391177e+002, 3.455253e+001
4.395998e+002, 3.504857e+001
4.400819e+002, 3.565856e+001
4.405641e+002, 3.633552e+001
4.410462e+002, 3.693504e+001
4.415283e+002, 3.693684e+001
4.420104e+002, 3.521500e+001
4.424925e+002, 3.338722e+001
4.429746e+002, 3.270807e+001
4.434568e+002, 3.365646e+001
4.439389e+002, 3.447377e+001
4.444210e+002, 3.444315e+001
4.449031e+002, 3.403186e+001
4.453852e+002, 3.379741e+001
4.458673e+002, 3.404734e+001
4.463495e+002, 3.426744e+001
4.468316e+002, 3.428931e+001
4.473137e+002, 3.413572e+001
4.477958e+002, 3.417219e+001
4.482779e+002, 3.459648e+001
4.487600e+002, 3.500765e+001
4.492422e+002, 3.519296e+001
4.497243e+002, 3.502346e+001
4.502064e+002, 3.493444e+001
4.506885e+002, 3.493805e+001
4.511706e+002, 3.501009e+001
4.516527e+002, 3.513322e+001
4.521349e+002, 3.533739e+001
4.526170e+002, 3.546987e+001
4.530991e+002, 3.545630e+001
4.535812e+002, 3.533074e+001
4.540633e+002, 3.530854e+001
4.545454e+002, 3.540334e+001
4.550276e+002, 3.549035e+001
4.555097e+002, 3.549690e+001
4.559918e+002, 3.541631e+001
4.564739e+002, 3.520192e+001
4.569560e+002, 3.482493e+001
4.574381e+002, 3.436885e+001
4.579203e+002, 3.381096e+001
4.584024e+002, 3.324015e+001
4.588845e+002, 3.293405e+001
4.593666e+002, 3.326203e+001
4.598488e+002, 3.379648e+001
4.603309e+002, 3.412627e+001
4.608130e+002, 3.423965e+001
4.612951e+002, 3.411010e+001
4.617772e+002, 3.349456e+001
4.622593e+002, 3.273613e+001
4.627415e+002, 3.218027e+001
4.632236e+002, 3.199234e+001
4.637057e+002, 3.186457e+001
4.641878e+002, 3.161026e+001
4.646699e+002, 3.134076e+001
4.651520e+002, 3.126803e+001
4.656342e+002, 3.186964e+001
4.661163e+002, 3.227595e+001
4.665984e+002, 3.209498e+001
4.670805e+002, 3.121551e+001
4.675626e+002, 3.059978e+001
4.680447e+002, 3.045435e+001
4.685269e+002, 3.042801e+001
4.690090e+002, 3.026250e+001
4.694911e+002, 2.977600e+001
4.699732e+002, 2.955120e+001
4.704553e+002, 2.976189e+001
4.709374e+002, 3.016836e+001
4.714196e+002, 3.020091e+001
4.719017e+002, 2.976735e+001
4.723838e+002, 2.928436e+001
4.728659e+002, 2.881731e+001
4.733480e+002, 2.839988e+001
4.738301e+002, 2.854816e+001
4.743123e+002, 2.935537e+001
4.747944e+002, 3.011595e+001
4.752765e+002, 3.001395e+001
4.757586e+002, 2.925509e+001
4.762407e+002, 2.873221e+001
4.767228e+002, 2.865415e+001
4.772050e+002, 2.879194e+001
4.776871e+002, 2.892809e+001
4.781692e+002, 2.904005e+001
4.786513e+002, 2.905322e+001
4.791334e+002, 2.886072e+001
4.796155e+002, 2.859236e+001
4.800977e+002, 2.833593e+001
4.805798e+002, 2.809818e+001
4.810619e+002, 2.796211e+001
4.815440e+002, 2.805645e+001
4.820261e+002, 2.823442e+001
4.825082e+002, 2.836932e+001
4.829904e+002, 2.845478e+001
4.834725e+002, 2.845976e+001
4.839546e+002, 2.825705e+001
4.844367e+002, 2.797376e+001
4.849188e+002, 2.788221e+001
4.854009e+002, 2.830251e+001
4.858831e+002, 2.863579e+001
4.863652e+002, 2.877526e+001
4.868473e+002, 2.873003e+001
4.873294e+002, 2.830387e+001
4.878115e+002, 2.711880e+001
4.882936e+002, 2.599619e+001
4.887758e+002, 2.556955e+001
4.892579e+002, 2.605869e+001
4.897400e+002, 2.648528e+001
4.902221e+002, 2.679581e+001
4.907042e+002, 2.698877e+001
4.911863e+002, 2.697715e+001
4.916685e+002, 2.674002e+001
4.921506e+002, 2.665764e+001
4.926327e+002, 2.698350e+001
4.931148e+002, 2.756874e+001
4.935969e+002, 2.794387e+001
4.940790e+002, 2.811438e+001
4.945612e+002, 2.802558e+001
4.950433e+002, 2.734122e+001
4.955254e+002, 2.642123e+001
4.960075e+002, 2.600332e+001
4.964896e+002, 2.635012e+001
4.969717e+002, 2.681845e+001
4.974539e+002, 2.683867e+001
4.979360e+002, 2.657164e+001
4.984181e+002, 2.630919e+001
4.989002e+002, 2.608731e+001
4.993823e+002, 2.597610e+001
4.998644e+002, 2.608827e+001
5.003466e+002, 2.639517e+001
5.008287e+002, 2.660264e+001
5.013108e+002, 2.656639e+001
5.017929e+002, 2.644504e+001
5.022750e+002, 2.631942e+001
5.027571e+002, 2.614628e+001
5.032393e+002, 2.606638e+001
5.037214e+002, 2.606745e+001
5.042035e+002, 2.616880e+001
5.046856e+002, 2.640733e+001
5.051677e+002, 2.683664e+001
5.056498e+002, 2.731886e+001
5.061320e+002, 2.794573e+001
5.066141e+002, 2.861472e+001
5.070962e+002, 2.862966e+001
5.075783e+002, 2.783678e+001
5.080604e+002, 2.703684e+001
5.085425e+002, 2.679883e+001
5.090247e+002, 2.705105e+001
5.095068e+002, 2.704265e+001
5.099889e+002, 2.670420e+001
5.104710e+002, 2.632863e+001
5.109531e+002, 2.635785e+001
5.114352e+002, 2.663535e+001
5.119174e+002, 2.668160e+001
5.123995e+002, 2.625275e+001
5.128816e+002, 2.566527e+001
5.133637e+002, 2.513848e+001
5.138458e+002, 2.471156e+001
5.143279e+002, 2.451163e+001
5.148101e+002, 2.483342e+001
5.152922e+002, 2.524147e+001
5.157743e+002, 2.541983e+001
5.162564e+002, 2.532331e+001
5.167385e+002, 2.520501e+001
5.172206e+002, 2.510441e+001
5.177028e+002, 2.504647e+001
5.181849e+002, 2.505187e+001
5.186670e+002, 2.516986e+001
5.191491e+002, 2.529351e+001
5.196312e+002, 2.538818e+001
5.201133e+002, 2.548824e+001
5.205955e+002, 2.571412e+001
5.210776e+002, 2.629898e+001
5.215597e+002, 2.654947e+001
5.220418e+002, 2.608395e+001
5.225239e+002, 2.495533e+001
5.230060e+002, 2.452307e+001
5.234882e+002, 2.492700e+001
5.239703e+002, 2.551301e+001
5.244524e+002, 2.572285e+001
5.249345e+002, 2.560341e+001
5.254166e+002, 2.569619e+001
5.258987e+002, 2.610032e+001
5.263809e+002, 2.657388e+001
5.268630e+002, 2.691954e+001
5.273451e+002, 2.709730e+001
5.278272e+002, 2.696398e+001
5.283093e+002, 2.611857e+001
5.287914e+002, 2.523030e+001
5.292736e+002, 2.505264e+001
5.297557e+002, 2.546677e+001
5.302378e+002, 2.594804e+001
5.307199e+002, 2.645735e+001
5.312020e+002, 2.677327e+001
5.316841e+002, 2.662839e+001
5.321663e+002, 2.584366e+001
5.326484e+002, 2.531335e+001
5.331305e+002, 2.527264e+001
5.336126e+002, 2.558418e+001
5.340947e+002, 2.612629e+001
5.345768e+002, 2.728958e+001
5.350590e+002, 2.813855e+001
5.355411e+002, 2.845996e+001
5.360232e+002, 2.844784e+001
5.365053e+002, 2.864581e+001
5.369874e+002, 2.916486e+001
5.374695e+002, 2.959620e+001
5.379517e+002, 2.970048e+001
5.384338e+002, 2.952444e+001
5.389159e+002, 2.972729e+001
5.393980e+002, 3.033683e+001
5.398801e+002, 3.114314e+001
5.403622e+002, 3.218035e+001
5.408444e+002, 3.329641e+001
5.413265e+002, 3.380635e+001
5.418086e+002, 3.350037e+001
5.422907e+002, 3.305615e+001
5.427728e+002, 3.325675e+001
5.432549e+002, 3.390554e+001
5.437371e+002, 3.457404e+001
5.442192e+002, 3.507252e+001
5.447013e+002, 3.553782e+001
5.451834e+002, 3.614802e+001
5.456655e+002, 3.683932e+001
5.461476e+002, 3.732850e+001
5.466298e+002, 3.719426e+001
5.471119e+002, 3.707666e+001
5.475940e+002, 3.741388e+001
5.480761e+002, 3.846421e+001
5.485582e+002, 3.908147e+001
5.490403e+002, 3.880818e+001
5.495225e+002, 3.832771e+001
5.500046e+002, 3.823560e+001
5.504867e+002, 3.891401e+001
5.509688e+002, 3.912988e+001
5.514509e+002, 3.869017e+001
5.519330e+002, 3.779562e+001
5.524152e+002, 3.675976e+001
5.528973e+002, 3.551033e+001
5.533794e+002, 3.465377e+001
5.538615e+002, 3.458386e+001
5.543436e+002, 3.503921e+001
5.548257e+002, 3.511075e+001
5.553079e+002, 3.480490e+001
5.557900e+002, 3.440836e+001
5.562721e+002, 3.428977e+001
5.567542e+002, 3.417983e+001
5.572363e+002, 3.351326e+001
5.577184e+002, 3.213046e+001
5.582006e+002, 3.082869e+001
5.586827e+002, 3.008809e+001
5.591648e+002, 2.982081e+001
5.596469e+002, 2.990519e+001
5.601290e+002, 3.090056e+001
5.606111e+002, 3.159316e+001
5.610933e+002, 3.127016e+001
5.615754e+002, 3.032673e+001
5.620575e+002, 2.984445e+001
5.625396e+002, 3.083355e+001
5.630217e+002, 3.139138e+001
5.635038e+002, 3.075410e+001
5.639860e+002, 2.884494e+001
5.644681e+002, 2.783466e+001
5.649502e+002, 2.804663e+001
5.654323e+002, 2.855645e+001
5.659144e+002, 2.877468e+001
5.663965e+002, 2.869930e+001
5.668787e+002, 2.830296e+001
5.673608e+002, 2.747148e+001
5.678429e+002, 2.666205e+001
5.683250e+002, 2.675896e+001
5.688071e+002, 2.751348e+001
5.692892e+002, 2.781553e+001
5.697714e+002, 2.709755e+001
5.702535e+002, 2.604597e+001
5.707356e+002, 2.547665e+001
5.712177e+002, 2.529598e+001
5.716998e+002, 2.522031e+001
5.721819e+002, 2.519056e+001
5.726641e+002, 2.513894e+001
5.731462e+002, 2.504871e+001
5.736283e+002, 2.491804e+001
5.741104e+002, 2.464651e+001
5.745925e+002, 2.389286e+001
5.750746e+002, 2.319828e+001
5.755568e+002, 2.296316e+001
5.760389e+002, 2.383957e+001
5.765210e+002, 2.400944e+001
5.770031e+002, 2.300089e+001
5.774852e+002, 2.162770e+001
5.779673e+002, 2.101243e+001
5.784495e+002, 2.136547e+001
5.789316e+002, 2.173148e+001
5.794137e+002, 2.196567e+001
5.798958e+002, 2.205198e+001
5.803779e+002, 2.186890e+001
5.808600e+002, 2.141992e+001
5.813422e+002, 2.104804e+001
5.818243e+002, 2.093231e+001
5.823064e+002, 2.102345e+001
5.827885e+002, 2.132341e+001
5.832706e+002, 2.181973e+001
5.837527e+002, 2.217056e+001
5.842349e+002, 2.198811e+001
5.847170e+002, 2.160117e+001
5.851991e+002, 2.129445e+001
5.856812e+002, 2.102472e+001
5.861633e+002, 2.114241e+001
5.866454e+002, 2.238195e+001
5.871276e+002, 2.388289e+001
5.876097e+002, 2.458418e+001
5.880918e+002, 2.338249e+001
5.885739e+002, 2.248914e+001
5.890560e+002, 2.225537e+001
5.895381e+002, 2.251807e+001
5.900203e+002, 2.285396e+001
5.905024e+002, 2.341125e+001
5.909845e+002, 2.369321e+001
5.914666e+002, 2.337877e+001
5.919487e+002, 2.257402e+001
5.924308e+002, 2.235155e+001
5.929130e+002, 2.278209e+001
5.933951e+002, 2.322518e+001
5.938772e+002, 2.301998e+001
5.943593e+002, 2.242885e+001
5.948414e+002, 2.228615e+001
5.953235e+002, 2.272276e+001
5.958057e+002, 2.322748e+001
5.962878e+002, 2.338278e+001
5.967699e+002, 2.328589e+001
5.972520e+002, 2.306297e+001
5.977341e+002, 2.258676e+001
5.982162e+002, 2.223469e+001
5.986984e+002, 2.233443e+001
5.991805e+002, 2.267742e+001
5.996626e+002, 2.282375e+001
6.001447e+002, 2.247586e+001
6.006268e+002, 2.213529e+001
6.011089e+002, 2.192833e+001
6.015911e+002, 2.184590e+001
6.020732e+002, 2.180705e+001
6.025553e+002, 2.182615e+001
6.030374e+002, 2.186469e+001
6.035195e+002, 2.195588e+001
6.040016e+002, 2.211160e+001
6.044838e+002, 2.194192e+001
6.049659e+002, 2.138434e+001
6.054480e+002, 2.080550e+001
6.059301e+002, 2.050207e+001
6.064122e+002, 2.048128e+001
6.068943e+002, 2.084002e+001
6.073765e+002, 2.171219e+001
6.078586e+002, 2.258702e+001
6.083407e+002, 2.290156e+001
6.088228e+002, 2.284440e+001
6.093049e+002, 2.275308e+001
6.097870e+002, 2.287649e+001
6.102692e+002, 2.288480e+001
6.107513e+002, 2.254406e+001
6.112334e+002, 2.194435e+001
6.117155e+002, 2.141501e+001
6.121976e+002, 2.059893e+001
6.126797e+002, 2.030201e+001
6.131619e+002, 2.105664e+001
6.136440e+002, 2.296437e+001
6.141261e+002, 2.378803e+001
6.146082e+002, 2.301375e+001
6.150903e+002, 2.211996e+001
6.155724e+002, 2.226744e+001
6.160546e+002, 2.348147e+001
6.165367e+002, 2.406830e+001
6.170188e+002, 2.384630e+001
6.175009e+002, 2.343114e+001
6.179830e+002, 2.362683e+001
6.184651e+002, 2.421693e+001
6.189473e+002, 2.454907e+001
6.194294e+002, 2.436178e+001
6.199115e+002, 2.406698e+001
6.203936e+002, 2.405408e+001
6.208757e+002, 2.421124e+001
6.213578e+002, 2.431023e+001
6.218400e+002, 2.408042e+001
6.223221e+002, 2.394933e+001
6.228042e+002, 2.420640e+001
6.232863e+002, 2.477615e+001
6.237684e+002, 2.513127e+001
6.242505e+002, 2.490808e+001
6.247327e+002, 2.481486e+001
6.252148e+002, 2.522947e+001
6.256969e+002, 2.624679e+001
6.261790e+002, 2.649990e+001
6.266611e+002, 2.566512e+001
6.271432e+002, 2.489720e+001
6.276254e+002, 2.526290e+001
6.281075e+002, 2.665595e+001
6.285896e+002, 2.786263e+001
6.290717e+002, 2.875436e+001
6.295538e+002, 2.952772e+001
6.300359e+002, 3.023860e+001
6.305181e+002, 3.100700e+001
6.310002e+002, 3.214699e+001
6.314823e+002, 3.401267e+001
6.319644e+002, 3.583114e+001
6.324465e+002, 3.692504e+001
6.329286e+002, 3.760065e+001
6.334108e+002, 3.844924e+001
6.338929e+002, 4.044263e+001
6.343750e+002, 4.182859e+001
6.348571e+002, 4.212565e+001
6.353392e+002, 4.133765e+001
6.358214e+002, 3.958915e+001
6.363035e+002, 3.602557e+001
6.367856e+002, 3.287115e+001
6.372677e+002, 3.127387e+001
6.377498e+002, 3.123820e+001
6.382319e+002, 3.014168e+001
6.387141e+002, 2.775511e+001
6.391962e+002, 2.548412e+001
6.396783e+002, 2.462847e+001
6.401604e+002, 2.483335e+001
6.406425e+002, 2.495272e+001
6.411246e+002, 2.487337e+001
6.416068e+002, 2.465091e+001
6.420889e+002, 2.418684e+001
6.425710e+002, 2.366159e+001
6.430531e+002, 2.334458e+001
6.435352e+002, 2.341924e+001
6.440173e+002, 2.352756e+001
6.444995e+002, 2.348911e+001
6.449816e+002, 2.339487e+001
6.454637e+002, 2.340472e+001
6.459458e+002, 2.390686e+001
6.464279e+002, 2.405490e+001
6.469100e+002, 2.358003e+001
6.473922e+002, 2.264894e+001
6.478743e+002, 2.187638e+001
6.483564e+002, 2.117806e+001
6.488385e+002, 2.092924e+001
6.493206e+002, 2.149675e+001
6.498027e+002, 2.266143e+001
6.502849e+002, 2.329732e+001
6.507670e+002, 2.341466e+001
6.512491e+002, 2.332740e+001
6.517312e+002, 2.304753e+001
6.522133e+002, 2.279979e+001
6.526954e+002, 2.301342e+001
6.531776e+002, 2.377301e+001
6.536597e+002, 2.442861e+001
6.541418e+002, 2.459739e+001
6.546239e+002, 2.449598e+001
6.551060e+002, 2.430974e+001
6.555881e+002, 2.401606e+001
6.560703e+002, 2.374258e+001
6.565524e+002, 2.336874e+001
6.570345e+002, 2.309436e+001
6.575166e+002, 2.318682e+001
6.579987e+002, 2.378211e+001
6.584808e+002, 2.436900e+001
6.589630e+002, 2.487690e+001
6.594451e+002, 2.533815e+001
6.599272e+002, 2.585502e+001
6.604093e+002, 2.642258e+001
6.608914e+002, 2.691415e+001
6.613735e+002, 2.735333e+001
6.618557e+002, 2.762601e+001
6.623378e+002, 2.732401e+001
6.628199e+002, 2.661681e+001
6.633020e+002, 2.624430e+001
6.637841e+002, 2.701432e+001
6.642662e+002, 2.796935e+001
6.647484e+002, 2.833649e+001
6.652305e+002, 2.807145e+001
6.657126e+002, 2.808559e+001
6.661947e+002, 2.873697e+001
6.666768e+002, 2.962239e+001
6.671589e+002, 3.049564e+001
6.676411e+002, 3.127129e+001
6.681232e+002, 3.242571e+001
6.686053e+002, 3.414848e+001
6.690874e+002, 3.592810e+001
6.695695e+002, 3.733173e+001
6.700516e+002, 3.836694e+001
6.705338e+002, 3.895251e+001
6.710159e+002, 3.891444e+001
6.714980e+002, 3.906738e+001
6.719801e+002, 4.060847e+001
6.724622e+002, 4.311333e+001
6.729443e+002, 4.561579e+001
6.734265e+002, 4.796090e+001
6.739086e+002, 5.002155e+001
6.743907e+002, 5.135546e+001
6.748728e+002, 5.242269e+001
6.753549e+002, 5.406745e+001
6.758370e+002, 5.677087e+001
6.763192e+002, 5.984989e+001
6.768013e+002, 6.310312e+001
6.772834e+002, 6.656611e+001
6.777655e+002, 7.038857e+001
6.782476e+002, 7.473740e+001
6.787297e+002, 7.897551e+001
6.792119e+002, 8.269146e+001
6.796940e+002, 8.605672e+001
6.801761e+002, 9.007390e+001
6.806582e+002, 9.474265e+001
6.811403e+002, 9.955905e+001
6.816224e+002, 1.043244e+002
6.821046e+002, 1.089615e+002
6.825867e+002, 1.133534e+002
6.830688e+002, 1.175217e+002
6.835509e+002, 1.210257e+002
6.840330e+002, 1.235612e+002
6.845151e+002, 1.253630e+002
6.849973e+002, 1.266962e+002
6.854794e+002, 1.277194e+002
6.859615e+002, 1.279523e+002
6.864436e+002, 1.274127e+002
6.869257e+002, 1.259721e+002
6.874078e+002, 1.232514e+002
6.878900e+002, 1.182883e+002
6.883721e+002, 1.148322e+002
6.888542e+002, 1.134214e+002
6.893363e+002, 1.131476e+002
6.898184e+002, 1.128466e+002
6.903005e+002, 1.125300e+002
6.907827e+002, 1.121872e+002
6.912648e+002, 1.115853e+002
6.917469e+002, 1.114137e+002
6.922290e+002, 1.125013e+002
6.927111e+002, 1.147037e+002
6.931932e+002, 1.176820e+002
6.936754e+002, 1.212015e+002
6.941575e+002, 1.255437e+002
6.946396e+002, 1.310379e+002
6.951217e+002, 1.374795e+002
6.956038e+002, 1.442754e+002
6.960859e+002, 1.504482e+002
6.965681e+002, 1.578829e+002
6.970502e+002, 1.671554e+002
6.975323e+002, 1.781679e+002
6.980144e+002, 1.900926e+002
6.984965e+002, 2.030338e+002
6.989786e+002, 2.164320e+002
6.994608e+002, 2.303350e+002
6.999429e+002, 2.445271e+002
7.004250e+002, 2.582741e+002
7.009071e+002, 2.715894e+002
7.013892e+002, 2.829920e+002
7.018713e+002, 2.927760e+002
7.023535e+002, 2.992846e+002
7.028356e+002, 3.003162e+002
7.033177e+002, 2.952496e+002
7.037998e+002, 2.874198e+002
7.042819e+002, 2.775091e+002
7.047640e+002, 2.657021e+002
7.052462e+002, 2.518769e+002
7.057283e+002, 2.351861e+002
7.062104e+002, 2.186333e+002
7.066925e+002, 2.019023e+002
7.071746e+002, 1.856949e+002
7.076567e+002, 1.707200e+002
7.081389e+002, 1.570576e+002
7.086210e+002, 1.443380e+002
7.091031e+002, 1.323752e+002
7.095852e+002, 1.215089e+002
7.100673e+002, 1.124205e+002
7.105494e+002, 1.048316e+002
7.110316e+002, 9.781493e+001
7.115137e+002, 9.112302e+001
7.119958e+002, 8.497200e+001
7.124779e+002, 7.951302e+001
7.129600e+002, 7.462996e+001
7.134421e+002, 7.018227e+001
7.139243e+002, 6.589548e+001
7.144064e+002, 6.228910e+001
7.148885e+002, 5.982273e+001
7.153706e+002, 5.806750e+001
7.158527e+002, 5.567669e+001
7.163348e+002, 5.239053e+001
7.168170e+002, 4.938904e+001
7.172991e+002, 4.712060e+001
7.177812e+002, 4.543072e+001
7.182633e+002, 4.396085e+001
7.187454e+002, 4.268633e+001
7.192275e+002, 4.155333e+001
7.197097e+002, 4.059835e+001
7.201918e+002, 3.969461e+001
7.206739e+002, 3.860437e+001
7.211560e+002, 3.737451e+001
7.216381e+002, 3.635011e+001
7.221202e+002, 3.577910e+001
7.226024e+002, 3.539245e+001
7.230845e+002, 3.505690e+001
7.235666e+002, 3.476154e+001
7.240487e+002, 3.460322e+001
7.245308e+002, 3.488329e+001
7.250129e+002, 3.483026e+001
7.254951e+002, 3.373601e+001
7.259772e+002, 3.152842e+001
7.264593e+002, 3.015488e+001
7.269414e+002, 2.966833e+001
7.274235e+002, 2.968812e+001
7.279056e+002, 3.028427e+001
7.283878e+002, 3.103055e+001
7.288699e+002, 3.099400e+001
7.293520e+002, 2.993414e+001
7.298341e+002, 2.885668e+001
7.303162e+002, 2.845151e+001
7.307983e+002, 2.833131e+001
7.312805e+002, 2.810202e+001
7.317626e+002, 2.743804e+001
7.322447e+002, 2.714074e+001
7.327268e+002, 2.746940e+001
7.332089e+002, 2.801055e+001
7.336910e+002, 2.838650e+001
7.341732e+002, 2.865786e+001
7.346553e+002, 2.835876e+001
7.351374e+002, 2.727746e+001
7.356195e+002, 2.598732e+001
7.361016e+002, 2.528748e+001
7.365837e+002, 2.510378e+001
7.370659e+002, 2.523016e+001
7.375480e+002, 2.579041e+001
7.380301e+002, 2.628960e+001
7.385122e+002, 2.626761e+001
7.389943e+002, 2.589122e+001
7.394764e+002, 2.544423e+001
7.399586e+002, 2.493930e+001
7.404407e+002, 2.446074e+001
7.409228e+002, 2.404022e+001
7.414049e+002, 2.365860e+001
7.418870e+002, 2.322203e+001
7.423691e+002, 2.260005e+001
7.428513e+002, 2.237413e+001
7.433334e+002, 2.284233e+001
7.438155e+002, 2.368252e+001
7.442976e+002, 2.406753e+001
7.447797e+002, 2.402328e+001
7.452618e+002, 2.376790e+001
7.457440e+002, 2.326626e+001
7.462261e+002, 2.271312e+001
7.467082e+002, 2.225422e+001
7.471903e+002, 2.191074e+001
7.476724e+002, 2.174502e+001
7.481545e+002, 2.195940e+001
7.486367e+002, 2.218751e+001
7.491188e+002, 2.234511e+001
7.496009e+002, 2.240841e+001
7.500830e+002, 2.214531e+001
7.505651e+002, 2.134867e+001
7.510472e+002, 2.065893e+001
7.515294e+002, 2.046514e+001
7.520115e+002, 2.064561e+001
7.524936e+002, 2.025003e+001
7.529757e+002, 1.928214e+001
7.534578e+002, 1.845601e+001
7.539399e+002, 1.834829e+001
7.544221e+002, 1.865340e+001
7.549042e+002, 1.908016e+001
7.553863e+002, 1.959588e+001
7.558684e+002, 1.993661e+001
7.563505e+002, 1.990044e+001
7.568326e+002, 1.970993e+001
7.573148e+002, 1.946927e+001
7.577969e+002, 1.916790e+001
7.582790e+002, 1.894550e+001
7.587611e+002, 1.886020e+001
7.592432e+002, 1.875778e+001
7.597253e+002, 1.845447e+001
7.602075e+002, 1.794685e+001
7.606896e+002, 1.794763e+001
7.611717e+002, 1.852323e+001
7.616538e+002, 1.899734e+001
7.621359e+002, 1.857933e+001
7.626180e+002, 1.774546e+001
7.631002e+002, 1.722629e+001
7.635823e+002, 1.712120e+001
7.640644e+002, 1.725999e+001
7.645465e+002, 1.790357e+001
7.650286e+002, 1.853196e+001
7.655107e+002, 1.868468e+001
7.659929e+002, 1.807469e+001
7.664750e+002, 1.759278e+001
7.669571e+002, 1.732521e+001
7.674392e+002, 1.706505e+001
7.679213e+002, 1.654077e+001
7.684034e+002, 1.574338e+001
7.688856e+002, 1.530943e+001
7.693677e+002, 1.533174e+001
7.698498e+002, 1.549184e+001
7.703319e+002, 1.538481e+001
7.708140e+002, 1.519840e+001
7.712961e+002, 1.534276e+001
7.717783e+002, 1.605703e+001
7.722604e+002, 1.656216e+001
7.727425e+002, 1.628116e+001
7.732246e+002, 1.566729e+001
7.737067e+002, 1.518435e+001
7.741888e+002, 1.488364e+001
7.746710e+002, 1.473771e+001
7.751531e+002, 1.484452e+001
7.756352e+002, 1.498995e+001
7.761173e+002, 1.488023e+001
7.765994e+002, 1.451587e+001
7.770815e+002, 1.417512e+001
7.775637e+002, 1.386230e+001
7.780458e+002, 1.371765e+001
7.785279e+002, 1.409355e+001
7.790100e+002, 1.471941e+001
7.794921e+002, 1.508727e+001
7.799742e+002, 1.492203e+001
7.804564e+002, 1.473481e+001
7.809385e+002, 1.473626e+001
7.814206e+002, 1.485433e+001
7.819027e+002, 1.500548e+001
7.823848e+002, 1.530859e+001
7.828669e+002, 1.539888e+001
7.833491e+002, 1.518220e+001
7.838312e+002, 1.481940e+001
7.843133e+002, 1.456861e+001
7.847954e+002, 1.442422e+001
7.852775e+002, 1.421612e+001
7.857596e+002, 1.382101e+001
7.862418e+002, 1.358081e+001
7.867239e+002, 1.422085e+001
7.872060e+002, 1.526117e+001
7.876881e+002, 1.583498e+001
7.881702e+002, 1.535101e+001
7.886523e+002, 1.473523e+001
7.891345e+002, 1.416048e+001
7.896166e+002, 1.370141e+001
7.900987e+002, 1.345065e+001
7.905808e+002, 1.337038e+001
7.910629e+002, 1.363392e+001
7.915450e+002, 1.442954e+001
7.920272e+002, 1.536782e+001
7.925093e+002, 1.566120e+001
7.929914e+002, 1.537663e+001
7.934735e+002, 1.496762e+001
7.939556e+002, 1.447894e+001
7.944377e+002, 1.408178e+001
7.949199e+002, 1.398320e+001
7.954020e+002, 1.410476e+001
7.958841e+002, 1.430672e+001
7.963662e+002, 1.458086e+001
7.968483e+002, 1.488155e+001
7.973304e+002, 1.529513e+001
7.978126e+002, 1.569578e+001
7.982947e+002, 1.587002e+001
7.987768e+002, 1.581481e+001
7.992589e+002, 1.548110e+001
7.997410e+002, 1.471324e+001
8.002231e+002, 1.390040e+001
8.007053e+002, 1.388354e+001
8.011874e+002, 1.448888e+001
8.016695e+002, 1.500274e+001
8.021516e+002, 1.515942e+001
8.026337e+002, 1.517159e+001
8.031158e+002, 1.513962e+001
8.035980e+002, 1.510716e+001
8.040801e+002, 1.514926e+001
8.045622e+002, 1.549966e+001
8.050443e+002, 1.564782e+001
8.055264e+002, 1.536295e+001
8.060085e+002, 1.491616e+001
8.064907e+002, 1.485164e+001
8.069728e+002, 1.525094e+001
8.074549e+002, 1.552761e+001
8.079370e+002, 1.555461e+001
8.084191e+002, 1.540219e+001
8.089012e+002, 1.507535e+001
8.093834e+002, 1.465987e+001
8.098655e+002, 1.438819e+001
8.103476e+002, 1.436693e+001
8.108297e+002, 1.448087e+001
8.113118e+002, 1.479065e+001
8.117939e+002, 1.515976e+001
8.122761e+002, 1.535247e+001
8.127582e+002, 1.527820e+001
8.132403e+002, 1.509487e+001
8.137224e+002, 1.471633e+001
8.142045e+002, 1.432695e+001
8.146866e+002, 1.431651e+001
8.151688e+002, 1.467679e+001
8.156509e+002, 1.502490e+001
8.161330e+002, 1.530828e+001
8.166151e+002, 1.544205e+001
8.170972e+002, 1.504104e+001
8.175793e+002, 1.446243e+001
8.180615e+002, 1.438231e+001
8.185436e+002, 1.557558e+001
8.190257e+002, 1.656815e+001
8.195078e+002, 1.670932e+001
8.199899e+002, 1.639947e+001
8.204720e+002, 1.626093e+001
8.209542e+002, 1.636235e+001
8.214363e+002, 1.645192e+001
8.219184e+002, 1.648559e+001
8.224005e+002, 1.652017e+001
8.228826e+002, 1.669887e+001
8.233647e+002, 1.697224e+001
8.238469e+002, 1.709003e+001
8.243290e+002, 1.693205e+001
8.248111e+002, 1.677037e+001
8.252932e+002, 1.687524e+001
8.257753e+002, 1.710954e+001
8.262574e+002, 1.728571e+001
8.267396e+002, 1.745794e+001
8.272217e+002, 1.740285e+001
8.277038e+002, 1.676605e+001
8.281859e+002, 1.617145e+001
8.286681e+002, 1.661115e+001
8.291502e+002, 1.831067e+001
8.296323e+002, 1.893667e+001
8.301144e+002, 1.802113e+001
8.305966e+002, 1.656063e+001
8.310787e+002, 1.544889e+001
8.315608e+002, 1.473925e+001
8.320429e+002, 1.458523e+001
8.325250e+002, 1.518275e+001
8.330071e+002, 1.583831e+001
8.334893e+002, 1.631870e+001
8.339714e+002, 1.662216e+001
8.344535e+002, 1.673731e+001
8.349356e+002, 1.657530e+001
8.354177e+002, 1.645293e+001
8.358998e+002, 1.641873e+001
8.363820e+002, 1.633919e+001
8.368641e+002, 1.592902e+001
8.373462e+002, 1.528906e+001
8.378283e+002, 1.519181e+001
8.383104e+002, 1.578427e+001
8.387925e+002, 1.636135e+001
8.392747e+002, 1.612059e+001
8.397568e+002, 1.563326e+001
8.402389e+002, 1.562497e+001
8.407210e+002, 1.647409e+001
8.412031e+002, 1.685732e+001
8.416852e+002, 1.598433e+001
8.421674e+002, 1.503811e+001
8.426495e+002, 1.481759e+001
8.431316e+002, 1.547005e+001
8.436137e+002, 1.582048e+001
8.440958e+002, 1.583072e+001
8.445779e+002, 1.577860e+001
8.450601e+002, 1.601415e+001
8.455422e+002, 1.632738e+001
8.460243e+002, 1.629472e+001
8.465064e+002, 1.587777e+001
8.469885e+002, 1.542510e+001
8.474706e+002, 1.489769e+001
8.479528e+002, 1.457243e+001
8.484349e+002, 1.470245e+001
8.489170e+002, 1.535391e+001
8.493991e+002, 1.597010e+001
8.498812e+002, 1.668923e+001
8.503633e+002, 1.705771e+001
8.508455e+002, 1.660959e+001
8.513276e+002, 1.553740e+001
8.518097e+002, 1.489207e+001
8.522918e+002, 1.465111e+001
8.527739e+002, 1.459240e+001
8.532560e+002, 1.476100e+001
8.537382e+002, 1.489391e+001
8.542203e+002, 1.464779e+001
8.547024e+002, 1.406479e+001
8.551845e+002, 1.380282e+001
8.556666e+002, 1.433733e+001
8.561487e+002, 1.479464e+001
8.566309e+002, 1.489698e+001
8.571130e+002, 1.469431e+001
8.575951e+002, 1.440071e+001
8.580772e+002, 1.400890e+001
8.585593e+002, 1.378480e+001
8.590414e+002, 1.401348e+001
8.595236e+002, 1.436790e+001
8.600057e+002, 1.417998e+001
8.604878e+002, 1.369040e+001
8.609699e+002, 1.365891e+001
8.614520e+002, 1.510610e+001
8.619341e+002, 1.629436e+001
8.624163e+002, 1.642203e+001
8.628984e+002, 1.585737e+001
8.633805e+002, 1.549335e+001
8.638626e+002, 1.536786e+001
8.643447e+002, 1.527601e+001
8.648268e+002, 1.514776e+001
8.653090e+002, 1.504876e+001
8.657911e+002, 1.516713e+001
8.662732e+002, 1.542369e+001
8.667553e+002, 1.559512e+001
8.672374e+002, 1.569123e+001
8.677195e+002, 1.554342e+001
8.682017e+002, 1.469797e+001
8.686838e+002, 1.365254e+001
8.691659e+002, 1.328991e+001
8.696480e+002, 1.426824e+001
8.701301e+002, 1.463094e+001
8.706122e+002, 1.394113e+001
8.710944e+002, 1.301598e+001
8.715765e+002, 1.321669e+001
8.720586e+002, 1.429735e+001
8.725407e+002, 1.477821e+001
8.730228e+002, 1.429418e+001
8.735049e+002, 1.364237e+001
8.739871e+002, 1.332937e+001
8.744692e+002, 1.332416e+001
8.749513e+002, 1.364400e+001
8.754334e+002, 1.454615e+001
8.759155e+002, 1.512954e+001
8.763976e+002, 1.515235e+001
8.768798e+002, 1.505764e+001
8.773619e+002, 1.526367e+001
8.778440e+002, 1.579086e+001
8.783261e+002, 1.583450e+001
8.788082e+002, 1.533606e+001
8.792903e+002, 1.475014e+001
8.797725e+002, 1.443848e+001
8.802546e+002, 1.427791e+001
8.807367e+002, 1.406765e+001
8.812188e+002, 1.378633e+001
8.817009e+002, 1.374244e+001
8.821830e+002, 1.444933e+001
8.826652e+002, 1.501798e+001
8.831473e+002, 1.495112e+001
8.836294e+002, 1.427847e+001
8.841115e+002, 1.389236e+001
8.845936e+002, 1.381365e+001
8.850757e+002, 1.387256e+001
8.855579e+002, 1.392309e+001
8.860400e+002, 1.406782e+001
8.865221e+002, 1.472471e+001
8.870042e+002, 1.570722e+001
8.874863e+002, 1.626107e+001
8.879684e+002, 1.556284e+001
8.884506e+002, 1.483373e+001
8.889327e+002, 1.463915e+001
8.894148e+002, 1.483740e+001
8.898969e+002, 1.495908e+001
8.903790e+002, 1.501238e+001
8.908611e+002, 1.491346e+001
8.913433e+002, 1.451358e+001
8.918254e+002, 1.414327e+001
8.923075e+002, 1.473227e+001
8.927896e+002, 1.589271e+001
8.932717e+002, 1.641736e+001
8.937538e+002, 1.543312e+001
8.942360e+002, 1.441815e+001
8.947181e+002, 1.413857e+001
8.952002e+002, 1.435263e+001
8.956823e+002, 1.477216e+001
8.961644e+002, 1.566349e+001
8.966465e+002, 1.604354e+001
8.971287e+002, 1.570706e+001
8.976108e+002, 1.513860e+001
8.980929e+002, 1.494758e+001
8.985750e+002, 1.504528e+001
8.990571e+002, 1.505569e+001
8.995392e+002, 1.489487e+001
9.000214e+002, 1.488652e+001
9.005035e+002, 1.547679e+001
9.009856e+002, 1.619278e+001
9.014677e+002, 1.657911e+001
9.019498e+002, 1.639911e+001
9.024319e+002, 1.657537e+001
9.029141e+002, 1.738816e+001
9.033962e+002, 1.806928e+001
9.038783e+002, 1.797461e+001
9.043604e+002, 1.724972e+001
9.048425e+002, 1.705675e+001
9.053246e+002, 1.737202e+001
9.058068e+002, 1.780775e+001
9.062889e+002, 1.827966e+001
9.067710e+002, 1.862193e+001
9.072531e+002, 1.867895e+001
9.077352e+002, 1.846750e+001
9.082173e+002, 1.816253e+001
9.086995e+002, 1.760744e+001
9.091816e+002, 1.725916e+001
9.096637e+002, 1.731943e+001
9.101458e+002, 1.763490e+001
9.106279e+002, 1.768693e+001
9.111100e+002, 1.751531e+001
9.115922e+002, 1.748507e+001
9.120743e+002, 1.778161e+001
9.125564e+002, 1.821003e+001
9.130385e+002, 1.871943e+001
9.135206e+002, 1.919746e+001
9.140027e+002, 1.946073e+001
9.144849e+002, 1.915909e+001
9.149670e+002, 1.906223e+001
9.154491e+002, 1.925874e+001
9.159312e+002, 1.964078e+001
9.164133e+002, 2.011782e+001
9.168954e+002, 2.068318e+001
9.173776e+002, 2.118765e+001
9.178597e+002, 2.162008e+001
9.183418e+002, 2.195339e+001
9.188239e+002, 2.192393e+001
9.193060e+002, 2.191440e+001
9.197881e+002, 2.239675e+001
9.202703e+002, 2.355022e+001
9.207524e+002, 2.467083e+001
9.212345e+002, 2.555719e+001
9.217166e+002, 2.650920e+001
9.221987e+002, 2.777147e+001
9.226808e+002, 2.930979e+001
9.231630e+002, 3.032040e+001
9.236451e+002, 3.081333e+001
9.241272e+002, 3.156423e+001
9.246093e+002, 3.330700e+001
9.250914e+002, 3.539460e+001
9.255735e+002, 3.710529e+001
9.260557e+002, 3.853969e+001
9.265378e+002, 4.030856e+001
9.270199e+002, 4.269889e+001
9.275020e+002, 4.530167e+001
9.279841e+002, 4.802232e+001
9.284662e+002, 5.092843e+001
9.289484e+002, 5.416431e+001
9.294305e+002, 5.774638e+001
9.299126e+002, 6.175299e+001
9.303947e+002, 6.607037e+001
9.308768e+002, 7.105009e+001
9.313589e+002, 7.669356e+001
9.318411e+002, 8.332389e+001
9.323232e+002, 9.132818e+001
9.328053e+002, 1.008626e+002
9.332874e+002, 1.117393e+002
9.337695e+002, 1.236519e+002
9.342516e+002, 1.369702e+002
9.347338e+002, 1.516799e+002
9.352159e+002, 1.679264e+002
9.356980e+002, 1.865416e+002
9.361801e+002, 2.076170e+002
9.366622e+002, 2.303280e+002
9.371443e+002, 2.556139e+002
9.376265e+002, 2.811268e+002
9.381086e+002, 3.059254e+002
9.385907e+002, 3.301552e+002
9.390728e+002, 3.458937e+002
9.395549e+002, 3.509626e+002
9.400370e+002, 3.487221e+002
9.405192e+002, 3.382739e+002
9.410013e+002, 3.217164e+002
9.414834e+002, 3.079442e+002
9.419655e+002, 2.968774e+002
9.424476e+002, 2.887563e+002
9.429297e+002, 2.815885e+002
9.434119e+002, 2.796514e+002
9.438940e+002, 2.865390e+002
9.443761e+002, 3.014244e+002
9.448582e+002, 3.226750e+002
9.453403e+002, 3.499554e+002
9.458224e+002, 3.838085e+002
9.463046e+002, 4.237083e+002
9.467867e+002, 4.709456e+002
9.472688e+002, 5.315295e+002
9.477509e+002, 6.023420e+002
9.482330e+002, 6.688644e+002
9.487151e+002, 7.319713e+002
9.491973e+002, 7.661815e+002
9.496794e+002, 7.458951e+002
9.501615e+002, 6.902236e+002
9.506436e+002, 6.095682e+002
9.511257e+002, 4.976920e+002
9.516078e+002, 4.016097e+002
9.520900e+002, 3.225433e+002
9.525721e+002, 2.581994e+002
9.530542e+002, 2.092542e+002
9.535363e+002, 1.738482e+002
9.540184e+002, 1.454322e+002
9.545005e+002, 1.238657e+002
9.549827e+002, 1.067668e+002
9.554648e+002, 9.453716e+001
9.559469e+002, 8.473134e+001
9.564290e+002, 7.630244e+001
9.569111e+002, 6.915387e+001
9.573932e+002, 6.316157e+001
9.578754e+002, 5.859080e+001
9.583575e+002, 5.423138e+001
9.588396e+002, 4.983445e+001
9.593217e+002, 4.572417e+001
9.598038e+002, 4.248919e+001
9.602859e+002, 4.001229e+001
9.607681e+002, 3.811479e+001
9.612502e+002, 3.687294e+001
9.617323e+002, 3.569807e+001
9.622144e+002, 3.422950e+001
9.626965e+002, 3.271619e+001
9.631786e+002, 3.137763e+001
9.636608e+002, 3.026485e+001
9.641429e+002, 2.905054e+001
9.646250e+002, 2.767534e+001
9.651071e+002, 2.651953e+001
9.655892e+002, 2.587275e+001
9.660714e+002, 2.562809e+001
9.665535e+002, 2.567111e+001
9.670356e+002, 2.593846e+001
9.675177e+002, 2.613969e+001
9.679998e+002, 2.647259e+001
9.684819e+002, 2.633470e+001
9.689641e+002, 2.520243e+001
9.694462e+002, 2.353298e+001
9.699283e+002, 2.241097e+001
9.704104e+002, 2.188258e+001
9.708925e+002, 2.138239e+001
9.713746e+002, 2.075544e+001
9.718568e+002, 2.017031e+001
9.723389e+002, 1.980770e+001
9.728210e+002, 1.962777e+001
9.733031e+002, 1.957581e+001
9.737852e+002, 1.966470e+001
9.742673e+002, 1.982113e+001
9.747495e+002, 2.026590e+001
9.752316e+002, 2.051790e+001
9.757137e+002, 2.011487e+001
9.761958e+002, 1.905542e+001
9.766779e+002, 1.862839e+001
9.771600e+002, 1.882853e+001
9.776422e+002, 1.901222e+001
9.781243e+002, 1.869494e+001
9.786064e+002, 1.819596e+001
9.790885e+002, 1.772234e+001
9.795706e+002, 1.730683e+001
9.800527e+002, 1.704257e+001
9.805349e+002, 1.692437e+001
9.810170e+002, 1.701090e+001
9.814991e+002, 1.740268e+001
9.819812e+002, 1.789366e+001
9.824633e+002, 1.815181e+001
9.829454e+002, 1.816314e+001
9.834276e+002, 1.778730e+001
9.839097e+002, 1.683148e+001
9.843918e+002, 1.601920e+001
9.848739e+002, 1.603963e+001
9.853560e+002, 1.631261e+001
9.858381e+002, 1.618365e+001
9.863203e+002, 1.537322e+001
9.868024e+002, 1.537476e+001
9.872845e+002, 1.648295e+001
9.877666e+002, 1.739881e+001
9.882487e+002, 1.693475e+001
9.887308e+002, 1.570535e+001
9.892130e+002, 1.511248e+001
9.896951e+002, 1.506525e+001
9.901772e+002, 1.498932e+001
9.906593e+002, 1.447458e+001
9.911414e+002, 1.403726e+001
9.916235e+002, 1.389038e+001
9.921057e+002, 1.394859e+001
9.925878e+002, 1.407337e+001
9.930699e+002, 1.427629e+001
9.935520e+002, 1.438650e+001
9.940341e+002, 1.432261e+001
9.945162e+002, 1.433765e+001
9.949984e+002, 1.501938e+001
9.954805e+002, 1.583208e+001
9.959626e+002, 1.596959e+001
9.964447e+002, 1.507170e+001
9.969268e+002, 1.437911e+001
9.974089e+002, 1.399548e+001
9.978911e+002, 1.397925e+001
9.983732e+002, 1.456590e+001
9.988553e+002, 1.560544e+001
9.993374e+002, 1.588636e+001
9.998195e+002, 1.547413e+001
1.000302e+003, 1.505030e+001
1.000784e+003, 1.504792e+001
1.001266e+003, 1.513400e+001
1.001748e+003, 1.507180e+001
1.002230e+003, 1.492038e+001
1.002712e+003, 1.484793e+001
1.003194e+003, 1.490756e+001
1.003676e+003, 1.495795e+001
1.004159e+003, 1.502875e+001
1.004641e+003, 1.497133e+001
1.005123e+003, 1.429947e+001
1.005605e+003, 1.339693e+001
1.006087e+003, 1.331490e+001
1.006569e+003, 1.431612e+001
1.007051e+003, 1.510168e+001
1.007533e+003, 1.463883e+001
1.008016e+003, 1.419026e+001
1.008498e+003, 1.474553e+001
1.008980e+003, 1.617420e+001
1.009462e+003, 1.592279e+001
1.009944e+003, 1.385737e+001
1.010426e+003, 1.227648e+001
1.010908e+003, 1.267217e+001
1.011390e+003, 1.369860e+001
1.011872e+003, 1.374504e+001
1.012355e+003, 1.322354e+001
1.012837e+003, 1.296773e+001
1.013319e+003, 1.362091e+001
1.013801e+003, 1.393857e+001
1.014283e+003, 1.369462e+001
1.014765e+003, 1.328437e+001
1.015247e+003, 1.312392e+001
1.015729e+003, 1.318041e+001
1.016211e+003, 1.334206e+001
1.016694e+003, 1.359765e+001
1.017176e+003, 1.370886e+001
1.017658e+003, 1.318429e+001
1.018140e+003, 1.274157e+001
1.018622e+003, 1.310763e+001
1.019104e+003, 1.413567e+001
1.019586e+003, 1.433732e+001
1.020068e+003, 1.347769e+001
1.020551e+003, 1.276946e+001
1.021033e+003, 1.261132e+001
1.021515e+003, 1.276692e+001
1.021997e+003, 1.298554e+001
1.022479e+003, 1.320201e+001
1.022961e+003, 1.325504e+001
1.023443e+003, 1.289135e+001
1.023925e+003, 1.282652e+001
1.024407e+003, 1.355391e+001
1.024890e+003, 1.432327e+001
1.025372e+003, 1.459763e+001
1.025854e+003, 1.437613e+001
1.026336e+003, 1.391893e+001
1.026818e+003, 1.323867e+001
1.027300e+003, 1.288863e+001
1.027782e+003, 1.364778e+001
1.028264e+003, 1.452504e+001
1.028746e+003, 1.461110e+001
1.029229e+003, 1.411968e+001
1.029711e+003, 1.399093e+001
1.030193e+003, 1.444539e+001
1.030675e+003, 1.482414e+001
1.031157e+003, 1.499323e+001
1.031639e+003, 1.510031e+001
1.032121e+003, 1.544137e+001
1.032603e+003, 1.587419e+001
1.033086e+003, 1.605515e+001
1.033568e+003, 1.591191e+001
1.034050e+003, 1.565392e+001
1.034532e+003, 1.509865e+001
1.035014e+003, 1.473340e+001
1.035496e+003, 1.488207e+001
1.035978e+003, 1.548504e+001
1.036460e+003, 1.592575e+001
1.036943e+003, 1.619864e+001
1.037425e+003, 1.638301e+001
1.037907e+003, 1.661860e+001
1.038389e+003, 1.664759e+001
1.038871e+003, 1.590771e+001
1.039353e+003, 1.486910e+001
1.039835e+003, 1.438838e+001
1.040317e+003, 1.513793e+001
1.040799e+003, 1.543934e+001
1.041281e+003, 1.515477e+001
1.041764e+003, 1.464547e+001
1.042246e+003, 1.410235e+001
1.042728e+003, 1.364330e+001
1.043210e+003, 1.373723e+001
1.043692e+003, 1.435369e+001
1.044174e+003, 1.478849e+001
1.044656e+003, 1.420103e+001
1.045138e+003, 1.391480e+001
1.045621e+003, 1.479354e+001
1.046103e+003, 1.627576e+001
1.046585e+003, 1.666816e+001
1.047067e+003, 1.594297e+001
1.047549e+003, 1.565386e+001
1.048031e+003, 1.627273e+001
1.048513e+003, 1.713850e+001
1.048995e+003, 1.771279e+001
1.049478e+003, 1.808201e+001
1.049960e+003, 1.824713e+001
1.050442e+003, 1.801284e+001
1.050924e+003, 1.849659e+001
1.051406e+003, 2.005548e+001
1.051888e+003, 2.151130e+001
1.052370e+003, 2.210476e+001
1.052852e+003, 2.218912e+001
1.053334e+003, 2.261985e+001
1.053817e+003, 2.334364e+001
1.054299e+003, 2.418317e+001
1.054781e+003, 2.557875e+001
1.055263e+003, 2.642378e+001
1.055745e+003, 2.605354e+001
1.056227e+003, 2.522319e+001
1.056709e+003, 2.484211e+001
1.057191e+003, 2.492323e+001
1.057673e+003, 2.437777e+001
1.058156e+003, 2.309485e+001
1.058638e+003, 2.178597e+001
1.059120e+003, 2.117712e+001
1.059602e+003, 2.065753e+001
1.060084e+003, 1.956712e+001
1.060566e+003, 1.797810e+001
1.061048e+003, 1.692928e+001
1.061530e+003, 1.659880e+001
1.062013e+003, 1.637412e+001
1.062495e+003, 1.615424e+001
1.062977e+003, 1.585219e+001
1.063459e+003, 1.523813e+001
1.063941e+003, 1.445629e+001
1.064423e+003, 1.373835e+001
1.064905e+003, 1.308105e+001
1.065387e+003, 1.270906e+001
1.065870e+003, 1.306048e+001
1.066352e+003, 1.332514e+001
1.066834e+003, 1.294991e+001
1.067316e+003, 1.208664e+001
1.067798e+003, 1.201609e+001
1.068280e+003, 1.264755e+001
1.068762e+003, 1.317668e+001
1.069244e+003, 1.305868e+001
1.069726e+003, 1.284174e+001
1.070208e+003, 1.287608e+001
1.070691e+003, 1.304312e+001
1.071173e+003, 1.318371e+001
1.071655e+003, 1.338021e+001
1.072137e+003, 1.314182e+001
1.072619e+003, 1.235058e+001
1.073101e+003, 1.162874e+001
1.073583e+003, 1.158599e+001
1.074065e+003, 1.193245e+001
1.074548e+003, 1.242940e+001
1.075030e+003, 1.300552e+001
1.075512e+003, 1.332496e+001
1.075994e+003, 1.313451e+001
1.076476e+003, 1.293452e+001
1.076958e+003, 1.284792e+001
1.077440e+003, 1.277436e+001
1.077922e+003, 1.248335e+001
1.078405e+003, 1.204749e+001
1.078887e+003, 1.167863e+001
1.079369e+003, 1.140085e+001
1.079851e+003, 1.129004e+001
1.080333e+003, 1.151079e+001
1.080815e+003, 1.180435e+001
1.081297e+003, 1.203693e+001
1.081779e+003, 1.220100e+001
1.082261e+003, 1.216313e+001
1.082744e+003, 1.192521e+001
1.083226e+003, 1.172214e+001
1.083708e+003, 1.167956e+001
1.084190e+003, 1.167977e+001
1.084672e+003, 1.158824e+001
1.085154e+003, 1.147832e+001
1.085636e+003, 1.146817e+001
1.086118e+003, 1.163907e+001
1.086601e+003, 1.174714e+001
1.087083e+003, 1.180072e+001
1.087565e+003, 1.176199e+001
1.088047e+003, 1.152551e+001
1.088529e+003, 1.121467e+001
1.089011e+003, 1.103195e+001
1.089493e+003, 1.096912e+001
1.089975e+003, 1.096675e+001
1.090458e+003, 1.113086e+001
1.090940e+003, 1.116418e+001
1.091422e+003, 1.091649e+001
1.091904e+003, 1.064258e+001
1.092386e+003, 1.080455e+001
1.092868e+003, 1.128496e+001
1.093350e+003, 1.157686e+001
1.093832e+003, 1.161454e+001
1.094314e+003, 1.153250e+001
1.094797e+003, 1.134313e+001
1.095279e+003, 1.112298e+001
1.095761e+003, 1.085319e+001
1.096243e+003, 1.059069e+001
1.096725e+003, 1.061908e+001
1.097207e+003, 1.094633e+001
1.097689e+003, 1.118413e+001
1.098171e+003, 1.119915e+001
1.098653e+003, 1.113762e+001
1.099136e+003, 1.119419e+001
1.099618e+003, 1.122893e+001
1.100100e+003, 1.103054e+001
1.100582e+003, 1.047320e+001
1.101064e+003, 1.023551e+001
1.101546e+003, 1.040836e+001
1.102028e+003, 1.056822e+001
1.102510e+003, 1.043026e+001
1.102993e+003, 1.018332e+001
1.103475e+003, 1.016289e+001
1.103957e+003, 1.029963e+001
1.104439e+003, 1.043837e+001
1.104921e+003, 1.050924e+001
1.105403e+003, 1.062437e+001
1.105885e+003, 1.090362e+001
1.106367e+003, 1.105581e+001
1.106849e+003, 1.066023e+001
1.107332e+003, 9.900747e+000
1.107814e+003, 9.518402e+000
1.108296e+003, 9.508502e+000
1.108778e+003, 9.635954e+000
1.109260e+003, 9.898602e+000
1.109742e+003, 1.013159e+001
1.110224e+003, 1.027547e+001
1.110706e+003, 1.034683e+001
1.111188e+003, 1.034561e+001
1.111671e+003, 1.027632e+001
1.112153e+003, 1.027735e+001
1.112635e+003, 1.036981e+001
1.113117e+003, 1.050804e+001
1.113599e+003, 1.082157e+001
1.114081e+003, 1.102996e+001
1.114563e+003, 1.075339e+001
1.115045e+003, 1.008540e+001
1.115528e+003, 9.895581e+000
1.116010e+003, 1.028229e+001
1.116492e+003, 1.051687e+001
1.116974e+003, 1.033265e+001
1.117456e+003, 1.005335e+001
1.117938e+003, 1.010008e+001
1.118420e+003, 1.029102e+001
1.118902e+003, 1.031292e+001
1.119385e+003, 9.945959e+000
1.119867e+003, 1.033141e+001
1.120349e+003, 1.197948e+001
1.120831e+003, 1.308024e+001
1.121313e+003, 1.236892e+001
1.121795e+003, 1.078386e+001
1.122277e+003, 1.023824e+001
1.122759e+003, 1.045094e+001
1.123241e+003, 1.076255e+001
1.123724e+003, 1.110388e+001
1.124206e+003, 1.125638e+001
1.124688e+003, 1.111791e+001
1.125170e+003, 1.090682e+001
1.125652e+003, 1.081926e+001
1.126134e+003, 1.081677e+001
1.126616e+003, 1.064896e+001
1.127098e+003, 1.035467e+001
1.127580e+003, 1.018288e+001
1.128063e+003, 1.028200e+001
1.128545e+003, 1.051873e+001
1.129027e+003, 1.102969e+001
1.129509e+003, 1.151553e+001
1.129991e+003, 1.152670e+001
1.130473e+003, 1.107586e+001
1.130955e+003, 1.056664e+001
1.131437e+003, 1.002608e+001
1.131920e+003, 9.778402e+000
1.132402e+003, 1.051248e+001
1.132884e+003, 1.120648e+001
1.133366e+003, 1.090099e+001
1.133848e+003, 9.956593e+000
1.134330e+003, 9.881804e+000
1.134812e+003, 1.087810e+001
1.135294e+003, 1.088671e+001
1.135776e+003, 9.259743e+000
1.136259e+003, 7.662520e+000
1.136741e+003, 8.131789e+000
1.137223e+003, 9.302634e+000
1.137705e+003, 9.737033e+000
1.138187e+003, 9.224385e+000
1.138669e+003, 8.975454e+000
1.139151e+003, 9.012118e+000
1.139633e+003, 9.345675e+000
1.140115e+003, 1.020143e+001
1.140598e+003, 1.091530e+001
1.141080e+003, 1.017666e+001
1.141562e+003, 8.754795e+000
1.142044e+003, 7.845874e+000
1.142526e+003, 7.829328e+000
1.143008e+003, 7.966485e+000
1.143490e+003, 8.220807e+000
1.143972e+003, 8.559408e+000
1.144455e+003, 9.104265e+000
1.144937e+003, 9.617611e+000
1.145419e+003, 9.338472e+000
1.145901e+003, 8.572451e+000
1.146383e+003, 8.096615e+000
1.146865e+003, 8.257505e+000
1.147347e+003, 8.681104e+000
1.147829e+003, 9.609763e+000
1.148312e+003, 1.032695e+001
1.148794e+003, 1.004012e+001
1.149276e+003, 9.029576e+000
1.149758e+003, 8.737480e+000
1.150240e+003, 9.055444e+000
1.150722e+003, 9.353456e+000
1.151204e+003, 9.416019e+000
1.151686e+003, 9.261601e+000
1.152168e+003, 8.580907e+000
1.152651e+003, 7.967232e+000
1.153133e+003, 8.329921e+000
1.153615e+003, 9.525582e+000
1.154097e+003, 1.005210e+001
1.154579e+003, 9.818609e+000
1.155061e+003, 9.285292e+000
1.155543e+003, 8.329490e+000
1.156025e+003, 7.588289e+000
1.156507e+003, 7.478202e+000
1.156990e+003, 7.811463e+000
1.157472e+003, 8.456455e+000
1.157954e+003, 9.419563e+000
1.158436e+003, 9.624143e+000
1.158918e+003, 8.857929e+000
1.159400e+003, 8.160613e+000
1.159882e+003, 8.655165e+000
1.160364e+003, 9.306162e+000
1.160847e+003, 9.209803e+000
1.161329e+003, 8.531816e+000
1.161811e+003, 8.264826e+000
1.162293e+003, 8.451663e+000
1.162775e+003, 8.551825e+000
1.163257e+003, 8.382838e+000
1.163739e+003, 8.299253e+000
1.164221e+003, 8.972815e+000
1.164703e+003, 9.700220e+000
1.165186e+003, 9.580254e+000
1.165668e+003, 8.498500e+000
1.166150e+003, 8.250946e+000
1.166632e+003, 9.007902e+000
1.167114e+003, 9.613926e+000
1.167596e+003, 9.621321e+000
1.168078e+003, 9.346414e+000
1.168560e+003, 9.180609e+000
1.169042e+003, 8.992215e+000
1.169525e+003, 8.510599e+000
1.170007e+003, 7.460963e+000
1.170489e+003, 7.212724e+000
1.170971e+003, 7.968993e+000
1.171453e+003, 8.794369e+000
1.171935e+003, 9.265467e+000
1.172417e+003, 9.467043e+000
1.172899e+003, 9.422624e+000
1.173382e+003, 9.241363e+000
1.173864e+003, 9.115431e+000
1.174346e+003, 9.032357e+000
1.174828e+003, 9.195469e+000
1.175310e+003, 9.754004e+000
1.175792e+003, 1.015494e+001
1.176274e+003, 9.718589e+000
1.176756e+003, 9.016706e+000
1.177239e+003, 9.384661e+000
1.177721e+003, 1.039454e+001
1.178203e+003, 1.093787e+001
1.178685e+003, 1.026407e+001
1.179167e+003, 9.645103e+000
1.179649e+003, 9.079003e+000
1.180131e+003, 8.750265e+000
1.180613e+003, 9.055424e+000
1.181095e+003, 9.636552e+000
1.181578e+003, 9.569886e+000
1.182060e+003, 8.992986e+000
1.182542e+003, 8.602633e+000
1.183024e+003, 8.897711e+000
1.183506e+003, 9.042509e+000
1.183988e+003, 8.851996e+000
1.184470e+003, 8.598845e+000
1.184952e+003, 8.564977e+000
1.185434e+003, 8.727235e+000
1.185917e+003, 9.212991e+000
1.186399e+003, 9.940557e+000
1.186881e+003, 1.021100e+001
1.187363e+003, 9.152990e+000
1.187845e+003, 8.398728e+000
1.188327e+003, 8.433363e+000
1.188809e+003, 8.738770e+000
1.189291e+003, 8.447340e+000
1.189774e+003, 7.784037e+000
1.190256e+003, 7.406278e+000
1.190738e+003, 7.389669e+000
1.191220e+003, 7.593334e+000
1.191702e+003, 8.187557e+000
1.192184e+003, 8.706452e+000
1.192666e+003, 9.012197e+000
1.193148e+003, 9.157240e+000
1.193630e+003, 9.201179e+000
1.194113e+003, 9.174466e+000
1.194595e+003, 9.198750e+000
1.195077e+003, 9.304388e+000
1.195559e+003, 9.334241e+000
1.196041e+003, 8.957811e+000
1.196523e+003, 8.832150e+000
1.197005e+003, 9.378229e+000
1.197487e+003, 1.020123e+001
1.197969e+003, 1.006610e+001
1.198452e+003, 9.262548e+000
1.198934e+003, 8.903604e+000
1.199416e+003, 9.343733e+000
1.199898e+003, 9.758035e+000
1.200380e+003, 9.730477e+000
1.200862e+003, 9.628937e+000
1.201344e+003, 9.672297e+000
1.201826e+003, 9.755373e+000
1.202309e+003, 9.326044e+000
1.202791e+003, 8.569636e+000
1.203273e+003, 8.286757e+000
1.203755e+003, 8.863480e+000
1.204237e+003, 9.453812e+000
1.204719e+003, 9.783945e+000
1.205201e+003, 9.875182e+000
1.205683e+003, 9.614451e+000
1.206166e+003, 9.148745e+000
1.206648e+003, 9.373135e+000
1.207130e+003, 1.004914e+001
1.207612e+003, 1.009722e+001
1.208094e+003, 8.700869e+000
1.208576e+003, 7.553512e+000
1.209058e+003, 7.440534e+000
1.209540e+003, 7.796322e+000
1.210022e+003, 8.456003e+000
1.210505e+003, 9.304800e+000
1.210987e+003, 9.437571e+000
1.211469e+003, 9.017569e+000
1.211951e+003, 8.820210e+000
1.212433e+003, 9.506186e+000
1.212915e+003, 9.940613e+000
1.213397e+003, 9.418354e+000
1.213879e+003, 8.746885e+000
1.214361e+003, 8.414383e+000
1.214844e+003, 8.431149e+000
1.215326e+003, 9.210818e+000
1.215808e+003, 1.052048e+001
1.216290e+003, 1.120276e+001
1.216772e+003, 1.004525e+001
1.217254e+003, 9.020089e+000
1.217736e+003, 8.692706e+000
1.218218e+003, 8.756106e+000
1.218701e+003, 9.125851e+000
1.219183e+003, 9.709480e+000
1.219665e+003, 9.810264e+000
1.220147e+003, 9.507094e+000
1.220629e+003, 9.272480e+000
1.221111e+003, 9.535089e+000
1.221593e+003, 9.612683e+000
1.222075e+003, 9.074880e+000
1.222557e+003, 8.565535e+000
1.223040e+003, 8.926863e+000
1.223522e+003, 9.907733e+000
1.224004e+003, 1.010412e+001
1.224486e+003, 9.637108e+000
1.224968e+003, 9.460794e+000
1.225450e+003, 1.057102e+001
1.225932e+003, 1.129966e+001
1.226414e+003, 1.122199e+001
1.226896e+003, 1.069538e+001
1.227379e+003, 9.800154e+000
1.227861e+003, 8.822968e+000
1.228343e+003, 9.069125e+000
1.228825e+003, 1.038203e+001
1.229307e+003, 1.131810e+001
1.229789e+003, 1.085419e+001
1.230271e+003, 1.042781e+001
1.230753e+003, 1.038107e+001
1.231236e+003, 1.047608e+001
1.231718e+003, 1.036268e+001
1.232200e+003, 1.015673e+001
1.232682e+003, 1.028204e+001
1.233164e+003, 1.070175e+001
1.233646e+003, 1.089664e+001
1.234128e+003, 1.043332e+001
1.234610e+003, 9.994512e+000
1.235093e+003, 9.635241e+000
1.235575e+003, 9.490586e+000
1.236057e+003, 9.868171e+000
1.236539e+003, 1.056118e+001
1.237021e+003, 1.119942e+001
1.237503e+003, 1.172123e+001
1.237985e+003, 1.194005e+001
1.238467e+003, 1.150819e+001
1.238949e+003, 1.118212e+001
1.239432e+003, 1.108436e+001
1.239914e+003, 1.113525e+001
1.240396e+003, 1.125370e+001
1.240878e+003, 1.143102e+001
1.241360e+003, 1.169660e+001
1.241842e+003, 1.203853e+001
1.242324e+003, 1.222794e+001
1.242806e+003, 1.214642e+001
1.243288e+003, 1.208524e+001
1.243771e+003, 1.211448e+001
1.244253e+003, 1.213862e+001
1.244735e+003, 1.198284e+001
1.245217e+003, 1.176567e+001
1.245699e+003, 1.154590e+001
1.246181e+003, 1.136549e+001
1.246663e+003, 1.182737e+001
1.247145e+003, 1.340079e+001
1.247628e+003, 1.428053e+001
1.248110e+003, 1.396050e+001
1.248592e+003, 1.328469e+001
1.249074e+003, 1.317223e+001
1.249556e+003, 1.340573e+001
1.250038e+003, 1.381043e+001
1.250520e+003, 1.434669e+001
1.251002e+003, 1.470946e+001
1.251484e+003, 1.482090e+001
1.251967e+003, 1.510949e+001
1.252449e+003, 1.574156e+001
1.252931e+003, 1.628111e+001
1.253413e+003, 1.597626e+001
1.253895e+003, 1.554427e+001
1.254377e+003, 1.589829e+001
1.254859e+003, 1.697213e+001
1.255341e+003, 1.729036e+001
1.255823e+003, 1.674837e+001
1.256306e+003, 1.633783e+001
1.256788e+003, 1.629261e+001
1.257270e+003, 1.641491e+001
1.257752e+003, 1.671312e+001
1.258234e+003, 1.694197e+001
1.258716e+003, 1.677703e+001
1.259198e+003, 1.633095e+001
1.259680e+003, 1.618339e+001
1.260163e+003, 1.633680e+001
1.260645e+003, 1.653381e+001
1.261127e+003, 1.675963e+001
1.261609e+003, 1.675671e+001
1.262091e+003, 1.594684e+001
1.262573e+003, 1.521126e+001
1.263055e+003, 1.520598e+001
1.263537e+003, 1.573588e+001
1.264020e+003, 1.622499e+001
1.264502e+003, 1.664528e+001
1.264984e+003, 1.667904e+001
1.265466e+003, 1.618477e+001
1.265948e+003, 1.580673e+001
1.266430e+003, 1.612219e+001
1.266912e+003, 1.644627e+001
1.267394e+003, 1.650367e+001
1.267876e+003, 1.627916e+001
1.268359e+003, 1.544310e+001
1.268841e+003, 1.427396e+001
1.269323e+003, 1.394400e+001
1.269805e+003, 1.482914e+001
1.270287e+003, 1.546617e+001
1.270769e+003, 1.491720e+001
1.271251e+003, 1.440553e+001
1.271733e+003, 1.433937e+001
1.272215e+003, 1.454865e+001
1.272698e+003, 1.480110e+001
1.273180e+003, 1.500504e+001
1.273662e+003, 1.491975e+001
1.274144e+003, 1.447526e+001
1.274626e+003, 1.398055e+001
1.275108e+003, 1.341085e+001
1.275590e+003, 1.297467e+001
1.276072e+003, 1.276926e+001
1.276555e+003, 1.267910e+001
1.277037e+003, 1.241759e+001
1.277519e+003, 1.219343e+001
1.278001e+003, 1.246079e+001
1.278483e+003, 1.334152e+001
1.278965e+003, 1.366352e+001
1.279447e+003, 1.324157e+001
1.279929e+003, 1.272823e+001
1.280411e+003, 1.227137e+001
1.280894e+003, 1.196125e+001
1.281376e+003, 1.200616e+001
1.281858e+003, 1.219240e+001
1.282340e+003, 1.232014e+001
1.282822e+003, 1.236052e+001
1.283304e+003, 1.209511e+001
1.283786e+003, 1.144588e+001
1.284268e+003, 1.148250e+001
1.284750e+003, 1.271732e+001
1.285233e+003, 1.376004e+001
1.285715e+003, 1.287231e+001
1.286197e+003, 1.162694e+001
1.286679e+003, 1.133470e+001
1.287161e+003, 1.181949e+001
1.287643e+003, 1.238272e+001
1.288125e+003, 1.299523e+001
1.288607e+003, 1.324206e+001
1.289090e+003, 1.298897e+001
1.289572e+003, 1.259356e+001
1.290054e+003, 1.210236e+001
1.290536e+003, 1.171662e+001
1.291018e+003, 1.146727e+001
1.291500e+003, 1.142621e+001
1.291982e+003, 1.198532e+001
1.292464e+003, 1.293290e+001
1.292947e+003, 1.349503e+001
1.293429e+003, 1.349571e+001
1.293911e+003, 1.338519e+001
1.294393e+003, 1.332354e+001
1.294875e+003, 1.318051e+001
1.295357e+003, 1.285854e+001
1.295839e+003, 1.252020e+001
1.296321e+003, 1.249596e+001
1.296803e+003, 1.266864e+001
1.297286e+003, 1.280116e+001
1.297768e+003, 1.285213e+001
1.298250e+003, 1.309921e+001
1.298732e+003, 1.377473e+001
1.299214e+003, 1.404392e+001
1.299696e+003, 1.357117e+001
1.300178e+003, 1.298061e+001
1.300660e+003, 1.287262e+001
##END=



