##NAMES=Hoganite
##RRUFFID=R160076
##IDEAL CHEMISTRY=Cu^2+^(CH_3_COO)_2_&#183;H_2_O
##LOCALITY=Courtland, Cochise County, Arizona
##OWNER=RRUFF
##SOURCE=Marcus Origlieri
##DESCRIPTION=Deep blue individual or aggregates of euhedral crystals.
##STATUS=The identification of this mineral has been confirmed only by single crystal X-ray diffraction.
##URL=rruff.info/R160076
1.160269e+002, 1.085320e+002
1.165090e+002, 1.077579e+002
1.169912e+002, 1.071301e+002
1.174733e+002, 1.062144e+002
1.179554e+002, 1.044138e+002
1.184375e+002, 1.028104e+002
1.189196e+002, 1.019542e+002
1.194017e+002, 1.017799e+002
1.198839e+002, 1.018196e+002
1.203660e+002, 1.015769e+002
1.208481e+002, 1.010571e+002
1.213302e+002, 1.001755e+002
1.218123e+002, 9.834154e+001
1.222944e+002, 9.661021e+001
1.227766e+002, 9.599285e+001
1.232587e+002, 9.665420e+001
1.237408e+002, 9.760459e+001
1.242229e+002, 9.693991e+001
1.247050e+002, 9.145733e+001
1.251871e+002, 8.863567e+001
1.256693e+002, 9.109689e+001
1.261514e+002, 9.563295e+001
1.266335e+002, 9.806497e+001
1.271156e+002, 9.646468e+001
1.275977e+002, 9.206945e+001
1.280798e+002, 8.839193e+001
1.285620e+002, 8.475690e+001
1.290441e+002, 8.246493e+001
1.295262e+002, 8.304146e+001
1.300083e+002, 8.578448e+001
1.304904e+002, 8.770937e+001
1.309725e+002, 8.713129e+001
1.314547e+002, 8.472368e+001
1.319368e+002, 8.217501e+001
1.324189e+002, 7.908833e+001
1.329010e+002, 7.644719e+001
1.333831e+002, 7.551500e+001
1.338652e+002, 7.660101e+001
1.343474e+002, 7.773584e+001
1.348295e+002, 7.847726e+001
1.353116e+002, 7.854690e+001
1.357937e+002, 7.736562e+001
1.362758e+002, 7.430524e+001
1.367579e+002, 7.014651e+001
1.372401e+002, 6.696529e+001
1.377222e+002, 6.528513e+001
1.382043e+002, 6.387003e+001
1.386864e+002, 6.195771e+001
1.391685e+002, 6.002512e+001
1.396507e+002, 5.881664e+001
1.401328e+002, 5.892493e+001
1.406149e+002, 6.030642e+001
1.410970e+002, 6.158793e+001
1.415791e+002, 6.321056e+001
1.420612e+002, 6.429713e+001
1.425434e+002, 6.467467e+001
1.430255e+002, 6.430571e+001
1.435076e+002, 6.309970e+001
1.439897e+002, 6.080598e+001
1.444718e+002, 5.699465e+001
1.449539e+002, 5.467971e+001
1.454361e+002, 5.448441e+001
1.459182e+002, 5.490768e+001
1.464003e+002, 5.569955e+001
1.468824e+002, 5.658491e+001
1.473645e+002, 5.658511e+001
1.478466e+002, 5.426402e+001
1.483288e+002, 4.842871e+001
1.488109e+002, 4.467265e+001
1.492930e+002, 4.398885e+001
1.497751e+002, 4.500543e+001
1.502572e+002, 4.682035e+001
1.507393e+002, 4.942547e+001
1.512215e+002, 5.161303e+001
1.517036e+002, 5.079685e+001
1.521857e+002, 4.705675e+001
1.526678e+002, 4.447024e+001
1.531499e+002, 4.513296e+001
1.536320e+002, 4.794126e+001
1.541142e+002, 5.021434e+001
1.545963e+002, 5.127879e+001
1.550784e+002, 5.162787e+001
1.555605e+002, 5.184006e+001
1.560426e+002, 5.191778e+001
1.565247e+002, 5.189429e+001
1.570069e+002, 5.180749e+001
1.574890e+002, 5.165615e+001
1.579711e+002, 5.139195e+001
1.584532e+002, 5.153422e+001
1.589353e+002, 5.109595e+001
1.594174e+002, 4.902597e+001
1.598996e+002, 4.523712e+001
1.603817e+002, 4.123837e+001
1.608638e+002, 3.863440e+001
1.613459e+002, 3.745069e+001
1.618280e+002, 3.771040e+001
1.623101e+002, 4.023780e+001
1.627923e+002, 4.354973e+001
1.632744e+002, 4.708056e+001
1.637565e+002, 5.059217e+001
1.642386e+002, 5.356304e+001
1.647207e+002, 5.484026e+001
1.652028e+002, 5.236054e+001
1.656850e+002, 5.155158e+001
1.661671e+002, 5.467537e+001
1.666492e+002, 5.855225e+001
1.671313e+002, 6.000186e+001
1.676134e+002, 5.765554e+001
1.680956e+002, 5.296412e+001
1.685777e+002, 5.014941e+001
1.690598e+002, 5.078881e+001
1.695419e+002, 5.164525e+001
1.700240e+002, 5.260383e+001
1.705061e+002, 5.362688e+001
1.709883e+002, 5.467493e+001
1.714704e+002, 5.572195e+001
1.719525e+002, 5.679578e+001
1.724346e+002, 5.802834e+001
1.729167e+002, 5.847136e+001
1.733988e+002, 6.003431e+001
1.738810e+002, 6.438525e+001
1.743631e+002, 7.046491e+001
1.748452e+002, 7.535049e+001
1.753273e+002, 7.706948e+001
1.758094e+002, 7.661306e+001
1.762915e+002, 7.772470e+001
1.767737e+002, 8.137032e+001
1.772558e+002, 8.536913e+001
1.777379e+002, 8.909621e+001
1.782200e+002, 9.242120e+001
1.787021e+002, 9.387035e+001
1.791842e+002, 9.116985e+001
1.796664e+002, 8.647388e+001
1.801485e+002, 8.413282e+001
1.806306e+002, 8.604216e+001
1.811127e+002, 8.889440e+001
1.815948e+002, 8.923066e+001
1.820769e+002, 8.682999e+001
1.825591e+002, 8.314822e+001
1.830412e+002, 7.742775e+001
1.835233e+002, 7.128031e+001
1.840054e+002, 6.648801e+001
1.844875e+002, 6.393325e+001
1.849696e+002, 6.274402e+001
1.854518e+002, 6.126002e+001
1.859339e+002, 5.902650e+001
1.864160e+002, 5.759203e+001
1.868981e+002, 5.850164e+001
1.873802e+002, 6.011996e+001
1.878623e+002, 6.060767e+001
1.883445e+002, 5.907531e+001
1.888266e+002, 5.580461e+001
1.893087e+002, 5.149535e+001
1.897908e+002, 4.389022e+001
1.902729e+002, 3.855404e+001
1.907550e+002, 3.795033e+001
1.912372e+002, 3.991700e+001
1.917193e+002, 4.152427e+001
1.922014e+002, 4.093151e+001
1.926835e+002, 3.861993e+001
1.931656e+002, 3.787122e+001
1.936477e+002, 4.196769e+001
1.941299e+002, 4.431744e+001
1.946120e+002, 4.215469e+001
1.950941e+002, 3.762655e+001
1.955762e+002, 3.438990e+001
1.960583e+002, 3.502976e+001
1.965404e+002, 3.926352e+001
1.970226e+002, 4.203717e+001
1.975047e+002, 4.242721e+001
1.979868e+002, 4.244603e+001
1.984689e+002, 4.279435e+001
1.989510e+002, 4.321327e+001
1.994331e+002, 4.302785e+001
1.999153e+002, 4.174768e+001
2.003974e+002, 3.937969e+001
2.008795e+002, 3.659276e+001
2.013616e+002, 3.165997e+001
2.018437e+002, 2.801883e+001
2.023258e+002, 2.794993e+001
2.028080e+002, 3.074396e+001
2.032901e+002, 3.357948e+001
2.037722e+002, 3.440645e+001
2.042543e+002, 3.335764e+001
2.047364e+002, 3.313730e+001
2.052185e+002, 3.428034e+001
2.057007e+002, 3.572665e+001
2.061828e+002, 3.736507e+001
2.066649e+002, 3.902863e+001
2.071470e+002, 3.937036e+001
2.076291e+002, 3.659725e+001
2.081112e+002, 3.161916e+001
2.085934e+002, 2.891916e+001
2.090755e+002, 3.019111e+001
2.095576e+002, 3.282611e+001
2.100397e+002, 3.463483e+001
2.105218e+002, 3.556932e+001
2.110039e+002, 3.647593e+001
2.114861e+002, 3.795802e+001
2.119682e+002, 3.980826e+001
2.124503e+002, 4.167454e+001
2.129324e+002, 4.416778e+001
2.134145e+002, 4.617461e+001
2.138966e+002, 4.566430e+001
2.143788e+002, 4.193873e+001
2.148609e+002, 3.899506e+001
2.153430e+002, 4.008912e+001
2.158251e+002, 4.317311e+001
2.163072e+002, 4.600099e+001
2.167894e+002, 4.823325e+001
2.172715e+002, 4.955864e+001
2.177536e+002, 4.933675e+001
2.182357e+002, 4.725049e+001
2.187178e+002, 4.443483e+001
2.191999e+002, 4.001296e+001
2.196821e+002, 3.558899e+001
2.201642e+002, 3.315121e+001
2.206463e+002, 3.369506e+001
2.211284e+002, 3.641745e+001
2.216105e+002, 3.995377e+001
2.220926e+002, 4.559064e+001
2.225748e+002, 4.929843e+001
2.230569e+002, 4.992598e+001
2.235390e+002, 4.830608e+001
2.240211e+002, 4.477247e+001
2.245032e+002, 3.904181e+001
2.249853e+002, 3.258205e+001
2.254675e+002, 2.946402e+001
2.259496e+002, 3.110733e+001
2.264317e+002, 3.427478e+001
2.269138e+002, 3.985180e+001
2.273959e+002, 4.576536e+001
2.278780e+002, 4.963177e+001
2.283602e+002, 5.022454e+001
2.288423e+002, 4.846528e+001
2.293244e+002, 4.742056e+001
2.298065e+002, 4.873187e+001
2.302886e+002, 4.839832e+001
2.307707e+002, 4.372271e+001
2.312529e+002, 3.801157e+001
2.317350e+002, 3.540091e+001
2.322171e+002, 3.792891e+001
2.326992e+002, 4.372932e+001
2.331813e+002, 4.679128e+001
2.336634e+002, 4.440942e+001
2.341456e+002, 4.224828e+001
2.346277e+002, 4.104818e+001
2.351098e+002, 4.018082e+001
2.355919e+002, 3.878413e+001
2.360740e+002, 3.645829e+001
2.365561e+002, 3.362182e+001
2.370383e+002, 3.150989e+001
2.375204e+002, 3.014145e+001
2.380025e+002, 2.959065e+001
2.384846e+002, 3.073993e+001
2.389667e+002, 3.243482e+001
2.394488e+002, 3.310791e+001
2.399310e+002, 3.207936e+001
2.404131e+002, 3.015328e+001
2.408952e+002, 2.937203e+001
2.413773e+002, 3.025494e+001
2.418594e+002, 3.157100e+001
2.423415e+002, 3.395699e+001
2.428237e+002, 3.649171e+001
2.433058e+002, 3.778016e+001
2.437879e+002, 3.724062e+001
2.442700e+002, 3.581819e+001
2.447521e+002, 3.550735e+001
2.452342e+002, 3.643877e+001
2.457164e+002, 3.810140e+001
2.461985e+002, 4.191653e+001
2.466806e+002, 4.599325e+001
2.471627e+002, 4.730613e+001
2.476448e+002, 4.463677e+001
2.481269e+002, 4.026090e+001
2.486091e+002, 3.812184e+001
2.490912e+002, 3.852232e+001
2.495733e+002, 3.950035e+001
2.500554e+002, 4.131370e+001
2.505375e+002, 4.331245e+001
2.510196e+002, 4.465615e+001
2.515018e+002, 4.518161e+001
2.519839e+002, 4.475100e+001
2.524660e+002, 4.247129e+001
2.529481e+002, 3.813210e+001
2.534302e+002, 3.500250e+001
2.539123e+002, 3.485130e+001
2.543945e+002, 3.613395e+001
2.548766e+002, 3.639902e+001
2.553587e+002, 3.498828e+001
2.558408e+002, 3.313657e+001
2.563229e+002, 3.234570e+001
2.568051e+002, 3.246108e+001
2.572872e+002, 3.266680e+001
2.577693e+002, 3.268571e+001
2.582514e+002, 3.266817e+001
2.587335e+002, 3.305943e+001
2.592156e+002, 3.412738e+001
2.596978e+002, 3.483794e+001
2.601799e+002, 3.332112e+001
2.606620e+002, 3.033473e+001
2.611441e+002, 2.863307e+001
2.616262e+002, 2.997410e+001
2.621083e+002, 3.282379e+001
2.625905e+002, 3.488510e+001
2.630726e+002, 3.602454e+001
2.635547e+002, 3.631037e+001
2.640368e+002, 3.476552e+001
2.645189e+002, 3.235548e+001
2.650010e+002, 3.117118e+001
2.654832e+002, 3.334657e+001
2.659653e+002, 3.656655e+001
2.664474e+002, 3.671627e+001
2.669295e+002, 3.294812e+001
2.674116e+002, 2.924066e+001
2.678937e+002, 2.825650e+001
2.683759e+002, 2.885788e+001
2.688580e+002, 2.959678e+001
2.693401e+002, 2.964385e+001
2.698222e+002, 2.997833e+001
2.703043e+002, 3.281609e+001
2.707864e+002, 3.911022e+001
2.712686e+002, 4.376988e+001
2.717507e+002, 4.255939e+001
2.722328e+002, 3.894768e+001
2.727149e+002, 3.646750e+001
2.731970e+002, 3.635201e+001
2.736791e+002, 3.705503e+001
2.741613e+002, 3.625640e+001
2.746434e+002, 3.350911e+001
2.751255e+002, 3.153720e+001
2.756076e+002, 3.242550e+001
2.760897e+002, 3.403064e+001
2.765718e+002, 3.482446e+001
2.770540e+002, 3.448776e+001
2.775361e+002, 3.317049e+001
2.780182e+002, 3.011471e+001
2.785003e+002, 2.469636e+001
2.789824e+002, 2.200154e+001
2.794645e+002, 2.680165e+001
2.799467e+002, 3.263941e+001
2.804288e+002, 3.475196e+001
2.809109e+002, 3.248167e+001
2.813930e+002, 2.956049e+001
2.818751e+002, 3.031244e+001
2.823572e+002, 3.515211e+001
2.828394e+002, 3.852116e+001
2.833215e+002, 3.843752e+001
2.838036e+002, 3.746126e+001
2.842857e+002, 3.656277e+001
2.847678e+002, 3.597264e+001
2.852499e+002, 3.610108e+001
2.857321e+002, 3.805446e+001
2.862142e+002, 4.191471e+001
2.866963e+002, 4.366690e+001
2.871784e+002, 4.112240e+001
2.876605e+002, 3.831172e+001
2.881426e+002, 3.674505e+001
2.886248e+002, 3.649657e+001
2.891069e+002, 3.744042e+001
2.895890e+002, 4.037569e+001
2.900711e+002, 4.496666e+001
2.905532e+002, 4.657618e+001
2.910353e+002, 4.277491e+001
2.915175e+002, 3.880848e+001
2.919996e+002, 3.614193e+001
2.924817e+002, 3.483977e+001
2.929638e+002, 3.516127e+001
2.934459e+002, 3.801858e+001
2.939280e+002, 4.235395e+001
2.944102e+002, 4.296922e+001
2.948923e+002, 3.662745e+001
2.953744e+002, 3.160397e+001
2.958565e+002, 3.049844e+001
2.963386e+002, 3.195847e+001
2.968207e+002, 3.461906e+001
2.973029e+002, 3.810678e+001
2.977850e+002, 4.164338e+001
2.982671e+002, 4.306293e+001
2.987492e+002, 4.113359e+001
2.992313e+002, 3.950949e+001
2.997134e+002, 3.918935e+001
3.001956e+002, 3.942861e+001
3.006777e+002, 3.960994e+001
3.011598e+002, 3.952439e+001
3.016419e+002, 3.926524e+001
3.021240e+002, 3.901157e+001
3.026061e+002, 3.884220e+001
3.030883e+002, 3.844339e+001
3.035704e+002, 3.747972e+001
3.040525e+002, 3.647763e+001
3.045346e+002, 3.546030e+001
3.050167e+002, 3.455466e+001
3.054988e+002, 3.446293e+001
3.059810e+002, 3.669421e+001
3.064631e+002, 4.223283e+001
3.069452e+002, 4.550533e+001
3.074273e+002, 4.352823e+001
3.079094e+002, 4.127907e+001
3.083915e+002, 4.143754e+001
3.088737e+002, 4.373067e+001
3.093558e+002, 4.593174e+001
3.098379e+002, 4.569322e+001
3.103200e+002, 4.284696e+001
3.108021e+002, 4.099057e+001
3.112842e+002, 4.029673e+001
3.117664e+002, 4.055762e+001
3.122485e+002, 4.226794e+001
3.127306e+002, 4.487362e+001
3.132127e+002, 4.728243e+001
3.136948e+002, 4.870511e+001
3.141769e+002, 4.929744e+001
3.146591e+002, 5.011810e+001
3.151412e+002, 5.208749e+001
3.156233e+002, 5.290386e+001
3.161054e+002, 5.081164e+001
3.165875e+002, 4.761403e+001
3.170696e+002, 4.570054e+001
3.175518e+002, 4.626595e+001
3.180339e+002, 4.860165e+001
3.185160e+002, 5.097309e+001
3.189981e+002, 5.329366e+001
3.194802e+002, 5.584730e+001
3.199623e+002, 6.036827e+001
3.204445e+002, 6.426109e+001
3.209266e+002, 6.476485e+001
3.214087e+002, 6.107380e+001
3.218908e+002, 5.537498e+001
3.223729e+002, 5.056049e+001
3.228550e+002, 4.635027e+001
3.233372e+002, 4.402389e+001
3.238193e+002, 4.519941e+001
3.243014e+002, 4.722409e+001
3.247835e+002, 4.906222e+001
3.252656e+002, 5.039278e+001
3.257477e+002, 5.087943e+001
3.262299e+002, 5.025908e+001
3.267120e+002, 4.854835e+001
3.271941e+002, 4.545230e+001
3.276762e+002, 3.888523e+001
3.281583e+002, 3.288099e+001
3.286404e+002, 2.867272e+001
3.291226e+002, 2.640870e+001
3.296047e+002, 2.616912e+001
3.300868e+002, 2.883335e+001
3.305689e+002, 3.375042e+001
3.310510e+002, 3.663918e+001
3.315331e+002, 3.766364e+001
3.320153e+002, 3.606668e+001
3.324974e+002, 2.922810e+001
3.329795e+002, 2.056280e+001
3.334616e+002, 1.525956e+001
3.339437e+002, 1.632318e+001
3.344258e+002, 2.108289e+001
3.349080e+002, 2.328386e+001
3.353901e+002, 2.153049e+001
3.358722e+002, 2.088943e+001
3.363543e+002, 2.453355e+001
3.368364e+002, 2.900132e+001
3.373185e+002, 3.096696e+001
3.378007e+002, 2.941910e+001
3.382828e+002, 2.690409e+001
3.387649e+002, 2.705102e+001
3.392470e+002, 3.043676e+001
3.397292e+002, 3.209637e+001
3.402113e+002, 2.897291e+001
3.406934e+002, 2.541821e+001
3.411755e+002, 2.432643e+001
3.416576e+002, 2.572198e+001
3.421397e+002, 2.758390e+001
3.426219e+002, 2.872896e+001
3.431040e+002, 2.910160e+001
3.435861e+002, 2.779600e+001
3.440682e+002, 2.283404e+001
3.445503e+002, 1.889348e+001
3.450324e+002, 1.937564e+001
3.455146e+002, 2.288541e+001
3.459967e+002, 2.594010e+001
3.464788e+002, 2.661856e+001
3.469609e+002, 2.563270e+001
3.474430e+002, 2.432643e+001
3.479251e+002, 2.214206e+001
3.484073e+002, 2.122227e+001
3.488894e+002, 2.474963e+001
3.493715e+002, 2.946147e+001
3.498536e+002, 3.095496e+001
3.503357e+002, 2.685612e+001
3.508178e+002, 2.158908e+001
3.513000e+002, 2.100228e+001
3.517821e+002, 2.537065e+001
3.522642e+002, 2.885175e+001
3.527463e+002, 2.921306e+001
3.532284e+002, 2.795642e+001
3.537105e+002, 2.638283e+001
3.541927e+002, 2.448142e+001
3.546748e+002, 2.319667e+001
3.551569e+002, 2.358698e+001
3.556390e+002, 2.525860e+001
3.561211e+002, 2.650997e+001
3.566032e+002, 2.713726e+001
3.570854e+002, 2.708298e+001
3.575675e+002, 2.550322e+001
3.580496e+002, 2.286225e+001
3.585317e+002, 2.180356e+001
3.590138e+002, 2.531812e+001
3.594959e+002, 3.033862e+001
3.599781e+002, 3.157734e+001
3.604602e+002, 2.831588e+001
3.609423e+002, 2.413517e+001
3.614244e+002, 2.068855e+001
3.619065e+002, 1.829874e+001
3.623886e+002, 1.784626e+001
3.628708e+002, 2.131056e+001
3.633529e+002, 2.485975e+001
3.638350e+002, 2.452491e+001
3.643171e+002, 2.096972e+001
3.647992e+002, 1.891310e+001
3.652813e+002, 2.108704e+001
3.657635e+002, 2.530959e+001
3.662456e+002, 2.712939e+001
3.667277e+002, 2.588033e+001
3.672098e+002, 2.451623e+001
3.676919e+002, 2.394180e+001
3.681740e+002, 2.411226e+001
3.686562e+002, 2.522185e+001
3.691383e+002, 2.749310e+001
3.696204e+002, 2.984846e+001
3.701025e+002, 3.129591e+001
3.705846e+002, 3.192694e+001
3.710667e+002, 3.038293e+001
3.715489e+002, 2.307798e+001
3.720310e+002, 1.575570e+001
3.725131e+002, 1.458766e+001
3.729952e+002, 1.947330e+001
3.734773e+002, 2.483060e+001
3.739594e+002, 2.656246e+001
3.744416e+002, 2.498373e+001
3.749237e+002, 2.418720e+001
3.754058e+002, 2.398569e+001
3.758879e+002, 2.464992e+001
3.763700e+002, 2.810545e+001
3.768521e+002, 3.241037e+001
3.773343e+002, 3.273735e+001
3.778164e+002, 2.646777e+001
3.782985e+002, 1.718115e+001
3.787806e+002, 1.343560e+001
3.792627e+002, 2.009182e+001
3.797448e+002, 2.413116e+001
3.802270e+002, 2.232959e+001
3.807091e+002, 1.885829e+001
3.811912e+002, 1.781808e+001
3.816733e+002, 1.990731e+001
3.821554e+002, 2.303052e+001
3.826375e+002, 2.508792e+001
3.831197e+002, 2.627827e+001
3.836018e+002, 2.495436e+001
3.840839e+002, 1.712052e+001
3.845660e+002, 1.107655e+001
3.850481e+002, 1.199220e+001
3.855302e+002, 1.790965e+001
3.860124e+002, 2.365629e+001
3.864945e+002, 2.590422e+001
3.869766e+002, 2.514922e+001
3.874587e+002, 2.401709e+001
3.879408e+002, 2.172508e+001
3.884229e+002, 2.001039e+001
3.889051e+002, 1.971021e+001
3.893872e+002, 1.975386e+001
3.898693e+002, 1.871215e+001
3.903514e+002, 1.621394e+001
3.908335e+002, 1.354395e+001
3.913156e+002, 1.286030e+001
3.917978e+002, 1.492442e+001
3.922799e+002, 1.692678e+001
3.927620e+002, 1.908410e+001
3.932441e+002, 2.097357e+001
3.937262e+002, 2.223988e+001
3.942083e+002, 2.300599e+001
3.946905e+002, 2.381166e+001
3.951726e+002, 2.541794e+001
3.956547e+002, 2.757061e+001
3.961368e+002, 2.740162e+001
3.966189e+002, 2.261950e+001
3.971010e+002, 1.880105e+001
3.975832e+002, 1.818986e+001
3.980653e+002, 1.925566e+001
3.985474e+002, 2.010644e+001
3.990295e+002, 2.002582e+001
3.995116e+002, 1.931744e+001
3.999937e+002, 1.811810e+001
4.004759e+002, 1.609488e+001
4.009580e+002, 1.536096e+001
4.014401e+002, 1.866117e+001
4.019222e+002, 2.177515e+001
4.024043e+002, 2.094309e+001
4.028864e+002, 1.622628e+001
4.033686e+002, 1.200373e+001
4.038507e+002, 1.244521e+001
4.043328e+002, 1.629259e+001
4.048149e+002, 1.759340e+001
4.052970e+002, 1.457345e+001
4.057791e+002, 1.189503e+001
4.062613e+002, 1.347307e+001
4.067434e+002, 1.764512e+001
4.072255e+002, 2.121934e+001
4.077076e+002, 2.339004e+001
4.081897e+002, 2.440965e+001
4.086718e+002, 2.395946e+001
4.091540e+002, 2.211597e+001
4.096361e+002, 2.121019e+001
4.101182e+002, 2.320105e+001
4.106003e+002, 2.582849e+001
4.110824e+002, 2.507356e+001
4.115645e+002, 2.019204e+001
4.120467e+002, 1.510385e+001
4.125288e+002, 1.035647e+001
4.130109e+002, 6.794675e+000
4.134930e+002, 6.470220e+000
4.139751e+002, 1.000920e+001
4.144572e+002, 1.475076e+001
4.149394e+002, 1.842713e+001
4.154215e+002, 2.094023e+001
4.159036e+002, 2.170256e+001
4.163857e+002, 1.898117e+001
4.168678e+002, 1.596499e+001
4.173499e+002, 1.459810e+001
4.178321e+002, 1.473791e+001
4.183142e+002, 1.542936e+001
4.187963e+002, 1.608635e+001
4.192784e+002, 1.701756e+001
4.197605e+002, 1.938899e+001
4.202426e+002, 2.844924e+001
4.207248e+002, 3.180971e+001
4.212069e+002, 2.348945e+001
4.216890e+002, 1.124227e+001
4.221711e+002, 2.538194e+000
4.226532e+002, -7.558456e-001
4.231353e+002, -6.535658e-001
4.236175e+002, 7.576148e-001
4.240996e+002, 3.906486e+000
4.245817e+002, 6.142679e+000
4.250638e+002, 5.634995e+000
4.255459e+002, 6.169890e+000
4.260280e+002, 1.072039e+001
4.265102e+002, 1.735373e+001
4.269923e+002, 2.195223e+001
4.274744e+002, 2.195278e+001
4.279565e+002, 1.887992e+001
4.284386e+002, 1.793209e+001
4.289207e+002, 2.082671e+001
4.294029e+002, 2.275847e+001
4.298850e+002, 2.208423e+001
4.303671e+002, 2.100697e+001
4.308492e+002, 2.161030e+001
4.313313e+002, 2.408192e+001
4.318134e+002, 2.656679e+001
4.322956e+002, 2.696431e+001
4.327777e+002, 2.522235e+001
4.332598e+002, 2.369742e+001
4.337419e+002, 2.269564e+001
4.342240e+002, 2.156540e+001
4.347061e+002, 1.950546e+001
4.351883e+002, 1.716006e+001
4.356704e+002, 1.579333e+001
4.361525e+002, 1.611742e+001
4.366346e+002, 1.745730e+001
4.371168e+002, 1.908726e+001
4.375989e+002, 2.110968e+001
4.380810e+002, 2.225700e+001
4.385631e+002, 2.127332e+001
4.390452e+002, 1.981787e+001
4.395273e+002, 2.032570e+001
4.400095e+002, 2.314457e+001
4.404916e+002, 2.455099e+001
4.409737e+002, 2.053803e+001
4.414558e+002, 1.409076e+001
4.419379e+002, 1.203542e+001
4.424200e+002, 1.578161e+001
4.429022e+002, 2.035382e+001
4.433843e+002, 2.204862e+001
4.438664e+002, 2.103910e+001
4.443485e+002, 1.924542e+001
4.448306e+002, 1.547855e+001
4.453127e+002, 1.217275e+001
4.457949e+002, 1.046177e+001
4.462770e+002, 1.029464e+001
4.467591e+002, 1.187181e+001
4.472412e+002, 1.555059e+001
4.477233e+002, 1.990438e+001
4.482054e+002, 2.217462e+001
4.486876e+002, 2.124797e+001
4.491697e+002, 2.071218e+001
4.496518e+002, 2.085306e+001
4.501339e+002, 2.132847e+001
4.506160e+002, 2.205102e+001
4.510981e+002, 2.290343e+001
4.515803e+002, 2.359336e+001
4.520624e+002, 2.386304e+001
4.525445e+002, 2.374401e+001
4.530266e+002, 2.364066e+001
4.535087e+002, 2.388886e+001
4.539908e+002, 2.374713e+001
4.544730e+002, 2.329977e+001
4.549551e+002, 2.231848e+001
4.554372e+002, 1.999754e+001
4.559193e+002, 1.626486e+001
4.564014e+002, 1.283766e+001
4.568835e+002, 1.247591e+001
4.573657e+002, 1.598515e+001
4.578478e+002, 1.893942e+001
4.583299e+002, 2.234658e+001
4.588120e+002, 2.397861e+001
4.592941e+002, 2.096115e+001
4.597762e+002, 1.540202e+001
4.602584e+002, 1.233909e+001
4.607405e+002, 1.535208e+001
4.612226e+002, 2.160064e+001
4.617047e+002, 2.509202e+001
4.621868e+002, 2.537476e+001
4.626689e+002, 2.512051e+001
4.631511e+002, 2.503014e+001
4.636332e+002, 2.493957e+001
4.641153e+002, 2.488766e+001
4.645974e+002, 2.491682e+001
4.650795e+002, 2.421309e+001
4.655616e+002, 2.123862e+001
4.660438e+002, 1.733289e+001
4.665259e+002, 1.598387e+001
4.670080e+002, 1.801256e+001
4.674901e+002, 2.001621e+001
4.679722e+002, 1.887106e+001
4.684543e+002, 1.536671e+001
4.689365e+002, 1.359311e+001
4.694186e+002, 1.524120e+001
4.699007e+002, 1.709983e+001
4.703828e+002, 1.760186e+001
4.708649e+002, 1.708175e+001
4.713470e+002, 1.594845e+001
4.718292e+002, 1.424375e+001
4.723113e+002, 1.289769e+001
4.727934e+002, 1.341499e+001
4.732755e+002, 1.656381e+001
4.737576e+002, 1.952888e+001
4.742397e+002, 2.311053e+001
4.747219e+002, 2.581777e+001
4.752040e+002, 2.620733e+001
4.756861e+002, 2.488947e+001
4.761682e+002, 2.373444e+001
4.766503e+002, 2.400567e+001
4.771324e+002, 2.514517e+001
4.776146e+002, 2.486080e+001
4.780967e+002, 2.132851e+001
4.785788e+002, 1.934097e+001
4.790609e+002, 2.027717e+001
4.795430e+002, 2.211025e+001
4.800251e+002, 2.335576e+001
4.805073e+002, 2.378037e+001
4.809894e+002, 2.397383e+001
4.814715e+002, 2.451016e+001
4.819536e+002, 2.535003e+001
4.824357e+002, 2.591736e+001
4.829178e+002, 2.600291e+001
4.834000e+002, 2.618363e+001
4.838821e+002, 2.741219e+001
4.843642e+002, 2.864222e+001
4.848463e+002, 2.834948e+001
4.853284e+002, 2.590269e+001
4.858105e+002, 2.262177e+001
4.862927e+002, 1.927700e+001
4.867748e+002, 1.602343e+001
4.872569e+002, 1.378825e+001
4.877390e+002, 1.264707e+001
4.882211e+002, 1.279898e+001
4.887032e+002, 1.571275e+001
4.891854e+002, 2.074254e+001
4.896675e+002, 2.360219e+001
4.901496e+002, 2.166065e+001
4.906317e+002, 1.873098e+001
4.911138e+002, 1.750271e+001
4.915959e+002, 1.788878e+001
4.920781e+002, 1.954991e+001
4.925602e+002, 2.268618e+001
4.930423e+002, 2.597009e+001
4.935244e+002, 2.629711e+001
4.940065e+002, 2.098356e+001
4.944886e+002, 1.785173e+001
4.949708e+002, 1.960197e+001
4.954529e+002, 2.176926e+001
4.959350e+002, 2.060803e+001
4.964171e+002, 1.644221e+001
4.968992e+002, 1.209851e+001
4.973813e+002, 9.623678e+000
4.978635e+002, 8.901729e+000
4.983456e+002, 9.225478e+000
4.988277e+002, 1.160668e+001
4.993098e+002, 1.354876e+001
4.997919e+002, 1.496326e+001
5.002740e+002, 1.565616e+001
5.007562e+002, 1.519690e+001
5.012383e+002, 1.363584e+001
5.017204e+002, 1.187979e+001
5.022025e+002, 1.049843e+001
5.026846e+002, 9.560402e+000
5.031667e+002, 1.002406e+001
5.036489e+002, 1.245865e+001
5.041310e+002, 1.523921e+001
5.046131e+002, 1.809634e+001
5.050952e+002, 2.057134e+001
5.055773e+002, 2.184120e+001
5.060594e+002, 2.148229e+001
5.065416e+002, 2.049193e+001
5.070237e+002, 1.971570e+001
5.075058e+002, 1.898454e+001
5.079879e+002, 1.716265e+001
5.084700e+002, 1.340246e+001
5.089521e+002, 1.077061e+001
5.094343e+002, 1.388472e+001
5.099164e+002, 2.268398e+001
5.103985e+002, 2.706837e+001
5.108806e+002, 2.275860e+001
5.113627e+002, 1.747871e+001
5.118448e+002, 1.500784e+001
5.123270e+002, 1.496231e+001
5.128091e+002, 1.627998e+001
5.132912e+002, 1.856047e+001
5.137733e+002, 2.122855e+001
5.142554e+002, 2.337256e+001
5.147375e+002, 2.567523e+001
5.152197e+002, 2.564379e+001
5.157018e+002, 2.075247e+001
5.161839e+002, 1.622875e+001
5.166660e+002, 1.511105e+001
5.171481e+002, 1.661009e+001
5.176302e+002, 1.835620e+001
5.181124e+002, 1.897952e+001
5.185945e+002, 1.881968e+001
5.190766e+002, 1.890431e+001
5.195587e+002, 1.965662e+001
5.200408e+002, 1.925782e+001
5.205229e+002, 1.522112e+001
5.210051e+002, 1.149077e+001
5.214872e+002, 1.070447e+001
5.219693e+002, 1.279333e+001
5.224514e+002, 1.611456e+001
5.229335e+002, 2.062042e+001
5.234156e+002, 2.541320e+001
5.238978e+002, 2.895231e+001
5.243799e+002, 3.123977e+001
5.248620e+002, 3.206765e+001
5.253441e+002, 3.113031e+001
5.258262e+002, 2.875460e+001
5.263083e+002, 2.540807e+001
5.267905e+002, 2.039350e+001
5.272726e+002, 1.673691e+001
5.277547e+002, 1.606823e+001
5.282368e+002, 1.677998e+001
5.287189e+002, 1.760676e+001
5.292010e+002, 1.820266e+001
5.296832e+002, 1.781187e+001
5.301653e+002, 1.563264e+001
5.306474e+002, 1.209242e+001
5.311295e+002, 1.003226e+001
5.316116e+002, 9.766252e+000
5.320938e+002, 1.072440e+001
5.325759e+002, 1.414140e+001
5.330580e+002, 1.797256e+001
5.335401e+002, 2.041896e+001
5.340222e+002, 2.122791e+001
5.345043e+002, 2.134097e+001
5.349865e+002, 2.169770e+001
5.354686e+002, 2.220502e+001
5.359507e+002, 2.161824e+001
5.364328e+002, 1.898877e+001
5.369149e+002, 1.705747e+001
5.373970e+002, 1.769649e+001
5.378792e+002, 1.906592e+001
5.383613e+002, 1.911603e+001
5.388434e+002, 1.735943e+001
5.393255e+002, 1.538126e+001
5.398076e+002, 1.386507e+001
5.402897e+002, 1.306951e+001
5.407719e+002, 1.428942e+001
5.412540e+002, 1.807626e+001
5.417361e+002, 2.108950e+001
5.422182e+002, 2.023499e+001
5.427003e+002, 1.655178e+001
5.431824e+002, 1.532959e+001
5.436646e+002, 1.934651e+001
5.441467e+002, 2.215230e+001
5.446288e+002, 2.016739e+001
5.451109e+002, 1.628141e+001
5.455930e+002, 1.446482e+001
5.460751e+002, 1.549131e+001
5.465573e+002, 1.734883e+001
5.470394e+002, 1.797716e+001
5.475215e+002, 1.733098e+001
5.480036e+002, 1.715794e+001
5.484857e+002, 1.786262e+001
5.489678e+002, 1.860616e+001
5.494500e+002, 2.040457e+001
5.499321e+002, 2.158572e+001
5.504142e+002, 1.906490e+001
5.508963e+002, 1.246145e+001
5.513784e+002, 6.882115e+000
5.518605e+002, 9.770109e+000
5.523427e+002, 2.028070e+001
5.528248e+002, 2.520927e+001
5.533069e+002, 2.188417e+001
5.537890e+002, 1.762593e+001
5.542711e+002, 1.663283e+001
5.547532e+002, 1.731607e+001
5.552354e+002, 1.766449e+001
5.557175e+002, 1.764093e+001
5.561996e+002, 1.646052e+001
5.566817e+002, 1.172605e+001
5.571638e+002, 5.866743e+000
5.576459e+002, 4.320020e+000
5.581281e+002, 8.135953e+000
5.586102e+002, 1.351975e+001
5.590923e+002, 1.742550e+001
5.595744e+002, 1.990694e+001
5.600565e+002, 2.207734e+001
5.605386e+002, 2.493505e+001
5.610208e+002, 2.631637e+001
5.615029e+002, 2.367129e+001
5.619850e+002, 2.033355e+001
5.624671e+002, 2.056279e+001
5.629492e+002, 2.496039e+001
5.634313e+002, 3.053102e+001
5.639135e+002, 3.475575e+001
5.643956e+002, 3.759548e+001
5.648777e+002, 3.565327e+001
5.653598e+002, 2.418242e+001
5.658419e+002, 1.549806e+001
5.663240e+002, 1.445016e+001
5.668062e+002, 1.714705e+001
5.672883e+002, 2.018183e+001
5.677704e+002, 2.285704e+001
5.682525e+002, 2.438478e+001
5.687346e+002, 2.316055e+001
5.692167e+002, 2.037310e+001
5.696989e+002, 1.952420e+001
5.701810e+002, 2.110071e+001
5.706631e+002, 2.315409e+001
5.711452e+002, 2.491989e+001
5.716273e+002, 2.606556e+001
5.721094e+002, 2.553235e+001
5.725916e+002, 2.234033e+001
5.730737e+002, 1.937023e+001
5.735558e+002, 1.769195e+001
5.740379e+002, 1.644258e+001
5.745200e+002, 1.459400e+001
5.750021e+002, 1.213074e+001
5.754843e+002, 9.738653e+000
5.759664e+002, 7.837379e+000
5.764485e+002, 6.605540e+000
5.769306e+002, 7.405806e+000
5.774127e+002, 1.289248e+001
5.778948e+002, 1.608315e+001
5.783770e+002, 1.450922e+001
5.788591e+002, 1.169654e+001
5.793412e+002, 9.912840e+000
5.798233e+002, 9.535332e+000
5.803054e+002, 1.024752e+001
5.807875e+002, 1.297622e+001
5.812697e+002, 1.621534e+001
5.817518e+002, 1.525186e+001
5.822339e+002, 9.463039e+000
5.827160e+002, 5.181131e+000
5.831981e+002, 5.116422e+000
5.836802e+002, 7.724339e+000
5.841624e+002, 1.117835e+001
5.846445e+002, 1.577847e+001
5.851266e+002, 1.880627e+001
5.856088e+002, 1.797313e+001
5.860909e+002, 1.649328e+001
5.865730e+002, 1.763090e+001
5.870551e+002, 2.076109e+001
5.875372e+002, 2.303889e+001
5.880193e+002, 2.291773e+001
5.885015e+002, 2.147107e+001
5.889836e+002, 2.118049e+001
5.894657e+002, 2.336396e+001
5.899478e+002, 2.378670e+001
5.904299e+002, 2.141233e+001
5.909120e+002, 1.848954e+001
5.913942e+002, 1.495490e+001
5.918763e+002, 1.185799e+001
5.923584e+002, 1.159072e+001
5.928405e+002, 1.591214e+001
5.933226e+002, 2.112506e+001
5.938047e+002, 2.065468e+001
5.942869e+002, 1.463716e+001
5.947690e+002, 1.130276e+001
5.952511e+002, 1.281914e+001
5.957332e+002, 1.603626e+001
5.962153e+002, 1.900895e+001
5.966974e+002, 2.156893e+001
5.971796e+002, 2.289088e+001
5.976617e+002, 2.252327e+001
5.981438e+002, 2.125392e+001
5.986259e+002, 1.818242e+001
5.991080e+002, 1.485893e+001
5.995901e+002, 1.475002e+001
6.000723e+002, 1.851588e+001
6.005544e+002, 2.249469e+001
6.010365e+002, 2.270072e+001
6.015186e+002, 1.903982e+001
6.020007e+002, 1.569637e+001
6.024828e+002, 1.124363e+001
6.029650e+002, 8.958987e+000
6.034471e+002, 1.005765e+001
6.039292e+002, 1.317994e+001
6.044113e+002, 1.821058e+001
6.048934e+002, 2.453591e+001
6.053755e+002, 2.886966e+001
6.058577e+002, 2.713341e+001
6.063398e+002, 2.100794e+001
6.068219e+002, 1.652721e+001
6.073040e+002, 1.378427e+001
6.077861e+002, 1.232455e+001
6.082682e+002, 1.248003e+001
6.087504e+002, 1.344437e+001
6.092325e+002, 1.369571e+001
6.097146e+002, 1.300990e+001
6.101967e+002, 1.284408e+001
6.106788e+002, 1.380690e+001
6.111609e+002, 1.527969e+001
6.116431e+002, 1.668334e+001
6.121252e+002, 1.808481e+001
6.126073e+002, 2.034581e+001
6.130894e+002, 2.408548e+001
6.135715e+002, 2.752842e+001
6.140536e+002, 2.624603e+001
6.145358e+002, 1.695378e+001
6.150179e+002, 1.108423e+001
6.155000e+002, 1.100532e+001
6.159821e+002, 1.202733e+001
6.164642e+002, 1.220638e+001
6.169464e+002, 1.207228e+001
6.174285e+002, 1.320981e+001
6.179106e+002, 1.667007e+001
6.183927e+002, 1.986138e+001
6.188748e+002, 1.895571e+001
6.193569e+002, 1.489308e+001
6.198391e+002, 1.280829e+001
6.203212e+002, 1.375798e+001
6.208033e+002, 1.579893e+001
6.212854e+002, 1.785349e+001
6.217675e+002, 1.972680e+001
6.222496e+002, 2.048612e+001
6.227318e+002, 1.986807e+001
6.232139e+002, 1.852543e+001
6.236960e+002, 1.536235e+001
6.241781e+002, 1.230987e+001
6.246602e+002, 1.186459e+001
6.251423e+002, 1.397072e+001
6.256245e+002, 1.652272e+001
6.261066e+002, 1.793395e+001
6.265887e+002, 1.830219e+001
6.270708e+002, 1.791011e+001
6.275529e+002, 1.611960e+001
6.280350e+002, 1.512670e+001
6.285172e+002, 1.755050e+001
6.289993e+002, 1.920098e+001
6.294814e+002, 1.556804e+001
6.299635e+002, 7.984625e+000
6.304456e+002, 3.628563e+000
6.309277e+002, 8.057891e+000
6.314099e+002, 1.519458e+001
6.318920e+002, 1.947298e+001
6.323741e+002, 2.082676e+001
6.328562e+002, 1.756197e+001
6.333383e+002, 8.303224e+000
6.338204e+002, -1.538680e-001
6.343026e+002, 1.449230e+000
6.347847e+002, 1.498326e+001
6.352668e+002, 2.075892e+001
6.357489e+002, 1.055136e+001
6.362310e+002, 3.579890e+000
6.367131e+002, 8.733175e+000
6.371953e+002, 1.841061e+001
6.376774e+002, 2.330238e+001
6.381595e+002, 2.164320e+001
6.386416e+002, 1.869423e+001
6.391237e+002, 1.993533e+001
6.396058e+002, 2.424477e+001
6.400880e+002, 2.551111e+001
6.405701e+002, 2.292670e+001
6.410522e+002, 2.050758e+001
6.415343e+002, 1.991510e+001
6.420164e+002, 2.018619e+001
6.424985e+002, 2.034303e+001
6.429807e+002, 2.047812e+001
6.434628e+002, 1.921217e+001
6.439449e+002, 1.397721e+001
6.444270e+002, 9.032915e+000
6.449091e+002, 8.148377e+000
6.453912e+002, 1.043054e+001
6.458734e+002, 1.336175e+001
6.463555e+002, 1.590173e+001
6.468376e+002, 1.807501e+001
6.473197e+002, 1.986351e+001
6.478018e+002, 2.124675e+001
6.482839e+002, 2.243332e+001
6.487661e+002, 2.442003e+001
6.492482e+002, 2.490874e+001
6.497303e+002, 2.213893e+001
6.502124e+002, 1.803733e+001
6.506945e+002, 1.488775e+001
6.511766e+002, 1.321581e+001
6.516588e+002, 1.224290e+001
6.521409e+002, 1.122358e+001
6.526230e+002, 1.056173e+001
6.531051e+002, 1.144575e+001
6.535872e+002, 1.388411e+001
6.540693e+002, 1.596232e+001
6.545515e+002, 1.645666e+001
6.550336e+002, 1.638594e+001
6.555157e+002, 1.813580e+001
6.559978e+002, 2.377771e+001
6.564799e+002, 2.617239e+001
6.569620e+002, 2.249396e+001
6.574442e+002, 1.830937e+001
6.579263e+002, 1.634735e+001
6.584084e+002, 1.608613e+001
6.588905e+002, 1.626507e+001
6.593726e+002, 1.638044e+001
6.598547e+002, 1.642316e+001
6.603369e+002, 1.678670e+001
6.608190e+002, 1.734182e+001
6.613011e+002, 1.546603e+001
6.617832e+002, 9.456807e+000
6.622653e+002, 5.555360e+000
6.627474e+002, 9.345407e+000
6.632296e+002, 1.661624e+001
6.637117e+002, 1.856775e+001
6.641938e+002, 1.306603e+001
6.646759e+002, 8.946016e+000
6.651580e+002, 9.337435e+000
6.656401e+002, 1.198404e+001
6.661223e+002, 1.601285e+001
6.666044e+002, 2.049723e+001
6.670865e+002, 2.318612e+001
6.675686e+002, 2.287340e+001
6.680507e+002, 2.097048e+001
6.685328e+002, 2.017256e+001
6.690150e+002, 2.079741e+001
6.694971e+002, 2.122083e+001
6.699792e+002, 2.214591e+001
6.704613e+002, 2.187037e+001
6.709434e+002, 1.836290e+001
6.714255e+002, 1.376659e+001
6.719077e+002, 1.145211e+001
6.723898e+002, 1.242066e+001
6.728719e+002, 1.410465e+001
6.733540e+002, 1.456513e+001
6.738361e+002, 1.485242e+001
6.743182e+002, 1.732836e+001
6.748004e+002, 2.174072e+001
6.752825e+002, 2.470533e+001
6.757646e+002, 2.415691e+001
6.762467e+002, 2.139186e+001
6.767288e+002, 1.925025e+001
6.772109e+002, 1.724315e+001
6.776931e+002, 1.706358e+001
6.781752e+002, 2.122409e+001
6.786573e+002, 2.441946e+001
6.791394e+002, 2.350051e+001
6.796215e+002, 2.034987e+001
6.801036e+002, 1.806622e+001
6.805858e+002, 1.769471e+001
6.810679e+002, 1.820087e+001
6.815500e+002, 1.939469e+001
6.820321e+002, 2.062384e+001
6.825142e+002, 1.953301e+001
6.829963e+002, 1.581626e+001
6.834785e+002, 1.228511e+001
6.839606e+002, 1.025139e+001
6.844427e+002, 9.658476e+000
6.849248e+002, 1.053397e+001
6.854069e+002, 1.390561e+001
6.858890e+002, 1.632552e+001
6.863712e+002, 1.730295e+001
6.868533e+002, 1.772551e+001
6.873354e+002, 1.753079e+001
6.878175e+002, 1.727291e+001
6.882996e+002, 1.813012e+001
6.887817e+002, 2.052040e+001
6.892639e+002, 2.276765e+001
6.897460e+002, 2.226046e+001
6.902281e+002, 1.955444e+001
6.907102e+002, 1.886635e+001
6.911923e+002, 2.095458e+001
6.916744e+002, 2.230224e+001
6.921566e+002, 2.070459e+001
6.926387e+002, 1.761391e+001
6.931208e+002, 1.585614e+001
6.936029e+002, 1.555476e+001
6.940850e+002, 1.572707e+001
6.945671e+002, 1.636365e+001
6.950493e+002, 1.728147e+001
6.955314e+002, 1.888576e+001
6.960135e+002, 2.056599e+001
6.964956e+002, 2.102055e+001
6.969777e+002, 1.983579e+001
6.974598e+002, 1.818671e+001
6.979420e+002, 1.742691e+001
6.984241e+002, 1.755033e+001
6.989062e+002, 1.870271e+001
6.993883e+002, 2.164709e+001
6.998704e+002, 2.346809e+001
7.003525e+002, 2.259153e+001
7.008347e+002, 2.011816e+001
7.013168e+002, 1.709062e+001
7.017989e+002, 1.336003e+001
7.022810e+002, 1.132807e+001
7.027631e+002, 1.225451e+001
7.032452e+002, 1.454460e+001
7.037274e+002, 1.830965e+001
7.042095e+002, 2.230505e+001
7.046916e+002, 2.406864e+001
7.051737e+002, 2.288896e+001
7.056558e+002, 2.033244e+001
7.061379e+002, 1.795630e+001
7.066201e+002, 1.580908e+001
7.071022e+002, 1.485565e+001
7.075843e+002, 1.536905e+001
7.080664e+002, 1.646631e+001
7.085485e+002, 1.937974e+001
7.090306e+002, 2.161466e+001
7.095128e+002, 1.988044e+001
7.099949e+002, 1.451585e+001
7.104770e+002, 1.102489e+001
7.109591e+002, 1.310574e+001
7.114412e+002, 1.577435e+001
7.119233e+002, 1.488262e+001
7.124055e+002, 1.208663e+001
7.128876e+002, 1.081203e+001
7.133697e+002, 1.182303e+001
7.138518e+002, 1.322773e+001
7.143339e+002, 1.317190e+001
7.148160e+002, 1.187395e+001
7.152982e+002, 1.077384e+001
7.157803e+002, 9.332992e+000
7.162624e+002, 9.376781e+000
7.167445e+002, 1.254361e+001
7.172266e+002, 1.624825e+001
7.177087e+002, 1.915143e+001
7.181909e+002, 2.112563e+001
7.186730e+002, 2.188376e+001
7.191551e+002, 2.077667e+001
7.196372e+002, 1.918212e+001
7.201193e+002, 1.793313e+001
7.206014e+002, 1.685901e+001
7.210836e+002, 1.550223e+001
7.215657e+002, 1.388595e+001
7.220478e+002, 1.258074e+001
7.225299e+002, 1.192849e+001
7.230120e+002, 1.212123e+001
7.234941e+002, 1.429430e+001
7.239763e+002, 2.017221e+001
7.244584e+002, 2.319917e+001
7.249405e+002, 2.064684e+001
7.254226e+002, 1.729006e+001
7.259047e+002, 1.611477e+001
7.263868e+002, 1.595357e+001
7.268690e+002, 1.369689e+001
7.273511e+002, 7.149729e+000
7.278332e+002, 2.751513e+000
7.283153e+002, 6.182701e+000
7.287974e+002, 1.302540e+001
7.292795e+002, 1.834208e+001
7.297617e+002, 2.131663e+001
7.302438e+002, 2.118940e+001
7.307259e+002, 1.733666e+001
7.312080e+002, 1.170556e+001
7.316901e+002, 7.976334e+000
7.321722e+002, 6.085380e+000
7.326544e+002, 6.607108e+000
7.331365e+002, 1.203335e+001
7.336186e+002, 1.643390e+001
7.341007e+002, 1.664491e+001
7.345828e+002, 1.489679e+001
7.350649e+002, 1.404708e+001
7.355471e+002, 1.457377e+001
7.360292e+002, 1.467036e+001
7.365113e+002, 1.341413e+001
7.369934e+002, 1.140686e+001
7.374755e+002, 8.106340e+000
7.379576e+002, 4.584447e+000
7.384398e+002, 4.168666e+000
7.389219e+002, 7.956205e+000
7.394040e+002, 1.287215e+001
7.398861e+002, 1.515370e+001
7.403682e+002, 1.484569e+001
7.408503e+002, 1.412866e+001
7.413325e+002, 1.234222e+001
7.418146e+002, 1.154914e+001
7.422967e+002, 1.343991e+001
7.427788e+002, 1.572569e+001
7.432609e+002, 1.630796e+001
7.437430e+002, 1.535608e+001
7.442252e+002, 1.475502e+001
7.447073e+002, 1.609458e+001
7.451894e+002, 1.688018e+001
7.456715e+002, 1.417164e+001
7.461536e+002, 1.038775e+001
7.466357e+002, 1.059130e+001
7.471179e+002, 1.480946e+001
7.476000e+002, 1.695569e+001
7.480821e+002, 1.175343e+001
7.485642e+002, 2.159241e+000
7.490463e+002, -2.028809e+000
7.495284e+002, 1.972457e-001
7.500106e+002, 3.338160e+000
7.504927e+002, 7.643590e+000
7.509748e+002, 1.141790e+001
7.514569e+002, 1.332685e+001
7.519390e+002, 1.390561e+001
7.524211e+002, 1.420146e+001
7.529033e+002, 1.432021e+001
7.533854e+002, 1.418142e+001
7.538675e+002, 1.354969e+001
7.543496e+002, 1.280568e+001
7.548317e+002, 1.180972e+001
7.553138e+002, 1.103288e+001
7.557960e+002, 1.206349e+001
7.562781e+002, 1.563120e+001
7.567602e+002, 1.932855e+001
7.572423e+002, 1.920603e+001
7.577244e+002, 1.540814e+001
7.582065e+002, 1.251321e+001
7.586887e+002, 1.026874e+001
7.591708e+002, 1.020736e+001
7.596529e+002, 1.426536e+001
7.601350e+002, 1.977496e+001
7.606171e+002, 2.320812e+001
7.610992e+002, 2.472022e+001
7.615814e+002, 2.356912e+001
7.620635e+002, 1.685085e+001
7.625456e+002, 1.062743e+001
7.630277e+002, 7.534114e+000
7.635098e+002, 6.621492e+000
7.639919e+002, 6.829671e+000
7.644741e+002, 7.774396e+000
7.649562e+002, 9.161043e+000
7.654383e+002, 1.088915e+001
7.659204e+002, 1.272680e+001
7.664025e+002, 1.456487e+001
7.668846e+002, 1.633411e+001
7.673668e+002, 1.555201e+001
7.678489e+002, 1.077936e+001
7.683310e+002, 6.731400e+000
7.688131e+002, 7.867350e+000
7.692952e+002, 1.308906e+001
7.697773e+002, 1.609690e+001
7.702595e+002, 1.573818e+001
7.707416e+002, 1.497543e+001
7.712237e+002, 1.301010e+001
7.717058e+002, 1.158414e+001
7.721879e+002, 1.221421e+001
7.726700e+002, 1.415946e+001
7.731522e+002, 1.571037e+001
7.736343e+002, 1.618237e+001
7.741164e+002, 1.680527e+001
7.745985e+002, 1.958174e+001
7.750806e+002, 2.313713e+001
7.755627e+002, 2.405826e+001
7.760449e+002, 2.234978e+001
7.765270e+002, 2.040689e+001
7.770091e+002, 1.930148e+001
7.774912e+002, 1.823221e+001
7.779733e+002, 1.573165e+001
7.784554e+002, 1.130118e+001
7.789376e+002, 9.510288e+000
7.794197e+002, 1.360451e+001
7.799018e+002, 1.589245e+001
7.803839e+002, 1.206036e+001
7.808660e+002, 7.823129e+000
7.813481e+002, 9.354976e+000
7.818303e+002, 1.590297e+001
7.823124e+002, 2.056932e+001
7.827946e+002, 1.989746e+001
7.832767e+002, 1.704877e+001
7.837588e+002, 1.291211e+001
7.842409e+002, 8.985839e+000
7.847230e+002, 8.531014e+000
7.852051e+002, 1.161454e+001
7.856873e+002, 1.523764e+001
7.861694e+002, 1.737947e+001
7.866515e+002, 1.839952e+001
7.871336e+002, 1.929729e+001
7.876157e+002, 2.024578e+001
7.880978e+002, 2.002758e+001
7.885800e+002, 1.805291e+001
7.890621e+002, 1.575388e+001
7.895442e+002, 1.301779e+001
7.900263e+002, 1.082094e+001
7.905084e+002, 1.081276e+001
7.909905e+002, 1.334523e+001
7.914727e+002, 1.661652e+001
7.919548e+002, 2.270152e+001
7.924369e+002, 2.684509e+001
7.929190e+002, 2.475622e+001
7.934011e+002, 1.914397e+001
7.938832e+002, 1.410463e+001
7.943654e+002, 1.087273e+001
7.948475e+002, 9.033060e+000
7.953296e+002, 8.346769e+000
7.958117e+002, 8.681623e+000
7.962938e+002, 1.003260e+001
7.967759e+002, 1.236986e+001
7.972581e+002, 1.400908e+001
7.977402e+002, 1.438988e+001
7.982223e+002, 1.465844e+001
7.987044e+002, 1.600112e+001
7.991865e+002, 1.807874e+001
7.996686e+002, 1.887079e+001
8.001508e+002, 1.685189e+001
8.006329e+002, 1.573341e+001
8.011150e+002, 1.696586e+001
8.015971e+002, 1.773474e+001
8.020792e+002, 1.553743e+001
8.025613e+002, 1.199216e+001
8.030435e+002, 1.039378e+001
8.035256e+002, 1.185740e+001
8.040077e+002, 1.335783e+001
8.044898e+002, 1.252336e+001
8.049719e+002, 1.046811e+001
8.054540e+002, 8.232876e+000
8.059362e+002, 6.180704e+000
8.064183e+002, 5.636045e+000
8.069004e+002, 7.060621e+000
8.073825e+002, 8.845094e+000
8.078646e+002, 9.008635e+000
8.083467e+002, 7.741923e+000
8.088289e+002, 7.656302e+000
8.093110e+002, 9.505666e+000
8.097931e+002, 1.046194e+001
8.102752e+002, 9.370798e+000
8.107573e+002, 7.803888e+000
8.112394e+002, 6.197750e+000
8.117216e+002, 5.077428e+000
8.122037e+002, 6.570344e+000
8.126858e+002, 1.388953e+001
8.131679e+002, 1.847535e+001
8.136500e+002, 1.468587e+001
8.141321e+002, 9.265118e+000
8.146143e+002, 7.837522e+000
8.150964e+002, 9.807937e+000
8.155785e+002, 1.279336e+001
8.160606e+002, 1.579447e+001
8.165427e+002, 1.807195e+001
8.170248e+002, 1.866130e+001
8.175070e+002, 1.783700e+001
8.179891e+002, 1.618126e+001
8.184712e+002, 1.371029e+001
8.189533e+002, 1.212970e+001
8.194354e+002, 1.214863e+001
8.199175e+002, 1.286980e+001
8.203997e+002, 1.328166e+001
8.208818e+002, 1.339338e+001
8.213639e+002, 1.373900e+001
8.218460e+002, 1.367312e+001
8.223281e+002, 1.484750e+001
8.228102e+002, 2.046500e+001
8.232924e+002, 2.456012e+001
8.237745e+002, 2.166342e+001
8.242566e+002, 1.423539e+001
8.247387e+002, 8.719670e+000
8.252208e+002, 6.911900e+000
8.257029e+002, 7.286541e+000
8.261851e+002, 1.065087e+001
8.266672e+002, 1.448265e+001
8.271493e+002, 1.512643e+001
8.276314e+002, 1.354148e+001
8.281135e+002, 1.373608e+001
8.285956e+002, 1.717016e+001
8.290778e+002, 2.077138e+001
8.295599e+002, 2.072606e+001
8.300420e+002, 1.749541e+001
8.305241e+002, 1.344859e+001
8.310062e+002, 8.031473e+000
8.314883e+002, 6.126074e+000
8.319705e+002, 1.070650e+001
8.324526e+002, 1.587457e+001
8.329347e+002, 1.529803e+001
8.334168e+002, 9.841832e+000
8.338989e+002, 7.891383e+000
8.343810e+002, 1.382406e+001
8.348632e+002, 1.656162e+001
8.353453e+002, 1.091295e+001
8.358274e+002, 5.854108e+000
8.363095e+002, 8.400732e+000
8.367916e+002, 1.532428e+001
8.372737e+002, 1.996349e+001
8.377559e+002, 2.031925e+001
8.382380e+002, 1.909935e+001
8.387201e+002, 1.749809e+001
8.392022e+002, 1.599552e+001
8.396843e+002, 1.602345e+001
8.401664e+002, 1.673944e+001
8.406486e+002, 1.440492e+001
8.411307e+002, 8.181242e+000
8.416128e+002, 3.461447e+000
8.420949e+002, 6.026450e+000
8.425770e+002, 1.416117e+001
8.430591e+002, 2.050093e+001
8.435413e+002, 2.538108e+001
8.440234e+002, 2.636917e+001
8.445055e+002, 2.137742e+001
8.449876e+002, 1.558513e+001
8.454697e+002, 1.188492e+001
8.459518e+002, 1.016773e+001
8.464340e+002, 1.026295e+001
8.469161e+002, 1.320040e+001
8.473982e+002, 1.510929e+001
8.478803e+002, 1.511877e+001
8.483624e+002, 1.451813e+001
8.488445e+002, 1.447603e+001
8.493267e+002, 1.395897e+001
8.498088e+002, 1.061485e+001
8.502909e+002, 4.565414e+000
8.507730e+002, 1.129375e-001
8.512551e+002, 7.800554e-001
8.517372e+002, 3.708498e+000
8.522194e+002, 6.307706e+000
8.527015e+002, 8.298322e+000
8.531836e+002, 8.339222e+000
8.536657e+002, 6.523744e+000
8.541478e+002, 5.565362e+000
8.546299e+002, 7.292672e+000
8.551121e+002, 1.102092e+001
8.555942e+002, 1.620392e+001
8.560763e+002, 2.355715e+001
8.565584e+002, 2.553720e+001
8.570405e+002, 1.987001e+001
8.575226e+002, 1.411088e+001
8.580048e+002, 1.084057e+001
8.584869e+002, 9.727680e+000
8.589690e+002, 1.101038e+001
8.594511e+002, 1.491931e+001
8.599332e+002, 1.712073e+001
8.604153e+002, 1.717750e+001
8.608975e+002, 1.586441e+001
8.613796e+002, 1.066325e+001
8.618617e+002, 6.354278e+000
8.623438e+002, 8.834054e+000
8.628259e+002, 1.592598e+001
8.633080e+002, 1.993348e+001
8.637902e+002, 1.710815e+001
8.642723e+002, 1.302100e+001
8.647544e+002, 1.253036e+001
8.652365e+002, 1.361806e+001
8.657186e+002, 1.311472e+001
8.662007e+002, 1.120836e+001
8.666829e+002, 9.292840e+000
8.671650e+002, 7.940604e+000
8.676471e+002, 7.718097e+000
8.681292e+002, 9.707970e+000
8.686113e+002, 1.332477e+001
8.690934e+002, 1.463756e+001
8.695756e+002, 1.312174e+001
8.700577e+002, 1.366256e+001
8.705398e+002, 1.899250e+001
8.710219e+002, 2.234785e+001
8.715040e+002, 1.665228e+001
8.719861e+002, 5.199253e+000
8.724683e+002, 3.087505e-001
8.729504e+002, 6.986794e+000
8.734325e+002, 1.097762e+001
8.739146e+002, 1.040554e+001
8.743967e+002, 9.177364e+000
8.748788e+002, 9.050961e+000
8.753610e+002, 9.161314e+000
8.758431e+002, 7.874227e+000
8.763252e+002, 5.151484e+000
8.768073e+002, 3.512587e+000
8.772894e+002, 4.793393e+000
8.777715e+002, 6.925379e+000
8.782537e+002, 8.611928e+000
8.787358e+002, 9.964951e+000
8.792179e+002, 1.148304e+001
8.797000e+002, 1.293737e+001
8.801821e+002, 1.296473e+001
8.806642e+002, 1.067334e+001
8.811464e+002, 7.815112e+000
8.816285e+002, 6.999449e+000
8.821106e+002, 7.995561e+000
8.825927e+002, 1.003985e+001
8.830748e+002, 1.316146e+001
8.835569e+002, 1.441629e+001
8.840391e+002, 1.216220e+001
8.845212e+002, 9.820924e+000
8.850033e+002, 1.212313e+001
8.854854e+002, 1.858969e+001
8.859675e+002, 1.941776e+001
8.864496e+002, 9.546780e+000
8.869318e+002, 4.091775e+000
8.874139e+002, 7.700246e+000
8.878960e+002, 1.330682e+001
8.883781e+002, 1.829735e+001
8.888602e+002, 2.210775e+001
8.893423e+002, 2.368200e+001
8.898245e+002, 2.274747e+001
8.903066e+002, 2.034739e+001
8.907887e+002, 1.559260e+001
8.912708e+002, 1.071761e+001
8.917529e+002, 5.299344e+000
8.922350e+002, 1.510037e+000
8.927172e+002, 3.606014e+000
8.931993e+002, 1.093616e+001
8.936814e+002, 1.692491e+001
8.941635e+002, 1.679399e+001
8.946456e+002, 1.524709e+001
8.951277e+002, 2.004726e+001
8.956099e+002, 2.712036e+001
8.960920e+002, 2.523361e+001
8.965741e+002, 1.496254e+001
8.970562e+002, 7.533903e+000
8.975383e+002, 8.356416e+000
8.980204e+002, 1.315517e+001
8.985026e+002, 1.624364e+001
8.989847e+002, 1.764854e+001
8.994668e+002, 1.748217e+001
8.999489e+002, 1.543627e+001
9.004310e+002, 1.354487e+001
9.009131e+002, 1.239786e+001
9.013953e+002, 1.135127e+001
9.018774e+002, 9.771526e+000
9.023595e+002, 7.842272e+000
9.028416e+002, 6.458350e+000
9.033237e+002, 6.171287e+000
9.038058e+002, 5.419506e+000
9.042880e+002, 2.334462e+000
9.047701e+002, 9.524075e-001
9.052522e+002, 4.381952e+000
9.057343e+002, 9.552661e+000
9.062164e+002, 1.273767e+001
9.066985e+002, 1.359835e+001
9.071807e+002, 1.388199e+001
9.076628e+002, 1.382003e+001
9.081449e+002, 1.379525e+001
9.086270e+002, 1.449680e+001
9.091091e+002, 1.501716e+001
9.095912e+002, 1.404382e+001
9.100734e+002, 1.191920e+001
9.105555e+002, 9.848516e+000
9.110376e+002, 8.338099e+000
9.115197e+002, 7.657993e+000
9.120018e+002, 8.523138e+000
9.124839e+002, 1.025341e+001
9.129661e+002, 1.085505e+001
9.134482e+002, 1.085855e+001
9.139303e+002, 1.399101e+001
9.144124e+002, 2.112226e+001
9.148945e+002, 2.633322e+001
9.153766e+002, 2.388304e+001
9.158588e+002, 1.667450e+001
9.163409e+002, 1.428994e+001
9.168230e+002, 1.741990e+001
9.173051e+002, 1.848179e+001
9.177872e+002, 1.606773e+001
9.182693e+002, 1.420326e+001
9.187515e+002, 1.510798e+001
9.192336e+002, 1.730623e+001
9.197157e+002, 1.862317e+001
9.201978e+002, 1.902191e+001
9.206799e+002, 1.894072e+001
9.211620e+002, 1.806166e+001
9.216442e+002, 1.713607e+001
9.221263e+002, 1.642010e+001
9.226084e+002, 1.554382e+001
9.230905e+002, 1.387279e+001
9.235726e+002, 1.191949e+001
9.240547e+002, 1.081727e+001
9.245369e+002, 1.078474e+001
9.250190e+002, 1.159092e+001
9.255011e+002, 1.431993e+001
9.259832e+002, 1.664298e+001
9.264653e+002, 1.619378e+001
9.269474e+002, 1.480343e+001
9.274296e+002, 1.533174e+001
9.279117e+002, 1.792911e+001
9.283938e+002, 2.067119e+001
9.288759e+002, 2.288738e+001
9.293580e+002, 2.371576e+001
9.298401e+002, 2.065316e+001
9.303223e+002, 1.618295e+001
9.308044e+002, 1.581803e+001
9.312865e+002, 1.889304e+001
9.317686e+002, 2.017474e+001
9.322507e+002, 1.762996e+001
9.327328e+002, 1.498656e+001
9.332150e+002, 1.715499e+001
9.336971e+002, 2.231562e+001
9.341792e+002, 2.306810e+001
9.346613e+002, 1.941559e+001
9.351434e+002, 1.561174e+001
9.356255e+002, 1.227711e+001
9.361077e+002, 1.002030e+001
9.365898e+002, 9.351115e+000
9.370719e+002, 9.810331e+000
9.375540e+002, 1.033083e+001
9.380361e+002, 1.075418e+001
9.385182e+002, 1.225278e+001
9.390004e+002, 1.608579e+001
9.394825e+002, 1.850376e+001
9.399646e+002, 1.760356e+001
9.404467e+002, 1.574616e+001
9.409288e+002, 1.466125e+001
9.414109e+002, 1.439119e+001
9.418931e+002, 1.529260e+001
9.423752e+002, 1.848161e+001
9.428573e+002, 2.080016e+001
9.433394e+002, 2.110742e+001
9.438215e+002, 2.131288e+001
9.443036e+002, 2.214143e+001
9.447858e+002, 2.357767e+001
9.452679e+002, 2.586157e+001
9.457500e+002, 2.884584e+001
9.462321e+002, 3.115131e+001
9.467142e+002, 3.065067e+001
9.471964e+002, 3.131924e+001
9.476785e+002, 3.721725e+001
9.481606e+002, 4.434135e+001
9.486427e+002, 4.892183e+001
9.491248e+002, 5.060915e+001
9.496069e+002, 4.971158e+001
9.500891e+002, 4.640996e+001
9.505712e+002, 4.201836e+001
9.510533e+002, 3.744371e+001
9.515354e+002, 3.272732e+001
9.520175e+002, 2.703868e+001
9.524996e+002, 2.134925e+001
9.529818e+002, 1.932252e+001
9.534639e+002, 2.103348e+001
9.539460e+002, 2.177098e+001
9.544281e+002, 1.846032e+001
9.549102e+002, 1.361141e+001
9.553923e+002, 1.149390e+001
9.558745e+002, 1.187750e+001
9.563566e+002, 1.265835e+001
9.568387e+002, 1.377915e+001
9.573208e+002, 1.635135e+001
9.578029e+002, 2.103262e+001
9.582850e+002, 2.568040e+001
9.587672e+002, 2.861219e+001
9.592493e+002, 2.961127e+001
9.597314e+002, 2.755009e+001
9.602135e+002, 2.146906e+001
9.606956e+002, 1.559973e+001
9.611777e+002, 9.228401e+000
9.616599e+002, 4.947143e+000
9.621420e+002, 4.318697e+000
9.626241e+002, 5.874782e+000
9.631062e+002, 8.356540e+000
9.635883e+002, 1.175086e+001
9.640704e+002, 1.377528e+001
9.645526e+002, 1.316304e+001
9.650347e+002, 1.311809e+001
9.655168e+002, 1.547287e+001
9.659989e+002, 1.681049e+001
9.664810e+002, 1.286588e+001
9.669631e+002, 7.803379e+000
9.674453e+002, 9.264752e+000
9.679274e+002, 1.840711e+001
9.684095e+002, 2.468766e+001
9.688916e+002, 2.555434e+001
9.693737e+002, 2.243449e+001
9.698558e+002, 1.146328e+001
9.703380e+002, 4.165206e-001
9.708201e+002, -3.623405e+000
9.713022e+002, -1.298849e+000
9.717843e+002, 5.120908e+000
9.722664e+002, 1.528456e+001
9.727485e+002, 2.275444e+001
9.732307e+002, 2.156690e+001
9.737128e+002, 1.712678e+001
9.741949e+002, 1.353948e+001
9.746770e+002, 1.104590e+001
9.751591e+002, 1.027746e+001
9.756412e+002, 1.082191e+001
9.761234e+002, 1.041088e+001
9.766055e+002, 7.535203e+000
9.770876e+002, 5.364791e+000
9.775697e+002, 9.611762e+000
9.780518e+002, 1.659845e+001
9.785339e+002, 1.780025e+001
9.790161e+002, 1.413053e+001
9.794982e+002, 1.066738e+001
9.799803e+002, 8.761910e+000
9.804625e+002, 6.853323e+000
9.809446e+002, 3.418308e+000
9.814267e+002, 1.586860e-001
9.819088e+002, 1.566906e+000
9.823909e+002, 7.034513e+000
9.828730e+002, 1.056719e+001
9.833552e+002, 1.176652e+001
9.838373e+002, 1.258977e+001
9.843194e+002, 1.376042e+001
9.848015e+002, 1.467219e+001
9.852836e+002, 1.449285e+001
9.857657e+002, 1.367295e+001
9.862479e+002, 1.497901e+001
9.867300e+002, 1.937861e+001
9.872121e+002, 2.008482e+001
9.876942e+002, 1.450806e+001
9.881763e+002, 1.166910e+001
9.886584e+002, 1.759266e+001
9.891406e+002, 2.540349e+001
9.896227e+002, 2.504434e+001
9.901048e+002, 1.662377e+001
9.905869e+002, 1.308541e+001
9.910690e+002, 1.783831e+001
9.915511e+002, 2.080622e+001
9.920333e+002, 2.002566e+001
9.925154e+002, 1.851201e+001
9.929975e+002, 1.783927e+001
9.934796e+002, 1.742029e+001
9.939617e+002, 1.648441e+001
9.944438e+002, 1.506453e+001
9.949260e+002, 1.264644e+001
9.954081e+002, 5.305182e+000
9.958902e+002, 2.384625e+000
9.963723e+002, 1.007086e+001
9.968544e+002, 1.867022e+001
9.973365e+002, 2.120994e+001
9.978187e+002, 2.000197e+001
9.983008e+002, 2.072695e+001
9.987829e+002, 2.470352e+001
9.992650e+002, 2.539534e+001
9.997471e+002, 1.642831e+001
1.000229e+003, 9.183414e+000
1.000711e+003, 1.081359e+001
1.001193e+003, 1.509250e+001
1.001676e+003, 1.619548e+001
1.002158e+003, 1.458873e+001
1.002640e+003, 1.310449e+001
1.003122e+003, 1.258521e+001
1.003604e+003, 1.236926e+001
1.004086e+003, 1.248857e+001
1.004568e+003, 1.234173e+001
1.005050e+003, 1.046537e+001
1.005533e+003, 8.604393e+000
1.006015e+003, 9.719350e+000
1.006497e+003, 1.327955e+001
1.006979e+003, 1.636904e+001
1.007461e+003, 1.774103e+001
1.007943e+003, 1.793101e+001
1.008425e+003, 1.694210e+001
1.008907e+003, 1.539859e+001
1.009389e+003, 1.420688e+001
1.009872e+003, 1.307555e+001
1.010354e+003, 1.085208e+001
1.010836e+003, 7.791152e+000
1.011318e+003, 5.969645e+000
1.011800e+003, 6.634385e+000
1.012282e+003, 8.668142e+000
1.012764e+003, 1.130428e+001
1.013246e+003, 1.402767e+001
1.013729e+003, 1.601025e+001
1.014211e+003, 1.707240e+001
1.014693e+003, 1.611289e+001
1.015175e+003, 1.319121e+001
1.015657e+003, 1.083234e+001
1.016139e+003, 1.078998e+001
1.016621e+003, 1.229603e+001
1.017103e+003, 1.511005e+001
1.017585e+003, 1.837284e+001
1.018068e+003, 1.712864e+001
1.018550e+003, 1.185924e+001
1.019032e+003, 9.276001e+000
1.019514e+003, 1.127610e+001
1.019996e+003, 1.273328e+001
1.020478e+003, 9.067760e+000
1.020960e+003, 3.633743e+000
1.021442e+003, 5.524363e+000
1.021924e+003, 1.429788e+001
1.022407e+003, 1.806426e+001
1.022889e+003, 1.620699e+001
1.023371e+003, 1.272896e+001
1.023853e+003, 8.399084e+000
1.024335e+003, 6.017090e+000
1.024817e+003, 8.484091e+000
1.025299e+003, 1.407607e+001
1.025781e+003, 1.735055e+001
1.026264e+003, 1.800338e+001
1.026746e+003, 1.924387e+001
1.027228e+003, 2.166713e+001
1.027710e+003, 2.194755e+001
1.028192e+003, 1.807152e+001
1.028674e+003, 1.437311e+001
1.029156e+003, 1.566129e+001
1.029638e+003, 2.008899e+001
1.030120e+003, 1.959742e+001
1.030603e+003, 1.180279e+001
1.031085e+003, 8.330428e+000
1.031567e+003, 1.139841e+001
1.032049e+003, 1.371424e+001
1.032531e+003, 1.226750e+001
1.033013e+003, 9.978189e+000
1.033495e+003, 9.814849e+000
1.033977e+003, 1.130630e+001
1.034459e+003, 1.212736e+001
1.034942e+003, 1.247027e+001
1.035424e+003, 1.151204e+001
1.035906e+003, 7.123085e+000
1.036388e+003, 5.160263e+000
1.036870e+003, 9.813043e+000
1.037352e+003, 1.544108e+001
1.037834e+003, 1.641085e+001
1.038316e+003, 1.338997e+001
1.038799e+003, 1.026695e+001
1.039281e+003, 4.527742e+000
1.039763e+003, 3.591871e+000
1.040245e+003, 1.346072e+001
1.040727e+003, 2.042254e+001
1.041209e+003, 1.749047e+001
1.041691e+003, 1.178221e+001
1.042173e+003, 9.497336e+000
1.042656e+003, 1.027484e+001
1.043138e+003, 1.230341e+001
1.043620e+003, 1.774752e+001
1.044102e+003, 1.994855e+001
1.044584e+003, 1.509103e+001
1.045066e+003, 1.118441e+001
1.045548e+003, 1.277396e+001
1.046030e+003, 1.539225e+001
1.046512e+003, 1.347595e+001
1.046995e+003, 8.418334e+000
1.047477e+003, 7.560159e+000
1.047959e+003, 1.519819e+001
1.048441e+003, 1.893059e+001
1.048923e+003, 1.179857e+001
1.049405e+003, 6.681081e+000
1.049887e+003, 1.114062e+001
1.050369e+003, 1.838677e+001
1.050851e+003, 2.224721e+001
1.051334e+003, 2.262481e+001
1.051816e+003, 2.095711e+001
1.052298e+003, 1.657366e+001
1.052780e+003, 1.269308e+001
1.053262e+003, 9.505976e+000
1.053744e+003, 7.601841e+000
1.054226e+003, 7.632005e+000
1.054708e+003, 8.778890e+000
1.055191e+003, 1.072528e+001
1.055673e+003, 1.304561e+001
1.056155e+003, 1.470398e+001
1.056637e+003, 1.554876e+001
1.057119e+003, 1.548518e+001
1.057601e+003, 1.282764e+001
1.058083e+003, 1.123874e+001
1.058565e+003, 1.402568e+001
1.059047e+003, 1.761260e+001
1.059530e+003, 1.837794e+001
1.060012e+003, 1.667635e+001
1.060494e+003, 1.468739e+001
1.060976e+003, 1.293692e+001
1.061458e+003, 1.090394e+001
1.061940e+003, 6.106091e+000
1.062422e+003, 3.713607e+000
1.062904e+003, 9.548595e+000
1.063386e+003, 1.661711e+001
1.063869e+003, 1.724933e+001
1.064351e+003, 1.311097e+001
1.064833e+003, 1.052484e+001
1.065315e+003, 1.127560e+001
1.065797e+003, 1.198265e+001
1.066279e+003, 1.162884e+001
1.066761e+003, 1.045917e+001
1.067243e+003, 6.881925e+000
1.067726e+003, 3.965533e+000
1.068208e+003, 5.929188e+000
1.068690e+003, 1.076524e+001
1.069172e+003, 1.321099e+001
1.069654e+003, 1.185029e+001
1.070136e+003, 1.010757e+001
1.070618e+003, 8.947145e+000
1.071100e+003, 8.409842e+000
1.071583e+003, 9.110771e+000
1.072065e+003, 9.939238e+000
1.072547e+003, 9.934542e+000
1.073029e+003, 9.197639e+000
1.073511e+003, 7.632349e+000
1.073993e+003, 5.268374e+000
1.074475e+003, 4.744646e+000
1.074957e+003, 9.920320e+000
1.075439e+003, 1.376350e+001
1.075922e+003, 1.057703e+001
1.076404e+003, 6.444550e+000
1.076886e+003, 7.868862e+000
1.077368e+003, 1.201729e+001
1.077850e+003, 1.249695e+001
1.078332e+003, 8.397264e+000
1.078814e+003, 5.104281e+000
1.079296e+003, 4.312594e+000
1.079779e+003, 5.721323e+000
1.080261e+003, 1.184149e+001
1.080743e+003, 1.754642e+001
1.081225e+003, 1.788822e+001
1.081707e+003, 1.523682e+001
1.082189e+003, 1.339142e+001
1.082671e+003, 1.300973e+001
1.083153e+003, 1.323286e+001
1.083635e+003, 1.415933e+001
1.084118e+003, 1.483946e+001
1.084600e+003, 1.502480e+001
1.085082e+003, 1.462126e+001
1.085564e+003, 1.289450e+001
1.086046e+003, 1.093356e+001
1.086528e+003, 1.035016e+001
1.087010e+003, 1.107324e+001
1.087492e+003, 1.164057e+001
1.087974e+003, 1.150003e+001
1.088457e+003, 1.136667e+001
1.088939e+003, 1.154945e+001
1.089421e+003, 1.182091e+001
1.089903e+003, 1.198257e+001
1.090385e+003, 1.219380e+001
1.090867e+003, 1.281886e+001
1.091349e+003, 1.367678e+001
1.091831e+003, 1.404218e+001
1.092314e+003, 1.357561e+001
1.092796e+003, 1.321718e+001
1.093278e+003, 1.430873e+001
1.093760e+003, 1.438083e+001
1.094242e+003, 1.158302e+001
1.094724e+003, 7.649350e+000
1.095206e+003, 2.220510e+000
1.095688e+003, -2.508964e+000
1.096171e+003, -3.934254e-001
1.096653e+003, 1.111100e+001
1.097135e+003, 1.847589e+001
1.097617e+003, 1.479370e+001
1.098099e+003, 1.005779e+001
1.098581e+003, 6.891551e+000
1.099063e+003, 5.432731e+000
1.099545e+003, 6.945636e+000
1.100027e+003, 9.707709e+000
1.100510e+003, 1.025345e+001
1.100992e+003, 8.055513e+000
1.101474e+003, 7.001139e+000
1.101956e+003, 9.093709e+000
1.102438e+003, 1.082855e+001
1.102920e+003, 1.191839e+001
1.103402e+003, 1.171184e+001
1.103884e+003, 7.890210e+000
1.104366e+003, 3.633451e+000
1.104849e+003, 4.338072e+000
1.105331e+003, 9.841275e+000
1.105813e+003, 1.264461e+001
1.106295e+003, 8.415506e+000
1.106777e+003, 6.532197e+000
1.107259e+003, 1.161164e+001
1.107741e+003, 1.526986e+001
1.108223e+003, 1.101064e+001
1.108706e+003, 5.475052e+000
1.109188e+003, 6.719349e+000
1.109670e+003, 1.343632e+001
1.110152e+003, 1.763706e+001
1.110634e+003, 1.826014e+001
1.111116e+003, 1.772980e+001
1.111598e+003, 1.418397e+001
1.112080e+003, 1.211885e+001
1.112563e+003, 1.413857e+001
1.113045e+003, 1.692641e+001
1.113527e+003, 1.858382e+001
1.114009e+003, 1.885866e+001
1.114491e+003, 1.645183e+001
1.114973e+003, 9.764260e+000
1.115455e+003, 7.377812e+000
1.115937e+003, 1.220965e+001
1.116419e+003, 1.632817e+001
1.116901e+003, 1.919397e+001
1.117384e+003, 1.969522e+001
1.117866e+003, 1.530817e+001
1.118348e+003, 9.737452e+000
1.118830e+003, 9.956021e+000
1.119312e+003, 1.622478e+001
1.119794e+003, 1.805739e+001
1.120276e+003, 1.253190e+001
1.120758e+003, 1.060096e+001
1.121241e+003, 1.607432e+001
1.121723e+003, 1.863512e+001
1.122205e+003, 1.130310e+001
1.122687e+003, 3.218673e+000
1.123169e+003, 6.279623e+000
1.123651e+003, 1.790726e+001
1.124133e+003, 2.284198e+001
1.124615e+003, 1.956506e+001
1.125098e+003, 1.651368e+001
1.125580e+003, 1.342449e+001
1.126062e+003, 1.367971e+001
1.126544e+003, 1.981873e+001
1.127026e+003, 2.410565e+001
1.127508e+003, 1.931704e+001
1.127990e+003, 9.491350e+000
1.128472e+003, 4.605117e+000
1.128954e+003, 4.767175e+000
1.129437e+003, 5.700783e+000
1.129919e+003, 7.411441e+000
1.130401e+003, 1.049857e+001
1.130883e+003, 1.539913e+001
1.131365e+003, 1.765164e+001
1.131847e+003, 1.427147e+001
1.132329e+003, 8.896559e+000
1.132811e+003, 6.577286e+000
1.133293e+003, 7.181490e+000
1.133776e+003, 1.158766e+001
1.134258e+003, 1.900297e+001
1.134740e+003, 2.108870e+001
1.135222e+003, 1.736982e+001
1.135704e+003, 1.575657e+001
1.136186e+003, 1.942296e+001
1.136668e+003, 2.284406e+001
1.137150e+003, 2.046543e+001
1.137633e+003, 1.474285e+001
1.138115e+003, 8.817836e+000
1.138597e+003, 4.048731e+000
1.139079e+003, 6.219113e+000
1.139561e+003, 1.359865e+001
1.140043e+003, 1.863747e+001
1.140525e+003, 1.936688e+001
1.141007e+003, 1.696005e+001
1.141490e+003, 1.183394e+001
1.141972e+003, 6.442834e+000
1.142454e+003, 3.161510e+000
1.142936e+003, 1.917872e+000
1.143418e+003, 4.036520e+000
1.143900e+003, 7.517269e+000
1.144382e+003, 7.037965e+000
1.144864e+003, 3.717021e+000
1.145346e+003, 5.034907e+000
1.145828e+003, 1.370865e+001
1.146311e+003, 2.063013e+001
1.146793e+003, 1.656415e+001
1.147275e+003, 1.016361e+001
1.147757e+003, 9.189150e+000
1.148239e+003, 1.055284e+001
1.148721e+003, 1.091035e+001
1.149203e+003, 1.055848e+001
1.149685e+003, 1.135372e+001
1.150168e+003, 1.323507e+001
1.150650e+003, 1.301277e+001
1.151132e+003, 7.789660e+000
1.151614e+003, 3.713865e+000
1.152096e+003, 3.901897e+000
1.152578e+003, 6.364672e+000
1.153060e+003, 1.216513e+001
1.153542e+003, 1.768509e+001
1.154025e+003, 1.865524e+001
1.154507e+003, 1.567672e+001
1.154989e+003, 1.171761e+001
1.155471e+003, 6.884722e+000
1.155953e+003, 3.598581e+000
1.156435e+003, 2.417965e+000
1.156917e+003, 2.833021e+000
1.157399e+003, 6.619628e+000
1.157881e+003, 9.962167e+000
1.158364e+003, 9.085093e+000
1.158846e+003, 6.597887e+000
1.159328e+003, 7.199222e+000
1.159810e+003, 1.111933e+001
1.160292e+003, 1.423133e+001
1.160774e+003, 1.721599e+001
1.161256e+003, 1.791979e+001
1.161738e+003, 1.327532e+001
1.162220e+003, 1.143109e+001
1.162703e+003, 1.758002e+001
1.163185e+003, 2.460710e+001
1.163667e+003, 2.588226e+001
1.164149e+003, 2.261399e+001
1.164631e+003, 1.838674e+001
1.165113e+003, 1.247699e+001
1.165595e+003, 1.065283e+001
1.166077e+003, 1.434017e+001
1.166560e+003, 1.542884e+001
1.167042e+003, 1.155313e+001
1.167524e+003, 8.057858e+000
1.168006e+003, 8.141112e+000
1.168488e+003, 1.024520e+001
1.168970e+003, 1.236905e+001
1.169452e+003, 1.428436e+001
1.169934e+003, 1.381245e+001
1.170417e+003, 1.136353e+001
1.170899e+003, 1.467378e+001
1.171381e+003, 2.379786e+001
1.171863e+003, 2.726598e+001
1.172345e+003, 2.139154e+001
1.172827e+003, 1.448294e+001
1.173309e+003, 1.347152e+001
1.173791e+003, 1.441593e+001
1.174273e+003, 9.711284e+000
1.174755e+003, 2.408910e+000
1.175238e+003, -6.223481e-001
1.175720e+003, 1.286354e-001
1.176202e+003, 3.810883e+000
1.176684e+003, 9.277330e+000
1.177166e+003, 1.285590e+001
1.177648e+003, 1.301940e+001
1.178130e+003, 1.298586e+001
1.178612e+003, 1.682270e+001
1.179095e+003, 2.020548e+001
1.179577e+003, 1.789011e+001
1.180059e+003, 1.335088e+001
1.180541e+003, 9.387375e+000
1.181023e+003, 7.195358e+000
1.181505e+003, 9.691485e+000
1.181987e+003, 1.602238e+001
1.182469e+003, 1.877526e+001
1.182952e+003, 1.334868e+001
1.183434e+003, 8.717747e+000
1.183916e+003, 9.223407e+000
1.184398e+003, 1.119453e+001
1.184880e+003, 1.399976e+001
1.185362e+003, 1.609381e+001
1.185844e+003, 1.584279e+001
1.186326e+003, 1.384044e+001
1.186808e+003, 1.115228e+001
1.187291e+003, 7.514644e+000
1.187773e+003, 6.623736e+000
1.188255e+003, 1.145822e+001
1.188737e+003, 1.499858e+001
1.189219e+003, 1.787883e+001
1.189701e+003, 1.718739e+001
1.190183e+003, 7.763633e+000
1.190665e+003, -1.003645e+000
1.191147e+003, 3.083845e+000
1.191630e+003, 1.574342e+001
1.192112e+003, 1.787409e+001
1.192594e+003, 6.232192e+000
1.193076e+003, 5.601145e-001
1.193558e+003, 1.676119e+000
1.194040e+003, 5.198590e+000
1.194522e+003, 1.083833e+001
1.195004e+003, 1.446290e+001
1.195487e+003, 1.334521e+001
1.195969e+003, 1.023221e+001
1.196451e+003, 8.847532e+000
1.196933e+003, 8.802362e+000
1.197415e+003, 8.730416e+000
1.197897e+003, 8.635454e+000
1.198379e+003, 8.016642e+000
1.198861e+003, 7.227345e+000
1.199344e+003, 9.744047e+000
1.199826e+003, 1.590007e+001
1.200308e+003, 1.878858e+001
1.200790e+003, 1.327191e+001
1.201272e+003, 5.428656e+000
1.201754e+003, 1.117841e+000
1.202236e+003, 2.042741e-001
1.202718e+003, 4.385177e+000
1.203200e+003, 1.074636e+001
1.203682e+003, 1.474217e+001
1.204165e+003, 1.626040e+001
1.204647e+003, 1.698817e+001
1.205129e+003, 1.739116e+001
1.205611e+003, 1.660358e+001
1.206093e+003, 1.268121e+001
1.206575e+003, 9.940490e+000
1.207057e+003, 1.174794e+001
1.207539e+003, 1.422581e+001
1.208022e+003, 1.469100e+001
1.208504e+003, 1.434396e+001
1.208986e+003, 1.535235e+001
1.209468e+003, 1.698757e+001
1.209950e+003, 1.637453e+001
1.210432e+003, 1.313164e+001
1.210914e+003, 7.885457e+000
1.211396e+003, -6.899549e+000
1.211879e+003, -1.140329e+001
1.212361e+003, 5.001020e+000
1.212843e+003, 1.982369e+001
1.213325e+003, 2.103214e+001
1.213807e+003, 1.605548e+001
1.214289e+003, 1.341819e+001
1.214771e+003, 1.265872e+001
1.215253e+003, 1.156949e+001
1.215735e+003, 1.012005e+001
1.216218e+003, 8.563356e+000
1.216700e+003, 6.851670e+000
1.217182e+003, 5.748342e+000
1.217664e+003, 5.429700e+000
1.218146e+003, 5.625434e+000
1.218628e+003, 6.187871e+000
1.219110e+003, 7.037627e+000
1.219592e+003, 8.140518e+000
1.220074e+003, 9.370449e+000
1.220557e+003, 1.061804e+001
1.221039e+003, 1.168004e+001
1.221521e+003, 1.203492e+001
1.222003e+003, 1.170388e+001
1.222485e+003, 1.037859e+001
1.222967e+003, 8.418941e+000
1.223449e+003, 8.237842e+000
1.223931e+003, 1.157873e+001
1.224414e+003, 1.414031e+001
1.224896e+003, 1.150743e+001
1.225378e+003, 7.917609e+000
1.225860e+003, 6.436226e+000
1.226342e+003, 6.135159e+000
1.226824e+003, 5.921613e+000
1.227306e+003, 6.041250e+000
1.227788e+003, 7.823010e+000
1.228271e+003, 1.116229e+001
1.228753e+003, 1.226116e+001
1.229235e+003, 7.205893e+000
1.229717e+003, 5.531356e+000
1.230199e+003, 1.288726e+001
1.230681e+003, 1.774492e+001
1.231163e+003, 1.446868e+001
1.231645e+003, 1.016483e+001
1.232127e+003, 1.031878e+001
1.232609e+003, 1.260861e+001
1.233092e+003, 1.224827e+001
1.233574e+003, 9.355121e+000
1.234056e+003, 9.581866e+000
1.234538e+003, 1.344768e+001
1.235020e+003, 1.612655e+001
1.235502e+003, 1.714968e+001
1.235984e+003, 1.705440e+001
1.236466e+003, 1.597616e+001
1.236949e+003, 1.517250e+001
1.237431e+003, 1.568414e+001
1.237913e+003, 1.664558e+001
1.238395e+003, 1.728424e+001
1.238877e+003, 1.699294e+001
1.239359e+003, 1.277889e+001
1.239841e+003, 7.032175e+000
1.240323e+003, 5.997112e+000
1.240806e+003, 8.914983e+000
1.241288e+003, 1.107213e+001
1.241770e+003, 1.113891e+001
1.242252e+003, 1.089529e+001
1.242734e+003, 1.135026e+001
1.243216e+003, 1.169531e+001
1.243698e+003, 1.119085e+001
1.244180e+003, 1.064548e+001
1.244662e+003, 1.054636e+001
1.245145e+003, 1.075403e+001
1.245627e+003, 1.105795e+001
1.246109e+003, 1.154518e+001
1.246591e+003, 1.277520e+001
1.247073e+003, 1.490495e+001
1.247555e+003, 1.538845e+001
1.248037e+003, 1.243199e+001
1.248519e+003, 1.102576e+001
1.249001e+003, 1.208467e+001
1.249484e+003, 1.334592e+001
1.249966e+003, 1.444785e+001
1.250448e+003, 1.449481e+001
1.250930e+003, 1.226481e+001
1.251412e+003, 9.775466e+000
1.251894e+003, 1.168540e+001
1.252376e+003, 1.689374e+001
1.252858e+003, 1.606225e+001
1.253341e+003, 1.010747e+001
1.253823e+003, 6.804972e+000
1.254305e+003, 6.933842e+000
1.254787e+003, 1.053971e+001
1.255269e+003, 1.702841e+001
1.255751e+003, 2.135771e+001
1.256233e+003, 2.005718e+001
1.256715e+003, 1.630762e+001
1.257198e+003, 1.162475e+001
1.257680e+003, 8.185413e+000
1.258162e+003, 9.571704e+000
1.258644e+003, 1.280666e+001
1.259126e+003, 1.399964e+001
1.259608e+003, 1.391621e+001
1.260090e+003, 1.567442e+001
1.260572e+003, 1.929088e+001
1.261054e+003, 2.005216e+001
1.261536e+003, 1.484426e+001
1.262019e+003, 1.087539e+001
1.262501e+003, 9.705656e+000
1.262983e+003, 9.761795e+000
1.263465e+003, 1.187608e+001
1.263947e+003, 1.338115e+001
1.264429e+003, 1.256783e+001
1.264911e+003, 1.013706e+001
1.265393e+003, 6.465444e+000
1.265876e+003, 2.271151e+000
1.266358e+003, 3.463603e+000
1.266840e+003, 1.055201e+001
1.267322e+003, 1.269967e+001
1.267804e+003, 9.496828e+000
1.268286e+003, 6.575439e+000
1.268768e+003, 5.384670e+000
1.269250e+003, 7.237018e+000
1.269733e+003, 1.291620e+001
1.270215e+003, 1.787368e+001
1.270697e+003, 1.697053e+001
1.271179e+003, 1.287648e+001
1.271661e+003, 7.608456e+000
1.272143e+003, 3.005553e+000
1.272625e+003, 1.847758e+000
1.273107e+003, 3.301130e+000
1.273589e+003, 6.420088e+000
1.274072e+003, 1.027731e+001
1.274554e+003, 1.280453e+001
1.275036e+003, 1.332815e+001
1.275518e+003, 1.334426e+001
1.276000e+003, 1.276998e+001
1.276482e+003, 1.255679e+001
1.276964e+003, 1.520512e+001
1.277446e+003, 1.529857e+001
1.277929e+003, 7.056760e+000
1.278411e+003, -8.811545e-001
1.278893e+003, 5.047525e-001
1.279375e+003, 7.846934e+000
1.279857e+003, 1.228524e+001
1.280339e+003, 1.379883e+001
1.280821e+003, 1.225050e+001
1.281303e+003, 7.547081e+000
1.281786e+003, 5.668368e+000
1.282268e+003, 7.420466e+000
##END=



