##NAMES=Hoganite
##RRUFFID=R190035
##IDEAL CHEMISTRY=Cu^2+^(CH_3_COO)_2_&#183;H_2_O
##LOCALITY=Holbrook Shaft, Level 100, Bisbee, Warren District, Cochise County, Arizona
##OWNER=RRUFF
##SOURCE=Robert Lavinsky
##DESCRIPTION=
##STATUS=The identification of this mineral has been confirmed only by single crystal X-ray diffraction.
##URL=rruff.info/R190035
1.421970e+002, 2.179088e+002
1.441255e+002, 2.081001e+002
1.460540e+002, 2.000892e+002
1.479824e+002, 1.947783e+002
1.499109e+002, 1.907071e+002
1.518394e+002, 1.873124e+002
1.537678e+002, 1.848011e+002
1.556963e+002, 1.831181e+002
1.576248e+002, 1.821174e+002
1.595532e+002, 1.834956e+002
1.614817e+002, 1.858297e+002
1.634102e+002, 1.928820e+002
1.653386e+002, 2.075039e+002
1.672671e+002, 2.269405e+002
1.691956e+002, 2.481120e+002
1.711240e+002, 2.708935e+002
1.730525e+002, 2.921767e+002
1.749810e+002, 3.146721e+002
1.769094e+002, 3.311639e+002
1.788379e+002, 3.417975e+002
1.807664e+002, 3.444354e+002
1.826948e+002, 3.360042e+002
1.846233e+002, 3.179956e+002
1.865518e+002, 2.945534e+002
1.884802e+002, 2.590759e+002
1.904087e+002, 2.303309e+002
1.923372e+002, 2.127392e+002
1.942656e+002, 1.997628e+002
1.961941e+002, 1.865145e+002
1.981226e+002, 1.751600e+002
2.000510e+002, 1.714041e+002
2.019795e+002, 1.791386e+002
2.039080e+002, 1.843996e+002
2.058364e+002, 1.842990e+002
2.077649e+002, 1.847592e+002
2.096934e+002, 1.877155e+002
2.116218e+002, 1.926988e+002
2.135503e+002, 1.994929e+002
2.154788e+002, 2.083381e+002
2.174072e+002, 2.169017e+002
2.193357e+002, 2.261639e+002
2.212642e+002, 2.335493e+002
2.231926e+002, 2.373439e+002
2.251211e+002, 2.403038e+002
2.270496e+002, 2.454641e+002
2.289780e+002, 2.514973e+002
2.309065e+002, 2.531043e+002
2.328350e+002, 2.498458e+002
2.347634e+002, 2.423257e+002
2.366919e+002, 2.277812e+002
2.386204e+002, 2.132644e+002
2.405488e+002, 2.011704e+002
2.424773e+002, 1.915139e+002
2.444058e+002, 1.846586e+002
2.463342e+002, 1.807344e+002
2.482627e+002, 1.787083e+002
2.501912e+002, 1.792611e+002
2.521196e+002, 1.794262e+002
2.540481e+002, 1.784544e+002
2.559766e+002, 1.767720e+002
2.579050e+002, 1.746105e+002
2.598335e+002, 1.719753e+002
2.617620e+002, 1.683685e+002
2.636904e+002, 1.635367e+002
2.656189e+002, 1.610528e+002
2.675474e+002, 1.620563e+002
2.694758e+002, 1.635251e+002
2.714043e+002, 1.649173e+002
2.733328e+002, 1.657189e+002
2.752612e+002, 1.644121e+002
2.771897e+002, 1.619479e+002
2.791182e+002, 1.627312e+002
2.810466e+002, 1.667482e+002
2.829751e+002, 1.732616e+002
2.849036e+002, 1.853938e+002
2.868320e+002, 1.948214e+002
2.887605e+002, 1.961271e+002
2.906890e+002, 1.948520e+002
2.926174e+002, 1.980078e+002
2.945459e+002, 2.046174e+002
2.964744e+002, 2.094742e+002
2.984028e+002, 2.121607e+002
3.003313e+002, 2.142966e+002
3.022598e+002, 2.152519e+002
3.041882e+002, 2.169633e+002
3.061167e+002, 2.199323e+002
3.080452e+002, 2.242299e+002
3.099736e+002, 2.313624e+002
3.119021e+002, 2.402276e+002
3.138306e+002, 2.455153e+002
3.157590e+002, 2.459311e+002
3.176875e+002, 2.452204e+002
3.196160e+002, 2.449321e+002
3.215444e+002, 2.428418e+002
3.234729e+002, 2.375724e+002
3.254014e+002, 2.300546e+002
3.273298e+002, 2.215898e+002
3.292583e+002, 2.121400e+002
3.311868e+002, 2.009196e+002
3.331152e+002, 1.854626e+002
3.350437e+002, 1.739456e+002
3.369722e+002, 1.703937e+002
3.389006e+002, 1.669826e+002
3.408291e+002, 1.590271e+002
3.427576e+002, 1.501400e+002
3.446860e+002, 1.442768e+002
3.466145e+002, 1.411777e+002
3.485430e+002, 1.389119e+002
3.504714e+002, 1.374227e+002
3.523999e+002, 1.367921e+002
3.543284e+002, 1.383779e+002
3.562568e+002, 1.390467e+002
3.581853e+002, 1.355750e+002
3.601138e+002, 1.322477e+002
3.620422e+002, 1.341636e+002
3.639707e+002, 1.400648e+002
3.658992e+002, 1.416070e+002
3.678276e+002, 1.361249e+002
3.697561e+002, 1.322733e+002
3.716846e+002, 1.304366e+002
3.736130e+002, 1.295967e+002
3.755415e+002, 1.313997e+002
3.774700e+002, 1.319869e+002
3.793984e+002, 1.267149e+002
3.813269e+002, 1.185095e+002
3.832554e+002, 1.160171e+002
3.851838e+002, 1.208778e+002
3.871123e+002, 1.234611e+002
3.890408e+002, 1.234759e+002
3.909693e+002, 1.220095e+002
3.928977e+002, 1.179912e+002
3.948262e+002, 1.144175e+002
3.967547e+002, 1.132262e+002
3.986831e+002, 1.132684e+002
4.006116e+002, 1.123629e+002
4.025401e+002, 1.106941e+002
4.044685e+002, 1.133379e+002
4.063970e+002, 1.217815e+002
4.083255e+002, 1.256744e+002
4.102539e+002, 1.221603e+002
4.121824e+002, 1.162860e+002
4.141109e+002, 1.066901e+002
4.160393e+002, 9.908955e+001
4.179678e+002, 9.974669e+001
4.198963e+002, 1.055110e+002
4.218247e+002, 1.073775e+002
4.237532e+002, 1.054904e+002
4.256817e+002, 1.057009e+002
4.276101e+002, 1.094685e+002
4.295386e+002, 1.109060e+002
4.314671e+002, 1.045780e+002
4.333955e+002, 1.005247e+002
4.353240e+002, 1.052409e+002
4.372525e+002, 1.123694e+002
4.391809e+002, 1.146006e+002
4.411094e+002, 1.132456e+002
4.430379e+002, 1.135643e+002
4.449663e+002, 1.155620e+002
4.468948e+002, 1.158512e+002
4.488233e+002, 1.135850e+002
4.507517e+002, 1.104961e+002
4.526802e+002, 1.047599e+002
4.546087e+002, 1.011161e+002
4.565371e+002, 1.034738e+002
4.584656e+002, 1.080929e+002
4.603941e+002, 1.103870e+002
4.623225e+002, 1.110286e+002
4.642510e+002, 1.119205e+002
4.661795e+002, 1.131822e+002
4.681079e+002, 1.137875e+002
4.700364e+002, 1.144724e+002
4.719649e+002, 1.127612e+002
4.738933e+002, 1.050708e+002
4.758218e+002, 9.887849e+001
4.777503e+002, 9.890366e+001
4.796787e+002, 1.016854e+002
4.816072e+002, 1.038655e+002
4.835357e+002, 1.055592e+002
4.854641e+002, 1.069248e+002
4.873926e+002, 1.079023e+002
4.893211e+002, 1.091687e+002
4.912495e+002, 1.118661e+002
4.931780e+002, 1.130771e+002
4.951065e+002, 1.109321e+002
4.970349e+002, 1.094148e+002
4.989634e+002, 1.105750e+002
5.008919e+002, 1.127352e+002
5.028203e+002, 1.156898e+002
5.047488e+002, 1.181071e+002
5.066773e+002, 1.168863e+002
5.086057e+002, 1.118167e+002
5.105342e+002, 1.058266e+002
5.124626e+002, 9.669228e+001
5.143911e+002, 9.110390e+001
5.163196e+002, 8.907131e+001
5.182480e+002, 9.085960e+001
5.201765e+002, 1.010147e+002
5.221050e+002, 1.093953e+002
5.240334e+002, 1.084910e+002
5.259619e+002, 1.028407e+002
5.278904e+002, 9.630759e+001
5.298188e+002, 8.964466e+001
5.317473e+002, 8.692424e+001
5.336758e+002, 8.855124e+001
5.356042e+002, 9.346853e+001
5.375327e+002, 1.039709e+002
5.394612e+002, 1.098703e+002
5.413896e+002, 1.067024e+002
5.433181e+002, 1.032901e+002
5.452466e+002, 1.058240e+002
5.471750e+002, 1.073631e+002
5.491035e+002, 1.002811e+002
5.510320e+002, 9.097274e+001
5.529604e+002, 9.161027e+001
5.548889e+002, 1.003079e+002
5.568174e+002, 1.024377e+002
5.587458e+002, 9.781902e+001
5.606743e+002, 9.577318e+001
5.626028e+002, 9.808746e+001
5.645313e+002, 9.846003e+001
5.664597e+002, 9.364480e+001
5.683882e+002, 8.945240e+001
5.703167e+002, 8.779242e+001
5.722451e+002, 8.776534e+001
5.741736e+002, 9.021904e+001
5.761021e+002, 9.296624e+001
5.780305e+002, 9.192476e+001
5.799590e+002, 8.835333e+001
5.818875e+002, 8.691338e+001
5.838159e+002, 8.756856e+001
5.857444e+002, 9.064307e+001
5.876729e+002, 9.721773e+001
5.896013e+002, 1.007273e+002
5.915298e+002, 9.727459e+001
5.934583e+002, 9.495900e+001
5.953867e+002, 9.583000e+001
5.973152e+002, 9.830800e+001
5.992437e+002, 1.042412e+002
6.011721e+002, 1.090061e+002
6.031006e+002, 1.054875e+002
6.050291e+002, 9.819156e+001
6.069575e+002, 9.644963e+001
6.088860e+002, 9.903060e+001
6.108145e+002, 9.976009e+001
6.127429e+002, 9.804765e+001
6.146714e+002, 9.711079e+001
6.165999e+002, 9.872864e+001
6.185283e+002, 9.810371e+001
6.204568e+002, 9.092065e+001
6.223853e+002, 8.710808e+001
6.243137e+002, 9.354921e+001
6.262422e+002, 9.961943e+001
6.281707e+002, 9.708138e+001
6.300991e+002, 9.215308e+001
6.320276e+002, 9.119315e+001
6.339561e+002, 9.261884e+001
6.358845e+002, 9.362798e+001
6.378130e+002, 9.424309e+001
6.397415e+002, 9.528439e+001
6.416700e+002, 9.749776e+001
6.435984e+002, 9.724187e+001
6.455269e+002, 9.163166e+001
6.474554e+002, 8.897850e+001
6.493839e+002, 9.138966e+001
6.513123e+002, 9.389748e+001
6.532408e+002, 9.594158e+001
6.551693e+002, 9.656186e+001
6.570977e+002, 9.331343e+001
6.590262e+002, 9.053967e+001
6.609547e+002, 9.302434e+001
6.628831e+002, 9.716093e+001
6.648116e+002, 9.683718e+001
6.667401e+002, 9.347889e+001
6.686685e+002, 9.277404e+001
6.705970e+002, 9.480672e+001
6.725255e+002, 9.706176e+001
6.744539e+002, 9.908356e+001
6.763824e+002, 1.044389e+002
6.783109e+002, 1.154742e+002
6.802393e+002, 1.215449e+002
6.821678e+002, 1.185940e+002
6.840963e+002, 1.148578e+002
6.860247e+002, 1.140421e+002
6.879532e+002, 1.123781e+002
6.898817e+002, 1.065215e+002
6.918101e+002, 1.007510e+002
6.937386e+002, 9.902590e+001
6.956671e+002, 9.903017e+001
6.975955e+002, 9.783209e+001
6.995240e+002, 9.560060e+001
7.014525e+002, 9.180582e+001
7.033809e+002, 8.706847e+001
7.053094e+002, 8.758115e+001
7.072379e+002, 9.320857e+001
7.091663e+002, 9.329521e+001
7.110948e+002, 8.572878e+001
7.130233e+002, 8.246459e+001
7.149517e+002, 8.755602e+001
7.168802e+002, 9.144348e+001
7.188087e+002, 9.126071e+001
7.207371e+002, 8.993104e+001
7.226656e+002, 8.688181e+001
7.245941e+002, 8.479935e+001
7.265225e+002, 8.658430e+001
7.284510e+002, 8.836970e+001
7.303795e+002, 8.569263e+001
7.323079e+002, 8.187366e+001
7.342364e+002, 8.119297e+001
7.361649e+002, 8.289089e+001
7.380933e+002, 8.671577e+001
7.400218e+002, 9.126701e+001
7.419503e+002, 9.065810e+001
7.438787e+002, 8.513828e+001
7.458072e+002, 8.156508e+001
7.477357e+002, 8.041560e+001
7.496641e+002, 8.137011e+001
7.515926e+002, 8.715527e+001
7.535211e+002, 8.836741e+001
7.554495e+002, 7.916588e+001
7.573780e+002, 7.375745e+001
7.593065e+002, 7.632496e+001
7.612349e+002, 8.019685e+001
7.631634e+002, 8.463283e+001
7.650919e+002, 8.777205e+001
7.670203e+002, 8.814070e+001
7.689488e+002, 8.727626e+001
7.708773e+002, 8.568669e+001
7.728057e+002, 8.411962e+001
7.747342e+002, 8.368187e+001
7.766627e+002, 8.356274e+001
7.785911e+002, 8.245747e+001
7.805196e+002, 8.050863e+001
7.824481e+002, 7.772020e+001
7.843765e+002, 7.429464e+001
7.863050e+002, 7.246790e+001
7.882335e+002, 7.210067e+001
7.901619e+002, 7.538834e+001
7.920904e+002, 8.504015e+001
7.940189e+002, 8.797505e+001
7.959473e+002, 8.113850e+001
7.978758e+002, 7.851633e+001
7.998043e+002, 8.387646e+001
8.017327e+002, 8.605080e+001
8.036612e+002, 8.103701e+001
8.055897e+002, 7.661311e+001
8.075181e+002, 7.507091e+001
8.094466e+002, 7.533096e+001
8.113751e+002, 7.847993e+001
8.133035e+002, 8.097343e+001
8.152320e+002, 8.014747e+001
8.171605e+002, 7.892722e+001
8.190889e+002, 8.040265e+001
8.210174e+002, 8.146804e+001
8.229459e+002, 7.730056e+001
8.248743e+002, 7.204535e+001
8.268028e+002, 7.188160e+001
8.287313e+002, 7.509154e+001
8.306597e+002, 7.856953e+001
8.325882e+002, 8.220392e+001
8.345167e+002, 8.678349e+001
8.364451e+002, 9.134147e+001
8.383736e+002, 8.935578e+001
8.403021e+002, 8.165321e+001
8.422305e+002, 7.543388e+001
8.441590e+002, 7.105824e+001
8.460875e+002, 7.005167e+001
8.480159e+002, 7.268968e+001
8.499444e+002, 7.674429e+001
8.518729e+002, 8.268453e+001
8.538013e+002, 8.583372e+001
8.557298e+002, 8.537050e+001
8.576583e+002, 8.217712e+001
8.595867e+002, 7.377596e+001
8.615152e+002, 6.782512e+001
8.634437e+002, 6.576540e+001
8.653721e+002, 6.628448e+001
8.673006e+002, 7.129945e+001
8.692291e+002, 7.547813e+001
8.711575e+002, 7.891782e+001
8.730860e+002, 7.811574e+001
8.750145e+002, 6.573326e+001
8.769429e+002, 5.571570e+001
8.788714e+002, 5.999810e+001
8.807999e+002, 6.683186e+001
8.827283e+002, 6.540785e+001
8.846568e+002, 6.352161e+001
8.865853e+002, 7.170895e+001
8.885137e+002, 8.091611e+001
8.904422e+002, 7.861428e+001
8.923707e+002, 7.258888e+001
8.942991e+002, 7.428441e+001
8.962276e+002, 7.904365e+001
8.981561e+002, 7.704566e+001
9.000845e+002, 7.172742e+001
9.020130e+002, 7.326915e+001
9.039415e+002, 7.939468e+001
9.058699e+002, 8.109425e+001
9.077984e+002, 7.883072e+001
9.097269e+002, 7.485425e+001
9.116553e+002, 6.943418e+001
9.135838e+002, 6.904975e+001
9.155123e+002, 7.394633e+001
9.174407e+002, 7.692168e+001
9.193692e+002, 7.779658e+001
9.212977e+002, 7.781873e+001
9.232261e+002, 7.629283e+001
9.251546e+002, 7.837939e+001
9.270831e+002, 8.540811e+001
9.290115e+002, 8.756115e+001
9.309400e+002, 8.254298e+001
9.328685e+002, 8.375301e+001
9.347969e+002, 9.280397e+001
9.367254e+002, 1.060930e+002
9.386539e+002, 1.242810e+002
9.405823e+002, 1.410441e+002
9.425108e+002, 1.556059e+002
9.444393e+002, 1.680506e+002
9.463677e+002, 1.802117e+002
9.482962e+002, 1.826573e+002
9.502247e+002, 1.716998e+002
9.521531e+002, 1.547115e+002
9.540816e+002, 1.291891e+002
9.560101e+002, 1.103995e+002
9.579385e+002, 1.062710e+002
9.598670e+002, 1.013423e+002
9.617955e+002, 8.924999e+001
9.637239e+002, 7.889009e+001
9.656524e+002, 7.212074e+001
9.675809e+002, 6.906094e+001
9.695093e+002, 7.318388e+001
9.714378e+002, 7.571735e+001
9.733663e+002, 7.095561e+001
9.752947e+002, 6.807799e+001
9.772232e+002, 7.303871e+001
9.791517e+002, 7.726982e+001
9.810801e+002, 7.572270e+001
9.830086e+002, 7.427307e+001
9.849371e+002, 7.566751e+001
9.868655e+002, 7.815851e+001
9.887940e+002, 8.267024e+001
9.907225e+002, 8.541176e+001
9.926509e+002, 8.469719e+001
9.945794e+002, 8.082832e+001
9.965079e+002, 6.912460e+001
9.984363e+002, 6.085346e+001
1.000365e+003, 6.673986e+001
1.002293e+003, 7.410222e+001
1.004222e+003, 7.413470e+001
1.006150e+003, 7.271587e+001
1.008079e+003, 7.273256e+001
1.010007e+003, 7.446443e+001
1.011936e+003, 8.275096e+001
1.013864e+003, 8.695601e+001
1.015793e+003, 7.327715e+001
1.017721e+003, 5.992086e+001
1.019649e+003, 6.280540e+001
1.021578e+003, 6.838173e+001
1.023506e+003, 6.597832e+001
1.025435e+003, 6.287043e+001
1.027363e+003, 6.474148e+001
1.029292e+003, 6.793578e+001
1.031220e+003, 7.226180e+001
1.033149e+003, 7.338030e+001
1.035077e+003, 6.291135e+001
1.037006e+003, 5.457347e+001
1.038934e+003, 6.201286e+001
1.040863e+003, 7.105305e+001
1.042791e+003, 7.196719e+001
1.044719e+003, 7.006853e+001
1.046648e+003, 6.750819e+001
1.048576e+003, 6.544012e+001
1.050505e+003, 6.550383e+001
1.052433e+003, 6.524036e+001
1.054362e+003, 6.134555e+001
1.056290e+003, 5.870875e+001
1.058219e+003, 6.151888e+001
1.060147e+003, 6.535722e+001
1.062076e+003, 6.855000e+001
1.064004e+003, 7.033290e+001
1.065933e+003, 6.875084e+001
1.067861e+003, 6.764930e+001
1.069790e+003, 7.134420e+001
1.071718e+003, 7.325401e+001
1.073646e+003, 6.720258e+001
1.075575e+003, 6.201730e+001
1.077503e+003, 6.311729e+001
1.079432e+003, 6.500211e+001
1.081360e+003, 6.554185e+001
1.083289e+003, 6.546970e+001
1.085217e+003, 6.397822e+001
1.087146e+003, 6.369361e+001
1.089074e+003, 6.870100e+001
1.091003e+003, 7.035817e+001
1.092931e+003, 6.101937e+001
1.094860e+003, 5.500640e+001
1.096788e+003, 6.111962e+001
1.098717e+003, 6.439658e+001
1.100645e+003, 5.553243e+001
1.102573e+003, 5.187855e+001
1.104502e+003, 6.248560e+001
1.106430e+003, 7.034274e+001
1.108359e+003, 7.127924e+001
1.110287e+003, 7.044334e+001
1.112216e+003, 6.626468e+001
1.114144e+003, 6.481461e+001
1.116073e+003, 7.110637e+001
1.118001e+003, 7.184584e+001
1.119930e+003, 6.204377e+001
1.121858e+003, 5.476832e+001
1.123787e+003, 4.972170e+001
1.125715e+003, 5.019077e+001
1.127644e+003, 5.982467e+001
1.129572e+003, 6.548535e+001
1.131501e+003, 6.615868e+001
1.133429e+003, 6.472867e+001
1.135358e+003, 5.991088e+001
1.137286e+003, 5.864013e+001
1.139214e+003, 6.171651e+001
1.141143e+003, 6.253489e+001
1.143071e+003, 6.055638e+001
1.145000e+003, 6.717657e+001
1.146928e+003, 8.203416e+001
1.148857e+003, 7.533728e+001
1.150785e+003, 5.027111e+001
1.152714e+003, 3.889537e+001
1.154642e+003, 3.915765e+001
1.156571e+003, 4.222525e+001
1.158499e+003, 4.691500e+001
1.160428e+003, 4.790286e+001
1.162356e+003, 4.797818e+001
1.164285e+003, 5.676041e+001
1.166213e+003, 6.755366e+001
1.168141e+003, 6.559898e+001
1.170070e+003, 5.939726e+001
1.171998e+003, 6.201931e+001
1.173927e+003, 6.699406e+001
1.175855e+003, 6.630177e+001
1.177784e+003, 6.472921e+001
1.179712e+003, 6.736008e+001
1.181641e+003, 7.016000e+001
1.183569e+003, 7.085277e+001
1.185498e+003, 6.969582e+001
1.187426e+003, 6.559823e+001
1.189355e+003, 6.159504e+001
1.191283e+003, 5.808360e+001
1.193212e+003, 5.654363e+001
1.195140e+003, 5.856581e+001
1.197068e+003, 6.024770e+001
1.198997e+003, 6.060535e+001
1.200925e+003, 6.046252e+001
1.202854e+003, 5.938797e+001
1.204782e+003, 6.079622e+001
1.206711e+003, 6.677879e+001
1.208639e+003, 6.450328e+001
1.210568e+003, 5.107276e+001
1.212496e+003, 4.860824e+001
1.214425e+003, 5.883853e+001
1.216353e+003, 6.345836e+001
1.218282e+003, 6.177195e+001
1.220210e+003, 5.746069e+001
1.222139e+003, 5.176818e+001
1.224067e+003, 4.948264e+001
1.225995e+003, 5.033863e+001
1.227924e+003, 5.499285e+001
1.229852e+003, 6.053417e+001
1.231781e+003, 6.009110e+001
1.233709e+003, 5.758612e+001
1.235638e+003, 5.851707e+001
1.237566e+003, 6.057685e+001
1.239495e+003, 6.126894e+001
1.241423e+003, 6.206024e+001
1.243352e+003, 6.559013e+001
1.245280e+003, 6.744899e+001
1.247209e+003, 6.307586e+001
1.249137e+003, 5.971448e+001
1.251066e+003, 6.261086e+001
1.252994e+003, 6.255953e+001
1.254922e+003, 5.349463e+001
1.256851e+003, 4.936293e+001
1.258779e+003, 5.448743e+001
1.260708e+003, 6.051981e+001
1.262636e+003, 6.833225e+001
1.264565e+003, 6.822473e+001
1.266493e+003, 5.746533e+001
1.268422e+003, 5.724824e+001
1.270350e+003, 6.720811e+001
1.272279e+003, 7.077931e+001
1.274207e+003, 6.915865e+001
1.276136e+003, 6.841593e+001
1.278064e+003, 6.807630e+001
1.279993e+003, 6.752242e+001
1.281921e+003, 6.593819e+001
1.283849e+003, 6.015009e+001
1.285778e+003, 5.479182e+001
1.287706e+003, 5.645252e+001
1.289635e+003, 5.840081e+001
1.291563e+003, 5.434823e+001
1.293492e+003, 5.160285e+001
1.295420e+003, 5.467102e+001
1.297349e+003, 5.659186e+001
1.299277e+003, 5.507748e+001
1.301206e+003, 5.282725e+001
1.303134e+003, 4.967982e+001
1.305063e+003, 5.057058e+001
1.306991e+003, 5.631542e+001
1.308920e+003, 6.209742e+001
1.310848e+003, 6.717471e+001
1.312776e+003, 6.697103e+001
1.314705e+003, 6.298283e+001
1.316633e+003, 6.329952e+001
1.318562e+003, 6.560697e+001
1.320490e+003, 6.353803e+001
1.322419e+003, 6.019503e+001
1.324347e+003, 5.972613e+001
1.326276e+003, 6.085185e+001
1.328204e+003, 6.328698e+001
1.330133e+003, 6.540823e+001
1.332061e+003, 6.602254e+001
1.333990e+003, 6.634114e+001
1.335918e+003, 6.634589e+001
1.337847e+003, 6.707425e+001
1.339775e+003, 7.090001e+001
1.341703e+003, 7.035890e+001
1.343632e+003, 6.382281e+001
1.345560e+003, 5.826046e+001
1.347489e+003, 5.380455e+001
1.349417e+003, 5.271104e+001
1.351346e+003, 5.489952e+001
1.353274e+003, 6.243589e+001
1.355203e+003, 7.087567e+001
1.357131e+003, 6.837487e+001
1.359060e+003, 6.311012e+001
1.360988e+003, 6.393661e+001
1.362917e+003, 6.699714e+001
1.364845e+003, 7.243118e+001
1.366774e+003, 7.337048e+001
1.368702e+003, 6.304176e+001
1.370630e+003, 5.829256e+001
1.372559e+003, 6.688953e+001
1.374487e+003, 6.850237e+001
1.376416e+003, 5.868195e+001
1.378344e+003, 5.149607e+001
1.380273e+003, 4.750163e+001
1.382201e+003, 4.976115e+001
1.384130e+003, 5.633894e+001
1.386058e+003, 6.024035e+001
1.387987e+003, 6.151039e+001
1.389915e+003, 5.910038e+001
1.391844e+003, 5.549083e+001
1.393772e+003, 5.118435e+001
1.395701e+003, 4.982481e+001
1.397629e+003, 5.423804e+001
1.399557e+003, 6.033773e+001
1.401486e+003, 6.830815e+001
1.403414e+003, 7.205155e+001
1.405343e+003, 7.016576e+001
1.407271e+003, 6.913336e+001
1.409200e+003, 6.941707e+001
1.411128e+003, 6.690363e+001
1.413057e+003, 6.393815e+001
1.414985e+003, 7.383277e+001
1.416914e+003, 8.597957e+001
1.418842e+003, 7.910815e+001
1.420771e+003, 6.817033e+001
1.422699e+003, 6.603858e+001
1.424628e+003, 6.812154e+001
1.426556e+003, 7.461849e+001
1.428484e+003, 7.984361e+001
1.430413e+003, 8.368840e+001
1.432341e+003, 8.161729e+001
1.434270e+003, 7.215170e+001
1.436198e+003, 7.090289e+001
1.438127e+003, 7.690175e+001
1.440055e+003, 7.751774e+001
1.441984e+003, 7.480041e+001
1.443912e+003, 7.538923e+001
1.445841e+003, 7.505203e+001
1.447769e+003, 6.606353e+001
1.449698e+003, 5.859251e+001
1.451626e+003, 5.922084e+001
1.453555e+003, 6.336198e+001
1.455483e+003, 7.236069e+001
1.457411e+003, 7.841267e+001
1.459340e+003, 8.098656e+001
1.461268e+003, 7.890356e+001
1.463197e+003, 7.232854e+001
1.465125e+003, 6.416643e+001
1.467054e+003, 5.636982e+001
1.468982e+003, 5.518848e+001
1.470911e+003, 5.693471e+001
1.472839e+003, 5.967101e+001
1.474768e+003, 5.934785e+001
1.476696e+003, 5.156545e+001
1.478625e+003, 4.577261e+001
1.480553e+003, 4.458409e+001
1.482482e+003, 4.806067e+001
1.484410e+003, 5.688126e+001
1.486339e+003, 6.144706e+001
1.488267e+003, 6.223906e+001
1.490195e+003, 6.424001e+001
1.492124e+003, 6.547831e+001
1.494052e+003, 6.024731e+001
1.495981e+003, 5.456725e+001
1.497909e+003, 5.480384e+001
1.499838e+003, 5.501324e+001
1.501766e+003, 5.260349e+001
1.503695e+003, 5.097046e+001
1.505623e+003, 5.061105e+001
1.507552e+003, 5.484055e+001
1.509480e+003, 6.262380e+001
1.511409e+003, 5.949837e+001
1.513337e+003, 5.170271e+001
1.515266e+003, 5.713521e+001
1.517194e+003, 6.404184e+001
1.519122e+003, 5.602029e+001
1.521051e+003, 4.950050e+001
1.522979e+003, 5.690259e+001
1.524908e+003, 6.006914e+001
1.526836e+003, 5.465004e+001
1.528765e+003, 5.349464e+001
1.530693e+003, 5.704809e+001
1.532622e+003, 6.116339e+001
1.534550e+003, 6.308460e+001
1.536479e+003, 5.117104e+001
1.538407e+003, 4.075170e+001
1.540336e+003, 5.421774e+001
1.542264e+003, 6.543301e+001
1.544193e+003, 5.604015e+001
1.546121e+003, 5.051934e+001
1.548049e+003, 5.554685e+001
1.549978e+003, 5.758739e+001
1.551906e+003, 5.634372e+001
1.553835e+003, 4.745045e+001
1.555763e+003, 3.728867e+001
1.557692e+003, 4.311243e+001
1.559620e+003, 5.289172e+001
1.561549e+003, 5.736662e+001
1.563477e+003, 6.117995e+001
1.565406e+003, 6.775281e+001
1.567334e+003, 6.863274e+001
1.569263e+003, 5.969983e+001
1.571191e+003, 6.167436e+001
1.573120e+003, 7.224390e+001
1.575048e+003, 8.242194e+001
1.576976e+003, 8.652208e+001
1.578905e+003, 6.772842e+001
1.580833e+003, 5.164852e+001
1.582762e+003, 5.329885e+001
1.584690e+003, 5.886602e+001
1.586619e+003, 6.583640e+001
1.588547e+003, 6.659612e+001
1.590476e+003, 6.082433e+001
1.592404e+003, 5.857078e+001
1.594333e+003, 5.914759e+001
1.596261e+003, 6.344312e+001
1.598190e+003, 6.626615e+001
1.600118e+003, 6.126888e+001
1.602047e+003, 5.642687e+001
1.603975e+003, 5.430477e+001
1.605903e+003, 5.075148e+001
1.607832e+003, 4.538873e+001
1.609760e+003, 4.032526e+001
1.611689e+003, 3.748416e+001
1.613617e+003, 4.509895e+001
1.615546e+003, 5.309887e+001
1.617474e+003, 4.930608e+001
1.619403e+003, 4.431010e+001
1.621331e+003, 4.083503e+001
1.623260e+003, 4.301162e+001
1.625188e+003, 5.122734e+001
1.627117e+003, 4.756618e+001
1.629045e+003, 3.733552e+001
1.630974e+003, 3.838304e+001
1.632902e+003, 4.495366e+001
1.634830e+003, 5.542162e+001
1.636759e+003, 6.100336e+001
1.638687e+003, 5.247961e+001
1.640616e+003, 5.092165e+001
1.642544e+003, 5.883571e+001
1.644473e+003, 6.178254e+001
1.646401e+003, 6.105077e+001
1.648330e+003, 6.183358e+001
1.650258e+003, 6.179255e+001
1.652187e+003, 5.861050e+001
1.654115e+003, 5.388662e+001
1.656044e+003, 4.482328e+001
1.657972e+003, 4.591591e+001
1.659901e+003, 5.898685e+001
1.661829e+003, 5.841798e+001
1.663757e+003, 5.038063e+001
1.665686e+003, 4.900287e+001
1.667614e+003, 5.192500e+001
1.669543e+003, 6.005072e+001
1.671471e+003, 6.413101e+001
1.673400e+003, 6.074451e+001
1.675328e+003, 5.507467e+001
1.677257e+003, 4.852546e+001
1.679185e+003, 5.352309e+001
1.681114e+003, 6.142249e+001
1.683042e+003, 5.566406e+001
1.684971e+003, 4.884740e+001
1.686899e+003, 4.710151e+001
1.688828e+003, 4.617282e+001
1.690756e+003, 4.511499e+001
1.692684e+003, 5.422293e+001
1.694613e+003, 6.756767e+001
1.696541e+003, 6.090336e+001
1.698470e+003, 4.897088e+001
1.700398e+003, 4.657571e+001
1.702327e+003, 4.651877e+001
1.704255e+003, 4.695882e+001
1.706184e+003, 4.706117e+001
1.708112e+003, 4.698991e+001
1.710041e+003, 4.898107e+001
1.711969e+003, 5.204975e+001
1.713898e+003, 5.469672e+001
1.715826e+003, 5.745115e+001
1.717755e+003, 6.412579e+001
1.719683e+003, 6.125679e+001
1.721611e+003, 4.697161e+001
1.723540e+003, 4.169279e+001
1.725468e+003, 4.318026e+001
1.727397e+003, 4.270241e+001
1.729325e+003, 4.389130e+001
1.731254e+003, 5.418031e+001
1.733182e+003, 5.784911e+001
1.735111e+003, 4.711832e+001
1.737039e+003, 4.545426e+001
1.738968e+003, 5.121125e+001
1.740896e+003, 5.335540e+001
1.742825e+003, 5.362927e+001
1.744753e+003, 5.508780e+001
1.746682e+003, 5.305388e+001
1.748610e+003, 4.167105e+001
1.750538e+003, 4.055733e+001
1.752467e+003, 4.936644e+001
1.754395e+003, 5.185941e+001
1.756324e+003, 5.078394e+001
1.758252e+003, 4.853613e+001
1.760181e+003, 4.824052e+001
1.762109e+003, 5.353892e+001
1.764038e+003, 4.833421e+001
1.765966e+003, 3.165260e+001
1.767895e+003, 3.675672e+001
1.769823e+003, 5.053570e+001
1.771752e+003, 5.265798e+001
1.773680e+003, 4.643495e+001
1.775609e+003, 2.881125e+001
1.777537e+003, 3.019404e+001
1.779465e+003, 5.327624e+001
1.781394e+003, 4.650521e+001
1.783322e+003, 2.917409e+001
1.785251e+003, 4.094068e+001
1.787179e+003, 5.315564e+001
1.789108e+003, 5.138779e+001
1.791036e+003, 5.119851e+001
1.792965e+003, 5.437959e+001
1.794893e+003, 5.586127e+001
1.796822e+003, 5.555156e+001
1.798750e+003, 5.175356e+001
1.800679e+003, 4.965313e+001
1.802607e+003, 5.421854e+001
1.804536e+003, 5.071194e+001
1.806464e+003, 3.946276e+001
1.808392e+003, 3.746706e+001
1.810321e+003, 4.119286e+001
1.812249e+003, 4.697366e+001
1.814178e+003, 5.195559e+001
1.816106e+003, 5.392403e+001
1.818035e+003, 5.891213e+001
1.819963e+003, 6.558882e+001
1.821892e+003, 5.857480e+001
1.823820e+003, 4.787164e+001
1.825749e+003, 4.550250e+001
1.827677e+003, 4.431836e+001
1.829606e+003, 4.032594e+001
1.831534e+003, 4.138732e+001
1.833463e+003, 4.638655e+001
1.835391e+003, 4.760290e+001
1.837319e+003, 4.942429e+001
1.839248e+003, 5.910131e+001
1.841176e+003, 6.160964e+001
1.843105e+003, 4.950292e+001
1.845033e+003, 4.499582e+001
1.846962e+003, 4.581080e+001
1.848890e+003, 4.569567e+001
1.850819e+003, 4.652688e+001
1.852747e+003, 5.134731e+001
1.854676e+003, 4.815416e+001
1.856604e+003, 3.450945e+001
1.858533e+003, 3.890276e+001
1.860461e+003, 4.924450e+001
1.862390e+003, 4.212527e+001
1.864318e+003, 3.586799e+001
1.866246e+003, 3.693345e+001
1.868175e+003, 4.356522e+001
1.870103e+003, 5.311221e+001
1.872032e+003, 5.132447e+001
1.873960e+003, 4.713975e+001
1.875889e+003, 5.088562e+001
1.877817e+003, 5.327488e+001
1.879746e+003, 5.258589e+001
1.881674e+003, 4.552899e+001
1.883603e+003, 3.697559e+001
1.885531e+003, 3.879337e+001
1.887460e+003, 4.214679e+001
1.889388e+003, 4.109727e+001
1.891317e+003, 4.703455e+001
1.893245e+003, 5.802081e+001
1.895173e+003, 5.174413e+001
1.897102e+003, 4.170034e+001
1.899030e+003, 4.293858e+001
1.900959e+003, 4.686943e+001
1.902887e+003, 5.207915e+001
1.904816e+003, 4.843884e+001
1.906744e+003, 4.087687e+001
1.908673e+003, 4.141436e+001
1.910601e+003, 4.315512e+001
1.912530e+003, 4.275272e+001
1.914458e+003, 4.016175e+001
1.916387e+003, 3.584095e+001
1.918315e+003, 3.247149e+001
1.920244e+003, 3.120044e+001
1.922172e+003, 3.347821e+001
1.924100e+003, 3.736684e+001
1.926029e+003, 4.298523e+001
1.927957e+003, 4.391103e+001
1.929886e+003, 4.321946e+001
1.931814e+003, 4.795518e+001
1.933743e+003, 5.045770e+001
1.935671e+003, 4.643615e+001
1.937600e+003, 4.660455e+001
1.939528e+003, 4.976762e+001
1.941457e+003, 4.901466e+001
1.943385e+003, 4.662845e+001
1.945314e+003, 4.333253e+001
1.947242e+003, 4.248610e+001
1.949171e+003, 4.456194e+001
1.951099e+003, 4.937521e+001
1.953027e+003, 5.280950e+001
1.954956e+003, 4.858193e+001
1.956884e+003, 4.532858e+001
1.958813e+003, 4.484581e+001
1.960741e+003, 4.642454e+001
1.962670e+003, 4.812108e+001
1.964598e+003, 4.695503e+001
1.966527e+003, 4.339304e+001
1.968455e+003, 3.713504e+001
1.970384e+003, 3.655044e+001
1.972312e+003, 4.094263e+001
1.974241e+003, 5.021578e+001
1.976169e+003, 5.503716e+001
1.978098e+003, 4.896495e+001
1.980026e+003, 4.231635e+001
1.981954e+003, 3.755877e+001
1.983883e+003, 4.202019e+001
1.985811e+003, 4.818629e+001
1.987740e+003, 5.220012e+001
1.989668e+003, 4.885209e+001
1.991597e+003, 3.964715e+001
1.993525e+003, 4.292156e+001
1.995454e+003, 4.655339e+001
1.997382e+003, 3.517408e+001
1.999311e+003, 2.982383e+001
2.001239e+003, 3.343296e+001
2.003168e+003, 3.430128e+001
2.005096e+003, 3.350641e+001
2.007025e+003, 3.043171e+001
2.008953e+003, 3.189736e+001
2.010881e+003, 4.036193e+001
2.012810e+003, 4.473823e+001
2.014738e+003, 4.644994e+001
2.016667e+003, 4.804044e+001
2.018595e+003, 4.684444e+001
2.020524e+003, 4.152866e+001
2.022452e+003, 3.485031e+001
2.024381e+003, 3.015760e+001
2.026309e+003, 3.434777e+001
2.028238e+003, 4.222320e+001
2.030166e+003, 5.315369e+001
2.032095e+003, 4.875922e+001
2.034023e+003, 3.756577e+001
2.035952e+003, 3.985525e+001
2.037880e+003, 3.680951e+001
2.039808e+003, 2.167574e+001
2.041737e+003, 2.576153e+001
2.043665e+003, 3.991633e+001
2.045594e+003, 4.723825e+001
2.047522e+003, 4.516758e+001
2.049451e+003, 3.264353e+001
2.051379e+003, 2.496560e+001
2.053308e+003, 2.411576e+001
2.055236e+003, 3.828802e+001
2.057165e+003, 4.485929e+001
2.059093e+003, 3.640121e+001
2.061021e+003, 3.375966e+001
2.062950e+003, 3.457203e+001
2.064878e+003, 3.254602e+001
2.066807e+003, 2.860572e+001
2.068735e+003, 2.232936e+001
2.070664e+003, 2.900074e+001
2.072592e+003, 4.044149e+001
2.074521e+003, 4.293260e+001
2.076449e+003, 4.153928e+001
2.078378e+003, 3.729411e+001
2.080306e+003, 3.769493e+001
2.082235e+003, 3.963806e+001
2.084163e+003, 3.731088e+001
2.086092e+003, 3.787353e+001
2.088020e+003, 4.419684e+001
2.089948e+003, 3.675766e+001
2.091877e+003, 2.899409e+001
2.093805e+003, 4.162621e+001
2.095734e+003, 4.071715e+001
2.097662e+003, 1.928248e+001
2.099591e+003, 1.618964e+001
2.101519e+003, 2.242524e+001
2.103448e+003, 3.159128e+001
2.105376e+003, 3.510562e+001
2.107305e+003, 3.255966e+001
2.109233e+003, 3.543667e+001
2.111162e+003, 3.681847e+001
2.113090e+003, 3.090518e+001
2.115019e+003, 2.929774e+001
2.116947e+003, 3.262080e+001
2.118876e+003, 3.994548e+001
2.120804e+003, 4.200802e+001
2.122733e+003, 3.368127e+001
2.124661e+003, 2.567991e+001
2.126590e+003, 2.206189e+001
2.128518e+003, 3.450388e+001
2.130447e+003, 4.541206e+001
2.132375e+003, 4.902371e+001
2.134303e+003, 3.879831e+001
2.136232e+003, 2.508658e+001
2.138160e+003, 2.570245e+001
2.140089e+003, 2.731777e+001
2.142017e+003, 2.711348e+001
2.143946e+003, 3.154757e+001
2.145874e+003, 3.644762e+001
2.147803e+003, 3.846264e+001
2.149731e+003, 3.378960e+001
2.151660e+003, 2.497755e+001
2.153588e+003, 3.082006e+001
2.155517e+003, 3.744776e+001
2.157445e+003, 3.411627e+001
2.159374e+003, 2.993044e+001
2.161302e+003, 2.700315e+001
2.163230e+003, 3.014317e+001
2.165159e+003, 3.538960e+001
2.167087e+003, 4.208091e+001
2.169016e+003, 4.590011e+001
2.170944e+003, 4.704502e+001
2.172873e+003, 4.550843e+001
2.174801e+003, 4.350461e+001
2.176730e+003, 4.142829e+001
2.178658e+003, 3.494851e+001
2.180587e+003, 3.121115e+001
2.182515e+003, 3.746460e+001
2.184444e+003, 3.415508e+001
2.186372e+003, 2.531312e+001
2.188301e+003, 3.427906e+001
2.190229e+003, 4.184751e+001
2.192157e+003, 4.058065e+001
2.194086e+003, 3.380634e+001
2.196014e+003, 2.823305e+001
2.197943e+003, 3.558374e+001
2.199871e+003, 4.203127e+001
2.201800e+003, 4.470728e+001
2.203728e+003, 4.317717e+001
2.205657e+003, 3.995576e+001
2.207585e+003, 3.673837e+001
2.209514e+003, 3.141155e+001
2.211442e+003, 2.682141e+001
2.213371e+003, 3.063796e+001
2.215299e+003, 3.879712e+001
2.217228e+003, 4.939471e+001
2.219156e+003, 4.286942e+001
2.221084e+003, 3.045489e+001
2.223013e+003, 2.157304e+001
2.224941e+003, 1.992418e+001
2.226870e+003, 2.412232e+001
2.228798e+003, 2.937524e+001
2.230727e+003, 3.221428e+001
2.232655e+003, 3.020437e+001
2.234584e+003, 3.350240e+001
2.236512e+003, 3.758426e+001
2.238441e+003, 3.445874e+001
2.240369e+003, 3.434303e+001
2.242298e+003, 3.760871e+001
2.244226e+003, 3.259043e+001
2.246155e+003, 2.849961e+001
2.248083e+003, 3.277918e+001
2.250011e+003, 2.957465e+001
2.251940e+003, 2.249917e+001
2.253868e+003, 1.585552e+001
2.255797e+003, 1.733539e+001
2.257725e+003, 2.694115e+001
2.259654e+003, 2.551362e+001
2.261582e+003, 2.372640e+001
2.263511e+003, 2.840494e+001
2.265439e+003, 2.783871e+001
2.267368e+003, 2.393824e+001
2.269296e+003, 1.816858e+001
2.271225e+003, 2.399950e+001
2.273153e+003, 4.083684e+001
2.275082e+003, 3.322400e+001
2.277010e+003, 2.542433e+001
2.278938e+003, 3.055387e+001
2.280867e+003, 3.638368e+001
2.282795e+003, 4.059130e+001
2.284724e+003, 4.159550e+001
2.286652e+003, 3.744561e+001
2.288581e+003, 2.980087e+001
2.290509e+003, 2.912345e+001
2.292438e+003, 2.975189e+001
2.294366e+003, 2.877217e+001
2.296295e+003, 2.923655e+001
2.298223e+003, 3.184383e+001
2.300152e+003, 4.278873e+001
2.302080e+003, 3.585192e+001
2.304009e+003, 1.705023e+001
2.305937e+003, 1.820536e+001
2.307865e+003, 2.453846e+001
2.309794e+003, 3.057767e+001
2.311722e+003, 2.837079e+001
2.313651e+003, 2.633531e+001
2.315579e+003, 3.575743e+001
2.317508e+003, 3.818932e+001
2.319436e+003, 3.367928e+001
2.321365e+003, 2.046269e+001
2.323293e+003, 1.937354e+001
2.325222e+003, 3.404664e+001
2.327150e+003, 2.957783e+001
2.329079e+003, 2.569313e+001
2.331007e+003, 3.653565e+001
2.332936e+003, 2.767315e+001
2.334864e+003, 1.708659e+001
2.336792e+003, 3.272776e+001
2.338721e+003, 4.194164e+001
2.340649e+003, 4.122062e+001
2.342578e+003, 3.451863e+001
2.344506e+003, 3.029584e+001
2.346435e+003, 3.084257e+001
2.348363e+003, 1.987534e+001
2.350292e+003, 1.579825e+001
2.352220e+003, 3.221329e+001
2.354149e+003, 4.273432e+001
2.356077e+003, 4.482170e+001
2.358006e+003, 3.272326e+001
2.359934e+003, 2.546452e+001
2.361863e+003, 2.484837e+001
2.363791e+003, 2.737484e+001
2.365719e+003, 2.801389e+001
2.367648e+003, 2.555062e+001
2.369576e+003, 2.710370e+001
2.371505e+003, 2.496050e+001
2.373433e+003, 1.071288e+001
2.375362e+003, 8.343700e+000
2.377290e+003, 1.288498e+001
2.379219e+003, 1.724179e+001
2.381147e+003, 1.619161e+001
2.383076e+003, 1.318523e+001
2.385004e+003, 1.965590e+001
2.386933e+003, 3.196071e+001
2.388861e+003, 4.760232e+001
2.390790e+003, 3.670913e+001
2.392718e+003, 2.387855e+001
2.394646e+003, 2.417614e+001
2.396575e+003, 2.818192e+001
2.398503e+003, 3.137040e+001
2.400432e+003, 2.948438e+001
2.402360e+003, 2.180801e+001
2.404289e+003, 1.593288e+001
2.406217e+003, 3.071248e+001
2.408146e+003, 3.243350e+001
2.410074e+003, 2.037196e+001
2.412003e+003, 2.393567e+001
2.413931e+003, 2.613672e+001
2.415860e+003, 2.155775e+001
2.417788e+003, 1.954939e+001
2.419717e+003, 2.273062e+001
2.421645e+003, 3.246606e+001
2.423573e+003, 2.889012e+001
2.425502e+003, 2.568281e+001
2.427430e+003, 4.094382e+001
2.429359e+003, 2.773266e+001
2.431287e+003, 4.350433e+000
2.433216e+003, 1.624939e+001
2.435144e+003, 2.319039e+001
2.437073e+003, 2.157143e+001
2.439001e+003, 1.991733e+001
2.440930e+003, 1.530047e+001
2.442858e+003, 8.858194e+000
2.444787e+003, 1.168383e+001
2.446715e+003, 1.611718e+001
2.448644e+003, 1.883577e+001
2.450572e+003, 2.228433e+001
2.452500e+003, 2.230844e+001
2.454429e+003, 1.333124e+001
2.456357e+003, 1.458420e+001
2.458286e+003, 1.990929e+001
2.460214e+003, 2.327173e+001
2.462143e+003, 1.999135e+001
2.464071e+003, 1.746269e+001
2.466000e+003, 3.366973e+001
2.467928e+003, 2.714433e+001
2.469857e+003, 7.921604e+000
2.471785e+003, 1.839954e+001
2.473714e+003, 2.847935e+001
2.475642e+003, 3.194924e+001
2.477571e+003, 3.341135e+001
2.479499e+003, 2.854122e+001
2.481427e+003, 1.663965e+001
2.483356e+003, 7.253582e+000
2.485284e+003, 8.968920e+000
2.487213e+003, 2.499626e+001
2.489141e+003, 2.544108e+001
2.491070e+003, 2.864730e+001
2.492998e+003, 4.570494e+001
2.494927e+003, 3.055292e+001
2.496855e+003, 1.338093e+001
2.498784e+003, 2.129038e+001
2.500712e+003, 2.818498e+001
2.502641e+003, 3.070082e+001
2.504569e+003, 2.599395e+001
2.506498e+003, 2.562144e+001
2.508426e+003, 2.595191e+001
2.510354e+003, 1.664038e+001
2.512283e+003, 1.504081e+001
2.514211e+003, 1.710529e+001
2.516140e+003, 6.103298e+000
2.518068e+003, 7.714790e+000
2.519997e+003, 1.948603e+001
2.521925e+003, 2.480825e+001
2.523854e+003, 2.632969e+001
2.525782e+003, 2.561951e+001
2.527711e+003, 2.623492e+001
2.529639e+003, 2.325485e+001
2.531568e+003, 1.657645e+001
2.533496e+003, 1.178105e+001
2.535425e+003, 1.254268e+001
2.537353e+003, 1.938291e+001
2.539281e+003, 1.918551e+001
2.541210e+003, 2.573040e+001
2.543138e+003, 4.401089e+001
2.545067e+003, 3.242363e+001
2.546995e+003, 2.325511e+001
2.548924e+003, 3.270649e+001
2.550852e+003, 2.629301e+001
2.552781e+003, 2.176459e+001
2.554709e+003, 2.851023e+001
2.556638e+003, 2.714986e+001
2.558566e+003, 2.478176e+001
2.560495e+003, 2.580552e+001
2.562423e+003, 2.546582e+001
2.564352e+003, 2.397924e+001
2.566280e+003, 2.172199e+001
2.568208e+003, 1.861419e+001
2.570137e+003, 1.880863e+001
2.572065e+003, 2.536141e+001
2.573994e+003, 2.175375e+001
2.575922e+003, 2.008220e+001
2.577851e+003, 3.109710e+001
2.579779e+003, 3.436538e+001
2.581708e+003, 3.201311e+001
2.583636e+003, 2.529757e+001
2.585565e+003, 2.847459e+001
2.587493e+003, 3.086488e+001
2.589422e+003, 1.845359e+001
2.591350e+003, 2.703611e+001
2.593279e+003, 3.711076e+001
2.595207e+003, 2.533445e+001
2.597135e+003, 1.699005e+001
2.599064e+003, 1.265641e+001
2.600992e+003, 1.312006e+001
2.602921e+003, 1.511120e+001
2.604849e+003, 1.803607e+001
2.606778e+003, 2.206568e+001
2.608706e+003, 2.242366e+001
2.610635e+003, 1.994040e+001
2.612563e+003, 1.464987e+001
2.614492e+003, 2.010138e+001
2.616420e+003, 2.443066e+001
2.618349e+003, 1.784774e+001
2.620277e+003, 1.680858e+001
2.622206e+003, 1.719538e+001
2.624134e+003, 1.543128e+001
2.626063e+003, 1.247985e+001
2.627991e+003, 1.315522e+001
2.629919e+003, 1.994954e+001
2.631848e+003, 2.150079e+001
2.633776e+003, 1.991047e+001
2.635705e+003, 1.719926e+001
2.637633e+003, 2.140192e+001
2.639562e+003, 2.087565e+001
2.641490e+003, 1.120140e+001
2.643419e+003, 1.855983e+001
2.645347e+003, 2.253209e+001
2.647276e+003, 1.499234e+001
2.649204e+003, 1.110520e+001
2.651133e+003, 1.261457e+001
2.653061e+003, 1.945828e+001
2.654990e+003, 3.245836e+001
2.656918e+003, 4.214001e+001
2.658846e+003, 4.437704e+001
2.660775e+003, 2.976189e+001
2.662703e+003, 1.316954e+001
2.664632e+003, 1.169585e+000
2.666560e+003, 6.027793e+000
2.668489e+003, 1.208563e+001
2.670417e+003, 1.577345e+001
2.672346e+003, 1.741185e+001
2.674274e+003, 2.157395e+001
2.676203e+003, 2.450203e+001
2.678131e+003, 1.150486e+001
2.680060e+003, 1.793929e+001
2.681988e+003, 3.293119e+001
2.683917e+003, 3.227479e+001
2.685845e+003, 1.020962e+001
2.687773e+003, -1.103778e+001
2.689702e+003, -5.101790e+000
2.691630e+003, 1.882162e+001
2.693559e+003, 3.640361e+001
2.695487e+003, 2.744524e+001
2.697416e+003, 1.638148e+001
2.699344e+003, 1.172023e+001
2.701273e+003, 1.671051e+001
2.703201e+003, 8.997083e+000
2.705130e+003, 9.794433e+000
2.707058e+003, 2.569653e+001
2.708987e+003, 1.876382e+001
2.710915e+003, 1.052658e+001
2.712844e+003, 7.691303e+000
2.714772e+003, -2.587416e+000
2.716700e+003, -1.610412e+000
2.718629e+003, 9.972932e+000
2.720557e+003, 1.749499e+001
2.722486e+003, 1.973629e+001
2.724414e+003, 1.847631e+001
2.726343e+003, 1.505478e+001
2.728271e+003, 2.352408e+001
2.730200e+003, 3.145968e+001
2.732128e+003, 1.439321e+001
2.734057e+003, 2.559188e+001
2.735985e+003, 3.749569e+001
2.737914e+003, 1.917336e+001
2.739842e+003, 2.106738e+001
2.741771e+003, 2.711699e+001
2.743699e+003, 2.719744e+001
2.745627e+003, 2.526466e+001
2.747556e+003, 2.187251e+001
2.749484e+003, 1.682767e+001
2.751413e+003, 1.506588e+000
2.753341e+003, 8.132349e+000
2.755270e+003, 2.981578e+001
2.757198e+003, 2.613266e+001
2.759127e+003, 2.982067e+001
2.761055e+003, 3.259089e+001
2.762984e+003, 1.308505e+001
2.764912e+003, 1.695971e+001
2.766841e+003, 2.518360e+001
2.768769e+003, 1.978647e+001
2.770698e+003, 1.033959e+001
2.772626e+003, 9.879807e+000
2.774554e+003, 2.050851e+001
2.776483e+003, 1.395103e+001
2.778411e+003, 1.155375e+001
2.780340e+003, 1.740851e+001
2.782268e+003, 2.558192e+001
2.784197e+003, 2.462742e+001
2.786125e+003, 1.744321e+001
2.788054e+003, 1.248465e+001
2.789982e+003, 3.401141e+000
2.791911e+003, -2.053580e+000
2.793839e+003, 6.698298e+000
2.795768e+003, 1.380718e+001
2.797696e+003, 1.794788e+001
2.799625e+003, 1.838377e+001
2.801553e+003, 1.135615e+001
2.803481e+003, 7.657430e+000
2.805410e+003, 1.013174e+001
2.807338e+003, 2.086674e+001
2.809267e+003, 1.817906e+001
2.811195e+003, 1.099506e+001
2.813124e+003, 1.617943e+001
2.815052e+003, 6.289155e+000
2.816981e+003, 3.085059e+000
2.818909e+003, 2.034764e+001
2.820838e+003, 1.898868e+001
2.822766e+003, 8.203903e+000
2.824695e+003, -2.464618e+000
2.826623e+003, 1.255257e+001
2.828552e+003, 2.088340e+001
2.830480e+003, 2.180754e+001
2.832408e+003, 2.770098e+001
2.834337e+003, 2.143544e+001
2.836265e+003, 1.677184e+001
2.838194e+003, 2.565508e+001
2.840122e+003, 1.599293e+001
2.842051e+003, 1.199522e+001
2.843979e+003, 1.883371e+001
2.845908e+003, 1.188500e+001
2.847836e+003, 1.172537e+001
2.849765e+003, 1.625269e+001
2.851693e+003, 1.479140e+001
2.853622e+003, 5.116292e+000
2.855550e+003, 2.108740e+000
2.857479e+003, 2.176769e+001
2.859407e+003, 1.801426e+001
2.861335e+003, 8.121780e+000
2.863264e+003, 2.139753e+000
2.865192e+003, 1.904138e+001
2.867121e+003, 2.080932e+001
2.869049e+003, 1.220563e+001
2.870978e+003, 7.470211e+000
2.872906e+003, 1.881204e+001
2.874835e+003, 2.402275e+001
2.876763e+003, 1.125178e+001
2.878692e+003, 1.591621e+001
2.880620e+003, 1.293368e+001
2.882549e+003, 5.179433e+000
2.884477e+003, 2.539287e+001
2.886406e+003, 1.613093e+001
2.888334e+003, 5.260740e+000
2.890262e+003, 2.245251e+001
2.892191e+003, 2.869866e+001
2.894119e+003, 2.363715e+001
2.896048e+003, 1.191085e+001
2.897976e+003, 3.828557e+000
2.899905e+003, 2.702220e+000
2.901833e+003, 7.064593e+000
2.903762e+003, 1.590818e+001
2.905690e+003, 1.608162e+001
2.907619e+003, 1.368960e+001
2.909547e+003, 1.289114e+001
2.911476e+003, 1.921066e+001
2.913404e+003, 2.348965e+001
2.915333e+003, 2.252673e+001
2.917261e+003, 1.321965e+001
2.919189e+003, 3.096698e+000
2.921118e+003, 5.877427e+000
2.923046e+003, 2.867315e+001
2.924975e+003, 1.850232e+001
2.926903e+003, 1.323831e+001
2.928832e+003, 1.547852e+001
2.930760e+003, 1.144209e+001
2.932689e+003, 3.283275e+000
2.934617e+003, 2.934698e+000
2.936546e+003, 1.586506e+001
2.938474e+003, 1.164624e+001
2.940403e+003, 1.054785e+001
2.942331e+003, 1.453532e+001
2.944260e+003, 1.571575e+001
2.946188e+003, 1.261562e+001
2.948116e+003, 6.537446e+000
2.950045e+003, 5.659062e-001
2.951973e+003, 1.571746e+001
2.953902e+003, 1.775821e+001
2.955830e+003, 9.154541e+000
2.957759e+003, 1.557272e+001
2.959687e+003, 9.091791e+000
2.961616e+003, 2.998389e+000
2.963544e+003, 6.523450e+000
2.965473e+003, 2.403610e+001
2.967401e+003, 2.413442e+001
2.969330e+003, 1.333294e+001
2.971258e+003, 1.281772e+001
2.973187e+003, 1.510636e+001
2.975115e+003, 1.762687e+001
2.977043e+003, 1.845350e+001
2.978972e+003, 1.130886e+001
2.980900e+003, 9.250998e+000
2.982829e+003, 1.081888e+001
2.984757e+003, 1.162754e+001
2.986686e+003, 1.435900e+001
2.988614e+003, 1.552284e+001
2.990543e+003, 1.462371e+001
2.992471e+003, 1.460468e+001
2.994400e+003, 1.704089e+001
2.996328e+003, 1.827338e+001
2.998257e+003, 1.535473e+001
3.000185e+003, 6.943143e+000
3.002114e+003, -6.019694e+000
3.004042e+003, -1.150376e+001
3.005970e+003, 1.393690e+001
3.007899e+003, 1.698534e+001
3.009827e+003, 9.157542e+000
3.011756e+003, 1.712037e+000
3.013684e+003, 7.299743e+000
3.015613e+003, 6.568225e+000
3.017541e+003, 2.867976e+000
3.019470e+003, 3.140054e+000
3.021398e+003, 6.415531e+000
3.023327e+003, 3.233644e+000
3.025255e+003, -2.472482e+000
3.027184e+003, 5.583133e+000
3.029112e+003, 1.230515e+000
3.031041e+003, 2.595570e+000
3.032969e+003, 1.664409e+001
3.034897e+003, 3.522727e+000
3.036826e+003, 8.528059e+000
3.038754e+003, 2.041858e+001
3.040683e+003, 1.975555e+001
3.042611e+003, 1.082019e+001
3.044540e+003, 1.179729e+001
3.046468e+003, 1.953008e+001
3.048397e+003, 1.792639e+001
3.050325e+003, 7.801826e+000
3.052254e+003, 7.941473e+000
3.054182e+003, 2.176325e+001
3.056111e+003, 2.620030e+001
3.058039e+003, 1.338082e+001
3.059968e+003, 7.167030e+000
3.061896e+003, 2.080491e+001
3.063824e+003, 8.040172e+000
3.065753e+003, 1.173997e+001
3.067681e+003, 1.741709e+001
3.069610e+003, -6.740518e+000
3.071538e+003, 1.448438e+001
3.073467e+003, 2.411502e+001
3.075395e+003, 1.394706e+001
3.077324e+003, 9.821064e+000
3.079252e+003, 2.547517e+001
3.081181e+003, 2.385800e+001
3.083109e+003, -1.292381e+000
3.085038e+003, -3.577805e+000
3.086966e+003, 2.300809e+000
3.088895e+003, 1.036256e+001
3.090823e+003, 1.680163e+001
3.092751e+003, 6.371784e+000
3.094680e+003, 3.248811e-001
3.096608e+003, 5.991786e+000
3.098537e+003, 2.652980e+001
3.100465e+003, 1.814826e+001
3.102394e+003, 2.189814e+001
3.104322e+003, 2.913379e+001
3.106251e+003, 1.325828e+001
3.108179e+003, -8.118532e-001
3.110108e+003, 3.557309e+000
3.112036e+003, 1.808628e+001
3.113965e+003, 1.681900e+001
3.115893e+003, 4.100980e+000
3.117822e+003, -4.426596e+000
3.119750e+003, -3.878714e+000
3.121678e+003, 3.052927e+000
3.123607e+003, -5.045494e+000
3.125535e+003, 2.243411e+000
3.127464e+003, 2.585898e+001
3.129392e+003, 9.605878e+000
3.131321e+003, 6.234951e+000
3.133249e+003, 8.789328e+000
3.135178e+003, 8.869842e+000
3.137106e+003, 1.164050e+001
3.139035e+003, 1.249407e+000
3.140963e+003, -6.704965e+000
3.142892e+003, 6.606197e-001
3.144820e+003, 1.756260e+001
3.146749e+003, 1.962248e+001
3.148677e+003, 1.093625e+001
3.150605e+003, -7.541672e-001
3.152534e+003, -6.396754e+000
3.154462e+003, -3.143677e+000
3.156391e+003, 8.865505e-001
3.158319e+003, -9.843420e-001
3.160248e+003, 9.217371e+000
3.162176e+003, 1.787838e+001
3.164105e+003, 1.781759e+001
3.166033e+003, 8.405538e+000
3.167962e+003, 2.686153e+001
3.169890e+003, 2.997850e+001
3.171819e+003, 1.759606e+001
3.173747e+003, 3.240669e+000
3.175676e+003, 2.042020e+001
3.177604e+003, 1.382690e+001
3.179532e+003, 4.312395e-001
3.181461e+003, 8.629985e+000
3.183389e+003, 1.430829e+001
3.185318e+003, 9.935198e+000
3.187246e+003, 1.177636e+001
3.189175e+003, 3.303579e+001
3.191103e+003, 1.443667e+001
3.193032e+003, 6.389656e+000
3.194960e+003, 3.288979e+000
3.196889e+003, -9.736490e+000
3.198817e+003, -1.220701e+001
3.200746e+003, 3.771269e-001
3.202674e+003, 1.010986e+001
3.204603e+003, 4.202037e+000
3.206531e+003, 2.156237e+001
3.208459e+003, 1.939183e+001
3.210388e+003, 5.799173e+000
3.212316e+003, -3.748974e+000
3.214245e+003, 1.951143e+001
3.216173e+003, 1.370455e+001
3.218102e+003, 4.231579e+000
3.220030e+003, 9.965841e+000
3.221959e+003, 1.793475e+001
3.223887e+003, 1.777738e+001
3.225816e+003, 9.105886e+000
3.227744e+003, 1.496639e-001
3.229673e+003, 1.707047e+001
3.231601e+003, 2.232694e+001
3.233530e+003, 5.073874e+000
3.235458e+003, -1.579303e+001
3.237386e+003, 1.312053e+001
3.239315e+003, -4.722260e+000
3.241243e+003, -1.491793e+001
3.243172e+003, -5.657988e+000
3.245100e+003, 1.159834e+001
3.247029e+003, 4.274467e+000
3.248957e+003, -8.838939e-002
3.250886e+003, -1.674574e-001
3.252814e+003, -3.426007e+000
3.254743e+003, -3.672147e+000
3.256671e+003, 1.048788e+001
3.258600e+003, 1.787782e+001
3.260528e+003, 3.144982e+000
3.262457e+003, -8.429735e+000
3.264385e+003, 5.136551e+000
3.266313e+003, 1.673475e+001
3.268242e+003, 1.501604e+001
3.270170e+003, 2.239714e+001
3.272099e+003, 6.156363e+000
3.274027e+003, 3.398008e+000
3.275956e+003, 1.484800e+001
3.277884e+003, 9.915582e+000
3.279813e+003, 1.636595e+001
3.281741e+003, 1.326686e+001
3.283670e+003, -6.584378e+000
3.285598e+003, -3.466015e+001
3.287527e+003, 1.302810e+001
3.289455e+003, 2.201507e+001
3.291384e+003, 9.887277e+000
3.293312e+003, 6.396991e+000
3.295240e+003, 5.888467e+000
3.297169e+003, -4.175480e+000
3.299097e+003, -5.349541e+000
3.301026e+003, 2.324344e+000
3.302954e+003, -3.232030e+000
3.304883e+003, 3.519540e+000
3.306811e+003, 8.432828e+000
3.308740e+003, 8.614036e+000
3.310668e+003, 6.077319e+000
3.312597e+003, -1.333550e-001
3.314525e+003, 9.819845e+000
3.316454e+003, 1.359276e+001
3.318382e+003, 1.170347e+000
3.320311e+003, -3.449522e+000
3.322239e+003, -2.105547e+000
3.324167e+003, 4.466880e+000
3.326096e+003, 6.950735e+000
3.328024e+003, -5.067455e+000
3.329953e+003, 1.238318e+001
3.331881e+003, 1.152375e+001
3.333810e+003, 4.354904e+000
3.335738e+003, 7.392613e+000
3.337667e+003, 8.476839e+000
3.339595e+003, 1.168710e+001
3.341524e+003, 1.674659e+001
3.343452e+003, 1.923135e+001
3.345381e+003, 1.170736e+001
3.347309e+003, 1.549861e+001
3.349238e+003, 1.581174e+001
3.351166e+003, 7.123544e+000
3.353094e+003, -7.004165e+000
3.355023e+003, 4.619651e+000
3.356951e+003, 1.176843e+001
3.358880e+003, 1.110598e+001
3.360808e+003, 6.633840e+000
3.362737e+003, 4.508193e+000
3.364665e+003, 3.347556e+000
3.366594e+003, 5.300597e+000
3.368522e+003, 9.049465e+000
3.370451e+003, 1.079162e+001
3.372379e+003, 2.129306e-001
3.374308e+003, 6.680498e+000
3.376236e+003, 1.404489e+001
3.378165e+003, 1.252138e+001
3.380093e+003, 2.852690e+000
3.382021e+003, 1.433125e+001
3.383950e+003, 4.206385e+000
3.385878e+003, -6.072745e+000
3.387807e+003, -5.987407e-002
3.389735e+003, 2.199679e+001
3.391664e+003, 1.687048e+001
3.393592e+003, 4.945098e+000
3.395521e+003, 1.931173e+000
3.397449e+003, 1.100656e+001
3.399378e+003, 4.928819e+000
3.401306e+003, 2.187079e+001
3.403235e+003, 2.711832e+001
3.405163e+003, 1.895470e+001
3.407092e+003, 1.685714e+001
3.409020e+003, 2.266967e+001
3.410948e+003, 2.655339e+001
3.412877e+003, 3.516753e+001
3.414805e+003, 5.405842e+001
3.416734e+003, 8.296219e+001
3.418662e+003, 6.748936e+001
3.420591e+003, 4.790705e+001
3.422519e+003, 4.541132e+001
3.424448e+003, 5.503967e+001
3.426376e+003, 3.840604e+001
3.428305e+003, 2.168744e+001
3.430233e+003, 1.732964e+001
3.432162e+003, 2.294335e+001
3.434090e+003, 2.989981e+001
3.436019e+003, 2.478155e+001
3.437947e+003, 2.282642e+001
3.439875e+003, 2.249765e+001
3.441804e+003, 1.341138e+001
3.443732e+003, -9.130380e+000
3.445661e+003, 5.230516e+000
3.447589e+003, 1.363875e+001
3.449518e+003, 4.471929e+000
3.451446e+003, -6.016161e+000
##END=



