##NAMES=Holdenite
##RRUFFID=R150129
##IDEAL CHEMISTRY=Mn^2+^_6_Zn^2+^_3_(As^5+^O_4_)_2_(SiO_4_)(OH)_8_
##LOCALITY=Sterling Hill, Ogdensburg, Franklin Mining District, Sussex County, New Jersey, USA
##OWNER=RRUFF
##SOURCE=Marcus Origlieri
##DESCRIPTION=Aggregates of highly irregular pinkish microcrystals, associated with franklinite, willemite, pyrochroite, zincite, and rhodochrosite
##STATUS=The identification of this mineral has been confirmed by single-crystal X-ray diffraction.
##URL=rruff.info/R150129
8.930109e+001, 0.000000e+000
8.978320e+001, 2.083841e+003
9.026532e+001, 2.077454e+003
9.074744e+001, 2.078760e+003
9.122955e+001, 2.091144e+003
9.171167e+001, 2.108941e+003
9.219379e+001, 2.124135e+003
9.267590e+001, 2.138019e+003
9.315802e+001, 2.149945e+003
9.364014e+001, 2.160999e+003
9.412225e+001, 2.170358e+003
9.460437e+001, 2.173776e+003
9.508649e+001, 2.168018e+003
9.556860e+001, 2.156584e+003
9.605072e+001, 2.149500e+003
9.653284e+001, 2.148796e+003
9.701495e+001, 2.150733e+003
9.749707e+001, 2.151292e+003
9.797919e+001, 2.150417e+003
9.846130e+001, 2.149717e+003
9.894342e+001, 2.149343e+003
9.942554e+001, 2.149355e+003
9.990765e+001, 2.150967e+003
1.003898e+002, 2.154305e+003
1.008719e+002, 2.158827e+003
1.013540e+002, 2.164116e+003
1.018361e+002, 2.170638e+003
1.023182e+002, 2.176335e+003
1.028004e+002, 2.179936e+003
1.032825e+002, 2.180203e+003
1.037646e+002, 2.183824e+003
1.042467e+002, 2.190695e+003
1.047288e+002, 2.200814e+003
1.052109e+002, 2.214168e+003
1.056931e+002, 2.230692e+003
1.061752e+002, 2.250542e+003
1.066573e+002, 2.275522e+003
1.071394e+002, 2.320421e+003
1.076215e+002, 2.346093e+003
1.081036e+002, 2.346657e+003
1.085858e+002, 2.326319e+003
1.090679e+002, 2.305569e+003
1.095500e+002, 2.280425e+003
1.100321e+002, 2.257678e+003
1.105142e+002, 2.241068e+003
1.109963e+002, 2.232667e+003
1.114785e+002, 2.227720e+003
1.119606e+002, 2.225825e+003
1.124427e+002, 2.226903e+003
1.129248e+002, 2.230897e+003
1.134069e+002, 2.239155e+003
1.138890e+002, 2.249521e+003
1.143712e+002, 2.260370e+003
1.148533e+002, 2.273208e+003
1.153354e+002, 2.284736e+003
1.158175e+002, 2.293723e+003
1.162996e+002, 2.300153e+003
1.167817e+002, 2.305464e+003
1.172639e+002, 2.308304e+003
1.177460e+002, 2.310847e+003
1.182281e+002, 2.315852e+003
1.187102e+002, 2.328046e+003
1.191923e+002, 2.340394e+003
1.196744e+002, 2.348335e+003
1.201566e+002, 2.350828e+003
1.206387e+002, 2.351480e+003
1.211208e+002, 2.350763e+003
1.216029e+002, 2.349685e+003
1.220850e+002, 2.350345e+003
1.225671e+002, 2.354137e+003
1.230493e+002, 2.359943e+003
1.235314e+002, 2.366758e+003
1.240135e+002, 2.374530e+003
1.244956e+002, 2.382827e+003
1.249777e+002, 2.392118e+003
1.254598e+002, 2.401824e+003
1.259420e+002, 2.409716e+003
1.264241e+002, 2.413821e+003
1.269062e+002, 2.415124e+003
1.273883e+002, 2.415285e+003
1.278704e+002, 2.414198e+003
1.283525e+002, 2.412652e+003
1.288347e+002, 2.411328e+003
1.293168e+002, 2.410278e+003
1.297989e+002, 2.410543e+003
1.302810e+002, 2.413953e+003
1.307631e+002, 2.419680e+003
1.312452e+002, 2.424363e+003
1.317274e+002, 2.426652e+003
1.322095e+002, 2.427620e+003
1.326916e+002, 2.430514e+003
1.331737e+002, 2.435662e+003
1.336558e+002, 2.440799e+003
1.341379e+002, 2.443584e+003
1.346201e+002, 2.444069e+003
1.351022e+002, 2.444429e+003
1.355843e+002, 2.444860e+003
1.360664e+002, 2.445567e+003
1.365485e+002, 2.448144e+003
1.370306e+002, 2.452796e+003
1.375128e+002, 2.458914e+003
1.379949e+002, 2.466348e+003
1.384770e+002, 2.475506e+003
1.389591e+002, 2.483973e+003
1.394412e+002, 2.490266e+003
1.399233e+002, 2.493911e+003
1.404055e+002, 2.501187e+003
1.408876e+002, 2.513586e+003
1.413697e+002, 2.528045e+003
1.418518e+002, 2.539788e+003
1.423339e+002, 2.548455e+003
1.428160e+002, 2.555042e+003
1.432982e+002, 2.559437e+003
1.437803e+002, 2.560527e+003
1.442624e+002, 2.562791e+003
1.447445e+002, 2.565987e+003
1.452266e+002, 2.570478e+003
1.457087e+002, 2.577010e+003
1.461909e+002, 2.586879e+003
1.466730e+002, 2.597316e+003
1.471551e+002, 2.607563e+003
1.476372e+002, 2.618971e+003
1.481193e+002, 2.627879e+003
1.486014e+002, 2.635257e+003
1.490836e+002, 2.640329e+003
1.495657e+002, 2.640437e+003
1.500478e+002, 2.631637e+003
1.505299e+002, 2.621083e+003
1.510120e+002, 2.611791e+003
1.514941e+002, 2.603474e+003
1.519763e+002, 2.596798e+003
1.524584e+002, 2.592111e+003
1.529405e+002, 2.589174e+003
1.534226e+002, 2.586703e+003
1.539047e+002, 2.584140e+003
1.543868e+002, 2.582289e+003
1.548690e+002, 2.581582e+003
1.553511e+002, 2.580907e+003
1.558332e+002, 2.582588e+003
1.563153e+002, 2.587982e+003
1.567974e+002, 2.596658e+003
1.572795e+002, 2.605089e+003
1.577617e+002, 2.612668e+003
1.582438e+002, 2.619694e+003
1.587259e+002, 2.626388e+003
1.592080e+002, 2.633902e+003
1.596901e+002, 2.640111e+003
1.601722e+002, 2.644710e+003
1.606544e+002, 2.647672e+003
1.611365e+002, 2.648386e+003
1.616186e+002, 2.645553e+003
1.621007e+002, 2.640833e+003
1.625828e+002, 2.635676e+003
1.630649e+002, 2.630673e+003
1.635471e+002, 2.625219e+003
1.640292e+002, 2.618658e+003
1.645113e+002, 2.610948e+003
1.649934e+002, 2.603610e+003
1.654755e+002, 2.597011e+003
1.659576e+002, 2.591253e+003
1.664398e+002, 2.586553e+003
1.669219e+002, 2.583040e+003
1.674040e+002, 2.580462e+003
1.678861e+002, 2.579174e+003
1.683682e+002, 2.579270e+003
1.688503e+002, 2.578891e+003
1.693325e+002, 2.576372e+003
1.698146e+002, 2.572649e+003
1.702967e+002, 2.569278e+003
1.707788e+002, 2.565985e+003
1.712609e+002, 2.563875e+003
1.717430e+002, 2.564388e+003
1.722252e+002, 2.567816e+003
1.727073e+002, 2.572031e+003
1.731894e+002, 2.576013e+003
1.736715e+002, 2.579576e+003
1.741536e+002, 2.582185e+003
1.746357e+002, 2.582500e+003
1.751179e+002, 2.582233e+003
1.756000e+002, 2.583606e+003
1.760821e+002, 2.586958e+003
1.765642e+002, 2.590975e+003
1.770463e+002, 2.594112e+003
1.775284e+002, 2.596803e+003
1.780106e+002, 2.600323e+003
1.784927e+002, 2.605828e+003
1.789748e+002, 2.612526e+003
1.794569e+002, 2.619024e+003
1.799390e+002, 2.625283e+003
1.804211e+002, 2.631300e+003
1.809033e+002, 2.637022e+003
1.813854e+002, 2.642561e+003
1.818675e+002, 2.648219e+003
1.823496e+002, 2.655160e+003
1.828317e+002, 2.662324e+003
1.833138e+002, 2.667513e+003
1.837960e+002, 2.670372e+003
1.842781e+002, 2.671399e+003
1.847602e+002, 2.670581e+003
1.852423e+002, 2.668095e+003
1.857244e+002, 2.665594e+003
1.862065e+002, 2.663910e+003
1.866887e+002, 2.662961e+003
1.871708e+002, 2.662477e+003
1.876529e+002, 2.662444e+003
1.881350e+002, 2.662758e+003
1.886171e+002, 2.663541e+003
1.890992e+002, 2.664766e+003
1.895814e+002, 2.665516e+003
1.900635e+002, 2.664258e+003
1.905456e+002, 2.661536e+003
1.910277e+002, 2.661401e+003
1.915098e+002, 2.664822e+003
1.919919e+002, 2.670221e+003
1.924741e+002, 2.674287e+003
1.929562e+002, 2.676948e+003
1.934383e+002, 2.679630e+003
1.939204e+002, 2.683246e+003
1.944025e+002, 2.687757e+003
1.948846e+002, 2.692474e+003
1.953668e+002, 2.697180e+003
1.958489e+002, 2.702189e+003
1.963310e+002, 2.708582e+003
1.968131e+002, 2.716541e+003
1.972952e+002, 2.724414e+003
1.977773e+002, 2.731125e+003
1.982595e+002, 2.736614e+003
1.987416e+002, 2.742051e+003
1.992237e+002, 2.747838e+003
1.997058e+002, 2.753406e+003
2.001879e+002, 2.756867e+003
2.006700e+002, 2.757973e+003
2.011522e+002, 2.758330e+003
2.016343e+002, 2.759428e+003
2.021164e+002, 2.761543e+003
2.025985e+002, 2.761567e+003
2.030806e+002, 2.758659e+003
2.035627e+002, 2.753679e+003
2.040449e+002, 2.748989e+003
2.045270e+002, 2.744239e+003
2.050091e+002, 2.740863e+003
2.054912e+002, 2.740029e+003
2.059733e+002, 2.742005e+003
2.064554e+002, 2.745042e+003
2.069376e+002, 2.749608e+003
2.074197e+002, 2.754892e+003
2.079018e+002, 2.757785e+003
2.083839e+002, 2.757773e+003
2.088660e+002, 2.756714e+003
2.093481e+002, 2.755737e+003
2.098303e+002, 2.754810e+003
2.103124e+002, 2.754314e+003
2.107945e+002, 2.754662e+003
2.112766e+002, 2.755464e+003
2.117587e+002, 2.754759e+003
2.122408e+002, 2.751758e+003
2.127230e+002, 2.748947e+003
2.132051e+002, 2.748122e+003
2.136872e+002, 2.749921e+003
2.141693e+002, 2.751320e+003
2.146514e+002, 2.751508e+003
2.151335e+002, 2.750984e+003
2.156157e+002, 2.752245e+003
2.160978e+002, 2.755613e+003
2.165799e+002, 2.760029e+003
2.170620e+002, 2.764979e+003
2.175441e+002, 2.770719e+003
2.180262e+002, 2.776135e+003
2.185084e+002, 2.780940e+003
2.189905e+002, 2.785385e+003
2.194726e+002, 2.790431e+003
2.199547e+002, 2.796224e+003
2.204368e+002, 2.802565e+003
2.209189e+002, 2.809481e+003
2.214011e+002, 2.817685e+003
2.218832e+002, 2.824845e+003
2.223653e+002, 2.830562e+003
2.228474e+002, 2.835151e+003
2.233295e+002, 2.840434e+003
2.238116e+002, 2.847269e+003
2.242938e+002, 2.853321e+003
2.247759e+002, 2.857010e+003
2.252580e+002, 2.857377e+003
2.257401e+002, 2.857588e+003
2.262222e+002, 2.857981e+003
2.267043e+002, 2.858352e+003
2.271865e+002, 2.858128e+003
2.276686e+002, 2.858210e+003
2.281507e+002, 2.856316e+003
2.286328e+002, 2.850826e+003
2.291149e+002, 2.840149e+003
2.295970e+002, 2.829493e+003
2.300792e+002, 2.818438e+003
2.305613e+002, 2.807655e+003
2.310434e+002, 2.800446e+003
2.315255e+002, 2.798794e+003
2.320076e+002, 2.798015e+003
2.324897e+002, 2.795622e+003
2.329719e+002, 2.790807e+003
2.334540e+002, 2.786315e+003
2.339361e+002, 2.782137e+003
2.344182e+002, 2.778385e+003
2.349003e+002, 2.775461e+003
2.353824e+002, 2.774064e+003
2.358646e+002, 2.772500e+003
2.363467e+002, 2.769583e+003
2.368288e+002, 2.763442e+003
2.373109e+002, 2.760146e+003
2.377930e+002, 2.760787e+003
2.382751e+002, 2.764157e+003
2.387573e+002, 2.766625e+003
2.392394e+002, 2.767661e+003
2.397215e+002, 2.768435e+003
2.402036e+002, 2.769479e+003
2.406857e+002, 2.771014e+003
2.411678e+002, 2.772149e+003
2.416500e+002, 2.772490e+003
2.421321e+002, 2.772498e+003
2.426142e+002, 2.773477e+003
2.430963e+002, 2.776037e+003
2.435784e+002, 2.778658e+003
2.440605e+002, 2.780592e+003
2.445427e+002, 2.781302e+003
2.450248e+002, 2.782803e+003
2.455069e+002, 2.785422e+003
2.459890e+002, 2.788755e+003
2.464711e+002, 2.792034e+003
2.469532e+002, 2.796076e+003
2.474354e+002, 2.798823e+003
2.479175e+002, 2.798746e+003
2.483996e+002, 2.793671e+003
2.488817e+002, 2.793321e+003
2.493638e+002, 2.800258e+003
2.498459e+002, 2.810533e+003
2.503281e+002, 2.816588e+003
2.508102e+002, 2.816136e+003
2.512923e+002, 2.815547e+003
2.517744e+002, 2.817230e+003
2.522565e+002, 2.822008e+003
2.527386e+002, 2.825549e+003
2.532208e+002, 2.827453e+003
2.537029e+002, 2.828416e+003
2.541850e+002, 2.829590e+003
2.546671e+002, 2.831267e+003
2.551492e+002, 2.832464e+003
2.556313e+002, 2.832397e+003
2.561135e+002, 2.830514e+003
2.565956e+002, 2.830913e+003
2.570777e+002, 2.834419e+003
2.575598e+002, 2.839293e+003
2.580419e+002, 2.843039e+003
2.585240e+002, 2.844645e+003
2.590062e+002, 2.847268e+003
2.594883e+002, 2.852371e+003
2.599704e+002, 2.860154e+003
2.604525e+002, 2.865647e+003
2.609346e+002, 2.867953e+003
2.614167e+002, 2.869023e+003
2.618989e+002, 2.871005e+003
2.623810e+002, 2.874047e+003
2.628631e+002, 2.877681e+003
2.633452e+002, 2.881752e+003
2.638273e+002, 2.886361e+003
2.643094e+002, 2.892108e+003
2.647916e+002, 2.899826e+003
2.652737e+002, 2.907636e+003
2.657558e+002, 2.913722e+003
2.662379e+002, 2.917617e+003
2.667200e+002, 2.921316e+003
2.672021e+002, 2.925335e+003
2.676843e+002, 2.929563e+003
2.681664e+002, 2.932899e+003
2.686485e+002, 2.934844e+003
2.691306e+002, 2.936858e+003
2.696127e+002, 2.940202e+003
2.700948e+002, 2.945070e+003
2.705770e+002, 2.950101e+003
2.710591e+002, 2.954893e+003
2.715412e+002, 2.959567e+003
2.720233e+002, 2.965131e+003
2.725054e+002, 2.971687e+003
2.729875e+002, 2.978479e+003
2.734697e+002, 2.985002e+003
2.739518e+002, 2.991320e+003
2.744339e+002, 2.997188e+003
2.749160e+002, 3.002432e+003
2.753981e+002, 3.007289e+003
2.758802e+002, 3.012746e+003
2.763624e+002, 3.018959e+003
2.768445e+002, 3.024946e+003
2.773266e+002, 3.030378e+003
2.778087e+002, 3.035341e+003
2.782908e+002, 3.038518e+003
2.787729e+002, 3.039380e+003
2.792551e+002, 3.038948e+003
2.797372e+002, 3.039831e+003
2.802193e+002, 3.042378e+003
2.807014e+002, 3.044054e+003
2.811835e+002, 3.042748e+003
2.816656e+002, 3.038529e+003
2.821478e+002, 3.036271e+003
2.826299e+002, 3.036538e+003
2.831120e+002, 3.038084e+003
2.835941e+002, 3.038852e+003
2.840762e+002, 3.038798e+003
2.845583e+002, 3.038810e+003
2.850405e+002, 3.039525e+003
2.855226e+002, 3.040805e+003
2.860047e+002, 3.041305e+003
2.864868e+002, 3.040903e+003
2.869689e+002, 3.040082e+003
2.874510e+002, 3.039707e+003
2.879332e+002, 3.039711e+003
2.884153e+002, 3.038852e+003
2.888974e+002, 3.035391e+003
2.893795e+002, 3.030594e+003
2.898616e+002, 3.030118e+003
2.903438e+002, 3.034418e+003
2.908259e+002, 3.039815e+003
2.913080e+002, 3.042094e+003
2.917901e+002, 3.041722e+003
2.922722e+002, 3.041686e+003
2.927543e+002, 3.043208e+003
2.932365e+002, 3.045569e+003
2.937186e+002, 3.046811e+003
2.942007e+002, 3.046899e+003
2.946828e+002, 3.047269e+003
2.951649e+002, 3.049492e+003
2.956470e+002, 3.053086e+003
2.961292e+002, 3.056488e+003
2.966113e+002, 3.059048e+003
2.970934e+002, 3.061452e+003
2.975755e+002, 3.065237e+003
2.980576e+002, 3.070267e+003
2.985397e+002, 3.074810e+003
2.990219e+002, 3.077243e+003
2.995040e+002, 3.078364e+003
2.999861e+002, 3.080034e+003
3.004682e+002, 3.083086e+003
3.009503e+002, 3.085900e+003
3.014324e+002, 3.085561e+003
3.019146e+002, 3.082935e+003
3.023967e+002, 3.081571e+003
3.028788e+002, 3.084780e+003
3.033609e+002, 3.090302e+003
3.038430e+002, 3.094785e+003
3.043251e+002, 3.097593e+003
3.048073e+002, 3.100004e+003
3.052894e+002, 3.102915e+003
3.057715e+002, 3.106298e+003
3.062536e+002, 3.110202e+003
3.067357e+002, 3.115502e+003
3.072178e+002, 3.120786e+003
3.077000e+002, 3.124521e+003
3.081821e+002, 3.126495e+003
3.086642e+002, 3.127371e+003
3.091463e+002, 3.126196e+003
3.096284e+002, 3.124422e+003
3.101105e+002, 3.124335e+003
3.105927e+002, 3.128530e+003
3.110748e+002, 3.133555e+003
3.115569e+002, 3.136987e+003
3.120390e+002, 3.138770e+003
3.125211e+002, 3.140324e+003
3.130032e+002, 3.142539e+003
3.134854e+002, 3.144990e+003
3.139675e+002, 3.147193e+003
3.144496e+002, 3.148677e+003
3.149317e+002, 3.150238e+003
3.154138e+002, 3.152419e+003
3.158959e+002, 3.155143e+003
3.163781e+002, 3.157840e+003
3.168602e+002, 3.160104e+003
3.173423e+002, 3.162365e+003
3.178244e+002, 3.164902e+003
3.183065e+002, 3.167539e+003
3.187886e+002, 3.170816e+003
3.192708e+002, 3.174247e+003
3.197529e+002, 3.178336e+003
3.202350e+002, 3.184546e+003
3.207171e+002, 3.194737e+003
3.211992e+002, 3.205957e+003
3.216813e+002, 3.216621e+003
3.221635e+002, 3.225831e+003
3.226456e+002, 3.235950e+003
3.231277e+002, 3.247843e+003
3.236098e+002, 3.260807e+003
3.240919e+002, 3.273736e+003
3.245740e+002, 3.283670e+003
3.250562e+002, 3.295891e+003
3.255383e+002, 3.312997e+003
3.260204e+002, 3.336884e+003
3.265025e+002, 3.358304e+003
3.269846e+002, 3.375961e+003
3.274667e+002, 3.391158e+003
3.279489e+002, 3.405509e+003
3.284310e+002, 3.419350e+003
3.289131e+002, 3.432153e+003
3.293952e+002, 3.444060e+003
3.298773e+002, 3.455114e+003
3.303594e+002, 3.464966e+003
3.308416e+002, 3.475367e+003
3.313237e+002, 3.483026e+003
3.318058e+002, 3.485288e+003
3.322879e+002, 3.478809e+003
3.327700e+002, 3.472483e+003
3.332521e+002, 3.466743e+003
3.337343e+002, 3.461617e+003
3.342164e+002, 3.457436e+003
3.346985e+002, 3.454854e+003
3.351806e+002, 3.452186e+003
3.356627e+002, 3.448453e+003
3.361448e+002, 3.443293e+003
3.366270e+002, 3.437887e+003
3.371091e+002, 3.431257e+003
3.375912e+002, 3.425211e+003
3.380733e+002, 3.424114e+003
3.385554e+002, 3.429473e+003
3.390375e+002, 3.434991e+003
3.395197e+002, 3.438172e+003
3.400018e+002, 3.438892e+003
3.404839e+002, 3.439460e+003
3.409660e+002, 3.440052e+003
3.414481e+002, 3.440083e+003
3.419302e+002, 3.438665e+003
3.424124e+002, 3.435697e+003
3.428945e+002, 3.432174e+003
3.433766e+002, 3.427945e+003
3.438587e+002, 3.423385e+003
3.443408e+002, 3.419948e+003
3.448229e+002, 3.417629e+003
3.453051e+002, 3.416562e+003
3.457872e+002, 3.418121e+003
3.462693e+002, 3.421648e+003
3.467514e+002, 3.422651e+003
3.472335e+002, 3.419845e+003
3.477156e+002, 3.414553e+003
3.481978e+002, 3.408937e+003
3.486799e+002, 3.403047e+003
3.491620e+002, 3.397231e+003
3.496441e+002, 3.392593e+003
3.501262e+002, 3.388195e+003
3.506083e+002, 3.381237e+003
3.510905e+002, 3.370703e+003
3.515726e+002, 3.359923e+003
3.520547e+002, 3.353216e+003
3.525368e+002, 3.349520e+003
3.530189e+002, 3.345627e+003
3.535010e+002, 3.338919e+003
3.539832e+002, 3.331574e+003
3.544653e+002, 3.326269e+003
3.549474e+002, 3.323092e+003
3.554295e+002, 3.321010e+003
3.559116e+002, 3.319238e+003
3.563937e+002, 3.317995e+003
3.568759e+002, 3.317637e+003
3.573580e+002, 3.318388e+003
3.578401e+002, 3.319958e+003
3.583222e+002, 3.322151e+003
3.588043e+002, 3.325002e+003
3.592864e+002, 3.328589e+003
3.597686e+002, 3.333289e+003
3.602507e+002, 3.338595e+003
3.607328e+002, 3.344000e+003
3.612149e+002, 3.349303e+003
3.616970e+002, 3.354882e+003
3.621791e+002, 3.360845e+003
3.626613e+002, 3.367147e+003
3.631434e+002, 3.373721e+003
3.636255e+002, 3.380833e+003
3.641076e+002, 3.387917e+003
3.645897e+002, 3.394865e+003
3.650718e+002, 3.401688e+003
3.655540e+002, 3.407748e+003
3.660361e+002, 3.413318e+003
3.665182e+002, 3.417932e+003
3.670003e+002, 3.421033e+003
3.674824e+002, 3.421520e+003
3.679645e+002, 3.421629e+003
3.684467e+002, 3.422579e+003
3.689288e+002, 3.424553e+003
3.694109e+002, 3.423498e+003
3.698930e+002, 3.417604e+003
3.703751e+002, 3.410188e+003
3.708572e+002, 3.403371e+003
3.713394e+002, 3.397267e+003
3.718215e+002, 3.391846e+003
3.723036e+002, 3.387688e+003
3.727857e+002, 3.384195e+003
3.732678e+002, 3.379102e+003
3.737499e+002, 3.371676e+003
3.742321e+002, 3.363766e+003
3.747142e+002, 3.355979e+003
3.751963e+002, 3.347853e+003
3.756784e+002, 3.341442e+003
3.761605e+002, 3.336816e+003
3.766426e+002, 3.333813e+003
3.771248e+002, 3.333137e+003
3.776069e+002, 3.335451e+003
3.780890e+002, 3.335795e+003
3.785711e+002, 3.331149e+003
3.790532e+002, 3.322694e+003
3.795353e+002, 3.320100e+003
3.800175e+002, 3.324212e+003
3.804996e+002, 3.329905e+003
3.809817e+002, 3.331924e+003
3.814638e+002, 3.330792e+003
3.819459e+002, 3.331079e+003
3.824280e+002, 3.334174e+003
3.829102e+002, 3.338518e+003
3.833923e+002, 3.340700e+003
3.838744e+002, 3.340949e+003
3.843565e+002, 3.341652e+003
3.848386e+002, 3.345310e+003
3.853207e+002, 3.350336e+003
3.858029e+002, 3.353006e+003
3.862850e+002, 3.352613e+003
3.867671e+002, 3.351793e+003
3.872492e+002, 3.354055e+003
3.877313e+002, 3.358013e+003
3.882134e+002, 3.360457e+003
3.886956e+002, 3.357940e+003
3.891777e+002, 3.354580e+003
3.896598e+002, 3.354458e+003
3.901419e+002, 3.357501e+003
3.906240e+002, 3.360797e+003
3.911061e+002, 3.362757e+003
3.915883e+002, 3.364062e+003
3.920704e+002, 3.365392e+003
3.925525e+002, 3.366676e+003
3.930346e+002, 3.368459e+003
3.935167e+002, 3.370287e+003
3.939988e+002, 3.372757e+003
3.944810e+002, 3.377509e+003
3.949631e+002, 3.386772e+003
3.954452e+002, 3.397179e+003
3.959273e+002, 3.406947e+003
3.964094e+002, 3.415399e+003
3.968915e+002, 3.424709e+003
3.973737e+002, 3.436289e+003
3.978558e+002, 3.448559e+003
3.983379e+002, 3.459569e+003
3.988200e+002, 3.465808e+003
3.993021e+002, 3.474203e+003
3.997842e+002, 3.486612e+003
4.002664e+002, 3.502972e+003
4.007485e+002, 3.519218e+003
4.012306e+002, 3.535495e+003
4.017127e+002, 3.551219e+003
4.021948e+002, 3.565869e+003
4.026769e+002, 3.578775e+003
4.031591e+002, 3.591889e+003
4.036412e+002, 3.605050e+003
4.041233e+002, 3.618547e+003
4.046054e+002, 3.633928e+003
4.050875e+002, 3.651958e+003
4.055696e+002, 3.669191e+003
4.060518e+002, 3.683834e+003
4.065339e+002, 3.695819e+003
4.070160e+002, 3.708898e+003
4.074981e+002, 3.723184e+003
4.079802e+002, 3.738080e+003
4.084623e+002, 3.753633e+003
4.089445e+002, 3.769887e+003
4.094266e+002, 3.783764e+003
4.099087e+002, 3.794140e+003
4.103908e+002, 3.802023e+003
4.108729e+002, 3.809876e+003
4.113550e+002, 3.817704e+003
4.118372e+002, 3.823754e+003
4.123193e+002, 3.825566e+003
4.128014e+002, 3.824818e+003
4.132835e+002, 3.825539e+003
4.137656e+002, 3.828433e+003
4.142477e+002, 3.832038e+003
4.147299e+002, 3.835051e+003
4.152120e+002, 3.837492e+003
4.156941e+002, 3.839384e+003
4.161762e+002, 3.839634e+003
4.166583e+002, 3.839944e+003
4.171404e+002, 3.842171e+003
4.176226e+002, 3.846225e+003
4.181047e+002, 3.849999e+003
4.185868e+002, 3.852060e+003
4.190689e+002, 3.853290e+003
4.195510e+002, 3.854694e+003
4.200331e+002, 3.858117e+003
4.205153e+002, 3.859551e+003
4.209974e+002, 3.857159e+003
4.214795e+002, 3.851633e+003
4.219616e+002, 3.844746e+003
4.224437e+002, 3.836282e+003
4.229258e+002, 3.827171e+003
4.234080e+002, 3.818327e+003
4.238901e+002, 3.810708e+003
4.243722e+002, 3.800078e+003
4.248543e+002, 3.784923e+003
4.253364e+002, 3.767285e+003
4.258185e+002, 3.749142e+003
4.263007e+002, 3.729618e+003
4.267828e+002, 3.710604e+003
4.272649e+002, 3.692199e+003
4.277470e+002, 3.674529e+003
4.282291e+002, 3.658027e+003
4.287112e+002, 3.643378e+003
4.291934e+002, 3.628820e+003
4.296755e+002, 3.612252e+003
4.301576e+002, 3.592486e+003
4.306397e+002, 3.577439e+003
4.311218e+002, 3.568352e+003
4.316039e+002, 3.562330e+003
4.320861e+002, 3.554654e+003
4.325682e+002, 3.545165e+003
4.330503e+002, 3.536553e+003
4.335324e+002, 3.530436e+003
4.340145e+002, 3.525745e+003
4.344966e+002, 3.518302e+003
4.349788e+002, 3.508056e+003
4.354609e+002, 3.497582e+003
4.359430e+002, 3.488244e+003
4.364251e+002, 3.480288e+003
4.369072e+002, 3.474573e+003
4.373893e+002, 3.471600e+003
4.378715e+002, 3.469918e+003
4.383536e+002, 3.467844e+003
4.388357e+002, 3.465702e+003
4.393178e+002, 3.464397e+003
4.397999e+002, 3.465195e+003
4.402820e+002, 3.466480e+003
4.407642e+002, 3.466717e+003
4.412463e+002, 3.465777e+003
4.417284e+002, 3.464556e+003
4.422105e+002, 3.463499e+003
4.426926e+002, 3.462332e+003
4.431747e+002, 3.460753e+003
4.436569e+002, 3.457493e+003
4.441390e+002, 3.455159e+003
4.446211e+002, 3.454859e+003
4.451032e+002, 3.456133e+003
4.455853e+002, 3.457672e+003
4.460674e+002, 3.460105e+003
4.465496e+002, 3.462073e+003
4.470317e+002, 3.462787e+003
4.475138e+002, 3.461456e+003
4.479959e+002, 3.461813e+003
4.484780e+002, 3.465691e+003
4.489601e+002, 3.470145e+003
4.494423e+002, 3.472168e+003
4.499244e+002, 3.470273e+003
4.504065e+002, 3.469317e+003
4.508886e+002, 3.470818e+003
4.513707e+002, 3.473767e+003
4.518528e+002, 3.472984e+003
4.523350e+002, 3.466644e+003
4.528171e+002, 3.461996e+003
4.532992e+002, 3.464174e+003
4.537813e+002, 3.473271e+003
4.542634e+002, 3.478626e+003
4.547455e+002, 3.479219e+003
4.552277e+002, 3.478493e+003
4.557098e+002, 3.481334e+003
4.561919e+002, 3.487135e+003
4.566740e+002, 3.492067e+003
4.571561e+002, 3.494080e+003
4.576382e+002, 3.495067e+003
4.581204e+002, 3.498362e+003
4.586025e+002, 3.503777e+003
4.590846e+002, 3.509602e+003
4.595667e+002, 3.514838e+003
4.600488e+002, 3.519865e+003
4.605309e+002, 3.525233e+003
4.610131e+002, 3.531076e+003
4.614952e+002, 3.537069e+003
4.619773e+002, 3.543460e+003
4.624594e+002, 3.549680e+003
4.629415e+002, 3.554970e+003
4.634236e+002, 3.556988e+003
4.639058e+002, 3.559839e+003
4.643879e+002, 3.566032e+003
4.648700e+002, 3.575128e+003
4.653521e+002, 3.583478e+003
4.658342e+002, 3.590190e+003
4.663163e+002, 3.595952e+003
4.667985e+002, 3.601055e+003
4.672806e+002, 3.604815e+003
4.677627e+002, 3.609195e+003
4.682448e+002, 3.615142e+003
4.687269e+002, 3.621274e+003
4.692090e+002, 3.625720e+003
4.696912e+002, 3.628105e+003
4.701733e+002, 3.629513e+003
4.706554e+002, 3.630104e+003
4.711375e+002, 3.629890e+003
4.716196e+002, 3.628909e+003
4.721017e+002, 3.626911e+003
4.725839e+002, 3.624800e+003
4.730660e+002, 3.622808e+003
4.735481e+002, 3.620943e+003
4.740302e+002, 3.620970e+003
4.745123e+002, 3.623590e+003
4.749944e+002, 3.626711e+003
4.754766e+002, 3.626856e+003
4.759587e+002, 3.624510e+003
4.764408e+002, 3.622544e+003
4.769229e+002, 3.622362e+003
4.774050e+002, 3.623201e+003
4.778871e+002, 3.623666e+003
4.783693e+002, 3.623885e+003
4.788514e+002, 3.624757e+003
4.793335e+002, 3.626975e+003
4.798156e+002, 3.630204e+003
4.802977e+002, 3.634088e+003
4.807798e+002, 3.638624e+003
4.812620e+002, 3.643454e+003
4.817441e+002, 3.649525e+003
4.822262e+002, 3.655426e+003
4.827083e+002, 3.659089e+003
4.831904e+002, 3.656826e+003
4.836725e+002, 3.655000e+003
4.841547e+002, 3.655774e+003
4.846368e+002, 3.659081e+003
4.851189e+002, 3.663584e+003
4.856010e+002, 3.671579e+003
4.860831e+002, 3.678730e+003
4.865652e+002, 3.682542e+003
4.870474e+002, 3.680315e+003
4.875295e+002, 3.680568e+003
4.880116e+002, 3.683930e+003
4.884937e+002, 3.689292e+003
4.889758e+002, 3.695780e+003
4.894579e+002, 3.704683e+003
4.899401e+002, 3.710673e+003
4.904222e+002, 3.711800e+003
4.909043e+002, 3.709142e+003
4.913864e+002, 3.707844e+003
4.918685e+002, 3.708118e+003
4.923506e+002, 3.708282e+003
4.928328e+002, 3.707093e+003
4.933149e+002, 3.704811e+003
4.937970e+002, 3.702706e+003
4.942791e+002, 3.701002e+003
4.947612e+002, 3.698901e+003
4.952433e+002, 3.695516e+003
4.957255e+002, 3.691023e+003
4.962076e+002, 3.685765e+003
4.966897e+002, 3.679306e+003
4.971718e+002, 3.672746e+003
4.976539e+002, 3.667278e+003
4.981360e+002, 3.662742e+003
4.986182e+002, 3.658354e+003
4.991003e+002, 3.652214e+003
4.995824e+002, 3.647144e+003
5.000645e+002, 3.646211e+003
5.005466e+002, 3.651124e+003
5.010287e+002, 3.653547e+003
5.015109e+002, 3.648244e+003
5.019930e+002, 3.640497e+003
5.024751e+002, 3.635639e+003
5.029572e+002, 3.635980e+003
5.034393e+002, 3.637273e+003
5.039214e+002, 3.639445e+003
5.044036e+002, 3.642228e+003
5.048857e+002, 3.644707e+003
5.053678e+002, 3.646531e+003
5.058499e+002, 3.648680e+003
5.063320e+002, 3.651096e+003
5.068141e+002, 3.653609e+003
5.072963e+002, 3.659902e+003
5.077784e+002, 3.671317e+003
5.082605e+002, 3.683209e+003
5.087426e+002, 3.690168e+003
5.092247e+002, 3.692599e+003
5.097068e+002, 3.696810e+003
5.101890e+002, 3.704239e+003
5.106711e+002, 3.713381e+003
5.111532e+002, 3.721375e+003
5.116353e+002, 3.728629e+003
5.121174e+002, 3.736939e+003
5.125995e+002, 3.747980e+003
5.130817e+002, 3.760241e+003
5.135638e+002, 3.772311e+003
5.140459e+002, 3.784100e+003
5.145280e+002, 3.794965e+003
5.150101e+002, 3.803629e+003
5.154922e+002, 3.811693e+003
5.159744e+002, 3.820566e+003
5.164565e+002, 3.830873e+003
5.169386e+002, 3.841578e+003
5.174207e+002, 3.852487e+003
5.179028e+002, 3.863599e+003
5.183849e+002, 3.874897e+003
5.188671e+002, 3.886710e+003
5.193492e+002, 3.898348e+003
5.198313e+002, 3.909318e+003
5.203134e+002, 3.919657e+003
5.207955e+002, 3.931835e+003
5.212776e+002, 3.947170e+003
5.217598e+002, 3.962368e+003
5.222419e+002, 3.975454e+003
5.227240e+002, 3.986257e+003
5.232061e+002, 3.995802e+003
5.236882e+002, 4.003669e+003
5.241703e+002, 4.011232e+003
5.246525e+002, 4.021633e+003
5.251346e+002, 4.034543e+003
5.256167e+002, 4.043758e+003
5.260988e+002, 4.047673e+003
5.265809e+002, 4.046837e+003
5.270630e+002, 4.040587e+003
5.275452e+002, 4.029698e+003
5.280273e+002, 4.018390e+003
5.285094e+002, 4.010433e+003
5.289915e+002, 4.002706e+003
5.294736e+002, 3.991348e+003
5.299557e+002, 3.975946e+003
5.304379e+002, 3.959027e+003
5.309200e+002, 3.940122e+003
5.314021e+002, 3.921133e+003
5.318842e+002, 3.903886e+003
5.323663e+002, 3.889616e+003
5.328484e+002, 3.875884e+003
5.333306e+002, 3.862362e+003
5.338127e+002, 3.848937e+003
5.342948e+002, 3.835757e+003
5.347769e+002, 3.821604e+003
5.352590e+002, 3.808922e+003
5.357411e+002, 3.798501e+003
5.362233e+002, 3.790346e+003
5.367054e+002, 3.782639e+003
5.371875e+002, 3.775522e+003
5.376696e+002, 3.768852e+003
5.381517e+002, 3.763084e+003
5.386339e+002, 3.758557e+003
5.391160e+002, 3.750759e+003
5.395981e+002, 3.738331e+003
5.400802e+002, 3.725977e+003
5.405623e+002, 3.720336e+003
5.410444e+002, 3.720451e+003
5.415266e+002, 3.720796e+003
5.420087e+002, 3.719817e+003
5.424908e+002, 3.717952e+003
5.429729e+002, 3.715480e+003
5.434550e+002, 3.712559e+003
5.439371e+002, 3.709806e+003
5.444193e+002, 3.706302e+003
5.449014e+002, 3.703896e+003
5.453835e+002, 3.705060e+003
5.458656e+002, 3.710211e+003
5.463477e+002, 3.713937e+003
5.468298e+002, 3.712452e+003
5.473120e+002, 3.709479e+003
5.477941e+002, 3.708092e+003
5.482762e+002, 3.709816e+003
5.487583e+002, 3.711676e+003
5.492404e+002, 3.713780e+003
5.497225e+002, 3.715760e+003
5.502047e+002, 3.716944e+003
5.506868e+002, 3.716910e+003
5.511689e+002, 3.716903e+003
5.516510e+002, 3.717360e+003
5.521331e+002, 3.718150e+003
5.526152e+002, 3.718044e+003
5.530974e+002, 3.716785e+003
5.535795e+002, 3.716149e+003
5.540616e+002, 3.718375e+003
5.545437e+002, 3.722694e+003
5.550258e+002, 3.723649e+003
5.555079e+002, 3.720535e+003
5.559901e+002, 3.717469e+003
5.564722e+002, 3.719707e+003
5.569543e+002, 3.725105e+003
5.574364e+002, 3.728980e+003
5.579185e+002, 3.728863e+003
5.584006e+002, 3.728613e+003
5.588828e+002, 3.731544e+003
5.593649e+002, 3.736624e+003
5.598470e+002, 3.741569e+003
5.603291e+002, 3.745552e+003
5.608112e+002, 3.748936e+003
5.612933e+002, 3.751899e+003
5.617755e+002, 3.754387e+003
5.622576e+002, 3.756078e+003
5.627397e+002, 3.756594e+003
5.632218e+002, 3.756427e+003
5.637039e+002, 3.755828e+003
5.641860e+002, 3.754933e+003
5.646682e+002, 3.753237e+003
5.651503e+002, 3.750589e+003
5.656324e+002, 3.747425e+003
5.661145e+002, 3.744182e+003
5.665966e+002, 3.740824e+003
5.670787e+002, 3.738182e+003
5.675609e+002, 3.736685e+003
5.680430e+002, 3.735854e+003
5.685251e+002, 3.734821e+003
5.690072e+002, 3.733592e+003
5.694893e+002, 3.732045e+003
5.699714e+002, 3.729476e+003
5.704536e+002, 3.726830e+003
5.709357e+002, 3.725673e+003
5.714178e+002, 3.725933e+003
5.718999e+002, 3.726219e+003
5.723820e+002, 3.725145e+003
5.728641e+002, 3.723919e+003
5.733463e+002, 3.723922e+003
5.738284e+002, 3.726331e+003
5.743105e+002, 3.727270e+003
5.747926e+002, 3.723956e+003
5.752747e+002, 3.719064e+003
5.757568e+002, 3.715974e+003
5.762390e+002, 3.715070e+003
5.767211e+002, 3.715777e+003
5.772032e+002, 3.718761e+003
5.776853e+002, 3.723251e+003
5.781674e+002, 3.726641e+003
5.786495e+002, 3.728975e+003
5.791317e+002, 3.730074e+003
5.796138e+002, 3.729374e+003
5.800959e+002, 3.727206e+003
5.805780e+002, 3.726423e+003
5.810601e+002, 3.727152e+003
5.815422e+002, 3.728064e+003
5.820244e+002, 3.728268e+003
5.825065e+002, 3.727808e+003
5.829886e+002, 3.726343e+003
5.834707e+002, 3.723481e+003
5.839528e+002, 3.721521e+003
5.844349e+002, 3.722924e+003
5.849171e+002, 3.726449e+003
5.853992e+002, 3.730273e+003
5.858813e+002, 3.735729e+003
5.863634e+002, 3.739189e+003
5.868455e+002, 3.737158e+003
5.873276e+002, 3.731762e+003
5.878098e+002, 3.728931e+003
5.882919e+002, 3.732768e+003
5.887740e+002, 3.736208e+003
5.892561e+002, 3.736431e+003
5.897382e+002, 3.733321e+003
5.902203e+002, 3.733573e+003
5.907025e+002, 3.739203e+003
5.911846e+002, 3.744545e+003
5.916667e+002, 3.745098e+003
5.921488e+002, 3.740354e+003
5.926309e+002, 3.738660e+003
5.931130e+002, 3.740735e+003
5.935952e+002, 3.744322e+003
5.940773e+002, 3.747626e+003
5.945594e+002, 3.750343e+003
5.950415e+002, 3.750700e+003
5.955236e+002, 3.746955e+003
5.960057e+002, 3.743324e+003
5.964879e+002, 3.745703e+003
5.969700e+002, 3.751902e+003
5.974521e+002, 3.756745e+003
5.979342e+002, 3.757254e+003
5.984163e+002, 3.756255e+003
5.988984e+002, 3.754725e+003
5.993806e+002, 3.752827e+003
5.998627e+002, 3.751608e+003
6.003448e+002, 3.750311e+003
6.008269e+002, 3.750603e+003
6.013090e+002, 3.753710e+003
6.017911e+002, 3.760861e+003
6.022733e+002, 3.765838e+003
6.027554e+002, 3.768027e+003
6.032375e+002, 3.768889e+003
6.037196e+002, 3.769293e+003
6.042017e+002, 3.769061e+003
6.046838e+002, 3.770593e+003
6.051660e+002, 3.774613e+003
6.056481e+002, 3.779550e+003
6.061302e+002, 3.783009e+003
6.066123e+002, 3.785161e+003
6.070944e+002, 3.786690e+003
6.075765e+002, 3.787430e+003
6.080587e+002, 3.788096e+003
6.085408e+002, 3.789405e+003
6.090229e+002, 3.791309e+003
6.095050e+002, 3.793731e+003
6.099871e+002, 3.797067e+003
6.104692e+002, 3.800483e+003
6.109514e+002, 3.803655e+003
6.114335e+002, 3.806586e+003
6.119156e+002, 3.808546e+003
6.123977e+002, 3.808019e+003
6.128798e+002, 3.807490e+003
6.133619e+002, 3.808582e+003
6.138441e+002, 3.812764e+003
6.143262e+002, 3.814821e+003
6.148083e+002, 3.813511e+003
6.152904e+002, 3.811841e+003
6.157725e+002, 3.814428e+003
6.162546e+002, 3.821668e+003
6.167368e+002, 3.826595e+003
6.172189e+002, 3.827370e+003
6.177010e+002, 3.826239e+003
6.181831e+002, 3.827335e+003
6.186652e+002, 3.830134e+003
6.191473e+002, 3.832530e+003
6.196295e+002, 3.833073e+003
6.201116e+002, 3.832986e+003
6.205937e+002, 3.833502e+003
6.210758e+002, 3.834495e+003
6.215579e+002, 3.835357e+003
6.220400e+002, 3.835565e+003
6.225222e+002, 3.835689e+003
6.230043e+002, 3.835934e+003
6.234864e+002, 3.836225e+003
6.239685e+002, 3.837145e+003
6.244506e+002, 3.838996e+003
6.249327e+002, 3.841255e+003
6.254149e+002, 3.843735e+003
6.258970e+002, 3.846799e+003
6.263791e+002, 3.848928e+003
6.268612e+002, 3.850124e+003
6.273433e+002, 3.850279e+003
6.278254e+002, 3.848418e+003
6.283076e+002, 3.844707e+003
6.287897e+002, 3.842995e+003
6.292718e+002, 3.844904e+003
6.297539e+002, 3.848208e+003
6.302360e+002, 3.849074e+003
6.307181e+002, 3.848286e+003
6.312003e+002, 3.848298e+003
6.316824e+002, 3.852114e+003
6.321645e+002, 3.855848e+003
6.326466e+002, 3.855676e+003
6.331287e+002, 3.852252e+003
6.336108e+002, 3.850071e+003
6.340930e+002, 3.851520e+003
6.345751e+002, 3.853883e+003
6.350572e+002, 3.856064e+003
6.355393e+002, 3.858193e+003
6.360214e+002, 3.859031e+003
6.365035e+002, 3.857566e+003
6.369857e+002, 3.856010e+003
6.374678e+002, 3.856022e+003
6.379499e+002, 3.857718e+003
6.384320e+002, 3.860234e+003
6.389141e+002, 3.863800e+003
6.393962e+002, 3.867257e+003
6.398784e+002, 3.868890e+003
6.403605e+002, 3.869001e+003
6.408426e+002, 3.868870e+003
6.413247e+002, 3.868600e+003
6.418068e+002, 3.868724e+003
6.422889e+002, 3.869763e+003
6.427711e+002, 3.871667e+003
6.432532e+002, 3.874327e+003
6.437353e+002, 3.878880e+003
6.442174e+002, 3.883058e+003
6.446995e+002, 3.885877e+003
6.451816e+002, 3.887370e+003
6.456638e+002, 3.888052e+003
6.461459e+002, 3.885820e+003
6.466280e+002, 3.885057e+003
6.471101e+002, 3.887840e+003
6.475922e+002, 3.894428e+003
6.480743e+002, 3.899022e+003
6.485565e+002, 3.901038e+003
6.490386e+002, 3.902348e+003
6.495207e+002, 3.904152e+003
6.500028e+002, 3.906390e+003
6.504849e+002, 3.909072e+003
6.509670e+002, 3.912259e+003
6.514492e+002, 3.915077e+003
6.519313e+002, 3.916294e+003
6.524134e+002, 3.916491e+003
6.528955e+002, 3.916729e+003
6.533776e+002, 3.917228e+003
6.538597e+002, 3.917985e+003
6.543419e+002, 3.919865e+003
6.548240e+002, 3.921850e+003
6.553061e+002, 3.922342e+003
6.557882e+002, 3.918291e+003
6.562703e+002, 3.915851e+003
6.567524e+002, 3.918050e+003
6.572346e+002, 3.922945e+003
6.577167e+002, 3.924434e+003
6.581988e+002, 3.920969e+003
6.586809e+002, 3.917690e+003
6.591630e+002, 3.916123e+003
6.596451e+002, 3.916164e+003
6.601273e+002, 3.917490e+003
6.606094e+002, 3.920139e+003
6.610915e+002, 3.922973e+003
6.615736e+002, 3.924600e+003
6.620557e+002, 3.925996e+003
6.625378e+002, 3.929747e+003
6.630200e+002, 3.935920e+003
6.635021e+002, 3.941344e+003
6.639842e+002, 3.942804e+003
6.644663e+002, 3.942980e+003
6.649484e+002, 3.944554e+003
6.654305e+002, 3.948764e+003
6.659127e+002, 3.952130e+003
6.663948e+002, 3.953256e+003
6.668769e+002, 3.953482e+003
6.673590e+002, 3.954187e+003
6.678411e+002, 3.955558e+003
6.683232e+002, 3.957225e+003
6.688054e+002, 3.959545e+003
6.692875e+002, 3.961753e+003
6.697696e+002, 3.962286e+003
6.702517e+002, 3.961106e+003
6.707338e+002, 3.959597e+003
6.712159e+002, 3.957597e+003
6.716981e+002, 3.956198e+003
6.721802e+002, 3.958108e+003
6.726623e+002, 3.962467e+003
6.731444e+002, 3.966282e+003
6.736265e+002, 3.967404e+003
6.741086e+002, 3.967844e+003
6.745908e+002, 3.968802e+003
6.750729e+002, 3.970338e+003
6.755550e+002, 3.972527e+003
6.760371e+002, 3.977341e+003
6.765192e+002, 3.981098e+003
6.770013e+002, 3.981293e+003
6.774835e+002, 3.977306e+003
6.779656e+002, 3.977312e+003
6.784477e+002, 3.983091e+003
6.789298e+002, 3.989668e+003
6.794119e+002, 3.993157e+003
6.798940e+002, 3.993547e+003
6.803762e+002, 3.995843e+003
6.808583e+002, 4.000473e+003
6.813404e+002, 4.005232e+003
6.818225e+002, 4.007765e+003
6.823046e+002, 4.008759e+003
6.827867e+002, 4.009906e+003
6.832689e+002, 4.011842e+003
6.837510e+002, 4.012883e+003
6.842331e+002, 4.010169e+003
6.847152e+002, 4.006411e+003
6.851973e+002, 4.005128e+003
6.856794e+002, 4.009953e+003
6.861616e+002, 4.014136e+003
6.866437e+002, 4.015266e+003
6.871258e+002, 4.015378e+003
6.876079e+002, 4.018394e+003
6.880900e+002, 4.025779e+003
6.885721e+002, 4.032153e+003
6.890543e+002, 4.036194e+003
6.895364e+002, 4.038279e+003
6.900185e+002, 4.039372e+003
6.905006e+002, 4.039451e+003
6.909827e+002, 4.038967e+003
6.914648e+002, 4.038213e+003
6.919470e+002, 4.036946e+003
6.924291e+002, 4.034293e+003
6.929112e+002, 4.030552e+003
6.933933e+002, 4.027426e+003
6.938754e+002, 4.026117e+003
6.943575e+002, 4.025533e+003
6.948397e+002, 4.024687e+003
6.953218e+002, 4.023406e+003
6.958039e+002, 4.023929e+003
6.962860e+002, 4.028970e+003
6.967681e+002, 4.033663e+003
6.972502e+002, 4.035149e+003
6.977324e+002, 4.032285e+003
6.982145e+002, 4.032515e+003
6.986966e+002, 4.036762e+003
6.991787e+002, 4.041577e+003
6.996608e+002, 4.043498e+003
7.001429e+002, 4.042965e+003
7.006251e+002, 4.041862e+003
7.011072e+002, 4.040157e+003
7.015893e+002, 4.039293e+003
7.020714e+002, 4.041161e+003
7.025535e+002, 4.044594e+003
7.030356e+002, 4.047935e+003
7.035178e+002, 4.050616e+003
7.039999e+002, 4.053141e+003
7.044820e+002, 4.055538e+003
7.049641e+002, 4.057889e+003
7.054462e+002, 4.060444e+003
7.059283e+002, 4.064338e+003
7.064105e+002, 4.066576e+003
7.068926e+002, 4.066207e+003
7.073747e+002, 4.064337e+003
7.078568e+002, 4.063614e+003
7.083389e+002, 4.064133e+003
7.088210e+002, 4.064700e+003
7.093032e+002, 4.064780e+003
7.097853e+002, 4.064836e+003
7.102674e+002, 4.066332e+003
7.107495e+002, 4.068815e+003
7.112316e+002, 4.070289e+003
7.117137e+002, 4.068625e+003
7.121959e+002, 4.066402e+003
7.126780e+002, 4.065005e+003
7.131601e+002, 4.064563e+003
7.136422e+002, 4.065593e+003
7.141243e+002, 4.069206e+003
7.146064e+002, 4.073425e+003
7.150886e+002, 4.077966e+003
7.155707e+002, 4.082934e+003
7.160528e+002, 4.085138e+003
7.165349e+002, 4.083587e+003
7.170170e+002, 4.081891e+003
7.174991e+002, 4.083001e+003
7.179813e+002, 4.086366e+003
7.184634e+002, 4.086793e+003
7.189455e+002, 4.084009e+003
7.194276e+002, 4.082040e+003
7.199097e+002, 4.086327e+003
7.203918e+002, 4.092679e+003
7.208740e+002, 4.094472e+003
7.213561e+002, 4.089733e+003
7.218382e+002, 4.086917e+003
7.223203e+002, 4.092125e+003
7.228024e+002, 4.099757e+003
7.232845e+002, 4.104854e+003
7.237667e+002, 4.104927e+003
7.242488e+002, 4.105952e+003
7.247309e+002, 4.108298e+003
7.252130e+002, 4.111165e+003
7.256951e+002, 4.113601e+003
7.261772e+002, 4.115552e+003
7.266594e+002, 4.118046e+003
7.271415e+002, 4.121593e+003
7.276236e+002, 4.124632e+003
7.281057e+002, 4.124434e+003
7.285878e+002, 4.122009e+003
7.290699e+002, 4.119877e+003
7.295521e+002, 4.118415e+003
7.300342e+002, 4.118261e+003
7.305163e+002, 4.120902e+003
7.309984e+002, 4.124993e+003
7.314805e+002, 4.128127e+003
7.319626e+002, 4.129339e+003
7.324448e+002, 4.129938e+003
7.329269e+002, 4.129200e+003
7.334090e+002, 4.128249e+003
7.338911e+002, 4.130668e+003
7.343732e+002, 4.137467e+003
7.348553e+002, 4.143367e+003
7.353375e+002, 4.146396e+003
7.358196e+002, 4.147689e+003
7.363017e+002, 4.150138e+003
7.367838e+002, 4.153583e+003
7.372659e+002, 4.157047e+003
7.377480e+002, 4.159821e+003
7.382302e+002, 4.162481e+003
7.387123e+002, 4.165853e+003
7.391944e+002, 4.169702e+003
7.396765e+002, 4.172900e+003
7.401586e+002, 4.174229e+003
7.406407e+002, 4.175565e+003
7.411229e+002, 4.177870e+003
7.416050e+002, 4.181104e+003
7.420871e+002, 4.183713e+003
7.425692e+002, 4.185273e+003
7.430513e+002, 4.187259e+003
7.435334e+002, 4.190186e+003
7.440156e+002, 4.194167e+003
7.444977e+002, 4.200600e+003
7.449798e+002, 4.209513e+003
7.454619e+002, 4.217850e+003
7.459440e+002, 4.221604e+003
7.464261e+002, 4.224159e+003
7.469083e+002, 4.230618e+003
7.473904e+002, 4.241479e+003
7.478725e+002, 4.250973e+003
7.483546e+002, 4.253125e+003
7.488367e+002, 4.255189e+003
7.493188e+002, 4.262482e+003
7.498010e+002, 4.276768e+003
7.502831e+002, 4.290429e+003
7.507652e+002, 4.304067e+003
7.512473e+002, 4.316063e+003
7.517294e+002, 4.324516e+003
7.522115e+002, 4.329423e+003
7.526937e+002, 4.335519e+003
7.531758e+002, 4.343000e+003
7.536579e+002, 4.352598e+003
7.541400e+002, 4.365784e+003
7.546221e+002, 4.381395e+003
7.551042e+002, 4.397693e+003
7.555864e+002, 4.414118e+003
7.560685e+002, 4.431806e+003
7.565506e+002, 4.452882e+003
7.570327e+002, 4.474777e+003
7.575148e+002, 4.494253e+003
7.579969e+002, 4.506764e+003
7.584791e+002, 4.524049e+003
7.589612e+002, 4.546998e+003
7.594433e+002, 4.573672e+003
7.599254e+002, 4.601255e+003
7.604075e+002, 4.629867e+003
7.608896e+002, 4.661178e+003
7.613718e+002, 4.695764e+003
7.618539e+002, 4.731946e+003
7.623360e+002, 4.768662e+003
7.628181e+002, 4.805152e+003
7.633002e+002, 4.839570e+003
7.637823e+002, 4.870717e+003
7.642645e+002, 4.901606e+003
7.647466e+002, 4.935267e+003
7.652287e+002, 4.969193e+003
7.657108e+002, 5.000587e+003
7.661929e+002, 5.030320e+003
7.666750e+002, 5.055371e+003
7.671572e+002, 5.075700e+003
7.676393e+002, 5.091076e+003
7.681214e+002, 5.101113e+003
7.686035e+002, 5.105716e+003
7.690856e+002, 5.105331e+003
7.695677e+002, 5.099229e+003
7.700499e+002, 5.089788e+003
7.705320e+002, 5.080517e+003
7.710141e+002, 5.070846e+003
7.714962e+002, 5.059378e+003
7.719783e+002, 5.045498e+003
7.724604e+002, 5.029536e+003
7.729426e+002, 5.009649e+003
7.734247e+002, 4.987991e+003
7.739068e+002, 4.969853e+003
7.743889e+002, 4.956857e+003
7.748710e+002, 4.945937e+003
7.753531e+002, 4.936624e+003
7.758353e+002, 4.929071e+003
7.763174e+002, 4.923700e+003
7.767995e+002, 4.920597e+003
7.772816e+002, 4.919530e+003
7.777637e+002, 4.920582e+003
7.782458e+002, 4.923539e+003
7.787280e+002, 4.928454e+003
7.792101e+002, 4.935073e+003
7.796922e+002, 4.942383e+003
7.801743e+002, 4.946732e+003
7.806564e+002, 4.954845e+003
7.811385e+002, 4.971616e+003
7.816207e+002, 4.995561e+003
7.821028e+002, 5.019401e+003
7.825849e+002, 5.039494e+003
7.830670e+002, 5.064200e+003
7.835491e+002, 5.095455e+003
7.840313e+002, 5.133026e+003
7.845134e+002, 5.177356e+003
7.849955e+002, 5.228828e+003
7.854776e+002, 5.282168e+003
7.859597e+002, 5.333072e+003
7.864418e+002, 5.386421e+003
7.869240e+002, 5.449850e+003
7.874061e+002, 5.522111e+003
7.878882e+002, 5.598475e+003
7.883703e+002, 5.671831e+003
7.888524e+002, 5.751470e+003
7.893345e+002, 5.840343e+003
7.898167e+002, 5.939471e+003
7.902988e+002, 6.046892e+003
7.907809e+002, 6.164544e+003
7.912630e+002, 6.288159e+003
7.917451e+002, 6.418319e+003
7.922272e+002, 6.553042e+003
7.927094e+002, 6.696653e+003
7.931915e+002, 6.847663e+003
7.936736e+002, 6.997830e+003
7.941557e+002, 7.140755e+003
7.946378e+002, 7.279748e+003
7.951199e+002, 7.422180e+003
7.956021e+002, 7.562968e+003
7.960842e+002, 7.688257e+003
7.965663e+002, 7.796815e+003
7.970484e+002, 7.882030e+003
7.975305e+002, 7.940917e+003
7.980126e+002, 7.973427e+003
7.984948e+002, 7.972868e+003
7.989769e+002, 7.933915e+003
7.994590e+002, 7.873890e+003
7.999411e+002, 7.797520e+003
8.004232e+002, 7.706647e+003
8.009053e+002, 7.607341e+003
8.013875e+002, 7.500963e+003
8.018696e+002, 7.401250e+003
8.023517e+002, 7.313323e+003
8.028338e+002, 7.236828e+003
8.033159e+002, 7.171120e+003
8.037980e+002, 7.116335e+003
8.042802e+002, 7.075321e+003
8.047623e+002, 7.050188e+003
8.052444e+002, 7.038289e+003
8.057265e+002, 7.038356e+003
8.062086e+002, 7.050203e+003
8.066907e+002, 7.073479e+003
8.071729e+002, 7.108920e+003
8.076550e+002, 7.152738e+003
8.081371e+002, 7.203028e+003
8.086192e+002, 7.260701e+003
8.091013e+002, 7.327966e+003
8.095834e+002, 7.404843e+003
8.100656e+002, 7.491401e+003
8.105477e+002, 7.586479e+003
8.110298e+002, 7.692378e+003
8.115119e+002, 7.812556e+003
8.119940e+002, 7.946489e+003
8.124761e+002, 8.089552e+003
8.129583e+002, 8.247009e+003
8.134404e+002, 8.406512e+003
8.139225e+002, 8.566254e+003
8.144046e+002, 8.724624e+003
8.148867e+002, 8.883573e+003
8.153688e+002, 9.042559e+003
8.158510e+002, 9.188022e+003
8.163331e+002, 9.319043e+003
8.168152e+002, 9.428473e+003
8.172973e+002, 9.508784e+003
8.177794e+002, 9.557459e+003
8.182615e+002, 9.562543e+003
8.187437e+002, 9.519135e+003
8.192258e+002, 9.429181e+003
8.197079e+002, 9.288435e+003
8.201900e+002, 9.096526e+003
8.206721e+002, 8.872500e+003
8.211542e+002, 8.605182e+003
8.216364e+002, 8.326780e+003
8.221185e+002, 8.041803e+003
8.226006e+002, 7.757681e+003
8.230827e+002, 7.476709e+003
8.235648e+002, 7.202484e+003
8.240469e+002, 6.944352e+003
8.245291e+002, 6.706720e+003
8.250112e+002, 6.488975e+003
8.254933e+002, 6.287849e+003
8.259754e+002, 6.103898e+003
8.264575e+002, 5.935896e+003
8.269396e+002, 5.782770e+003
8.274218e+002, 5.647607e+003
8.279039e+002, 5.534753e+003
8.283860e+002, 5.439296e+003
8.288681e+002, 5.347807e+003
8.293502e+002, 5.258187e+003
8.298323e+002, 5.180545e+003
8.303145e+002, 5.119981e+003
8.307966e+002, 5.070987e+003
8.312787e+002, 5.024083e+003
8.317608e+002, 4.979667e+003
8.322429e+002, 4.940561e+003
8.327250e+002, 4.908541e+003
8.332072e+002, 4.880991e+003
8.336893e+002, 4.857964e+003
8.341714e+002, 4.838276e+003
8.346535e+002, 4.818674e+003
8.351356e+002, 4.795960e+003
8.356177e+002, 4.778726e+003
8.360999e+002, 4.769408e+003
8.365820e+002, 4.765405e+003
8.370641e+002, 4.760338e+003
8.375462e+002, 4.754571e+003
8.380283e+002, 4.752522e+003
8.385104e+002, 4.756926e+003
8.389926e+002, 4.763154e+003
8.394747e+002, 4.765578e+003
8.399568e+002, 4.766262e+003
8.404389e+002, 4.768860e+003
8.409210e+002, 4.777048e+003
8.414031e+002, 4.784212e+003
8.418853e+002, 4.787833e+003
8.423674e+002, 4.790055e+003
8.428495e+002, 4.793920e+003
8.433316e+002, 4.799765e+003
8.438137e+002, 4.805598e+003
8.442958e+002, 4.811479e+003
8.447780e+002, 4.816195e+003
8.452601e+002, 4.817396e+003
8.457422e+002, 4.816059e+003
8.462243e+002, 4.814836e+003
8.467064e+002, 4.815294e+003
8.471885e+002, 4.813818e+003
8.476707e+002, 4.809222e+003
8.481528e+002, 4.801186e+003
8.486349e+002, 4.788947e+003
8.491170e+002, 4.769049e+003
8.495991e+002, 4.752076e+003
8.500812e+002, 4.739554e+003
8.505634e+002, 4.727995e+003
8.510455e+002, 4.712435e+003
8.515276e+002, 4.693685e+003
8.520097e+002, 4.677229e+003
8.524918e+002, 4.663568e+003
8.529739e+002, 4.653647e+003
8.534561e+002, 4.649643e+003
8.539382e+002, 4.649085e+003
8.544203e+002, 4.648950e+003
8.549024e+002, 4.647761e+003
8.553845e+002, 4.650191e+003
8.558666e+002, 4.659064e+003
8.563488e+002, 4.670071e+003
8.568309e+002, 4.679718e+003
8.573130e+002, 4.687240e+003
8.577951e+002, 4.699798e+003
8.582772e+002, 4.717674e+003
8.587593e+002, 4.737449e+003
8.592415e+002, 4.755333e+003
8.597236e+002, 4.773269e+003
8.602057e+002, 4.794976e+003
8.606878e+002, 4.820677e+003
8.611699e+002, 4.848733e+003
8.616520e+002, 4.881338e+003
8.621342e+002, 4.913819e+003
8.626163e+002, 4.944015e+003
8.630984e+002, 4.971820e+003
8.635805e+002, 4.996952e+003
8.640626e+002, 5.018889e+003
8.645447e+002, 5.039697e+003
8.650269e+002, 5.063563e+003
8.655090e+002, 5.087077e+003
8.659911e+002, 5.097001e+003
8.664732e+002, 5.094201e+003
8.669553e+002, 5.084236e+003
8.674374e+002, 5.070754e+003
8.679196e+002, 5.051038e+003
8.684017e+002, 5.022295e+003
8.688838e+002, 4.985288e+003
8.693659e+002, 4.945056e+003
8.698480e+002, 4.900174e+003
8.703301e+002, 4.855834e+003
8.708123e+002, 4.812696e+003
8.712944e+002, 4.771019e+003
8.717765e+002, 4.731002e+003
8.722586e+002, 4.693064e+003
8.727407e+002, 4.656756e+003
8.732228e+002, 4.621287e+003
8.737050e+002, 4.588646e+003
8.741871e+002, 4.563123e+003
8.746692e+002, 4.541934e+003
8.751513e+002, 4.518586e+003
8.756334e+002, 4.486710e+003
8.761155e+002, 4.458465e+003
8.765977e+002, 4.436373e+003
8.770798e+002, 4.418545e+003
8.775619e+002, 4.401795e+003
8.780440e+002, 4.386153e+003
8.785261e+002, 4.371635e+003
8.790082e+002, 4.358002e+003
8.794904e+002, 4.345708e+003
8.799725e+002, 4.336034e+003
8.804546e+002, 4.327649e+003
8.809367e+002, 4.317846e+003
8.814188e+002, 4.303991e+003
8.819009e+002, 4.292782e+003
8.823831e+002, 4.289554e+003
8.828652e+002, 4.288200e+003
8.833473e+002, 4.282108e+003
8.838294e+002, 4.268782e+003
8.843115e+002, 4.260839e+003
8.847936e+002, 4.259712e+003
8.852758e+002, 4.260366e+003
8.857579e+002, 4.257454e+003
8.862400e+002, 4.252508e+003
8.867221e+002, 4.248659e+003
8.872042e+002, 4.246299e+003
8.876863e+002, 4.245559e+003
8.881685e+002, 4.249531e+003
8.886506e+002, 4.252810e+003
8.891327e+002, 4.250487e+003
8.896148e+002, 4.241232e+003
8.900969e+002, 4.235350e+003
8.905790e+002, 4.233181e+003
8.910612e+002, 4.233145e+003
8.915433e+002, 4.235289e+003
8.920254e+002, 4.238636e+003
8.925075e+002, 4.238909e+003
8.929896e+002, 4.236530e+003
8.934717e+002, 4.235282e+003
8.939539e+002, 4.240127e+003
8.944360e+002, 4.244510e+003
8.949181e+002, 4.243185e+003
8.954002e+002, 4.237011e+003
8.958823e+002, 4.232403e+003
8.963644e+002, 4.229778e+003
8.968466e+002, 4.229058e+003
8.973287e+002, 4.231411e+003
8.978108e+002, 4.234807e+003
8.982929e+002, 4.232506e+003
8.987750e+002, 4.225625e+003
8.992571e+002, 4.221189e+003
8.997393e+002, 4.223937e+003
9.002214e+002, 4.227055e+003
9.007035e+002, 4.222802e+003
9.011856e+002, 4.215462e+003
9.016677e+002, 4.212310e+003
9.021498e+002, 4.219265e+003
9.026320e+002, 4.224396e+003
9.031141e+002, 4.226509e+003
9.035962e+002, 4.226960e+003
9.040783e+002, 4.228046e+003
9.045604e+002, 4.229499e+003
9.050425e+002, 4.227064e+003
9.055247e+002, 4.219375e+003
9.060068e+002, 4.212532e+003
9.064889e+002, 4.213049e+003
9.069710e+002, 4.217270e+003
9.074531e+002, 4.221470e+003
9.079352e+002, 4.225401e+003
9.084174e+002, 4.228196e+003
9.088995e+002, 4.230278e+003
9.093816e+002, 4.230729e+003
9.098637e+002, 4.228050e+003
9.103458e+002, 4.222231e+003
9.108279e+002, 4.221091e+003
9.113101e+002, 4.224731e+003
9.117922e+002, 4.226950e+003
9.122743e+002, 4.219571e+003
9.127564e+002, 4.210811e+003
9.132385e+002, 4.211197e+003
9.137206e+002, 4.219677e+003
9.142028e+002, 4.225969e+003
9.146849e+002, 4.225520e+003
9.151670e+002, 4.224053e+003
9.156491e+002, 4.223170e+003
9.161312e+002, 4.222649e+003
9.166133e+002, 4.221271e+003
9.170955e+002, 4.219044e+003
9.175776e+002, 4.217887e+003
9.180597e+002, 4.219117e+003
9.185418e+002, 4.220897e+003
9.190239e+002, 4.221583e+003
9.195060e+002, 4.221021e+003
9.199882e+002, 4.218897e+003
9.204703e+002, 4.212452e+003
9.209524e+002, 4.207838e+003
9.214345e+002, 4.206380e+003
9.219166e+002, 4.206781e+003
9.223987e+002, 4.208083e+003
9.228809e+002, 4.210401e+003
9.233630e+002, 4.210452e+003
9.238451e+002, 4.207528e+003
9.243272e+002, 4.204054e+003
9.248093e+002, 4.202490e+003
9.252914e+002, 4.202040e+003
9.257736e+002, 4.201862e+003
9.262557e+002, 4.201944e+003
9.267378e+002, 4.201700e+003
9.272199e+002, 4.200240e+003
9.277020e+002, 4.199254e+003
9.281841e+002, 4.200090e+003
9.286663e+002, 4.202771e+003
9.291484e+002, 4.202804e+003
9.296305e+002, 4.200077e+003
9.301126e+002, 4.197583e+003
9.305947e+002, 4.198633e+003
9.310768e+002, 4.200060e+003
9.315590e+002, 4.196731e+003
9.320411e+002, 4.189838e+003
9.325232e+002, 4.184764e+003
9.330053e+002, 4.183679e+003
9.334874e+002, 4.184172e+003
9.339695e+002, 4.185927e+003
9.344517e+002, 4.188556e+003
9.349338e+002, 4.191874e+003
9.354159e+002, 4.195945e+003
9.358980e+002, 4.197068e+003
9.363801e+002, 4.193509e+003
9.368622e+002, 4.188642e+003
9.373444e+002, 4.185104e+003
9.378265e+002, 4.183424e+003
9.383086e+002, 4.184625e+003
9.387907e+002, 4.191205e+003
9.392728e+002, 4.196207e+003
9.397549e+002, 4.197320e+003
9.402371e+002, 4.197574e+003
9.407192e+002, 4.199817e+003
9.412013e+002, 4.204125e+003
9.416834e+002, 4.205962e+003
9.421655e+002, 4.205046e+003
9.426476e+002, 4.203662e+003
9.431298e+002, 4.202350e+003
9.436119e+002, 4.202442e+003
9.440940e+002, 4.206740e+003
9.445761e+002, 4.215106e+003
9.450582e+002, 4.220460e+003
9.455403e+002, 4.219912e+003
9.460225e+002, 4.217407e+003
9.465046e+002, 4.213303e+003
9.469867e+002, 4.208395e+003
9.474688e+002, 4.205813e+003
9.479509e+002, 4.205542e+003
9.484330e+002, 4.206850e+003
9.489152e+002, 4.210910e+003
9.493973e+002, 4.214385e+003
9.498794e+002, 4.213148e+003
9.503615e+002, 4.209241e+003
9.508436e+002, 4.206279e+003
9.513257e+002, 4.207696e+003
9.518079e+002, 4.206125e+003
9.522900e+002, 4.199317e+003
9.527721e+002, 4.191950e+003
9.532542e+002, 4.190709e+003
9.537363e+002, 4.194595e+003
9.542184e+002, 4.195584e+003
9.547006e+002, 4.192569e+003
9.551827e+002, 4.189412e+003
9.556648e+002, 4.190287e+003
9.561469e+002, 4.191726e+003
9.566290e+002, 4.190101e+003
9.571111e+002, 4.184514e+003
9.575933e+002, 4.181506e+003
9.580754e+002, 4.182067e+003
9.585575e+002, 4.183804e+003
9.590396e+002, 4.186455e+003
9.595217e+002, 4.189091e+003
9.600038e+002, 4.187060e+003
9.604860e+002, 4.181469e+003
9.609681e+002, 4.178092e+003
9.614502e+002, 4.182358e+003
9.619323e+002, 4.187342e+003
9.624144e+002, 4.188961e+003
9.628965e+002, 4.188307e+003
9.633787e+002, 4.187672e+003
9.638608e+002, 4.186278e+003
9.643429e+002, 4.187446e+003
9.648250e+002, 4.192405e+003
9.653071e+002, 4.197967e+003
9.657892e+002, 4.198884e+003
9.662714e+002, 4.197044e+003
9.667535e+002, 4.197689e+003
9.672356e+002, 4.202175e+003
9.677177e+002, 4.205533e+003
9.681998e+002, 4.203357e+003
9.686819e+002, 4.200365e+003
9.691641e+002, 4.199943e+003
9.696462e+002, 4.202277e+003
9.701283e+002, 4.205182e+003
9.706104e+002, 4.208999e+003
9.710925e+002, 4.211652e+003
9.715746e+002, 4.212064e+003
9.720568e+002, 4.210454e+003
9.725389e+002, 4.205420e+003
9.730210e+002, 4.198445e+003
9.735031e+002, 4.194607e+003
9.739852e+002, 4.199750e+003
9.744673e+002, 4.203849e+003
9.749495e+002, 4.203052e+003
9.754316e+002, 4.200084e+003
9.759137e+002, 4.199521e+003
9.763958e+002, 4.201493e+003
9.768779e+002, 4.204231e+003
9.773600e+002, 4.207696e+003
9.778422e+002, 4.210884e+003
9.783243e+002, 4.213367e+003
9.788064e+002, 4.214697e+003
9.792885e+002, 4.213798e+003
9.797706e+002, 4.209850e+003
9.802527e+002, 4.207150e+003
9.807349e+002, 4.206751e+003
9.812170e+002, 4.207213e+003
9.816991e+002, 4.208356e+003
9.821812e+002, 4.209805e+003
9.826633e+002, 4.207813e+003
9.831454e+002, 4.202736e+003
9.836276e+002, 4.199079e+003
9.841097e+002, 4.200026e+003
9.845918e+002, 4.202832e+003
9.850739e+002, 4.206401e+003
9.855560e+002, 4.210103e+003
9.860381e+002, 4.212192e+003
9.865203e+002, 4.211530e+003
9.870024e+002, 4.211780e+003
9.874845e+002, 4.214122e+003
9.879666e+002, 4.216201e+003
9.884487e+002, 4.212665e+003
9.889308e+002, 4.206182e+003
9.894130e+002, 4.205529e+003
9.898951e+002, 4.213110e+003
9.903772e+002, 4.219449e+003
9.908593e+002, 4.217310e+003
9.913414e+002, 4.213257e+003
9.918235e+002, 4.212384e+003
9.923057e+002, 4.215002e+003
9.927878e+002, 4.215476e+003
9.932699e+002, 4.213507e+003
9.937520e+002, 4.211235e+003
9.942341e+002, 4.209511e+003
9.947162e+002, 4.208390e+003
9.951984e+002, 4.208184e+003
9.956805e+002, 4.208668e+003
9.961626e+002, 4.209271e+003
9.966447e+002, 4.210788e+003
9.971268e+002, 4.210992e+003
9.976089e+002, 4.208314e+003
9.980911e+002, 4.205044e+003
9.985732e+002, 4.204497e+003
9.990553e+002, 4.206636e+003
9.995374e+002, 4.209564e+003
1.000020e+003, 4.213183e+003
1.000502e+003, 4.215851e+003
1.000984e+003, 4.215637e+003
1.001466e+003, 4.213932e+003
1.001948e+003, 4.211567e+003
1.002430e+003, 4.208506e+003
1.002912e+003, 4.207246e+003
1.003394e+003, 4.208868e+003
1.003876e+003, 4.210363e+003
1.004359e+003, 4.210239e+003
1.004841e+003, 4.209277e+003
1.005323e+003, 4.210151e+003
1.005805e+003, 4.212421e+003
1.006287e+003, 4.214203e+003
1.006769e+003, 4.215015e+003
1.007251e+003, 4.214779e+003
1.007733e+003, 4.211782e+003
1.008216e+003, 4.208551e+003
1.008698e+003, 4.208968e+003
1.009180e+003, 4.214829e+003
1.009662e+003, 4.217062e+003
1.010144e+003, 4.214603e+003
1.010626e+003, 4.211408e+003
1.011108e+003, 4.211611e+003
1.011590e+003, 4.213491e+003
1.012072e+003, 4.214396e+003
1.012555e+003, 4.214190e+003
1.013037e+003, 4.214421e+003
1.013519e+003, 4.215353e+003
1.014001e+003, 4.217239e+003
1.014483e+003, 4.221062e+003
1.014965e+003, 4.225538e+003
1.015447e+003, 4.225979e+003
1.015929e+003, 4.222704e+003
1.016411e+003, 4.218708e+003
1.016894e+003, 4.214322e+003
1.017376e+003, 4.211117e+003
1.017858e+003, 4.211768e+003
1.018340e+003, 4.213861e+003
1.018822e+003, 4.214242e+003
1.019304e+003, 4.211188e+003
1.019786e+003, 4.210071e+003
1.020268e+003, 4.211506e+003
1.020751e+003, 4.213374e+003
1.021233e+003, 4.214178e+003
1.021715e+003, 4.214165e+003
1.022197e+003, 4.214039e+003
1.022679e+003, 4.213731e+003
1.023161e+003, 4.212741e+003
1.023643e+003, 4.209334e+003
1.024125e+003, 4.206806e+003
1.024607e+003, 4.206446e+003
1.025090e+003, 4.207792e+003
1.025572e+003, 4.210355e+003
1.026054e+003, 4.214230e+003
1.026536e+003, 4.217707e+003
1.027018e+003, 4.220533e+003
1.027500e+003, 4.222589e+003
1.027982e+003, 4.223246e+003
1.028464e+003, 4.223318e+003
1.028947e+003, 4.223969e+003
1.029429e+003, 4.225721e+003
1.029911e+003, 4.226194e+003
1.030393e+003, 4.225251e+003
1.030875e+003, 4.223177e+003
1.031357e+003, 4.219370e+003
1.031839e+003, 4.214947e+003
1.032321e+003, 4.213859e+003
1.032803e+003, 4.215694e+003
1.033286e+003, 4.218521e+003
1.033768e+003, 4.223787e+003
1.034250e+003, 4.227118e+003
1.034732e+003, 4.224093e+003
1.035214e+003, 4.219160e+003
1.035696e+003, 4.219083e+003
1.036178e+003, 4.225050e+003
1.036660e+003, 4.228851e+003
1.037143e+003, 4.229684e+003
1.037625e+003, 4.229759e+003
1.038107e+003, 4.231176e+003
1.038589e+003, 4.232962e+003
1.039071e+003, 4.234057e+003
1.039553e+003, 4.234340e+003
1.040035e+003, 4.233739e+003
1.040517e+003, 4.231572e+003
1.041000e+003, 4.229534e+003
1.041482e+003, 4.228224e+003
1.041964e+003, 4.227290e+003
1.042446e+003, 4.225562e+003
1.042928e+003, 4.223448e+003
1.043410e+003, 4.222848e+003
1.043892e+003, 4.225100e+003
1.044374e+003, 4.226766e+003
1.044856e+003, 4.224711e+003
1.045339e+003, 4.221914e+003
1.045821e+003, 4.221165e+003
1.046303e+003, 4.222856e+003
1.046785e+003, 4.224337e+003
1.047267e+003, 4.225730e+003
1.047749e+003, 4.225915e+003
1.048231e+003, 4.222299e+003
1.048713e+003, 4.218316e+003
1.049195e+003, 4.219417e+003
1.049677e+003, 4.223857e+003
1.050160e+003, 4.226587e+003
1.050642e+003, 4.224187e+003
1.051124e+003, 4.222666e+003
1.051606e+003, 4.222880e+003
1.052088e+003, 4.223822e+003
1.052570e+003, 4.223836e+003
1.053052e+003, 4.223369e+003
1.053534e+003, 4.224832e+003
1.054017e+003, 4.228588e+003
1.054499e+003, 4.231019e+003
1.054981e+003, 4.229487e+003
1.055463e+003, 4.226226e+003
1.055945e+003, 4.221875e+003
1.056427e+003, 4.216921e+003
1.056909e+003, 4.214280e+003
1.057391e+003, 4.214240e+003
1.057874e+003, 4.213458e+003
1.058356e+003, 4.210113e+003
1.058838e+003, 4.207102e+003
1.059320e+003, 4.209196e+003
1.059802e+003, 4.213444e+003
1.060284e+003, 4.215489e+003
1.060766e+003, 4.212795e+003
1.061248e+003, 4.211861e+003
1.061730e+003, 4.213449e+003
1.062213e+003, 4.215780e+003
1.062695e+003, 4.217801e+003
1.063177e+003, 4.219489e+003
1.063659e+003, 4.221014e+003
1.064141e+003, 4.222223e+003
1.064623e+003, 4.222498e+003
1.065105e+003, 4.220199e+003
1.065587e+003, 4.218299e+003
1.066070e+003, 4.218255e+003
1.066552e+003, 4.219038e+003
1.067034e+003, 4.219195e+003
1.067516e+003, 4.218679e+003
1.067998e+003, 4.218042e+003
1.068480e+003, 4.217274e+003
1.068962e+003, 4.217072e+003
1.069444e+003, 4.219049e+003
1.069927e+003, 4.221209e+003
1.070409e+003, 4.221425e+003
1.070891e+003, 4.219593e+003
1.071373e+003, 4.218974e+003
1.071855e+003, 4.220468e+003
1.072337e+003, 4.220937e+003
1.072819e+003, 4.218935e+003
1.073301e+003, 4.216212e+003
1.073783e+003, 4.216240e+003
1.074266e+003, 4.217873e+003
1.074748e+003, 4.218500e+003
1.075230e+003, 4.216674e+003
1.075712e+003, 4.215980e+003
1.076194e+003, 4.219082e+003
1.076676e+003, 4.221579e+003
1.077158e+003, 4.219635e+003
1.077640e+003, 4.214131e+003
1.078122e+003, 4.215703e+003
1.078604e+003, 4.223395e+003
1.079087e+003, 4.229158e+003
1.079569e+003, 4.226694e+003
1.080051e+003, 4.222762e+003
1.080533e+003, 4.220697e+003
1.081015e+003, 4.220059e+003
1.081497e+003, 4.219723e+003
1.081979e+003, 4.219469e+003
1.082461e+003, 4.220571e+003
1.082944e+003, 4.223210e+003
1.083426e+003, 4.226506e+003
1.083908e+003, 4.230610e+003
1.084390e+003, 4.234239e+003
1.084872e+003, 4.235617e+003
1.085354e+003, 4.234812e+003
1.085836e+003, 4.233739e+003
1.086318e+003, 4.232564e+003
1.086801e+003, 4.231348e+003
1.087283e+003, 4.229747e+003
1.087765e+003, 4.228733e+003
1.088247e+003, 4.231095e+003
1.088729e+003, 4.235390e+003
1.089211e+003, 4.237625e+003
1.089693e+003, 4.236609e+003
1.090175e+003, 4.235421e+003
1.090657e+003, 4.234778e+003
1.091140e+003, 4.234924e+003
1.091622e+003, 4.236318e+003
1.092104e+003, 4.238660e+003
1.092586e+003, 4.239729e+003
1.093068e+003, 4.239538e+003
1.093550e+003, 4.238221e+003
1.094032e+003, 4.234706e+003
1.094514e+003, 4.231775e+003
1.094997e+003, 4.231920e+003
1.095479e+003, 4.233671e+003
1.095961e+003, 4.235054e+003
1.096443e+003, 4.235931e+003
1.096925e+003, 4.236596e+003
1.097407e+003, 4.237042e+003
1.097889e+003, 4.237403e+003
1.098371e+003, 4.237459e+003
1.098854e+003, 4.237708e+003
1.099336e+003, 4.239350e+003
1.099818e+003, 4.241826e+003
1.100300e+003, 4.242909e+003
1.100782e+003, 4.241008e+003
1.101264e+003, 4.239517e+003
1.101746e+003, 4.238821e+003
1.102228e+003, 4.238740e+003
1.102710e+003, 4.239606e+003
1.103193e+003, 4.240825e+003
1.103675e+003, 4.240095e+003
1.104157e+003, 4.237194e+003
1.104639e+003, 4.236750e+003
1.105121e+003, 4.244863e+003
1.105603e+003, 4.251087e+003
1.106085e+003, 4.250657e+003
1.106567e+003, 4.246021e+003
1.107049e+003, 4.244504e+003
1.107531e+003, 4.245812e+003
1.108014e+003, 4.248009e+003
1.108496e+003, 4.250948e+003
1.108978e+003, 4.253257e+003
1.109460e+003, 4.252638e+003
1.109942e+003, 4.251887e+003
1.110424e+003, 4.254049e+003
1.110906e+003, 4.259336e+003
1.111388e+003, 4.260991e+003
1.111871e+003, 4.258752e+003
1.112353e+003, 4.256521e+003
1.112835e+003, 4.256568e+003
1.113317e+003, 4.257221e+003
1.113799e+003, 4.256788e+003
1.114281e+003, 4.255715e+003
1.114763e+003, 4.254656e+003
1.115245e+003, 4.253185e+003
1.115728e+003, 4.253280e+003
1.116210e+003, 4.255402e+003
1.116692e+003, 4.257785e+003
1.117174e+003, 4.259590e+003
1.117656e+003, 4.260364e+003
1.118138e+003, 4.257765e+003
1.118620e+003, 4.253021e+003
1.119102e+003, 4.251162e+003
1.119584e+003, 4.256377e+003
1.120067e+003, 4.261184e+003
1.120549e+003, 4.264353e+003
1.121031e+003, 4.266626e+003
1.121513e+003, 4.269765e+003
1.121995e+003, 4.272809e+003
1.122477e+003, 4.271747e+003
1.122959e+003, 4.266276e+003
1.123441e+003, 4.261252e+003
1.123924e+003, 4.258628e+003
1.124406e+003, 4.257805e+003
1.124888e+003, 4.258943e+003
1.125370e+003, 4.261333e+003
1.125852e+003, 4.263647e+003
1.126334e+003, 4.265756e+003
1.126816e+003, 4.265123e+003
1.127298e+003, 4.260639e+003
1.127781e+003, 4.256421e+003
1.128263e+003, 4.256776e+003
1.128745e+003, 4.257784e+003
1.129227e+003, 4.255144e+003
1.129709e+003, 4.249136e+003
1.130191e+003, 4.249178e+003
1.130673e+003, 4.255729e+003
1.131155e+003, 4.260900e+003
1.131637e+003, 4.260598e+003
1.132120e+003, 4.259166e+003
1.132602e+003, 4.261432e+003
1.133084e+003, 4.265323e+003
1.133566e+003, 4.267814e+003
1.134048e+003, 4.267993e+003
1.134530e+003, 4.268741e+003
1.135012e+003, 4.270362e+003
1.135494e+003, 4.271144e+003
1.135976e+003, 4.268882e+003
1.136458e+003, 4.265817e+003
1.136941e+003, 4.265529e+003
1.137423e+003, 4.267398e+003
1.137905e+003, 4.269885e+003
1.138387e+003, 4.273344e+003
1.138869e+003, 4.276204e+003
1.139351e+003, 4.278104e+003
1.139833e+003, 4.279947e+003
1.140315e+003, 4.283188e+003
1.140798e+003, 4.286829e+003
1.141280e+003, 4.288397e+003
1.141762e+003, 4.287979e+003
1.142244e+003, 4.286804e+003
1.142726e+003, 4.284701e+003
1.143208e+003, 4.282606e+003
1.143690e+003, 4.280045e+003
1.144172e+003, 4.278391e+003
1.144655e+003, 4.281305e+003
1.145137e+003, 4.287089e+003
1.145619e+003, 4.288290e+003
1.146101e+003, 4.283966e+003
1.146583e+003, 4.279945e+003
1.147065e+003, 4.279063e+003
1.147547e+003, 4.279851e+003
1.148029e+003, 4.281972e+003
1.148511e+003, 4.284971e+003
1.148994e+003, 4.287841e+003
1.149476e+003, 4.290501e+003
1.149958e+003, 4.291774e+003
1.150440e+003, 4.291040e+003
1.150922e+003, 4.290720e+003
1.151404e+003, 4.292600e+003
1.151886e+003, 4.295507e+003
1.152368e+003, 4.298809e+003
1.152851e+003, 4.302314e+003
1.153333e+003, 4.305038e+003
1.153815e+003, 4.306921e+003
1.154297e+003, 4.307663e+003
1.154779e+003, 4.306812e+003
1.155261e+003, 4.305374e+003
1.155743e+003, 4.302848e+003
1.156225e+003, 4.301042e+003
1.156708e+003, 4.303261e+003
1.157190e+003, 4.310835e+003
1.157672e+003, 4.311421e+003
1.158154e+003, 4.304095e+003
1.158636e+003, 4.298075e+003
1.159118e+003, 4.299923e+003
1.159600e+003, 4.304287e+003
1.160082e+003, 4.306021e+003
1.160564e+003, 4.305906e+003
1.161047e+003, 4.305158e+003
1.161529e+003, 4.303662e+003
1.162011e+003, 4.302531e+003
1.162493e+003, 4.301821e+003
1.162975e+003, 4.301442e+003
1.163457e+003, 4.300646e+003
1.163939e+003, 4.300572e+003
1.164421e+003, 4.303955e+003
1.164903e+003, 4.309412e+003
1.165385e+003, 4.312750e+003
1.165868e+003, 4.311499e+003
1.166350e+003, 4.310659e+003
1.166832e+003, 4.310472e+003
1.167314e+003, 4.310874e+003
1.167796e+003, 4.313150e+003
1.168278e+003, 4.315314e+003
1.168760e+003, 4.311730e+003
1.169242e+003, 4.303656e+003
1.169725e+003, 4.300689e+003
1.170207e+003, 4.310580e+003
1.170689e+003, 4.319050e+003
1.171171e+003, 4.324325e+003
1.171653e+003, 4.326758e+003
1.172135e+003, 4.325283e+003
1.172617e+003, 4.321730e+003
1.173099e+003, 4.320311e+003
1.173582e+003, 4.321472e+003
1.174064e+003, 4.322744e+003
1.174546e+003, 4.322765e+003
1.175028e+003, 4.323498e+003
1.175510e+003, 4.325942e+003
1.175992e+003, 4.328680e+003
1.176474e+003, 4.327670e+003
1.176956e+003, 4.324642e+003
1.177438e+003, 4.325701e+003
1.177921e+003, 4.332751e+003
1.178403e+003, 4.336794e+003
1.178885e+003, 4.328892e+003
1.179367e+003, 4.323631e+003
1.179849e+003, 4.328538e+003
1.180331e+003, 4.339042e+003
1.180813e+003, 4.340035e+003
1.181295e+003, 4.333974e+003
1.181778e+003, 4.330138e+003
1.182260e+003, 4.331589e+003
1.182742e+003, 4.333653e+003
1.183224e+003, 4.334948e+003
1.183706e+003, 4.335455e+003
1.184188e+003, 4.334872e+003
1.184670e+003, 4.333503e+003
1.185152e+003, 4.332396e+003
1.185635e+003, 4.331915e+003
1.186117e+003, 4.334410e+003
1.186599e+003, 4.343122e+003
1.187081e+003, 4.349923e+003
1.187563e+003, 4.349900e+003
1.188045e+003, 4.346914e+003
1.188527e+003, 4.342945e+003
1.189009e+003, 4.338354e+003
1.189491e+003, 4.338203e+003
1.189974e+003, 4.341914e+003
1.190456e+003, 4.345180e+003
1.190938e+003, 4.345044e+003
1.191420e+003, 4.345075e+003
1.191902e+003, 4.348287e+003
1.192384e+003, 4.351594e+003
1.192866e+003, 4.351503e+003
1.193348e+003, 4.347905e+003
1.193830e+003, 4.347082e+003
1.194313e+003, 4.348736e+003
1.194795e+003, 4.349178e+003
1.195277e+003, 4.343690e+003
1.195759e+003, 4.339164e+003
1.196241e+003, 4.340405e+003
1.196723e+003, 4.344217e+003
1.197205e+003, 4.346698e+003
1.197687e+003, 4.347838e+003
1.198169e+003, 4.349081e+003
1.198652e+003, 4.350479e+003
1.199134e+003, 4.351206e+003
1.199616e+003, 4.349987e+003
1.200098e+003, 4.348738e+003
1.200580e+003, 4.348549e+003
1.201062e+003, 4.349167e+003
1.201544e+003, 4.350707e+003
1.202026e+003, 4.353278e+003
1.202509e+003, 4.351853e+003
1.202991e+003, 4.345931e+003
1.203473e+003, 4.342182e+003
1.203955e+003, 4.348291e+003
1.204437e+003, 4.355257e+003
1.204919e+003, 4.356964e+003
1.205401e+003, 4.355222e+003
1.205883e+003, 4.353764e+003
1.206365e+003, 4.352513e+003
1.206848e+003, 4.352958e+003
1.207330e+003, 4.355381e+003
1.207812e+003, 4.357432e+003
1.208294e+003, 4.356556e+003
1.208776e+003, 4.355364e+003
1.209258e+003, 4.355952e+003
1.209740e+003, 4.357665e+003
1.210222e+003, 4.358643e+003
1.210705e+003, 4.358921e+003
1.211187e+003, 4.359154e+003
1.211669e+003, 4.359467e+003
1.212151e+003, 4.360134e+003
1.212633e+003, 4.363696e+003
1.213115e+003, 4.365690e+003
1.213597e+003, 4.360164e+003
1.214079e+003, 4.350398e+003
1.214562e+003, 4.349301e+003
1.215044e+003, 4.356646e+003
1.215526e+003, 4.361415e+003
1.216008e+003, 4.360679e+003
1.216490e+003, 4.359307e+003
1.216972e+003, 4.360844e+003
1.217454e+003, 4.363479e+003
1.217936e+003, 4.366493e+003
1.218418e+003, 4.369335e+003
1.218901e+003, 4.368623e+003
1.219383e+003, 4.364520e+003
1.219865e+003, 4.362187e+003
1.220347e+003, 4.363495e+003
1.220829e+003, 4.365073e+003
1.221311e+003, 4.363576e+003
1.221793e+003, 4.362104e+003
1.222275e+003, 4.363155e+003
1.222757e+003, 4.366390e+003
1.223240e+003, 4.369788e+003
1.223722e+003, 4.373237e+003
1.224204e+003, 4.374599e+003
1.224686e+003, 4.372599e+003
1.225168e+003, 4.370253e+003
1.225650e+003, 4.369897e+003
1.226132e+003, 4.369820e+003
1.226614e+003, 4.368639e+003
1.227096e+003, 4.366540e+003
1.227579e+003, 4.364866e+003
1.228061e+003, 4.363600e+003
1.228543e+003, 4.362389e+003
1.229025e+003, 4.360550e+003
1.229507e+003, 4.359978e+003
1.229989e+003, 4.362944e+003
1.230471e+003, 4.366566e+003
1.230953e+003, 4.368694e+003
1.231436e+003, 4.369378e+003
1.231918e+003, 4.368851e+003
1.232400e+003, 4.367326e+003
1.232882e+003, 4.366444e+003
1.233364e+003, 4.366649e+003
1.233846e+003, 4.368051e+003
1.234328e+003, 4.372552e+003
1.234810e+003, 4.376594e+003
1.235292e+003, 4.377123e+003
1.235775e+003, 4.374759e+003
1.236257e+003, 4.374583e+003
1.236739e+003, 4.376241e+003
1.237221e+003, 4.377704e+003
1.237703e+003, 4.377720e+003
1.238185e+003, 4.378033e+003
1.238667e+003, 4.379938e+003
1.239149e+003, 4.381708e+003
1.239632e+003, 4.381673e+003
1.240114e+003, 4.380345e+003
1.240596e+003, 4.381097e+003
1.241078e+003, 4.383489e+003
1.241560e+003, 4.385739e+003
1.242042e+003, 4.387206e+003
1.242524e+003, 4.388016e+003
1.243006e+003, 4.387107e+003
1.243489e+003, 4.386970e+003
1.243971e+003, 4.390912e+003
1.244453e+003, 4.397229e+003
1.244935e+003, 4.397512e+003
1.245417e+003, 4.393477e+003
1.245899e+003, 4.391536e+003
1.246381e+003, 4.397675e+003
1.246863e+003, 4.401029e+003
1.247345e+003, 4.398771e+003
1.247828e+003, 4.395975e+003
1.248310e+003, 4.398074e+003
1.248792e+003, 4.402650e+003
1.249274e+003, 4.402105e+003
1.249756e+003, 4.398125e+003
1.250238e+003, 4.396665e+003
1.250720e+003, 4.403310e+003
1.251202e+003, 4.407167e+003
1.251684e+003, 4.406657e+003
1.252167e+003, 4.405087e+003
1.252649e+003, 4.405079e+003
1.253131e+003, 4.406093e+003
1.253613e+003, 4.407468e+003
1.254095e+003, 4.408931e+003
1.254577e+003, 4.409751e+003
1.255059e+003, 4.409092e+003
1.255541e+003, 4.408936e+003
1.256023e+003, 4.409510e+003
1.256506e+003, 4.410041e+003
1.256988e+003, 4.408850e+003
1.257470e+003, 4.407936e+003
1.257952e+003, 4.412345e+003
1.258434e+003, 4.419421e+003
1.258916e+003, 4.420198e+003
1.259398e+003, 4.409725e+003
1.259880e+003, 4.405844e+003
1.260363e+003, 4.410482e+003
1.260845e+003, 4.416486e+003
1.261327e+003, 4.419188e+003
1.261809e+003, 4.419062e+003
1.262291e+003, 4.414161e+003
1.262773e+003, 4.407247e+003
1.263255e+003, 4.406010e+003
1.263737e+003, 4.412719e+003
1.264219e+003, 4.413997e+003
1.264702e+003, 4.408528e+003
1.265184e+003, 4.403779e+003
1.265666e+003, 4.407364e+003
1.266148e+003, 4.412139e+003
1.266630e+003, 4.411875e+003
1.267112e+003, 4.409034e+003
1.267594e+003, 4.409339e+003
1.268076e+003, 4.413128e+003
1.268559e+003, 4.415222e+003
1.269041e+003, 4.415294e+003
1.269523e+003, 4.414017e+003
1.270005e+003, 4.409144e+003
1.270487e+003, 4.405975e+003
1.270969e+003, 4.409434e+003
1.271451e+003, 4.415431e+003
1.271933e+003, 4.418416e+003
1.272416e+003, 4.418632e+003
1.272898e+003, 4.419812e+003
1.273380e+003, 4.422077e+003
1.273862e+003, 4.424229e+003
1.274344e+003, 4.426435e+003
1.274826e+003, 4.427114e+003
1.275308e+003, 4.424493e+003
1.275790e+003, 4.421633e+003
1.276272e+003, 4.423276e+003
1.276755e+003, 4.427946e+003
1.277237e+003, 4.430099e+003
1.277719e+003, 4.429616e+003
1.278201e+003, 4.428232e+003
1.278683e+003, 4.424766e+003
1.279165e+003, 4.423511e+003
1.279647e+003, 4.425847e+003
1.280129e+003, 4.429306e+003
1.280611e+003, 4.431646e+003
1.281094e+003, 4.432875e+003
1.281576e+003, 4.432739e+003
1.282058e+003, 4.431444e+003
1.282540e+003, 4.429977e+003
1.283022e+003, 4.427605e+003
1.283504e+003, 4.427034e+003
1.283986e+003, 4.428801e+003
1.284468e+003, 4.431366e+003
1.284950e+003, 4.434053e+003
1.285433e+003, 4.436021e+003
1.285915e+003, 4.435276e+003
1.286397e+003, 4.432724e+003
1.286879e+003, 4.432109e+003
1.287361e+003, 4.434353e+003
1.287843e+003, 4.435653e+003
1.288325e+003, 4.435502e+003
1.288807e+003, 4.436039e+003
1.289290e+003, 4.440613e+003
1.289772e+003, 4.445304e+003
1.290254e+003, 4.446819e+003
1.290736e+003, 4.445654e+003
1.291218e+003, 4.442949e+003
1.291700e+003, 4.438303e+003
1.292182e+003, 4.438234e+003
1.292664e+003, 4.443109e+003
1.293146e+003, 4.447366e+003
1.293629e+003, 4.447048e+003
1.294111e+003, 4.445007e+003
1.294593e+003, 4.441548e+003
1.295075e+003, 4.438137e+003
1.295557e+003, 4.436446e+003
1.296039e+003, 4.436454e+003
1.296521e+003, 4.438421e+003
1.297003e+003, 4.442049e+003
1.297486e+003, 4.445446e+003
1.297968e+003, 4.449313e+003
1.298450e+003, 4.451037e+003
1.298932e+003, 4.449553e+003
1.299414e+003, 4.447078e+003
1.299896e+003, 4.446068e+003
1.300378e+003, 4.446115e+003
1.300860e+003, 4.446102e+003
1.301343e+003, 4.446227e+003
1.301825e+003, 4.447148e+003
##END=



