##NAMES=Holfertite
##RRUFFID=R060595
##IDEAL CHEMISTRY=(U^6+^O_2_)_1.75_Ca_0.25_Ti^4+^O_4_&#183;3H_2_O
##LOCALITY=Searle Canyon, Thomas Range, Juab County, Utah, USA
##OWNER=RRUFF
##SOURCE=Michael Scott
##DESCRIPTION=Yellow bladed crystals embedded in topaz
##STATUS=The identification of this mineral has been confirmed by single-crystal X-ray diffraction.
##URL=rruff.info/R060595
8.930109e+001, 0.000000e+000
8.978320e+001, 2.088622e+003
9.026532e+001, 2.079527e+003
9.074744e+001, 2.080671e+003
9.122955e+001, 2.096915e+003
9.171167e+001, 2.118900e+003
9.219379e+001, 2.134046e+003
9.267590e+001, 2.144100e+003
9.315802e+001, 2.151056e+003
9.364014e+001, 2.156041e+003
9.412225e+001, 2.159470e+003
9.460437e+001, 2.161277e+003
9.508649e+001, 2.161375e+003
9.556860e+001, 2.159419e+003
9.605072e+001, 2.156126e+003
9.653284e+001, 2.153245e+003
9.701495e+001, 2.151259e+003
9.749707e+001, 2.150268e+003
9.797919e+001, 2.150123e+003
9.846130e+001, 2.149993e+003
9.894342e+001, 2.149072e+003
9.942554e+001, 2.147557e+003
9.990765e+001, 2.148894e+003
1.003898e+002, 2.153909e+003
1.008719e+002, 2.159973e+003
1.013540e+002, 2.163207e+003
1.018361e+002, 2.163149e+003
1.023182e+002, 2.162391e+003
1.028004e+002, 2.161744e+003
1.032825e+002, 2.161055e+003
1.037646e+002, 2.161514e+003
1.042467e+002, 2.163196e+003
1.047288e+002, 2.166075e+003
1.052109e+002, 2.170022e+003
1.056931e+002, 2.175080e+003
1.061752e+002, 2.181348e+003
1.066573e+002, 2.189141e+003
1.071394e+002, 2.200121e+003
1.076215e+002, 2.210028e+003
1.081036e+002, 2.218697e+003
1.085858e+002, 2.226351e+003
1.090679e+002, 2.233683e+003
1.095500e+002, 2.240113e+003
1.100321e+002, 2.246814e+003
1.105142e+002, 2.254370e+003
1.109963e+002, 2.264260e+003
1.114785e+002, 2.273457e+003
1.119606e+002, 2.281437e+003
1.124427e+002, 2.288271e+003
1.129248e+002, 2.295053e+003
1.134069e+002, 2.301634e+003
1.138890e+002, 2.308366e+003
1.143712e+002, 2.315613e+003
1.148533e+002, 2.324661e+003
1.153354e+002, 2.333073e+003
1.158175e+002, 2.340147e+003
1.162996e+002, 2.345942e+003
1.167817e+002, 2.350570e+003
1.172639e+002, 2.352276e+003
1.177460e+002, 2.353337e+003
1.182281e+002, 2.356642e+003
1.187102e+002, 2.366614e+003
1.191923e+002, 2.376774e+003
1.196744e+002, 2.382569e+003
1.201566e+002, 2.382662e+003
1.206387e+002, 2.382312e+003
1.211208e+002, 2.383644e+003
1.216029e+002, 2.386765e+003
1.220850e+002, 2.391968e+003
1.225671e+002, 2.401514e+003
1.230493e+002, 2.412184e+003
1.235314e+002, 2.420660e+003
1.240135e+002, 2.426095e+003
1.244956e+002, 2.429851e+003
1.249777e+002, 2.432163e+003
1.254598e+002, 2.433445e+003
1.259420e+002, 2.435390e+003
1.264241e+002, 2.439647e+003
1.269062e+002, 2.445198e+003
1.273883e+002, 2.450172e+003
1.278704e+002, 2.453970e+003
1.283525e+002, 2.457251e+003
1.288347e+002, 2.461275e+003
1.293168e+002, 2.465980e+003
1.297989e+002, 2.470146e+003
1.302810e+002, 2.471850e+003
1.307631e+002, 2.471906e+003
1.312452e+002, 2.473975e+003
1.317274e+002, 2.480165e+003
1.322095e+002, 2.488431e+003
1.326916e+002, 2.492742e+003
1.331737e+002, 2.492706e+003
1.336558e+002, 2.491766e+003
1.341379e+002, 2.493854e+003
1.346201e+002, 2.498929e+003
1.351022e+002, 2.502809e+003
1.355843e+002, 2.503504e+003
1.360664e+002, 2.501664e+003
1.365485e+002, 2.502319e+003
1.370306e+002, 2.505964e+003
1.375128e+002, 2.510974e+003
1.379949e+002, 2.515501e+003
1.384770e+002, 2.519416e+003
1.389591e+002, 2.523514e+003
1.394412e+002, 2.528166e+003
1.399233e+002, 2.533362e+003
1.404055e+002, 2.538319e+003
1.408876e+002, 2.543016e+003
1.413697e+002, 2.547423e+003
1.418518e+002, 2.551662e+003
1.423339e+002, 2.555978e+003
1.428160e+002, 2.559446e+003
1.432982e+002, 2.561485e+003
1.437803e+002, 2.561377e+003
1.442624e+002, 2.562092e+003
1.447445e+002, 2.563852e+003
1.452266e+002, 2.566388e+003
1.457087e+002, 2.569064e+003
1.461909e+002, 2.572411e+003
1.466730e+002, 2.575335e+003
1.471551e+002, 2.577363e+003
1.476372e+002, 2.577472e+003
1.481193e+002, 2.578473e+003
1.486014e+002, 2.581017e+003
1.490836e+002, 2.584577e+003
1.495657e+002, 2.587370e+003
1.500478e+002, 2.588842e+003
1.505299e+002, 2.589952e+003
1.510120e+002, 2.591117e+003
1.514941e+002, 2.591258e+003
1.519763e+002, 2.592650e+003
1.524584e+002, 2.596590e+003
1.529405e+002, 2.602285e+003
1.534226e+002, 2.605894e+003
1.539047e+002, 2.605234e+003
1.543868e+002, 2.603613e+003
1.548690e+002, 2.602830e+003
1.553511e+002, 2.604635e+003
1.558332e+002, 2.605617e+003
1.563153e+002, 2.604508e+003
1.567974e+002, 2.601661e+003
1.572795e+002, 2.599928e+003
1.577617e+002, 2.601056e+003
1.582438e+002, 2.602962e+003
1.587259e+002, 2.604152e+003
1.592080e+002, 2.603492e+003
1.596901e+002, 2.602902e+003
1.601722e+002, 2.602841e+003
1.606544e+002, 2.603343e+003
1.611365e+002, 2.604441e+003
1.616186e+002, 2.606396e+003
1.621007e+002, 2.608834e+003
1.625828e+002, 2.611451e+003
1.630649e+002, 2.614734e+003
1.635471e+002, 2.617619e+003
1.640292e+002, 2.619299e+003
1.645113e+002, 2.619727e+003
1.649934e+002, 2.620328e+003
1.654755e+002, 2.622261e+003
1.659576e+002, 2.624625e+003
1.664398e+002, 2.626290e+003
1.669219e+002, 2.625901e+003
1.674040e+002, 2.625302e+003
1.678861e+002, 2.625688e+003
1.683682e+002, 2.627140e+003
1.688503e+002, 2.629097e+003
1.693325e+002, 2.631695e+003
1.698146e+002, 2.634538e+003
1.702967e+002, 2.636944e+003
1.707788e+002, 2.638334e+003
1.712609e+002, 2.639388e+003
1.717430e+002, 2.640610e+003
1.722252e+002, 2.642031e+003
1.727073e+002, 2.643820e+003
1.731894e+002, 2.646152e+003
1.736715e+002, 2.648985e+003
1.741536e+002, 2.652119e+003
1.746357e+002, 2.655931e+003
1.751179e+002, 2.659853e+003
1.756000e+002, 2.663177e+003
1.760821e+002, 2.665772e+003
1.765642e+002, 2.668012e+003
1.770463e+002, 2.670465e+003
1.775284e+002, 2.672910e+003
1.780106e+002, 2.674641e+003
1.784927e+002, 2.674345e+003
1.789748e+002, 2.673317e+003
1.794569e+002, 2.673588e+003
1.799390e+002, 2.675303e+003
1.804211e+002, 2.678574e+003
1.809033e+002, 2.684709e+003
1.813854e+002, 2.693091e+003
1.818675e+002, 2.700564e+003
1.823496e+002, 2.705028e+003
1.828317e+002, 2.707290e+003
1.833138e+002, 2.709278e+003
1.837960e+002, 2.710982e+003
1.842781e+002, 2.712951e+003
1.847602e+002, 2.716099e+003
1.852423e+002, 2.720333e+003
1.857244e+002, 2.724712e+003
1.862065e+002, 2.728613e+003
1.866887e+002, 2.732175e+003
1.871708e+002, 2.736060e+003
1.876529e+002, 2.740363e+003
1.881350e+002, 2.744874e+003
1.886171e+002, 2.749102e+003
1.890992e+002, 2.753083e+003
1.895814e+002, 2.757132e+003
1.900635e+002, 2.760822e+003
1.905456e+002, 2.764512e+003
1.910277e+002, 2.770863e+003
1.915098e+002, 2.781348e+003
1.919919e+002, 2.792877e+003
1.924741e+002, 2.798311e+003
1.929562e+002, 2.797429e+003
1.934383e+002, 2.795148e+003
1.939204e+002, 2.794029e+003
1.944025e+002, 2.794101e+003
1.948846e+002, 2.796250e+003
1.953668e+002, 2.801235e+003
1.958489e+002, 2.807609e+003
1.963310e+002, 2.811572e+003
1.968131e+002, 2.812802e+003
1.972952e+002, 2.814011e+003
1.977773e+002, 2.817285e+003
1.982595e+002, 2.822677e+003
1.987416e+002, 2.827738e+003
1.992237e+002, 2.832108e+003
1.997058e+002, 2.835999e+003
2.001879e+002, 2.840072e+003
2.006700e+002, 2.844546e+003
2.011522e+002, 2.848489e+003
2.016343e+002, 2.850775e+003
2.021164e+002, 2.851123e+003
2.025985e+002, 2.853070e+003
2.030806e+002, 2.857624e+003
2.035627e+002, 2.863716e+003
2.040449e+002, 2.867659e+003
2.045270e+002, 2.868942e+003
2.050091e+002, 2.869696e+003
2.054912e+002, 2.871237e+003
2.059733e+002, 2.873575e+003
2.064554e+002, 2.876615e+003
2.069376e+002, 2.880615e+003
2.074197e+002, 2.885219e+003
2.079018e+002, 2.889247e+003
2.083839e+002, 2.892666e+003
2.088660e+002, 2.895648e+003
2.093481e+002, 2.898045e+003
2.098303e+002, 2.899572e+003
2.103124e+002, 2.902095e+003
2.107945e+002, 2.906231e+003
2.112766e+002, 2.911488e+003
2.117587e+002, 2.915733e+003
2.122408e+002, 2.918412e+003
2.127230e+002, 2.921316e+003
2.132051e+002, 2.925801e+003
2.136872e+002, 2.932354e+003
2.141693e+002, 2.938770e+003
2.146514e+002, 2.944832e+003
2.151335e+002, 2.950492e+003
2.156157e+002, 2.955483e+003
2.160978e+002, 2.959970e+003
2.165799e+002, 2.963387e+003
2.170620e+002, 2.964990e+003
2.175441e+002, 2.963657e+003
2.180262e+002, 2.963684e+003
2.185084e+002, 2.965667e+003
2.189905e+002, 2.969352e+003
2.194726e+002, 2.973462e+003
2.199547e+002, 2.978511e+003
2.204368e+002, 2.983290e+003
2.209189e+002, 2.986689e+003
2.214011e+002, 2.987648e+003
2.218832e+002, 2.990449e+003
2.223653e+002, 2.996573e+003
2.228474e+002, 3.004891e+003
2.233295e+002, 3.010219e+003
2.238116e+002, 3.010926e+003
2.242938e+002, 3.011088e+003
2.247759e+002, 3.013230e+003
2.252580e+002, 3.018282e+003
2.257401e+002, 3.022932e+003
2.262222e+002, 3.026675e+003
2.267043e+002, 3.029797e+003
2.271865e+002, 3.033946e+003
2.276686e+002, 3.039986e+003
2.281507e+002, 3.045583e+003
2.286328e+002, 3.049145e+003
2.291149e+002, 3.049499e+003
2.295970e+002, 3.050454e+003
2.300792e+002, 3.051844e+003
2.305613e+002, 3.054026e+003
2.310434e+002, 3.058588e+003
2.315255e+002, 3.066946e+003
2.320076e+002, 3.075619e+003
2.324897e+002, 3.082700e+003
2.329719e+002, 3.087773e+003
2.334540e+002, 3.092195e+003
2.339361e+002, 3.095323e+003
2.344182e+002, 3.097956e+003
2.349003e+002, 3.103157e+003
2.353824e+002, 3.112798e+003
2.358646e+002, 3.122339e+003
2.363467e+002, 3.129197e+003
2.368288e+002, 3.131074e+003
2.373109e+002, 3.135330e+003
2.377930e+002, 3.142682e+003
2.382751e+002, 3.152400e+003
2.387573e+002, 3.162456e+003
2.392394e+002, 3.174374e+003
2.397215e+002, 3.184292e+003
2.402036e+002, 3.190039e+003
2.406857e+002, 3.188682e+003
2.411678e+002, 3.189853e+003
2.416500e+002, 3.195225e+003
2.421321e+002, 3.202613e+003
2.426142e+002, 3.206194e+003
2.430963e+002, 3.203191e+003
2.435784e+002, 3.200443e+003
2.440605e+002, 3.201105e+003
2.445427e+002, 3.207073e+003
2.450248e+002, 3.211609e+003
2.455069e+002, 3.214338e+003
2.459890e+002, 3.215841e+003
2.464711e+002, 3.217338e+003
2.469532e+002, 3.219044e+003
2.474354e+002, 3.220498e+003
2.479175e+002, 3.221258e+003
2.483996e+002, 3.220575e+003
2.488817e+002, 3.221909e+003
2.493638e+002, 3.226125e+003
2.498459e+002, 3.231945e+003
2.503281e+002, 3.237159e+003
2.508102e+002, 3.242215e+003
2.512923e+002, 3.245968e+003
2.517744e+002, 3.247583e+003
2.522565e+002, 3.246073e+003
2.527386e+002, 3.246739e+003
2.532208e+002, 3.250348e+003
2.537029e+002, 3.255575e+003
2.541850e+002, 3.260542e+003
2.546671e+002, 3.265443e+003
2.551492e+002, 3.269593e+003
2.556313e+002, 3.272299e+003
2.561135e+002, 3.273028e+003
2.565956e+002, 3.275551e+003
2.570777e+002, 3.280266e+003
2.575598e+002, 3.286229e+003
2.580419e+002, 3.292427e+003
2.585240e+002, 3.299320e+003
2.590062e+002, 3.305117e+003
2.594883e+002, 3.309178e+003
2.599704e+002, 3.311329e+003
2.604525e+002, 3.312997e+003
2.609346e+002, 3.313558e+003
2.614167e+002, 3.314400e+003
2.618989e+002, 3.317410e+003
2.623810e+002, 3.323508e+003
2.628631e+002, 3.329404e+003
2.633452e+002, 3.334393e+003
2.638273e+002, 3.338582e+003
2.643094e+002, 3.342219e+003
2.647916e+002, 3.345120e+003
2.652737e+002, 3.348010e+003
2.657558e+002, 3.351571e+003
2.662379e+002, 3.355789e+003
2.667200e+002, 3.360939e+003
2.672021e+002, 3.367873e+003
2.676843e+002, 3.376130e+003
2.681664e+002, 3.381271e+003
2.686485e+002, 3.382540e+003
2.691306e+002, 3.382180e+003
2.696127e+002, 3.381720e+003
2.700948e+002, 3.380933e+003
2.705770e+002, 3.380771e+003
2.710591e+002, 3.381205e+003
2.715412e+002, 3.382303e+003
2.720233e+002, 3.384845e+003
2.725054e+002, 3.389142e+003
2.729875e+002, 3.393772e+003
2.734697e+002, 3.397795e+003
2.739518e+002, 3.401228e+003
2.744339e+002, 3.403937e+003
2.749160e+002, 3.405534e+003
2.753981e+002, 3.406621e+003
2.758802e+002, 3.409334e+003
2.763624e+002, 3.414059e+003
2.768445e+002, 3.418857e+003
2.773266e+002, 3.422295e+003
2.778087e+002, 3.424259e+003
2.782908e+002, 3.426897e+003
2.787729e+002, 3.430461e+003
2.792551e+002, 3.434751e+003
2.797372e+002, 3.439838e+003
2.802193e+002, 3.446125e+003
2.807014e+002, 3.450754e+003
2.811835e+002, 3.451034e+003
2.816656e+002, 3.447070e+003
2.821478e+002, 3.445733e+003
2.826299e+002, 3.447456e+003
2.831120e+002, 3.451575e+003
2.835941e+002, 3.457676e+003
2.840762e+002, 3.465895e+003
2.845583e+002, 3.473800e+003
2.850405e+002, 3.480303e+003
2.855226e+002, 3.485510e+003
2.860047e+002, 3.490469e+003
2.864868e+002, 3.495258e+003
2.869689e+002, 3.499542e+003
2.874510e+002, 3.502833e+003
2.879332e+002, 3.505137e+003
2.884153e+002, 3.506803e+003
2.888974e+002, 3.507407e+003
2.893795e+002, 3.507410e+003
2.898616e+002, 3.508819e+003
2.903438e+002, 3.511793e+003
2.908259e+002, 3.515013e+003
2.913080e+002, 3.516626e+003
2.917901e+002, 3.516969e+003
2.922722e+002, 3.518256e+003
2.927543e+002, 3.521648e+003
2.932365e+002, 3.526228e+003
2.937186e+002, 3.529570e+003
2.942007e+002, 3.531622e+003
2.946828e+002, 3.533972e+003
2.951649e+002, 3.538717e+003
2.956470e+002, 3.545018e+003
2.961292e+002, 3.550133e+003
2.966113e+002, 3.552707e+003
2.970934e+002, 3.554397e+003
2.975755e+002, 3.558259e+003
2.980576e+002, 3.564110e+003
2.985397e+002, 3.569695e+003
2.990219e+002, 3.572592e+003
2.995040e+002, 3.574161e+003
2.999861e+002, 3.577441e+003
3.004682e+002, 3.583496e+003
3.009503e+002, 3.590534e+003
3.014324e+002, 3.596820e+003
3.019146e+002, 3.602376e+003
3.023967e+002, 3.607463e+003
3.028788e+002, 3.611994e+003
3.033609e+002, 3.616215e+003
3.038430e+002, 3.620034e+003
3.043251e+002, 3.623062e+003
3.048073e+002, 3.627093e+003
3.052894e+002, 3.634520e+003
3.057715e+002, 3.644276e+003
3.062536e+002, 3.654012e+003
3.067357e+002, 3.661841e+003
3.072178e+002, 3.669233e+003
3.077000e+002, 3.678084e+003
3.081821e+002, 3.688739e+003
3.086642e+002, 3.698329e+003
3.091463e+002, 3.703212e+003
3.096284e+002, 3.705802e+003
3.101105e+002, 3.709959e+003
3.105927e+002, 3.718960e+003
3.110748e+002, 3.728820e+003
3.115569e+002, 3.736457e+003
3.120390e+002, 3.741829e+003
3.125211e+002, 3.747742e+003
3.130032e+002, 3.757524e+003
3.134854e+002, 3.768172e+003
3.139675e+002, 3.776363e+003
3.144496e+002, 3.777952e+003
3.149317e+002, 3.779668e+003
3.154138e+002, 3.785309e+003
3.158959e+002, 3.794303e+003
3.163781e+002, 3.803090e+003
3.168602e+002, 3.810403e+003
3.173423e+002, 3.816740e+003
3.178244e+002, 3.822453e+003
3.183065e+002, 3.827815e+003
3.187886e+002, 3.832311e+003
3.192708e+002, 3.833686e+003
3.197529e+002, 3.833730e+003
3.202350e+002, 3.837518e+003
3.207171e+002, 3.851381e+003
3.211992e+002, 3.865617e+003
3.216813e+002, 3.874941e+003
3.221635e+002, 3.875946e+003
3.226456e+002, 3.878137e+003
3.231277e+002, 3.884866e+003
3.236098e+002, 3.893600e+003
3.240919e+002, 3.900156e+003
3.245740e+002, 3.901310e+003
3.250562e+002, 3.902410e+003
3.255383e+002, 3.905126e+003
3.260204e+002, 3.909911e+003
3.265025e+002, 3.914817e+003
3.269846e+002, 3.919003e+003
3.274667e+002, 3.923592e+003
3.279489e+002, 3.929857e+003
3.284310e+002, 3.941015e+003
3.289131e+002, 3.950396e+003
3.293952e+002, 3.956984e+003
3.298773e+002, 3.960777e+003
3.303594e+002, 3.963309e+003
3.308416e+002, 3.963368e+003
3.313237e+002, 3.963199e+003
3.318058e+002, 3.964326e+003
3.322879e+002, 3.966842e+003
3.327700e+002, 3.970501e+003
3.332521e+002, 3.975437e+003
3.337343e+002, 3.981506e+003
3.342164e+002, 3.988470e+003
3.346985e+002, 3.997728e+003
3.351806e+002, 4.005495e+003
3.356627e+002, 4.008897e+003
3.361448e+002, 4.005167e+003
3.366270e+002, 4.005763e+003
3.371091e+002, 4.012677e+003
3.375912e+002, 4.022747e+003
3.380733e+002, 4.029307e+003
3.385554e+002, 4.031210e+003
3.390375e+002, 4.033192e+003
3.395197e+002, 4.037424e+003
3.400018e+002, 4.044052e+003
3.404839e+002, 4.049758e+003
3.409660e+002, 4.054217e+003
3.414481e+002, 4.058233e+003
3.419302e+002, 4.062883e+003
3.424124e+002, 4.068281e+003
3.428945e+002, 4.072944e+003
3.433766e+002, 4.075874e+003
3.438587e+002, 4.077720e+003
3.443408e+002, 4.081958e+003
3.448229e+002, 4.088812e+003
3.453051e+002, 4.096340e+003
3.457872e+002, 4.102998e+003
3.462693e+002, 4.108811e+003
3.467514e+002, 4.113974e+003
3.472335e+002, 4.118030e+003
3.477156e+002, 4.122083e+003
3.481978e+002, 4.128987e+003
3.486799e+002, 4.138504e+003
3.491620e+002, 4.147225e+003
3.496441e+002, 4.151217e+003
3.501262e+002, 4.152876e+003
3.506083e+002, 4.158421e+003
3.510905e+002, 4.169464e+003
3.515726e+002, 4.181557e+003
3.520547e+002, 4.189182e+003
3.525368e+002, 4.193516e+003
3.530189e+002, 4.198127e+003
3.535010e+002, 4.203980e+003
3.539832e+002, 4.211457e+003
3.544653e+002, 4.221642e+003
3.549474e+002, 4.234742e+003
3.554295e+002, 4.247958e+003
3.559116e+002, 4.258896e+003
3.563937e+002, 4.268630e+003
3.568759e+002, 4.278632e+003
3.573580e+002, 4.289892e+003
3.578401e+002, 4.301322e+003
3.583222e+002, 4.312444e+003
3.588043e+002, 4.323272e+003
3.592864e+002, 4.333252e+003
3.597686e+002, 4.339366e+003
3.602507e+002, 4.346000e+003
3.607328e+002, 4.357183e+003
3.612149e+002, 4.376675e+003
3.616970e+002, 4.396051e+003
3.621791e+002, 4.411929e+003
3.626613e+002, 4.425164e+003
3.631434e+002, 4.437765e+003
3.636255e+002, 4.449185e+003
3.641076e+002, 4.460977e+003
3.645897e+002, 4.474213e+003
3.650718e+002, 4.489344e+003
3.655540e+002, 4.503753e+003
3.660361e+002, 4.516230e+003
3.665182e+002, 4.527981e+003
3.670003e+002, 4.540464e+003
3.674824e+002, 4.554844e+003
3.679645e+002, 4.569028e+003
3.684467e+002, 4.582463e+003
3.689288e+002, 4.594917e+003
3.694109e+002, 4.608261e+003
3.698930e+002, 4.621932e+003
3.703751e+002, 4.637076e+003
3.708572e+002, 4.654888e+003
3.713394e+002, 4.678823e+003
3.718215e+002, 4.699229e+003
3.723036e+002, 4.713542e+003
3.727857e+002, 4.723880e+003
3.732678e+002, 4.738231e+003
3.737499e+002, 4.758594e+003
3.742321e+002, 4.779545e+003
3.747142e+002, 4.798132e+003
3.751963e+002, 4.813557e+003
3.756784e+002, 4.830282e+003
3.761605e+002, 4.848217e+003
3.766426e+002, 4.867373e+003
3.771248e+002, 4.887712e+003
3.776069e+002, 4.909873e+003
3.780890e+002, 4.930479e+003
3.785711e+002, 4.947650e+003
3.790532e+002, 4.962103e+003
3.795353e+002, 4.978099e+003
3.800175e+002, 4.996100e+003
3.804996e+002, 5.014158e+003
3.809817e+002, 5.030345e+003
3.814638e+002, 5.044800e+003
3.819459e+002, 5.059205e+003
3.824280e+002, 5.073603e+003
3.829102e+002, 5.088279e+003
3.833923e+002, 5.104096e+003
3.838744e+002, 5.120928e+003
3.843565e+002, 5.136464e+003
3.848386e+002, 5.148602e+003
3.853207e+002, 5.158417e+003
3.858029e+002, 5.167900e+003
3.862850e+002, 5.177498e+003
3.867671e+002, 5.185838e+003
3.872492e+002, 5.191424e+003
3.877313e+002, 5.194736e+003
3.882134e+002, 5.196751e+003
3.886956e+002, 5.197817e+003
3.891777e+002, 5.197903e+003
3.896598e+002, 5.196638e+003
3.901419e+002, 5.194145e+003
3.906240e+002, 5.191692e+003
3.911061e+002, 5.190913e+003
3.915883e+002, 5.190298e+003
3.920704e+002, 5.188259e+003
3.925525e+002, 5.184201e+003
3.930346e+002, 5.179018e+003
3.935167e+002, 5.172429e+003
3.939988e+002, 5.164936e+003
3.944810e+002, 5.157821e+003
3.949631e+002, 5.150958e+003
3.954452e+002, 5.145028e+003
3.959273e+002, 5.141228e+003
3.964094e+002, 5.141531e+003
3.968915e+002, 5.137994e+003
3.973737e+002, 5.126190e+003
3.978558e+002, 5.110667e+003
3.983379e+002, 5.097024e+003
3.988200e+002, 5.086727e+003
3.993021e+002, 5.077237e+003
3.997842e+002, 5.068466e+003
4.002664e+002, 5.060354e+003
4.007485e+002, 5.051189e+003
4.012306e+002, 5.040642e+003
4.017127e+002, 5.029348e+003
4.021948e+002, 5.017628e+003
4.026769e+002, 5.005065e+003
4.031591e+002, 4.993026e+003
4.036412e+002, 4.982336e+003
4.041233e+002, 4.971881e+003
4.046054e+002, 4.958024e+003
4.050875e+002, 4.939564e+003
4.055696e+002, 4.921747e+003
4.060518e+002, 4.907437e+003
4.065339e+002, 4.896846e+003
4.070160e+002, 4.883519e+003
4.074981e+002, 4.867035e+003
4.079802e+002, 4.849654e+003
4.084623e+002, 4.833849e+003
4.089445e+002, 4.819603e+003
4.094266e+002, 4.806571e+003
4.099087e+002, 4.795252e+003
4.103908e+002, 4.784751e+003
4.108729e+002, 4.772370e+003
4.113550e+002, 4.758195e+003
4.118372e+002, 4.745228e+003
4.123193e+002, 4.736568e+003
4.128014e+002, 4.730519e+003
4.132835e+002, 4.722751e+003
4.137656e+002, 4.712268e+003
4.142477e+002, 4.701391e+003
4.147299e+002, 4.691684e+003
4.152120e+002, 4.683412e+003
4.156941e+002, 4.677555e+003
4.161762e+002, 4.677161e+003
4.166583e+002, 4.677436e+003
4.171404e+002, 4.673264e+003
4.176226e+002, 4.664629e+003
4.181047e+002, 4.656478e+003
4.185868e+002, 4.651065e+003
4.190689e+002, 4.647639e+003
4.195510e+002, 4.645614e+003
4.200331e+002, 4.647231e+003
4.205153e+002, 4.646984e+003
4.209974e+002, 4.640795e+003
4.214795e+002, 4.631055e+003
4.219616e+002, 4.624040e+003
4.224437e+002, 4.625245e+003
4.229258e+002, 4.626244e+003
4.234080e+002, 4.623001e+003
4.238901e+002, 4.613618e+003
4.243722e+002, 4.606234e+003
4.248543e+002, 4.602182e+003
4.253364e+002, 4.600237e+003
4.258185e+002, 4.599347e+003
4.263007e+002, 4.601177e+003
4.267828e+002, 4.601635e+003
4.272649e+002, 4.599329e+003
4.277470e+002, 4.594904e+003
4.282291e+002, 4.592688e+003
4.287112e+002, 4.593517e+003
4.291934e+002, 4.595034e+003
4.296755e+002, 4.596030e+003
4.301576e+002, 4.596419e+003
4.306397e+002, 4.596232e+003
4.311218e+002, 4.595042e+003
4.316039e+002, 4.593871e+003
4.320861e+002, 4.594522e+003
4.325682e+002, 4.597097e+003
4.330503e+002, 4.600079e+003
4.335324e+002, 4.603539e+003
4.340145e+002, 4.606948e+003
4.344966e+002, 4.607909e+003
4.349788e+002, 4.606385e+003
4.354609e+002, 4.604784e+003
4.359430e+002, 4.604974e+003
4.364251e+002, 4.606718e+003
4.369072e+002, 4.609411e+003
4.373893e+002, 4.613223e+003
4.378715e+002, 4.617334e+003
4.383536e+002, 4.620245e+003
4.388357e+002, 4.622600e+003
4.393178e+002, 4.626183e+003
4.397999e+002, 4.633149e+003
4.402820e+002, 4.640931e+003
4.407642e+002, 4.646874e+003
4.412463e+002, 4.650826e+003
4.417284e+002, 4.654772e+003
4.422105e+002, 4.660011e+003
4.426926e+002, 4.665612e+003
4.431747e+002, 4.670678e+003
4.436569e+002, 4.674456e+003
4.441390e+002, 4.678180e+003
4.446211e+002, 4.682608e+003
4.451032e+002, 4.687306e+003
4.455853e+002, 4.690894e+003
4.460674e+002, 4.690959e+003
4.465496e+002, 4.691914e+003
4.470317e+002, 4.696045e+003
4.475138e+002, 4.705241e+003
4.479959e+002, 4.711913e+003
4.484780e+002, 4.714616e+003
4.489601e+002, 4.716054e+003
4.494423e+002, 4.719029e+003
4.499244e+002, 4.724754e+003
4.504065e+002, 4.729517e+003
4.508886e+002, 4.732026e+003
4.513707e+002, 4.733224e+003
4.518528e+002, 4.737525e+003
4.523350e+002, 4.745779e+003
4.528171e+002, 4.754511e+003
4.532992e+002, 4.761881e+003
4.537813e+002, 4.767829e+003
4.542634e+002, 4.773708e+003
4.547455e+002, 4.779316e+003
4.552277e+002, 4.785388e+003
4.557098e+002, 4.793228e+003
4.561919e+002, 4.802531e+003
4.566740e+002, 4.812263e+003
4.571561e+002, 4.822976e+003
4.576382e+002, 4.832916e+003
4.581204e+002, 4.837373e+003
4.586025e+002, 4.837174e+003
4.590846e+002, 4.837861e+003
4.595667e+002, 4.844461e+003
4.600488e+002, 4.853786e+003
4.605309e+002, 4.861750e+003
4.610131e+002, 4.867648e+003
4.614952e+002, 4.872879e+003
4.619773e+002, 4.877325e+003
4.624594e+002, 4.881900e+003
4.629415e+002, 4.888007e+003
4.634236e+002, 4.898781e+003
4.639058e+002, 4.908648e+003
4.643879e+002, 4.914563e+003
4.648700e+002, 4.916838e+003
4.653521e+002, 4.919728e+003
4.658342e+002, 4.925118e+003
4.663163e+002, 4.930772e+003
4.667985e+002, 4.935343e+003
4.672806e+002, 4.937356e+003
4.677627e+002, 4.940752e+003
4.682448e+002, 4.946208e+003
4.687269e+002, 4.952756e+003
4.692090e+002, 4.959259e+003
4.696912e+002, 4.966450e+003
4.701733e+002, 4.972225e+003
4.706554e+002, 4.975370e+003
4.711375e+002, 4.976344e+003
4.716196e+002, 4.980119e+003
4.721017e+002, 4.987717e+003
4.725839e+002, 4.995198e+003
4.730660e+002, 5.000021e+003
4.735481e+002, 5.002148e+003
4.740302e+002, 5.002932e+003
4.745123e+002, 5.001926e+003
4.749944e+002, 5.001257e+003
4.754766e+002, 5.005294e+003
4.759587e+002, 5.013216e+003
4.764408e+002, 5.019436e+003
4.769229e+002, 5.020399e+003
4.774050e+002, 5.019187e+003
4.778871e+002, 5.021048e+003
4.783693e+002, 5.025743e+003
4.788514e+002, 5.030687e+003
4.793335e+002, 5.032700e+003
4.798156e+002, 5.034552e+003
4.802977e+002, 5.040236e+003
4.807798e+002, 5.051748e+003
4.812620e+002, 5.062407e+003
4.817441e+002, 5.067614e+003
4.822262e+002, 5.069550e+003
4.827083e+002, 5.071452e+003
4.831904e+002, 5.072126e+003
4.836725e+002, 5.074992e+003
4.841547e+002, 5.082747e+003
4.846368e+002, 5.094837e+003
4.851189e+002, 5.104550e+003
4.856010e+002, 5.109570e+003
4.860831e+002, 5.112977e+003
4.865652e+002, 5.116062e+003
4.870474e+002, 5.117729e+003
4.875295e+002, 5.121601e+003
4.880116e+002, 5.129187e+003
4.884937e+002, 5.137805e+003
4.889758e+002, 5.143700e+003
4.894579e+002, 5.146291e+003
4.899401e+002, 5.147926e+003
4.904222e+002, 5.149008e+003
4.909043e+002, 5.149608e+003
4.913864e+002, 5.149604e+003
4.918685e+002, 5.148722e+003
4.923506e+002, 5.149206e+003
4.928328e+002, 5.153687e+003
4.933149e+002, 5.161120e+003
4.937970e+002, 5.166726e+003
4.942791e+002, 5.170067e+003
4.947612e+002, 5.172228e+003
4.952433e+002, 5.174223e+003
4.957255e+002, 5.176087e+003
4.962076e+002, 5.177884e+003
4.966897e+002, 5.179626e+003
4.971718e+002, 5.181411e+003
4.976539e+002, 5.183491e+003
4.981360e+002, 5.185747e+003
4.986182e+002, 5.187679e+003
4.991003e+002, 5.188120e+003
4.995824e+002, 5.188769e+003
5.000645e+002, 5.191006e+003
5.005466e+002, 5.195408e+003
5.010287e+002, 5.199483e+003
5.015109e+002, 5.201714e+003
5.019930e+002, 5.203569e+003
5.024751e+002, 5.206486e+003
5.029572e+002, 5.210588e+003
5.034393e+002, 5.215816e+003
5.039214e+002, 5.223545e+003
5.044036e+002, 5.232411e+003
5.048857e+002, 5.237545e+003
5.053678e+002, 5.236612e+003
5.058499e+002, 5.236118e+003
5.063320e+002, 5.239292e+003
5.068141e+002, 5.246577e+003
5.072963e+002, 5.250627e+003
5.077784e+002, 5.250331e+003
5.082605e+002, 5.249972e+003
5.087426e+002, 5.254637e+003
5.092247e+002, 5.263960e+003
5.097068e+002, 5.272411e+003
5.101890e+002, 5.278889e+003
5.106711e+002, 5.284114e+003
5.111532e+002, 5.288292e+003
5.116353e+002, 5.291833e+003
5.121174e+002, 5.296669e+003
5.125995e+002, 5.305756e+003
5.130817e+002, 5.315639e+003
5.135638e+002, 5.322038e+003
5.140459e+002, 5.324943e+003
5.145280e+002, 5.326602e+003
5.150101e+002, 5.327263e+003
5.154922e+002, 5.327999e+003
5.159744e+002, 5.329929e+003
5.164565e+002, 5.334062e+003
5.169386e+002, 5.338021e+003
5.174207e+002, 5.340698e+003
5.179028e+002, 5.342839e+003
5.183849e+002, 5.345639e+003
5.188671e+002, 5.349083e+003
5.193492e+002, 5.353479e+003
5.198313e+002, 5.359696e+003
5.203134e+002, 5.367416e+003
5.207955e+002, 5.372698e+003
5.212776e+002, 5.373798e+003
5.217598e+002, 5.374932e+003
5.222419e+002, 5.378363e+003
5.227240e+002, 5.384312e+003
5.232061e+002, 5.391654e+003
5.236882e+002, 5.401175e+003
5.241703e+002, 5.410390e+003
5.246525e+002, 5.415367e+003
5.251346e+002, 5.416440e+003
5.256167e+002, 5.418561e+003
5.260988e+002, 5.424202e+003
5.265809e+002, 5.430400e+003
5.270630e+002, 5.430333e+003
5.275452e+002, 5.425164e+003
5.280273e+002, 5.421350e+003
5.285094e+002, 5.422964e+003
5.289915e+002, 5.427903e+003
5.294736e+002, 5.434468e+003
5.299557e+002, 5.442616e+003
5.304379e+002, 5.450300e+003
5.309200e+002, 5.456462e+003
5.314021e+002, 5.461478e+003
5.318842e+002, 5.465661e+003
5.323663e+002, 5.467963e+003
5.328484e+002, 5.470890e+003
5.333306e+002, 5.475603e+003
5.338127e+002, 5.481237e+003
5.342948e+002, 5.485909e+003
5.347769e+002, 5.489531e+003
5.352590e+002, 5.492110e+003
5.357411e+002, 5.492743e+003
5.362233e+002, 5.491601e+003
5.367054e+002, 5.494448e+003
5.371875e+002, 5.503324e+003
5.376696e+002, 5.512413e+003
5.381517e+002, 5.517641e+003
5.386339e+002, 5.518646e+003
5.391160e+002, 5.520754e+003
5.395981e+002, 5.524248e+003
5.400802e+002, 5.528981e+003
5.405623e+002, 5.535862e+003
5.410444e+002, 5.544295e+003
5.415266e+002, 5.550900e+003
5.420087e+002, 5.553508e+003
5.424908e+002, 5.554978e+003
5.429729e+002, 5.559688e+003
5.434550e+002, 5.566862e+003
5.439371e+002, 5.573642e+003
5.444193e+002, 5.577576e+003
5.449014e+002, 5.580978e+003
5.453835e+002, 5.585768e+003
5.458656e+002, 5.592122e+003
5.463477e+002, 5.598979e+003
5.468298e+002, 5.606633e+003
5.473120e+002, 5.614246e+003
5.477941e+002, 5.621053e+003
5.482762e+002, 5.625998e+003
5.487583e+002, 5.631417e+003
5.492404e+002, 5.637990e+003
5.497225e+002, 5.644944e+003
5.502047e+002, 5.650958e+003
5.506868e+002, 5.655604e+003
5.511689e+002, 5.660213e+003
5.516510e+002, 5.665538e+003
5.521331e+002, 5.671208e+003
5.526152e+002, 5.673859e+003
5.530974e+002, 5.672851e+003
5.535795e+002, 5.672389e+003
5.540616e+002, 5.676165e+003
5.545437e+002, 5.683345e+003
5.550258e+002, 5.688073e+003
5.555079e+002, 5.689703e+003
5.559901e+002, 5.692032e+003
5.564722e+002, 5.701123e+003
5.569543e+002, 5.713738e+003
5.574364e+002, 5.722775e+003
5.579185e+002, 5.724374e+003
5.584006e+002, 5.724691e+003
5.588828e+002, 5.728279e+003
5.593649e+002, 5.734241e+003
5.598470e+002, 5.740649e+003
5.603291e+002, 5.746530e+003
5.608112e+002, 5.752603e+003
5.612933e+002, 5.759527e+003
5.617755e+002, 5.767233e+003
5.622576e+002, 5.773767e+003
5.627397e+002, 5.776555e+003
5.632218e+002, 5.779761e+003
5.637039e+002, 5.785821e+003
5.641860e+002, 5.797084e+003
5.646682e+002, 5.805157e+003
5.651503e+002, 5.809617e+003
5.656324e+002, 5.811699e+003
5.661145e+002, 5.811743e+003
5.665966e+002, 5.809219e+003
5.670787e+002, 5.811344e+003
5.675609e+002, 5.821528e+003
5.680430e+002, 5.835156e+003
5.685251e+002, 5.841140e+003
5.690072e+002, 5.840463e+003
5.694893e+002, 5.840160e+003
5.699714e+002, 5.844760e+003
5.704536e+002, 5.851744e+003
5.709357e+002, 5.857266e+003
5.714178e+002, 5.861335e+003
5.718999e+002, 5.866210e+003
5.723820e+002, 5.873929e+003
5.728641e+002, 5.882643e+003
5.733463e+002, 5.890849e+003
5.738284e+002, 5.898774e+003
5.743105e+002, 5.904831e+003
5.747926e+002, 5.906542e+003
5.752747e+002, 5.906769e+003
5.757568e+002, 5.909121e+003
5.762390e+002, 5.915239e+003
5.767211e+002, 5.921635e+003
5.772032e+002, 5.927853e+003
5.776853e+002, 5.934090e+003
5.781674e+002, 5.940927e+003
5.786495e+002, 5.948603e+003
5.791317e+002, 5.956333e+003
5.796138e+002, 5.964592e+003
5.800959e+002, 5.972946e+003
5.805780e+002, 5.976202e+003
5.810601e+002, 5.973858e+003
5.815422e+002, 5.972622e+003
5.820244e+002, 5.980118e+003
5.825065e+002, 5.992977e+003
5.829886e+002, 6.002610e+003
5.834707e+002, 6.007814e+003
5.839528e+002, 6.011011e+003
5.844349e+002, 6.011239e+003
5.849171e+002, 6.011678e+003
5.853992e+002, 6.017143e+003
5.858813e+002, 6.036914e+003
5.863634e+002, 6.053773e+003
5.868455e+002, 6.058010e+003
5.873276e+002, 6.053587e+003
5.878098e+002, 6.051172e+003
5.882919e+002, 6.052152e+003
5.887740e+002, 6.056072e+003
5.892561e+002, 6.063806e+003
5.897382e+002, 6.075433e+003
5.902203e+002, 6.084405e+003
5.907025e+002, 6.089805e+003
5.911846e+002, 6.093996e+003
5.916667e+002, 6.098368e+003
5.921488e+002, 6.102978e+003
5.926309e+002, 6.107454e+003
5.931130e+002, 6.111829e+003
5.935952e+002, 6.116218e+003
5.940773e+002, 6.121200e+003
5.945594e+002, 6.126482e+003
5.950415e+002, 6.130474e+003
5.955236e+002, 6.132166e+003
5.960057e+002, 6.133848e+003
5.964879e+002, 6.138154e+003
5.969700e+002, 6.144428e+003
5.974521e+002, 6.151065e+003
5.979342e+002, 6.157107e+003
5.984163e+002, 6.163515e+003
5.988984e+002, 6.171443e+003
5.993806e+002, 6.180624e+003
5.998627e+002, 6.188336e+003
6.003448e+002, 6.194068e+003
6.008269e+002, 6.197958e+003
6.013090e+002, 6.199282e+003
6.017911e+002, 6.196200e+003
6.022733e+002, 6.198206e+003
6.027554e+002, 6.207735e+003
6.032375e+002, 6.218889e+003
6.037196e+002, 6.225412e+003
6.042017e+002, 6.226689e+003
6.046838e+002, 6.230409e+003
6.051660e+002, 6.237751e+003
6.056481e+002, 6.247372e+003
6.061302e+002, 6.259116e+003
6.066123e+002, 6.271845e+003
6.070944e+002, 6.279786e+003
6.075765e+002, 6.276550e+003
6.080587e+002, 6.271790e+003
6.085408e+002, 6.278461e+003
6.090229e+002, 6.293642e+003
6.095050e+002, 6.307173e+003
6.099871e+002, 6.310495e+003
6.104692e+002, 6.313001e+003
6.109514e+002, 6.321401e+003
6.114335e+002, 6.336592e+003
6.119156e+002, 6.348774e+003
6.123977e+002, 6.354120e+003
6.128798e+002, 6.357195e+003
6.133619e+002, 6.360482e+003
6.138441e+002, 6.363800e+003
6.143262e+002, 6.368004e+003
6.148083e+002, 6.373355e+003
6.152904e+002, 6.379366e+003
6.157725e+002, 6.386082e+003
6.162546e+002, 6.393752e+003
6.167368e+002, 6.398219e+003
6.172189e+002, 6.397551e+003
6.177010e+002, 6.395494e+003
6.181831e+002, 6.399464e+003
6.186652e+002, 6.408181e+003
6.191473e+002, 6.416543e+003
6.196295e+002, 6.420363e+003
6.201116e+002, 6.423729e+003
6.205937e+002, 6.432009e+003
6.210758e+002, 6.444023e+003
6.215579e+002, 6.454135e+003
6.220400e+002, 6.457841e+003
6.225222e+002, 6.459936e+003
6.230043e+002, 6.462815e+003
6.234864e+002, 6.466655e+003
6.239685e+002, 6.471551e+003
6.244506e+002, 6.479015e+003
6.249327e+002, 6.486241e+003
6.254149e+002, 6.490989e+003
6.258970e+002, 6.491467e+003
6.263791e+002, 6.495042e+003
6.268612e+002, 6.503002e+003
6.273433e+002, 6.512332e+003
6.278254e+002, 6.518391e+003
6.283076e+002, 6.521361e+003
6.287897e+002, 6.525315e+003
6.292718e+002, 6.531578e+003
6.297539e+002, 6.538847e+003
6.302360e+002, 6.544902e+003
6.307181e+002, 6.550159e+003
6.312003e+002, 6.555818e+003
6.316824e+002, 6.563319e+003
6.321645e+002, 6.570874e+003
6.326466e+002, 6.577104e+003
6.331287e+002, 6.582147e+003
6.336108e+002, 6.586600e+003
6.340930e+002, 6.588805e+003
6.345751e+002, 6.592117e+003
6.350572e+002, 6.598786e+003
6.355393e+002, 6.609886e+003
6.360214e+002, 6.619083e+003
6.365035e+002, 6.625708e+003
6.369857e+002, 6.631194e+003
6.374678e+002, 6.636490e+003
6.379499e+002, 6.641580e+003
6.384320e+002, 6.646174e+003
6.389141e+002, 6.650030e+003
6.393962e+002, 6.653819e+003
6.398784e+002, 6.658077e+003
6.403605e+002, 6.662927e+003
6.408426e+002, 6.669419e+003
6.413247e+002, 6.678865e+003
6.418068e+002, 6.688142e+003
6.422889e+002, 6.693182e+003
6.427711e+002, 6.695532e+003
6.432532e+002, 6.698801e+003
6.437353e+002, 6.704219e+003
6.442174e+002, 6.711267e+003
6.446995e+002, 6.721447e+003
6.451816e+002, 6.733842e+003
6.456638e+002, 6.742766e+003
6.461459e+002, 6.744257e+003
6.466280e+002, 6.745249e+003
6.471101e+002, 6.747996e+003
6.475922e+002, 6.752547e+003
6.480743e+002, 6.756736e+003
6.485565e+002, 6.759899e+003
6.490386e+002, 6.764127e+003
6.495207e+002, 6.771766e+003
6.500028e+002, 6.782212e+003
6.504849e+002, 6.790446e+003
6.509670e+002, 6.795763e+003
6.514492e+002, 6.800407e+003
6.519313e+002, 6.806456e+003
6.524134e+002, 6.813539e+003
6.528955e+002, 6.821124e+003
6.533776e+002, 6.830015e+003
6.538597e+002, 6.837655e+003
6.543419e+002, 6.842430e+003
6.548240e+002, 6.845050e+003
6.553061e+002, 6.846493e+003
6.557882e+002, 6.846000e+003
6.562703e+002, 6.845748e+003
6.567524e+002, 6.845866e+003
6.572346e+002, 6.846732e+003
6.577167e+002, 6.849367e+003
6.581988e+002, 6.854031e+003
6.586809e+002, 6.860204e+003
6.591630e+002, 6.868419e+003
6.596451e+002, 6.878037e+003
6.601273e+002, 6.884856e+003
6.606094e+002, 6.888754e+003
6.610915e+002, 6.892522e+003
6.615736e+002, 6.897469e+003
6.620557e+002, 6.903678e+003
6.625378e+002, 6.912281e+003
6.630200e+002, 6.923228e+003
6.635021e+002, 6.932864e+003
6.639842e+002, 6.937271e+003
6.644663e+002, 6.939855e+003
6.649484e+002, 6.943757e+003
6.654305e+002, 6.949889e+003
6.659127e+002, 6.956381e+003
6.663948e+002, 6.962503e+003
6.668769e+002, 6.969053e+003
6.673590e+002, 6.977063e+003
6.678411e+002, 6.988355e+003
6.683232e+002, 6.997326e+003
6.688054e+002, 7.003273e+003
6.692875e+002, 7.007016e+003
6.697696e+002, 7.009298e+003
6.702517e+002, 7.010063e+003
6.707338e+002, 7.011388e+003
6.712159e+002, 7.013230e+003
6.716981e+002, 7.016679e+003
6.721802e+002, 7.025914e+003
6.726623e+002, 7.038901e+003
6.731444e+002, 7.048756e+003
6.736265e+002, 7.047696e+003
6.741086e+002, 7.045450e+003
6.745908e+002, 7.050295e+003
6.750729e+002, 7.061152e+003
6.755550e+002, 7.070033e+003
6.760371e+002, 7.072313e+003
6.765192e+002, 7.074146e+003
6.770013e+002, 7.078605e+003
6.774835e+002, 7.086096e+003
6.779656e+002, 7.092448e+003
6.784477e+002, 7.096684e+003
6.789298e+002, 7.101687e+003
6.794119e+002, 7.110248e+003
6.798940e+002, 7.122481e+003
6.803762e+002, 7.130850e+003
6.808583e+002, 7.134515e+003
6.813404e+002, 7.138385e+003
6.818225e+002, 7.149754e+003
6.823046e+002, 7.164727e+003
6.827867e+002, 7.175339e+003
6.832689e+002, 7.179266e+003
6.837510e+002, 7.180592e+003
6.842331e+002, 7.179111e+003
6.847152e+002, 7.177828e+003
6.851973e+002, 7.180608e+003
6.856794e+002, 7.192036e+003
6.861616e+002, 7.203507e+003
6.866437e+002, 7.213976e+003
6.871258e+002, 7.223541e+003
6.876079e+002, 7.232013e+003
6.880900e+002, 7.238856e+003
6.885721e+002, 7.245718e+003
6.890543e+002, 7.252890e+003
6.895364e+002, 7.260218e+003
6.900185e+002, 7.266805e+003
6.905006e+002, 7.272667e+003
6.909827e+002, 7.280419e+003
6.914648e+002, 7.294517e+003
6.919470e+002, 7.309688e+003
6.924291e+002, 7.317065e+003
6.929112e+002, 7.317775e+003
6.933933e+002, 7.318125e+003
6.938754e+002, 7.319856e+003
6.943575e+002, 7.323872e+003
6.948397e+002, 7.331659e+003
6.953218e+002, 7.343739e+003
6.958039e+002, 7.354852e+003
6.962860e+002, 7.365807e+003
6.967681e+002, 7.374427e+003
6.972502e+002, 7.378879e+003
6.977324e+002, 7.377651e+003
6.982145e+002, 7.380189e+003
6.986966e+002, 7.387016e+003
6.991787e+002, 7.396263e+003
6.996608e+002, 7.406800e+003
7.001429e+002, 7.418263e+003
7.006251e+002, 7.429495e+003
7.011072e+002, 7.440401e+003
7.015893e+002, 7.450347e+003
7.020714e+002, 7.456572e+003
7.025535e+002, 7.461985e+003
7.030356e+002, 7.471392e+003
7.035178e+002, 7.489702e+003
7.039999e+002, 7.505586e+003
7.044820e+002, 7.512205e+003
7.049641e+002, 7.514321e+003
7.054462e+002, 7.519603e+003
7.059283e+002, 7.530995e+003
7.064105e+002, 7.541569e+003
7.068926e+002, 7.550451e+003
7.073747e+002, 7.558113e+003
7.078568e+002, 7.565167e+003
7.083389e+002, 7.571509e+003
7.088210e+002, 7.579834e+003
7.093032e+002, 7.592508e+003
7.097853e+002, 7.606472e+003
7.102674e+002, 7.613692e+003
7.107495e+002, 7.616024e+003
7.112316e+002, 7.620922e+003
7.117137e+002, 7.635162e+003
7.121959e+002, 7.651211e+003
7.126780e+002, 7.663859e+003
7.131601e+002, 7.673290e+003
7.136422e+002, 7.681770e+003
7.141243e+002, 7.687479e+003
7.146064e+002, 7.694884e+003
7.150886e+002, 7.706272e+003
7.155707e+002, 7.721877e+003
7.160528e+002, 7.736187e+003
7.165349e+002, 7.749272e+003
7.170170e+002, 7.761262e+003
7.174991e+002, 7.772817e+003
7.179813e+002, 7.783627e+003
7.184634e+002, 7.790639e+003
7.189455e+002, 7.793524e+003
7.194276e+002, 7.797950e+003
7.199097e+002, 7.809914e+003
7.203918e+002, 7.825903e+003
7.208740e+002, 7.841171e+003
7.213561e+002, 7.855087e+003
7.218382e+002, 7.868542e+003
7.223203e+002, 7.881511e+003
7.228024e+002, 7.894521e+003
7.232845e+002, 7.908085e+003
7.237667e+002, 7.921677e+003
7.242488e+002, 7.937157e+003
7.247309e+002, 7.956278e+003
7.252130e+002, 7.975506e+003
7.256951e+002, 7.990475e+003
7.261772e+002, 8.000867e+003
7.266594e+002, 8.011206e+003
7.271415e+002, 8.022087e+003
7.276236e+002, 8.032883e+003
7.281057e+002, 8.042024e+003
7.285878e+002, 8.050448e+003
7.290699e+002, 8.060737e+003
7.295521e+002, 8.074510e+003
7.300342e+002, 8.089250e+003
7.305163e+002, 8.103513e+003
7.309984e+002, 8.117583e+003
7.314805e+002, 8.131935e+003
7.319626e+002, 8.147857e+003
7.324448e+002, 8.162657e+003
7.329269e+002, 8.174842e+003
7.334090e+002, 8.185895e+003
7.338911e+002, 8.199738e+003
7.343732e+002, 8.216821e+003
7.348553e+002, 8.234467e+003
7.353375e+002, 8.252113e+003
7.358196e+002, 8.269536e+003
7.363017e+002, 8.285315e+003
7.367838e+002, 8.299933e+003
7.372659e+002, 8.316316e+003
7.377480e+002, 8.339067e+003
7.382302e+002, 8.362039e+003
7.387123e+002, 8.379380e+003
7.391944e+002, 8.391804e+003
7.396765e+002, 8.403333e+003
7.401586e+002, 8.412771e+003
7.406407e+002, 8.424152e+003
7.411229e+002, 8.440902e+003
7.416050e+002, 8.462704e+003
7.420871e+002, 8.478886e+003
7.425692e+002, 8.486960e+003
7.430513e+002, 8.495596e+003
7.435334e+002, 8.510775e+003
7.440156e+002, 8.531291e+003
7.444977e+002, 8.545331e+003
7.449798e+002, 8.552985e+003
7.454619e+002, 8.560065e+003
7.459440e+002, 8.571099e+003
7.464261e+002, 8.584017e+003
7.469083e+002, 8.597050e+003
7.473904e+002, 8.610031e+003
7.478725e+002, 8.620834e+003
7.483546e+002, 8.626125e+003
7.488367e+002, 8.630322e+003
7.493188e+002, 8.636552e+003
7.498010e+002, 8.645694e+003
7.502831e+002, 8.653799e+003
7.507652e+002, 8.662101e+003
7.512473e+002, 8.667247e+003
7.517294e+002, 8.665199e+003
7.522115e+002, 8.656098e+003
7.526937e+002, 8.649794e+003
7.531758e+002, 8.647186e+003
7.536579e+002, 8.645414e+003
7.541400e+002, 8.642107e+003
7.546221e+002, 8.637610e+003
7.551042e+002, 8.632411e+003
7.555864e+002, 8.626800e+003
7.560685e+002, 8.620404e+003
7.565506e+002, 8.612040e+003
7.570327e+002, 8.603464e+003
7.575148e+002, 8.596699e+003
7.579969e+002, 8.594521e+003
7.584791e+002, 8.590062e+003
7.589612e+002, 8.582645e+003
7.594433e+002, 8.573611e+003
7.599254e+002, 8.563473e+003
7.604075e+002, 8.551829e+003
7.608896e+002, 8.545588e+003
7.613718e+002, 8.546893e+003
7.618539e+002, 8.550006e+003
7.623360e+002, 8.548277e+003
7.628181e+002, 8.542543e+003
7.633002e+002, 8.534320e+003
7.637823e+002, 8.522369e+003
7.642645e+002, 8.511013e+003
7.647466e+002, 8.503026e+003
7.652287e+002, 8.497117e+003
7.657108e+002, 8.491083e+003
7.661929e+002, 8.484646e+003
7.666750e+002, 8.478248e+003
7.671572e+002, 8.471877e+003
7.676393e+002, 8.465749e+003
7.681214e+002, 8.460396e+003
7.686035e+002, 8.455933e+003
7.690856e+002, 8.450611e+003
7.695677e+002, 8.443496e+003
7.700499e+002, 8.436037e+003
7.705320e+002, 8.429671e+003
7.710141e+002, 8.424694e+003
7.714962e+002, 8.421971e+003
7.719783e+002, 8.423077e+003
7.724604e+002, 8.425129e+003
7.729426e+002, 8.427946e+003
7.734247e+002, 8.430485e+003
7.739068e+002, 8.430252e+003
7.743889e+002, 8.426089e+003
7.748710e+002, 8.420185e+003
7.753531e+002, 8.411663e+003
7.758353e+002, 8.402253e+003
7.763174e+002, 8.397004e+003
7.767995e+002, 8.396135e+003
7.772816e+002, 8.397394e+003
7.777637e+002, 8.401653e+003
7.782458e+002, 8.405875e+003
7.787280e+002, 8.403279e+003
7.792101e+002, 8.396028e+003
7.796922e+002, 8.390971e+003
7.801743e+002, 8.393364e+003
7.806564e+002, 8.396879e+003
7.811385e+002, 8.397950e+003
7.816207e+002, 8.397284e+003
7.821028e+002, 8.398204e+003
7.825849e+002, 8.400639e+003
7.830670e+002, 8.405071e+003
7.835491e+002, 8.412779e+003
7.840313e+002, 8.422175e+003
7.845134e+002, 8.426751e+003
7.849955e+002, 8.426399e+003
7.854776e+002, 8.425331e+003
7.859597e+002, 8.425725e+003
7.864418e+002, 8.426343e+003
7.869240e+002, 8.424224e+003
7.874061e+002, 8.420362e+003
7.878882e+002, 8.418550e+003
7.883703e+002, 8.422553e+003
7.888524e+002, 8.427348e+003
7.893345e+002, 8.430631e+003
7.898167e+002, 8.432550e+003
7.902988e+002, 8.434541e+003
7.907809e+002, 8.436661e+003
7.912630e+002, 8.439024e+003
7.917451e+002, 8.441365e+003
7.922272e+002, 8.444145e+003
7.927094e+002, 8.450607e+003
7.931915e+002, 8.460530e+003
7.936736e+002, 8.468666e+003
7.941557e+002, 8.469797e+003
7.946378e+002, 8.468753e+003
7.951199e+002, 8.472177e+003
7.956021e+002, 8.479073e+003
7.960842e+002, 8.484959e+003
7.965663e+002, 8.486880e+003
7.970484e+002, 8.488230e+003
7.975305e+002, 8.489541e+003
7.980126e+002, 8.491125e+003
7.984948e+002, 8.496146e+003
7.989769e+002, 8.505879e+003
7.994590e+002, 8.515918e+003
7.999411e+002, 8.524128e+003
8.004232e+002, 8.531303e+003
8.009053e+002, 8.540819e+003
8.013875e+002, 8.552333e+003
8.018696e+002, 8.562152e+003
8.023517e+002, 8.565439e+003
8.028338e+002, 8.567995e+003
8.033159e+002, 8.576331e+003
8.037980e+002, 8.589539e+003
8.042802e+002, 8.601504e+003
8.047623e+002, 8.610926e+003
8.052444e+002, 8.617696e+003
8.057265e+002, 8.619045e+003
8.062086e+002, 8.616425e+003
8.066907e+002, 8.625465e+003
8.071729e+002, 8.649573e+003
8.076550e+002, 8.670242e+003
8.081371e+002, 8.677272e+003
8.086192e+002, 8.675201e+003
8.091013e+002, 8.674159e+003
8.095834e+002, 8.674543e+003
8.100656e+002, 8.678514e+003
8.105477e+002, 8.688872e+003
8.110298e+002, 8.702122e+003
8.115119e+002, 8.717779e+003
8.119940e+002, 8.735153e+003
8.124761e+002, 8.749218e+003
8.129583e+002, 8.757003e+003
8.134404e+002, 8.764551e+003
8.139225e+002, 8.773801e+003
8.144046e+002, 8.784404e+003
8.148867e+002, 8.793493e+003
8.153688e+002, 8.800769e+003
8.158510e+002, 8.811372e+003
8.163331e+002, 8.829880e+003
8.168152e+002, 8.852185e+003
8.172973e+002, 8.871436e+003
8.177794e+002, 8.888158e+003
8.182615e+002, 8.904469e+003
8.187437e+002, 8.921093e+003
8.192258e+002, 8.937396e+003
8.197079e+002, 8.953953e+003
8.201900e+002, 8.970215e+003
8.206721e+002, 8.982598e+003
8.211542e+002, 8.988688e+003
8.216364e+002, 8.996427e+003
8.221185e+002, 9.009996e+003
8.226006e+002, 9.026297e+003
8.230827e+002, 9.034620e+003
8.235648e+002, 9.035888e+003
8.240469e+002, 9.037785e+003
8.245291e+002, 9.045017e+003
8.250112e+002, 9.054369e+003
8.254933e+002, 9.065304e+003
8.259754e+002, 9.076271e+003
8.264575e+002, 9.082333e+003
8.269396e+002, 9.077191e+003
8.274218e+002, 9.072442e+003
8.279039e+002, 9.070638e+003
8.283860e+002, 9.071611e+003
8.288681e+002, 9.075973e+003
8.293502e+002, 9.084905e+003
8.298323e+002, 9.090179e+003
8.303145e+002, 9.088112e+003
8.307966e+002, 9.081826e+003
8.312787e+002, 9.077463e+003
8.317608e+002, 9.073950e+003
8.322429e+002, 9.068210e+003
8.327250e+002, 9.056452e+003
8.332072e+002, 9.044324e+003
8.336893e+002, 9.035896e+003
8.341714e+002, 9.029372e+003
8.346535e+002, 9.019699e+003
8.351356e+002, 9.004487e+003
8.356177e+002, 8.990301e+003
8.360999e+002, 8.978588e+003
8.365820e+002, 8.968184e+003
8.370641e+002, 8.955476e+003
8.375462e+002, 8.940878e+003
8.380283e+002, 8.929412e+003
8.385104e+002, 8.924315e+003
8.389926e+002, 8.919935e+003
8.394747e+002, 8.909083e+003
8.399568e+002, 8.894697e+003
8.404389e+002, 8.881760e+003
8.409210e+002, 8.873139e+003
8.414031e+002, 8.864655e+003
8.418853e+002, 8.854077e+003
8.423674e+002, 8.843725e+003
8.428495e+002, 8.837681e+003
8.433316e+002, 8.837122e+003
8.438137e+002, 8.834406e+003
8.442958e+002, 8.827940e+003
8.447780e+002, 8.819764e+003
8.452601e+002, 8.813063e+003
8.457422e+002, 8.807025e+003
8.462243e+002, 8.799156e+003
8.467064e+002, 8.787538e+003
8.471885e+002, 8.777214e+003
8.476707e+002, 8.772399e+003
8.481528e+002, 8.769940e+003
8.486349e+002, 8.766183e+003
8.491170e+002, 8.760750e+003
8.495991e+002, 8.754206e+003
8.500812e+002, 8.745850e+003
8.505634e+002, 8.737865e+003
8.510455e+002, 8.732577e+003
8.515276e+002, 8.729922e+003
8.520097e+002, 8.729046e+003
8.524918e+002, 8.730054e+003
8.529739e+002, 8.731720e+003
8.534561e+002, 8.733477e+003
8.539382e+002, 8.734955e+003
8.544203e+002, 8.735604e+003
8.549024e+002, 8.735002e+003
8.553845e+002, 8.734462e+003
8.558666e+002, 8.734246e+003
8.563488e+002, 8.733892e+003
8.568309e+002, 8.732491e+003
8.573130e+002, 8.729315e+003
8.577951e+002, 8.729374e+003
8.582772e+002, 8.732656e+003
8.587593e+002, 8.738271e+003
8.592415e+002, 8.749139e+003
8.597236e+002, 8.760288e+003
8.602057e+002, 8.761573e+003
8.606878e+002, 8.752215e+003
8.611699e+002, 8.744738e+003
8.616520e+002, 8.747753e+003
8.621342e+002, 8.752476e+003
8.626163e+002, 8.753505e+003
8.630984e+002, 8.750720e+003
8.635805e+002, 8.748218e+003
8.640626e+002, 8.745892e+003
8.645447e+002, 8.744844e+003
8.650269e+002, 8.747923e+003
8.655090e+002, 8.752718e+003
8.659911e+002, 8.747518e+003
8.664732e+002, 8.734237e+003
8.669553e+002, 8.725445e+003
8.674374e+002, 8.733312e+003
8.679196e+002, 8.744730e+003
8.684017e+002, 8.750431e+003
8.688838e+002, 8.750902e+003
8.693659e+002, 8.752729e+003
8.698480e+002, 8.756850e+003
8.703301e+002, 8.761317e+003
8.708123e+002, 8.765574e+003
8.712944e+002, 8.769561e+003
8.717765e+002, 8.773594e+003
8.722586e+002, 8.777463e+003
8.727407e+002, 8.780509e+003
8.732228e+002, 8.782359e+003
8.737050e+002, 8.783162e+003
8.741871e+002, 8.782881e+003
8.746692e+002, 8.781740e+003
8.751513e+002, 8.780222e+003
8.756334e+002, 8.776431e+003
8.761155e+002, 8.775292e+003
8.765977e+002, 8.778903e+003
8.770798e+002, 8.784896e+003
8.775619e+002, 8.789043e+003
8.780440e+002, 8.791323e+003
8.785261e+002, 8.792814e+003
8.790082e+002, 8.793485e+003
8.794904e+002, 8.794272e+003
8.799725e+002, 8.797247e+003
8.804546e+002, 8.800981e+003
8.809367e+002, 8.802696e+003
8.814188e+002, 8.800114e+003
8.819009e+002, 8.798675e+003
8.823831e+002, 8.803131e+003
8.828652e+002, 8.807753e+003
8.833473e+002, 8.805741e+003
8.838294e+002, 8.793282e+003
8.843115e+002, 8.790125e+003
8.847936e+002, 8.798734e+003
8.852758e+002, 8.810271e+003
8.857579e+002, 8.815589e+003
8.862400e+002, 8.817113e+003
8.867221e+002, 8.820584e+003
8.872042e+002, 8.826860e+003
8.876863e+002, 8.832223e+003
8.881685e+002, 8.832077e+003
8.886506e+002, 8.832156e+003
8.891327e+002, 8.837870e+003
8.896148e+002, 8.850779e+003
8.900969e+002, 8.856676e+003
8.905790e+002, 8.852485e+003
8.910612e+002, 8.848795e+003
8.915433e+002, 8.852612e+003
8.920254e+002, 8.861744e+003
8.925075e+002, 8.868310e+003
8.929896e+002, 8.872549e+003
8.934717e+002, 8.876986e+003
8.939539e+002, 8.884088e+003
8.944360e+002, 8.891131e+003
8.949181e+002, 8.896568e+003
8.954002e+002, 8.900472e+003
8.958823e+002, 8.903291e+003
8.963644e+002, 8.905585e+003
8.968466e+002, 8.906312e+003
8.973287e+002, 8.904614e+003
8.978108e+002, 8.901980e+003
8.982929e+002, 8.902291e+003
8.987750e+002, 8.905341e+003
8.992571e+002, 8.909436e+003
8.997393e+002, 8.916010e+003
9.002214e+002, 8.920324e+003
9.007035e+002, 8.914362e+003
9.011856e+002, 8.904267e+003
9.016677e+002, 8.900478e+003
9.021498e+002, 8.912014e+003
9.026320e+002, 8.920329e+003
9.031141e+002, 8.923215e+003
9.035962e+002, 8.923472e+003
9.040783e+002, 8.924205e+003
9.045604e+002, 8.925437e+003
9.050425e+002, 8.928473e+003
9.055247e+002, 8.933768e+003
9.060068e+002, 8.939178e+003
9.064889e+002, 8.942854e+003
9.069710e+002, 8.945514e+003
9.074531e+002, 8.947871e+003
9.079352e+002, 8.950059e+003
9.084174e+002, 8.952532e+003
9.088995e+002, 8.956644e+003
9.093816e+002, 8.959771e+003
9.098637e+002, 8.959479e+003
9.103458e+002, 8.955788e+003
9.108279e+002, 8.955799e+003
9.113101e+002, 8.959530e+003
9.117922e+002, 8.964237e+003
9.122743e+002, 8.968494e+003
9.127564e+002, 8.972169e+003
9.132385e+002, 8.974967e+003
9.137206e+002, 8.976918e+003
9.142028e+002, 8.978580e+003
9.146849e+002, 8.978059e+003
9.151670e+002, 8.979858e+003
9.156491e+002, 8.986793e+003
9.161312e+002, 8.996833e+003
9.166133e+002, 9.001325e+003
9.170955e+002, 9.000268e+003
9.175776e+002, 8.999647e+003
9.180597e+002, 9.002081e+003
9.185418e+002, 9.005610e+003
9.190239e+002, 9.008437e+003
9.195060e+002, 9.010454e+003
9.199882e+002, 9.011376e+003
9.204703e+002, 9.006878e+003
9.209524e+002, 9.006953e+003
9.214345e+002, 9.016502e+003
9.219166e+002, 9.028298e+003
9.223987e+002, 9.032177e+003
9.228809e+002, 9.027263e+003
9.233630e+002, 9.027392e+003
9.238451e+002, 9.034632e+003
9.243272e+002, 9.043411e+003
9.248093e+002, 9.048954e+003
9.252914e+002, 9.051839e+003
9.257736e+002, 9.051729e+003
9.262557e+002, 9.047771e+003
9.267378e+002, 9.046879e+003
9.272199e+002, 9.054610e+003
9.277020e+002, 9.062877e+003
9.281841e+002, 9.068075e+003
9.286663e+002, 9.070251e+003
9.291484e+002, 9.069624e+003
9.296305e+002, 9.066096e+003
9.301126e+002, 9.062653e+003
9.305947e+002, 9.060715e+003
9.310768e+002, 9.060196e+003
9.315590e+002, 9.059863e+003
9.320411e+002, 9.060562e+003
9.325232e+002, 9.065732e+003
9.330053e+002, 9.085524e+003
9.334874e+002, 9.098739e+003
9.339695e+002, 9.097864e+003
9.344517e+002, 9.088348e+003
9.349338e+002, 9.082896e+003
9.354159e+002, 9.081634e+003
9.358980e+002, 9.082815e+003
9.363801e+002, 9.086726e+003
9.368622e+002, 9.091157e+003
9.373444e+002, 9.092877e+003
9.378265e+002, 9.093590e+003
9.383086e+002, 9.096015e+003
9.387907e+002, 9.102730e+003
9.392728e+002, 9.107340e+003
9.397549e+002, 9.107623e+003
9.402371e+002, 9.106498e+003
9.407192e+002, 9.105483e+003
9.412013e+002, 9.104431e+003
9.416834e+002, 9.107411e+003
9.421655e+002, 9.114622e+003
9.426476e+002, 9.122808e+003
9.431298e+002, 9.128030e+003
9.436119e+002, 9.133396e+003
9.440940e+002, 9.143940e+003
9.445761e+002, 9.159627e+003
9.450582e+002, 9.171068e+003
9.455403e+002, 9.175144e+003
9.460225e+002, 9.175499e+003
9.465046e+002, 9.172044e+003
9.469867e+002, 9.166038e+003
9.474688e+002, 9.161688e+003
9.479509e+002, 9.159176e+003
9.484330e+002, 9.160387e+003
9.489152e+002, 9.168313e+003
9.493973e+002, 9.177278e+003
9.498794e+002, 9.182440e+003
9.503615e+002, 9.184595e+003
9.508436e+002, 9.185161e+003
9.513257e+002, 9.180632e+003
9.518079e+002, 9.180659e+003
9.522900e+002, 9.188718e+003
9.527721e+002, 9.197540e+003
9.532542e+002, 9.196749e+003
9.537363e+002, 9.187928e+003
9.542184e+002, 9.183087e+003
9.547006e+002, 9.183776e+003
9.551827e+002, 9.186393e+003
9.556648e+002, 9.191084e+003
9.561469e+002, 9.194337e+003
9.566290e+002, 9.191188e+003
9.571111e+002, 9.179905e+003
9.575933e+002, 9.176385e+003
9.580754e+002, 9.184541e+003
9.585575e+002, 9.193812e+003
9.590396e+002, 9.199969e+003
9.595217e+002, 9.203075e+003
9.600038e+002, 9.200510e+003
9.604860e+002, 9.194064e+003
9.609681e+002, 9.193069e+003
9.614502e+002, 9.209704e+003
9.619323e+002, 9.225843e+003
9.624144e+002, 9.226966e+003
9.628965e+002, 9.220420e+003
9.633787e+002, 9.223281e+003
9.638608e+002, 9.241864e+003
9.643429e+002, 9.254564e+003
9.648250e+002, 9.258229e+003
9.653071e+002, 9.256780e+003
9.657892e+002, 9.251591e+003
9.662714e+002, 9.246045e+003
9.667535e+002, 9.250643e+003
9.672356e+002, 9.268768e+003
9.677177e+002, 9.284458e+003
9.681998e+002, 9.287697e+003
9.686819e+002, 9.286067e+003
9.691641e+002, 9.283712e+003
9.696462e+002, 9.280441e+003
9.701283e+002, 9.282618e+003
9.706104e+002, 9.291399e+003
9.710925e+002, 9.299205e+003
9.715746e+002, 9.300041e+003
9.720568e+002, 9.297940e+003
9.725389e+002, 9.300777e+003
9.730210e+002, 9.307150e+003
9.735031e+002, 9.312436e+003
9.739852e+002, 9.313223e+003
9.744673e+002, 9.314453e+003
9.749495e+002, 9.318900e+003
9.754316e+002, 9.323972e+003
9.759137e+002, 9.323660e+003
9.763958e+002, 9.317424e+003
9.768779e+002, 9.318127e+003
9.773600e+002, 9.329413e+003
9.778422e+002, 9.342074e+003
9.783243e+002, 9.346967e+003
9.788064e+002, 9.347157e+003
9.792885e+002, 9.345552e+003
9.797706e+002, 9.341849e+003
9.802527e+002, 9.340938e+003
9.807349e+002, 9.345172e+003
9.812170e+002, 9.350015e+003
9.816991e+002, 9.352332e+003
9.821812e+002, 9.352800e+003
9.826633e+002, 9.358641e+003
9.831454e+002, 9.369096e+003
9.836276e+002, 9.376667e+003
9.841097e+002, 9.372092e+003
9.845918e+002, 9.367160e+003
9.850739e+002, 9.372719e+003
9.855560e+002, 9.384787e+003
9.860381e+002, 9.392623e+003
9.865203e+002, 9.394657e+003
9.870024e+002, 9.393479e+003
9.874845e+002, 9.387653e+003
9.879666e+002, 9.382325e+003
9.884487e+002, 9.387699e+003
9.889308e+002, 9.399670e+003
9.894130e+002, 9.405325e+003
9.898951e+002, 9.401762e+003
9.903772e+002, 9.398412e+003
9.908593e+002, 9.403212e+003
9.913414e+002, 9.408436e+003
9.918235e+002, 9.407309e+003
9.923057e+002, 9.399312e+003
9.927878e+002, 9.396691e+003
9.932699e+002, 9.400128e+003
9.937520e+002, 9.404384e+003
9.942341e+002, 9.406761e+003
9.947162e+002, 9.408045e+003
9.951984e+002, 9.409204e+003
9.956805e+002, 9.410357e+003
9.961626e+002, 9.411850e+003
9.966447e+002, 9.413604e+003
9.971268e+002, 9.415985e+003
9.976089e+002, 9.418823e+003
9.980911e+002, 9.422494e+003
9.985732e+002, 9.427919e+003
9.990553e+002, 9.435079e+003
9.995374e+002, 9.441665e+003
1.000020e+003, 9.447470e+003
1.000502e+003, 9.450811e+003
1.000984e+003, 9.447795e+003
1.001466e+003, 9.442949e+003
1.001948e+003, 9.440341e+003
1.002430e+003, 9.440510e+003
1.002912e+003, 9.442996e+003
1.003394e+003, 9.449874e+003
1.003876e+003, 9.454554e+003
1.004359e+003, 9.453396e+003
1.004841e+003, 9.448718e+003
1.005323e+003, 9.446856e+003
1.005805e+003, 9.447714e+003
1.006287e+003, 9.450873e+003
1.006769e+003, 9.458679e+003
1.007251e+003, 9.465642e+003
1.007733e+003, 9.467624e+003
1.008216e+003, 9.467676e+003
1.008698e+003, 9.470175e+003
1.009180e+003, 9.476224e+003
1.009662e+003, 9.480442e+003
1.010144e+003, 9.482302e+003
1.010626e+003, 9.483351e+003
1.011108e+003, 9.484734e+003
1.011590e+003, 9.486362e+003
1.012072e+003, 9.487208e+003
1.012555e+003, 9.487412e+003
1.013037e+003, 9.490797e+003
1.013519e+003, 9.503926e+003
1.014001e+003, 9.514116e+003
1.014483e+003, 9.516534e+003
1.014965e+003, 9.513385e+003
1.015447e+003, 9.512190e+003
1.015929e+003, 9.512722e+003
1.016411e+003, 9.512365e+003
1.016894e+003, 9.510007e+003
1.017376e+003, 9.507193e+003
1.017858e+003, 9.503708e+003
1.018340e+003, 9.501341e+003
1.018822e+003, 9.502890e+003
1.019304e+003, 9.511938e+003
1.019786e+003, 9.516339e+003
1.020268e+003, 9.514899e+003
1.020751e+003, 9.512285e+003
1.021233e+003, 9.511788e+003
1.021715e+003, 9.513014e+003
1.022197e+003, 9.515896e+003
1.022679e+003, 9.519873e+003
1.023161e+003, 9.521702e+003
1.023643e+003, 9.515213e+003
1.024125e+003, 9.511274e+003
1.024607e+003, 9.515530e+003
1.025090e+003, 9.524636e+003
1.025572e+003, 9.532720e+003
1.026054e+003, 9.539868e+003
1.026536e+003, 9.543303e+003
1.027018e+003, 9.541957e+003
1.027500e+003, 9.539221e+003
1.027982e+003, 9.537418e+003
1.028464e+003, 9.536935e+003
1.028947e+003, 9.538603e+003
1.029429e+003, 9.543094e+003
1.029911e+003, 9.547223e+003
1.030393e+003, 9.551468e+003
1.030875e+003, 9.554464e+003
1.031357e+003, 9.555804e+003
1.031839e+003, 9.555491e+003
1.032321e+003, 9.550284e+003
1.032803e+003, 9.542470e+003
1.033286e+003, 9.541200e+003
1.033768e+003, 9.559327e+003
1.034250e+003, 9.575595e+003
1.034732e+003, 9.578366e+003
1.035214e+003, 9.574741e+003
1.035696e+003, 9.574790e+003
1.036178e+003, 9.578872e+003
1.036660e+003, 9.584685e+003
1.037143e+003, 9.592493e+003
1.037625e+003, 9.598604e+003
1.038107e+003, 9.597642e+003
1.038589e+003, 9.594182e+003
1.039071e+003, 9.593702e+003
1.039553e+003, 9.596449e+003
1.040035e+003, 9.600267e+003
1.040517e+003, 9.605511e+003
1.041000e+003, 9.610504e+003
1.041482e+003, 9.614924e+003
1.041964e+003, 9.618694e+003
1.042446e+003, 9.622615e+003
1.042928e+003, 9.625862e+003
1.043410e+003, 9.623464e+003
1.043892e+003, 9.610953e+003
1.044374e+003, 9.601923e+003
1.044856e+003, 9.609538e+003
1.045339e+003, 9.621224e+003
1.045821e+003, 9.625040e+003
1.046303e+003, 9.619281e+003
1.046785e+003, 9.618167e+003
1.047267e+003, 9.622244e+003
1.047749e+003, 9.626275e+003
1.048231e+003, 9.625766e+003
1.048713e+003, 9.623854e+003
1.049195e+003, 9.625385e+003
1.049677e+003, 9.628846e+003
1.050160e+003, 9.629893e+003
1.050642e+003, 9.620233e+003
1.051124e+003, 9.618646e+003
1.051606e+003, 9.630079e+003
1.052088e+003, 9.645757e+003
1.052570e+003, 9.655107e+003
1.053052e+003, 9.658607e+003
1.053534e+003, 9.656099e+003
1.054017e+003, 9.647345e+003
1.054499e+003, 9.639794e+003
1.054981e+003, 9.638800e+003
1.055463e+003, 9.639871e+003
1.055945e+003, 9.640793e+003
1.056427e+003, 9.641454e+003
1.056909e+003, 9.640736e+003
1.057391e+003, 9.638373e+003
1.057874e+003, 9.639507e+003
1.058356e+003, 9.648342e+003
1.058838e+003, 9.656496e+003
1.059320e+003, 9.649771e+003
1.059802e+003, 9.637422e+003
1.060284e+003, 9.633081e+003
1.060766e+003, 9.645314e+003
1.061248e+003, 9.651997e+003
1.061730e+003, 9.649522e+003
1.062213e+003, 9.647067e+003
1.062695e+003, 9.652754e+003
1.063177e+003, 9.663544e+003
1.063659e+003, 9.668109e+003
1.064141e+003, 9.667468e+003
1.064623e+003, 9.666757e+003
1.065105e+003, 9.667556e+003
1.065587e+003, 9.669685e+003
1.066070e+003, 9.675363e+003
1.066552e+003, 9.680925e+003
1.067034e+003, 9.678790e+003
1.067516e+003, 9.668409e+003
1.067998e+003, 9.667504e+003
1.068480e+003, 9.678980e+003
1.068962e+003, 9.691186e+003
1.069444e+003, 9.693684e+003
1.069927e+003, 9.692009e+003
1.070409e+003, 9.691254e+003
1.070891e+003, 9.691873e+003
1.071373e+003, 9.690676e+003
1.071855e+003, 9.687463e+003
1.072337e+003, 9.682604e+003
1.072819e+003, 9.674326e+003
1.073301e+003, 9.667667e+003
1.073783e+003, 9.676150e+003
1.074266e+003, 9.692229e+003
1.074748e+003, 9.698913e+003
1.075230e+003, 9.686659e+003
1.075712e+003, 9.679033e+003
1.076194e+003, 9.686376e+003
1.076676e+003, 9.695292e+003
1.077158e+003, 9.697514e+003
1.077640e+003, 9.693814e+003
1.078122e+003, 9.692076e+003
1.078604e+003, 9.692268e+003
1.079087e+003, 9.694269e+003
1.079569e+003, 9.699389e+003
1.080051e+003, 9.704777e+003
1.080533e+003, 9.707635e+003
1.081015e+003, 9.709960e+003
1.081497e+003, 9.716143e+003
1.081979e+003, 9.728057e+003
1.082461e+003, 9.733537e+003
1.082944e+003, 9.730843e+003
1.083426e+003, 9.727271e+003
1.083908e+003, 9.730985e+003
1.084390e+003, 9.737058e+003
1.084872e+003, 9.738435e+003
1.085354e+003, 9.735453e+003
1.085836e+003, 9.736947e+003
1.086318e+003, 9.747540e+003
1.086801e+003, 9.756344e+003
1.087283e+003, 9.760656e+003
1.087765e+003, 9.762232e+003
1.088247e+003, 9.764995e+003
1.088729e+003, 9.767546e+003
1.089211e+003, 9.764808e+003
1.089693e+003, 9.753896e+003
1.090175e+003, 9.747228e+003
1.090657e+003, 9.754345e+003
1.091140e+003, 9.762903e+003
1.091622e+003, 9.765391e+003
1.092104e+003, 9.763027e+003
1.092586e+003, 9.768098e+003
1.093068e+003, 9.779652e+003
1.093550e+003, 9.785998e+003
1.094032e+003, 9.778896e+003
1.094514e+003, 9.769473e+003
1.094997e+003, 9.764280e+003
1.095479e+003, 9.762436e+003
1.095961e+003, 9.762921e+003
1.096443e+003, 9.766804e+003
1.096925e+003, 9.768300e+003
1.097407e+003, 9.766866e+003
1.097889e+003, 9.766518e+003
1.098371e+003, 9.772010e+003
1.098854e+003, 9.779249e+003
1.099336e+003, 9.783199e+003
1.099818e+003, 9.784253e+003
1.100300e+003, 9.784436e+003
1.100782e+003, 9.782964e+003
1.101264e+003, 9.782916e+003
1.101746e+003, 9.785301e+003
1.102228e+003, 9.787985e+003
1.102710e+003, 9.787119e+003
1.103193e+003, 9.784566e+003
1.103675e+003, 9.784803e+003
1.104157e+003, 9.788418e+003
1.104639e+003, 9.793880e+003
1.105121e+003, 9.805970e+003
1.105603e+003, 9.813330e+003
1.106085e+003, 9.810318e+003
1.106567e+003, 9.800551e+003
1.107049e+003, 9.793478e+003
1.107531e+003, 9.789370e+003
1.108014e+003, 9.792104e+003
1.108496e+003, 9.804905e+003
1.108978e+003, 9.816641e+003
1.109460e+003, 9.816783e+003
1.109942e+003, 9.814160e+003
1.110424e+003, 9.817222e+003
1.110906e+003, 9.826406e+003
1.111388e+003, 9.829971e+003
1.111871e+003, 9.827449e+003
1.112353e+003, 9.825777e+003
1.112835e+003, 9.829779e+003
1.113317e+003, 9.834721e+003
1.113799e+003, 9.834122e+003
1.114281e+003, 9.831391e+003
1.114763e+003, 9.832447e+003
1.115245e+003, 9.842634e+003
1.115728e+003, 9.847346e+003
1.116210e+003, 9.845517e+003
1.116692e+003, 9.842221e+003
1.117174e+003, 9.840439e+003
1.117656e+003, 9.840713e+003
1.118138e+003, 9.845544e+003
1.118620e+003, 9.853572e+003
1.119102e+003, 9.859280e+003
1.119584e+003, 9.858185e+003
1.120067e+003, 9.857731e+003
1.120549e+003, 9.858873e+003
1.121031e+003, 9.860935e+003
1.121513e+003, 9.864714e+003
1.121995e+003, 9.868549e+003
1.122477e+003, 9.865169e+003
1.122959e+003, 9.854036e+003
1.123441e+003, 9.845343e+003
1.123924e+003, 9.846199e+003
1.124406e+003, 9.848791e+003
1.124888e+003, 9.849293e+003
1.125370e+003, 9.849206e+003
1.125852e+003, 9.854348e+003
1.126334e+003, 9.864016e+003
1.126816e+003, 9.868323e+003
1.127298e+003, 9.864376e+003
1.127781e+003, 9.858678e+003
1.128263e+003, 9.854660e+003
1.128745e+003, 9.852198e+003
1.129227e+003, 9.851833e+003
1.129709e+003, 9.853389e+003
1.130191e+003, 9.853285e+003
1.130673e+003, 9.851410e+003
1.131155e+003, 9.849281e+003
1.131637e+003, 9.846324e+003
1.132120e+003, 9.845351e+003
1.132602e+003, 9.851396e+003
1.133084e+003, 9.860301e+003
1.133566e+003, 9.865706e+003
1.134048e+003, 9.864804e+003
1.134530e+003, 9.868021e+003
1.135012e+003, 9.876777e+003
1.135494e+003, 9.883541e+003
1.135976e+003, 9.880454e+003
1.136458e+003, 9.874351e+003
1.136941e+003, 9.876441e+003
1.137423e+003, 9.884480e+003
1.137905e+003, 9.892921e+003
1.138387e+003, 9.904504e+003
1.138869e+003, 9.908843e+003
1.139351e+003, 9.902339e+003
1.139833e+003, 9.895156e+003
1.140315e+003, 9.898747e+003
1.140798e+003, 9.908814e+003
1.141280e+003, 9.915437e+003
1.141762e+003, 9.918583e+003
1.142244e+003, 9.920976e+003
1.142726e+003, 9.924681e+003
1.143208e+003, 9.926142e+003
1.143690e+003, 9.923415e+003
1.144172e+003, 9.919679e+003
1.144655e+003, 9.920673e+003
1.145137e+003, 9.925034e+003
1.145619e+003, 9.927009e+003
1.146101e+003, 9.925938e+003
1.146583e+003, 9.924627e+003
1.147065e+003, 9.924167e+003
1.147547e+003, 9.924641e+003
1.148029e+003, 9.926163e+003
1.148511e+003, 9.928649e+003
1.148994e+003, 9.932183e+003
1.149476e+003, 9.936589e+003
1.149958e+003, 9.939482e+003
1.150440e+003, 9.939751e+003
1.150922e+003, 9.941399e+003
1.151404e+003, 9.950113e+003
1.151886e+003, 9.958731e+003
1.152368e+003, 9.960697e+003
1.152851e+003, 9.956861e+003
1.153333e+003, 9.956381e+003
1.153815e+003, 9.959127e+003
1.154297e+003, 9.963938e+003
1.154779e+003, 9.971580e+003
1.155261e+003, 9.978054e+003
1.155743e+003, 9.977253e+003
1.156225e+003, 9.974406e+003
1.156708e+003, 9.976808e+003
1.157190e+003, 9.986312e+003
1.157672e+003, 9.987657e+003
1.158154e+003, 9.979876e+003
1.158636e+003, 9.972932e+003
1.159118e+003, 9.973411e+003
1.159600e+003, 9.976754e+003
1.160082e+003, 9.979343e+003
1.160564e+003, 9.980955e+003
1.161047e+003, 9.980907e+003
1.161529e+003, 9.977949e+003
1.162011e+003, 9.976791e+003
1.162493e+003, 9.977690e+003
1.162975e+003, 9.979871e+003
1.163457e+003, 9.984490e+003
1.163939e+003, 9.988804e+003
1.164421e+003, 9.987636e+003
1.164903e+003, 9.982738e+003
1.165385e+003, 9.979584e+003
1.165868e+003, 9.978956e+003
1.166350e+003, 9.981217e+003
1.166832e+003, 9.987675e+003
1.167314e+003, 9.992889e+003
1.167796e+003, 9.988112e+003
1.168278e+003, 9.979526e+003
1.168760e+003, 9.978625e+003
1.169242e+003, 9.985037e+003
1.169725e+003, 9.991912e+003
1.170207e+003, 1.000094e+004
1.170689e+003, 1.000417e+004
1.171171e+003, 9.998172e+003
1.171653e+003, 9.990334e+003
1.172135e+003, 9.991513e+003
1.172617e+003, 9.998764e+003
1.173099e+003, 1.000664e+004
1.173582e+003, 1.001439e+004
1.174064e+003, 1.001911e+004
1.174546e+003, 1.001595e+004
1.175028e+003, 1.001452e+004
1.175510e+003, 1.001811e+004
1.175992e+003, 1.002355e+004
1.176474e+003, 1.002314e+004
1.176956e+003, 1.001930e+004
1.177438e+003, 1.002000e+004
1.177921e+003, 1.002748e+004
1.178403e+003, 1.003256e+004
1.178885e+003, 1.002806e+004
1.179367e+003, 1.002455e+004
1.179849e+003, 1.002715e+004
1.180331e+003, 1.003322e+004
1.180813e+003, 1.003397e+004
1.181295e+003, 1.003088e+004
1.181778e+003, 1.002943e+004
1.182260e+003, 1.003133e+004
1.182742e+003, 1.003426e+004
1.183224e+003, 1.003744e+004
1.183706e+003, 1.004118e+004
1.184188e+003, 1.004577e+004
1.184670e+003, 1.005100e+004
1.185152e+003, 1.005666e+004
1.185635e+003, 1.006206e+004
1.186117e+003, 1.006376e+004
1.186599e+003, 1.005788e+004
1.187081e+003, 1.005334e+004
1.187563e+003, 1.005863e+004
1.188045e+003, 1.006318e+004
1.188527e+003, 1.005643e+004
1.189009e+003, 1.004022e+004
1.189491e+003, 1.004048e+004
1.189974e+003, 1.005525e+004
1.190456e+003, 1.007024e+004
1.190938e+003, 1.008176e+004
1.191420e+003, 1.008723e+004
1.191902e+003, 1.007970e+004
1.192384e+003, 1.006953e+004
1.192866e+003, 1.006842e+004
1.193348e+003, 1.007673e+004
1.193830e+003, 1.007379e+004
1.194313e+003, 1.006062e+004
1.194795e+003, 1.005080e+004
1.195277e+003, 1.005492e+004
1.195759e+003, 1.006171e+004
1.196241e+003, 1.006595e+004
1.196723e+003, 1.006885e+004
1.197205e+003, 1.007282e+004
1.197687e+003, 1.007809e+004
1.198169e+003, 1.007686e+004
1.198652e+003, 1.006909e+004
1.199134e+003, 1.006123e+004
1.199616e+003, 1.005563e+004
1.200098e+003, 1.005358e+004
1.200580e+003, 1.006070e+004
1.201062e+003, 1.006982e+004
1.201544e+003, 1.006712e+004
1.202026e+003, 1.005208e+004
1.202509e+003, 1.004673e+004
1.202991e+003, 1.005304e+004
1.203473e+003, 1.006235e+004
1.203955e+003, 1.007087e+004
1.204437e+003, 1.007773e+004
1.204919e+003, 1.008135e+004
1.205401e+003, 1.008302e+004
1.205883e+003, 1.008616e+004
1.206365e+003, 1.009079e+004
1.206848e+003, 1.009042e+004
1.207330e+003, 1.008382e+004
1.207812e+003, 1.007794e+004
1.208294e+003, 1.007849e+004
1.208776e+003, 1.008121e+004
1.209258e+003, 1.008387e+004
1.209740e+003, 1.008628e+004
1.210222e+003, 1.008819e+004
1.210705e+003, 1.008972e+004
1.211187e+003, 1.009090e+004
1.211669e+003, 1.009188e+004
1.212151e+003, 1.009269e+004
1.212633e+003, 1.009518e+004
1.213115e+003, 1.009613e+004
1.213597e+003, 1.009054e+004
1.214079e+003, 1.008159e+004
1.214562e+003, 1.008200e+004
1.215044e+003, 1.009150e+004
1.215526e+003, 1.009734e+004
1.216008e+003, 1.009612e+004
1.216490e+003, 1.009341e+004
1.216972e+003, 1.009154e+004
1.217454e+003, 1.009164e+004
1.217936e+003, 1.009511e+004
1.218418e+003, 1.010110e+004
1.218901e+003, 1.010675e+004
1.219383e+003, 1.011190e+004
1.219865e+003, 1.011534e+004
1.220347e+003, 1.011640e+004
1.220829e+003, 1.011658e+004
1.221311e+003, 1.011677e+004
1.221793e+003, 1.011660e+004
1.222275e+003, 1.011544e+004
1.222757e+003, 1.011366e+004
1.223240e+003, 1.011493e+004
1.223722e+003, 1.011887e+004
1.224204e+003, 1.011938e+004
1.224686e+003, 1.011380e+004
1.225168e+003, 1.010668e+004
1.225650e+003, 1.009899e+004
1.226132e+003, 1.009320e+004
1.226614e+003, 1.009206e+004
1.227096e+003, 1.009471e+004
1.227579e+003, 1.009185e+004
1.228061e+003, 1.008429e+004
1.228543e+003, 1.007865e+004
1.229025e+003, 1.007604e+004
1.229507e+003, 1.007911e+004
1.229989e+003, 1.009704e+004
1.230471e+003, 1.011425e+004
1.230953e+003, 1.011743e+004
1.231436e+003, 1.010840e+004
1.231918e+003, 1.010373e+004
1.232400e+003, 1.010316e+004
1.232882e+003, 1.010596e+004
1.233364e+003, 1.011551e+004
1.233846e+003, 1.012127e+004
1.234328e+003, 1.011475e+004
1.234810e+003, 1.010547e+004
1.235292e+003, 1.009887e+004
1.235775e+003, 1.009552e+004
1.236257e+003, 1.010337e+004
1.236739e+003, 1.011953e+004
1.237221e+003, 1.012827e+004
1.237703e+003, 1.011573e+004
1.238185e+003, 1.010615e+004
1.238667e+003, 1.011265e+004
1.239149e+003, 1.012154e+004
1.239632e+003, 1.012182e+004
1.240114e+003, 1.011586e+004
1.240596e+003, 1.012072e+004
1.241078e+003, 1.013320e+004
1.241560e+003, 1.013993e+004
1.242042e+003, 1.012688e+004
1.242524e+003, 1.011915e+004
1.243006e+003, 1.012622e+004
1.243489e+003, 1.013557e+004
1.243971e+003, 1.013631e+004
1.244453e+003, 1.013118e+004
1.244935e+003, 1.013203e+004
1.245417e+003, 1.013746e+004
1.245899e+003, 1.014213e+004
1.246381e+003, 1.014281e+004
1.246863e+003, 1.014417e+004
1.247345e+003, 1.014731e+004
1.247828e+003, 1.015054e+004
1.248310e+003, 1.015236e+004
1.248792e+003, 1.015323e+004
1.249274e+003, 1.015360e+004
1.249756e+003, 1.015409e+004
1.250238e+003, 1.015661e+004
1.250720e+003, 1.016578e+004
1.251202e+003, 1.017042e+004
1.251684e+003, 1.016800e+004
1.252167e+003, 1.016504e+004
1.252649e+003, 1.016908e+004
1.253131e+003, 1.017546e+004
1.253613e+003, 1.017306e+004
1.254095e+003, 1.016488e+004
1.254577e+003, 1.016141e+004
1.255059e+003, 1.016815e+004
1.255541e+003, 1.017375e+004
1.256023e+003, 1.017704e+004
1.256506e+003, 1.018083e+004
1.256988e+003, 1.019214e+004
1.257470e+003, 1.020240e+004
1.257952e+003, 1.019567e+004
1.258434e+003, 1.017781e+004
1.258916e+003, 1.016720e+004
1.259398e+003, 1.016886e+004
1.259880e+003, 1.016931e+004
1.260363e+003, 1.016764e+004
1.260845e+003, 1.016620e+004
1.261327e+003, 1.016876e+004
1.261809e+003, 1.017106e+004
1.262291e+003, 1.016617e+004
1.262773e+003, 1.015786e+004
1.263255e+003, 1.015713e+004
1.263737e+003, 1.016737e+004
1.264219e+003, 1.016918e+004
1.264702e+003, 1.016080e+004
1.265184e+003, 1.015039e+004
1.265666e+003, 1.014038e+004
1.266148e+003, 1.013451e+004
1.266630e+003, 1.013753e+004
1.267112e+003, 1.014658e+004
1.267594e+003, 1.015625e+004
1.268076e+003, 1.016706e+004
1.268559e+003, 1.017106e+004
1.269041e+003, 1.016779e+004
1.269523e+003, 1.016321e+004
1.270005e+003, 1.015936e+004
1.270487e+003, 1.015760e+004
1.270969e+003, 1.016000e+004
1.271451e+003, 1.016420e+004
1.271933e+003, 1.016709e+004
1.272416e+003, 1.016873e+004
1.272898e+003, 1.017167e+004
1.273380e+003, 1.017564e+004
1.273862e+003, 1.017637e+004
1.274344e+003, 1.016420e+004
1.274826e+003, 1.015778e+004
1.275308e+003, 1.016716e+004
1.275790e+003, 1.018085e+004
1.276272e+003, 1.018371e+004
1.276755e+003, 1.017867e+004
1.277237e+003, 1.017708e+004
1.277719e+003, 1.017901e+004
1.278201e+003, 1.017967e+004
1.278683e+003, 1.017475e+004
1.279165e+003, 1.017168e+004
1.279647e+003, 1.017213e+004
1.280129e+003, 1.017407e+004
1.280611e+003, 1.017517e+004
1.281094e+003, 1.017602e+004
1.281576e+003, 1.017866e+004
1.282058e+003, 1.018245e+004
1.282540e+003, 1.018372e+004
1.283022e+003, 1.017869e+004
1.283504e+003, 1.017634e+004
1.283986e+003, 1.017782e+004
1.284468e+003, 1.018097e+004
1.284950e+003, 1.018521e+004
1.285433e+003, 1.018874e+004
1.285915e+003, 1.018811e+004
1.286397e+003, 1.018449e+004
1.286879e+003, 1.018305e+004
1.287361e+003, 1.018541e+004
1.287843e+003, 1.018447e+004
1.288325e+003, 1.017906e+004
1.288807e+003, 1.017575e+004
1.289290e+003, 1.018267e+004
1.289772e+003, 1.019197e+004
1.290254e+003, 1.019797e+004
1.290736e+003, 1.020061e+004
1.291218e+003, 1.020019e+004
1.291700e+003, 1.019619e+004
1.292182e+003, 1.019665e+004
1.292664e+003, 1.020200e+004
1.293146e+003, 1.020619e+004
1.293629e+003, 1.020407e+004
1.294111e+003, 1.020048e+004
1.294593e+003, 1.019848e+004
1.295075e+003, 1.019624e+004
1.295557e+003, 1.018998e+004
1.296039e+003, 1.018077e+004
1.296521e+003, 1.017893e+004
1.297003e+003, 1.018382e+004
1.297486e+003, 1.018674e+004
1.297968e+003, 1.018172e+004
1.298450e+003, 1.017789e+004
1.298932e+003, 1.017878e+004
1.299414e+003, 1.018053e+004
1.299896e+003, 1.017789e+004
1.300378e+003, 1.017325e+004
1.300860e+003, 1.017401e+004
1.301343e+003, 1.017964e+004
1.301825e+003, 1.018560e+004
##END=



