##NAMES=Holmquistite
##RRUFFID=R130004
##IDEAL CHEMISTRY=[box]Li_2_(Mg_3_Al_2_)Si_8_O_22_(OH)_2_
##LOCALITY=Quebec Lithium Corporation mine, La Corne, Abitibi RCM, Abitibi-Temiscamingue, Quebec, Canada
##OWNER=RRUFF
##SOURCE=Don Doell
##DESCRIPTION=Parallel aggregate of pale purple bladed crystals
##STATUS=The identification of this mineral is confirmed by single-crystal X-ray diffraction and chemical analysis.
##URL=rruff.info/R130004
##MEASURED CHEMISTRY=Na_0.06_Li_2_(Mg_1.89_Fe_1.41_Al_1.73_)Si_8_O_22_(OH)_1.90_F_0.10_
8.975323e+001, 0.000000e+000
9.023535e+001, 1.521580e+002
9.071747e+001, 1.545764e+002
9.119958e+001, 1.548587e+002
9.168170e+001, 1.536150e+002
9.216382e+001, 1.511131e+002
9.264594e+001, 1.485366e+002
9.312805e+001, 1.466484e+002
9.361017e+001, 1.451962e+002
9.409229e+001, 1.429469e+002
9.457440e+001, 1.394464e+002
9.505651e+001, 1.359240e+002
9.553863e+001, 1.321176e+002
9.602074e+001, 1.285423e+002
9.650286e+001, 1.257701e+002
9.698498e+001, 1.239637e+002
9.746709e+001, 1.225586e+002
9.794921e+001, 1.207719e+002
9.843133e+001, 1.185832e+002
9.891344e+001, 1.162006e+002
9.939556e+001, 1.133368e+002
9.987768e+001, 1.102111e+002
1.003598e+002, 1.075199e+002
1.008419e+002, 1.057210e+002
1.013240e+002, 1.047044e+002
1.018061e+002, 1.036871e+002
1.022883e+002, 1.024771e+002
1.027704e+002, 1.013644e+002
1.032525e+002, 1.007003e+002
1.037346e+002, 1.005549e+002
1.042167e+002, 1.004394e+002
1.046988e+002, 1.000458e+002
1.051810e+002, 9.943893e+001
1.056631e+002, 9.867760e+001
1.061452e+002, 9.772675e+001
1.066273e+002, 9.662666e+001
1.071094e+002, 9.555593e+001
1.075915e+002, 9.462123e+001
1.080737e+002, 9.356299e+001
1.085558e+002, 9.217753e+001
1.090379e+002, 9.057046e+001
1.095200e+002, 8.900328e+001
1.100021e+002, 8.765415e+001
1.104842e+002, 8.649126e+001
1.109664e+002, 8.576717e+001
1.114485e+002, 8.565335e+001
1.119306e+002, 8.578733e+001
1.124127e+002, 8.616344e+001
1.128948e+002, 8.670061e+001
1.133769e+002, 8.717756e+001
1.138591e+002, 8.726781e+001
1.143412e+002, 8.673854e+001
1.148233e+002, 8.617668e+001
1.153054e+002, 8.554862e+001
1.157875e+002, 8.490150e+001
1.162696e+002, 8.422179e+001
1.167517e+002, 8.349000e+001
1.172339e+002, 8.283437e+001
1.177160e+002, 8.263512e+001
1.181981e+002, 8.307287e+001
1.186802e+002, 8.346655e+001
1.191623e+002, 8.366537e+001
1.196444e+002, 8.367677e+001
1.201266e+002, 8.350818e+001
1.206087e+002, 8.311909e+001
1.210908e+002, 8.256329e+001
1.215729e+002, 8.204711e+001
1.220550e+002, 8.172656e+001
1.225371e+002, 8.118192e+001
1.230193e+002, 7.986241e+001
1.235014e+002, 7.765056e+001
1.239835e+002, 7.564026e+001
1.244656e+002, 7.440394e+001
1.249477e+002, 7.363730e+001
1.254298e+002, 7.317007e+001
1.259120e+002, 7.301538e+001
1.263941e+002, 7.305152e+001
1.268762e+002, 7.300787e+001
1.273583e+002, 7.283228e+001
1.278404e+002, 7.266103e+001
1.283225e+002, 7.260064e+001
1.288047e+002, 7.255779e+001
1.292868e+002, 7.240434e+001
1.297689e+002, 7.204971e+001
1.302510e+002, 7.150755e+001
1.307331e+002, 7.097422e+001
1.312152e+002, 7.028280e+001
1.316974e+002, 6.976196e+001
1.321795e+002, 6.955059e+001
1.326616e+002, 6.959217e+001
1.331437e+002, 6.974369e+001
1.336258e+002, 6.988508e+001
1.341079e+002, 7.001174e+001
1.345901e+002, 7.016747e+001
1.350722e+002, 7.039450e+001
1.355543e+002, 7.061211e+001
1.360364e+002, 7.070689e+001
1.365185e+002, 7.069379e+001
1.370006e+002, 7.076984e+001
1.374828e+002, 7.122488e+001
1.379649e+002, 7.219280e+001
1.384470e+002, 7.280428e+001
1.389291e+002, 7.275137e+001
1.394112e+002, 7.242207e+001
1.398933e+002, 7.226418e+001
1.403755e+002, 7.238734e+001
1.408576e+002, 7.263843e+001
1.413397e+002, 7.278223e+001
1.418218e+002, 7.282169e+001
1.423039e+002, 7.302055e+001
1.427860e+002, 7.367004e+001
1.432681e+002, 7.460948e+001
1.437503e+002, 7.523328e+001
1.442324e+002, 7.523632e+001
1.447145e+002, 7.506393e+001
1.451966e+002, 7.510975e+001
1.456787e+002, 7.537971e+001
1.461608e+002, 7.574674e+001
1.466430e+002, 7.619262e+001
1.471251e+002, 7.675178e+001
1.476072e+002, 7.705139e+001
1.480893e+002, 7.680367e+001
1.485714e+002, 7.639877e+001
1.490535e+002, 7.601671e+001
1.495357e+002, 7.570058e+001
1.500178e+002, 7.540300e+001
1.504999e+002, 7.506443e+001
1.509820e+002, 7.468995e+001
1.514641e+002, 7.424709e+001
1.519462e+002, 7.371706e+001
1.524284e+002, 7.314186e+001
1.529105e+002, 7.254263e+001
1.533926e+002, 7.193178e+001
1.538747e+002, 7.131367e+001
1.543568e+002, 7.070033e+001
1.548389e+002, 7.006993e+001
1.553211e+002, 6.947763e+001
1.558032e+002, 6.880439e+001
1.562853e+002, 6.820289e+001
1.567674e+002, 6.795228e+001
1.572495e+002, 6.822016e+001
1.577316e+002, 6.879707e+001
1.582138e+002, 6.876065e+001
1.586959e+002, 6.746739e+001
1.591780e+002, 6.637470e+001
1.596601e+002, 6.589443e+001
1.601422e+002, 6.588313e+001
1.606243e+002, 6.602834e+001
1.611065e+002, 6.619862e+001
1.615886e+002, 6.636095e+001
1.620707e+002, 6.639185e+001
1.625528e+002, 6.621246e+001
1.630349e+002, 6.599114e+001
1.635170e+002, 6.584263e+001
1.639991e+002, 6.575558e+001
1.644813e+002, 6.560392e+001
1.649634e+002, 6.519197e+001
1.654455e+002, 6.469658e+001
1.659276e+002, 6.451186e+001
1.664097e+002, 6.481353e+001
1.668918e+002, 6.533607e+001
1.673740e+002, 6.577001e+001
1.678561e+002, 6.607929e+001
1.683382e+002, 6.646843e+001
1.688203e+002, 6.716858e+001
1.693024e+002, 6.799229e+001
1.697845e+002, 6.870580e+001
1.702667e+002, 6.915755e+001
1.707488e+002, 6.948015e+001
1.712309e+002, 7.000555e+001
1.717130e+002, 7.088242e+001
1.721951e+002, 7.168920e+001
1.726772e+002, 7.219113e+001
1.731594e+002, 7.254868e+001
1.736415e+002, 7.299536e+001
1.741236e+002, 7.367982e+001
1.746057e+002, 7.456237e+001
1.750878e+002, 7.539393e+001
1.755699e+002, 7.613332e+001
1.760521e+002, 7.686504e+001
1.765342e+002, 7.761934e+001
1.770163e+002, 7.838189e+001
1.774984e+002, 7.910091e+001
1.779805e+002, 7.971874e+001
1.784626e+002, 8.023450e+001
1.789448e+002, 8.099048e+001
1.794269e+002, 8.227668e+001
1.799090e+002, 8.351772e+001
1.803911e+002, 8.442921e+001
1.808732e+002, 8.512959e+001
1.813553e+002, 8.593974e+001
1.818375e+002, 8.715188e+001
1.823196e+002, 8.881918e+001
1.828017e+002, 9.037561e+001
1.832838e+002, 9.173504e+001
1.837659e+002, 9.308500e+001
1.842480e+002, 9.446152e+001
1.847301e+002, 9.589082e+001
1.852123e+002, 9.745448e+001
1.856944e+002, 9.926402e+001
1.861765e+002, 1.013722e+002
1.866586e+002, 1.031902e+002
1.871407e+002, 1.044652e+002
1.876228e+002, 1.056275e+002
1.881050e+002, 1.071041e+002
1.885871e+002, 1.089135e+002
1.890692e+002, 1.105859e+002
1.895513e+002, 1.117112e+002
1.900334e+002, 1.122605e+002
1.905155e+002, 1.122909e+002
1.909977e+002, 1.118556e+002
1.914798e+002, 1.108772e+002
1.919619e+002, 1.091274e+002
1.924440e+002, 1.064858e+002
1.929261e+002, 1.035521e+002
1.934082e+002, 1.008470e+002
1.938904e+002, 9.830250e+001
1.943725e+002, 9.573969e+001
1.948546e+002, 9.313357e+001
1.953367e+002, 9.045994e+001
1.958188e+002, 8.756517e+001
1.963009e+002, 8.423230e+001
1.967831e+002, 8.114815e+001
1.972652e+002, 7.890583e+001
1.977473e+002, 7.727757e+001
1.982294e+002, 7.578166e+001
1.987115e+002, 7.413503e+001
1.991936e+002, 7.239885e+001
1.996758e+002, 7.085562e+001
2.001579e+002, 6.954478e+001
2.006400e+002, 6.839983e+001
2.011221e+002, 6.738946e+001
2.016042e+002, 6.649590e+001
2.020863e+002, 6.569244e+001
2.025685e+002, 6.498763e+001
2.030506e+002, 6.437328e+001
2.035327e+002, 6.372840e+001
2.040148e+002, 6.295475e+001
2.044969e+002, 6.226184e+001
2.049790e+002, 6.179916e+001
2.054612e+002, 6.149140e+001
2.059433e+002, 6.113752e+001
2.064254e+002, 6.050173e+001
2.069075e+002, 5.954724e+001
2.073896e+002, 5.903209e+001
2.078717e+002, 5.948240e+001
2.083539e+002, 5.991668e+001
2.088360e+002, 5.997845e+001
2.093181e+002, 5.974519e+001
2.098002e+002, 5.951678e+001
2.102823e+002, 5.959093e+001
2.107644e+002, 6.003482e+001
2.112466e+002, 6.017154e+001
2.117287e+002, 5.971175e+001
2.122108e+002, 5.924672e+001
2.126929e+002, 5.898249e+001
2.131750e+002, 5.892332e+001
2.136571e+002, 5.899333e+001
2.141393e+002, 5.914886e+001
2.146214e+002, 5.943035e+001
2.151035e+002, 5.948817e+001
2.155856e+002, 5.930910e+001
2.160677e+002, 5.897842e+001
2.165498e+002, 5.844204e+001
2.170320e+002, 5.775847e+001
2.175141e+002, 5.711578e+001
2.179962e+002, 5.670271e+001
2.184783e+002, 5.655779e+001
2.189604e+002, 5.630902e+001
2.194425e+002, 5.579920e+001
2.199247e+002, 5.532314e+001
2.204068e+002, 5.508643e+001
2.208889e+002, 5.508115e+001
2.213710e+002, 5.514007e+001
2.218531e+002, 5.513466e+001
2.223352e+002, 5.505616e+001
2.228174e+002, 5.493650e+001
2.232995e+002, 5.477381e+001
2.237816e+002, 5.457234e+001
2.242637e+002, 5.428604e+001
2.247458e+002, 5.392300e+001
2.252279e+002, 5.363256e+001
2.257100e+002, 5.354797e+001
2.261922e+002, 5.366200e+001
2.266743e+002, 5.381466e+001
2.271564e+002, 5.408886e+001
2.276385e+002, 5.434078e+001
2.281206e+002, 5.440804e+001
2.286027e+002, 5.427868e+001
2.290849e+002, 5.411776e+001
2.295670e+002, 5.401748e+001
2.300491e+002, 5.398029e+001
2.305312e+002, 5.401161e+001
2.310133e+002, 5.420478e+001
2.314954e+002, 5.441665e+001
2.319776e+002, 5.442664e+001
2.324597e+002, 5.419280e+001
2.329418e+002, 5.405134e+001
2.334239e+002, 5.427298e+001
2.339060e+002, 5.472118e+001
2.343881e+002, 5.524116e+001
2.348703e+002, 5.600825e+001
2.353524e+002, 5.664905e+001
2.358345e+002, 5.647599e+001
2.363166e+002, 5.524056e+001
2.367987e+002, 5.422145e+001
2.372808e+002, 5.424879e+001
2.377630e+002, 5.480697e+001
2.382451e+002, 5.541547e+001
2.387272e+002, 5.599291e+001
2.392093e+002, 5.646255e+001
2.396914e+002, 5.668844e+001
2.401735e+002, 5.663683e+001
2.406557e+002, 5.644381e+001
2.411378e+002, 5.592330e+001
2.416199e+002, 5.539253e+001
2.421020e+002, 5.518913e+001
2.425841e+002, 5.546204e+001
2.430662e+002, 5.600257e+001
2.435484e+002, 5.649562e+001
2.440305e+002, 5.698149e+001
2.445126e+002, 5.729745e+001
2.449947e+002, 5.733876e+001
2.454768e+002, 5.723901e+001
2.459589e+002, 5.707766e+001
2.464410e+002, 5.687615e+001
2.469232e+002, 5.668087e+001
2.474053e+002, 5.659398e+001
2.478874e+002, 5.670725e+001
2.483695e+002, 5.670352e+001
2.488516e+002, 5.659494e+001
2.493337e+002, 5.632910e+001
2.498159e+002, 5.575907e+001
2.502980e+002, 5.485541e+001
2.507801e+002, 5.390147e+001
2.512622e+002, 5.340083e+001
2.517443e+002, 5.360088e+001
2.522264e+002, 5.371192e+001
2.527086e+002, 5.370838e+001
2.531907e+002, 5.357767e+001
2.536728e+002, 5.325217e+001
2.541549e+002, 5.273663e+001
2.546370e+002, 5.216984e+001
2.551191e+002, 5.176597e+001
2.556013e+002, 5.160518e+001
2.560834e+002, 5.144715e+001
2.565655e+002, 5.123558e+001
2.570476e+002, 5.105924e+001
2.575297e+002, 5.100165e+001
2.580118e+002, 5.106503e+001
2.584940e+002, 5.116307e+001
2.589761e+002, 5.118564e+001
2.594582e+002, 5.113301e+001
2.599403e+002, 5.099083e+001
2.604224e+002, 5.066283e+001
2.609045e+002, 5.033693e+001
2.613867e+002, 5.017833e+001
2.618688e+002, 5.017439e+001
2.623509e+002, 5.014997e+001
2.628330e+002, 4.988836e+001
2.633151e+002, 4.929258e+001
2.637972e+002, 4.880867e+001
2.642794e+002, 4.845258e+001
2.647615e+002, 4.817097e+001
2.652436e+002, 4.793577e+001
2.657257e+002, 4.774705e+001
2.662078e+002, 4.762870e+001
2.666899e+002, 4.761810e+001
2.671721e+002, 4.774632e+001
2.676542e+002, 4.777735e+001
2.681363e+002, 4.769566e+001
2.686184e+002, 4.755428e+001
2.691005e+002, 4.734919e+001
2.695826e+002, 4.710023e+001
2.700648e+002, 4.684524e+001
2.705469e+002, 4.659910e+001
2.710290e+002, 4.635801e+001
2.715111e+002, 4.631329e+001
2.719932e+002, 4.672484e+001
2.724753e+002, 4.703556e+001
2.729575e+002, 4.687939e+001
2.734396e+002, 4.640544e+001
2.739217e+002, 4.607013e+001
2.744038e+002, 4.622044e+001
2.748859e+002, 4.679235e+001
2.753680e+002, 4.697623e+001
2.758501e+002, 4.634324e+001
2.763322e+002, 4.588096e+001
2.768144e+002, 4.609098e+001
2.772965e+002, 4.672665e+001
2.777786e+002, 4.721095e+001
2.782607e+002, 4.721272e+001
2.787428e+002, 4.685314e+001
2.792249e+002, 4.664793e+001
2.797071e+002, 4.656664e+001
2.801892e+002, 4.663371e+001
2.806713e+002, 4.698467e+001
2.811534e+002, 4.747374e+001
2.816355e+002, 4.782046e+001
2.821176e+002, 4.788667e+001
2.825998e+002, 4.780025e+001
2.830819e+002, 4.789191e+001
2.835640e+002, 4.822616e+001
2.840461e+002, 4.858147e+001
2.845282e+002, 4.901055e+001
2.850103e+002, 4.940963e+001
2.854925e+002, 4.956501e+001
2.859746e+002, 4.937947e+001
2.864567e+002, 4.910150e+001
2.869388e+002, 4.916565e+001
2.874209e+002, 4.963652e+001
2.879030e+002, 5.018207e+001
2.883852e+002, 5.092706e+001
2.888673e+002, 5.164903e+001
2.893494e+002, 5.203073e+001
2.898315e+002, 5.199266e+001
2.903136e+002, 5.177971e+001
2.907957e+002, 5.166227e+001
2.912779e+002, 5.164728e+001
2.917600e+002, 5.169152e+001
2.922421e+002, 5.186012e+001
2.927242e+002, 5.204725e+001
2.932063e+002, 5.214576e+001
2.936884e+002, 5.214273e+001
2.941706e+002, 5.210200e+001
2.946527e+002, 5.210042e+001
2.951348e+002, 5.213100e+001
2.956169e+002, 5.202824e+001
2.960990e+002, 5.157977e+001
2.965811e+002, 5.114547e+001
2.970633e+002, 5.106596e+001
2.975454e+002, 5.132515e+001
2.980275e+002, 5.158529e+001
2.985096e+002, 5.159878e+001
2.989917e+002, 5.140420e+001
2.994738e+002, 5.130706e+001
2.999560e+002, 5.142974e+001
3.004381e+002, 5.153746e+001
3.009202e+002, 5.141456e+001
3.014023e+002, 5.112653e+001
3.018844e+002, 5.099742e+001
3.023665e+002, 5.126222e+001
3.028487e+002, 5.175446e+001
3.033308e+002, 5.196072e+001
3.038129e+002, 5.171330e+001
3.042950e+002, 5.148478e+001
3.047771e+002, 5.153784e+001
3.052592e+002, 5.177405e+001
3.057414e+002, 5.196048e+001
3.062235e+002, 5.203666e+001
3.067056e+002, 5.197077e+001
3.071877e+002, 5.162708e+001
3.076698e+002, 5.090222e+001
3.081519e+002, 5.034808e+001
3.086341e+002, 5.033426e+001
3.091162e+002, 5.056849e+001
3.095983e+002, 5.051772e+001
3.100804e+002, 5.001443e+001
3.105625e+002, 4.934973e+001
3.110446e+002, 4.890631e+001
3.115268e+002, 4.868237e+001
3.120089e+002, 4.847834e+001
3.124910e+002, 4.825374e+001
3.129731e+002, 4.803020e+001
3.134552e+002, 4.781746e+001
3.139373e+002, 4.761567e+001
3.144195e+002, 4.747147e+001
3.149016e+002, 4.748074e+001
3.153837e+002, 4.762218e+001
3.158658e+002, 4.759942e+001
3.163479e+002, 4.720280e+001
3.168300e+002, 4.676460e+001
3.173121e+002, 4.656982e+001
3.177943e+002, 4.661646e+001
3.182764e+002, 4.673003e+001
3.187585e+002, 4.681124e+001
3.192406e+002, 4.686484e+001
3.197227e+002, 4.692338e+001
3.202048e+002, 4.700855e+001
3.206870e+002, 4.707795e+001
3.211691e+002, 4.709668e+001
3.216512e+002, 4.707741e+001
3.221333e+002, 4.706178e+001
3.226154e+002, 4.706376e+001
3.230975e+002, 4.708837e+001
3.235797e+002, 4.715381e+001
3.240618e+002, 4.729072e+001
3.245439e+002, 4.739723e+001
3.250260e+002, 4.744435e+001
3.255081e+002, 4.743618e+001
3.259902e+002, 4.733924e+001
3.264724e+002, 4.711107e+001
3.269545e+002, 4.691112e+001
3.274366e+002, 4.704637e+001
3.279187e+002, 4.757932e+001
3.284008e+002, 4.800809e+001
3.288829e+002, 4.819278e+001
3.293651e+002, 4.824666e+001
3.298472e+002, 4.829274e+001
3.303293e+002, 4.835209e+001
3.308114e+002, 4.839519e+001
3.312935e+002, 4.837701e+001
3.317756e+002, 4.829176e+001
3.322578e+002, 4.827604e+001
3.327399e+002, 4.829882e+001
3.332220e+002, 4.841856e+001
3.337041e+002, 4.878086e+001
3.341862e+002, 4.933712e+001
3.346683e+002, 4.976838e+001
3.351505e+002, 4.982087e+001
3.356326e+002, 4.954990e+001
3.361147e+002, 4.940829e+001
3.365968e+002, 4.947001e+001
3.370789e+002, 4.956466e+001
3.375610e+002, 4.963631e+001
3.380432e+002, 4.968708e+001
3.385253e+002, 4.972608e+001
3.390074e+002, 4.975956e+001
3.394895e+002, 4.978039e+001
3.399716e+002, 4.977869e+001
3.404537e+002, 4.987147e+001
3.409359e+002, 4.974641e+001
3.414180e+002, 4.911976e+001
3.419001e+002, 4.832268e+001
3.423822e+002, 4.780763e+001
3.428643e+002, 4.770558e+001
3.433464e+002, 4.779388e+001
3.438286e+002, 4.777546e+001
3.443107e+002, 4.760920e+001
3.447928e+002, 4.743589e+001
3.452749e+002, 4.725607e+001
3.457570e+002, 4.707050e+001
3.462391e+002, 4.687263e+001
3.467213e+002, 4.666672e+001
3.472034e+002, 4.647144e+001
3.476855e+002, 4.631102e+001
3.481676e+002, 4.618798e+001
3.486497e+002, 4.602479e+001
3.491318e+002, 4.577757e+001
3.496140e+002, 4.554176e+001
3.500961e+002, 4.538015e+001
3.505782e+002, 4.526458e+001
3.510603e+002, 4.510240e+001
3.515424e+002, 4.482477e+001
3.520245e+002, 4.449471e+001
3.525067e+002, 4.438921e+001
3.529888e+002, 4.477658e+001
3.534709e+002, 4.505498e+001
3.539530e+002, 4.509974e+001
3.544351e+002, 4.501839e+001
3.549172e+002, 4.493054e+001
3.553994e+002, 4.487856e+001
3.558815e+002, 4.483787e+001
3.563636e+002, 4.476011e+001
3.568457e+002, 4.457728e+001
3.573278e+002, 4.450447e+001
3.578099e+002, 4.453657e+001
3.582920e+002, 4.466964e+001
3.587741e+002, 4.500587e+001
3.592563e+002, 4.548802e+001
3.597384e+002, 4.585382e+001
3.602205e+002, 4.581714e+001
3.607026e+002, 4.531604e+001
3.611847e+002, 4.501257e+001
3.616668e+002, 4.486292e+001
3.621490e+002, 4.493887e+001
3.626311e+002, 4.545173e+001
3.631132e+002, 4.619716e+001
3.635953e+002, 4.678773e+001
3.640774e+002, 4.697755e+001
3.645595e+002, 4.687050e+001
3.650417e+002, 4.690607e+001
3.655238e+002, 4.713417e+001
3.660059e+002, 4.745488e+001
3.664880e+002, 4.798215e+001
3.669701e+002, 4.852636e+001
3.674522e+002, 4.883924e+001
3.679344e+002, 4.885955e+001
3.684165e+002, 4.883582e+001
3.688986e+002, 4.919907e+001
3.693807e+002, 5.015906e+001
3.698628e+002, 5.093319e+001
3.703449e+002, 5.137761e+001
3.708271e+002, 5.174426e+001
3.713092e+002, 5.215406e+001
3.717913e+002, 5.261328e+001
3.722734e+002, 5.307270e+001
3.727555e+002, 5.345488e+001
3.732376e+002, 5.376656e+001
3.737198e+002, 5.427315e+001
3.742019e+002, 5.512260e+001
3.746840e+002, 5.600039e+001
3.751661e+002, 5.684404e+001
3.756482e+002, 5.763841e+001
3.761303e+002, 5.834125e+001
3.766125e+002, 5.891426e+001
3.770946e+002, 5.943901e+001
3.775767e+002, 6.009031e+001
3.780588e+002, 6.087074e+001
3.785409e+002, 6.177480e+001
3.790230e+002, 6.287544e+001
3.795052e+002, 6.405247e+001
3.799873e+002, 6.523643e+001
3.804694e+002, 6.641205e+001
3.809515e+002, 6.755834e+001
3.814336e+002, 6.863236e+001
3.819157e+002, 6.963769e+001
3.823979e+002, 7.066887e+001
3.828800e+002, 7.180355e+001
3.833621e+002, 7.288203e+001
3.838442e+002, 7.388748e+001
3.843263e+002, 7.477572e+001
3.848084e+002, 7.542045e+001
3.852906e+002, 7.568049e+001
3.857727e+002, 7.565483e+001
3.862548e+002, 7.563506e+001
3.867369e+002, 7.572167e+001
3.872190e+002, 7.544810e+001
3.877011e+002, 7.436987e+001
3.881833e+002, 7.279446e+001
3.886654e+002, 7.107867e+001
3.891475e+002, 6.918803e+001
3.896296e+002, 6.735459e+001
3.901117e+002, 6.588427e+001
3.905938e+002, 6.471213e+001
3.910760e+002, 6.333752e+001
3.915581e+002, 6.146552e+001
3.920402e+002, 5.948713e+001
3.925223e+002, 5.792729e+001
3.930044e+002, 5.678870e+001
3.934865e+002, 5.582458e+001
3.939687e+002, 5.502080e+001
3.944508e+002, 5.430864e+001
3.949329e+002, 5.355856e+001
3.954150e+002, 5.273368e+001
3.958971e+002, 5.200277e+001
3.963792e+002, 5.154314e+001
3.968614e+002, 5.133861e+001
3.973435e+002, 5.109566e+001
3.978256e+002, 5.071032e+001
3.983077e+002, 5.035995e+001
3.987898e+002, 5.019751e+001
3.992719e+002, 5.017785e+001
3.997540e+002, 5.012126e+001
4.002361e+002, 4.992221e+001
4.007183e+002, 4.965313e+001
4.012004e+002, 4.953637e+001
4.016825e+002, 4.965057e+001
4.021646e+002, 4.975135e+001
4.026467e+002, 4.976147e+001
4.031288e+002, 4.975260e+001
4.036110e+002, 4.982476e+001
4.040931e+002, 4.999541e+001
4.045752e+002, 5.017904e+001
4.050573e+002, 5.027365e+001
4.055394e+002, 5.025824e+001
4.060215e+002, 5.025004e+001
4.065037e+002, 5.032891e+001
4.069858e+002, 5.034005e+001
4.074679e+002, 5.009333e+001
4.079500e+002, 4.971038e+001
4.084321e+002, 4.951044e+001
4.089142e+002, 4.971122e+001
4.093964e+002, 5.020418e+001
4.098785e+002, 5.048894e+001
4.103606e+002, 5.036559e+001
4.108427e+002, 5.027892e+001
4.113248e+002, 5.027237e+001
4.118069e+002, 5.031390e+001
4.122891e+002, 5.036557e+001
4.127712e+002, 5.041974e+001
4.132533e+002, 5.050495e+001
4.137354e+002, 5.068413e+001
4.142175e+002, 5.101394e+001
4.146996e+002, 5.121125e+001
4.151818e+002, 5.126920e+001
4.156639e+002, 5.119390e+001
4.161460e+002, 5.084358e+001
4.166281e+002, 5.035279e+001
4.171102e+002, 5.004009e+001
4.175923e+002, 5.015983e+001
4.180745e+002, 5.055589e+001
4.185566e+002, 5.069482e+001
4.190387e+002, 5.051987e+001
4.195208e+002, 5.020351e+001
4.200029e+002, 4.972404e+001
4.204850e+002, 4.917943e+001
4.209672e+002, 4.869479e+001
4.214493e+002, 4.830609e+001
4.219314e+002, 4.783258e+001
4.224135e+002, 4.698806e+001
4.228956e+002, 4.580134e+001
4.233777e+002, 4.485412e+001
4.238599e+002, 4.434346e+001
4.243420e+002, 4.394560e+001
4.248241e+002, 4.340983e+001
4.253062e+002, 4.276863e+001
4.257883e+002, 4.213380e+001
4.262704e+002, 4.154305e+001
4.267526e+002, 4.098863e+001
4.272347e+002, 4.044751e+001
4.277168e+002, 3.991244e+001
4.281989e+002, 3.945829e+001
4.286810e+002, 3.912417e+001
4.291631e+002, 3.890861e+001
4.296453e+002, 3.878794e+001
4.301274e+002, 3.880760e+001
4.306095e+002, 3.881841e+001
4.310916e+002, 3.872639e+001
4.315737e+002, 3.857662e+001
4.320558e+002, 3.846698e+001
4.325380e+002, 3.842699e+001
4.330201e+002, 3.839523e+001
4.335022e+002, 3.830622e+001
4.339843e+002, 3.815440e+001
4.344664e+002, 3.795541e+001
4.349485e+002, 3.758263e+001
4.354307e+002, 3.727028e+001
4.359128e+002, 3.720755e+001
4.363949e+002, 3.734988e+001
4.368770e+002, 3.752223e+001
4.373591e+002, 3.762133e+001
4.378412e+002, 3.767695e+001
4.383234e+002, 3.780168e+001
4.388055e+002, 3.823794e+001
4.392876e+002, 3.842945e+001
4.397697e+002, 3.803104e+001
4.402518e+002, 3.754602e+001
4.407339e+002, 3.754230e+001
4.412160e+002, 3.808255e+001
4.416982e+002, 3.869791e+001
4.421803e+002, 3.881720e+001
4.426624e+002, 3.833833e+001
4.431445e+002, 3.811410e+001
4.436266e+002, 3.831657e+001
4.441087e+002, 3.860099e+001
4.445909e+002, 3.896587e+001
4.450730e+002, 3.932196e+001
4.455551e+002, 3.953355e+001
4.460372e+002, 3.951864e+001
4.465193e+002, 3.937366e+001
4.470014e+002, 3.929910e+001
4.474836e+002, 3.929158e+001
4.479657e+002, 3.936599e+001
4.484478e+002, 3.956271e+001
4.489299e+002, 3.981683e+001
4.494120e+002, 4.013813e+001
4.498941e+002, 4.050416e+001
4.503763e+002, 4.079958e+001
4.508584e+002, 4.091737e+001
4.513405e+002, 4.088767e+001
4.518226e+002, 4.082708e+001
4.523047e+002, 4.072803e+001
4.527868e+002, 4.062262e+001
4.532690e+002, 4.056139e+001
4.537511e+002, 4.049757e+001
4.542332e+002, 4.034897e+001
4.547153e+002, 4.006217e+001
4.551974e+002, 3.975885e+001
4.556795e+002, 3.951115e+001
4.561617e+002, 3.932518e+001
4.566438e+002, 3.926270e+001
4.571259e+002, 3.940955e+001
4.576080e+002, 3.953920e+001
4.580901e+002, 3.929609e+001
4.585722e+002, 3.868797e+001
4.590544e+002, 3.813151e+001
4.595365e+002, 3.766074e+001
4.600186e+002, 3.730200e+001
4.605007e+002, 3.711277e+001
4.609828e+002, 3.707235e+001
4.614649e+002, 3.707305e+001
4.619471e+002, 3.705122e+001
4.624292e+002, 3.701786e+001
4.629113e+002, 3.701890e+001
4.633934e+002, 3.702331e+001
4.638755e+002, 3.709928e+001
4.643576e+002, 3.741399e+001
4.648398e+002, 3.771841e+001
4.653219e+002, 3.767971e+001
4.658040e+002, 3.727403e+001
4.662861e+002, 3.683412e+001
4.667682e+002, 3.673571e+001
4.672503e+002, 3.702002e+001
4.677325e+002, 3.724213e+001
4.682146e+002, 3.747643e+001
4.686967e+002, 3.756385e+001
4.691788e+002, 3.725420e+001
4.696609e+002, 3.682459e+001
4.701430e+002, 3.673230e+001
4.706252e+002, 3.719135e+001
4.711073e+002, 3.786104e+001
4.715894e+002, 3.810589e+001
4.720715e+002, 3.780952e+001
4.725536e+002, 3.760041e+001
4.730357e+002, 3.762652e+001
4.735179e+002, 3.771685e+001
4.740000e+002, 3.779489e+001
4.744821e+002, 3.785470e+001
4.749642e+002, 3.790185e+001
4.754463e+002, 3.790424e+001
4.759284e+002, 3.790833e+001
4.764106e+002, 3.808785e+001
4.768927e+002, 3.850145e+001
4.773748e+002, 3.870015e+001
4.778569e+002, 3.827499e+001
4.783390e+002, 3.761499e+001
4.788211e+002, 3.736616e+001
4.793033e+002, 3.766401e+001
4.797854e+002, 3.796703e+001
4.802675e+002, 3.797062e+001
4.807496e+002, 3.780503e+001
4.812317e+002, 3.771522e+001
4.817138e+002, 3.774678e+001
4.821959e+002, 3.778349e+001
4.826780e+002, 3.771930e+001
4.831602e+002, 3.755378e+001
4.836423e+002, 3.740238e+001
4.841244e+002, 3.719178e+001
4.846065e+002, 3.707277e+001
4.850886e+002, 3.720412e+001
4.855707e+002, 3.744799e+001
4.860529e+002, 3.751632e+001
4.865350e+002, 3.730469e+001
4.870171e+002, 3.704785e+001
4.874992e+002, 3.716124e+001
4.879813e+002, 3.788852e+001
4.884634e+002, 3.831689e+001
4.889456e+002, 3.824271e+001
4.894277e+002, 3.811668e+001
4.899098e+002, 3.817475e+001
4.903919e+002, 3.835808e+001
4.908740e+002, 3.847797e+001
4.913561e+002, 3.840763e+001
4.918383e+002, 3.823697e+001
4.923204e+002, 3.822674e+001
4.928025e+002, 3.844484e+001
4.932846e+002, 3.863570e+001
4.937667e+002, 3.869833e+001
4.942488e+002, 3.874974e+001
4.947310e+002, 3.887586e+001
4.952131e+002, 3.907606e+001
4.956952e+002, 3.928006e+001
4.961773e+002, 3.941042e+001
4.966594e+002, 3.950877e+001
4.971415e+002, 3.974425e+001
4.976237e+002, 4.018224e+001
4.981058e+002, 4.044871e+001
4.985879e+002, 4.015060e+001
4.990700e+002, 3.962099e+001
4.995521e+002, 3.952224e+001
5.000342e+002, 4.004921e+001
5.005164e+002, 4.060867e+001
5.009985e+002, 4.096918e+001
5.014806e+002, 4.115009e+001
5.019627e+002, 4.113446e+001
5.024448e+002, 4.091543e+001
5.029269e+002, 4.069209e+001
5.034091e+002, 4.065565e+001
5.038912e+002, 4.081446e+001
5.043733e+002, 4.097265e+001
5.048554e+002, 4.115606e+001
5.053375e+002, 4.131052e+001
5.058196e+002, 4.141817e+001
5.063018e+002, 4.148438e+001
5.067839e+002, 4.154132e+001
5.072660e+002, 4.159580e+001
5.077481e+002, 4.157245e+001
5.082302e+002, 4.133339e+001
5.087123e+002, 4.079531e+001
5.091945e+002, 4.034203e+001
5.096766e+002, 3.993955e+001
5.101587e+002, 3.965805e+001
5.106408e+002, 3.957074e+001
5.111229e+002, 3.961861e+001
5.116050e+002, 3.971270e+001
5.120872e+002, 3.982844e+001
5.125693e+002, 3.990411e+001
5.130514e+002, 3.978863e+001
5.135335e+002, 3.944556e+001
5.140156e+002, 3.917887e+001
5.144977e+002, 3.897544e+001
5.149799e+002, 3.896242e+001
5.154620e+002, 3.934989e+001
5.159441e+002, 4.006256e+001
5.164262e+002, 4.060804e+001
5.169083e+002, 4.065383e+001
5.173904e+002, 4.049453e+001
5.178726e+002, 4.049407e+001
5.183547e+002, 4.065022e+001
5.188368e+002, 4.084002e+001
5.193189e+002, 4.100361e+001
5.198010e+002, 4.116874e+001
5.202831e+002, 4.140815e+001
5.207653e+002, 4.175894e+001
5.212474e+002, 4.206287e+001
5.217295e+002, 4.222696e+001
5.222116e+002, 4.237870e+001
5.226937e+002, 4.264382e+001
5.231758e+002, 4.301347e+001
5.236580e+002, 4.339150e+001
5.241401e+002, 4.370738e+001
5.246222e+002, 4.397192e+001
5.251043e+002, 4.424608e+001
5.255864e+002, 4.448165e+001
5.260685e+002, 4.479925e+001
5.265507e+002, 4.531494e+001
5.270328e+002, 4.584065e+001
5.275149e+002, 4.622600e+001
5.279970e+002, 4.645401e+001
5.284791e+002, 4.659253e+001
5.289612e+002, 4.665623e+001
5.294434e+002, 4.667466e+001
5.299255e+002, 4.685595e+001
5.304076e+002, 4.728628e+001
5.308897e+002, 4.767839e+001
5.313718e+002, 4.784166e+001
5.318539e+002, 4.793537e+001
5.323361e+002, 4.814602e+001
5.328182e+002, 4.852210e+001
5.333003e+002, 4.886419e+001
5.337824e+002, 4.895636e+001
5.342645e+002, 4.893892e+001
5.347466e+002, 4.914751e+001
5.352288e+002, 4.963878e+001
5.357109e+002, 5.017766e+001
5.361930e+002, 5.063732e+001
5.366751e+002, 5.099134e+001
5.371572e+002, 5.111808e+001
5.376393e+002, 5.069908e+001
5.381215e+002, 5.046249e+001
5.386036e+002, 5.073229e+001
5.390857e+002, 5.124284e+001
5.395678e+002, 5.169816e+001
5.400499e+002, 5.202201e+001
5.405320e+002, 5.225359e+001
5.410142e+002, 5.242350e+001
5.414963e+002, 5.252968e+001
5.419784e+002, 5.264032e+001
5.424604e+002, 5.279262e+001
5.429426e+002, 5.290155e+001
5.434247e+002, 5.281734e+001
5.439068e+002, 5.274450e+001
5.443889e+002, 5.297710e+001
5.448710e+002, 5.357627e+001
5.453531e+002, 5.420824e+001
5.458353e+002, 5.444373e+001
5.463174e+002, 5.432733e+001
5.467995e+002, 5.441656e+001
5.472816e+002, 5.486929e+001
5.477637e+002, 5.525434e+001
5.482458e+002, 5.524639e+001
5.487280e+002, 5.500356e+001
5.492101e+002, 5.473200e+001
5.496922e+002, 5.437677e+001
5.501743e+002, 5.418881e+001
5.506564e+002, 5.450439e+001
5.511385e+002, 5.506890e+001
5.516207e+002, 5.533881e+001
5.521028e+002, 5.519814e+001
5.525849e+002, 5.487820e+001
5.530670e+002, 5.457352e+001
5.535491e+002, 5.428345e+001
5.540313e+002, 5.400990e+001
5.545134e+002, 5.376208e+001
5.549955e+002, 5.351767e+001
5.554776e+002, 5.323623e+001
5.559597e+002, 5.296880e+001
5.564418e+002, 5.283437e+001
5.569240e+002, 5.283743e+001
5.574061e+002, 5.279081e+001
5.578882e+002, 5.247115e+001
5.583703e+002, 5.187345e+001
5.588524e+002, 5.119157e+001
5.593345e+002, 5.030921e+001
5.598167e+002, 4.952015e+001
5.602988e+002, 4.889097e+001
5.607809e+002, 4.840902e+001
5.612630e+002, 4.807262e+001
5.617451e+002, 4.788963e+001
5.622272e+002, 4.777586e+001
5.627094e+002, 4.775242e+001
5.631915e+002, 4.774506e+001
5.636736e+002, 4.744973e+001
5.641557e+002, 4.677480e+001
5.646378e+002, 4.609929e+001
5.651199e+002, 4.572014e+001
5.656021e+002, 4.556608e+001
5.660842e+002, 4.528671e+001
5.665663e+002, 4.471792e+001
5.670484e+002, 4.425877e+001
5.675305e+002, 4.412308e+001
5.680126e+002, 4.413560e+001
5.684948e+002, 4.411258e+001
5.689769e+002, 4.400566e+001
5.694590e+002, 4.378200e+001
5.699411e+002, 4.338280e+001
5.704232e+002, 4.282618e+001
5.709053e+002, 4.249020e+001
5.713875e+002, 4.256847e+001
5.718696e+002, 4.261438e+001
5.723517e+002, 4.254973e+001
5.728338e+002, 4.242953e+001
5.733159e+002, 4.230551e+001
5.737980e+002, 4.218554e+001
5.742802e+002, 4.204667e+001
5.747623e+002, 4.187307e+001
5.752444e+002, 4.166436e+001
5.757265e+002, 4.138438e+001
5.762086e+002, 4.098860e+001
5.766907e+002, 4.072154e+001
5.771729e+002, 4.085040e+001
5.776550e+002, 4.108973e+001
5.781371e+002, 4.092672e+001
5.786192e+002, 4.022854e+001
5.791013e+002, 3.969316e+001
5.795834e+002, 3.974818e+001
5.800656e+002, 4.000631e+001
5.805477e+002, 4.001405e+001
5.810298e+002, 3.976171e+001
5.815119e+002, 3.948420e+001
5.819940e+002, 3.932570e+001
5.824761e+002, 3.925916e+001
5.829583e+002, 3.919297e+001
5.834404e+002, 3.914906e+001
5.839225e+002, 3.906907e+001
5.844046e+002, 3.892046e+001
5.848867e+002, 3.876348e+001
5.853688e+002, 3.863861e+001
5.858510e+002, 3.854165e+001
5.863331e+002, 3.844469e+001
5.868152e+002, 3.832825e+001
5.872973e+002, 3.820481e+001
5.877794e+002, 3.812012e+001
5.882615e+002, 3.808881e+001
5.887437e+002, 3.798647e+001
5.892258e+002, 3.772192e+001
5.897079e+002, 3.744331e+001
5.901900e+002, 3.730024e+001
5.906721e+002, 3.727325e+001
5.911542e+002, 3.724009e+001
5.916364e+002, 3.720350e+001
5.921185e+002, 3.711340e+001
5.926006e+002, 3.687215e+001
5.930827e+002, 3.653945e+001
5.935648e+002, 3.627592e+001
5.940469e+002, 3.613706e+001
5.945291e+002, 3.612733e+001
5.950112e+002, 3.627789e+001
5.954933e+002, 3.665838e+001
5.959754e+002, 3.688113e+001
5.964575e+002, 3.685706e+001
5.969396e+002, 3.680006e+001
5.974218e+002, 3.679433e+001
5.979039e+002, 3.679960e+001
5.983860e+002, 3.672968e+001
5.988681e+002, 3.655921e+001
5.993502e+002, 3.639439e+001
5.998323e+002, 3.638278e+001
6.003145e+002, 3.651770e+001
6.007966e+002, 3.662508e+001
6.012787e+002, 3.671360e+001
6.017608e+002, 3.673904e+001
6.022429e+002, 3.662901e+001
6.027250e+002, 3.645208e+001
6.032072e+002, 3.629586e+001
6.036893e+002, 3.614045e+001
6.041714e+002, 3.609311e+001
6.046535e+002, 3.636191e+001
6.051356e+002, 3.670402e+001
6.056177e+002, 3.670390e+001
6.060999e+002, 3.634516e+001
6.065820e+002, 3.598154e+001
6.070641e+002, 3.587177e+001
6.075462e+002, 3.595782e+001
6.080283e+002, 3.597671e+001
6.085104e+002, 3.589193e+001
6.089926e+002, 3.578749e+001
6.094747e+002, 3.561293e+001
6.099568e+002, 3.546430e+001
6.104389e+002, 3.548665e+001
6.109210e+002, 3.560910e+001
6.114031e+002, 3.557344e+001
6.118853e+002, 3.515908e+001
6.123674e+002, 3.458271e+001
6.128495e+002, 3.436961e+001
6.133316e+002, 3.456786e+001
6.138137e+002, 3.451003e+001
6.142958e+002, 3.384332e+001
6.147780e+002, 3.311909e+001
6.152601e+002, 3.300134e+001
6.157422e+002, 3.337141e+001
6.162243e+002, 3.350848e+001
6.167064e+002, 3.304675e+001
6.171885e+002, 3.252696e+001
6.176707e+002, 3.223666e+001
6.181528e+002, 3.215009e+001
6.186349e+002, 3.228025e+001
6.191170e+002, 3.261662e+001
6.195991e+002, 3.289290e+001
6.200812e+002, 3.275436e+001
6.205634e+002, 3.215504e+001
6.210455e+002, 3.183409e+001
6.215276e+002, 3.204026e+001
6.220097e+002, 3.223054e+001
6.224918e+002, 3.228971e+001
6.229739e+002, 3.228092e+001
6.234561e+002, 3.225825e+001
6.239382e+002, 3.223693e+001
6.244203e+002, 3.223174e+001
6.249023e+002, 3.227111e+001
6.253845e+002, 3.233356e+001
6.258666e+002, 3.235017e+001
6.263487e+002, 3.231417e+001
6.268308e+002, 3.229428e+001
6.273129e+002, 3.230372e+001
6.277950e+002, 3.236453e+001
6.282772e+002, 3.256376e+001
6.287593e+002, 3.296045e+001
6.292414e+002, 3.319804e+001
6.297235e+002, 3.306816e+001
6.302056e+002, 3.290299e+001
6.306877e+002, 3.289356e+001
6.311699e+002, 3.304108e+001
6.316520e+002, 3.333789e+001
6.321341e+002, 3.377979e+001
6.326162e+002, 3.424563e+001
6.330983e+002, 3.452965e+001
6.335804e+002, 3.461296e+001
6.340626e+002, 3.459802e+001
6.345447e+002, 3.426998e+001
6.350268e+002, 3.413676e+001
6.355089e+002, 3.457340e+001
6.359910e+002, 3.527357e+001
6.364731e+002, 3.575652e+001
6.369553e+002, 3.587191e+001
6.374374e+002, 3.592707e+001
6.379195e+002, 3.614213e+001
6.384016e+002, 3.644501e+001
6.388837e+002, 3.669737e+001
6.393658e+002, 3.688406e+001
6.398480e+002, 3.707344e+001
6.403301e+002, 3.730211e+001
6.408122e+002, 3.757432e+001
6.412943e+002, 3.790987e+001
6.417764e+002, 3.843729e+001
6.422585e+002, 3.883219e+001
6.427407e+002, 3.902295e+001
6.432228e+002, 3.914486e+001
6.437049e+002, 3.924682e+001
6.441870e+002, 3.935498e+001
6.446691e+002, 3.952063e+001
6.451512e+002, 3.978448e+001
6.456334e+002, 4.004881e+001
6.461155e+002, 4.008978e+001
6.465976e+002, 3.991095e+001
6.470797e+002, 3.995771e+001
6.475618e+002, 4.037591e+001
6.480439e+002, 4.085836e+001
6.485261e+002, 4.114799e+001
6.490082e+002, 4.131547e+001
6.494903e+002, 4.157819e+001
6.499724e+002, 4.204443e+001
6.504545e+002, 4.246516e+001
6.509366e+002, 4.271688e+001
6.514188e+002, 4.288328e+001
6.519009e+002, 4.301448e+001
6.523830e+002, 4.314661e+001
6.528651e+002, 4.337703e+001
6.533472e+002, 4.378254e+001
6.538293e+002, 4.433060e+001
6.543115e+002, 4.492391e+001
6.547936e+002, 4.562303e+001
6.552757e+002, 4.621521e+001
6.557578e+002, 4.645992e+001
6.562399e+002, 4.677417e+001
6.567220e+002, 4.747629e+001
6.572042e+002, 4.844972e+001
6.576863e+002, 4.929926e+001
6.581684e+002, 4.978900e+001
6.586505e+002, 5.024646e+001
6.591326e+002, 5.101659e+001
6.596147e+002, 5.199944e+001
6.600969e+002, 5.291530e+001
6.605790e+002, 5.369995e+001
6.610611e+002, 5.448312e+001
6.615432e+002, 5.537629e+001
6.620253e+002, 5.637624e+001
6.625074e+002, 5.742625e+001
6.629896e+002, 5.857642e+001
6.634717e+002, 5.971111e+001
6.639538e+002, 6.076451e+001
6.644359e+002, 6.184763e+001
6.649180e+002, 6.306860e+001
6.654001e+002, 6.440964e+001
6.658823e+002, 6.575649e+001
6.663644e+002, 6.702330e+001
6.668465e+002, 6.829813e+001
6.673286e+002, 6.969157e+001
6.678107e+002, 7.120984e+001
6.682928e+002, 7.314561e+001
6.687750e+002, 7.570564e+001
6.692571e+002, 7.832619e+001
6.697392e+002, 8.033174e+001
6.702213e+002, 8.183104e+001
6.707034e+002, 8.382690e+001
6.711855e+002, 8.687669e+001
6.716677e+002, 8.975398e+001
6.721498e+002, 9.185783e+001
6.726319e+002, 9.369418e+001
6.731140e+002, 9.595232e+001
6.735961e+002, 9.860335e+001
6.740782e+002, 1.010445e+002
6.745604e+002, 1.028723e+002
6.750425e+002, 1.040786e+002
6.755246e+002, 1.046529e+002
6.760067e+002, 1.045949e+002
6.764888e+002, 1.038997e+002
6.769709e+002, 1.024437e+002
6.774531e+002, 1.004504e+002
6.779352e+002, 9.803649e+001
6.784173e+002, 9.526466e+001
6.788994e+002, 9.235664e+001
6.793815e+002, 8.935986e+001
6.798636e+002, 8.624354e+001
6.803458e+002, 8.284200e+001
6.808279e+002, 7.936925e+001
6.813100e+002, 7.611900e+001
6.817921e+002, 7.315781e+001
6.822742e+002, 7.035491e+001
6.827563e+002, 6.756461e+001
6.832385e+002, 6.489645e+001
6.837206e+002, 6.293200e+001
6.842027e+002, 6.210962e+001
6.846848e+002, 6.103882e+001
6.851669e+002, 5.918749e+001
6.856490e+002, 5.735463e+001
6.861312e+002, 5.606126e+001
6.866133e+002, 5.517786e+001
6.870954e+002, 5.424174e+001
6.875775e+002, 5.305012e+001
6.880596e+002, 5.181245e+001
6.885417e+002, 5.069111e+001
6.890239e+002, 4.967344e+001
6.895060e+002, 4.871142e+001
6.899881e+002, 4.779475e+001
6.904702e+002, 4.706981e+001
6.909523e+002, 4.670215e+001
6.914344e+002, 4.657610e+001
6.919166e+002, 4.608074e+001
6.923987e+002, 4.475002e+001
6.928808e+002, 4.379786e+001
6.933629e+002, 4.350522e+001
6.938450e+002, 4.337955e+001
6.943271e+002, 4.322157e+001
6.948093e+002, 4.297461e+001
6.952914e+002, 4.255972e+001
6.957735e+002, 4.189674e+001
6.962556e+002, 4.119767e+001
6.967377e+002, 4.071889e+001
6.972198e+002, 4.040184e+001
6.977020e+002, 4.003288e+001
6.981841e+002, 3.958133e+001
6.986662e+002, 3.908124e+001
6.991483e+002, 3.850827e+001
6.996304e+002, 3.793499e+001
7.001125e+002, 3.765057e+001
7.005947e+002, 3.795607e+001
7.010768e+002, 3.809450e+001
7.015589e+002, 3.798850e+001
7.020410e+002, 3.777711e+001
7.025231e+002, 3.749942e+001
7.030052e+002, 3.719153e+001
7.034874e+002, 3.689533e+001
7.039695e+002, 3.662850e+001
7.044516e+002, 3.639912e+001
7.049337e+002, 3.624620e+001
7.054158e+002, 3.614871e+001
7.058979e+002, 3.597760e+001
7.063801e+002, 3.570257e+001
7.068622e+002, 3.549500e+001
7.073442e+002, 3.549229e+001
7.078264e+002, 3.559489e+001
7.083085e+002, 3.554167e+001
7.087906e+002, 3.526388e+001
7.092727e+002, 3.501436e+001
7.097548e+002, 3.481240e+001
7.102369e+002, 3.463825e+001
7.107191e+002, 3.445375e+001
7.112012e+002, 3.429612e+001
7.116833e+002, 3.424700e+001
7.121654e+002, 3.433350e+001
7.126475e+002, 3.446342e+001
7.131296e+002, 3.451603e+001
7.136118e+002, 3.451424e+001
7.140939e+002, 3.460797e+001
7.145760e+002, 3.482265e+001
7.150581e+002, 3.499303e+001
7.155402e+002, 3.502734e+001
7.160223e+002, 3.499249e+001
7.165045e+002, 3.502612e+001
7.169866e+002, 3.516796e+001
7.174687e+002, 3.514177e+001
7.179508e+002, 3.470805e+001
7.184329e+002, 3.433215e+001
7.189150e+002, 3.436377e+001
7.193972e+002, 3.455023e+001
7.198793e+002, 3.444257e+001
7.203614e+002, 3.396614e+001
7.208435e+002, 3.355088e+001
7.213256e+002, 3.369234e+001
7.218077e+002, 3.421895e+001
7.222899e+002, 3.438091e+001
7.227720e+002, 3.410838e+001
7.232541e+002, 3.410580e+001
7.237362e+002, 3.479286e+001
7.242183e+002, 3.554256e+001
7.247004e+002, 3.553227e+001
7.251826e+002, 3.477938e+001
7.256647e+002, 3.423452e+001
7.261468e+002, 3.401070e+001
7.266289e+002, 3.392482e+001
7.271110e+002, 3.397602e+001
7.275931e+002, 3.409154e+001
7.280753e+002, 3.420435e+001
7.285574e+002, 3.429949e+001
7.290395e+002, 3.438707e+001
7.295216e+002, 3.447996e+001
7.300037e+002, 3.456005e+001
7.304858e+002, 3.454522e+001
7.309680e+002, 3.442743e+001
7.314501e+002, 3.448749e+001
7.319322e+002, 3.486869e+001
7.324143e+002, 3.522644e+001
7.328964e+002, 3.522890e+001
7.333785e+002, 3.495721e+001
7.338607e+002, 3.485649e+001
7.343428e+002, 3.494702e+001
7.348249e+002, 3.517419e+001
7.353070e+002, 3.575889e+001
7.357891e+002, 3.629096e+001
7.362712e+002, 3.631464e+001
7.367534e+002, 3.598749e+001
7.372355e+002, 3.580788e+001
7.377176e+002, 3.602428e+001
7.381997e+002, 3.646968e+001
7.386818e+002, 3.700438e+001
7.391639e+002, 3.759223e+001
7.396461e+002, 3.782373e+001
7.401282e+002, 3.757857e+001
7.406103e+002, 3.737843e+001
7.410924e+002, 3.753041e+001
7.415745e+002, 3.789931e+001
7.420566e+002, 3.819010e+001
7.425388e+002, 3.837703e+001
7.430209e+002, 3.858398e+001
7.435030e+002, 3.886532e+001
7.439851e+002, 3.912289e+001
7.444672e+002, 3.926424e+001
7.449493e+002, 3.936328e+001
7.454315e+002, 3.949911e+001
7.459136e+002, 3.970703e+001
7.463957e+002, 4.006686e+001
7.468778e+002, 4.082924e+001
7.473599e+002, 4.177299e+001
7.478420e+002, 4.209937e+001
7.483242e+002, 4.179007e+001
7.488063e+002, 4.168195e+001
7.492884e+002, 4.214144e+001
7.497705e+002, 4.268797e+001
7.502526e+002, 4.272795e+001
7.507347e+002, 4.222380e+001
7.512169e+002, 4.189370e+001
7.516990e+002, 4.197414e+001
7.521811e+002, 4.190742e+001
7.526632e+002, 4.152722e+001
7.531453e+002, 4.097959e+001
7.536274e+002, 4.033760e+001
7.541096e+002, 3.965349e+001
7.545917e+002, 3.900127e+001
7.550738e+002, 3.837357e+001
7.555559e+002, 3.789704e+001
7.560380e+002, 3.791697e+001
7.565201e+002, 3.827369e+001
7.570023e+002, 3.819854e+001
7.574844e+002, 3.754195e+001
7.579665e+002, 3.685303e+001
7.584486e+002, 3.651601e+001
7.589307e+002, 3.644164e+001
7.594128e+002, 3.632659e+001
7.598950e+002, 3.609357e+001
7.603771e+002, 3.596181e+001
7.608592e+002, 3.603230e+001
7.613413e+002, 3.609078e+001
7.618234e+002, 3.604775e+001
7.623055e+002, 3.592148e+001
7.627877e+002, 3.571519e+001
7.632698e+002, 3.542366e+001
7.637519e+002, 3.520983e+001
7.642340e+002, 3.530840e+001
7.647161e+002, 3.550153e+001
7.651982e+002, 3.540532e+001
7.656804e+002, 3.505761e+001
7.661625e+002, 3.474518e+001
7.666446e+002, 3.457686e+001
7.671267e+002, 3.448243e+001
7.676088e+002, 3.435122e+001
7.680909e+002, 3.417192e+001
7.685731e+002, 3.426006e+001
7.690552e+002, 3.495171e+001
7.695373e+002, 3.535804e+001
7.700194e+002, 3.505475e+001
7.705015e+002, 3.458948e+001
7.709836e+002, 3.433437e+001
7.714658e+002, 3.430079e+001
7.719479e+002, 3.439593e+001
7.724300e+002, 3.467762e+001
7.729121e+002, 3.495732e+001
7.733942e+002, 3.509947e+001
7.738763e+002, 3.515593e+001
7.743585e+002, 3.519191e+001
7.748406e+002, 3.522448e+001
7.753227e+002, 3.526093e+001
7.758048e+002, 3.530232e+001
7.762869e+002, 3.537080e+001
7.767690e+002, 3.552311e+001
7.772512e+002, 3.576912e+001
7.777333e+002, 3.604263e+001
7.782154e+002, 3.637008e+001
7.786975e+002, 3.667104e+001
7.791796e+002, 3.694453e+001
7.796617e+002, 3.714281e+001
7.801439e+002, 3.713939e+001
7.806260e+002, 3.685878e+001
7.811081e+002, 3.673749e+001
7.815902e+002, 3.696327e+001
7.820723e+002, 3.729704e+001
7.825544e+002, 3.760298e+001
7.830366e+002, 3.790483e+001
7.835187e+002, 3.830500e+001
7.840008e+002, 3.880383e+001
7.844829e+002, 3.920040e+001
7.849650e+002, 3.923766e+001
7.854471e+002, 3.907605e+001
7.859293e+002, 3.926184e+001
7.864114e+002, 3.980176e+001
7.868935e+002, 4.017371e+001
7.873756e+002, 4.023954e+001
7.878577e+002, 4.012561e+001
7.883398e+002, 3.990539e+001
7.888220e+002, 3.959729e+001
7.893040e+002, 3.936465e+001
7.897861e+002, 3.924791e+001
7.902682e+002, 3.914402e+001
7.907504e+002, 3.912888e+001
7.912325e+002, 3.904754e+001
7.917146e+002, 3.868868e+001
7.921967e+002, 3.820704e+001
7.926788e+002, 3.796264e+001
7.931609e+002, 3.811191e+001
7.936431e+002, 3.827868e+001
7.941252e+002, 3.810093e+001
7.946073e+002, 3.772924e+001
7.950894e+002, 3.745845e+001
7.955715e+002, 3.728141e+001
7.960536e+002, 3.699342e+001
7.965358e+002, 3.649133e+001
7.970179e+002, 3.603048e+001
7.975000e+002, 3.599736e+001
7.979821e+002, 3.641701e+001
7.984642e+002, 3.664521e+001
7.989464e+002, 3.659769e+001
7.994285e+002, 3.651270e+001
7.999106e+002, 3.645348e+001
8.003927e+002, 3.637262e+001
8.008748e+002, 3.621949e+001
8.013569e+002, 3.600839e+001
8.018391e+002, 3.581521e+001
8.023212e+002, 3.569075e+001
8.028033e+002, 3.554373e+001
8.032854e+002, 3.524862e+001
8.037675e+002, 3.495640e+001
8.042496e+002, 3.482139e+001
8.047318e+002, 3.486340e+001
8.052139e+002, 3.510982e+001
8.056960e+002, 3.558937e+001
8.061781e+002, 3.608279e+001
8.066602e+002, 3.621752e+001
8.071423e+002, 3.601710e+001
8.076245e+002, 3.574812e+001
8.081066e+002, 3.536990e+001
8.085887e+002, 3.520730e+001
8.090708e+002, 3.549554e+001
8.095529e+002, 3.594992e+001
8.100350e+002, 3.614713e+001
8.105172e+002, 3.604623e+001
8.109993e+002, 3.593434e+001
8.114814e+002, 3.584966e+001
8.119635e+002, 3.570670e+001
8.124456e+002, 3.538841e+001
8.129277e+002, 3.506923e+001
8.134099e+002, 3.495630e+001
8.138920e+002, 3.501540e+001
8.143741e+002, 3.501704e+001
8.148562e+002, 3.481067e+001
8.153383e+002, 3.458128e+001
8.158204e+002, 3.454201e+001
8.163026e+002, 3.462160e+001
8.167847e+002, 3.464821e+001
8.172668e+002, 3.461205e+001
8.177489e+002, 3.463684e+001
8.182310e+002, 3.479964e+001
8.187131e+002, 3.502565e+001
8.191953e+002, 3.518656e+001
8.196774e+002, 3.529435e+001
8.201595e+002, 3.522964e+001
8.206416e+002, 3.480812e+001
8.211237e+002, 3.456500e+001
8.216058e+002, 3.488008e+001
8.220880e+002, 3.534658e+001
8.225701e+002, 3.549444e+001
8.230522e+002, 3.533049e+001
8.235343e+002, 3.521388e+001
8.240164e+002, 3.527829e+001
8.244985e+002, 3.532821e+001
8.249807e+002, 3.524031e+001
8.254628e+002, 3.511827e+001
8.259449e+002, 3.506599e+001
8.264270e+002, 3.509623e+001
8.269091e+002, 3.519025e+001
8.273912e+002, 3.534637e+001
8.278734e+002, 3.552153e+001
8.283555e+002, 3.565363e+001
8.288376e+002, 3.575215e+001
8.293197e+002, 3.590197e+001
8.298018e+002, 3.611108e+001
8.302839e+002, 3.610682e+001
8.307661e+002, 3.569484e+001
8.312482e+002, 3.517311e+001
8.317303e+002, 3.504861e+001
8.322124e+002, 3.539002e+001
8.326945e+002, 3.563378e+001
8.331766e+002, 3.580584e+001
8.336588e+002, 3.583405e+001
8.341409e+002, 3.552161e+001
8.346230e+002, 3.521179e+001
8.351051e+002, 3.523705e+001
8.355872e+002, 3.553976e+001
8.360693e+002, 3.576307e+001
8.365515e+002, 3.576945e+001
8.370336e+002, 3.572417e+001
8.375157e+002, 3.568103e+001
8.379978e+002, 3.565884e+001
8.384799e+002, 3.571082e+001
8.389620e+002, 3.580597e+001
8.394442e+002, 3.583525e+001
8.399263e+002, 3.574694e+001
8.404084e+002, 3.562147e+001
8.408905e+002, 3.554635e+001
8.413726e+002, 3.552679e+001
8.418547e+002, 3.563208e+001
8.423369e+002, 3.587529e+001
8.428190e+002, 3.601789e+001
8.433011e+002, 3.594038e+001
8.437832e+002, 3.582815e+001
8.442653e+002, 3.591842e+001
8.447474e+002, 3.620316e+001
8.452296e+002, 3.632823e+001
8.457117e+002, 3.612547e+001
8.461938e+002, 3.600754e+001
8.466759e+002, 3.601869e+001
8.471580e+002, 3.611389e+001
8.476401e+002, 3.637533e+001
8.481223e+002, 3.667894e+001
8.486044e+002, 3.672649e+001
8.490865e+002, 3.637379e+001
8.495686e+002, 3.607226e+001
8.500507e+002, 3.615887e+001
8.505328e+002, 3.633999e+001
8.510150e+002, 3.627782e+001
8.514971e+002, 3.606842e+001
8.519792e+002, 3.600890e+001
8.524613e+002, 3.617196e+001
8.529434e+002, 3.631576e+001
8.534255e+002, 3.616937e+001
8.539077e+002, 3.585035e+001
8.543898e+002, 3.572284e+001
8.548719e+002, 3.578625e+001
8.553540e+002, 3.596124e+001
8.558361e+002, 3.626421e+001
8.563182e+002, 3.653302e+001
8.568004e+002, 3.664022e+001
8.572825e+002, 3.662421e+001
8.577646e+002, 3.660821e+001
8.582467e+002, 3.660225e+001
8.587288e+002, 3.657369e+001
8.592109e+002, 3.644767e+001
8.596931e+002, 3.638670e+001
8.601752e+002, 3.656423e+001
8.606573e+002, 3.677197e+001
8.611394e+002, 3.669720e+001
8.616215e+002, 3.632758e+001
8.621036e+002, 3.608451e+001
8.625858e+002, 3.634875e+001
8.630679e+002, 3.656551e+001
8.635500e+002, 3.608365e+001
8.640321e+002, 3.546346e+001
8.645142e+002, 3.566985e+001
8.649963e+002, 3.661365e+001
8.654785e+002, 3.735735e+001
8.659606e+002, 3.734884e+001
8.664427e+002, 3.694278e+001
8.669248e+002, 3.660044e+001
8.674069e+002, 3.632815e+001
8.678890e+002, 3.616433e+001
8.683712e+002, 3.611284e+001
8.688533e+002, 3.614310e+001
8.693354e+002, 3.626233e+001
8.698175e+002, 3.638982e+001
8.702996e+002, 3.641731e+001
8.707817e+002, 3.634423e+001
8.712639e+002, 3.624334e+001
8.717459e+002, 3.605461e+001
8.722280e+002, 3.594390e+001
8.727101e+002, 3.599215e+001
8.731923e+002, 3.607776e+001
8.736744e+002, 3.614906e+001
8.741565e+002, 3.619953e+001
8.746386e+002, 3.621455e+001
8.751207e+002, 3.617551e+001
8.756028e+002, 3.615075e+001
8.760850e+002, 3.618123e+001
8.765671e+002, 3.621808e+001
8.770492e+002, 3.621809e+001
8.775313e+002, 3.620145e+001
8.780134e+002, 3.620847e+001
8.784955e+002, 3.624618e+001
8.789777e+002, 3.628678e+001
8.794598e+002, 3.631285e+001
8.799419e+002, 3.632430e+001
8.804240e+002, 3.632912e+001
8.809061e+002, 3.631969e+001
8.813882e+002, 3.621495e+001
8.818704e+002, 3.601668e+001
8.823525e+002, 3.601075e+001
8.828346e+002, 3.641924e+001
8.833167e+002, 3.695076e+001
8.837988e+002, 3.693311e+001
8.842809e+002, 3.625280e+001
8.847631e+002, 3.589103e+001
8.852452e+002, 3.594711e+001
8.857273e+002, 3.608762e+001
8.862094e+002, 3.628718e+001
8.866915e+002, 3.642826e+001
8.871736e+002, 3.634229e+001
8.876558e+002, 3.604565e+001
8.881379e+002, 3.579971e+001
8.886200e+002, 3.553605e+001
8.891021e+002, 3.542994e+001
8.895842e+002, 3.569922e+001
8.900663e+002, 3.595820e+001
8.905485e+002, 3.591266e+001
8.910306e+002, 3.566291e+001
8.915127e+002, 3.542554e+001
8.919948e+002, 3.525694e+001
8.924769e+002, 3.514331e+001
8.929590e+002, 3.511827e+001
8.934412e+002, 3.510798e+001
8.939233e+002, 3.503876e+001
8.944054e+002, 3.492180e+001
8.948875e+002, 3.477700e+001
8.953696e+002, 3.461465e+001
8.958517e+002, 3.444232e+001
8.963339e+002, 3.425231e+001
8.968160e+002, 3.410558e+001
8.972981e+002, 3.416102e+001
8.977802e+002, 3.439533e+001
8.982623e+002, 3.458606e+001
8.987444e+002, 3.471421e+001
8.992266e+002, 3.478091e+001
8.997087e+002, 3.478533e+001
9.001908e+002, 3.472535e+001
9.006729e+002, 3.456507e+001
9.011550e+002, 3.428894e+001
9.016371e+002, 3.428195e+001
9.021193e+002, 3.476788e+001
9.026014e+002, 3.510769e+001
9.030835e+002, 3.515108e+001
9.035656e+002, 3.504159e+001
9.040477e+002, 3.478040e+001
9.045298e+002, 3.445453e+001
9.050120e+002, 3.431963e+001
9.054941e+002, 3.453457e+001
9.059762e+002, 3.456298e+001
9.064583e+002, 3.401064e+001
9.069404e+002, 3.351645e+001
9.074225e+002, 3.353748e+001
9.079047e+002, 3.381794e+001
9.083868e+002, 3.403595e+001
9.088689e+002, 3.411172e+001
9.093510e+002, 3.404258e+001
9.098331e+002, 3.373351e+001
9.103152e+002, 3.342764e+001
9.107974e+002, 3.343397e+001
9.112795e+002, 3.359432e+001
9.117616e+002, 3.355238e+001
9.122437e+002, 3.334591e+001
9.127258e+002, 3.337763e+001
9.132079e+002, 3.383898e+001
9.136901e+002, 3.435543e+001
9.141722e+002, 3.438899e+001
9.146543e+002, 3.402974e+001
9.151364e+002, 3.377479e+001
9.156185e+002, 3.362286e+001
9.161006e+002, 3.364090e+001
9.165828e+002, 3.388496e+001
9.170649e+002, 3.411329e+001
9.175470e+002, 3.410014e+001
9.180291e+002, 3.393721e+001
9.185112e+002, 3.397441e+001
9.189933e+002, 3.434808e+001
9.194755e+002, 3.457848e+001
9.199576e+002, 3.466715e+001
9.204397e+002, 3.460803e+001
9.209218e+002, 3.423951e+001
9.214039e+002, 3.382459e+001
9.218860e+002, 3.369359e+001
9.223682e+002, 3.383524e+001
9.228503e+002, 3.387604e+001
9.233324e+002, 3.371398e+001
9.238145e+002, 3.351430e+001
9.242966e+002, 3.320663e+001
9.247787e+002, 3.298236e+001
9.252609e+002, 3.306811e+001
9.257430e+002, 3.333599e+001
9.262251e+002, 3.351263e+001
9.267072e+002, 3.351703e+001
9.271893e+002, 3.346418e+001
9.276714e+002, 3.341492e+001
9.281536e+002, 3.335781e+001
9.286357e+002, 3.327729e+001
9.291178e+002, 3.318074e+001
9.295999e+002, 3.308665e+001
9.300820e+002, 3.299408e+001
9.305641e+002, 3.287715e+001
9.310463e+002, 3.271494e+001
9.315284e+002, 3.254647e+001
9.320105e+002, 3.239689e+001
9.324926e+002, 3.229348e+001
9.329747e+002, 3.240366e+001
9.334568e+002, 3.271890e+001
9.339390e+002, 3.294951e+001
9.344211e+002, 3.298459e+001
9.349032e+002, 3.293057e+001
9.353853e+002, 3.290729e+001
9.358674e+002, 3.289347e+001
9.363495e+002, 3.271757e+001
9.368317e+002, 3.228098e+001
9.373138e+002, 3.214753e+001
9.377959e+002, 3.253141e+001
9.382780e+002, 3.288488e+001
9.387601e+002, 3.287137e+001
9.392422e+002, 3.267370e+001
9.397244e+002, 3.260905e+001
9.402065e+002, 3.269054e+001
9.406886e+002, 3.282650e+001
9.411707e+002, 3.314603e+001
9.416528e+002, 3.334169e+001
9.421349e+002, 3.330237e+001
9.426171e+002, 3.316776e+001
9.430992e+002, 3.297435e+001
9.435813e+002, 3.277716e+001
9.440634e+002, 3.272297e+001
9.445455e+002, 3.290409e+001
9.450276e+002, 3.298171e+001
9.455098e+002, 3.266287e+001
9.459919e+002, 3.238548e+001
9.464740e+002, 3.255001e+001
9.469561e+002, 3.287514e+001
9.474382e+002, 3.294077e+001
9.479203e+002, 3.273165e+001
9.484025e+002, 3.255396e+001
9.488846e+002, 3.258348e+001
9.493667e+002, 3.266801e+001
9.498488e+002, 3.266524e+001
9.503309e+002, 3.262139e+001
9.508130e+002, 3.258580e+001
9.512952e+002, 3.257636e+001
9.517773e+002, 3.265724e+001
9.522594e+002, 3.283744e+001
9.527415e+002, 3.296863e+001
9.532236e+002, 3.287855e+001
9.537057e+002, 3.267666e+001
9.541878e+002, 3.264863e+001
9.546699e+002, 3.276403e+001
9.551520e+002, 3.281712e+001
9.556342e+002, 3.277927e+001
9.561163e+002, 3.273196e+001
9.565984e+002, 3.271833e+001
9.570805e+002, 3.272367e+001
9.575626e+002, 3.273168e+001
9.580447e+002, 3.274154e+001
9.585269e+002, 3.265667e+001
9.590090e+002, 3.239399e+001
9.594911e+002, 3.244722e+001
9.599732e+002, 3.310970e+001
9.604553e+002, 3.366539e+001
9.609374e+002, 3.346979e+001
9.614196e+002, 3.283358e+001
9.619017e+002, 3.265001e+001
9.623838e+002, 3.311742e+001
9.628659e+002, 3.342500e+001
9.633480e+002, 3.351808e+001
9.638301e+002, 3.352053e+001
9.643123e+002, 3.338144e+001
9.647944e+002, 3.323572e+001
9.652765e+002, 3.319006e+001
9.657586e+002, 3.323886e+001
9.662407e+002, 3.335525e+001
9.667228e+002, 3.367083e+001
9.672050e+002, 3.377925e+001
9.676871e+002, 3.329699e+001
9.681692e+002, 3.290617e+001
9.686513e+002, 3.313542e+001
9.691334e+002, 3.361540e+001
9.696155e+002, 3.385544e+001
9.700977e+002, 3.380048e+001
9.705798e+002, 3.365911e+001
9.710619e+002, 3.341378e+001
9.715440e+002, 3.328279e+001
9.720261e+002, 3.354325e+001
9.725082e+002, 3.387864e+001
9.729904e+002, 3.390155e+001
9.734725e+002, 3.372393e+001
9.739546e+002, 3.369019e+001
9.744367e+002, 3.388706e+001
9.749188e+002, 3.404334e+001
9.754009e+002, 3.385557e+001
9.758831e+002, 3.360781e+001
9.763652e+002, 3.375809e+001
9.768473e+002, 3.411309e+001
9.773294e+002, 3.422295e+001
9.778115e+002, 3.408764e+001
9.782936e+002, 3.402066e+001
9.787758e+002, 3.417063e+001
9.792579e+002, 3.439244e+001
9.797400e+002, 3.451912e+001
9.802221e+002, 3.456815e+001
9.807042e+002, 3.456588e+001
9.811863e+002, 3.452576e+001
9.816685e+002, 3.455304e+001
9.821506e+002, 3.466858e+001
9.826327e+002, 3.488497e+001
9.831148e+002, 3.523312e+001
9.835969e+002, 3.557661e+001
9.840790e+002, 3.560828e+001
9.845612e+002, 3.532486e+001
9.850433e+002, 3.528172e+001
9.855254e+002, 3.553527e+001
9.860075e+002, 3.568346e+001
9.864896e+002, 3.559388e+001
9.869717e+002, 3.545456e+001
9.874539e+002, 3.539085e+001
9.879360e+002, 3.541951e+001
9.884181e+002, 3.562046e+001
9.889002e+002, 3.610011e+001
9.893823e+002, 3.635528e+001
9.898644e+002, 3.623361e+001
9.903466e+002, 3.618489e+001
9.908287e+002, 3.641321e+001
9.913108e+002, 3.670012e+001
9.917929e+002, 3.684844e+001
9.922750e+002, 3.687324e+001
9.927571e+002, 3.686243e+001
9.932393e+002, 3.686396e+001
9.937214e+002, 3.674493e+001
9.942035e+002, 3.639169e+001
9.946856e+002, 3.605091e+001
9.951677e+002, 3.582444e+001
9.956498e+002, 3.565386e+001
9.961320e+002, 3.546833e+001
9.966141e+002, 3.527238e+001
9.970962e+002, 3.513311e+001
9.975783e+002, 3.512337e+001
9.980604e+002, 3.507093e+001
9.985425e+002, 3.490079e+001
9.990247e+002, 3.470820e+001
9.995068e+002, 3.461673e+001
9.999889e+002, 3.450756e+001
1.000471e+003, 3.411571e+001
1.000953e+003, 3.346519e+001
1.001435e+003, 3.305729e+001
1.001917e+003, 3.328807e+001
1.002399e+003, 3.352153e+001
1.002882e+003, 3.329575e+001
1.003364e+003, 3.301598e+001
1.003846e+003, 3.313297e+001
1.004328e+003, 3.347017e+001
1.004810e+003, 3.362470e+001
1.005292e+003, 3.350597e+001
1.005774e+003, 3.332492e+001
1.006256e+003, 3.314964e+001
1.006739e+003, 3.305427e+001
1.007221e+003, 3.318774e+001
1.007703e+003, 3.339538e+001
1.008185e+003, 3.339710e+001
1.008667e+003, 3.327372e+001
1.009149e+003, 3.335826e+001
1.009631e+003, 3.374841e+001
1.010113e+003, 3.413131e+001
1.010595e+003, 3.419464e+001
1.011078e+003, 3.413081e+001
1.011560e+003, 3.423923e+001
1.012042e+003, 3.444430e+001
1.012524e+003, 3.456029e+001
1.013006e+003, 3.458504e+001
1.013488e+003, 3.463405e+001
1.013970e+003, 3.475731e+001
1.014452e+003, 3.488666e+001
1.014935e+003, 3.491526e+001
1.015417e+003, 3.491732e+001
1.015899e+003, 3.514627e+001
1.016381e+003, 3.552899e+001
1.016863e+003, 3.566375e+001
1.017345e+003, 3.551963e+001
1.017827e+003, 3.548186e+001
1.018309e+003, 3.575515e+001
1.018791e+003, 3.610155e+001
1.019274e+003, 3.616475e+001
1.019756e+003, 3.602596e+001
1.020238e+003, 3.611378e+001
1.020720e+003, 3.641722e+001
1.021202e+003, 3.664575e+001
1.021684e+003, 3.674825e+001
1.022166e+003, 3.679003e+001
1.022648e+003, 3.680267e+001
1.023130e+003, 3.680688e+001
1.023613e+003, 3.684948e+001
1.024095e+003, 3.692204e+001
1.024577e+003, 3.686715e+001
1.025059e+003, 3.666562e+001
1.025541e+003, 3.649531e+001
1.026023e+003, 3.638636e+001
1.026505e+003, 3.631285e+001
1.026987e+003, 3.624558e+001
1.027469e+003, 3.623525e+001
1.027952e+003, 3.640290e+001
1.028434e+003, 3.676372e+001
1.028916e+003, 3.692205e+001
1.029398e+003, 3.679310e+001
1.029880e+003, 3.678911e+001
1.030362e+003, 3.709488e+001
1.030844e+003, 3.726693e+001
1.031326e+003, 3.691783e+001
1.031809e+003, 3.635585e+001
1.032291e+003, 3.623132e+001
1.032773e+003, 3.661496e+001
1.033255e+003, 3.684026e+001
1.033737e+003, 3.686493e+001
1.034219e+003, 3.681621e+001
1.034701e+003, 3.664120e+001
1.035183e+003, 3.651771e+001
1.035666e+003, 3.660981e+001
1.036148e+003, 3.680505e+001
1.036630e+003, 3.684967e+001
1.037112e+003, 3.669258e+001
1.037594e+003, 3.667118e+001
1.038076e+003, 3.685903e+001
1.038558e+003, 3.706508e+001
1.039040e+003, 3.729077e+001
1.039522e+003, 3.748661e+001
1.040005e+003, 3.763074e+001
1.040487e+003, 3.771881e+001
1.040969e+003, 3.773027e+001
1.041451e+003, 3.764569e+001
1.041933e+003, 3.758693e+001
1.042415e+003, 3.761265e+001
1.042897e+003, 3.758502e+001
1.043379e+003, 3.742670e+001
1.043861e+003, 3.725999e+001
1.044344e+003, 3.714816e+001
1.044826e+003, 3.708987e+001
1.045308e+003, 3.708903e+001
1.045790e+003, 3.715586e+001
1.046272e+003, 3.721099e+001
1.046754e+003, 3.720785e+001
1.047236e+003, 3.724562e+001
1.047718e+003, 3.749105e+001
1.048201e+003, 3.764571e+001
1.048683e+003, 3.739920e+001
1.049165e+003, 3.695480e+001
1.049647e+003, 3.672839e+001
1.050129e+003, 3.679362e+001
1.050611e+003, 3.674444e+001
1.051093e+003, 3.635529e+001
1.051575e+003, 3.604286e+001
1.052057e+003, 3.597085e+001
1.052540e+003, 3.597861e+001
1.053022e+003, 3.595953e+001
1.053504e+003, 3.592982e+001
1.053986e+003, 3.594576e+001
1.054468e+003, 3.601702e+001
1.054950e+003, 3.604886e+001
1.055432e+003, 3.617860e+001
1.055914e+003, 3.604534e+001
1.056396e+003, 3.512907e+001
1.056879e+003, 3.428982e+001
1.057361e+003, 3.429073e+001
1.057843e+003, 3.478038e+001
1.058325e+003, 3.512786e+001
1.058807e+003, 3.523046e+001
1.059289e+003, 3.522609e+001
1.059771e+003, 3.512081e+001
1.060253e+003, 3.496875e+001
1.060736e+003, 3.471880e+001
1.061218e+003, 3.449931e+001
1.061700e+003, 3.441452e+001
1.062182e+003, 3.442402e+001
1.062664e+003, 3.448521e+001
1.063146e+003, 3.457824e+001
1.063628e+003, 3.458533e+001
1.064110e+003, 3.443031e+001
1.064593e+003, 3.422929e+001
1.065075e+003, 3.405166e+001
1.065557e+003, 3.382470e+001
1.066039e+003, 3.336413e+001
1.066521e+003, 3.288115e+001
1.067003e+003, 3.277105e+001
1.067485e+003, 3.303735e+001
1.067967e+003, 3.319086e+001
1.068449e+003, 3.298888e+001
1.068932e+003, 3.274844e+001
1.069414e+003, 3.251617e+001
1.069896e+003, 3.239505e+001
1.070378e+003, 3.260455e+001
1.070860e+003, 3.289331e+001
1.071342e+003, 3.284679e+001
1.071824e+003, 3.247866e+001
1.072306e+003, 3.223225e+001
1.072788e+003, 3.230793e+001
1.073271e+003, 3.243932e+001
1.073753e+003, 3.252722e+001
1.074235e+003, 3.260054e+001
1.074717e+003, 3.271965e+001
1.075199e+003, 3.281257e+001
1.075681e+003, 3.278340e+001
1.076163e+003, 3.263139e+001
1.076645e+003, 3.240114e+001
1.077127e+003, 3.205392e+001
1.077610e+003, 3.180368e+001
1.078092e+003, 3.183285e+001
1.078574e+003, 3.190060e+001
1.079056e+003, 3.182141e+001
1.079538e+003, 3.170311e+001
1.080020e+003, 3.169884e+001
1.080502e+003, 3.178726e+001
1.080984e+003, 3.183310e+001
1.081467e+003, 3.178400e+001
1.081949e+003, 3.174606e+001
1.082431e+003, 3.183369e+001
1.082913e+003, 3.186924e+001
1.083395e+003, 3.161312e+001
1.083877e+003, 3.134962e+001
1.084359e+003, 3.145155e+001
1.084841e+003, 3.180464e+001
1.085323e+003, 3.204784e+001
1.085806e+003, 3.208796e+001
1.086288e+003, 3.200219e+001
1.086770e+003, 3.168589e+001
1.087252e+003, 3.142229e+001
1.087734e+003, 3.137027e+001
1.088216e+003, 3.142595e+001
1.088698e+003, 3.147512e+001
1.089180e+003, 3.155570e+001
1.089662e+003, 3.183741e+001
1.090145e+003, 3.235789e+001
1.090627e+003, 3.263706e+001
1.091109e+003, 3.238573e+001
1.091591e+003, 3.200453e+001
1.092073e+003, 3.142193e+001
1.092555e+003, 3.101055e+001
1.093037e+003, 3.123601e+001
1.093519e+003, 3.176337e+001
1.094002e+003, 3.199924e+001
1.094484e+003, 3.187661e+001
1.094966e+003, 3.180230e+001
1.095448e+003, 3.201006e+001
1.095930e+003, 3.212701e+001
1.096412e+003, 3.197631e+001
1.096894e+003, 3.175626e+001
1.097376e+003, 3.150906e+001
1.097859e+003, 3.132012e+001
1.098341e+003, 3.133594e+001
1.098823e+003, 3.152814e+001
1.099305e+003, 3.163460e+001
1.099787e+003, 3.149887e+001
1.100269e+003, 3.147692e+001
1.100751e+003, 3.179355e+001
1.101233e+003, 3.208576e+001
1.101715e+003, 3.222252e+001
1.102198e+003, 3.220979e+001
1.102680e+003, 3.197808e+001
1.103162e+003, 3.160748e+001
1.103644e+003, 3.137523e+001
1.104126e+003, 3.134619e+001
1.104608e+003, 3.137425e+001
1.105090e+003, 3.148533e+001
1.105572e+003, 3.158332e+001
1.106054e+003, 3.157728e+001
1.106537e+003, 3.159803e+001
1.107019e+003, 3.182995e+001
1.107501e+003, 3.215400e+001
1.107983e+003, 3.225368e+001
1.108465e+003, 3.205454e+001
1.108947e+003, 3.193219e+001
1.109429e+003, 3.205064e+001
1.109911e+003, 3.206066e+001
1.110394e+003, 3.169135e+001
1.110876e+003, 3.140660e+001
1.111358e+003, 3.164979e+001
1.111840e+003, 3.207876e+001
1.112322e+003, 3.207120e+001
1.112804e+003, 3.158977e+001
1.113286e+003, 3.133246e+001
1.113768e+003, 3.144516e+001
1.114250e+003, 3.154235e+001
1.114733e+003, 3.161159e+001
1.115215e+003, 3.164253e+001
1.115697e+003, 3.157804e+001
1.116179e+003, 3.152259e+001
1.116661e+003, 3.161722e+001
1.117143e+003, 3.183690e+001
1.117625e+003, 3.200081e+001
1.118107e+003, 3.214390e+001
1.118589e+003, 3.213277e+001
1.119072e+003, 3.183639e+001
1.119554e+003, 3.164635e+001
1.120036e+003, 3.168779e+001
1.120518e+003, 3.188233e+001
1.121000e+003, 3.223531e+001
1.121482e+003, 3.263906e+001
1.121964e+003, 3.275161e+001
1.122446e+003, 3.250478e+001
1.122929e+003, 3.238134e+001
1.123411e+003, 3.240585e+001
1.123893e+003, 3.247487e+001
1.124375e+003, 3.258189e+001
1.124857e+003, 3.267826e+001
1.125339e+003, 3.272174e+001
1.125821e+003, 3.276097e+001
1.126303e+003, 3.288505e+001
1.126786e+003, 3.308818e+001
1.127268e+003, 3.332829e+001
1.127750e+003, 3.365562e+001
1.128232e+003, 3.344827e+001
1.128714e+003, 3.252364e+001
1.129196e+003, 3.188908e+001
1.129678e+003, 3.204393e+001
1.130160e+003, 3.242873e+001
1.130642e+003, 3.240542e+001
1.131125e+003, 3.210069e+001
1.131607e+003, 3.194468e+001
1.132089e+003, 3.193262e+001
1.132571e+003, 3.200033e+001
1.133053e+003, 3.214095e+001
1.133535e+003, 3.225663e+001
1.134017e+003, 3.231751e+001
1.134499e+003, 3.228970e+001
1.134981e+003, 3.212789e+001
1.135464e+003, 3.196176e+001
1.135946e+003, 3.212244e+001
1.136428e+003, 3.246926e+001
1.136910e+003, 3.239697e+001
1.137392e+003, 3.198948e+001
1.137874e+003, 3.168740e+001
1.138356e+003, 3.156265e+001
1.138838e+003, 3.143977e+001
1.139321e+003, 3.122729e+001
1.139803e+003, 3.110773e+001
1.140285e+003, 3.137474e+001
1.140767e+003, 3.178571e+001
1.141249e+003, 3.190718e+001
1.141731e+003, 3.182225e+001
1.142213e+003, 3.166013e+001
1.142695e+003, 3.147113e+001
1.143177e+003, 3.136341e+001
1.143660e+003, 3.135527e+001
1.144142e+003, 3.126757e+001
1.144624e+003, 3.084102e+001
1.145106e+003, 3.060318e+001
1.145588e+003, 3.146853e+001
1.146070e+003, 3.254811e+001
1.146552e+003, 3.266948e+001
1.147034e+003, 3.216664e+001
1.147516e+003, 3.166015e+001
1.147999e+003, 3.130949e+001
1.148481e+003, 3.116014e+001
1.148963e+003, 3.126436e+001
1.149445e+003, 3.135605e+001
1.149927e+003, 3.121147e+001
1.150409e+003, 3.105749e+001
1.150891e+003, 3.109008e+001
1.151373e+003, 3.117379e+001
1.151856e+003, 3.121008e+001
1.152338e+003, 3.115512e+001
1.152820e+003, 3.090099e+001
1.153302e+003, 3.042749e+001
1.153784e+003, 3.009077e+001
1.154266e+003, 3.002751e+001
1.154748e+003, 3.009327e+001
1.155230e+003, 3.040369e+001
1.155713e+003, 3.064919e+001
1.156195e+003, 3.057055e+001
1.156677e+003, 3.035851e+001
1.157159e+003, 3.028506e+001
1.157641e+003, 3.033527e+001
1.158123e+003, 3.028264e+001
1.158605e+003, 3.004535e+001
1.159087e+003, 2.983487e+001
1.159569e+003, 2.968329e+001
1.160052e+003, 2.953134e+001
1.160534e+003, 2.927636e+001
1.161016e+003, 2.911503e+001
1.161498e+003, 2.926198e+001
1.161980e+003, 2.956606e+001
1.162462e+003, 2.969159e+001
1.162944e+003, 2.961924e+001
1.163426e+003, 2.958597e+001
1.163908e+003, 2.963329e+001
1.164391e+003, 2.958118e+001
1.164873e+003, 2.934914e+001
1.165355e+003, 2.918504e+001
1.165837e+003, 2.921233e+001
1.166319e+003, 2.935156e+001
1.166801e+003, 2.954160e+001
1.167283e+003, 2.973098e+001
1.167765e+003, 2.965733e+001
1.168247e+003, 2.930552e+001
1.168730e+003, 2.918992e+001
1.169212e+003, 2.933967e+001
1.169694e+003, 2.946455e+001
1.170176e+003, 2.948678e+001
1.170658e+003, 2.941292e+001
1.171140e+003, 2.923966e+001
1.171622e+003, 2.902546e+001
1.172104e+003, 2.884044e+001
1.172587e+003, 2.869956e+001
1.173069e+003, 2.868858e+001
1.173551e+003, 2.876454e+001
1.174033e+003, 2.872288e+001
1.174515e+003, 2.858306e+001
1.174997e+003, 2.862236e+001
1.175479e+003, 2.892470e+001
1.175961e+003, 2.914873e+001
1.176443e+003, 2.895937e+001
1.176926e+003, 2.867684e+001
1.177408e+003, 2.876106e+001
1.177890e+003, 2.896029e+001
1.178372e+003, 2.890076e+001
1.178854e+003, 2.866822e+001
1.179336e+003, 2.843669e+001
1.179818e+003, 2.826017e+001
1.180300e+003, 2.819595e+001
1.180782e+003, 2.828303e+001
1.181265e+003, 2.835514e+001
1.181747e+003, 2.835674e+001
1.182229e+003, 2.825557e+001
1.182711e+003, 2.788228e+001
1.183193e+003, 2.752915e+001
1.183675e+003, 2.748498e+001
1.184157e+003, 2.766661e+001
1.184639e+003, 2.793855e+001
1.185122e+003, 2.826436e+001
1.185604e+003, 2.843696e+001
1.186086e+003, 2.833171e+001
1.186568e+003, 2.819801e+001
1.187050e+003, 2.795912e+001
1.187532e+003, 2.784651e+001
1.188014e+003, 2.807485e+001
1.188496e+003, 2.837166e+001
1.188979e+003, 2.850397e+001
1.189461e+003, 2.850083e+001
1.189943e+003, 2.842345e+001
1.190425e+003, 2.823719e+001
1.190907e+003, 2.819180e+001
1.191389e+003, 2.835735e+001
1.191871e+003, 2.846655e+001
1.192353e+003, 2.846974e+001
1.192835e+003, 2.843212e+001
1.193318e+003, 2.838042e+001
1.193800e+003, 2.831492e+001
1.194282e+003, 2.822141e+001
1.194764e+003, 2.813261e+001
1.195246e+003, 2.820442e+001
1.195728e+003, 2.842838e+001
1.196210e+003, 2.858326e+001
1.196692e+003, 2.865895e+001
1.197174e+003, 2.868476e+001
1.197657e+003, 2.866813e+001
1.198139e+003, 2.858945e+001
1.198621e+003, 2.843025e+001
1.199103e+003, 2.829414e+001
1.199585e+003, 2.836740e+001
1.200067e+003, 2.852308e+001
1.200549e+003, 2.848811e+001
1.201031e+003, 2.834373e+001
1.201514e+003, 2.830925e+001
1.201996e+003, 2.833219e+001
1.202478e+003, 2.811045e+001
1.202960e+003, 2.762567e+001
1.203442e+003, 2.737024e+001
1.203924e+003, 2.771205e+001
1.204406e+003, 2.811652e+001
1.204888e+003, 2.818447e+001
1.205370e+003, 2.814157e+001
1.205853e+003, 2.816100e+001
1.206335e+003, 2.818861e+001
1.206817e+003, 2.809565e+001
1.207299e+003, 2.795528e+001
1.207781e+003, 2.800333e+001
1.208263e+003, 2.830156e+001
1.208745e+003, 2.849993e+001
1.209227e+003, 2.845435e+001
1.209709e+003, 2.839077e+001
1.210192e+003, 2.833065e+001
1.210674e+003, 2.829296e+001
1.211156e+003, 2.827964e+001
1.211638e+003, 2.830107e+001
1.212120e+003, 2.840470e+001
1.212602e+003, 2.854520e+001
1.213084e+003, 2.853917e+001
1.213566e+003, 2.834609e+001
1.214049e+003, 2.821248e+001
1.214531e+003, 2.815616e+001
1.215013e+003, 2.807211e+001
1.215495e+003, 2.791486e+001
1.215977e+003, 2.786658e+001
1.216459e+003, 2.803844e+001
1.216941e+003, 2.829419e+001
1.217423e+003, 2.848834e+001
1.217906e+003, 2.859832e+001
1.218388e+003, 2.845064e+001
1.218870e+003, 2.814750e+001
1.219352e+003, 2.833244e+001
1.219834e+003, 2.889837e+001
1.220316e+003, 2.909354e+001
1.220798e+003, 2.879245e+001
1.221280e+003, 2.840925e+001
1.221762e+003, 2.816184e+001
1.222245e+003, 2.801479e+001
1.222727e+003, 2.795011e+001
1.223209e+003, 2.794791e+001
1.223691e+003, 2.804025e+001
1.224173e+003, 2.813906e+001
1.224655e+003, 2.811539e+001
1.225137e+003, 2.801107e+001
1.225619e+003, 2.788716e+001
1.226101e+003, 2.778186e+001
1.226584e+003, 2.781622e+001
1.227066e+003, 2.810703e+001
1.227548e+003, 2.831770e+001
1.228030e+003, 2.824935e+001
1.228512e+003, 2.818790e+001
1.228994e+003, 2.828098e+001
1.229476e+003, 2.840017e+001
1.229958e+003, 2.847919e+001
1.230441e+003, 2.849424e+001
1.230923e+003, 2.837511e+001
1.231405e+003, 2.812953e+001
1.231887e+003, 2.804201e+001
1.232369e+003, 2.814377e+001
1.232851e+003, 2.833997e+001
1.233333e+003, 2.871541e+001
1.233815e+003, 2.883020e+001
1.234297e+003, 2.848417e+001
1.234780e+003, 2.815685e+001
1.235262e+003, 2.820523e+001
1.235744e+003, 2.843483e+001
1.236226e+003, 2.853494e+001
1.236708e+003, 2.851874e+001
1.237190e+003, 2.831700e+001
1.237672e+003, 2.804862e+001
1.238154e+003, 2.846244e+001
1.238636e+003, 2.939410e+001
1.239119e+003, 2.965350e+001
1.239601e+003, 2.898600e+001
1.240083e+003, 2.829821e+001
1.240565e+003, 2.815038e+001
1.241047e+003, 2.824243e+001
1.241529e+003, 2.842151e+001
1.242011e+003, 2.855824e+001
1.242493e+003, 2.851612e+001
1.242975e+003, 2.836547e+001
1.243458e+003, 2.810831e+001
1.243940e+003, 2.785055e+001
1.244422e+003, 2.782076e+001
1.244904e+003, 2.803408e+001
1.245386e+003, 2.817927e+001
1.245868e+003, 2.816305e+001
1.246350e+003, 2.809739e+001
1.246832e+003, 2.784494e+001
1.247315e+003, 2.776221e+001
1.247797e+003, 2.816922e+001
1.248279e+003, 2.853660e+001
1.248761e+003, 2.843309e+001
1.249243e+003, 2.810731e+001
1.249725e+003, 2.800242e+001
1.250207e+003, 2.810814e+001
1.250689e+003, 2.826638e+001
1.251172e+003, 2.849155e+001
1.251654e+003, 2.860586e+001
1.252136e+003, 2.859463e+001
1.252618e+003, 2.848344e+001
1.253100e+003, 2.828076e+001
1.253582e+003, 2.810492e+001
1.254064e+003, 2.803439e+001
1.254546e+003, 2.806933e+001
1.255028e+003, 2.827522e+001
1.255510e+003, 2.853892e+001
1.255993e+003, 2.860470e+001
1.256475e+003, 2.859269e+001
1.256957e+003, 2.878514e+001
1.257439e+003, 2.908035e+001
1.257921e+003, 2.916746e+001
1.258403e+003, 2.900825e+001
1.258885e+003, 2.881513e+001
1.259367e+003, 2.865942e+001
1.259850e+003, 2.855247e+001
1.260332e+003, 2.847110e+001
1.260814e+003, 2.847720e+001
1.261296e+003, 2.874528e+001
1.261778e+003, 2.896419e+001
1.262260e+003, 2.876018e+001
1.262742e+003, 2.843097e+001
1.263224e+003, 2.852334e+001
1.263707e+003, 2.896700e+001
1.264189e+003, 2.913791e+001
1.264671e+003, 2.893547e+001
1.265153e+003, 2.878381e+001
1.265635e+003, 2.865842e+001
1.266117e+003, 2.873285e+001
1.266599e+003, 2.907527e+001
1.267081e+003, 2.942172e+001
1.267563e+003, 2.962632e+001
1.268046e+003, 2.976620e+001
1.268528e+003, 2.996174e+001
1.269010e+003, 3.010815e+001
1.269492e+003, 2.983349e+001
1.269974e+003, 2.937299e+001
1.270456e+003, 2.941374e+001
1.270938e+003, 2.977145e+001
1.271420e+003, 2.981378e+001
1.271902e+003, 2.953666e+001
1.272385e+003, 2.942597e+001
1.272867e+003, 2.966792e+001
1.273349e+003, 2.989075e+001
1.273831e+003, 2.983441e+001
1.274313e+003, 2.975712e+001
1.274795e+003, 2.983728e+001
1.275277e+003, 2.988452e+001
1.275759e+003, 2.968955e+001
1.276242e+003, 2.945767e+001
1.276724e+003, 2.938625e+001
1.277206e+003, 2.948914e+001
1.277688e+003, 2.982373e+001
1.278170e+003, 3.046142e+001
1.278652e+003, 3.063808e+001
1.279134e+003, 3.021994e+001
1.279616e+003, 2.979714e+001
1.280099e+003, 2.939526e+001
1.280581e+003, 2.916784e+001
1.281063e+003, 2.916329e+001
1.281545e+003, 2.947659e+001
1.282027e+003, 3.025022e+001
1.282509e+003, 3.101321e+001
1.282991e+003, 3.081693e+001
1.283473e+003, 3.008905e+001
1.283955e+003, 2.975092e+001
##END=



