##NAMES=Holmquistite
##RRUFFID=R130004
##IDEAL CHEMISTRY=[box]Li_2_(Mg_3_Al_2_)Si_8_O_22_(OH)_2_
##LOCALITY=Quebec Lithium Corporation mine, La Corne, Abitibi RCM, Abitibi-Temiscamingue, Quebec, Canada
##OWNER=RRUFF
##SOURCE=Don Doell
##DESCRIPTION=Parallel aggregate of pale purple bladed crystals
##STATUS=The identification of this mineral is confirmed by single-crystal X-ray diffraction and chemical analysis.
##URL=rruff.info/R130004
##MEASURED CHEMISTRY=Na_0.06_Li_2_(Mg_1.89_Fe_1.41_Al_1.73_)Si_8_O_22_(OH)_1.90_F_0.10_
8.936163e+001, 0.000000e+000
8.984375e+001, 7.517583e+001
9.032587e+001, 7.600208e+001
9.080798e+001, 7.618384e+001
9.129010e+001, 7.554614e+001
9.177222e+001, 7.446413e+001
9.225433e+001, 7.322621e+001
9.273645e+001, 7.185427e+001
9.321857e+001, 7.064879e+001
9.370068e+001, 7.011990e+001
9.418280e+001, 7.002806e+001
9.466492e+001, 6.957467e+001
9.514703e+001, 6.816243e+001
9.562915e+001, 6.627018e+001
9.611127e+001, 6.538381e+001
9.659338e+001, 6.566073e+001
9.707550e+001, 6.618459e+001
9.755762e+001, 6.575306e+001
9.803973e+001, 6.434405e+001
9.852185e+001, 6.299116e+001
9.900397e+001, 6.212624e+001
9.948608e+001, 6.175690e+001
9.996820e+001, 6.145118e+001
1.004503e+002, 6.125138e+001
1.009324e+002, 6.105927e+001
1.014146e+002, 6.066234e+001
1.018967e+002, 6.001947e+001
1.023788e+002, 5.927941e+001
1.028609e+002, 5.850340e+001
1.033430e+002, 5.769715e+001
1.038251e+002, 5.683492e+001
1.043073e+002, 5.580676e+001
1.047894e+002, 5.470797e+001
1.052715e+002, 5.408084e+001
1.057536e+002, 5.423765e+001
1.062357e+002, 5.451597e+001
1.067178e+002, 5.445681e+001
1.072000e+002, 5.388876e+001
1.076821e+002, 5.323020e+001
1.081642e+002, 5.250957e+001
1.086463e+002, 5.172138e+001
1.091284e+002, 5.094714e+001
1.096105e+002, 5.009756e+001
1.100927e+002, 4.929955e+001
1.105748e+002, 4.867997e+001
1.110569e+002, 4.840848e+001
1.115390e+002, 4.815731e+001
1.120211e+002, 4.784725e+001
1.125032e+002, 4.744566e+001
1.129854e+002, 4.709340e+001
1.134675e+002, 4.690349e+001
1.139496e+002, 4.675823e+001
1.144317e+002, 4.648360e+001
1.149138e+002, 4.598181e+001
1.153959e+002, 4.538626e+001
1.158781e+002, 4.472834e+001
1.163602e+002, 4.390886e+001
1.168423e+002, 4.322810e+001
1.173244e+002, 4.292521e+001
1.178065e+002, 4.285381e+001
1.182886e+002, 4.264137e+001
1.187708e+002, 4.196335e+001
1.192529e+002, 4.116560e+001
1.197350e+002, 4.052954e+001
1.202171e+002, 4.021067e+001
1.206992e+002, 3.996756e+001
1.211813e+002, 3.968483e+001
1.216635e+002, 3.936063e+001
1.221456e+002, 3.898976e+001
1.226277e+002, 3.850282e+001
1.231098e+002, 3.798231e+001
1.235919e+002, 3.753875e+001
1.240740e+002, 3.728688e+001
1.245562e+002, 3.708226e+001
1.250383e+002, 3.668392e+001
1.255204e+002, 3.609180e+001
1.260025e+002, 3.566517e+001
1.264846e+002, 3.596903e+001
1.269667e+002, 3.671294e+001
1.274489e+002, 3.717086e+001
1.279310e+002, 3.693261e+001
1.284131e+002, 3.621214e+001
1.288952e+002, 3.530147e+001
1.293773e+002, 3.413875e+001
1.298594e+002, 3.311295e+001
1.303416e+002, 3.282433e+001
1.308237e+002, 3.318666e+001
1.313058e+002, 3.355233e+001
1.317879e+002, 3.361054e+001
1.322700e+002, 3.339143e+001
1.327521e+002, 3.300090e+001
1.332343e+002, 3.238371e+001
1.337164e+002, 3.170633e+001
1.341985e+002, 3.125506e+001
1.346806e+002, 3.103913e+001
1.351627e+002, 3.092697e+001
1.356448e+002, 3.090207e+001
1.361270e+002, 3.096806e+001
1.366091e+002, 3.085407e+001
1.370912e+002, 3.043933e+001
1.375733e+002, 2.986529e+001
1.380554e+002, 2.965618e+001
1.385375e+002, 2.994044e+001
1.390197e+002, 3.021384e+001
1.395018e+002, 3.001512e+001
1.399839e+002, 2.920310e+001
1.404660e+002, 2.854862e+001
1.409481e+002, 2.820809e+001
1.414302e+002, 2.816043e+001
1.419124e+002, 2.813027e+001
1.423945e+002, 2.819168e+001
1.428766e+002, 2.817033e+001
1.433587e+002, 2.784613e+001
1.438408e+002, 2.701132e+001
1.443229e+002, 2.630337e+001
1.448051e+002, 2.586540e+001
1.452872e+002, 2.571562e+001
1.457693e+002, 2.568629e+001
1.462514e+002, 2.589184e+001
1.467335e+002, 2.614598e+001
1.472156e+002, 2.619840e+001
1.476978e+002, 2.580861e+001
1.481799e+002, 2.551532e+001
1.486620e+002, 2.551224e+001
1.491441e+002, 2.602655e+001
1.496262e+002, 2.620803e+001
1.501083e+002, 2.572998e+001
1.505905e+002, 2.496978e+001
1.510726e+002, 2.458911e+001
1.515547e+002, 2.509458e+001
1.520368e+002, 2.554466e+001
1.525189e+002, 2.565394e+001
1.530010e+002, 2.525897e+001
1.534832e+002, 2.479026e+001
1.539653e+002, 2.411500e+001
1.544474e+002, 2.337462e+001
1.549295e+002, 2.290866e+001
1.554116e+002, 2.307928e+001
1.558937e+002, 2.330134e+001
1.563759e+002, 2.331394e+001
1.568580e+002, 2.303579e+001
1.573401e+002, 2.260737e+001
1.578222e+002, 2.178308e+001
1.583043e+002, 2.075039e+001
1.587864e+002, 2.020049e+001
1.592686e+002, 2.084829e+001
1.597507e+002, 2.173020e+001
1.602328e+002, 2.223132e+001
1.607149e+002, 2.199826e+001
1.611970e+002, 2.157540e+001
1.616791e+002, 2.094381e+001
1.621613e+002, 2.017883e+001
1.626434e+002, 1.972095e+001
1.631255e+002, 2.006301e+001
1.636076e+002, 2.066476e+001
1.640897e+002, 2.104496e+001
1.645718e+002, 2.080219e+001
1.650540e+002, 2.050561e+001
1.655361e+002, 2.043284e+001
1.660182e+002, 2.058108e+001
1.665003e+002, 2.080144e+001
1.669824e+002, 2.098086e+001
1.674645e+002, 2.119679e+001
1.679467e+002, 2.154114e+001
1.684288e+002, 2.231256e+001
1.689109e+002, 2.304753e+001
1.693930e+002, 2.329327e+001
1.698751e+002, 2.301241e+001
1.703572e+002, 2.284022e+001
1.708394e+002, 2.326705e+001
1.713215e+002, 2.409455e+001
1.718036e+002, 2.497795e+001
1.722857e+002, 2.568992e+001
1.727678e+002, 2.643189e+001
1.732499e+002, 2.744294e+001
1.737321e+002, 2.877423e+001
1.742142e+002, 3.016179e+001
1.746963e+002, 3.131308e+001
1.751784e+002, 3.236232e+001
1.756605e+002, 3.363322e+001
1.761426e+002, 3.543625e+001
1.766248e+002, 3.749717e+001
1.771069e+002, 3.947383e+001
1.775890e+002, 4.136074e+001
1.780711e+002, 4.308831e+001
1.785532e+002, 4.453450e+001
1.790353e+002, 4.575605e+001
1.795175e+002, 4.690014e+001
1.799996e+002, 4.796728e+001
1.804817e+002, 4.903154e+001
1.809638e+002, 5.031024e+001
1.814459e+002, 5.190381e+001
1.819280e+002, 5.352096e+001
1.824102e+002, 5.470872e+001
1.828923e+002, 5.551905e+001
1.833744e+002, 5.642444e+001
1.838565e+002, 5.756522e+001
1.843386e+002, 5.901462e+001
1.848207e+002, 6.100830e+001
1.853029e+002, 6.371553e+001
1.857850e+002, 6.675672e+001
1.862671e+002, 6.960780e+001
1.867492e+002, 7.226222e+001
1.872313e+002, 7.485172e+001
1.877134e+002, 7.728426e+001
1.881956e+002, 7.968017e+001
1.886777e+002, 8.251852e+001
1.891598e+002, 8.598120e+001
1.896419e+002, 8.984948e+001
1.901240e+002, 9.380299e+001
1.906061e+002, 9.790586e+001
1.910883e+002, 1.017836e+002
1.915704e+002, 1.051982e+002
1.920525e+002, 1.081940e+002
1.925346e+002, 1.109540e+002
1.930167e+002, 1.136321e+002
1.934988e+002, 1.159310e+002
1.939810e+002, 1.167366e+002
1.944631e+002, 1.158982e+002
1.949452e+002, 1.144677e+002
1.954273e+002, 1.128221e+002
1.959094e+002, 1.109652e+002
1.963915e+002, 1.086248e+002
1.968737e+002, 1.055871e+002
1.973558e+002, 1.021213e+002
1.978379e+002, 9.912352e+001
1.983200e+002, 9.665906e+001
1.988021e+002, 9.439463e+001
1.992842e+002, 9.202190e+001
1.997664e+002, 8.950949e+001
2.002485e+002, 8.725198e+001
2.007306e+002, 8.526978e+001
2.012127e+002, 8.358462e+001
2.016948e+002, 8.237518e+001
2.021769e+002, 8.173919e+001
2.026591e+002, 8.125201e+001
2.031412e+002, 8.050600e+001
2.036233e+002, 7.946129e+001
2.041054e+002, 7.843521e+001
2.045875e+002, 7.742067e+001
2.050696e+002, 7.645163e+001
2.055518e+002, 7.595824e+001
2.060339e+002, 7.608549e+001
2.065160e+002, 7.634604e+001
2.069981e+002, 7.618452e+001
2.074802e+002, 7.549020e+001
2.079623e+002, 7.489092e+001
2.084445e+002, 7.447770e+001
2.089266e+002, 7.425353e+001
2.094087e+002, 7.448050e+001
2.098908e+002, 7.534867e+001
2.103729e+002, 7.631791e+001
2.108550e+002, 7.675201e+001
2.113372e+002, 7.649053e+001
2.118193e+002, 7.625966e+001
2.123014e+002, 7.625900e+001
2.127835e+002, 7.648839e+001
2.132656e+002, 7.659019e+001
2.137477e+002, 7.648431e+001
2.142299e+002, 7.636321e+001
2.147120e+002, 7.648792e+001
2.151941e+002, 7.697389e+001
2.156762e+002, 7.738430e+001
2.161583e+002, 7.763166e+001
2.166404e+002, 7.771624e+001
2.171226e+002, 7.761267e+001
2.176047e+002, 7.729359e+001
2.180868e+002, 7.682092e+001
2.185689e+002, 7.623526e+001
2.190510e+002, 7.545595e+001
2.195331e+002, 7.474670e+001
2.200153e+002, 7.416191e+001
2.204974e+002, 7.370403e+001
2.209795e+002, 7.334936e+001
2.214616e+002, 7.319256e+001
2.219437e+002, 7.304004e+001
2.224258e+002, 7.258334e+001
2.229080e+002, 7.157043e+001
2.233901e+002, 7.081411e+001
2.238722e+002, 7.066012e+001
2.243543e+002, 7.122714e+001
2.248364e+002, 7.130193e+001
2.253185e+002, 7.064342e+001
2.258007e+002, 6.971789e+001
2.262828e+002, 6.908130e+001
2.267649e+002, 6.875554e+001
2.272470e+002, 6.868892e+001
2.277291e+002, 6.897242e+001
2.282112e+002, 6.970281e+001
2.286934e+002, 7.002063e+001
2.291755e+002, 6.968980e+001
2.296576e+002, 6.915357e+001
2.301397e+002, 6.902161e+001
2.306218e+002, 6.956015e+001
2.311039e+002, 7.000964e+001
2.315861e+002, 7.013481e+001
2.320682e+002, 6.987242e+001
2.325503e+002, 6.977889e+001
2.330324e+002, 7.001562e+001
2.335145e+002, 7.028947e+001
2.339966e+002, 7.017827e+001
2.344788e+002, 6.934476e+001
2.349609e+002, 6.873916e+001
2.354430e+002, 6.868517e+001
2.359251e+002, 6.929575e+001
2.364072e+002, 6.963067e+001
2.368893e+002, 6.945665e+001
2.373715e+002, 6.919807e+001
2.378536e+002, 6.945135e+001
2.383357e+002, 7.070045e+001
2.388178e+002, 7.160735e+001
2.392999e+002, 7.172484e+001
2.397820e+002, 7.091093e+001
2.402642e+002, 7.037373e+001
2.407463e+002, 7.016841e+001
2.412284e+002, 7.018921e+001
2.417105e+002, 7.031797e+001
2.421926e+002, 7.057554e+001
2.426747e+002, 7.090415e+001
2.431569e+002, 7.134428e+001
2.436390e+002, 7.194079e+001
2.441211e+002, 7.226102e+001
2.446032e+002, 7.216130e+001
2.450853e+002, 7.191695e+001
2.455674e+002, 7.185753e+001
2.460496e+002, 7.210318e+001
2.465317e+002, 7.231424e+001
2.470138e+002, 7.241553e+001
2.474959e+002, 7.240102e+001
2.479780e+002, 7.235822e+001
2.484601e+002, 7.227914e+001
2.489423e+002, 7.218270e+001
2.494244e+002, 7.207085e+001
2.499065e+002, 7.186662e+001
2.503886e+002, 7.181004e+001
2.508707e+002, 7.202431e+001
2.513528e+002, 7.252961e+001
2.518350e+002, 7.279981e+001
2.523171e+002, 7.272121e+001
2.527992e+002, 7.252895e+001
2.532813e+002, 7.247472e+001
2.537634e+002, 7.265540e+001
2.542455e+002, 7.276049e+001
2.547277e+002, 7.270592e+001
2.552098e+002, 7.248706e+001
2.556919e+002, 7.230344e+001
2.561740e+002, 7.215359e+001
2.566561e+002, 7.203767e+001
2.571382e+002, 7.193657e+001
2.576204e+002, 7.178154e+001
2.581025e+002, 7.182079e+001
2.585846e+002, 7.221122e+001
2.590667e+002, 7.292271e+001
2.595488e+002, 7.322978e+001
2.600309e+002, 7.299569e+001
2.605131e+002, 7.255145e+001
2.609952e+002, 7.221348e+001
2.614773e+002, 7.209196e+001
2.619594e+002, 7.174250e+001
2.624415e+002, 7.097124e+001
2.629236e+002, 6.984728e+001
2.634058e+002, 6.920210e+001
2.638879e+002, 6.923978e+001
2.643700e+002, 6.940008e+001
2.648521e+002, 6.917283e+001
2.653342e+002, 6.836144e+001
2.658163e+002, 6.785867e+001
2.662985e+002, 6.792516e+001
2.667806e+002, 6.842162e+001
2.672627e+002, 6.851720e+001
2.677448e+002, 6.807983e+001
2.682269e+002, 6.751488e+001
2.687090e+002, 6.712357e+001
2.691912e+002, 6.694949e+001
2.696733e+002, 6.674171e+001
2.701554e+002, 6.646150e+001
2.706375e+002, 6.612543e+001
2.711196e+002, 6.580573e+001
2.716017e+002, 6.549817e+001
2.720839e+002, 6.521774e+001
2.725660e+002, 6.495750e+001
2.730481e+002, 6.469695e+001
2.735302e+002, 6.460988e+001
2.740123e+002, 6.480344e+001
2.744944e+002, 6.512332e+001
2.749766e+002, 6.505655e+001
2.754587e+002, 6.450275e+001
2.759408e+002, 6.395807e+001
2.764229e+002, 6.376948e+001
2.769050e+002, 6.396895e+001
2.773871e+002, 6.409809e+001
2.778693e+002, 6.410397e+001
2.783514e+002, 6.404748e+001
2.788335e+002, 6.407156e+001
2.793156e+002, 6.419013e+001
2.797977e+002, 6.430918e+001
2.802798e+002, 6.432858e+001
2.807620e+002, 6.424629e+001
2.812441e+002, 6.439268e+001
2.817262e+002, 6.486734e+001
2.822083e+002, 6.542355e+001
2.826904e+002, 6.555971e+001
2.831725e+002, 6.524438e+001
2.836547e+002, 6.495397e+001
2.841368e+002, 6.494292e+001
2.846189e+002, 6.518792e+001
2.851010e+002, 6.541416e+001
2.855831e+002, 6.561180e+001
2.860652e+002, 6.580064e+001
2.865474e+002, 6.599657e+001
2.870295e+002, 6.620023e+001
2.875116e+002, 6.644515e+001
2.879937e+002, 6.682158e+001
2.884758e+002, 6.728133e+001
2.889579e+002, 6.748801e+001
2.894401e+002, 6.741240e+001
2.899222e+002, 6.725430e+001
2.904043e+002, 6.720855e+001
2.908864e+002, 6.727727e+001
2.913685e+002, 6.748739e+001
2.918506e+002, 6.799082e+001
2.923328e+002, 6.862730e+001
2.928149e+002, 6.884044e+001
2.932970e+002, 6.860401e+001
2.937791e+002, 6.828719e+001
2.942612e+002, 6.830923e+001
2.947433e+002, 6.858767e+001
2.952255e+002, 6.879385e+001
2.957076e+002, 6.878840e+001
2.961897e+002, 6.865987e+001
2.966718e+002, 6.861280e+001
2.971539e+002, 6.864357e+001
2.976360e+002, 6.859184e+001
2.981182e+002, 6.819666e+001
2.986003e+002, 6.760894e+001
2.990824e+002, 6.720436e+001
2.995645e+002, 6.713343e+001
3.000466e+002, 6.723976e+001
3.005287e+002, 6.732465e+001
3.010109e+002, 6.739114e+001
3.014930e+002, 6.746398e+001
3.019751e+002, 6.762253e+001
3.024572e+002, 6.778819e+001
3.029393e+002, 6.779189e+001
3.034214e+002, 6.750428e+001
3.039036e+002, 6.721793e+001
3.043857e+002, 6.730294e+001
3.048678e+002, 6.767654e+001
3.053499e+002, 6.803806e+001
3.058320e+002, 6.829853e+001
3.063141e+002, 6.840579e+001
3.067963e+002, 6.825069e+001
3.072784e+002, 6.774369e+001
3.077605e+002, 6.718217e+001
3.082426e+002, 6.679784e+001
3.087247e+002, 6.654716e+001
3.092068e+002, 6.632635e+001
3.096890e+002, 6.619173e+001
3.101711e+002, 6.599877e+001
3.106532e+002, 6.557478e+001
3.111353e+002, 6.485423e+001
3.116174e+002, 6.415578e+001
3.120995e+002, 6.368273e+001
3.125817e+002, 6.337305e+001
3.130638e+002, 6.311904e+001
3.135459e+002, 6.291999e+001
3.140280e+002, 6.272809e+001
3.145101e+002, 6.253436e+001
3.149922e+002, 6.234372e+001
3.154744e+002, 6.208161e+001
3.159565e+002, 6.155159e+001
3.164386e+002, 6.098665e+001
3.169207e+002, 6.065754e+001
3.174028e+002, 6.080850e+001
3.178849e+002, 6.106179e+001
3.183671e+002, 6.134919e+001
3.188492e+002, 6.165833e+001
3.193313e+002, 6.178506e+001
3.198134e+002, 6.137603e+001
3.202955e+002, 6.090462e+001
3.207776e+002, 6.075126e+001
3.212598e+002, 6.148177e+001
3.217419e+002, 6.202032e+001
3.222240e+002, 6.193575e+001
3.227061e+002, 6.137072e+001
3.231882e+002, 6.107924e+001
3.236703e+002, 6.149486e+001
3.241525e+002, 6.202311e+001
3.246346e+002, 6.233487e+001
3.251167e+002, 6.226281e+001
3.255988e+002, 6.215900e+001
3.260809e+002, 6.186262e+001
3.265630e+002, 6.153836e+001
3.270452e+002, 6.163820e+001
3.275273e+002, 6.280593e+001
3.280094e+002, 6.386884e+001
3.284915e+002, 6.437588e+001
3.289736e+002, 6.396202e+001
3.294557e+002, 6.379682e+001
3.299379e+002, 6.404733e+001
3.304200e+002, 6.449438e+001
3.309021e+002, 6.478323e+001
3.313842e+002, 6.482566e+001
3.318663e+002, 6.482341e+001
3.323484e+002, 6.475624e+001
3.328306e+002, 6.455556e+001
3.333127e+002, 6.477409e+001
3.337948e+002, 6.570730e+001
3.342769e+002, 6.679667e+001
3.347590e+002, 6.738863e+001
3.352411e+002, 6.725997e+001
3.357233e+002, 6.714190e+001
3.362054e+002, 6.717027e+001
3.366875e+002, 6.734072e+001
3.371696e+002, 6.758381e+001
3.376517e+002, 6.794069e+001
3.381339e+002, 6.829295e+001
3.386160e+002, 6.857841e+001
3.390981e+002, 6.883537e+001
3.395802e+002, 6.882582e+001
3.400623e+002, 6.844011e+001
3.405444e+002, 6.779625e+001
3.410266e+002, 6.732545e+001
3.415087e+002, 6.705028e+001
3.419908e+002, 6.680199e+001
3.424729e+002, 6.644958e+001
3.429550e+002, 6.599603e+001
3.434371e+002, 6.563886e+001
3.439193e+002, 6.544076e+001
3.444014e+002, 6.526072e+001
3.448835e+002, 6.480727e+001
3.453656e+002, 6.408272e+001
3.458477e+002, 6.336732e+001
3.463298e+002, 6.281749e+001
3.468120e+002, 6.239515e+001
3.472941e+002, 6.197189e+001
3.477762e+002, 6.154748e+001
3.482583e+002, 6.109070e+001
3.487404e+002, 6.052618e+001
3.492225e+002, 5.988352e+001
3.497047e+002, 5.928548e+001
3.501868e+002, 5.876628e+001
3.506689e+002, 5.832843e+001
3.511510e+002, 5.793146e+001
3.516331e+002, 5.758003e+001
3.521152e+002, 5.740011e+001
3.525974e+002, 5.777974e+001
3.530795e+002, 5.837095e+001
3.535616e+002, 5.847707e+001
3.540437e+002, 5.760071e+001
3.545258e+002, 5.655967e+001
3.550079e+002, 5.624437e+001
3.554901e+002, 5.652301e+001
3.559722e+002, 5.679340e+001
3.564543e+002, 5.658745e+001
3.569364e+002, 5.623208e+001
3.574185e+002, 5.606721e+001
3.579006e+002, 5.619266e+001
3.583828e+002, 5.640935e+001
3.588649e+002, 5.666868e+001
3.593470e+002, 5.692847e+001
3.598291e+002, 5.710586e+001
3.603112e+002, 5.705019e+001
3.607933e+002, 5.698684e+001
3.612755e+002, 5.706260e+001
3.617576e+002, 5.730819e+001
3.622397e+002, 5.756180e+001
3.627218e+002, 5.776765e+001
3.632039e+002, 5.794638e+001
3.636860e+002, 5.812115e+001
3.641682e+002, 5.827051e+001
3.646503e+002, 5.844468e+001
3.651324e+002, 5.861804e+001
3.656145e+002, 5.879739e+001
3.660966e+002, 5.912133e+001
3.665787e+002, 5.969029e+001
3.670609e+002, 6.036250e+001
3.675430e+002, 6.104715e+001
3.680251e+002, 6.168595e+001
3.685072e+002, 6.240425e+001
3.689893e+002, 6.327373e+001
3.694714e+002, 6.423473e+001
3.699536e+002, 6.505853e+001
3.704357e+002, 6.553194e+001
3.709178e+002, 6.609704e+001
3.713999e+002, 6.693502e+001
3.718820e+002, 6.815859e+001
3.723641e+002, 6.938306e+001
3.728463e+002, 7.060311e+001
3.733284e+002, 7.181364e+001
3.738105e+002, 7.300297e+001
3.742926e+002, 7.412052e+001
3.747747e+002, 7.533414e+001
3.752568e+002, 7.668555e+001
3.757390e+002, 7.818068e+001
3.762211e+002, 7.987520e+001
3.767032e+002, 8.185989e+001
3.771853e+002, 8.388969e+001
3.776674e+002, 8.570108e+001
3.781495e+002, 8.724669e+001
3.786317e+002, 8.909013e+001
3.791138e+002, 9.146494e+001
3.795959e+002, 9.414416e+001
3.800780e+002, 9.642294e+001
3.805601e+002, 9.824681e+001
3.810422e+002, 1.001645e+002
3.815244e+002, 1.026297e+002
3.820065e+002, 1.055627e+002
3.824886e+002, 1.083888e+002
3.829707e+002, 1.110743e+002
3.834528e+002, 1.136505e+002
3.839349e+002, 1.163188e+002
3.844171e+002, 1.190155e+002
3.848992e+002, 1.213734e+002
3.853813e+002, 1.232494e+002
3.858634e+002, 1.246984e+002
3.863455e+002, 1.259296e+002
3.868276e+002, 1.269527e+002
3.873098e+002, 1.274469e+002
3.877919e+002, 1.271018e+002
3.882740e+002, 1.260349e+002
3.887561e+002, 1.244683e+002
3.892382e+002, 1.223851e+002
3.897203e+002, 1.199085e+002
3.902025e+002, 1.170747e+002
3.906846e+002, 1.139339e+002
3.911667e+002, 1.106406e+002
3.916488e+002, 1.072153e+002
3.921309e+002, 1.037447e+002
3.926130e+002, 1.002598e+002
3.930952e+002, 9.673328e+001
3.935773e+002, 9.337509e+001
3.940594e+002, 9.028281e+001
3.945415e+002, 8.745110e+001
3.950236e+002, 8.486956e+001
3.955057e+002, 8.235476e+001
3.959879e+002, 8.024868e+001
3.964700e+002, 7.882104e+001
3.969521e+002, 7.820927e+001
3.974342e+002, 7.748373e+001
3.979163e+002, 7.625713e+001
3.983984e+002, 7.497098e+001
3.988806e+002, 7.402802e+001
3.993627e+002, 7.390742e+001
3.998448e+002, 7.360880e+001
4.003269e+002, 7.285616e+001
4.008090e+002, 7.174751e+001
4.012911e+002, 7.107124e+001
4.017733e+002, 7.114278e+001
4.022554e+002, 7.126570e+001
4.027375e+002, 7.104771e+001
4.032196e+002, 7.025993e+001
4.037017e+002, 6.970777e+001
4.041838e+002, 6.945064e+001
4.046660e+002, 6.939901e+001
4.051481e+002, 6.940606e+001
4.056302e+002, 6.948434e+001
4.061123e+002, 6.958000e+001
4.065944e+002, 6.971672e+001
4.070765e+002, 6.988394e+001
4.075587e+002, 6.979237e+001
4.080408e+002, 6.937326e+001
4.085229e+002, 6.895377e+001
4.090050e+002, 6.897422e+001
4.094871e+002, 6.939188e+001
4.099692e+002, 6.957167e+001
4.104514e+002, 6.928790e+001
4.109335e+002, 6.878535e+001
4.114156e+002, 6.859007e+001
4.118977e+002, 6.867992e+001
4.123798e+002, 6.878015e+001
4.128619e+002, 6.863553e+001
4.133441e+002, 6.838639e+001
4.138262e+002, 6.833456e+001
4.143083e+002, 6.854586e+001
4.147904e+002, 6.879625e+001
4.152725e+002, 6.887951e+001
4.157546e+002, 6.884094e+001
4.162368e+002, 6.877579e+001
4.167189e+002, 6.869872e+001
4.172010e+002, 6.863292e+001
4.176831e+002, 6.866525e+001
4.181652e+002, 6.877957e+001
4.186473e+002, 6.872697e+001
4.191295e+002, 6.826114e+001
4.196116e+002, 6.762235e+001
4.200937e+002, 6.703389e+001
4.205758e+002, 6.661246e+001
4.210579e+002, 6.614652e+001
4.215400e+002, 6.557798e+001
4.220222e+002, 6.491213e+001
4.225043e+002, 6.414539e+001
4.229864e+002, 6.322400e+001
4.234685e+002, 6.225903e+001
4.239506e+002, 6.128705e+001
4.244327e+002, 6.032982e+001
4.249149e+002, 5.931730e+001
4.253970e+002, 5.814075e+001
4.258791e+002, 5.696952e+001
4.263612e+002, 5.596490e+001
4.268433e+002, 5.525180e+001
4.273254e+002, 5.451022e+001
4.278076e+002, 5.364169e+001
4.282897e+002, 5.268193e+001
4.287718e+002, 5.193966e+001
4.292539e+002, 5.144516e+001
4.297360e+002, 5.111937e+001
4.302181e+002, 5.099920e+001
4.307003e+002, 5.115315e+001
4.311824e+002, 5.099648e+001
4.316645e+002, 5.038651e+001
4.321466e+002, 4.966148e+001
4.326287e+002, 4.951657e+001
4.331108e+002, 4.996799e+001
4.335930e+002, 5.022666e+001
4.340751e+002, 4.983720e+001
4.345572e+002, 4.904609e+001
4.350393e+002, 4.870385e+001
4.355214e+002, 4.881942e+001
4.360035e+002, 4.906313e+001
4.364857e+002, 4.913039e+001
4.369678e+002, 4.910204e+001
4.374499e+002, 4.920178e+001
4.379320e+002, 4.954990e+001
4.384141e+002, 4.989764e+001
4.388962e+002, 4.990459e+001
4.393784e+002, 4.967361e+001
4.398605e+002, 4.950725e+001
4.403426e+002, 4.948442e+001
4.408247e+002, 4.964846e+001
4.413068e+002, 5.016643e+001
4.417889e+002, 5.109178e+001
4.422711e+002, 5.179348e+001
4.427532e+002, 5.165253e+001
4.432353e+002, 5.124520e+001
4.437174e+002, 5.117011e+001
4.441995e+002, 5.194967e+001
4.446816e+002, 5.270919e+001
4.451638e+002, 5.321828e+001
4.456459e+002, 5.350560e+001
4.461280e+002, 5.373748e+001
4.466101e+002, 5.377905e+001
4.470922e+002, 5.390091e+001
4.475743e+002, 5.427185e+001
4.480565e+002, 5.511755e+001
4.485386e+002, 5.561913e+001
4.490207e+002, 5.551036e+001
4.495028e+002, 5.522223e+001
4.499849e+002, 5.534638e+001
4.504670e+002, 5.612479e+001
4.509492e+002, 5.677108e+001
4.514313e+002, 5.708284e+001
4.519134e+002, 5.710876e+001
4.523955e+002, 5.719471e+001
4.528776e+002, 5.736647e+001
4.533597e+002, 5.750684e+001
4.538419e+002, 5.753070e+001
4.543240e+002, 5.744007e+001
4.548061e+002, 5.731481e+001
4.552882e+002, 5.717084e+001
4.557703e+002, 5.697225e+001
4.562524e+002, 5.666640e+001
4.567346e+002, 5.625379e+001
4.572167e+002, 5.577298e+001
4.576988e+002, 5.520036e+001
4.581809e+002, 5.457997e+001
4.586630e+002, 5.393311e+001
4.591451e+002, 5.327179e+001
4.596273e+002, 5.270548e+001
4.601094e+002, 5.244094e+001
4.605915e+002, 5.228430e+001
4.610736e+002, 5.195673e+001
4.615557e+002, 5.129029e+001
4.620378e+002, 5.067281e+001
4.625200e+002, 5.041590e+001
4.630021e+002, 5.038210e+001
4.634842e+002, 5.030925e+001
4.639663e+002, 5.000586e+001
4.644484e+002, 4.971812e+001
4.649305e+002, 4.959387e+001
4.654127e+002, 4.965098e+001
4.658948e+002, 4.966491e+001
4.663769e+002, 4.950351e+001
4.668590e+002, 4.933556e+001
4.673411e+002, 4.928424e+001
4.678232e+002, 4.951989e+001
4.683054e+002, 4.965394e+001
4.687875e+002, 4.961061e+001
4.692696e+002, 4.946817e+001
4.697517e+002, 4.942776e+001
4.702338e+002, 4.955285e+001
4.707159e+002, 4.965968e+001
4.711981e+002, 4.965950e+001
4.716802e+002, 4.954376e+001
4.721623e+002, 4.957880e+001
4.726444e+002, 4.982996e+001
4.731265e+002, 5.005315e+001
4.736086e+002, 4.994749e+001
4.740908e+002, 4.951945e+001
4.745729e+002, 4.918058e+001
4.750550e+002, 4.902012e+001
4.755371e+002, 4.896030e+001
4.760192e+002, 4.884045e+001
4.765013e+002, 4.867424e+001
4.769835e+002, 4.857385e+001
4.774656e+002, 4.869397e+001
4.779477e+002, 4.888597e+001
4.784298e+002, 4.886307e+001
4.789119e+002, 4.860686e+001
4.793940e+002, 4.837609e+001
4.798762e+002, 4.839727e+001
4.803583e+002, 4.855956e+001
4.808404e+002, 4.871344e+001
4.813225e+002, 4.877953e+001
4.818046e+002, 4.887928e+001
4.822867e+002, 4.911127e+001
4.827689e+002, 4.942886e+001
4.832510e+002, 4.971106e+001
4.837331e+002, 4.992895e+001
4.842152e+002, 5.009632e+001
4.846973e+002, 5.021407e+001
4.851794e+002, 5.027795e+001
4.856616e+002, 5.032344e+001
4.861437e+002, 5.031520e+001
4.866258e+002, 5.031321e+001
4.871079e+002, 5.035879e+001
4.875900e+002, 5.042187e+001
4.880721e+002, 5.059356e+001
4.885543e+002, 5.092739e+001
4.890364e+002, 5.135880e+001
4.895185e+002, 5.169144e+001
4.900006e+002, 5.188992e+001
4.904827e+002, 5.209112e+001
4.909648e+002, 5.238059e+001
4.914470e+002, 5.274926e+001
4.919291e+002, 5.296856e+001
4.924112e+002, 5.301624e+001
4.928933e+002, 5.301534e+001
4.933754e+002, 5.313314e+001
4.938575e+002, 5.332429e+001
4.943397e+002, 5.335299e+001
4.948218e+002, 5.309461e+001
4.953039e+002, 5.279394e+001
4.957860e+002, 5.281304e+001
4.962681e+002, 5.308465e+001
4.967502e+002, 5.337682e+001
4.972324e+002, 5.361500e+001
4.977145e+002, 5.378800e+001
4.981966e+002, 5.392099e+001
4.986787e+002, 5.401586e+001
4.991608e+002, 5.393457e+001
4.996429e+002, 5.339373e+001
5.001251e+002, 5.275443e+001
5.006072e+002, 5.232740e+001
5.010893e+002, 5.233075e+001
5.015714e+002, 5.235267e+001
5.020535e+002, 5.234535e+001
5.025356e+002, 5.229259e+001
5.030178e+002, 5.215871e+001
5.034999e+002, 5.188452e+001
5.039820e+002, 5.158491e+001
5.044641e+002, 5.124786e+001
5.049462e+002, 5.086382e+001
5.054283e+002, 5.070815e+001
5.059105e+002, 5.093742e+001
5.063926e+002, 5.115599e+001
5.068747e+002, 5.101343e+001
5.073568e+002, 5.043726e+001
5.078389e+002, 5.001020e+001
5.083210e+002, 4.981054e+001
5.088032e+002, 4.974799e+001
5.092853e+002, 4.969749e+001
5.097674e+002, 4.965646e+001
5.102495e+002, 4.958201e+001
5.107316e+002, 4.937727e+001
5.112137e+002, 4.915975e+001
5.116959e+002, 4.923909e+001
5.121780e+002, 4.959288e+001
5.126601e+002, 4.994423e+001
5.131422e+002, 5.007643e+001
5.136243e+002, 5.009129e+001
5.141064e+002, 5.011938e+001
5.145886e+002, 5.019085e+001
5.150707e+002, 5.025019e+001
5.155528e+002, 5.016731e+001
5.160349e+002, 5.007550e+001
5.165170e+002, 5.016550e+001
5.169991e+002, 5.078088e+001
5.174813e+002, 5.130232e+001
5.179634e+002, 5.142970e+001
5.184455e+002, 5.122305e+001
5.189276e+002, 5.119664e+001
5.194097e+002, 5.161236e+001
5.198918e+002, 5.204309e+001
5.203740e+002, 5.230016e+001
5.208561e+002, 5.229934e+001
5.213382e+002, 5.240205e+001
5.218203e+002, 5.261625e+001
5.223024e+002, 5.292347e+001
5.227845e+002, 5.335459e+001
5.232667e+002, 5.395875e+001
5.237488e+002, 5.438362e+001
5.242309e+002, 5.448505e+001
5.247130e+002, 5.442800e+001
5.251951e+002, 5.462500e+001
5.256772e+002, 5.507485e+001
5.261594e+002, 5.563825e+001
5.266415e+002, 5.635944e+001
5.271236e+002, 5.712222e+001
5.276057e+002, 5.759930e+001
5.280878e+002, 5.777601e+001
5.285699e+002, 5.795708e+001
5.290521e+002, 5.852129e+001
5.295342e+002, 5.919582e+001
5.300163e+002, 5.957605e+001
5.304984e+002, 5.932979e+001
5.309805e+002, 5.918440e+001
5.314626e+002, 5.971201e+001
5.319448e+002, 6.060869e+001
5.324269e+002, 6.128283e+001
5.329090e+002, 6.138752e+001
5.333911e+002, 6.141870e+001
5.338732e+002, 6.150908e+001
5.343553e+002, 6.166354e+001
5.348375e+002, 6.191199e+001
5.353196e+002, 6.226667e+001
5.358017e+002, 6.269743e+001
5.362838e+002, 6.322539e+001
5.367659e+002, 6.399712e+001
5.372480e+002, 6.442699e+001
5.377302e+002, 6.438381e+001
5.382123e+002, 6.417050e+001
5.386944e+002, 6.428088e+001
5.391765e+002, 6.474809e+001
5.396586e+002, 6.507434e+001
5.401407e+002, 6.508082e+001
5.406229e+002, 6.489952e+001
5.411050e+002, 6.481084e+001
5.415871e+002, 6.481346e+001
5.420692e+002, 6.488602e+001
5.425513e+002, 6.506381e+001
5.430334e+002, 6.528803e+001
5.435156e+002, 6.544909e+001
5.439977e+002, 6.553673e+001
5.444798e+002, 6.566303e+001
5.449619e+002, 6.591419e+001
5.454440e+002, 6.624197e+001
5.459261e+002, 6.660432e+001
5.464083e+002, 6.710957e+001
5.468904e+002, 6.747317e+001
5.473725e+002, 6.746531e+001
5.478546e+002, 6.725143e+001
5.483367e+002, 6.718649e+001
5.488188e+002, 6.752699e+001
5.493010e+002, 6.780261e+001
5.497831e+002, 6.789380e+001
5.502652e+002, 6.780207e+001
5.507473e+002, 6.764993e+001
5.512294e+002, 6.735481e+001
5.517115e+002, 6.713929e+001
5.521937e+002, 6.715557e+001
5.526758e+002, 6.742425e+001
5.531579e+002, 6.779379e+001
5.536400e+002, 6.833231e+001
5.541221e+002, 6.877043e+001
5.546042e+002, 6.864854e+001
5.550864e+002, 6.805217e+001
5.555685e+002, 6.750479e+001
5.560506e+002, 6.715959e+001
5.565327e+002, 6.695172e+001
5.570148e+002, 6.687229e+001
5.574969e+002, 6.687504e+001
5.579791e+002, 6.678697e+001
5.584612e+002, 6.647674e+001
5.589433e+002, 6.605634e+001
5.594254e+002, 6.558126e+001
5.599075e+002, 6.505193e+001
5.603896e+002, 6.459189e+001
5.608718e+002, 6.429704e+001
5.613539e+002, 6.406761e+001
5.618360e+002, 6.383557e+001
5.623181e+002, 6.364497e+001
5.628002e+002, 6.336354e+001
5.632823e+002, 6.284964e+001
5.637645e+002, 6.230220e+001
5.642466e+002, 6.207116e+001
5.647287e+002, 6.239500e+001
5.652108e+002, 6.249020e+001
5.656929e+002, 6.208950e+001
5.661750e+002, 6.133540e+001
5.666572e+002, 6.086771e+001
5.671393e+002, 6.071741e+001
5.676214e+002, 6.064649e+001
5.681035e+002, 6.055323e+001
5.685856e+002, 6.042630e+001
5.690677e+002, 6.015746e+001
5.695499e+002, 5.972990e+001
5.700320e+002, 5.939682e+001
5.705141e+002, 5.952223e+001
5.709962e+002, 5.987312e+001
5.714783e+002, 6.006116e+001
5.719604e+002, 5.993725e+001
5.724426e+002, 5.974675e+001
5.729247e+002, 5.968066e+001
5.734068e+002, 5.965320e+001
5.738889e+002, 5.950900e+001
5.743710e+002, 5.894183e+001
5.748531e+002, 5.850915e+001
5.753353e+002, 5.850629e+001
5.758174e+002, 5.889577e+001
5.762995e+002, 5.906344e+001
5.767816e+002, 5.884052e+001
5.772637e+002, 5.857644e+001
5.777458e+002, 5.842161e+001
5.782280e+002, 5.839942e+001
5.787101e+002, 5.837609e+001
5.791922e+002, 5.836545e+001
5.796743e+002, 5.832302e+001
5.801564e+002, 5.818364e+001
5.806385e+002, 5.795372e+001
5.811207e+002, 5.773504e+001
5.816028e+002, 5.754098e+001
5.820849e+002, 5.737837e+001
5.825670e+002, 5.729475e+001
5.830491e+002, 5.725924e+001
5.835313e+002, 5.716713e+001
5.840134e+002, 5.685347e+001
5.844955e+002, 5.654478e+001
5.849776e+002, 5.647672e+001
5.854597e+002, 5.661550e+001
5.859418e+002, 5.676481e+001
5.864240e+002, 5.689919e+001
5.869061e+002, 5.696480e+001
5.873882e+002, 5.690983e+001
5.878703e+002, 5.668716e+001
5.883524e+002, 5.650737e+001
5.888345e+002, 5.649513e+001
5.893167e+002, 5.646904e+001
5.897988e+002, 5.625652e+001
5.902809e+002, 5.565923e+001
5.907630e+002, 5.533918e+001
5.912451e+002, 5.539374e+001
5.917272e+002, 5.569341e+001
5.922094e+002, 5.607685e+001
5.926915e+002, 5.655936e+001
5.931736e+002, 5.681995e+001
5.936557e+002, 5.664606e+001
5.941378e+002, 5.624864e+001
5.946199e+002, 5.619528e+001
5.951021e+002, 5.643922e+001
5.955842e+002, 5.659246e+001
5.960663e+002, 5.625892e+001
5.965484e+002, 5.577234e+001
5.970305e+002, 5.548535e+001
5.975126e+002, 5.542656e+001
5.979948e+002, 5.556192e+001
5.984769e+002, 5.609484e+001
5.989590e+002, 5.668706e+001
5.994411e+002, 5.703716e+001
5.999232e+002, 5.686878e+001
6.004053e+002, 5.681807e+001
6.008875e+002, 5.714319e+001
6.013696e+002, 5.757935e+001
6.018517e+002, 5.772448e+001
6.023338e+002, 5.730772e+001
6.028159e+002, 5.715863e+001
6.032980e+002, 5.756562e+001
6.037802e+002, 5.830629e+001
6.042623e+002, 5.851774e+001
6.047444e+002, 5.813627e+001
6.052265e+002, 5.775274e+001
6.057086e+002, 5.765891e+001
6.061907e+002, 5.780494e+001
6.066729e+002, 5.811455e+001
6.071550e+002, 5.858010e+001
6.076371e+002, 5.888507e+001
6.081192e+002, 5.861708e+001
6.086013e+002, 5.809730e+001
6.090834e+002, 5.777516e+001
6.095656e+002, 5.777858e+001
6.100477e+002, 5.773800e+001
6.105298e+002, 5.741801e+001
6.110119e+002, 5.695995e+001
6.114940e+002, 5.651802e+001
6.119761e+002, 5.609180e+001
6.124583e+002, 5.573621e+001
6.129404e+002, 5.561343e+001
6.134225e+002, 5.554639e+001
6.139046e+002, 5.507696e+001
6.143867e+002, 5.393107e+001
6.148688e+002, 5.298972e+001
6.153510e+002, 5.258989e+001
6.158331e+002, 5.261553e+001
6.163152e+002, 5.229106e+001
6.167973e+002, 5.158851e+001
6.172794e+002, 5.082043e+001
6.177615e+002, 5.019054e+001
6.182437e+002, 4.966397e+001
6.187258e+002, 4.912539e+001
6.192079e+002, 4.856219e+001
6.196900e+002, 4.802307e+001
6.201721e+002, 4.756763e+001
6.206542e+002, 4.715084e+001
6.211364e+002, 4.671113e+001
6.216185e+002, 4.619868e+001
6.221006e+002, 4.573101e+001
6.225827e+002, 4.536691e+001
6.230648e+002, 4.507268e+001
6.235469e+002, 4.480107e+001
6.240291e+002, 4.451042e+001
6.245112e+002, 4.428997e+001
6.249933e+002, 4.419967e+001
6.254754e+002, 4.418650e+001
6.259575e+002, 4.404969e+001
6.264396e+002, 4.372300e+001
6.269218e+002, 4.346355e+001
6.274039e+002, 4.335498e+001
6.278860e+002, 4.339508e+001
6.283681e+002, 4.364240e+001
6.288502e+002, 4.410720e+001
6.293323e+002, 4.450396e+001
6.298145e+002, 4.454726e+001
6.302966e+002, 4.438918e+001
6.307787e+002, 4.432571e+001
6.312608e+002, 4.438979e+001
6.317429e+002, 4.447352e+001
6.322250e+002, 4.452624e+001
6.327072e+002, 4.454177e+001
6.331893e+002, 4.449471e+001
6.336714e+002, 4.422042e+001
6.341535e+002, 4.415289e+001
6.346356e+002, 4.460582e+001
6.351177e+002, 4.527864e+001
6.355999e+002, 4.569432e+001
6.360820e+002, 4.569968e+001
6.365641e+002, 4.567706e+001
6.370462e+002, 4.566170e+001
6.375283e+002, 4.566788e+001
6.380104e+002, 4.574014e+001
6.384926e+002, 4.588001e+001
6.389747e+002, 4.608503e+001
6.394568e+002, 4.641006e+001
6.399389e+002, 4.679382e+001
6.404210e+002, 4.701347e+001
6.409031e+002, 4.707704e+001
6.413853e+002, 4.708126e+001
6.418674e+002, 4.701651e+001
6.423495e+002, 4.697314e+001
6.428316e+002, 4.708443e+001
6.433137e+002, 4.737989e+001
6.437958e+002, 4.767632e+001
6.442780e+002, 4.780861e+001
6.447601e+002, 4.794396e+001
6.452422e+002, 4.823890e+001
6.457243e+002, 4.898860e+001
6.462064e+002, 4.947033e+001
6.466885e+002, 4.950018e+001
6.471707e+002, 4.933970e+001
6.476528e+002, 4.931703e+001
6.481349e+002, 4.943363e+001
6.486170e+002, 4.969600e+001
6.490991e+002, 5.015490e+001
6.495812e+002, 5.071350e+001
6.500634e+002, 5.114446e+001
6.505455e+002, 5.146040e+001
6.510276e+002, 5.178904e+001
6.515097e+002, 5.217085e+001
6.519918e+002, 5.261732e+001
6.524739e+002, 5.319121e+001
6.529561e+002, 5.386080e+001
6.534382e+002, 5.450251e+001
6.539203e+002, 5.506736e+001
6.544024e+002, 5.555019e+001
6.548845e+002, 5.586890e+001
6.553666e+002, 5.598106e+001
6.558488e+002, 5.635226e+001
6.563309e+002, 5.724310e+001
6.568130e+002, 5.831068e+001
6.572951e+002, 5.934674e+001
6.577772e+002, 6.031972e+001
6.582593e+002, 6.133552e+001
6.587415e+002, 6.236535e+001
6.592236e+002, 6.348458e+001
6.597057e+002, 6.480575e+001
6.601878e+002, 6.631931e+001
6.606699e+002, 6.784959e+001
6.611520e+002, 6.930607e+001
6.616342e+002, 7.085174e+001
6.621163e+002, 7.276275e+001
6.625984e+002, 7.494520e+001
6.630805e+002, 7.714196e+001
6.635626e+002, 7.897859e+001
6.640447e+002, 8.107198e+001
6.645269e+002, 8.401739e+001
6.650090e+002, 8.757365e+001
6.654911e+002, 9.111445e+001
6.659732e+002, 9.436764e+001
6.664553e+002, 9.764699e+001
6.669374e+002, 1.009756e+002
6.674196e+002, 1.043884e+002
6.679017e+002, 1.081930e+002
6.683838e+002, 1.125011e+002
6.688659e+002, 1.170554e+002
6.693480e+002, 1.218232e+002
6.698301e+002, 1.268023e+002
6.703123e+002, 1.316448e+002
6.707944e+002, 1.363269e+002
6.712765e+002, 1.412024e+002
6.717586e+002, 1.468767e+002
6.722407e+002, 1.530102e+002
6.727228e+002, 1.587577e+002
6.732050e+002, 1.640425e+002
6.736871e+002, 1.690254e+002
6.741692e+002, 1.741858e+002
6.746513e+002, 1.790386e+002
6.751334e+002, 1.829538e+002
6.756155e+002, 1.855973e+002
6.760977e+002, 1.876341e+002
6.765798e+002, 1.895530e+002
6.770619e+002, 1.907741e+002
6.775440e+002, 1.903973e+002
6.780261e+002, 1.880571e+002
6.785082e+002, 1.849173e+002
6.789904e+002, 1.811747e+002
6.794725e+002, 1.767622e+002
6.799546e+002, 1.712034e+002
6.804367e+002, 1.645846e+002
6.809188e+002, 1.575873e+002
6.814009e+002, 1.503933e+002
6.818831e+002, 1.431505e+002
6.823652e+002, 1.361741e+002
6.828473e+002, 1.294487e+002
6.833294e+002, 1.232343e+002
6.838115e+002, 1.173701e+002
6.842936e+002, 1.122411e+002
6.847758e+002, 1.082710e+002
6.852579e+002, 1.055034e+002
6.857400e+002, 1.025214e+002
6.862221e+002, 9.842361e+001
6.867042e+002, 9.452299e+001
6.871863e+002, 9.150559e+001
6.876685e+002, 8.960456e+001
6.881506e+002, 8.761122e+001
6.886327e+002, 8.542344e+001
6.891148e+002, 8.328210e+001
6.895969e+002, 8.141359e+001
6.900790e+002, 7.979026e+001
6.905612e+002, 7.825791e+001
6.910433e+002, 7.682043e+001
6.915254e+002, 7.538387e+001
6.920075e+002, 7.373817e+001
6.924896e+002, 7.206824e+001
6.929717e+002, 7.077666e+001
6.934539e+002, 7.020019e+001
6.939360e+002, 6.957495e+001
6.944181e+002, 6.834787e+001
6.949002e+002, 6.682596e+001
6.953823e+002, 6.548051e+001
6.958644e+002, 6.449736e+001
6.963466e+002, 6.362347e+001
6.968287e+002, 6.282893e+001
6.973108e+002, 6.211496e+001
6.977929e+002, 6.152733e+001
6.982750e+002, 6.111199e+001
6.987571e+002, 6.065722e+001
6.992393e+002, 6.009253e+001
6.997214e+002, 5.944100e+001
7.002035e+002, 5.869195e+001
7.006856e+002, 5.787436e+001
7.011677e+002, 5.727549e+001
7.016498e+002, 5.728175e+001
7.021320e+002, 5.746126e+001
7.026141e+002, 5.735627e+001
7.030962e+002, 5.696299e+001
7.035783e+002, 5.640230e+001
7.040604e+002, 5.544709e+001
7.045425e+002, 5.456226e+001
7.050247e+002, 5.405904e+001
7.055068e+002, 5.403947e+001
7.059889e+002, 5.395763e+001
7.064710e+002, 5.383609e+001
7.069531e+002, 5.361571e+001
7.074352e+002, 5.321029e+001
7.079174e+002, 5.259107e+001
7.083995e+002, 5.212722e+001
7.088816e+002, 5.182576e+001
7.093637e+002, 5.167766e+001
7.098458e+002, 5.178373e+001
7.103279e+002, 5.202861e+001
7.108101e+002, 5.212253e+001
7.112922e+002, 5.200285e+001
7.117743e+002, 5.178035e+001
7.122564e+002, 5.149492e+001
7.127385e+002, 5.117311e+001
7.132206e+002, 5.084220e+001
7.137028e+002, 5.044160e+001
7.141849e+002, 5.013200e+001
7.146670e+002, 4.995226e+001
7.151491e+002, 4.988060e+001
7.156312e+002, 4.991476e+001
7.161133e+002, 5.012312e+001
7.165955e+002, 5.022374e+001
7.170776e+002, 5.010278e+001
7.175597e+002, 4.992548e+001
7.180418e+002, 5.011889e+001
7.185239e+002, 5.064066e+001
7.190060e+002, 5.106458e+001
7.194882e+002, 5.122211e+001
7.199703e+002, 5.119874e+001
7.204524e+002, 5.102443e+001
7.209345e+002, 5.074868e+001
7.214166e+002, 5.051375e+001
7.218987e+002, 5.033736e+001
7.223809e+002, 5.026502e+001
7.228630e+002, 5.045288e+001
7.233451e+002, 5.083693e+001
7.238272e+002, 5.085931e+001
7.243093e+002, 5.014984e+001
7.247914e+002, 4.960563e+001
7.252736e+002, 4.960542e+001
7.257557e+002, 5.010018e+001
7.262378e+002, 5.048871e+001
7.267199e+002, 5.077177e+001
7.272020e+002, 5.098411e+001
7.276841e+002, 5.114372e+001
7.281663e+002, 5.125612e+001
7.286484e+002, 5.129247e+001
7.291305e+002, 5.125844e+001
7.296126e+002, 5.129068e+001
7.300947e+002, 5.151309e+001
7.305768e+002, 5.181885e+001
7.310590e+002, 5.211534e+001
7.315411e+002, 5.237593e+001
7.320232e+002, 5.270549e+001
7.325053e+002, 5.326344e+001
7.329874e+002, 5.377840e+001
7.334695e+002, 5.408614e+001
7.339517e+002, 5.414410e+001
7.344338e+002, 5.410366e+001
7.349159e+002, 5.392210e+001
7.353980e+002, 5.376172e+001
7.358801e+002, 5.375548e+001
7.363622e+002, 5.391250e+001
7.368444e+002, 5.434160e+001
7.373265e+002, 5.512201e+001
7.378086e+002, 5.585491e+001
7.382907e+002, 5.601226e+001
7.387728e+002, 5.594874e+001
7.392549e+002, 5.613367e+001
7.397371e+002, 5.682290e+001
7.402192e+002, 5.754714e+001
7.407013e+002, 5.813396e+001
7.411834e+002, 5.870481e+001
7.416655e+002, 5.945262e+001
7.421476e+002, 6.052595e+001
7.426298e+002, 6.138704e+001
7.431119e+002, 6.191089e+001
7.435940e+002, 6.227358e+001
7.440761e+002, 6.272129e+001
7.445582e+002, 6.326360e+001
7.450403e+002, 6.407294e+001
7.455225e+002, 6.529457e+001
7.460046e+002, 6.664658e+001
7.464867e+002, 6.787436e+001
7.469688e+002, 6.896465e+001
7.474509e+002, 6.987740e+001
7.479330e+002, 7.046592e+001
7.484152e+002, 7.101034e+001
7.488973e+002, 7.167860e+001
7.493794e+002, 7.240102e+001
7.498615e+002, 7.293556e+001
7.503436e+002, 7.329911e+001
7.508257e+002, 7.346326e+001
7.513079e+002, 7.343542e+001
7.517900e+002, 7.319847e+001
7.522721e+002, 7.258250e+001
7.527542e+002, 7.158645e+001
7.532363e+002, 7.071643e+001
7.537184e+002, 7.039763e+001
7.542006e+002, 7.024450e+001
7.546827e+002, 6.966963e+001
7.551648e+002, 6.871891e+001
7.556469e+002, 6.760691e+001
7.561290e+002, 6.622529e+001
7.566111e+002, 6.489981e+001
7.570933e+002, 6.386719e+001
7.575754e+002, 6.312516e+001
7.580575e+002, 6.215331e+001
7.585396e+002, 6.071380e+001
7.590217e+002, 5.937218e+001
7.595038e+002, 5.832243e+001
7.599860e+002, 5.756079e+001
7.604681e+002, 5.696085e+001
7.609502e+002, 5.652814e+001
7.614323e+002, 5.622795e+001
7.619144e+002, 5.610920e+001
7.623965e+002, 5.608104e+001
7.628787e+002, 5.599730e+001
7.633608e+002, 5.585182e+001
7.638429e+002, 5.563362e+001
7.643250e+002, 5.525251e+001
7.648071e+002, 5.486110e+001
7.652892e+002, 5.457740e+001
7.657714e+002, 5.442241e+001
7.662535e+002, 5.425854e+001
7.667356e+002, 5.413477e+001
7.672177e+002, 5.392654e+001
7.676998e+002, 5.349741e+001
7.681819e+002, 5.281362e+001
7.686641e+002, 5.249015e+001
7.691462e+002, 5.256611e+001
7.696283e+002, 5.272484e+001
7.701104e+002, 5.273039e+001
7.705925e+002, 5.262270e+001
7.710746e+002, 5.240748e+001
7.715568e+002, 5.207621e+001
7.720389e+002, 5.192693e+001
7.725210e+002, 5.231063e+001
7.730031e+002, 5.283958e+001
7.734852e+002, 5.325198e+001
7.739673e+002, 5.356755e+001
7.744495e+002, 5.353303e+001
7.749316e+002, 5.282104e+001
7.754137e+002, 5.215309e+001
7.758958e+002, 5.217094e+001
7.763779e+002, 5.295323e+001
7.768600e+002, 5.333025e+001
7.773422e+002, 5.320674e+001
7.778243e+002, 5.303292e+001
7.783064e+002, 5.332501e+001
7.787885e+002, 5.387453e+001
7.792706e+002, 5.430419e+001
7.797527e+002, 5.455031e+001
7.802349e+002, 5.467842e+001
7.807170e+002, 5.456113e+001
7.811991e+002, 5.443892e+001
7.816812e+002, 5.453742e+001
7.821633e+002, 5.506171e+001
7.826454e+002, 5.545817e+001
7.831276e+002, 5.559541e+001
7.836097e+002, 5.576424e+001
7.840918e+002, 5.637029e+001
7.845739e+002, 5.742594e+001
7.850560e+002, 5.802638e+001
7.855381e+002, 5.803729e+001
7.860203e+002, 5.781519e+001
7.865024e+002, 5.766232e+001
7.869845e+002, 5.757262e+001
7.874666e+002, 5.754350e+001
7.879487e+002, 5.759495e+001
7.884308e+002, 5.763852e+001
7.889130e+002, 5.758350e+001
7.893951e+002, 5.752302e+001
7.898772e+002, 5.756237e+001
7.903593e+002, 5.787052e+001
7.908414e+002, 5.797478e+001
7.913235e+002, 5.781811e+001
7.918057e+002, 5.752736e+001
7.922878e+002, 5.721277e+001
7.927699e+002, 5.687835e+001
7.932520e+002, 5.667646e+001
7.937341e+002, 5.664599e+001
7.942162e+002, 5.666090e+001
7.946984e+002, 5.665277e+001
7.951805e+002, 5.657571e+001
7.956626e+002, 5.636284e+001
7.961447e+002, 5.599504e+001
7.966268e+002, 5.549371e+001
7.971089e+002, 5.453495e+001
7.975911e+002, 5.362043e+001
7.980732e+002, 5.332955e+001
7.985553e+002, 5.403017e+001
7.990374e+002, 5.450056e+001
7.995195e+002, 5.467989e+001
8.000016e+002, 5.461669e+001
8.004838e+002, 5.428747e+001
8.009659e+002, 5.374366e+001
8.014480e+002, 5.324980e+001
8.019301e+002, 5.283567e+001
8.024122e+002, 5.256853e+001
8.028943e+002, 5.257465e+001
8.033765e+002, 5.274978e+001
8.038586e+002, 5.297275e+001
8.043407e+002, 5.332487e+001
8.048228e+002, 5.351777e+001
8.053049e+002, 5.338893e+001
8.057870e+002, 5.313161e+001
8.062692e+002, 5.292183e+001
8.067513e+002, 5.276030e+001
8.072334e+002, 5.265512e+001
8.077155e+002, 5.262971e+001
8.081976e+002, 5.259711e+001
8.086797e+002, 5.238570e+001
8.091619e+002, 5.207440e+001
8.096440e+002, 5.189539e+001
8.101261e+002, 5.190625e+001
8.106082e+002, 5.202320e+001
8.110903e+002, 5.236030e+001
8.115724e+002, 5.268600e+001
8.120546e+002, 5.272985e+001
8.125367e+002, 5.209316e+001
8.130188e+002, 5.176245e+001
8.135009e+002, 5.196928e+001
8.139830e+002, 5.230718e+001
8.144651e+002, 5.229509e+001
8.149473e+002, 5.190422e+001
8.154294e+002, 5.168738e+001
8.159115e+002, 5.173096e+001
8.163936e+002, 5.180941e+001
8.168757e+002, 5.160607e+001
8.173578e+002, 5.127177e+001
8.178400e+002, 5.109163e+001
8.183221e+002, 5.118510e+001
8.188042e+002, 5.122434e+001
8.192863e+002, 5.091286e+001
8.197684e+002, 5.055094e+001
8.202505e+002, 5.044212e+001
8.207327e+002, 5.073830e+001
8.212148e+002, 5.096604e+001
8.216969e+002, 5.112480e+001
8.221790e+002, 5.121319e+001
8.226611e+002, 5.116199e+001
8.231432e+002, 5.101201e+001
8.236254e+002, 5.105700e+001
8.241075e+002, 5.134371e+001
8.245896e+002, 5.168268e+001
8.250717e+002, 5.198871e+001
8.255538e+002, 5.220403e+001
8.260359e+002, 5.221596e+001
8.265181e+002, 5.191256e+001
8.270002e+002, 5.174385e+001
8.274823e+002, 5.205104e+001
8.279644e+002, 5.233588e+001
8.284465e+002, 5.218001e+001
8.289286e+002, 5.137195e+001
8.294108e+002, 5.130053e+001
8.298929e+002, 5.213289e+001
8.303750e+002, 5.298305e+001
8.308571e+002, 5.290467e+001
8.313392e+002, 5.226435e+001
8.318214e+002, 5.180789e+001
8.323035e+002, 5.161568e+001
8.327856e+002, 5.157711e+001
8.332677e+002, 5.166742e+001
8.337498e+002, 5.185512e+001
8.342319e+002, 5.216085e+001
8.347141e+002, 5.266134e+001
8.351962e+002, 5.293805e+001
8.356783e+002, 5.296099e+001
8.361604e+002, 5.280766e+001
8.366425e+002, 5.240983e+001
8.371246e+002, 5.180492e+001
8.376068e+002, 5.161013e+001
8.380889e+002, 5.183034e+001
8.385710e+002, 5.219230e+001
8.390531e+002, 5.269214e+001
8.395352e+002, 5.309527e+001
8.400173e+002, 5.300933e+001
8.404995e+002, 5.242610e+001
8.409816e+002, 5.209975e+001
8.414637e+002, 5.253774e+001
8.419458e+002, 5.304456e+001
8.424279e+002, 5.333161e+001
8.429100e+002, 5.340094e+001
8.433922e+002, 5.333519e+001
8.438743e+002, 5.309490e+001
8.443564e+002, 5.293325e+001
8.448385e+002, 5.313311e+001
8.453206e+002, 5.348298e+001
8.458027e+002, 5.340813e+001
8.462849e+002, 5.298537e+001
8.467670e+002, 5.264672e+001
8.472491e+002, 5.259327e+001
8.477312e+002, 5.273137e+001
8.482133e+002, 5.317668e+001
8.486954e+002, 5.385207e+001
8.491776e+002, 5.407465e+001
8.496597e+002, 5.355215e+001
8.501418e+002, 5.316375e+001
8.506239e+002, 5.330830e+001
8.511060e+002, 5.374769e+001
8.515881e+002, 5.350418e+001
8.520703e+002, 5.268544e+001
8.525524e+002, 5.220074e+001
8.530345e+002, 5.277873e+001
8.535166e+002, 5.363747e+001
8.539987e+002, 5.416193e+001
8.544808e+002, 5.440261e+001
8.549630e+002, 5.448904e+001
8.554451e+002, 5.431960e+001
8.559272e+002, 5.415954e+001
8.564093e+002, 5.404741e+001
8.568914e+002, 5.398363e+001
8.573735e+002, 5.396479e+001
8.578557e+002, 5.399046e+001
8.583378e+002, 5.407737e+001
8.588199e+002, 5.426042e+001
8.593020e+002, 5.444542e+001
8.597841e+002, 5.446782e+001
8.602662e+002, 5.438913e+001
8.607484e+002, 5.432221e+001
8.612305e+002, 5.414735e+001
8.617126e+002, 5.422997e+001
8.621947e+002, 5.507821e+001
8.626768e+002, 5.610451e+001
8.631589e+002, 5.644890e+001
8.636411e+002, 5.581156e+001
8.641232e+002, 5.534594e+001
8.646053e+002, 5.516187e+001
8.650874e+002, 5.515814e+001
8.655695e+002, 5.527047e+001
8.660516e+002, 5.545424e+001
8.665338e+002, 5.557494e+001
8.670159e+002, 5.560970e+001
8.674980e+002, 5.557309e+001
8.679801e+002, 5.530236e+001
8.684622e+002, 5.506538e+001
8.689443e+002, 5.516886e+001
8.694265e+002, 5.598352e+001
8.699086e+002, 5.631263e+001
8.703907e+002, 5.593600e+001
8.708728e+002, 5.541496e+001
8.713549e+002, 5.521188e+001
8.718370e+002, 5.530002e+001
8.723192e+002, 5.534734e+001
8.728013e+002, 5.533929e+001
8.732834e+002, 5.540071e+001
8.737655e+002, 5.575291e+001
8.742476e+002, 5.614782e+001
8.747297e+002, 5.630857e+001
8.752119e+002, 5.620514e+001
8.756940e+002, 5.612337e+001
8.761761e+002, 5.614776e+001
8.766582e+002, 5.619378e+001
8.771403e+002, 5.624738e+001
8.776224e+002, 5.630231e+001
8.781046e+002, 5.624770e+001
8.785867e+002, 5.607779e+001
8.790688e+002, 5.593388e+001
8.795509e+002, 5.593056e+001
8.800330e+002, 5.598964e+001
8.805151e+002, 5.609837e+001
8.809973e+002, 5.619444e+001
8.814794e+002, 5.604013e+001
8.819615e+002, 5.505322e+001
8.824436e+002, 5.432212e+001
8.829257e+002, 5.442314e+001
8.834078e+002, 5.506487e+001
8.838900e+002, 5.546197e+001
8.843721e+002, 5.558949e+001
8.848542e+002, 5.559212e+001
8.853363e+002, 5.547902e+001
8.858184e+002, 5.531487e+001
8.863005e+002, 5.524391e+001
8.867827e+002, 5.521215e+001
8.872648e+002, 5.507557e+001
8.877469e+002, 5.467079e+001
8.882290e+002, 5.431914e+001
8.887111e+002, 5.417279e+001
8.891932e+002, 5.416211e+001
8.896754e+002, 5.420168e+001
8.901575e+002, 5.438033e+001
8.906396e+002, 5.434635e+001
8.911217e+002, 5.402700e+001
8.916038e+002, 5.359903e+001
8.920859e+002, 5.320471e+001
8.925681e+002, 5.288033e+001
8.930502e+002, 5.279628e+001
8.935323e+002, 5.302166e+001
8.940144e+002, 5.317731e+001
8.944965e+002, 5.297140e+001
8.949786e+002, 5.260006e+001
8.954608e+002, 5.221057e+001
8.959429e+002, 5.180708e+001
8.964250e+002, 5.144288e+001
8.969071e+002, 5.111572e+001
8.973892e+002, 5.083736e+001
8.978713e+002, 5.061641e+001
8.983535e+002, 5.045219e+001
8.988356e+002, 5.041681e+001
8.993177e+002, 5.049366e+001
8.997998e+002, 5.043823e+001
9.002819e+002, 4.981068e+001
9.007640e+002, 4.921366e+001
9.012462e+002, 4.925663e+001
9.017283e+002, 4.986755e+001
9.022104e+002, 5.008369e+001
9.026925e+002, 4.953451e+001
9.031746e+002, 4.906199e+001
9.036567e+002, 4.898138e+001
9.041389e+002, 4.911156e+001
9.046210e+002, 4.876921e+001
9.051031e+002, 4.802049e+001
9.055852e+002, 4.744454e+001
9.060673e+002, 4.729816e+001
9.065494e+002, 4.739352e+001
9.070316e+002, 4.771741e+001
9.075137e+002, 4.812695e+001
9.079958e+002, 4.837410e+001
9.084779e+002, 4.821145e+001
9.089600e+002, 4.813405e+001
9.094421e+002, 4.823407e+001
9.099243e+002, 4.838354e+001
9.104064e+002, 4.840283e+001
9.108885e+002, 4.829871e+001
9.113706e+002, 4.820348e+001
9.118527e+002, 4.814121e+001
9.123348e+002, 4.806158e+001
9.128170e+002, 4.800610e+001
9.132991e+002, 4.785862e+001
9.137812e+002, 4.737070e+001
9.142633e+002, 4.629346e+001
9.147454e+002, 4.580634e+001
9.152275e+002, 4.647239e+001
9.157097e+002, 4.729614e+001
9.161918e+002, 4.774137e+001
9.166739e+002, 4.781182e+001
9.171560e+002, 4.766009e+001
9.176381e+002, 4.728461e+001
9.181202e+002, 4.701936e+001
9.186024e+002, 4.722971e+001
9.190845e+002, 4.757892e+001
9.195666e+002, 4.769962e+001
9.200487e+002, 4.761586e+001
9.205308e+002, 4.754382e+001
9.210129e+002, 4.751698e+001
9.214951e+002, 4.754640e+001
9.219772e+002, 4.765031e+001
9.224593e+002, 4.780387e+001
9.229414e+002, 4.796061e+001
9.234235e+002, 4.811702e+001
9.239056e+002, 4.816261e+001
9.243878e+002, 4.802889e+001
9.248699e+002, 4.783218e+001
9.253520e+002, 4.769831e+001
9.258341e+002, 4.759320e+001
9.263162e+002, 4.745708e+001
9.267983e+002, 4.715190e+001
9.272805e+002, 4.701586e+001
9.277626e+002, 4.724073e+001
9.282447e+002, 4.748448e+001
9.287268e+002, 4.731947e+001
9.292089e+002, 4.674295e+001
9.296910e+002, 4.646932e+001
9.301732e+002, 4.656898e+001
9.306553e+002, 4.676355e+001
9.311374e+002, 4.693099e+001
9.316195e+002, 4.697766e+001
9.321016e+002, 4.671409e+001
9.325837e+002, 4.610677e+001
9.330659e+002, 4.566864e+001
9.335480e+002, 4.551836e+001
9.340301e+002, 4.557228e+001
9.345122e+002, 4.587389e+001
9.349943e+002, 4.636755e+001
9.354764e+002, 4.663818e+001
9.359586e+002, 4.669300e+001
9.364407e+002, 4.673334e+001
9.369228e+002, 4.693629e+001
9.374049e+002, 4.710498e+001
9.378870e+002, 4.700077e+001
9.383691e+002, 4.670641e+001
9.388513e+002, 4.641606e+001
9.393334e+002, 4.613649e+001
9.398155e+002, 4.592053e+001
9.402976e+002, 4.574519e+001
9.407797e+002, 4.566726e+001
9.412618e+002, 4.587813e+001
9.417440e+002, 4.634132e+001
9.422261e+002, 4.650029e+001
9.427082e+002, 4.621450e+001
9.431903e+002, 4.588948e+001
9.436724e+002, 4.591751e+001
9.441545e+002, 4.611055e+001
9.446367e+002, 4.629497e+001
9.451188e+002, 4.646064e+001
9.456009e+002, 4.652407e+001
9.460830e+002, 4.643814e+001
9.465651e+002, 4.631738e+001
9.470472e+002, 4.620770e+001
9.475294e+002, 4.611448e+001
9.480115e+002, 4.609123e+001
9.484936e+002, 4.613782e+001
9.489757e+002, 4.626350e+001
9.494578e+002, 4.658328e+001
9.499399e+002, 4.688900e+001
9.504221e+002, 4.703823e+001
9.509042e+002, 4.703993e+001
9.513863e+002, 4.692189e+001
9.518684e+002, 4.654718e+001
9.523505e+002, 4.635635e+001
9.528326e+002, 4.651801e+001
9.533148e+002, 4.678530e+001
9.537969e+002, 4.658049e+001
9.542790e+002, 4.604537e+001
9.547611e+002, 4.583361e+001
9.552432e+002, 4.619817e+001
9.557253e+002, 4.658389e+001
9.562075e+002, 4.652526e+001
9.566896e+002, 4.632891e+001
9.571717e+002, 4.633409e+001
9.576538e+002, 4.671645e+001
9.581359e+002, 4.677657e+001
9.586180e+002, 4.638101e+001
9.591002e+002, 4.599332e+001
9.595823e+002, 4.598945e+001
9.600644e+002, 4.625737e+001
9.605465e+002, 4.649669e+001
9.610286e+002, 4.669749e+001
9.615107e+002, 4.683175e+001
9.619929e+002, 4.680428e+001
9.624750e+002, 4.678698e+001
9.629571e+002, 4.689830e+001
9.634392e+002, 4.709782e+001
9.639213e+002, 4.723402e+001
9.644034e+002, 4.729534e+001
9.648856e+002, 4.733525e+001
9.653677e+002, 4.736565e+001
9.658498e+002, 4.738308e+001
9.663319e+002, 4.737895e+001
9.668140e+002, 4.735864e+001
9.672961e+002, 4.733473e+001
9.677783e+002, 4.731514e+001
9.682604e+002, 4.727961e+001
9.687425e+002, 4.728038e+001
9.692246e+002, 4.721178e+001
9.697067e+002, 4.693456e+001
9.701888e+002, 4.637817e+001
9.706710e+002, 4.619636e+001
9.711531e+002, 4.641945e+001
9.716352e+002, 4.673785e+001
9.721173e+002, 4.697569e+001
9.725994e+002, 4.712827e+001
9.730815e+002, 4.714598e+001
9.735637e+002, 4.705609e+001
9.740458e+002, 4.701574e+001
9.745279e+002, 4.708700e+001
9.750100e+002, 4.720445e+001
9.754921e+002, 4.734852e+001
9.759742e+002, 4.752905e+001
9.764564e+002, 4.782354e+001
9.769385e+002, 4.822106e+001
9.774206e+002, 4.845356e+001
9.779027e+002, 4.842934e+001
9.783848e+002, 4.828862e+001
9.788669e+002, 4.802554e+001
9.793491e+002, 4.779174e+001
9.798312e+002, 4.778688e+001
9.803133e+002, 4.816888e+001
9.807954e+002, 4.846320e+001
9.812775e+002, 4.859237e+001
9.817596e+002, 4.874421e+001
9.822418e+002, 4.916278e+001
9.827239e+002, 4.974155e+001
9.832060e+002, 4.979048e+001
9.836881e+002, 4.937376e+001
9.841702e+002, 4.908863e+001
9.846523e+002, 4.936417e+001
9.851345e+002, 4.982087e+001
9.856166e+002, 5.034675e+001
9.860987e+002, 5.086921e+001
9.865808e+002, 5.114782e+001
9.870629e+002, 5.103889e+001
9.875450e+002, 5.118273e+001
9.880272e+002, 5.179198e+001
9.885093e+002, 5.249305e+001
9.889914e+002, 5.271635e+001
9.894735e+002, 5.260371e+001
9.899556e+002, 5.240660e+001
9.904377e+002, 5.214286e+001
9.909199e+002, 5.196143e+001
9.914020e+002, 5.192334e+001
9.918841e+002, 5.199964e+001
9.923662e+002, 5.222944e+001
9.928483e+002, 5.262275e+001
9.933304e+002, 5.264724e+001
9.938126e+002, 5.228069e+001
9.942947e+002, 5.193120e+001
9.947768e+002, 5.193971e+001
9.952589e+002, 5.204329e+001
9.957410e+002, 5.195547e+001
9.962231e+002, 5.169934e+001
9.967053e+002, 5.134657e+001
9.971874e+002, 5.073482e+001
9.976695e+002, 5.029258e+001
9.981516e+002, 5.014824e+001
9.986337e+002, 5.011353e+001
9.991158e+002, 4.988937e+001
9.995980e+002, 4.949969e+001
1.000080e+003, 4.913990e+001
1.000562e+003, 4.883901e+001
1.001044e+003, 4.852526e+001
1.001526e+003, 4.804694e+001
1.002009e+003, 4.759725e+001
1.002491e+003, 4.737002e+001
1.002973e+003, 4.740379e+001
1.003455e+003, 4.739056e+001
1.003937e+003, 4.733326e+001
1.004419e+003, 4.721472e+001
1.004901e+003, 4.697257e+001
1.005383e+003, 4.671078e+001
1.005865e+003, 4.669076e+001
1.006348e+003, 4.684090e+001
1.006830e+003, 4.695631e+001
1.007312e+003, 4.696204e+001
1.007794e+003, 4.690168e+001
1.008276e+003, 4.666887e+001
1.008758e+003, 4.645202e+001
1.009240e+003, 4.648299e+001
1.009722e+003, 4.679326e+001
1.010205e+003, 4.699641e+001
1.010687e+003, 4.705458e+001
1.011169e+003, 4.716054e+001
1.011651e+003, 4.752563e+001
1.012133e+003, 4.800346e+001
1.012615e+003, 4.849779e+001
1.013097e+003, 4.898701e+001
1.013579e+003, 4.930402e+001
1.014061e+003, 4.931483e+001
1.014544e+003, 4.934361e+001
1.015026e+003, 4.951220e+001
1.015508e+003, 4.972783e+001
1.015990e+003, 4.969845e+001
1.016472e+003, 4.950222e+001
1.016954e+003, 4.945433e+001
1.017436e+003, 4.964919e+001
1.017918e+003, 5.001922e+001
1.018401e+003, 5.075228e+001
1.018883e+003, 5.149144e+001
1.019365e+003, 5.186085e+001
1.019847e+003, 5.176424e+001
1.020329e+003, 5.175664e+001
1.020811e+003, 5.184710e+001
1.021293e+003, 5.197895e+001
1.021775e+003, 5.217282e+001
1.022257e+003, 5.234787e+001
1.022740e+003, 5.232594e+001
1.023222e+003, 5.216324e+001
1.023704e+003, 5.207853e+001
1.024186e+003, 5.222924e+001
1.024668e+003, 5.236892e+001
1.025150e+003, 5.247090e+001
1.025632e+003, 5.251128e+001
1.026114e+003, 5.238606e+001
1.026596e+003, 5.212982e+001
1.027079e+003, 5.208012e+001
1.027561e+003, 5.231610e+001
1.028043e+003, 5.254515e+001
1.028525e+003, 5.262533e+001
1.029007e+003, 5.252472e+001
1.029489e+003, 5.210582e+001
1.029971e+003, 5.133591e+001
1.030453e+003, 5.093568e+001
1.030936e+003, 5.096182e+001
1.031418e+003, 5.119154e+001
1.031900e+003, 5.163836e+001
1.032382e+003, 5.211147e+001
1.032864e+003, 5.217132e+001
1.033346e+003, 5.195610e+001
1.033828e+003, 5.179012e+001
1.034310e+003, 5.180434e+001
1.034792e+003, 5.185897e+001
1.035275e+003, 5.194551e+001
1.035757e+003, 5.203704e+001
1.036239e+003, 5.208905e+001
1.036721e+003, 5.210137e+001
1.037203e+003, 5.226784e+001
1.037685e+003, 5.259107e+001
1.038167e+003, 5.288499e+001
1.038649e+003, 5.290732e+001
1.039132e+003, 5.293407e+001
1.039614e+003, 5.330588e+001
1.040096e+003, 5.391337e+001
1.040578e+003, 5.414432e+001
1.041060e+003, 5.375061e+001
1.041542e+003, 5.361152e+001
1.042024e+003, 5.398700e+001
1.042506e+003, 5.446918e+001
1.042989e+003, 5.436254e+001
1.043471e+003, 5.392006e+001
1.043953e+003, 5.369194e+001
1.044435e+003, 5.381789e+001
1.044917e+003, 5.392630e+001
1.045399e+003, 5.377783e+001
1.045881e+003, 5.367740e+001
1.046363e+003, 5.382000e+001
1.046845e+003, 5.415752e+001
1.047328e+003, 5.431295e+001
1.047810e+003, 5.429126e+001
1.048292e+003, 5.414150e+001
1.048774e+003, 5.377827e+001
1.049256e+003, 5.344822e+001
1.049738e+003, 5.337823e+001
1.050220e+003, 5.346136e+001
1.050702e+003, 5.353183e+001
1.051184e+003, 5.359723e+001
1.051667e+003, 5.361185e+001
1.052149e+003, 5.360466e+001
1.052631e+003, 5.344642e+001
1.053113e+003, 5.280400e+001
1.053595e+003, 5.201358e+001
1.054077e+003, 5.181753e+001
1.054559e+003, 5.215793e+001
1.055041e+003, 5.243873e+001
1.055523e+003, 5.247783e+001
1.056006e+003, 5.232967e+001
1.056488e+003, 5.194704e+001
1.056970e+003, 5.145777e+001
1.057452e+003, 5.108587e+001
1.057934e+003, 5.083552e+001
1.058416e+003, 5.079382e+001
1.058898e+003, 5.101862e+001
1.059380e+003, 5.118471e+001
1.059863e+003, 5.096002e+001
1.060345e+003, 5.061440e+001
1.060827e+003, 5.038463e+001
1.061309e+003, 5.028869e+001
1.061791e+003, 5.007871e+001
1.062273e+003, 4.971389e+001
1.062755e+003, 4.943414e+001
1.063237e+003, 4.940253e+001
1.063719e+003, 4.943869e+001
1.064202e+003, 4.924027e+001
1.064684e+003, 4.890444e+001
1.065166e+003, 4.861506e+001
1.065648e+003, 4.843840e+001
1.066130e+003, 4.830853e+001
1.066612e+003, 4.828254e+001
1.067094e+003, 4.820363e+001
1.067576e+003, 4.785258e+001
1.068059e+003, 4.731400e+001
1.068541e+003, 4.716325e+001
1.069023e+003, 4.735814e+001
1.069505e+003, 4.750118e+001
1.069987e+003, 4.735693e+001
1.070469e+003, 4.709875e+001
1.070951e+003, 4.680153e+001
1.071433e+003, 4.645665e+001
1.071916e+003, 4.598974e+001
1.072398e+003, 4.536034e+001
1.072880e+003, 4.501506e+001
1.073362e+003, 4.503144e+001
1.073844e+003, 4.523946e+001
1.074326e+003, 4.566016e+001
1.074808e+003, 4.605547e+001
1.075290e+003, 4.610188e+001
1.075772e+003, 4.577215e+001
1.076255e+003, 4.563782e+001
1.076737e+003, 4.586694e+001
1.077219e+003, 4.596739e+001
1.077701e+003, 4.570686e+001
1.078183e+003, 4.533691e+001
1.078665e+003, 4.544281e+001
1.079147e+003, 4.581678e+001
1.079629e+003, 4.594748e+001
1.080111e+003, 4.558971e+001
1.080594e+003, 4.531332e+001
1.081076e+003, 4.540129e+001
1.081558e+003, 4.554707e+001
1.082040e+003, 4.555409e+001
1.082522e+003, 4.544907e+001
1.083004e+003, 4.555362e+001
1.083486e+003, 4.584478e+001
1.083968e+003, 4.609723e+001
1.084450e+003, 4.613556e+001
1.084933e+003, 4.615334e+001
1.085415e+003, 4.630017e+001
1.085897e+003, 4.649317e+001
1.086379e+003, 4.661473e+001
1.086861e+003, 4.667712e+001
1.087343e+003, 4.658790e+001
1.087825e+003, 4.632447e+001
1.088307e+003, 4.603606e+001
1.088790e+003, 4.577053e+001
1.089272e+003, 4.561089e+001
1.089754e+003, 4.579289e+001
1.090236e+003, 4.621933e+001
1.090718e+003, 4.631489e+001
1.091200e+003, 4.563829e+001
1.091682e+003, 4.526502e+001
1.092164e+003, 4.545852e+001
1.092646e+003, 4.587852e+001
1.093129e+003, 4.600343e+001
1.093611e+003, 4.594144e+001
1.094093e+003, 4.597703e+001
1.094575e+003, 4.616161e+001
1.095057e+003, 4.630483e+001
1.095539e+003, 4.623127e+001
1.096021e+003, 4.619804e+001
1.096503e+003, 4.634306e+001
1.096986e+003, 4.660341e+001
1.097468e+003, 4.677690e+001
1.097950e+003, 4.685749e+001
1.098432e+003, 4.676329e+001
1.098914e+003, 4.638435e+001
1.099396e+003, 4.605406e+001
1.099878e+003, 4.605486e+001
1.100360e+003, 4.619710e+001
1.100843e+003, 4.625651e+001
1.101325e+003, 4.618694e+001
1.101807e+003, 4.653717e+001
1.102289e+003, 4.737440e+001
1.102771e+003, 4.792933e+001
1.103253e+003, 4.756784e+001
1.103735e+003, 4.688715e+001
1.104217e+003, 4.640075e+001
1.104699e+003, 4.616111e+001
1.105182e+003, 4.628991e+001
1.105664e+003, 4.725729e+001
1.106146e+003, 4.771153e+001
1.106628e+003, 4.748281e+001
1.107110e+003, 4.710878e+001
1.107592e+003, 4.708193e+001
1.108074e+003, 4.725146e+001
1.108556e+003, 4.735386e+001
1.109038e+003, 4.736574e+001
1.109521e+003, 4.723907e+001
1.110003e+003, 4.666614e+001
1.110485e+003, 4.636272e+001
1.110967e+003, 4.661719e+001
1.111449e+003, 4.702502e+001
1.111931e+003, 4.685946e+001
1.112413e+003, 4.628936e+001
1.112895e+003, 4.612855e+001
1.113377e+003, 4.647714e+001
1.113860e+003, 4.687278e+001
1.114342e+003, 4.710873e+001
1.114824e+003, 4.723537e+001
1.115306e+003, 4.724076e+001
1.115788e+003, 4.716888e+001
1.116270e+003, 4.714101e+001
1.116752e+003, 4.715741e+001
1.117234e+003, 4.724603e+001
1.117717e+003, 4.743500e+001
1.118199e+003, 4.761016e+001
1.118681e+003, 4.750133e+001
1.119163e+003, 4.744740e+001
1.119645e+003, 4.790747e+001
1.120127e+003, 4.892781e+001
1.120609e+003, 4.934614e+001
1.121091e+003, 4.903902e+001
1.121573e+003, 4.892127e+001
1.122056e+003, 4.948576e+001
1.122538e+003, 5.025816e+001
1.123020e+003, 5.058947e+001
1.123502e+003, 5.073738e+001
1.123984e+003, 5.113691e+001
1.124466e+003, 5.215159e+001
1.124948e+003, 5.273932e+001
1.125430e+003, 5.278262e+001
1.125913e+003, 5.267447e+001
1.126395e+003, 5.262859e+001
1.126877e+003, 5.264038e+001
1.127359e+003, 5.277002e+001
1.127841e+003, 5.294840e+001
1.128323e+003, 5.297971e+001
1.128805e+003, 5.276704e+001
1.129287e+003, 5.242274e+001
1.129770e+003, 5.195204e+001
1.130252e+003, 5.139030e+001
1.130734e+003, 5.065561e+001
1.131216e+003, 4.985332e+001
1.131698e+003, 4.949975e+001
1.132180e+003, 4.954155e+001
1.132662e+003, 4.944143e+001
1.133144e+003, 4.862822e+001
1.133626e+003, 4.796947e+001
1.134109e+003, 4.790171e+001
1.134591e+003, 4.805247e+001
1.135073e+003, 4.780534e+001
1.135555e+003, 4.720565e+001
1.136037e+003, 4.682868e+001
1.136519e+003, 4.674489e+001
1.137001e+003, 4.659875e+001
1.137483e+003, 4.601048e+001
1.137965e+003, 4.539697e+001
1.138448e+003, 4.498409e+001
1.138930e+003, 4.476385e+001
1.139412e+003, 4.479235e+001
1.139894e+003, 4.509132e+001
1.140376e+003, 4.519170e+001
1.140858e+003, 4.496563e+001
1.141340e+003, 4.468857e+001
1.141822e+003, 4.464256e+001
1.142304e+003, 4.464634e+001
1.142787e+003, 4.446233e+001
1.143269e+003, 4.408863e+001
1.143751e+003, 4.411816e+001
1.144233e+003, 4.467902e+001
1.144715e+003, 4.487822e+001
1.145197e+003, 4.426250e+001
1.145679e+003, 4.350087e+001
1.146161e+003, 4.350655e+001
1.146644e+003, 4.387526e+001
1.147126e+003, 4.408185e+001
1.147608e+003, 4.398451e+001
1.148090e+003, 4.389189e+001
1.148572e+003, 4.379330e+001
1.149054e+003, 4.375741e+001
1.149536e+003, 4.386938e+001
1.150018e+003, 4.400524e+001
1.150500e+003, 4.391311e+001
1.150983e+003, 4.368781e+001
1.151465e+003, 4.351978e+001
1.151947e+003, 4.350625e+001
1.152429e+003, 4.344772e+001
1.152911e+003, 4.327303e+001
1.153393e+003, 4.317342e+001
1.153875e+003, 4.338848e+001
1.154357e+003, 4.373784e+001
1.154840e+003, 4.369452e+001
1.155322e+003, 4.335331e+001
1.155804e+003, 4.301964e+001
1.156286e+003, 4.288243e+001
1.156768e+003, 4.265073e+001
1.157250e+003, 4.221421e+001
1.157732e+003, 4.177916e+001
1.158214e+003, 4.153791e+001
1.158697e+003, 4.146111e+001
1.159179e+003, 4.148379e+001
1.159661e+003, 4.157358e+001
1.160143e+003, 4.156420e+001
1.160625e+003, 4.134496e+001
1.161107e+003, 4.103380e+001
1.161589e+003, 4.052907e+001
1.162071e+003, 4.008795e+001
1.162553e+003, 4.017499e+001
1.163036e+003, 4.067623e+001
1.163518e+003, 4.069480e+001
1.164000e+003, 4.019872e+001
1.164482e+003, 3.977901e+001
1.164964e+003, 3.993932e+001
1.165446e+003, 4.010348e+001
1.165928e+003, 4.002895e+001
1.166410e+003, 3.976240e+001
1.166892e+003, 3.928729e+001
1.167375e+003, 3.863193e+001
1.167857e+003, 3.828963e+001
1.168339e+003, 3.833040e+001
1.168821e+003, 3.849413e+001
1.169303e+003, 3.872598e+001
1.169785e+003, 3.889225e+001
1.170267e+003, 3.888234e+001
1.170749e+003, 3.874240e+001
1.171231e+003, 3.857048e+001
1.171714e+003, 3.836596e+001
1.172196e+003, 3.819700e+001
1.172678e+003, 3.808047e+001
1.173160e+003, 3.798967e+001
1.173642e+003, 3.789460e+001
1.174124e+003, 3.782403e+001
1.174606e+003, 3.783278e+001
1.175088e+003, 3.789642e+001
1.175571e+003, 3.785401e+001
1.176053e+003, 3.769800e+001
1.176535e+003, 3.757966e+001
1.177017e+003, 3.753224e+001
1.177499e+003, 3.756628e+001
1.177981e+003, 3.785913e+001
1.178463e+003, 3.812066e+001
1.178945e+003, 3.799251e+001
1.179427e+003, 3.746632e+001
1.179910e+003, 3.710905e+001
1.180392e+003, 3.691497e+001
1.180874e+003, 3.696630e+001
1.181356e+003, 3.744061e+001
1.181838e+003, 3.782906e+001
1.182320e+003, 3.734322e+001
1.182802e+003, 3.660632e+001
1.183284e+003, 3.644453e+001
1.183767e+003, 3.705083e+001
1.184249e+003, 3.714216e+001
1.184731e+003, 3.663428e+001
1.185213e+003, 3.619148e+001
1.185695e+003, 3.615168e+001
1.186177e+003, 3.629549e+001
1.186659e+003, 3.646182e+001
1.187141e+003, 3.660730e+001
1.187624e+003, 3.666219e+001
1.188106e+003, 3.660847e+001
1.188588e+003, 3.648257e+001
1.189070e+003, 3.625959e+001
1.189552e+003, 3.611897e+001
1.190034e+003, 3.623863e+001
1.190516e+003, 3.641656e+001
1.190998e+003, 3.641631e+001
1.191480e+003, 3.628925e+001
1.191963e+003, 3.610665e+001
1.192445e+003, 3.579863e+001
1.192927e+003, 3.568819e+001
1.193409e+003, 3.582428e+001
1.193891e+003, 3.592970e+001
1.194373e+003, 3.571137e+001
1.194855e+003, 3.542881e+001
1.195337e+003, 3.545949e+001
1.195819e+003, 3.568512e+001
1.196302e+003, 3.584362e+001
1.196784e+003, 3.585592e+001
1.197266e+003, 3.589532e+001
1.197748e+003, 3.597833e+001
1.198230e+003, 3.603052e+001
1.198712e+003, 3.594881e+001
1.199194e+003, 3.583178e+001
1.199676e+003, 3.582259e+001
1.200158e+003, 3.588913e+001
1.200641e+003, 3.593966e+001
1.201123e+003, 3.595670e+001
1.201605e+003, 3.596026e+001
1.202087e+003, 3.594533e+001
1.202569e+003, 3.594346e+001
1.203051e+003, 3.601973e+001
1.203533e+003, 3.610094e+001
1.204015e+003, 3.608343e+001
1.204498e+003, 3.598456e+001
1.204980e+003, 3.586956e+001
1.205462e+003, 3.570947e+001
1.205944e+003, 3.563759e+001
1.206426e+003, 3.568341e+001
1.206908e+003, 3.574358e+001
1.207390e+003, 3.568651e+001
1.207872e+003, 3.560300e+001
1.208354e+003, 3.565006e+001
1.208837e+003, 3.578811e+001
1.209319e+003, 3.580015e+001
1.209801e+003, 3.559765e+001
1.210283e+003, 3.543357e+001
1.210765e+003, 3.532216e+001
1.211247e+003, 3.531013e+001
1.211729e+003, 3.558419e+001
1.212211e+003, 3.589131e+001
1.212694e+003, 3.586082e+001
1.213176e+003, 3.553523e+001
1.213658e+003, 3.526334e+001
1.214140e+003, 3.501213e+001
1.214622e+003, 3.505416e+001
1.215104e+003, 3.550127e+001
1.215586e+003, 3.593906e+001
1.216068e+003, 3.580909e+001
1.216551e+003, 3.549121e+001
1.217033e+003, 3.554126e+001
1.217515e+003, 3.589964e+001
1.217997e+003, 3.583094e+001
1.218479e+003, 3.511013e+001
1.218961e+003, 3.462608e+001
1.219443e+003, 3.454230e+001
1.219925e+003, 3.465995e+001
1.220407e+003, 3.492738e+001
1.220890e+003, 3.515099e+001
1.221372e+003, 3.499116e+001
1.221854e+003, 3.450356e+001
1.222336e+003, 3.440443e+001
1.222818e+003, 3.483006e+001
1.223300e+003, 3.518404e+001
1.223782e+003, 3.535509e+001
1.224264e+003, 3.540913e+001
1.224746e+003, 3.539605e+001
1.225229e+003, 3.532069e+001
1.225711e+003, 3.513514e+001
1.226193e+003, 3.486549e+001
1.226675e+003, 3.473999e+001
1.227157e+003, 3.474202e+001
1.227639e+003, 3.506593e+001
1.228121e+003, 3.584452e+001
1.228603e+003, 3.650777e+001
1.229085e+003, 3.634691e+001
1.229568e+003, 3.585234e+001
1.230050e+003, 3.544912e+001
1.230532e+003, 3.516083e+001
1.231014e+003, 3.484686e+001
1.231496e+003, 3.447952e+001
1.231978e+003, 3.433209e+001
1.232460e+003, 3.449207e+001
1.232942e+003, 3.475980e+001
1.233425e+003, 3.513017e+001
1.233907e+003, 3.537316e+001
1.234389e+003, 3.512481e+001
1.234871e+003, 3.451542e+001
1.235353e+003, 3.442465e+001
1.235835e+003, 3.488085e+001
1.236317e+003, 3.522228e+001
1.236799e+003, 3.529032e+001
1.237281e+003, 3.521033e+001
1.237764e+003, 3.492157e+001
1.238246e+003, 3.467218e+001
1.238728e+003, 3.472821e+001
1.239210e+003, 3.500048e+001
1.239692e+003, 3.514196e+001
1.240174e+003, 3.515234e+001
1.240656e+003, 3.505249e+001
1.241138e+003, 3.482753e+001
1.241621e+003, 3.461556e+001
1.242103e+003, 3.446057e+001
1.242585e+003, 3.442078e+001
1.243067e+003, 3.459255e+001
1.243549e+003, 3.488958e+001
1.244031e+003, 3.498822e+001
1.244513e+003, 3.491276e+001
1.244995e+003, 3.484270e+001
1.245478e+003, 3.481348e+001
1.245960e+003, 3.483125e+001
1.246442e+003, 3.502163e+001
1.246924e+003, 3.511439e+001
1.247406e+003, 3.489539e+001
1.247888e+003, 3.452561e+001
1.248370e+003, 3.454393e+001
1.248852e+003, 3.486749e+001
1.249334e+003, 3.519488e+001
1.249817e+003, 3.549076e+001
1.250299e+003, 3.554572e+001
1.250781e+003, 3.499458e+001
1.251263e+003, 3.448335e+001
1.251745e+003, 3.424926e+001
1.252227e+003, 3.424681e+001
1.252709e+003, 3.447448e+001
1.253191e+003, 3.483001e+001
1.253673e+003, 3.500909e+001
1.254156e+003, 3.493413e+001
1.254638e+003, 3.481161e+001
1.255120e+003, 3.465187e+001
1.255602e+003, 3.453923e+001
1.256084e+003, 3.451275e+001
1.256566e+003, 3.453560e+001
1.257048e+003, 3.456066e+001
1.257530e+003, 3.457071e+001
1.258012e+003, 3.449264e+001
1.258495e+003, 3.429023e+001
1.258977e+003, 3.427721e+001
1.259459e+003, 3.457986e+001
1.259941e+003, 3.487675e+001
1.260423e+003, 3.508938e+001
1.260905e+003, 3.519524e+001
1.261387e+003, 3.509711e+001
1.261869e+003, 3.489944e+001
1.262352e+003, 3.473750e+001
1.262834e+003, 3.463173e+001
1.263316e+003, 3.463324e+001
1.263798e+003, 3.479607e+001
1.264280e+003, 3.485379e+001
1.264762e+003, 3.469659e+001
1.265244e+003, 3.450417e+001
1.265726e+003, 3.446837e+001
1.266208e+003, 3.453544e+001
1.266691e+003, 3.467601e+001
1.267173e+003, 3.488209e+001
1.267655e+003, 3.504681e+001
1.268137e+003, 3.519225e+001
1.268619e+003, 3.506801e+001
1.269101e+003, 3.453107e+001
1.269583e+003, 3.405637e+001
1.270065e+003, 3.416600e+001
1.270548e+003, 3.447805e+001
1.271030e+003, 3.468536e+001
1.271512e+003, 3.479165e+001
1.271994e+003, 3.484630e+001
1.272476e+003, 3.485022e+001
1.272958e+003, 3.484953e+001
1.273440e+003, 3.485344e+001
1.273922e+003, 3.486365e+001
1.274405e+003, 3.493482e+001
1.274887e+003, 3.494967e+001
1.275369e+003, 3.475832e+001
1.275851e+003, 3.450507e+001
1.276333e+003, 3.472454e+001
1.276815e+003, 3.528030e+001
1.277297e+003, 3.540870e+001
1.277779e+003, 3.493822e+001
1.278261e+003, 3.451121e+001
1.278744e+003, 3.446953e+001
1.279226e+003, 3.454118e+001
1.279708e+003, 3.466237e+001
1.280190e+003, 3.478272e+001
1.280672e+003, 3.478231e+001
1.281154e+003, 3.471047e+001
1.281636e+003, 3.470580e+001
1.282118e+003, 3.478695e+001
1.282600e+003, 3.483846e+001
1.283083e+003, 3.482997e+001
1.283565e+003, 3.476388e+001
1.284047e+003, 3.459654e+001
1.284529e+003, 3.447633e+001
1.285011e+003, 3.468382e+001
1.285493e+003, 3.504228e+001
1.285975e+003, 3.531240e+001
1.286457e+003, 3.546515e+001
1.286939e+003, 3.545653e+001
1.287422e+003, 3.520687e+001
1.287904e+003, 3.512242e+001
1.288386e+003, 3.531538e+001
1.288868e+003, 3.552702e+001
1.289350e+003, 3.546739e+001
1.289832e+003, 3.529309e+001
1.290314e+003, 3.513382e+001
1.290796e+003, 3.500385e+001
1.291279e+003, 3.487783e+001
1.291761e+003, 3.473737e+001
1.292243e+003, 3.485224e+001
1.292725e+003, 3.528208e+001
1.293207e+003, 3.561356e+001
1.293689e+003, 3.537130e+001
1.294171e+003, 3.506058e+001
1.294653e+003, 3.501979e+001
1.295135e+003, 3.514577e+001
1.295618e+003, 3.532711e+001
1.296100e+003, 3.554203e+001
1.296582e+003, 3.556056e+001
1.297064e+003, 3.537155e+001
1.297546e+003, 3.512011e+001
1.298028e+003, 3.465664e+001
1.298510e+003, 3.447571e+001
1.298992e+003, 3.488880e+001
1.299475e+003, 3.539256e+001
1.299957e+003, 3.516976e+001
1.300439e+003, 3.453845e+001
1.300921e+003, 3.449363e+001
1.301403e+003, 3.499019e+001
1.301885e+003, 3.538663e+001
##END=



