##NAMES=Hopeite
##RRUFFID=R130562
##IDEAL CHEMISTRY=Zn^2+^_3_(P^5+^O_4_)_2_&#183;4H_2_O
##LOCALITY=Broken Hill mine, Kabwe, Zambia
##OWNER=RRUFF
##SOURCE=Eric van Valkenburg
##DESCRIPTION=Colorless fragment
##STATUS=The identification of this mineral has been confirmed only by single crystal X-ray diffraction.
##URL=rruff.info/R130562
8.975323e+001, 0.000000e+000
9.023535e+001, 7.219686e+002
9.071747e+001, 7.083582e+002
9.119958e+001, 7.007441e+002
9.168170e+001, 7.168622e+002
9.216382e+001, 7.328158e+002
9.264594e+001, 7.433801e+002
9.312805e+001, 7.499548e+002
9.361017e+001, 7.549698e+002
9.409229e+001, 7.579813e+002
9.457440e+001, 7.581027e+002
9.505651e+001, 7.576215e+002
9.553863e+001, 7.569537e+002
9.602074e+001, 7.563381e+002
9.650286e+001, 7.559974e+002
9.698498e+001, 7.555383e+002
9.746709e+001, 7.535400e+002
9.794921e+001, 7.518337e+002
9.843133e+001, 7.506849e+002
9.891344e+001, 7.496967e+002
9.939556e+001, 7.488549e+002
9.987768e+001, 7.479403e+002
1.003598e+002, 7.464944e+002
1.008419e+002, 7.440721e+002
1.013240e+002, 7.408354e+002
1.018061e+002, 7.378301e+002
1.022883e+002, 7.353556e+002
1.027704e+002, 7.327989e+002
1.032525e+002, 7.297682e+002
1.037346e+002, 7.263057e+002
1.042167e+002, 7.219269e+002
1.046988e+002, 7.159877e+002
1.051810e+002, 7.088129e+002
1.056631e+002, 7.006847e+002
1.061452e+002, 6.915947e+002
1.066273e+002, 6.815873e+002
1.071094e+002, 6.708128e+002
1.075915e+002, 6.590916e+002
1.080737e+002, 6.466148e+002
1.085558e+002, 6.331588e+002
1.090379e+002, 6.189954e+002
1.095200e+002, 6.048608e+002
1.100021e+002, 5.912174e+002
1.104842e+002, 5.780060e+002
1.109664e+002, 5.659453e+002
1.114485e+002, 5.553134e+002
1.119306e+002, 5.454448e+002
1.124127e+002, 5.358795e+002
1.128948e+002, 5.266714e+002
1.133769e+002, 5.182338e+002
1.138591e+002, 5.112716e+002
1.143412e+002, 5.063501e+002
1.148233e+002, 5.020858e+002
1.153054e+002, 4.986265e+002
1.157875e+002, 4.956896e+002
1.162696e+002, 4.930725e+002
1.167517e+002, 4.907057e+002
1.172339e+002, 4.884832e+002
1.177160e+002, 4.861430e+002
1.181981e+002, 4.834415e+002
1.186802e+002, 4.810807e+002
1.191623e+002, 4.795928e+002
1.196444e+002, 4.786552e+002
1.201266e+002, 4.773492e+002
1.206087e+002, 4.751807e+002
1.210908e+002, 4.724243e+002
1.215729e+002, 4.697929e+002
1.220550e+002, 4.673858e+002
1.225371e+002, 4.649289e+002
1.230193e+002, 4.623048e+002
1.235014e+002, 4.595362e+002
1.239835e+002, 4.563572e+002
1.244656e+002, 4.521353e+002
1.249477e+002, 4.476253e+002
1.254298e+002, 4.434270e+002
1.259120e+002, 4.397246e+002
1.263941e+002, 4.365345e+002
1.268762e+002, 4.340258e+002
1.273583e+002, 4.326435e+002
1.278404e+002, 4.312270e+002
1.283225e+002, 4.292545e+002
1.288047e+002, 4.270648e+002
1.292868e+002, 4.251240e+002
1.297689e+002, 4.237448e+002
1.302510e+002, 4.228906e+002
1.307331e+002, 4.220219e+002
1.312152e+002, 4.205524e+002
1.316974e+002, 4.196406e+002
1.321795e+002, 4.200362e+002
1.326616e+002, 4.213165e+002
1.331437e+002, 4.225143e+002
1.336258e+002, 4.228222e+002
1.341079e+002, 4.221684e+002
1.345901e+002, 4.208216e+002
1.350722e+002, 4.182828e+002
1.355543e+002, 4.155942e+002
1.360364e+002, 4.135273e+002
1.365185e+002, 4.120895e+002
1.370006e+002, 4.105506e+002
1.374828e+002, 4.080548e+002
1.379649e+002, 4.043598e+002
1.384470e+002, 4.007289e+002
1.389291e+002, 3.972208e+002
1.394112e+002, 3.938041e+002
1.398933e+002, 3.904227e+002
1.403755e+002, 3.870690e+002
1.408576e+002, 3.837966e+002
1.413397e+002, 3.805649e+002
1.418218e+002, 3.773519e+002
1.423039e+002, 3.746543e+002
1.427860e+002, 3.728390e+002
1.432681e+002, 3.717443e+002
1.437503e+002, 3.707957e+002
1.442324e+002, 3.699610e+002
1.447145e+002, 3.691415e+002
1.451966e+002, 3.681353e+002
1.456787e+002, 3.669489e+002
1.461608e+002, 3.659711e+002
1.466430e+002, 3.656162e+002
1.471251e+002, 3.659469e+002
1.476072e+002, 3.662802e+002
1.480893e+002, 3.665642e+002
1.485714e+002, 3.667645e+002
1.490535e+002, 3.668187e+002
1.495357e+002, 3.667218e+002
1.500178e+002, 3.665744e+002
1.504999e+002, 3.665537e+002
1.509820e+002, 3.668057e+002
1.514641e+002, 3.668536e+002
1.519462e+002, 3.667899e+002
1.524284e+002, 3.664836e+002
1.529105e+002, 3.657344e+002
1.533926e+002, 3.644869e+002
1.538747e+002, 3.629646e+002
1.543568e+002, 3.617331e+002
1.548389e+002, 3.612193e+002
1.553211e+002, 3.605050e+002
1.558032e+002, 3.595490e+002
1.562853e+002, 3.583711e+002
1.567674e+002, 3.569290e+002
1.572495e+002, 3.551786e+002
1.577316e+002, 3.532528e+002
1.582138e+002, 3.517408e+002
1.586959e+002, 3.507694e+002
1.591780e+002, 3.499903e+002
1.596601e+002, 3.494728e+002
1.601422e+002, 3.491042e+002
1.606243e+002, 3.486068e+002
1.611065e+002, 3.477781e+002
1.615886e+002, 3.467287e+002
1.620707e+002, 3.459654e+002
1.625528e+002, 3.455530e+002
1.630349e+002, 3.453315e+002
1.635170e+002, 3.453302e+002
1.639991e+002, 3.455192e+002
1.644813e+002, 3.455730e+002
1.649634e+002, 3.450809e+002
1.654455e+002, 3.443728e+002
1.659276e+002, 3.442115e+002
1.664097e+002, 3.450878e+002
1.668918e+002, 3.462179e+002
1.673740e+002, 3.467388e+002
1.678561e+002, 3.465909e+002
1.683382e+002, 3.461109e+002
1.688203e+002, 3.451481e+002
1.693024e+002, 3.440490e+002
1.697845e+002, 3.432652e+002
1.702667e+002, 3.430701e+002
1.707488e+002, 3.432361e+002
1.712309e+002, 3.432156e+002
1.717130e+002, 3.428358e+002
1.721951e+002, 3.425958e+002
1.726772e+002, 3.427387e+002
1.731594e+002, 3.431087e+002
1.736415e+002, 3.434947e+002
1.741236e+002, 3.437833e+002
1.746057e+002, 3.439867e+002
1.750878e+002, 3.441740e+002
1.755699e+002, 3.444182e+002
1.760521e+002, 3.445554e+002
1.765342e+002, 3.445290e+002
1.770163e+002, 3.443706e+002
1.774984e+002, 3.441101e+002
1.779805e+002, 3.437308e+002
1.784626e+002, 3.432293e+002
1.789448e+002, 3.430733e+002
1.794269e+002, 3.436837e+002
1.799090e+002, 3.442235e+002
1.803911e+002, 3.444511e+002
1.808732e+002, 3.443928e+002
1.813553e+002, 3.441588e+002
1.818375e+002, 3.438067e+002
1.823196e+002, 3.432931e+002
1.828017e+002, 3.431223e+002
1.832838e+002, 3.435420e+002
1.837659e+002, 3.439971e+002
1.842480e+002, 3.442285e+002
1.847301e+002, 3.442291e+002
1.852123e+002, 3.441299e+002
1.856944e+002, 3.440539e+002
1.861765e+002, 3.440091e+002
1.866586e+002, 3.438437e+002
1.871407e+002, 3.431754e+002
1.876228e+002, 3.426553e+002
1.881050e+002, 3.429622e+002
1.885871e+002, 3.441298e+002
1.890692e+002, 3.453406e+002
1.895513e+002, 3.458111e+002
1.900334e+002, 3.455357e+002
1.905155e+002, 3.450729e+002
1.909977e+002, 3.439683e+002
1.914798e+002, 3.429398e+002
1.919619e+002, 3.429343e+002
1.924440e+002, 3.441865e+002
1.929261e+002, 3.457979e+002
1.934082e+002, 3.470742e+002
1.938904e+002, 3.480645e+002
1.943725e+002, 3.487563e+002
1.948546e+002, 3.487842e+002
1.953367e+002, 3.485699e+002
1.958188e+002, 3.490297e+002
1.963009e+002, 3.504761e+002
1.967831e+002, 3.520799e+002
1.972652e+002, 3.531288e+002
1.977473e+002, 3.538286e+002
1.982294e+002, 3.546876e+002
1.987115e+002, 3.561266e+002
1.991936e+002, 3.579867e+002
1.996758e+002, 3.595171e+002
2.001579e+002, 3.603682e+002
2.006400e+002, 3.613702e+002
2.011221e+002, 3.632414e+002
2.016042e+002, 3.656261e+002
2.020863e+002, 3.676168e+002
2.025685e+002, 3.683859e+002
2.030506e+002, 3.680246e+002
2.035327e+002, 3.680782e+002
2.040148e+002, 3.688084e+002
2.044969e+002, 3.697296e+002
2.049790e+002, 3.708412e+002
2.054612e+002, 3.720049e+002
2.059433e+002, 3.729427e+002
2.064254e+002, 3.733301e+002
2.069075e+002, 3.731200e+002
2.073896e+002, 3.732762e+002
2.078717e+002, 3.743758e+002
2.083539e+002, 3.753318e+002
2.088360e+002, 3.757225e+002
2.093181e+002, 3.756505e+002
2.098002e+002, 3.754650e+002
2.102823e+002, 3.754636e+002
2.107644e+002, 3.756599e+002
2.112466e+002, 3.759312e+002
2.117287e+002, 3.764743e+002
2.122108e+002, 3.769079e+002
2.126929e+002, 3.769916e+002
2.131750e+002, 3.768028e+002
2.136571e+002, 3.766239e+002
2.141393e+002, 3.767317e+002
2.146214e+002, 3.771975e+002
2.151035e+002, 3.774461e+002
2.155856e+002, 3.775049e+002
2.160677e+002, 3.773844e+002
2.165498e+002, 3.770501e+002
2.170320e+002, 3.765276e+002
2.175141e+002, 3.759216e+002
2.179962e+002, 3.753736e+002
2.184783e+002, 3.749225e+002
2.189604e+002, 3.739004e+002
2.194425e+002, 3.719869e+002
2.199247e+002, 3.698344e+002
2.204068e+002, 3.678374e+002
2.208889e+002, 3.660030e+002
2.213710e+002, 3.641031e+002
2.218531e+002, 3.619457e+002
2.223352e+002, 3.594998e+002
2.228174e+002, 3.569599e+002
2.232995e+002, 3.543466e+002
2.237816e+002, 3.516237e+002
2.242637e+002, 3.486925e+002
2.247458e+002, 3.455610e+002
2.252279e+002, 3.425125e+002
2.257100e+002, 3.398599e+002
2.261922e+002, 3.375379e+002
2.266743e+002, 3.349327e+002
2.271564e+002, 3.317511e+002
2.276385e+002, 3.284360e+002
2.281206e+002, 3.253820e+002
2.286027e+002, 3.226133e+002
2.290849e+002, 3.200771e+002
2.295670e+002, 3.179188e+002
2.300491e+002, 3.159864e+002
2.305312e+002, 3.138363e+002
2.310133e+002, 3.110388e+002
2.314954e+002, 3.081986e+002
2.319776e+002, 3.060856e+002
2.324597e+002, 3.047881e+002
2.329418e+002, 3.036021e+002
2.334239e+002, 3.020531e+002
2.339060e+002, 3.003267e+002
2.343881e+002, 2.986962e+002
2.348703e+002, 2.972332e+002
2.353524e+002, 2.958922e+002
2.358345e+002, 2.946281e+002
2.363166e+002, 2.934539e+002
2.367987e+002, 2.922701e+002
2.372808e+002, 2.908758e+002
2.377630e+002, 2.894826e+002
2.382451e+002, 2.883265e+002
2.387272e+002, 2.874776e+002
2.392093e+002, 2.868994e+002
2.396914e+002, 2.866349e+002
2.401735e+002, 2.868371e+002
2.406557e+002, 2.868536e+002
2.411378e+002, 2.862138e+002
2.416199e+002, 2.853657e+002
2.421020e+002, 2.847538e+002
2.425841e+002, 2.845689e+002
2.430662e+002, 2.845615e+002
2.435484e+002, 2.842072e+002
2.440305e+002, 2.832195e+002
2.445126e+002, 2.826934e+002
2.449947e+002, 2.832776e+002
2.454768e+002, 2.842323e+002
2.459589e+002, 2.849730e+002
2.464410e+002, 2.853047e+002
2.469232e+002, 2.853495e+002
2.474053e+002, 2.852913e+002
2.478874e+002, 2.850746e+002
2.483695e+002, 2.848842e+002
2.488516e+002, 2.847201e+002
2.493337e+002, 2.846075e+002
2.498159e+002, 2.845375e+002
2.502980e+002, 2.845121e+002
2.507801e+002, 2.846014e+002
2.512622e+002, 2.849708e+002
2.517443e+002, 2.858249e+002
2.522264e+002, 2.864864e+002
2.527086e+002, 2.867094e+002
2.531907e+002, 2.868686e+002
2.536728e+002, 2.872155e+002
2.541549e+002, 2.878176e+002
2.546370e+002, 2.885973e+002
2.551191e+002, 2.895269e+002
2.556013e+002, 2.909778e+002
2.560834e+002, 2.917149e+002
2.565655e+002, 2.909992e+002
2.570476e+002, 2.902176e+002
2.575297e+002, 2.903606e+002
2.580118e+002, 2.915615e+002
2.584940e+002, 2.931886e+002
2.589761e+002, 2.944062e+002
2.594582e+002, 2.950758e+002
2.599403e+002, 2.956523e+002
2.604224e+002, 2.959708e+002
2.609045e+002, 2.963461e+002
2.613867e+002, 2.969966e+002
2.618688e+002, 2.979303e+002
2.623509e+002, 2.989819e+002
2.628330e+002, 2.999692e+002
2.633151e+002, 3.008647e+002
2.637972e+002, 3.017982e+002
2.642794e+002, 3.027919e+002
2.647615e+002, 3.037947e+002
2.652436e+002, 3.047873e+002
2.657257e+002, 3.057598e+002
2.662078e+002, 3.066901e+002
2.666899e+002, 3.075320e+002
2.671721e+002, 3.082310e+002
2.676542e+002, 3.092110e+002
2.681363e+002, 3.108333e+002
2.686184e+002, 3.123514e+002
2.691005e+002, 3.132920e+002
2.695826e+002, 3.137539e+002
2.700648e+002, 3.141836e+002
2.705469e+002, 3.149481e+002
2.710290e+002, 3.160553e+002
2.715111e+002, 3.171288e+002
2.719932e+002, 3.182916e+002
2.724753e+002, 3.193090e+002
2.729575e+002, 3.199374e+002
2.734396e+002, 3.203137e+002
2.739217e+002, 3.207998e+002
2.744038e+002, 3.216449e+002
2.748859e+002, 3.228242e+002
2.753680e+002, 3.240247e+002
2.758501e+002, 3.254643e+002
2.763322e+002, 3.266963e+002
2.768144e+002, 3.274417e+002
2.772965e+002, 3.278677e+002
2.777786e+002, 3.283167e+002
2.782607e+002, 3.289557e+002
2.787428e+002, 3.297835e+002
2.792249e+002, 3.308335e+002
2.797071e+002, 3.323854e+002
2.801892e+002, 3.337905e+002
2.806713e+002, 3.348434e+002
2.811534e+002, 3.356474e+002
2.816355e+002, 3.362948e+002
2.821176e+002, 3.367670e+002
2.825998e+002, 3.372909e+002
2.830819e+002, 3.385379e+002
2.835640e+002, 3.410763e+002
2.840461e+002, 3.431694e+002
2.845282e+002, 3.440347e+002
2.850103e+002, 3.443571e+002
2.854925e+002, 3.451322e+002
2.859746e+002, 3.466962e+002
2.864567e+002, 3.487521e+002
2.869388e+002, 3.508671e+002
2.874209e+002, 3.530334e+002
2.879030e+002, 3.552484e+002
2.883852e+002, 3.576582e+002
2.888673e+002, 3.600464e+002
2.893494e+002, 3.619822e+002
2.898315e+002, 3.633446e+002
2.903136e+002, 3.647462e+002
2.907957e+002, 3.670954e+002
2.912779e+002, 3.705546e+002
2.917600e+002, 3.736007e+002
2.922421e+002, 3.758734e+002
2.927242e+002, 3.777852e+002
2.932063e+002, 3.797122e+002
2.936884e+002, 3.817117e+002
2.941706e+002, 3.836234e+002
2.946527e+002, 3.850849e+002
2.951348e+002, 3.861474e+002
2.956169e+002, 3.882805e+002
2.960990e+002, 3.925187e+002
2.965811e+002, 3.971353e+002
2.970633e+002, 4.007784e+002
2.975454e+002, 4.034288e+002
2.980275e+002, 4.058619e+002
2.985096e+002, 4.085601e+002
2.989917e+002, 4.115013e+002
2.994738e+002, 4.144413e+002
2.999560e+002, 4.171119e+002
3.004381e+002, 4.199969e+002
3.009202e+002, 4.236646e+002
3.014023e+002, 4.279095e+002
3.018844e+002, 4.318308e+002
3.023665e+002, 4.349188e+002
3.028487e+002, 4.373930e+002
3.033308e+002, 4.400126e+002
3.038129e+002, 4.429926e+002
3.042950e+002, 4.457810e+002
3.047771e+002, 4.479267e+002
3.052592e+002, 4.496791e+002
3.057414e+002, 4.517975e+002
3.062235e+002, 4.547328e+002
3.067056e+002, 4.578504e+002
3.071877e+002, 4.598133e+002
3.076698e+002, 4.604818e+002
3.081519e+002, 4.609680e+002
3.086341e+002, 4.616421e+002
3.091162e+002, 4.623622e+002
3.095983e+002, 4.629684e+002
3.100804e+002, 4.634788e+002
3.105625e+002, 4.636093e+002
3.110446e+002, 4.628101e+002
3.115268e+002, 4.610775e+002
3.120089e+002, 4.593045e+002
3.124910e+002, 4.579689e+002
3.129731e+002, 4.565414e+002
3.134552e+002, 4.543096e+002
3.139373e+002, 4.511602e+002
3.144195e+002, 4.476056e+002
3.149016e+002, 4.439854e+002
3.153837e+002, 4.403044e+002
3.158658e+002, 4.367592e+002
3.163479e+002, 4.334281e+002
3.168300e+002, 4.301934e+002
3.173121e+002, 4.270854e+002
3.177943e+002, 4.240584e+002
3.182764e+002, 4.207851e+002
3.187585e+002, 4.170094e+002
3.192406e+002, 4.127899e+002
3.197227e+002, 4.085038e+002
3.202048e+002, 4.039326e+002
3.206870e+002, 3.994933e+002
3.211691e+002, 3.955398e+002
3.216512e+002, 3.919497e+002
3.221333e+002, 3.881426e+002
3.226154e+002, 3.837372e+002
3.230975e+002, 3.791259e+002
3.235797e+002, 3.754210e+002
3.240618e+002, 3.728226e+002
3.245439e+002, 3.704556e+002
3.250260e+002, 3.682171e+002
3.255081e+002, 3.659677e+002
3.259902e+002, 3.633410e+002
3.264724e+002, 3.601507e+002
3.269545e+002, 3.568012e+002
3.274366e+002, 3.539251e+002
3.279187e+002, 3.515544e+002
3.284008e+002, 3.493121e+002
3.288829e+002, 3.471850e+002
3.293651e+002, 3.451337e+002
3.298472e+002, 3.431487e+002
3.303293e+002, 3.412274e+002
3.308114e+002, 3.392503e+002
3.312935e+002, 3.369605e+002
3.317756e+002, 3.343336e+002
3.322578e+002, 3.323665e+002
3.327399e+002, 3.317867e+002
3.332220e+002, 3.313591e+002
3.337041e+002, 3.300027e+002
3.341862e+002, 3.278124e+002
3.346683e+002, 3.258188e+002
3.351505e+002, 3.248699e+002
3.356326e+002, 3.247419e+002
3.361147e+002, 3.238047e+002
3.365968e+002, 3.211901e+002
3.370789e+002, 3.187678e+002
3.375610e+002, 3.175127e+002
3.380432e+002, 3.170524e+002
3.385253e+002, 3.165131e+002
3.390074e+002, 3.154967e+002
3.394895e+002, 3.141483e+002
3.399716e+002, 3.128278e+002
3.404537e+002, 3.114325e+002
3.409359e+002, 3.102428e+002
3.414180e+002, 3.093927e+002
3.419001e+002, 3.087478e+002
3.423822e+002, 3.082025e+002
3.428643e+002, 3.077292e+002
3.433464e+002, 3.071880e+002
3.438286e+002, 3.063411e+002
3.443107e+002, 3.049613e+002
3.447928e+002, 3.039780e+002
3.452749e+002, 3.038281e+002
3.457570e+002, 3.037840e+002
3.462391e+002, 3.032095e+002
3.467213e+002, 3.021072e+002
3.472034e+002, 3.009855e+002
3.476855e+002, 3.003540e+002
3.481676e+002, 3.002510e+002
3.486497e+002, 2.996817e+002
3.491318e+002, 2.982018e+002
3.496140e+002, 2.967877e+002
3.500961e+002, 2.958337e+002
3.505782e+002, 2.952836e+002
3.510603e+002, 2.949862e+002
3.515424e+002, 2.948878e+002
3.520245e+002, 2.949087e+002
3.525067e+002, 2.946959e+002
3.529888e+002, 2.938556e+002
3.534709e+002, 2.932701e+002
3.539530e+002, 2.932979e+002
3.544351e+002, 2.935362e+002
3.549172e+002, 2.935353e+002
3.553994e+002, 2.931346e+002
3.558815e+002, 2.924377e+002
3.563636e+002, 2.915916e+002
3.568457e+002, 2.904045e+002
3.573278e+002, 2.894697e+002
3.578099e+002, 2.888574e+002
3.582920e+002, 2.884140e+002
3.587741e+002, 2.880908e+002
3.592563e+002, 2.878498e+002
3.597384e+002, 2.876313e+002
3.602205e+002, 2.873938e+002
3.607026e+002, 2.871551e+002
3.611847e+002, 2.867112e+002
3.616668e+002, 2.858618e+002
3.621490e+002, 2.850316e+002
3.626311e+002, 2.844718e+002
3.631132e+002, 2.840250e+002
3.635953e+002, 2.833621e+002
3.640774e+002, 2.822601e+002
3.645595e+002, 2.808537e+002
3.650417e+002, 2.797133e+002
3.655238e+002, 2.789189e+002
3.660059e+002, 2.783175e+002
3.664880e+002, 2.781523e+002
3.669701e+002, 2.780302e+002
3.674522e+002, 2.774796e+002
3.679344e+002, 2.763797e+002
3.684165e+002, 2.751249e+002
3.688986e+002, 2.744090e+002
3.693807e+002, 2.746122e+002
3.698628e+002, 2.743079e+002
3.703449e+002, 2.730339e+002
3.708271e+002, 2.716259e+002
3.713092e+002, 2.705536e+002
3.717913e+002, 2.697888e+002
3.722734e+002, 2.689430e+002
3.727555e+002, 2.675474e+002
3.732376e+002, 2.656403e+002
3.737198e+002, 2.644554e+002
3.742019e+002, 2.646381e+002
3.746840e+002, 2.647853e+002
3.751661e+002, 2.645388e+002
3.756482e+002, 2.639354e+002
3.761303e+002, 2.629937e+002
3.766125e+002, 2.616390e+002
3.770946e+002, 2.601369e+002
3.775767e+002, 2.591158e+002
3.780588e+002, 2.587514e+002
3.785409e+002, 2.583711e+002
3.790230e+002, 2.577738e+002
3.795052e+002, 2.570961e+002
3.799873e+002, 2.564630e+002
3.804694e+002, 2.558970e+002
3.809515e+002, 2.552618e+002
3.814336e+002, 2.543526e+002
3.819157e+002, 2.531753e+002
3.823979e+002, 2.521399e+002
3.828800e+002, 2.512268e+002
3.833621e+002, 2.505789e+002
3.838442e+002, 2.504687e+002
3.843263e+002, 2.507201e+002
3.848084e+002, 2.506990e+002
3.852906e+002, 2.499350e+002
3.857727e+002, 2.486864e+002
3.862548e+002, 2.474669e+002
3.867369e+002, 2.462310e+002
3.872190e+002, 2.452025e+002
3.877011e+002, 2.445426e+002
3.881833e+002, 2.441684e+002
3.886654e+002, 2.440637e+002
3.891475e+002, 2.444592e+002
3.896296e+002, 2.446969e+002
3.901117e+002, 2.440103e+002
3.905938e+002, 2.425263e+002
3.910760e+002, 2.412427e+002
3.915581e+002, 2.404578e+002
3.920402e+002, 2.400627e+002
3.925223e+002, 2.400296e+002
3.930044e+002, 2.404162e+002
3.934865e+002, 2.404753e+002
3.939687e+002, 2.396309e+002
3.944508e+002, 2.383700e+002
3.949329e+002, 2.375180e+002
3.954150e+002, 2.372151e+002
3.958971e+002, 2.369816e+002
3.963792e+002, 2.363083e+002
3.968614e+002, 2.352648e+002
3.973435e+002, 2.346304e+002
3.978256e+002, 2.349607e+002
3.983077e+002, 2.352436e+002
3.987898e+002, 2.347639e+002
3.992719e+002, 2.336528e+002
3.997540e+002, 2.323778e+002
4.002361e+002, 2.311019e+002
4.007183e+002, 2.299251e+002
4.012004e+002, 2.292199e+002
4.016825e+002, 2.294062e+002
4.021646e+002, 2.292522e+002
4.026467e+002, 2.282212e+002
4.031288e+002, 2.268873e+002
4.036110e+002, 2.258993e+002
4.040931e+002, 2.254102e+002
4.045752e+002, 2.252025e+002
4.050573e+002, 2.250721e+002
4.055394e+002, 2.250937e+002
4.060215e+002, 2.247824e+002
4.065037e+002, 2.240004e+002
4.069858e+002, 2.230683e+002
4.074679e+002, 2.219621e+002
4.079500e+002, 2.208277e+002
4.084321e+002, 2.199942e+002
4.089142e+002, 2.196903e+002
4.093964e+002, 2.197704e+002
4.098785e+002, 2.195543e+002
4.103606e+002, 2.187873e+002
4.108427e+002, 2.180312e+002
4.113248e+002, 2.172575e+002
4.118069e+002, 2.165534e+002
4.122891e+002, 2.160805e+002
4.127712e+002, 2.158447e+002
4.132533e+002, 2.155850e+002
4.137354e+002, 2.148492e+002
4.142175e+002, 2.133689e+002
4.146996e+002, 2.124825e+002
4.151818e+002, 2.130324e+002
4.156639e+002, 2.134076e+002
4.161460e+002, 2.128336e+002
4.166281e+002, 2.115646e+002
4.171102e+002, 2.102908e+002
4.175923e+002, 2.094039e+002
4.180745e+002, 2.088711e+002
4.185566e+002, 2.086548e+002
4.190387e+002, 2.090448e+002
4.195208e+002, 2.091015e+002
4.200029e+002, 2.082186e+002
4.204850e+002, 2.070661e+002
4.209672e+002, 2.063197e+002
4.214493e+002, 2.061529e+002
4.219314e+002, 2.060342e+002
4.224135e+002, 2.052900e+002
4.228956e+002, 2.039674e+002
4.233777e+002, 2.030396e+002
4.238599e+002, 2.028372e+002
4.243420e+002, 2.028149e+002
4.248241e+002, 2.026489e+002
4.253062e+002, 2.023256e+002
4.257883e+002, 2.017757e+002
4.262704e+002, 2.006491e+002
4.267526e+002, 1.994241e+002
4.272347e+002, 1.989518e+002
4.277168e+002, 1.992810e+002
4.281989e+002, 1.995156e+002
4.286810e+002, 1.991316e+002
4.291631e+002, 1.983659e+002
4.296453e+002, 1.977831e+002
4.301274e+002, 1.974245e+002
4.306095e+002, 1.971570e+002
4.310916e+002, 1.969511e+002
4.315737e+002, 1.967854e+002
4.320558e+002, 1.966222e+002
4.325380e+002, 1.964545e+002
4.330201e+002, 1.962678e+002
4.335022e+002, 1.960282e+002
4.339843e+002, 1.957207e+002
4.344664e+002, 1.954948e+002
4.349485e+002, 1.954904e+002
4.354307e+002, 1.954521e+002
4.359128e+002, 1.951585e+002
4.363949e+002, 1.946713e+002
4.368770e+002, 1.942019e+002
4.373591e+002, 1.938586e+002
4.378412e+002, 1.936538e+002
4.383234e+002, 1.936439e+002
4.388055e+002, 1.941151e+002
4.392876e+002, 1.944175e+002
4.397697e+002, 1.944431e+002
4.402518e+002, 1.943196e+002
4.407339e+002, 1.941660e+002
4.412160e+002, 1.940069e+002
4.416982e+002, 1.937799e+002
4.421803e+002, 1.933837e+002
4.426624e+002, 1.927638e+002
4.431445e+002, 1.923721e+002
4.436266e+002, 1.924272e+002
4.441087e+002, 1.924890e+002
4.445909e+002, 1.923972e+002
4.450730e+002, 1.922275e+002
4.455551e+002, 1.921440e+002
4.460372e+002, 1.922461e+002
4.465193e+002, 1.924002e+002
4.470014e+002, 1.922688e+002
4.474836e+002, 1.917121e+002
4.479657e+002, 1.912879e+002
4.484478e+002, 1.910703e+002
4.489299e+002, 1.910393e+002
4.494120e+002, 1.913430e+002
4.498941e+002, 1.919151e+002
4.503763e+002, 1.923198e+002
4.508584e+002, 1.920719e+002
4.513405e+002, 1.913496e+002
4.518226e+002, 1.909563e+002
4.523047e+002, 1.910355e+002
4.527868e+002, 1.911214e+002
4.532690e+002, 1.907692e+002
4.537511e+002, 1.902904e+002
4.542332e+002, 1.901882e+002
4.547153e+002, 1.907466e+002
4.551974e+002, 1.913515e+002
4.556795e+002, 1.914228e+002
4.561617e+002, 1.910833e+002
4.566438e+002, 1.909109e+002
4.571259e+002, 1.911444e+002
4.576080e+002, 1.914357e+002
4.580901e+002, 1.912045e+002
4.585722e+002, 1.904465e+002
4.590544e+002, 1.900280e+002
4.595365e+002, 1.904294e+002
4.600186e+002, 1.910006e+002
4.605007e+002, 1.911794e+002
4.609828e+002, 1.909801e+002
4.614649e+002, 1.906726e+002
4.619471e+002, 1.903861e+002
4.624292e+002, 1.901538e+002
4.629113e+002, 1.901145e+002
4.633934e+002, 1.904876e+002
4.638755e+002, 1.907527e+002
4.643576e+002, 1.907402e+002
4.648398e+002, 1.906531e+002
4.653219e+002, 1.907637e+002
4.658040e+002, 1.910909e+002
4.662861e+002, 1.913383e+002
4.667682e+002, 1.911181e+002
4.672503e+002, 1.903267e+002
4.677325e+002, 1.900524e+002
4.682146e+002, 1.909893e+002
4.686967e+002, 1.917042e+002
4.691788e+002, 1.916142e+002
4.696609e+002, 1.911112e+002
4.701430e+002, 1.908038e+002
4.706252e+002, 1.909633e+002
4.711073e+002, 1.913605e+002
4.715894e+002, 1.916273e+002
4.720715e+002, 1.917718e+002
4.725536e+002, 1.917525e+002
4.730357e+002, 1.914770e+002
4.735179e+002, 1.910999e+002
4.740000e+002, 1.905797e+002
4.744821e+002, 1.900032e+002
4.749642e+002, 1.896593e+002
4.754463e+002, 1.898343e+002
4.759284e+002, 1.903204e+002
4.764106e+002, 1.906974e+002
4.768927e+002, 1.909660e+002
4.773748e+002, 1.910997e+002
4.778569e+002, 1.909649e+002
4.783390e+002, 1.907503e+002
4.788211e+002, 1.907922e+002
4.793033e+002, 1.912005e+002
4.797854e+002, 1.915052e+002
4.802675e+002, 1.913705e+002
4.807496e+002, 1.909970e+002
4.812317e+002, 1.906981e+002
4.817138e+002, 1.905221e+002
4.821959e+002, 1.905587e+002
4.826780e+002, 1.909767e+002
4.831602e+002, 1.917597e+002
4.836423e+002, 1.922059e+002
4.841244e+002, 1.921037e+002
4.846065e+002, 1.919175e+002
4.850886e+002, 1.917992e+002
4.855707e+002, 1.917326e+002
4.860529e+002, 1.916960e+002
4.865350e+002, 1.916799e+002
4.870171e+002, 1.916394e+002
4.874992e+002, 1.914999e+002
4.879813e+002, 1.912368e+002
4.884634e+002, 1.909335e+002
4.889456e+002, 1.905778e+002
4.894277e+002, 1.902025e+002
4.899098e+002, 1.896599e+002
4.903919e+002, 1.891173e+002
4.908740e+002, 1.889880e+002
4.913561e+002, 1.895903e+002
4.918383e+002, 1.905719e+002
4.923204e+002, 1.909211e+002
4.928025e+002, 1.904000e+002
4.932846e+002, 1.899030e+002
4.937667e+002, 1.895591e+002
4.942488e+002, 1.893461e+002
4.947310e+002, 1.893385e+002
4.952131e+002, 1.895016e+002
4.956952e+002, 1.895876e+002
4.961773e+002, 1.893135e+002
4.966594e+002, 1.888412e+002
4.971415e+002, 1.886555e+002
4.976237e+002, 1.888271e+002
4.981058e+002, 1.889881e+002
4.985879e+002, 1.888699e+002
4.990700e+002, 1.886396e+002
4.995521e+002, 1.886415e+002
5.000342e+002, 1.890098e+002
5.005164e+002, 1.893226e+002
5.009985e+002, 1.893721e+002
5.014806e+002, 1.892267e+002
5.019627e+002, 1.889808e+002
5.024448e+002, 1.886527e+002
5.029269e+002, 1.882968e+002
5.034091e+002, 1.879388e+002
5.038912e+002, 1.875758e+002
5.043733e+002, 1.874086e+002
5.048554e+002, 1.876584e+002
5.053375e+002, 1.878346e+002
5.058196e+002, 1.875986e+002
5.063018e+002, 1.872264e+002
5.067839e+002, 1.872544e+002
5.072660e+002, 1.878506e+002
5.077481e+002, 1.885173e+002
5.082302e+002, 1.884342e+002
5.087123e+002, 1.873260e+002
5.091945e+002, 1.864622e+002
5.096766e+002, 1.859165e+002
5.101587e+002, 1.855452e+002
5.106408e+002, 1.854238e+002
5.111229e+002, 1.854198e+002
5.116050e+002, 1.852918e+002
5.120872e+002, 1.849003e+002
5.125693e+002, 1.843912e+002
5.130514e+002, 1.839740e+002
5.135335e+002, 1.836257e+002
5.140156e+002, 1.835681e+002
5.144977e+002, 1.841942e+002
5.149799e+002, 1.847743e+002
5.154620e+002, 1.845732e+002
5.159441e+002, 1.837140e+002
5.164262e+002, 1.830445e+002
5.169083e+002, 1.831002e+002
5.173904e+002, 1.834327e+002
5.178726e+002, 1.834836e+002
5.183547e+002, 1.832576e+002
5.188368e+002, 1.829549e+002
5.193189e+002, 1.826603e+002
5.198010e+002, 1.823563e+002
5.202831e+002, 1.820198e+002
5.207653e+002, 1.816905e+002
5.212474e+002, 1.812268e+002
5.217295e+002, 1.803580e+002
5.222116e+002, 1.795183e+002
5.226937e+002, 1.792303e+002
5.231758e+002, 1.794118e+002
5.236580e+002, 1.794592e+002
5.241401e+002, 1.788997e+002
5.246222e+002, 1.779028e+002
5.251043e+002, 1.773498e+002
5.255864e+002, 1.777451e+002
5.260685e+002, 1.778779e+002
5.265507e+002, 1.775451e+002
5.270328e+002, 1.769932e+002
5.275149e+002, 1.763371e+002
5.279970e+002, 1.756439e+002
5.284791e+002, 1.750453e+002
5.289612e+002, 1.746505e+002
5.294434e+002, 1.744501e+002
5.299255e+002, 1.744369e+002
5.304076e+002, 1.747648e+002
5.308897e+002, 1.749225e+002
5.313718e+002, 1.744618e+002
5.318539e+002, 1.738278e+002
5.323361e+002, 1.734973e+002
5.328182e+002, 1.735765e+002
5.333003e+002, 1.737100e+002
5.337824e+002, 1.736499e+002
5.342645e+002, 1.734816e+002
5.347466e+002, 1.734310e+002
5.352288e+002, 1.735422e+002
5.357109e+002, 1.735496e+002
5.361930e+002, 1.731909e+002
5.366751e+002, 1.725493e+002
5.371572e+002, 1.721589e+002
5.376393e+002, 1.721669e+002
5.381215e+002, 1.722190e+002
5.386036e+002, 1.721434e+002
5.390857e+002, 1.720892e+002
5.395678e+002, 1.723239e+002
5.400499e+002, 1.728626e+002
5.405320e+002, 1.733736e+002
5.410142e+002, 1.734803e+002
5.414963e+002, 1.731655e+002
5.419784e+002, 1.730238e+002
5.424604e+002, 1.732891e+002
5.429426e+002, 1.734514e+002
5.434247e+002, 1.732461e+002
5.439068e+002, 1.729630e+002
5.443889e+002, 1.729754e+002
5.448710e+002, 1.733703e+002
5.453531e+002, 1.738387e+002
5.458353e+002, 1.739811e+002
5.463174e+002, 1.738397e+002
5.467995e+002, 1.739394e+002
5.472816e+002, 1.744036e+002
5.477637e+002, 1.749043e+002
5.482458e+002, 1.752422e+002
5.487280e+002, 1.754800e+002
5.492101e+002, 1.756927e+002
5.496922e+002, 1.758250e+002
5.501743e+002, 1.760772e+002
5.506564e+002, 1.767534e+002
5.511385e+002, 1.776108e+002
5.516207e+002, 1.780980e+002
5.521028e+002, 1.780945e+002
5.525849e+002, 1.779601e+002
5.530670e+002, 1.780237e+002
5.535491e+002, 1.782876e+002
5.540313e+002, 1.785099e+002
5.545134e+002, 1.785471e+002
5.549955e+002, 1.787209e+002
5.554776e+002, 1.792475e+002
5.559597e+002, 1.799037e+002
5.564418e+002, 1.803636e+002
5.569240e+002, 1.805684e+002
5.574061e+002, 1.807830e+002
5.578882e+002, 1.813788e+002
5.583703e+002, 1.823777e+002
5.588524e+002, 1.830110e+002
5.593345e+002, 1.829539e+002
5.598167e+002, 1.829816e+002
5.602988e+002, 1.833445e+002
5.607809e+002, 1.839283e+002
5.612630e+002, 1.846526e+002
5.617451e+002, 1.855134e+002
5.622272e+002, 1.863045e+002
5.627094e+002, 1.867980e+002
5.631915e+002, 1.870728e+002
5.636736e+002, 1.873745e+002
5.641557e+002, 1.877216e+002
5.646378e+002, 1.881536e+002
5.651199e+002, 1.887265e+002
5.656021e+002, 1.894124e+002
5.660842e+002, 1.900721e+002
5.665663e+002, 1.907482e+002
5.670484e+002, 1.913407e+002
5.675305e+002, 1.918590e+002
5.680126e+002, 1.922558e+002
5.684948e+002, 1.923993e+002
5.689769e+002, 1.923055e+002
5.694590e+002, 1.922204e+002
5.699411e+002, 1.923643e+002
5.704232e+002, 1.927333e+002
5.709053e+002, 1.932319e+002
5.713875e+002, 1.939142e+002
5.718696e+002, 1.946679e+002
5.723517e+002, 1.955460e+002
5.728338e+002, 1.964431e+002
5.733159e+002, 1.972723e+002
5.737980e+002, 1.980194e+002
5.742802e+002, 1.987022e+002
5.747623e+002, 1.993267e+002
5.752444e+002, 1.998996e+002
5.757265e+002, 2.004202e+002
5.762086e+002, 2.008523e+002
5.766907e+002, 2.013798e+002
5.771729e+002, 2.020680e+002
5.776550e+002, 2.029196e+002
5.781371e+002, 2.039326e+002
5.786192e+002, 2.051379e+002
5.791013e+002, 2.063660e+002
5.795834e+002, 2.075428e+002
5.800656e+002, 2.087142e+002
5.805477e+002, 2.100105e+002
5.810298e+002, 2.113922e+002
5.815119e+002, 2.125912e+002
5.819940e+002, 2.133996e+002
5.824761e+002, 2.139731e+002
5.829583e+002, 2.148439e+002
5.834404e+002, 2.161049e+002
5.839225e+002, 2.175528e+002
5.844046e+002, 2.193808e+002
5.848867e+002, 2.212212e+002
5.853688e+002, 2.228831e+002
5.858510e+002, 2.243404e+002
5.863331e+002, 2.255909e+002
5.868152e+002, 2.265796e+002
5.872973e+002, 2.274586e+002
5.877794e+002, 2.286081e+002
5.882615e+002, 2.300848e+002
5.887437e+002, 2.314333e+002
5.892258e+002, 2.323972e+002
5.897079e+002, 2.333699e+002
5.901900e+002, 2.347837e+002
5.906721e+002, 2.365617e+002
5.911542e+002, 2.381897e+002
5.916364e+002, 2.395964e+002
5.921185e+002, 2.407183e+002
5.926006e+002, 2.412798e+002
5.930827e+002, 2.414858e+002
5.935648e+002, 2.420566e+002
5.940469e+002, 2.432915e+002
5.945291e+002, 2.445547e+002
5.950112e+002, 2.449492e+002
5.954933e+002, 2.443143e+002
5.959754e+002, 2.435140e+002
5.964575e+002, 2.425867e+002
5.969396e+002, 2.414838e+002
5.974218e+002, 2.402634e+002
5.979039e+002, 2.388260e+002
5.983860e+002, 2.369561e+002
5.988681e+002, 2.345907e+002
5.993502e+002, 2.320727e+002
5.998323e+002, 2.298532e+002
6.003145e+002, 2.279053e+002
6.007966e+002, 2.256932e+002
6.012787e+002, 2.230374e+002
6.017608e+002, 2.204656e+002
6.022429e+002, 2.185958e+002
6.027250e+002, 2.169057e+002
6.032072e+002, 2.145505e+002
6.036893e+002, 2.111841e+002
6.041714e+002, 2.078551e+002
6.046535e+002, 2.049926e+002
6.051356e+002, 2.025174e+002
6.056177e+002, 2.003942e+002
6.060999e+002, 1.985934e+002
6.065820e+002, 1.969535e+002
6.070641e+002, 1.954003e+002
6.075462e+002, 1.938905e+002
6.080283e+002, 1.921985e+002
6.085104e+002, 1.899616e+002
6.089926e+002, 1.880823e+002
6.094747e+002, 1.868775e+002
6.099568e+002, 1.858010e+002
6.104389e+002, 1.843314e+002
6.109210e+002, 1.826098e+002
6.114031e+002, 1.812413e+002
6.118853e+002, 1.806793e+002
6.123674e+002, 1.805851e+002
6.128495e+002, 1.802319e+002
6.133316e+002, 1.795879e+002
6.138137e+002, 1.790800e+002
6.142958e+002, 1.790072e+002
6.147780e+002, 1.788410e+002
6.152601e+002, 1.778185e+002
6.157422e+002, 1.761194e+002
6.162243e+002, 1.748838e+002
6.167064e+002, 1.746310e+002
6.171885e+002, 1.746226e+002
6.176707e+002, 1.744926e+002
6.181528e+002, 1.742454e+002
6.186349e+002, 1.738690e+002
6.191170e+002, 1.733669e+002
6.195991e+002, 1.728637e+002
6.200812e+002, 1.724910e+002
6.205634e+002, 1.722425e+002
6.210455e+002, 1.722033e+002
6.215276e+002, 1.727065e+002
6.220097e+002, 1.730077e+002
6.224918e+002, 1.728011e+002
6.229739e+002, 1.724074e+002
6.234561e+002, 1.721359e+002
6.239382e+002, 1.720528e+002
6.244203e+002, 1.720691e+002
6.249023e+002, 1.721736e+002
6.253845e+002, 1.723148e+002
6.258666e+002, 1.723602e+002
6.263487e+002, 1.723068e+002
6.268308e+002, 1.721358e+002
6.273129e+002, 1.717382e+002
6.277950e+002, 1.713129e+002
6.282772e+002, 1.712966e+002
6.287593e+002, 1.717790e+002
6.292414e+002, 1.721474e+002
6.297235e+002, 1.722409e+002
6.302056e+002, 1.722565e+002
6.306877e+002, 1.722874e+002
6.311699e+002, 1.723562e+002
6.316520e+002, 1.725066e+002
6.321341e+002, 1.727583e+002
6.326162e+002, 1.730241e+002
6.330983e+002, 1.731410e+002
6.335804e+002, 1.730733e+002
6.340626e+002, 1.730352e+002
6.345447e+002, 1.729402e+002
6.350268e+002, 1.730025e+002
6.355089e+002, 1.735002e+002
6.359910e+002, 1.741372e+002
6.364731e+002, 1.744418e+002
6.369553e+002, 1.742589e+002
6.374374e+002, 1.739355e+002
6.379195e+002, 1.736043e+002
6.384016e+002, 1.733376e+002
6.388837e+002, 1.733312e+002
6.393658e+002, 1.735954e+002
6.398480e+002, 1.738522e+002
6.403301e+002, 1.739474e+002
6.408122e+002, 1.738707e+002
6.412943e+002, 1.735812e+002
6.417764e+002, 1.727330e+002
6.422585e+002, 1.721859e+002
6.427407e+002, 1.719379e+002
6.432228e+002, 1.719887e+002
6.437049e+002, 1.726355e+002
6.441870e+002, 1.735689e+002
6.446691e+002, 1.740640e+002
6.451512e+002, 1.737049e+002
6.456334e+002, 1.729034e+002
6.461155e+002, 1.722923e+002
6.465976e+002, 1.718704e+002
6.470797e+002, 1.714293e+002
6.475618e+002, 1.709328e+002
6.480439e+002, 1.704316e+002
6.485261e+002, 1.699688e+002
6.490082e+002, 1.695332e+002
6.494903e+002, 1.690990e+002
6.499724e+002, 1.686143e+002
6.504545e+002, 1.682084e+002
6.509366e+002, 1.681774e+002
6.514188e+002, 1.681194e+002
6.519009e+002, 1.673611e+002
6.523830e+002, 1.659689e+002
6.528651e+002, 1.647680e+002
6.533472e+002, 1.644034e+002
6.538293e+002, 1.646277e+002
6.543115e+002, 1.644905e+002
6.547936e+002, 1.637758e+002
6.552757e+002, 1.632224e+002
6.557578e+002, 1.632710e+002
6.562399e+002, 1.632067e+002
6.567220e+002, 1.624050e+002
6.572042e+002, 1.611397e+002
6.576863e+002, 1.603027e+002
6.581684e+002, 1.604264e+002
6.586505e+002, 1.607769e+002
6.591326e+002, 1.606640e+002
6.596147e+002, 1.602246e+002
6.600969e+002, 1.598888e+002
6.605790e+002, 1.597563e+002
6.610611e+002, 1.594550e+002
6.615432e+002, 1.585355e+002
6.620253e+002, 1.571188e+002
6.625074e+002, 1.565244e+002
6.629896e+002, 1.577187e+002
6.634717e+002, 1.584649e+002
6.639538e+002, 1.583341e+002
6.644359e+002, 1.578727e+002
6.649180e+002, 1.574129e+002
6.654001e+002, 1.570302e+002
6.658823e+002, 1.567482e+002
6.663644e+002, 1.566026e+002
6.668465e+002, 1.565269e+002
6.673286e+002, 1.564764e+002
6.678107e+002, 1.564422e+002
6.682928e+002, 1.560349e+002
6.687750e+002, 1.550012e+002
6.692571e+002, 1.539737e+002
6.697392e+002, 1.535197e+002
6.702213e+002, 1.536292e+002
6.707034e+002, 1.539798e+002
6.711855e+002, 1.550025e+002
6.716677e+002, 1.557270e+002
6.721498e+002, 1.557056e+002
6.726319e+002, 1.553080e+002
6.731140e+002, 1.548322e+002
6.735961e+002, 1.543830e+002
6.740782e+002, 1.540711e+002
6.745604e+002, 1.540029e+002
6.750425e+002, 1.540940e+002
6.755246e+002, 1.540279e+002
6.760067e+002, 1.537231e+002
6.764888e+002, 1.536532e+002
6.769709e+002, 1.542108e+002
6.774531e+002, 1.546878e+002
6.779352e+002, 1.544106e+002
6.784173e+002, 1.535804e+002
6.788994e+002, 1.529112e+002
6.793815e+002, 1.526261e+002
6.798636e+002, 1.524632e+002
6.803458e+002, 1.521825e+002
6.808279e+002, 1.519582e+002
6.813100e+002, 1.521633e+002
6.817921e+002, 1.528064e+002
6.822742e+002, 1.534624e+002
6.827563e+002, 1.538031e+002
6.832385e+002, 1.538425e+002
6.837206e+002, 1.536115e+002
6.842027e+002, 1.528716e+002
6.846848e+002, 1.523819e+002
6.851669e+002, 1.524468e+002
6.856490e+002, 1.526119e+002
6.861312e+002, 1.525955e+002
6.866133e+002, 1.524604e+002
6.870954e+002, 1.524583e+002
6.875775e+002, 1.528149e+002
6.880596e+002, 1.530986e+002
6.885417e+002, 1.527748e+002
6.890239e+002, 1.521099e+002
6.895060e+002, 1.517480e+002
6.899881e+002, 1.518002e+002
6.904702e+002, 1.519586e+002
6.909523e+002, 1.519864e+002
6.914344e+002, 1.519155e+002
6.919166e+002, 1.519007e+002
6.923987e+002, 1.518757e+002
6.928808e+002, 1.520233e+002
6.933629e+002, 1.526699e+002
6.938450e+002, 1.531895e+002
6.943271e+002, 1.531186e+002
6.948093e+002, 1.526100e+002
6.952914e+002, 1.520914e+002
6.957735e+002, 1.517240e+002
6.962556e+002, 1.514894e+002
6.967377e+002, 1.513952e+002
6.972198e+002, 1.514173e+002
6.977020e+002, 1.514559e+002
6.981841e+002, 1.514908e+002
6.986662e+002, 1.516509e+002
6.991483e+002, 1.521257e+002
6.996304e+002, 1.527351e+002
7.001125e+002, 1.527747e+002
7.005947e+002, 1.514583e+002
7.010768e+002, 1.507840e+002
7.015589e+002, 1.512688e+002
7.020410e+002, 1.519468e+002
7.025231e+002, 1.523652e+002
7.030052e+002, 1.524891e+002
7.034874e+002, 1.523159e+002
7.039695e+002, 1.518138e+002
7.044516e+002, 1.513088e+002
7.049337e+002, 1.513362e+002
7.054158e+002, 1.517458e+002
7.058979e+002, 1.516978e+002
7.063801e+002, 1.510283e+002
7.068622e+002, 1.505330e+002
7.073442e+002, 1.507819e+002
7.078264e+002, 1.514328e+002
7.083085e+002, 1.515827e+002
7.087906e+002, 1.509539e+002
7.092727e+002, 1.505580e+002
7.097548e+002, 1.505996e+002
7.102369e+002, 1.507525e+002
7.107191e+002, 1.508907e+002
7.112012e+002, 1.509824e+002
7.116833e+002, 1.509642e+002
7.121654e+002, 1.508188e+002
7.126475e+002, 1.507193e+002
7.131296e+002, 1.510034e+002
7.136118e+002, 1.515460e+002
7.140939e+002, 1.515745e+002
7.145760e+002, 1.509815e+002
7.150581e+002, 1.504300e+002
7.155402e+002, 1.502387e+002
7.160223e+002, 1.502413e+002
7.165045e+002, 1.501609e+002
7.169866e+002, 1.499801e+002
7.174687e+002, 1.498350e+002
7.179508e+002, 1.497632e+002
7.184329e+002, 1.497021e+002
7.189150e+002, 1.496384e+002
7.193972e+002, 1.495583e+002
7.198793e+002, 1.493848e+002
7.203614e+002, 1.491285e+002
7.208435e+002, 1.490100e+002
7.213256e+002, 1.493756e+002
7.218077e+002, 1.500253e+002
7.222899e+002, 1.500717e+002
7.227720e+002, 1.494220e+002
7.232541e+002, 1.489585e+002
7.237362e+002, 1.490550e+002
7.242183e+002, 1.493052e+002
7.247004e+002, 1.491554e+002
7.251826e+002, 1.486194e+002
7.256647e+002, 1.484516e+002
7.261468e+002, 1.492642e+002
7.266289e+002, 1.497660e+002
7.271110e+002, 1.491842e+002
7.275931e+002, 1.482297e+002
7.280753e+002, 1.476772e+002
7.285574e+002, 1.476292e+002
7.290395e+002, 1.478024e+002
7.295216e+002, 1.480485e+002
7.300037e+002, 1.482725e+002
7.304858e+002, 1.481845e+002
7.309680e+002, 1.477681e+002
7.314501e+002, 1.475481e+002
7.319322e+002, 1.477066e+002
7.324143e+002, 1.478874e+002
7.328964e+002, 1.477693e+002
7.333785e+002, 1.474182e+002
7.338607e+002, 1.472016e+002
7.343428e+002, 1.472369e+002
7.348249e+002, 1.472250e+002
7.353070e+002, 1.470242e+002
7.357891e+002, 1.468177e+002
7.362712e+002, 1.468027e+002
7.367534e+002, 1.469155e+002
7.372355e+002, 1.469344e+002
7.377176e+002, 1.467424e+002
7.381997e+002, 1.464811e+002
7.386818e+002, 1.463674e+002
7.391639e+002, 1.463851e+002
7.396461e+002, 1.463647e+002
7.401282e+002, 1.462774e+002
7.406103e+002, 1.462363e+002
7.410924e+002, 1.463626e+002
7.415745e+002, 1.465345e+002
7.420566e+002, 1.464661e+002
7.425388e+002, 1.461053e+002
7.430209e+002, 1.457146e+002
7.435030e+002, 1.452880e+002
7.439851e+002, 1.448649e+002
7.444672e+002, 1.443262e+002
7.449493e+002, 1.438583e+002
7.454315e+002, 1.438133e+002
7.459136e+002, 1.442554e+002
7.463957e+002, 1.447675e+002
7.468778e+002, 1.449423e+002
7.473599e+002, 1.448729e+002
7.478420e+002, 1.448378e+002
7.483242e+002, 1.448380e+002
7.488063e+002, 1.448170e+002
7.492884e+002, 1.447598e+002
7.497705e+002, 1.446642e+002
7.502526e+002, 1.445281e+002
7.507347e+002, 1.443519e+002
7.512169e+002, 1.441167e+002
7.516990e+002, 1.436764e+002
7.521811e+002, 1.433720e+002
7.526632e+002, 1.435027e+002
7.531453e+002, 1.436376e+002
7.536274e+002, 1.432216e+002
7.541096e+002, 1.423929e+002
7.545917e+002, 1.418708e+002
7.550738e+002, 1.421435e+002
7.555559e+002, 1.427381e+002
7.560380e+002, 1.431116e+002
7.565201e+002, 1.432494e+002
7.570023e+002, 1.429389e+002
7.574844e+002, 1.421039e+002
7.579665e+002, 1.415073e+002
7.584486e+002, 1.417722e+002
7.589307e+002, 1.426020e+002
7.594128e+002, 1.430034e+002
7.598950e+002, 1.428090e+002
7.603771e+002, 1.424741e+002
7.608592e+002, 1.417286e+002
7.613413e+002, 1.411363e+002
7.618234e+002, 1.410498e+002
7.623055e+002, 1.412619e+002
7.627877e+002, 1.414726e+002
7.632698e+002, 1.416053e+002
7.637519e+002, 1.415966e+002
7.642340e+002, 1.413059e+002
7.647161e+002, 1.408930e+002
7.651982e+002, 1.406017e+002
7.656804e+002, 1.404280e+002
7.661625e+002, 1.402788e+002
7.666446e+002, 1.401129e+002
7.671267e+002, 1.400262e+002
7.676088e+002, 1.401917e+002
7.680909e+002, 1.406339e+002
7.685731e+002, 1.406909e+002
7.690552e+002, 1.400387e+002
7.695373e+002, 1.395293e+002
7.700194e+002, 1.394416e+002
7.705015e+002, 1.394846e+002
7.709836e+002, 1.394648e+002
7.714658e+002, 1.393751e+002
7.719479e+002, 1.392630e+002
7.724300e+002, 1.391458e+002
7.729121e+002, 1.390104e+002
7.733942e+002, 1.387748e+002
7.738763e+002, 1.385485e+002
7.743585e+002, 1.385566e+002
7.748406e+002, 1.387856e+002
7.753227e+002, 1.389626e+002
7.758048e+002, 1.388932e+002
7.762869e+002, 1.387342e+002
7.767690e+002, 1.389542e+002
7.772512e+002, 1.396865e+002
7.777333e+002, 1.398661e+002
7.782154e+002, 1.391364e+002
7.786975e+002, 1.383819e+002
7.791796e+002, 1.380318e+002
7.796617e+002, 1.379815e+002
7.801439e+002, 1.381202e+002
7.806260e+002, 1.385246e+002
7.811081e+002, 1.387174e+002
7.815902e+002, 1.382778e+002
7.820723e+002, 1.378952e+002
7.825544e+002, 1.378960e+002
7.830366e+002, 1.383018e+002
7.835187e+002, 1.395059e+002
7.840008e+002, 1.413909e+002
7.844829e+002, 1.424944e+002
7.849650e+002, 1.410585e+002
7.854471e+002, 1.380676e+002
7.859293e+002, 1.365236e+002
7.864114e+002, 1.364498e+002
7.868935e+002, 1.366563e+002
7.873756e+002, 1.369472e+002
7.878577e+002, 1.371461e+002
7.883398e+002, 1.370313e+002
7.888220e+002, 1.366603e+002
7.893040e+002, 1.365235e+002
7.897861e+002, 1.368287e+002
7.902682e+002, 1.370591e+002
7.907504e+002, 1.372799e+002
7.912325e+002, 1.373209e+002
7.917146e+002, 1.369401e+002
7.921967e+002, 1.363211e+002
7.926788e+002, 1.358196e+002
7.931609e+002, 1.355578e+002
7.936431e+002, 1.354910e+002
7.941252e+002, 1.357072e+002
7.946073e+002, 1.360391e+002
7.950894e+002, 1.361428e+002
7.955715e+002, 1.360338e+002
7.960536e+002, 1.359432e+002
7.965358e+002, 1.359638e+002
7.970179e+002, 1.360746e+002
7.975000e+002, 1.362966e+002
7.979821e+002, 1.366512e+002
7.984642e+002, 1.365498e+002
7.989464e+002, 1.356503e+002
7.994285e+002, 1.349133e+002
7.999106e+002, 1.346510e+002
8.003927e+002, 1.345801e+002
8.008748e+002, 1.345538e+002
8.013569e+002, 1.345521e+002
8.018391e+002, 1.345191e+002
8.023212e+002, 1.343503e+002
8.028033e+002, 1.342804e+002
8.032854e+002, 1.345181e+002
8.037675e+002, 1.348687e+002
8.042496e+002, 1.351711e+002
8.047318e+002, 1.353663e+002
8.052139e+002, 1.353414e+002
8.056960e+002, 1.350231e+002
8.061781e+002, 1.346161e+002
8.066602e+002, 1.344786e+002
8.071423e+002, 1.345850e+002
8.076245e+002, 1.345726e+002
8.081066e+002, 1.344027e+002
8.085887e+002, 1.342268e+002
8.090708e+002, 1.340796e+002
8.095529e+002, 1.340068e+002
8.100350e+002, 1.341225e+002
8.105172e+002, 1.344876e+002
8.109993e+002, 1.346217e+002
8.114814e+002, 1.343035e+002
8.119635e+002, 1.340398e+002
8.124456e+002, 1.341300e+002
8.129277e+002, 1.342201e+002
8.134099e+002, 1.338269e+002
8.138920e+002, 1.330727e+002
8.143741e+002, 1.326202e+002
8.148562e+002, 1.328984e+002
8.153383e+002, 1.333928e+002
8.158204e+002, 1.336062e+002
8.163026e+002, 1.336207e+002
8.167847e+002, 1.335692e+002
8.172668e+002, 1.334885e+002
8.177489e+002, 1.335285e+002
8.182310e+002, 1.337971e+002
8.187131e+002, 1.340990e+002
8.191953e+002, 1.340032e+002
8.196774e+002, 1.334021e+002
8.201595e+002, 1.330958e+002
8.206416e+002, 1.332431e+002
8.211237e+002, 1.333801e+002
8.216058e+002, 1.333261e+002
8.220880e+002, 1.331807e+002
8.225701e+002, 1.330246e+002
8.230522e+002, 1.328621e+002
8.235343e+002, 1.327757e+002
8.240164e+002, 1.327487e+002
8.244985e+002, 1.328408e+002
8.249807e+002, 1.333107e+002
8.254628e+002, 1.337628e+002
8.259449e+002, 1.336758e+002
8.264270e+002, 1.331159e+002
8.269091e+002, 1.325515e+002
8.273912e+002, 1.322378e+002
8.278734e+002, 1.320579e+002
8.283555e+002, 1.317934e+002
8.288376e+002, 1.315132e+002
8.293197e+002, 1.315512e+002
8.298018e+002, 1.319372e+002
8.302839e+002, 1.323986e+002
8.307661e+002, 1.328370e+002
8.312482e+002, 1.331695e+002
8.317303e+002, 1.332554e+002
8.322124e+002, 1.330734e+002
8.326945e+002, 1.327881e+002
8.331766e+002, 1.321358e+002
8.336588e+002, 1.317707e+002
8.341409e+002, 1.320792e+002
8.346230e+002, 1.325220e+002
8.351051e+002, 1.327032e+002
8.355872e+002, 1.326184e+002
8.360693e+002, 1.323869e+002
8.365515e+002, 1.318631e+002
8.370336e+002, 1.314892e+002
8.375157e+002, 1.316704e+002
8.379978e+002, 1.320211e+002
8.384799e+002, 1.320927e+002
8.389620e+002, 1.319032e+002
8.394442e+002, 1.316820e+002
8.399263e+002, 1.315376e+002
8.404084e+002, 1.314184e+002
8.408905e+002, 1.312114e+002
8.413726e+002, 1.309577e+002
8.418547e+002, 1.309613e+002
8.423369e+002, 1.312502e+002
8.428190e+002, 1.313921e+002
8.433011e+002, 1.312037e+002
8.437832e+002, 1.308823e+002
8.442653e+002, 1.306216e+002
8.447474e+002, 1.304235e+002
8.452296e+002, 1.304149e+002
8.457117e+002, 1.309267e+002
8.461938e+002, 1.311359e+002
8.466759e+002, 1.306658e+002
8.471580e+002, 1.301695e+002
8.476401e+002, 1.300029e+002
8.481223e+002, 1.301350e+002
8.486044e+002, 1.305138e+002
8.490865e+002, 1.312388e+002
8.495686e+002, 1.317011e+002
8.500507e+002, 1.313933e+002
8.505328e+002, 1.308073e+002
8.510150e+002, 1.303283e+002
8.514971e+002, 1.300083e+002
8.519792e+002, 1.299364e+002
8.524613e+002, 1.301106e+002
8.529434e+002, 1.302882e+002
8.534255e+002, 1.302183e+002
8.539077e+002, 1.299792e+002
8.543898e+002, 1.297937e+002
8.548719e+002, 1.296613e+002
8.553540e+002, 1.296535e+002
8.558361e+002, 1.298302e+002
8.563182e+002, 1.299194e+002
8.568004e+002, 1.296669e+002
8.572825e+002, 1.292092e+002
8.577646e+002, 1.289840e+002
8.582467e+002, 1.290452e+002
8.587288e+002, 1.292263e+002
8.592109e+002, 1.297851e+002
8.596931e+002, 1.301594e+002
8.601752e+002, 1.299698e+002
8.606573e+002, 1.295922e+002
8.611394e+002, 1.295300e+002
8.616215e+002, 1.298200e+002
8.621036e+002, 1.299932e+002
8.625858e+002, 1.297601e+002
8.630679e+002, 1.294606e+002
8.635500e+002, 1.292854e+002
8.640321e+002, 1.292113e+002
8.645142e+002, 1.292466e+002
8.649963e+002, 1.293558e+002
8.654785e+002, 1.294058e+002
8.659606e+002, 1.293081e+002
8.664427e+002, 1.292013e+002
8.669248e+002, 1.293862e+002
8.674069e+002, 1.297705e+002
8.678890e+002, 1.298141e+002
8.683712e+002, 1.294751e+002
8.688533e+002, 1.291230e+002
8.693354e+002, 1.288790e+002
8.698175e+002, 1.288066e+002
8.702996e+002, 1.290612e+002
8.707817e+002, 1.296496e+002
8.712639e+002, 1.297617e+002
8.717459e+002, 1.290536e+002
8.722280e+002, 1.284743e+002
8.727101e+002, 1.281196e+002
8.731923e+002, 1.279982e+002
8.736744e+002, 1.282583e+002
8.741565e+002, 1.287423e+002
8.746386e+002, 1.290768e+002
8.751207e+002, 1.291760e+002
8.756028e+002, 1.291999e+002
8.760850e+002, 1.292332e+002
8.765671e+002, 1.291824e+002
8.770492e+002, 1.288178e+002
8.775313e+002, 1.283815e+002
8.780134e+002, 1.283404e+002
8.784955e+002, 1.287554e+002
8.789777e+002, 1.291812e+002
8.794598e+002, 1.292231e+002
8.799419e+002, 1.291338e+002
8.804240e+002, 1.294401e+002
8.809061e+002, 1.299815e+002
8.813882e+002, 1.301198e+002
8.818704e+002, 1.297710e+002
8.823525e+002, 1.293070e+002
8.828346e+002, 1.289388e+002
8.833167e+002, 1.287055e+002
8.837988e+002, 1.287387e+002
8.842809e+002, 1.291006e+002
8.847631e+002, 1.292440e+002
8.852452e+002, 1.290813e+002
8.857273e+002, 1.289107e+002
8.862094e+002, 1.288024e+002
8.866915e+002, 1.287637e+002
8.871736e+002, 1.287913e+002
8.876558e+002, 1.288889e+002
8.881379e+002, 1.291124e+002
8.886200e+002, 1.296582e+002
8.891021e+002, 1.300540e+002
8.895842e+002, 1.302528e+002
8.900663e+002, 1.302463e+002
8.905485e+002, 1.298067e+002
8.910306e+002, 1.292199e+002
8.915127e+002, 1.290446e+002
8.919948e+002, 1.294437e+002
8.924769e+002, 1.299795e+002
8.929590e+002, 1.304715e+002
8.934412e+002, 1.308797e+002
8.939233e+002, 1.311620e+002
8.944054e+002, 1.313264e+002
8.948875e+002, 1.313574e+002
8.953696e+002, 1.312717e+002
8.958517e+002, 1.311479e+002
8.963339e+002, 1.310190e+002
8.968160e+002, 1.309766e+002
8.972981e+002, 1.312849e+002
8.977802e+002, 1.318956e+002
8.982623e+002, 1.323654e+002
8.987444e+002, 1.326598e+002
8.992266e+002, 1.326701e+002
8.997087e+002, 1.322502e+002
9.001908e+002, 1.317923e+002
9.006729e+002, 1.319270e+002
9.011550e+002, 1.326937e+002
9.016371e+002, 1.331411e+002
9.021193e+002, 1.330345e+002
9.026014e+002, 1.330470e+002
9.030835e+002, 1.333716e+002
9.035656e+002, 1.337868e+002
9.040477e+002, 1.341935e+002
9.045298e+002, 1.345679e+002
9.050120e+002, 1.348246e+002
9.054941e+002, 1.348743e+002
9.059762e+002, 1.350373e+002
9.064583e+002, 1.355086e+002
9.069404e+002, 1.359914e+002
9.074225e+002, 1.363417e+002
9.079047e+002, 1.365733e+002
9.083868e+002, 1.366351e+002
9.088689e+002, 1.365797e+002
9.093510e+002, 1.367066e+002
9.098331e+002, 1.372495e+002
9.103152e+002, 1.379560e+002
9.107974e+002, 1.386501e+002
9.112795e+002, 1.392933e+002
9.117616e+002, 1.397593e+002
9.122437e+002, 1.400829e+002
9.127258e+002, 1.404766e+002
9.132079e+002, 1.410405e+002
9.136901e+002, 1.416729e+002
9.141722e+002, 1.421962e+002
9.146543e+002, 1.426649e+002
9.151364e+002, 1.434799e+002
9.156185e+002, 1.446579e+002
9.161006e+002, 1.456929e+002
9.165828e+002, 1.464292e+002
9.170649e+002, 1.471679e+002
9.175470e+002, 1.481717e+002
9.180291e+002, 1.493738e+002
9.185112e+002, 1.505373e+002
9.189933e+002, 1.516747e+002
9.194755e+002, 1.527593e+002
9.199576e+002, 1.536547e+002
9.204397e+002, 1.546970e+002
9.209218e+002, 1.560164e+002
9.214039e+002, 1.575553e+002
9.218860e+002, 1.593743e+002
9.223682e+002, 1.614451e+002
9.228503e+002, 1.631946e+002
9.233324e+002, 1.640260e+002
9.238145e+002, 1.652282e+002
9.242966e+002, 1.674173e+002
9.247787e+002, 1.698801e+002
9.252609e+002, 1.719255e+002
9.257430e+002, 1.738224e+002
9.262251e+002, 1.763017e+002
9.267072e+002, 1.795934e+002
9.271893e+002, 1.828538e+002
9.276714e+002, 1.854353e+002
9.281536e+002, 1.877735e+002
9.286357e+002, 1.901328e+002
9.291178e+002, 1.926705e+002
9.295999e+002, 1.958814e+002
9.300820e+002, 1.996791e+002
9.305641e+002, 2.031204e+002
9.310463e+002, 2.055448e+002
9.315284e+002, 2.076565e+002
9.320105e+002, 2.105517e+002
9.324926e+002, 2.140764e+002
9.329747e+002, 2.176055e+002
9.334568e+002, 2.211041e+002
9.339390e+002, 2.247665e+002
9.344211e+002, 2.286614e+002
9.349032e+002, 2.325110e+002
9.353853e+002, 2.360258e+002
9.358674e+002, 2.392124e+002
9.363495e+002, 2.420977e+002
9.368317e+002, 2.446765e+002
9.373138e+002, 2.469770e+002
9.377959e+002, 2.489389e+002
9.382780e+002, 2.508260e+002
9.387601e+002, 2.531579e+002
9.392422e+002, 2.552236e+002
9.397244e+002, 2.557383e+002
9.402065e+002, 2.545408e+002
9.406886e+002, 2.527255e+002
9.411707e+002, 2.501863e+002
9.416528e+002, 2.471890e+002
9.421349e+002, 2.436012e+002
9.426171e+002, 2.397324e+002
9.430992e+002, 2.359128e+002
9.435813e+002, 2.319759e+002
9.440634e+002, 2.274417e+002
9.445455e+002, 2.220296e+002
9.450276e+002, 2.167219e+002
9.455098e+002, 2.118920e+002
9.459919e+002, 2.072203e+002
9.464740e+002, 2.024261e+002
9.469561e+002, 1.977520e+002
9.474382e+002, 1.936741e+002
9.479203e+002, 1.901395e+002
9.484025e+002, 1.864288e+002
9.488846e+002, 1.819354e+002
9.493667e+002, 1.777170e+002
9.498488e+002, 1.750088e+002
9.503309e+002, 1.730733e+002
9.508130e+002, 1.708401e+002
9.512952e+002, 1.682853e+002
9.517773e+002, 1.655877e+002
9.522594e+002, 1.628419e+002
9.527415e+002, 1.603072e+002
9.532236e+002, 1.581945e+002
9.537057e+002, 1.564941e+002
9.541878e+002, 1.553731e+002
9.546699e+002, 1.547013e+002
9.551520e+002, 1.534925e+002
9.556342e+002, 1.516051e+002
9.561163e+002, 1.499583e+002
9.565984e+002, 1.490562e+002
9.570805e+002, 1.485577e+002
9.575626e+002, 1.479176e+002
9.580447e+002, 1.471391e+002
9.585269e+002, 1.466395e+002
9.590090e+002, 1.464902e+002
9.594911e+002, 1.463125e+002
9.599732e+002, 1.460259e+002
9.604553e+002, 1.456884e+002
9.609374e+002, 1.453114e+002
9.614196e+002, 1.449374e+002
9.619017e+002, 1.446934e+002
9.623838e+002, 1.446269e+002
9.628659e+002, 1.445375e+002
9.633480e+002, 1.442768e+002
9.638301e+002, 1.441943e+002
9.643123e+002, 1.445192e+002
9.647944e+002, 1.449407e+002
9.652765e+002, 1.451088e+002
9.657586e+002, 1.451207e+002
9.662407e+002, 1.454561e+002
9.667228e+002, 1.463630e+002
9.672050e+002, 1.472108e+002
9.676871e+002, 1.477967e+002
9.681692e+002, 1.483646e+002
9.686513e+002, 1.491011e+002
9.691334e+002, 1.498769e+002
9.696155e+002, 1.503695e+002
9.700977e+002, 1.506386e+002
9.705798e+002, 1.513414e+002
9.710619e+002, 1.530529e+002
9.715440e+002, 1.548035e+002
9.720261e+002, 1.557206e+002
9.725082e+002, 1.565746e+002
9.729904e+002, 1.582863e+002
9.734725e+002, 1.606010e+002
9.739546e+002, 1.627440e+002
9.744367e+002, 1.645067e+002
9.749188e+002, 1.664179e+002
9.754009e+002, 1.688864e+002
9.758831e+002, 1.717232e+002
9.763652e+002, 1.745931e+002
9.768473e+002, 1.776603e+002
9.773294e+002, 1.814300e+002
9.778115e+002, 1.858502e+002
9.782936e+002, 1.901148e+002
9.787758e+002, 1.938692e+002
9.792579e+002, 1.980940e+002
9.797400e+002, 2.042657e+002
9.802221e+002, 2.118191e+002
9.807042e+002, 2.185987e+002
9.811863e+002, 2.247383e+002
9.816685e+002, 2.313026e+002
9.821506e+002, 2.384776e+002
9.826327e+002, 2.467331e+002
9.831148e+002, 2.564433e+002
9.835969e+002, 2.669328e+002
9.840790e+002, 2.767686e+002
9.845612e+002, 2.859218e+002
9.850433e+002, 2.962990e+002
9.855254e+002, 3.079451e+002
9.860075e+002, 3.205705e+002
9.864896e+002, 3.341571e+002
9.869717e+002, 3.486048e+002
9.874539e+002, 3.637031e+002
9.879360e+002, 3.797204e+002
9.884181e+002, 3.976608e+002
9.889002e+002, 4.180289e+002
9.893823e+002, 4.382923e+002
9.898644e+002, 4.585084e+002
9.903466e+002, 4.785374e+002
9.908287e+002, 4.984865e+002
9.913108e+002, 5.182274e+002
9.917929e+002, 5.381469e+002
9.922750e+002, 5.579130e+002
9.927571e+002, 5.753865e+002
9.932393e+002, 5.915368e+002
9.937214e+002, 6.036044e+002
9.942035e+002, 6.116866e+002
9.946856e+002, 6.156066e+002
9.951677e+002, 6.151548e+002
9.956498e+002, 6.105944e+002
9.961320e+002, 6.016038e+002
9.966141e+002, 5.885045e+002
9.970962e+002, 5.735120e+002
9.975783e+002, 5.568793e+002
9.980604e+002, 5.387083e+002
9.985425e+002, 5.183801e+002
9.990247e+002, 4.972647e+002
9.995068e+002, 4.758759e+002
9.999889e+002, 4.546075e+002
1.000471e+003, 4.339101e+002
1.000953e+003, 4.138733e+002
1.001435e+003, 3.947956e+002
1.001917e+003, 3.765872e+002
1.002399e+003, 3.598081e+002
1.002882e+003, 3.451607e+002
1.003364e+003, 3.317873e+002
1.003846e+003, 3.186607e+002
1.004328e+003, 3.061407e+002
1.004810e+003, 2.950170e+002
1.005292e+003, 2.853989e+002
1.005774e+003, 2.762920e+002
1.006256e+003, 2.667089e+002
1.006739e+003, 2.577749e+002
1.007221e+003, 2.508098e+002
1.007703e+003, 2.450192e+002
1.008185e+003, 2.395999e+002
1.008667e+003, 2.342965e+002
1.009149e+003, 2.286395e+002
1.009631e+003, 2.225545e+002
1.010113e+003, 2.169019e+002
1.010595e+003, 2.126790e+002
1.011078e+003, 2.091143e+002
1.011560e+003, 2.051211e+002
1.012042e+003, 2.008637e+002
1.012524e+003, 1.965233e+002
1.013006e+003, 1.922611e+002
1.013488e+003, 1.886569e+002
1.013970e+003, 1.859381e+002
1.014452e+003, 1.835620e+002
1.014935e+003, 1.809334e+002
1.015417e+003, 1.781757e+002
1.015899e+003, 1.756482e+002
1.016381e+003, 1.732764e+002
1.016863e+003, 1.706403e+002
1.017345e+003, 1.677399e+002
1.017827e+003, 1.651664e+002
1.018309e+003, 1.632288e+002
1.018791e+003, 1.617036e+002
1.019274e+003, 1.601813e+002
1.019756e+003, 1.588372e+002
1.020238e+003, 1.587991e+002
1.020720e+003, 1.599976e+002
1.021202e+003, 1.605929e+002
1.021684e+003, 1.602728e+002
1.022166e+003, 1.591264e+002
1.022648e+003, 1.571234e+002
1.023130e+003, 1.547049e+002
1.023613e+003, 1.524744e+002
1.024095e+003, 1.504553e+002
1.024577e+003, 1.492347e+002
1.025059e+003, 1.489467e+002
1.025541e+003, 1.483082e+002
1.026023e+003, 1.469986e+002
1.026505e+003, 1.456736e+002
1.026987e+003, 1.447370e+002
1.027469e+003, 1.440432e+002
1.027952e+003, 1.433680e+002
1.028434e+003, 1.427168e+002
1.028916e+003, 1.417660e+002
1.029398e+003, 1.403767e+002
1.029880e+003, 1.391696e+002
1.030362e+003, 1.382875e+002
1.030844e+003, 1.375440e+002
1.031326e+003, 1.368444e+002
1.031809e+003, 1.361774e+002
1.032291e+003, 1.355213e+002
1.032773e+003, 1.348826e+002
1.033255e+003, 1.342080e+002
1.033737e+003, 1.334088e+002
1.034219e+003, 1.327739e+002
1.034701e+003, 1.323973e+002
1.035183e+003, 1.321409e+002
1.035666e+003, 1.319578e+002
1.036148e+003, 1.318131e+002
1.036630e+003, 1.316653e+002
1.037112e+003, 1.315648e+002
1.037594e+003, 1.311575e+002
1.038076e+003, 1.298944e+002
1.038558e+003, 1.292169e+002
1.039040e+003, 1.298652e+002
1.039522e+003, 1.306277e+002
1.040005e+003, 1.306264e+002
1.040487e+003, 1.302233e+002
1.040969e+003, 1.301804e+002
1.041451e+003, 1.305524e+002
1.041933e+003, 1.309870e+002
1.042415e+003, 1.317301e+002
1.042897e+003, 1.321830e+002
1.043379e+003, 1.319701e+002
1.043861e+003, 1.317015e+002
1.044344e+003, 1.317403e+002
1.044826e+003, 1.320131e+002
1.045308e+003, 1.323777e+002
1.045790e+003, 1.328361e+002
1.046272e+003, 1.333092e+002
1.046754e+003, 1.336258e+002
1.047236e+003, 1.341836e+002
1.047718e+003, 1.353872e+002
1.048201e+003, 1.365616e+002
1.048683e+003, 1.371255e+002
1.049165e+003, 1.373731e+002
1.049647e+003, 1.379151e+002
1.050129e+003, 1.388421e+002
1.050611e+003, 1.397199e+002
1.051093e+003, 1.402925e+002
1.051575e+003, 1.410314e+002
1.052057e+003, 1.422081e+002
1.052540e+003, 1.434706e+002
1.053022e+003, 1.446726e+002
1.053504e+003, 1.457325e+002
1.053986e+003, 1.465253e+002
1.054468e+003, 1.470329e+002
1.054950e+003, 1.474167e+002
1.055432e+003, 1.477560e+002
1.055914e+003, 1.479293e+002
1.056396e+003, 1.477903e+002
1.056879e+003, 1.475733e+002
1.057361e+003, 1.473832e+002
1.057843e+003, 1.472714e+002
1.058325e+003, 1.474045e+002
1.058807e+003, 1.477903e+002
1.059289e+003, 1.478220e+002
1.059771e+003, 1.470139e+002
1.060253e+003, 1.462091e+002
1.060736e+003, 1.459042e+002
1.061218e+003, 1.455478e+002
1.061700e+003, 1.445971e+002
1.062182e+003, 1.433513e+002
1.062664e+003, 1.423944e+002
1.063146e+003, 1.417878e+002
1.063628e+003, 1.410123e+002
1.064110e+003, 1.399282e+002
1.064593e+003, 1.385653e+002
1.065075e+003, 1.364729e+002
1.065557e+003, 1.345632e+002
1.066039e+003, 1.336800e+002
1.066521e+003, 1.333770e+002
1.067003e+003, 1.329911e+002
1.067485e+003, 1.323998e+002
1.067967e+003, 1.316696e+002
1.068449e+003, 1.306497e+002
1.068932e+003, 1.298026e+002
1.069414e+003, 1.295775e+002
1.069896e+003, 1.293566e+002
1.070378e+003, 1.285745e+002
1.070860e+003, 1.275533e+002
1.071342e+003, 1.267823e+002
1.071824e+003, 1.262982e+002
1.072306e+003, 1.257911e+002
1.072788e+003, 1.250847e+002
1.073271e+003, 1.244851e+002
1.073753e+003, 1.242769e+002
1.074235e+003, 1.240774e+002
1.074717e+003, 1.235272e+002
1.075199e+003, 1.228673e+002
1.075681e+003, 1.224812e+002
1.076163e+003, 1.223342e+002
1.076645e+003, 1.220101e+002
1.077127e+003, 1.212405e+002
1.077610e+003, 1.206874e+002
1.078092e+003, 1.209536e+002
1.078574e+003, 1.212145e+002
1.079056e+003, 1.206785e+002
1.079538e+003, 1.199821e+002
1.080020e+003, 1.200536e+002
1.080502e+003, 1.207146e+002
1.080984e+003, 1.210387e+002
1.081467e+003, 1.207010e+002
1.081949e+003, 1.202188e+002
1.082431e+003, 1.196776e+002
1.082913e+003, 1.192303e+002
1.083395e+003, 1.189093e+002
1.083877e+003, 1.187800e+002
1.084359e+003, 1.190848e+002
1.084841e+003, 1.196090e+002
1.085323e+003, 1.197378e+002
1.085806e+003, 1.192549e+002
1.086288e+003, 1.189468e+002
1.086770e+003, 1.192975e+002
1.087252e+003, 1.197175e+002
1.087734e+003, 1.200074e+002
1.088216e+003, 1.201350e+002
1.088698e+003, 1.200541e+002
1.089180e+003, 1.198018e+002
1.089662e+003, 1.193496e+002
1.090145e+003, 1.186877e+002
1.090627e+003, 1.183974e+002
1.091109e+003, 1.190947e+002
1.091591e+003, 1.196754e+002
1.092073e+003, 1.195304e+002
1.092555e+003, 1.192190e+002
1.093037e+003, 1.191802e+002
1.093519e+003, 1.192918e+002
1.094002e+003, 1.192394e+002
1.094484e+003, 1.190057e+002
1.094966e+003, 1.189972e+002
1.095448e+003, 1.196139e+002
1.095930e+003, 1.200715e+002
1.096412e+003, 1.199695e+002
1.096894e+003, 1.197834e+002
1.097376e+003, 1.197576e+002
1.097859e+003, 1.198687e+002
1.098341e+003, 1.201474e+002
1.098823e+003, 1.205343e+002
1.099305e+003, 1.207005e+002
1.099787e+003, 1.204636e+002
1.100269e+003, 1.202256e+002
1.100751e+003, 1.200412e+002
1.101233e+003, 1.199373e+002
1.101715e+003, 1.200030e+002
1.102198e+003, 1.200974e+002
1.102680e+003, 1.200357e+002
1.103162e+003, 1.198690e+002
1.103644e+003, 1.198205e+002
1.104126e+003, 1.199414e+002
1.104608e+003, 1.201210e+002
1.105090e+003, 1.204047e+002
1.105572e+003, 1.206605e+002
1.106054e+003, 1.208948e+002
1.106537e+003, 1.210371e+002
1.107019e+003, 1.208824e+002
1.107501e+003, 1.206265e+002
1.107983e+003, 1.208303e+002
1.108465e+003, 1.216934e+002
1.108947e+003, 1.220888e+002
1.109429e+003, 1.214763e+002
1.109911e+003, 1.210169e+002
1.110394e+003, 1.211139e+002
1.110876e+003, 1.212453e+002
1.111358e+003, 1.209061e+002
1.111840e+003, 1.204860e+002
1.112322e+003, 1.207549e+002
1.112804e+003, 1.217717e+002
1.113286e+003, 1.223409e+002
1.113768e+003, 1.221604e+002
1.114250e+003, 1.220303e+002
1.114733e+003, 1.220681e+002
1.115215e+003, 1.220733e+002
1.115697e+003, 1.219052e+002
1.116179e+003, 1.217155e+002
1.116661e+003, 1.216918e+002
1.117143e+003, 1.218107e+002
1.117625e+003, 1.219005e+002
1.118107e+003, 1.220006e+002
1.118589e+003, 1.219671e+002
1.119072e+003, 1.216789e+002
1.119554e+003, 1.214923e+002
1.120036e+003, 1.214718e+002
1.120518e+003, 1.216883e+002
1.121000e+003, 1.223386e+002
1.121482e+003, 1.231757e+002
1.121964e+003, 1.234184e+002
1.122446e+003, 1.229172e+002
1.122929e+003, 1.227301e+002
1.123411e+003, 1.229101e+002
1.123893e+003, 1.232258e+002
1.124375e+003, 1.236387e+002
1.124857e+003, 1.241704e+002
1.125339e+003, 1.248972e+002
1.125821e+003, 1.256101e+002
1.126303e+003, 1.259194e+002
1.126786e+003, 1.258498e+002
1.127268e+003, 1.258201e+002
1.127750e+003, 1.257978e+002
1.128232e+003, 1.261701e+002
1.128714e+003, 1.270486e+002
1.129196e+003, 1.278362e+002
1.129678e+003, 1.282547e+002
1.130160e+003, 1.284818e+002
1.130642e+003, 1.286574e+002
1.131125e+003, 1.288997e+002
1.131607e+003, 1.297174e+002
1.132089e+003, 1.310687e+002
1.132571e+003, 1.322243e+002
1.133053e+003, 1.331480e+002
1.133535e+003, 1.338462e+002
1.134017e+003, 1.343229e+002
1.134499e+003, 1.347065e+002
1.134981e+003, 1.350687e+002
1.135464e+003, 1.355443e+002
1.135946e+003, 1.364420e+002
1.136428e+003, 1.376543e+002
1.136910e+003, 1.387927e+002
1.137392e+003, 1.398576e+002
1.137874e+003, 1.408797e+002
1.138356e+003, 1.418721e+002
1.138838e+003, 1.428480e+002
1.139321e+003, 1.438182e+002
1.139803e+003, 1.448387e+002
1.140285e+003, 1.459247e+002
1.140767e+003, 1.471670e+002
1.141249e+003, 1.489866e+002
1.141731e+003, 1.509963e+002
1.142213e+003, 1.520992e+002
1.142695e+003, 1.525553e+002
1.143177e+003, 1.537635e+002
1.143660e+003, 1.560326e+002
1.144142e+003, 1.579174e+002
1.144624e+003, 1.581313e+002
1.145106e+003, 1.582022e+002
1.145588e+003, 1.599758e+002
1.146070e+003, 1.623354e+002
1.146552e+003, 1.638899e+002
1.147034e+003, 1.649399e+002
1.147516e+003, 1.662314e+002
1.147999e+003, 1.678048e+002
1.148481e+003, 1.691161e+002
1.148963e+003, 1.698637e+002
1.149445e+003, 1.708026e+002
1.149927e+003, 1.728520e+002
1.150409e+003, 1.747590e+002
1.150891e+003, 1.752989e+002
1.151373e+003, 1.754743e+002
1.151856e+003, 1.762590e+002
1.152338e+003, 1.776441e+002
1.152820e+003, 1.796886e+002
1.153302e+003, 1.823882e+002
1.153784e+003, 1.837404e+002
1.154266e+003, 1.816701e+002
1.154748e+003, 1.801526e+002
1.155230e+003, 1.811836e+002
1.155713e+003, 1.824116e+002
1.156195e+003, 1.825445e+002
1.156677e+003, 1.818994e+002
1.157159e+003, 1.808131e+002
1.157641e+003, 1.793919e+002
1.158123e+003, 1.781094e+002
1.158605e+003, 1.772188e+002
1.159087e+003, 1.760020e+002
1.159569e+003, 1.743178e+002
1.160052e+003, 1.724246e+002
1.160534e+003, 1.701816e+002
1.161016e+003, 1.679844e+002
1.161498e+003, 1.662884e+002
1.161980e+003, 1.647559e+002
1.162462e+003, 1.625887e+002
1.162944e+003, 1.596884e+002
1.163426e+003, 1.571849e+002
1.163908e+003, 1.552594e+002
1.164391e+003, 1.531953e+002
1.164873e+003, 1.508402e+002
1.165355e+003, 1.485283e+002
1.165837e+003, 1.463801e+002
1.166319e+003, 1.444289e+002
1.166801e+003, 1.427489e+002
1.167283e+003, 1.412547e+002
1.167765e+003, 1.395528e+002
1.168247e+003, 1.376346e+002
1.168730e+003, 1.357009e+002
1.169212e+003, 1.337572e+002
1.169694e+003, 1.322021e+002
1.170176e+003, 1.311567e+002
1.170658e+003, 1.302777e+002
1.171140e+003, 1.293344e+002
1.171622e+003, 1.283931e+002
1.172104e+003, 1.276213e+002
1.172587e+003, 1.269147e+002
1.173069e+003, 1.257352e+002
1.173551e+003, 1.243092e+002
1.174033e+003, 1.236062e+002
1.174515e+003, 1.235968e+002
1.174997e+003, 1.234608e+002
1.175479e+003, 1.228946e+002
1.175961e+003, 1.222757e+002
1.176443e+003, 1.219296e+002
1.176926e+003, 1.216460e+002
1.177408e+003, 1.211045e+002
1.177890e+003, 1.205019e+002
1.178372e+003, 1.202008e+002
1.178854e+003, 1.200331e+002
1.179336e+003, 1.196225e+002
1.179818e+003, 1.189514e+002
1.180300e+003, 1.182532e+002
1.180782e+003, 1.176136e+002
1.181265e+003, 1.170482e+002
1.181747e+003, 1.165722e+002
1.182229e+003, 1.161724e+002
1.182711e+003, 1.158782e+002
1.183193e+003, 1.156263e+002
1.183675e+003, 1.153650e+002
1.184157e+003, 1.150982e+002
1.184639e+003, 1.148133e+002
1.185122e+003, 1.145182e+002
1.185604e+003, 1.143527e+002
1.186086e+003, 1.144719e+002
1.186568e+003, 1.145209e+002
1.187050e+003, 1.143863e+002
1.187532e+003, 1.142377e+002
1.188014e+003, 1.141595e+002
1.188496e+003, 1.140860e+002
1.188979e+003, 1.139309e+002
1.189461e+003, 1.137400e+002
1.189943e+003, 1.136796e+002
1.190425e+003, 1.138211e+002
1.190907e+003, 1.136341e+002
1.191389e+003, 1.128907e+002
1.191871e+003, 1.125092e+002
1.192353e+003, 1.128079e+002
1.192835e+003, 1.129412e+002
1.193318e+003, 1.124141e+002
1.193800e+003, 1.117287e+002
1.194282e+003, 1.114842e+002
1.194764e+003, 1.116136e+002
1.195246e+003, 1.119740e+002
1.195728e+003, 1.125408e+002
1.196210e+003, 1.124900e+002
1.196692e+003, 1.118258e+002
1.197174e+003, 1.114510e+002
1.197657e+003, 1.115769e+002
1.198139e+003, 1.116987e+002
1.198621e+003, 1.114968e+002
1.199103e+003, 1.112384e+002
1.199585e+003, 1.113764e+002
1.200067e+003, 1.116320e+002
1.200549e+003, 1.113949e+002
1.201031e+003, 1.108572e+002
1.201514e+003, 1.103431e+002
1.201996e+003, 1.099474e+002
1.202478e+003, 1.098210e+002
1.202960e+003, 1.099743e+002
1.203442e+003, 1.102077e+002
1.203924e+003, 1.104697e+002
1.204406e+003, 1.105816e+002
1.204888e+003, 1.102317e+002
1.205370e+003, 1.098666e+002
1.205853e+003, 1.099700e+002
1.206335e+003, 1.101935e+002
1.206817e+003, 1.100722e+002
1.207299e+003, 1.096956e+002
1.207781e+003, 1.094240e+002
1.208263e+003, 1.093371e+002
1.208745e+003, 1.091969e+002
1.209227e+003, 1.088562e+002
1.209709e+003, 1.085933e+002
1.210192e+003, 1.084531e+002
1.210674e+003, 1.084150e+002
1.211156e+003, 1.085587e+002
1.211638e+003, 1.087211e+002
1.212120e+003, 1.087454e+002
1.212602e+003, 1.086499e+002
1.213084e+003, 1.084799e+002
1.213566e+003, 1.081651e+002
1.214049e+003, 1.081629e+002
1.214531e+003, 1.085863e+002
1.215013e+003, 1.088782e+002
1.215495e+003, 1.089364e+002
1.215977e+003, 1.088148e+002
1.216459e+003, 1.085064e+002
1.216941e+003, 1.082265e+002
1.217423e+003, 1.082635e+002
1.217906e+003, 1.084974e+002
1.218388e+003, 1.085275e+002
1.218870e+003, 1.084121e+002
1.219352e+003, 1.085409e+002
1.219834e+003, 1.088337e+002
1.220316e+003, 1.086384e+002
1.220798e+003, 1.079277e+002
1.221280e+003, 1.076028e+002
1.221762e+003, 1.081662e+002
1.222245e+003, 1.088089e+002
1.222727e+003, 1.086455e+002
1.223209e+003, 1.082037e+002
1.223691e+003, 1.080124e+002
1.224173e+003, 1.079686e+002
1.224655e+003, 1.079996e+002
1.225137e+003, 1.080421e+002
1.225619e+003, 1.079845e+002
1.226101e+003, 1.078323e+002
1.226584e+003, 1.077512e+002
1.227066e+003, 1.078915e+002
1.227548e+003, 1.078328e+002
1.228030e+003, 1.071508e+002
1.228512e+003, 1.066132e+002
1.228994e+003, 1.065761e+002
1.229476e+003, 1.067750e+002
1.229958e+003, 1.071358e+002
1.230441e+003, 1.075183e+002
1.230923e+003, 1.076783e+002
1.231405e+003, 1.076227e+002
1.231887e+003, 1.075818e+002
1.232369e+003, 1.075956e+002
1.232851e+003, 1.074767e+002
1.233333e+003, 1.071490e+002
1.233815e+003, 1.069457e+002
1.234297e+003, 1.070026e+002
1.234780e+003, 1.070218e+002
1.235262e+003, 1.067606e+002
1.235744e+003, 1.064472e+002
1.236226e+003, 1.065288e+002
1.236708e+003, 1.068652e+002
1.237190e+003, 1.068355e+002
1.237672e+003, 1.065226e+002
1.238154e+003, 1.062878e+002
1.238636e+003, 1.061507e+002
1.239119e+003, 1.059414e+002
1.239601e+003, 1.056451e+002
1.240083e+003, 1.055594e+002
1.240565e+003, 1.059254e+002
1.241047e+003, 1.062868e+002
1.241529e+003, 1.061352e+002
1.242011e+003, 1.058421e+002
1.242493e+003, 1.056904e+002
1.242975e+003, 1.056793e+002
1.243458e+003, 1.058322e+002
1.243940e+003, 1.060963e+002
1.244422e+003, 1.064873e+002
1.244904e+003, 1.069602e+002
1.245386e+003, 1.069612e+002
1.245868e+003, 1.058635e+002
1.246350e+003, 1.051823e+002
1.246832e+003, 1.054424e+002
1.247315e+003, 1.057915e+002
1.247797e+003, 1.059487e+002
1.248279e+003, 1.060924e+002
1.248761e+003, 1.063850e+002
1.249243e+003, 1.067082e+002
1.249725e+003, 1.068472e+002
1.250207e+003, 1.068082e+002
1.250689e+003, 1.067066e+002
1.251172e+003, 1.065287e+002
1.251654e+003, 1.064364e+002
1.252136e+003, 1.064448e+002
1.252618e+003, 1.064182e+002
1.253100e+003, 1.063157e+002
1.253582e+003, 1.061983e+002
1.254064e+003, 1.061080e+002
1.254546e+003, 1.060321e+002
1.255028e+003, 1.059515e+002
1.255510e+003, 1.058771e+002
1.255993e+003, 1.057508e+002
1.256475e+003, 1.056910e+002
1.256957e+003, 1.060566e+002
1.257439e+003, 1.066456e+002
1.257921e+003, 1.068789e+002
1.258403e+003, 1.067061e+002
1.258885e+003, 1.066461e+002
1.259367e+003, 1.069611e+002
1.259850e+003, 1.072477e+002
1.260332e+003, 1.073788e+002
1.260814e+003, 1.073586e+002
1.261296e+003, 1.070188e+002
1.261778e+003, 1.067020e+002
1.262260e+003, 1.067924e+002
1.262742e+003, 1.070039e+002
1.263224e+003, 1.068445e+002
1.263707e+003, 1.063585e+002
1.264189e+003, 1.059257e+002
1.264671e+003, 1.054733e+002
1.265153e+003, 1.053473e+002
1.265635e+003, 1.056259e+002
1.266117e+003, 1.059022e+002
1.266599e+003, 1.060949e+002
1.267081e+003, 1.061892e+002
1.267563e+003, 1.061619e+002
1.268046e+003, 1.061812e+002
1.268528e+003, 1.065146e+002
1.269010e+003, 1.069133e+002
1.269492e+003, 1.067103e+002
1.269974e+003, 1.061545e+002
1.270456e+003, 1.057553e+002
1.270938e+003, 1.055934e+002
1.271420e+003, 1.059381e+002
1.271902e+003, 1.066335e+002
1.272385e+003, 1.069538e+002
1.272867e+003, 1.066204e+002
1.273349e+003, 1.062779e+002
1.273831e+003, 1.062771e+002
1.274313e+003, 1.064109e+002
1.274795e+003, 1.066243e+002
1.275277e+003, 1.068824e+002
1.275759e+003, 1.073292e+002
1.276242e+003, 1.076789e+002
1.276724e+003, 1.075501e+002
1.277206e+003, 1.070605e+002
1.277688e+003, 1.066119e+002
1.278170e+003, 1.061905e+002
1.278652e+003, 1.059415e+002
1.279134e+003, 1.058502e+002
1.279616e+003, 1.060355e+002
1.280099e+003, 1.065892e+002
1.280581e+003, 1.069743e+002
1.281063e+003, 1.069805e+002
1.281545e+003, 1.069242e+002
1.282027e+003, 1.070696e+002
1.282509e+003, 1.072242e+002
1.282991e+003, 1.069802e+002
1.283473e+003, 1.065424e+002
1.283955e+003, 1.063724e+002
##END=



