##NAMES=Howardevansite
##RRUFFID=R130739
##IDEAL CHEMISTRY=NaCu^2+^Fe^3+^_2_(V^5+^O_4_)_3_
##LOCALITY='Y' Fumerol, Izalco Volcano, Sonsonate Department, El Salvador
##OWNER=RRUFF
##SOURCE=Rock Currier
##DESCRIPTION=Black granular or tabular crystals embeded in th√©nardite, associated with black bladed or prismatic lyonsite. Crystal is twinned by a 2-fold rotation about [-1 -1 1].
##STATUS=The identification of this mineral has been confirmed by single-crystal X-ray diffraction.
##URL=rruff.info/R130739
8.813672e+001, 4.556490e+002
8.861884e+001, 4.626006e+002
8.910095e+001, 4.687934e+002
8.958307e+001, 4.752025e+002
9.006519e+001, 4.824845e+002
9.054730e+001, 4.905785e+002
9.102942e+001, 5.008881e+002
9.151154e+001, 5.101252e+002
9.199365e+001, 5.134148e+002
9.247577e+001, 5.118869e+002
9.295789e+001, 5.107738e+002
9.344000e+001, 5.150303e+002
9.392212e+001, 5.222858e+002
9.440424e+001, 5.267512e+002
9.488635e+001, 5.271156e+002
9.536847e+001, 5.256243e+002
9.585059e+001, 5.267762e+002
9.633270e+001, 5.305787e+002
9.681482e+001, 5.356247e+002
9.729694e+001, 5.403741e+002
9.777905e+001, 5.448596e+002
9.826117e+001, 5.508214e+002
9.874329e+001, 5.594003e+002
9.922540e+001, 5.699800e+002
9.970752e+001, 5.782742e+002
1.001896e+002, 5.837770e+002
1.006718e+002, 5.878646e+002
1.011539e+002, 5.919615e+002
1.016360e+002, 5.959296e+002
1.021181e+002, 6.004997e+002
1.026002e+002, 6.058066e+002
1.030823e+002, 6.118000e+002
1.035645e+002, 6.186476e+002
1.040466e+002, 6.259940e+002
1.045287e+002, 6.344388e+002
1.050108e+002, 6.457054e+002
1.054929e+002, 6.621865e+002
1.059750e+002, 6.779930e+002
1.064572e+002, 6.910453e+002
1.069393e+002, 7.020527e+002
1.074214e+002, 7.093083e+002
1.079035e+002, 7.111964e+002
1.083856e+002, 7.092383e+002
1.088677e+002, 7.086037e+002
1.093499e+002, 7.092445e+002
1.098320e+002, 7.112733e+002
1.103141e+002, 7.147316e+002
1.107962e+002, 7.214573e+002
1.112783e+002, 7.276215e+002
1.117604e+002, 7.326222e+002
1.122426e+002, 7.367055e+002
1.127247e+002, 7.411794e+002
1.132068e+002, 7.457408e+002
1.136889e+002, 7.510423e+002
1.141710e+002, 7.574905e+002
1.146531e+002, 7.679133e+002
1.151353e+002, 7.768655e+002
1.156174e+002, 7.820642e+002
1.160995e+002, 7.834616e+002
1.165816e+002, 7.853276e+002
1.170637e+002, 7.906718e+002
1.175458e+002, 7.968217e+002
1.180280e+002, 8.009374e+002
1.185101e+002, 7.990652e+002
1.189922e+002, 7.967908e+002
1.194743e+002, 7.975167e+002
1.199564e+002, 8.016541e+002
1.204385e+002, 8.069124e+002
1.209207e+002, 8.114130e+002
1.214028e+002, 8.160791e+002
1.218849e+002, 8.225157e+002
1.223670e+002, 8.352391e+002
1.228491e+002, 8.485392e+002
1.233312e+002, 8.556814e+002
1.238134e+002, 8.548792e+002
1.242955e+002, 8.519391e+002
1.247776e+002, 8.516174e+002
1.252597e+002, 8.535404e+002
1.257418e+002, 8.564188e+002
1.262239e+002, 8.594718e+002
1.267061e+002, 8.630003e+002
1.271882e+002, 8.675565e+002
1.276703e+002, 8.735037e+002
1.281524e+002, 8.800927e+002
1.286345e+002, 8.863828e+002
1.291166e+002, 8.923799e+002
1.295988e+002, 8.982241e+002
1.300809e+002, 9.043684e+002
1.305630e+002, 9.105364e+002
1.310451e+002, 9.155215e+002
1.315272e+002, 9.186656e+002
1.320093e+002, 9.206990e+002
1.324915e+002, 9.232698e+002
1.329736e+002, 9.263799e+002
1.334557e+002, 9.298619e+002
1.339378e+002, 9.335549e+002
1.344199e+002, 9.374510e+002
1.349020e+002, 9.414708e+002
1.353842e+002, 9.455790e+002
1.358663e+002, 9.497135e+002
1.363484e+002, 9.538632e+002
1.368305e+002, 9.577883e+002
1.373126e+002, 9.623381e+002
1.377947e+002, 9.691923e+002
1.382769e+002, 9.792437e+002
1.387590e+002, 9.870487e+002
1.392411e+002, 9.909006e+002
1.397232e+002, 9.907672e+002
1.402053e+002, 9.888522e+002
1.406874e+002, 9.842639e+002
1.411696e+002, 9.790617e+002
1.416517e+002, 9.762756e+002
1.421338e+002, 9.770602e+002
1.426159e+002, 9.777249e+002
1.430980e+002, 9.770759e+002
1.435801e+002, 9.747398e+002
1.440623e+002, 9.731301e+002
1.445444e+002, 9.723101e+002
1.450265e+002, 9.722539e+002
1.455086e+002, 9.730572e+002
1.459907e+002, 9.759484e+002
1.464728e+002, 9.781383e+002
1.469550e+002, 9.785964e+002
1.474371e+002, 9.762996e+002
1.479192e+002, 9.746378e+002
1.484013e+002, 9.739268e+002
1.488834e+002, 9.738193e+002
1.493655e+002, 9.735195e+002
1.498477e+002, 9.714543e+002
1.503298e+002, 9.705437e+002
1.508119e+002, 9.720892e+002
1.512940e+002, 9.801773e+002
1.517761e+002, 9.846892e+002
1.522583e+002, 9.828545e+002
1.527404e+002, 9.768802e+002
1.532225e+002, 9.729796e+002
1.537046e+002, 9.738760e+002
1.541867e+002, 9.753749e+002
1.546688e+002, 9.755519e+002
1.551510e+002, 9.730816e+002
1.556331e+002, 9.706536e+002
1.561152e+002, 9.687551e+002
1.565973e+002, 9.672551e+002
1.570794e+002, 9.656735e+002
1.575615e+002, 9.633671e+002
1.580437e+002, 9.612670e+002
1.585258e+002, 9.599479e+002
1.590079e+002, 9.602884e+002
1.594900e+002, 9.606406e+002
1.599721e+002, 9.602746e+002
1.604542e+002, 9.593882e+002
1.609364e+002, 9.591257e+002
1.614185e+002, 9.607219e+002
1.619006e+002, 9.627175e+002
1.623827e+002, 9.639382e+002
1.628648e+002, 9.637111e+002
1.633469e+002, 9.629238e+002
1.638291e+002, 9.616414e+002
1.643112e+002, 9.599518e+002
1.647933e+002, 9.586094e+002
1.652754e+002, 9.584465e+002
1.657575e+002, 9.586608e+002
1.662396e+002, 9.584091e+002
1.667218e+002, 9.564391e+002
1.672039e+002, 9.546212e+002
1.676860e+002, 9.541697e+002
1.681681e+002, 9.550859e+002
1.686502e+002, 9.566482e+002
1.691323e+002, 9.592784e+002
1.696145e+002, 9.620931e+002
1.700966e+002, 9.638668e+002
1.705787e+002, 9.630603e+002
1.710608e+002, 9.616410e+002
1.715429e+002, 9.615071e+002
1.720250e+002, 9.627592e+002
1.725072e+002, 9.639622e+002
1.729893e+002, 9.636363e+002
1.734714e+002, 9.625181e+002
1.739535e+002, 9.619657e+002
1.744356e+002, 9.637206e+002
1.749177e+002, 9.658547e+002
1.753999e+002, 9.656760e+002
1.758820e+002, 9.628727e+002
1.763641e+002, 9.598585e+002
1.768462e+002, 9.587933e+002
1.773283e+002, 9.592106e+002
1.778104e+002, 9.599230e+002
1.782926e+002, 9.607229e+002
1.787747e+002, 9.613422e+002
1.792568e+002, 9.610650e+002
1.797389e+002, 9.597012e+002
1.802210e+002, 9.584006e+002
1.807031e+002, 9.588201e+002
1.811853e+002, 9.605260e+002
1.816674e+002, 9.619584e+002
1.821495e+002, 9.622844e+002
1.826316e+002, 9.617693e+002
1.831137e+002, 9.609047e+002
1.835958e+002, 9.596384e+002
1.840780e+002, 9.583815e+002
1.845601e+002, 9.576543e+002
1.850422e+002, 9.574393e+002
1.855243e+002, 9.574482e+002
1.860064e+002, 9.579111e+002
1.864885e+002, 9.585685e+002
1.869707e+002, 9.582720e+002
1.874528e+002, 9.567577e+002
1.879349e+002, 9.548771e+002
1.884170e+002, 9.537256e+002
1.888991e+002, 9.533018e+002
1.893812e+002, 9.535831e+002
1.898634e+002, 9.552397e+002
1.903455e+002, 9.578783e+002
1.908276e+002, 9.589178e+002
1.913097e+002, 9.578758e+002
1.917918e+002, 9.558569e+002
1.922739e+002, 9.545467e+002
1.927561e+002, 9.539218e+002
1.932382e+002, 9.540309e+002
1.937203e+002, 9.552264e+002
1.942024e+002, 9.573942e+002
1.946845e+002, 9.592426e+002
1.951666e+002, 9.607935e+002
1.956488e+002, 9.617774e+002
1.961309e+002, 9.611771e+002
1.966130e+002, 9.587283e+002
1.970951e+002, 9.568379e+002
1.975772e+002, 9.573446e+002
1.980593e+002, 9.602924e+002
1.985415e+002, 9.621404e+002
1.990236e+002, 9.624391e+002
1.995057e+002, 9.617825e+002
1.999878e+002, 9.613945e+002
2.004699e+002, 9.612789e+002
2.009520e+002, 9.614192e+002
2.014342e+002, 9.619859e+002
2.019163e+002, 9.630582e+002
2.023984e+002, 9.635630e+002
2.028805e+002, 9.632670e+002
2.033626e+002, 9.625063e+002
2.038447e+002, 9.621165e+002
2.043269e+002, 9.621533e+002
2.048090e+002, 9.623503e+002
2.052911e+002, 9.625815e+002
2.057732e+002, 9.628541e+002
2.062553e+002, 9.631358e+002
2.067374e+002, 9.634827e+002
2.072196e+002, 9.638038e+002
2.077017e+002, 9.637679e+002
2.081838e+002, 9.632207e+002
2.086659e+002, 9.627527e+002
2.091480e+002, 9.627585e+002
2.096301e+002, 9.633734e+002
2.101123e+002, 9.638855e+002
2.105944e+002, 9.643174e+002
2.110765e+002, 9.646010e+002
2.115586e+002, 9.643583e+002
2.120407e+002, 9.631696e+002
2.125228e+002, 9.624067e+002
2.130050e+002, 9.630985e+002
2.134871e+002, 9.658618e+002
2.139692e+002, 9.677371e+002
2.144513e+002, 9.684064e+002
2.149334e+002, 9.681329e+002
2.154155e+002, 9.676200e+002
2.158977e+002, 9.666336e+002
2.163798e+002, 9.658358e+002
2.168619e+002, 9.657001e+002
2.173440e+002, 9.665822e+002
2.178261e+002, 9.669576e+002
2.183082e+002, 9.666371e+002
2.187904e+002, 9.657879e+002
2.192725e+002, 9.648513e+002
2.197546e+002, 9.636448e+002
2.202367e+002, 9.626877e+002
2.207188e+002, 9.623606e+002
2.212009e+002, 9.630638e+002
2.216831e+002, 9.632867e+002
2.221652e+002, 9.626966e+002
2.226473e+002, 9.617017e+002
2.231294e+002, 9.615850e+002
2.236115e+002, 9.628942e+002
2.240936e+002, 9.642200e+002
2.245758e+002, 9.649308e+002
2.250579e+002, 9.649443e+002
2.255400e+002, 9.645221e+002
2.260221e+002, 9.633984e+002
2.265042e+002, 9.619313e+002
2.269863e+002, 9.612028e+002
2.274685e+002, 9.616950e+002
2.279506e+002, 9.621649e+002
2.284327e+002, 9.619228e+002
2.289148e+002, 9.602285e+002
2.293969e+002, 9.595798e+002
2.298790e+002, 9.605035e+002
2.303612e+002, 9.623132e+002
2.308433e+002, 9.631609e+002
2.313254e+002, 9.621943e+002
2.318075e+002, 9.615401e+002
2.322896e+002, 9.623026e+002
2.327717e+002, 9.655538e+002
2.332539e+002, 9.674996e+002
2.337360e+002, 9.676125e+002
2.342181e+002, 9.665604e+002
2.347002e+002, 9.658195e+002
2.351823e+002, 9.653653e+002
2.356644e+002, 9.652487e+002
2.361466e+002, 9.655954e+002
2.366287e+002, 9.667829e+002
2.371108e+002, 9.673577e+002
2.375929e+002, 9.670885e+002
2.380750e+002, 9.662944e+002
2.385571e+002, 9.656719e+002
2.390393e+002, 9.655422e+002
2.395214e+002, 9.650867e+002
2.400035e+002, 9.638508e+002
2.404856e+002, 9.612512e+002
2.409677e+002, 9.597107e+002
2.414498e+002, 9.596954e+002
2.419320e+002, 9.605283e+002
2.424141e+002, 9.610256e+002
2.428962e+002, 9.611518e+002
2.433783e+002, 9.610452e+002
2.438604e+002, 9.607086e+002
2.443425e+002, 9.600467e+002
2.448247e+002, 9.595829e+002
2.453068e+002, 9.594763e+002
2.457889e+002, 9.594804e+002
2.462710e+002, 9.591543e+002
2.467531e+002, 9.582189e+002
2.472352e+002, 9.574144e+002
2.477174e+002, 9.569347e+002
2.481995e+002, 9.567802e+002
2.486816e+002, 9.569680e+002
2.491637e+002, 9.578187e+002
2.496458e+002, 9.587488e+002
2.501279e+002, 9.587979e+002
2.506101e+002, 9.571940e+002
2.510922e+002, 9.561559e+002
2.515743e+002, 9.565469e+002
2.520564e+002, 9.586731e+002
2.525385e+002, 9.597675e+002
2.530206e+002, 9.592758e+002
2.535028e+002, 9.582592e+002
2.539849e+002, 9.580931e+002
2.544670e+002, 9.592938e+002
2.549491e+002, 9.602599e+002
2.554312e+002, 9.606875e+002
2.559133e+002, 9.605813e+002
2.563955e+002, 9.597054e+002
2.568776e+002, 9.573202e+002
2.573597e+002, 9.549874e+002
2.578418e+002, 9.545983e+002
2.583239e+002, 9.572753e+002
2.588061e+002, 9.591627e+002
2.592882e+002, 9.591843e+002
2.597703e+002, 9.573764e+002
2.602524e+002, 9.565824e+002
2.607345e+002, 9.572348e+002
2.612166e+002, 9.582824e+002
2.616988e+002, 9.586931e+002
2.621809e+002, 9.580660e+002
2.626630e+002, 9.579857e+002
2.631451e+002, 9.589826e+002
2.636272e+002, 9.608821e+002
2.641093e+002, 9.619313e+002
2.645915e+002, 9.619000e+002
2.650736e+002, 9.614639e+002
2.655557e+002, 9.611428e+002
2.660378e+002, 9.610116e+002
2.665199e+002, 9.607636e+002
2.670020e+002, 9.602794e+002
2.674842e+002, 9.596487e+002
2.679663e+002, 9.593333e+002
2.684484e+002, 9.593488e+002
2.689305e+002, 9.596277e+002
2.694126e+002, 9.602355e+002
2.698947e+002, 9.613369e+002
2.703769e+002, 9.619971e+002
2.708590e+002, 9.619694e+002
2.713411e+002, 9.615140e+002
2.718232e+002, 9.615496e+002
2.723053e+002, 9.622548e+002
2.727874e+002, 9.628918e+002
2.732696e+002, 9.628421e+002
2.737517e+002, 9.618956e+002
2.742338e+002, 9.616878e+002
2.747159e+002, 9.624645e+002
2.751980e+002, 9.638877e+002
2.756801e+002, 9.652277e+002
2.761623e+002, 9.665106e+002
2.766444e+002, 9.676277e+002
2.771265e+002, 9.684799e+002
2.776086e+002, 9.690635e+002
2.780907e+002, 9.697003e+002
2.785728e+002, 9.704582e+002
2.790550e+002, 9.711978e+002
2.795371e+002, 9.716520e+002
2.800192e+002, 9.717985e+002
2.805013e+002, 9.718367e+002
2.809834e+002, 9.717530e+002
2.814655e+002, 9.715535e+002
2.819477e+002, 9.717090e+002
2.824298e+002, 9.723057e+002
2.829119e+002, 9.729918e+002
2.833940e+002, 9.731014e+002
2.838761e+002, 9.725999e+002
2.843582e+002, 9.724920e+002
2.848404e+002, 9.734045e+002
2.853225e+002, 9.750911e+002
2.858046e+002, 9.760276e+002
2.862867e+002, 9.760980e+002
2.867688e+002, 9.758936e+002
2.872509e+002, 9.761712e+002
2.877331e+002, 9.768810e+002
2.882152e+002, 9.773150e+002
2.886973e+002, 9.773362e+002
2.891794e+002, 9.769138e+002
2.896615e+002, 9.755336e+002
2.901436e+002, 9.730762e+002
2.906258e+002, 9.711188e+002
2.911079e+002, 9.717807e+002
2.915900e+002, 9.745137e+002
2.920721e+002, 9.762330e+002
2.925542e+002, 9.758705e+002
2.930363e+002, 9.743282e+002
2.935185e+002, 9.732816e+002
2.940006e+002, 9.727285e+002
2.944827e+002, 9.725316e+002
2.949648e+002, 9.727344e+002
2.954469e+002, 9.732147e+002
2.959290e+002, 9.735446e+002
2.964112e+002, 9.735320e+002
2.968933e+002, 9.735113e+002
2.973754e+002, 9.739550e+002
2.978575e+002, 9.748313e+002
2.983396e+002, 9.760190e+002
2.988217e+002, 9.781580e+002
2.993039e+002, 9.804407e+002
2.997860e+002, 9.809785e+002
3.002681e+002, 9.791742e+002
3.007502e+002, 9.767160e+002
3.012323e+002, 9.755474e+002
3.017144e+002, 9.753861e+002
3.021966e+002, 9.753273e+002
3.026787e+002, 9.747141e+002
3.031608e+002, 9.739697e+002
3.036429e+002, 9.738219e+002
3.041250e+002, 9.744258e+002
3.046071e+002, 9.749065e+002
3.050893e+002, 9.741775e+002
3.055714e+002, 9.727308e+002
3.060535e+002, 9.716246e+002
3.065356e+002, 9.717052e+002
3.070177e+002, 9.721110e+002
3.074998e+002, 9.719794e+002
3.079820e+002, 9.712864e+002
3.084641e+002, 9.705278e+002
3.089462e+002, 9.696709e+002
3.094283e+002, 9.690648e+002
3.099104e+002, 9.692060e+002
3.103925e+002, 9.716769e+002
3.108747e+002, 9.738674e+002
3.113568e+002, 9.733673e+002
3.118389e+002, 9.705664e+002
3.123210e+002, 9.683318e+002
3.128031e+002, 9.689355e+002
3.132852e+002, 9.705310e+002
3.137674e+002, 9.713170e+002
3.142495e+002, 9.702302e+002
3.147316e+002, 9.689818e+002
3.152137e+002, 9.682242e+002
3.156958e+002, 9.679413e+002
3.161779e+002, 9.680876e+002
3.166601e+002, 9.692079e+002
3.171422e+002, 9.703712e+002
3.176243e+002, 9.708164e+002
3.181064e+002, 9.697787e+002
3.185885e+002, 9.693161e+002
3.190706e+002, 9.708685e+002
3.195528e+002, 9.734134e+002
3.200349e+002, 9.749777e+002
3.205170e+002, 9.742177e+002
3.209991e+002, 9.729935e+002
3.214812e+002, 9.720187e+002
3.219633e+002, 9.713478e+002
3.224455e+002, 9.709852e+002
3.229276e+002, 9.710974e+002
3.234097e+002, 9.714636e+002
3.238918e+002, 9.718132e+002
3.243739e+002, 9.723574e+002
3.248560e+002, 9.726486e+002
3.253382e+002, 9.723197e+002
3.258203e+002, 9.712294e+002
3.263024e+002, 9.709297e+002
3.267845e+002, 9.726583e+002
3.272666e+002, 9.746180e+002
3.277487e+002, 9.753712e+002
3.282309e+002, 9.731010e+002
3.287130e+002, 9.717521e+002
3.291951e+002, 9.721599e+002
3.296772e+002, 9.741010e+002
3.301593e+002, 9.753010e+002
3.306414e+002, 9.748138e+002
3.311236e+002, 9.744600e+002
3.316057e+002, 9.753377e+002
3.320878e+002, 9.788231e+002
3.325699e+002, 9.809875e+002
3.330520e+002, 9.810540e+002
3.335341e+002, 9.798131e+002
3.340163e+002, 9.795244e+002
3.344984e+002, 9.807689e+002
3.349805e+002, 9.819769e+002
3.354626e+002, 9.823367e+002
3.359447e+002, 9.813688e+002
3.364268e+002, 9.815439e+002
3.369090e+002, 9.833615e+002
3.373911e+002, 9.858283e+002
3.378732e+002, 9.873588e+002
3.383553e+002, 9.878122e+002
3.388374e+002, 9.878338e+002
3.393195e+002, 9.874172e+002
3.398017e+002, 9.866100e+002
3.402838e+002, 9.866000e+002
3.407659e+002, 9.875948e+002
3.412480e+002, 9.888909e+002
3.417301e+002, 9.895848e+002
3.422122e+002, 9.895897e+002
3.426944e+002, 9.903644e+002
3.431765e+002, 9.925985e+002
3.436586e+002, 9.956586e+002
3.441407e+002, 9.971802e+002
3.446228e+002, 9.970495e+002
3.451049e+002, 9.966273e+002
3.455871e+002, 9.968000e+002
3.460692e+002, 9.975430e+002
3.465513e+002, 9.987441e+002
3.470334e+002, 1.000496e+003
3.475155e+002, 1.002465e+003
3.479977e+002, 1.004157e+003
3.484798e+002, 1.005581e+003
3.489619e+002, 1.006702e+003
3.494440e+002, 1.007109e+003
3.499261e+002, 1.007245e+003
3.504082e+002, 1.008270e+003
3.508904e+002, 1.010363e+003
3.513725e+002, 1.012632e+003
3.518546e+002, 1.014165e+003
3.523367e+002, 1.015146e+003
3.528188e+002, 1.016084e+003
3.533009e+002, 1.017411e+003
3.537831e+002, 1.018695e+003
3.542652e+002, 1.019377e+003
3.547473e+002, 1.019471e+003
3.552294e+002, 1.019348e+003
3.557115e+002, 1.019021e+003
3.561936e+002, 1.018716e+003
3.566758e+002, 1.018729e+003
3.571579e+002, 1.019165e+003
3.576400e+002, 1.019921e+003
3.581221e+002, 1.021560e+003
3.586042e+002, 1.023633e+003
3.590863e+002, 1.024568e+003
3.595685e+002, 1.022159e+003
3.600506e+002, 1.019196e+003
3.605327e+002, 1.017870e+003
3.610148e+002, 1.019098e+003
3.614969e+002, 1.020525e+003
3.619790e+002, 1.021429e+003
3.624612e+002, 1.021861e+003
3.629433e+002, 1.021922e+003
3.634254e+002, 1.021025e+003
3.639075e+002, 1.020292e+003
3.643896e+002, 1.020316e+003
3.648717e+002, 1.021256e+003
3.653539e+002, 1.021924e+003
3.658360e+002, 1.022008e+003
3.663181e+002, 1.021737e+003
3.668002e+002, 1.021328e+003
3.672823e+002, 1.020448e+003
3.677644e+002, 1.019803e+003
3.682466e+002, 1.019663e+003
3.687287e+002, 1.019960e+003
3.692108e+002, 1.019930e+003
3.696929e+002, 1.019340e+003
3.701750e+002, 1.018632e+003
3.706571e+002, 1.018071e+003
3.711393e+002, 1.018092e+003
3.716214e+002, 1.017475e+003
3.721035e+002, 1.015825e+003
3.725856e+002, 1.013662e+003
3.730677e+002, 1.012158e+003
3.735498e+002, 1.011356e+003
3.740320e+002, 1.011143e+003
3.745141e+002, 1.011769e+003
3.749962e+002, 1.013455e+003
3.754783e+002, 1.013894e+003
3.759604e+002, 1.012652e+003
3.764425e+002, 1.010871e+003
3.769247e+002, 1.009961e+003
3.774068e+002, 1.010071e+003
3.778889e+002, 1.010152e+003
3.783710e+002, 1.009916e+003
3.788531e+002, 1.009453e+003
3.793352e+002, 1.009285e+003
3.798174e+002, 1.009509e+003
3.802995e+002, 1.009372e+003
3.807816e+002, 1.007854e+003
3.812637e+002, 1.005188e+003
3.817458e+002, 1.003541e+003
3.822279e+002, 1.003401e+003
3.827101e+002, 1.003957e+003
3.831922e+002, 1.003937e+003
3.836743e+002, 1.003404e+003
3.841564e+002, 1.002807e+003
3.846385e+002, 1.002328e+003
3.851206e+002, 1.001962e+003
3.856028e+002, 1.001758e+003
3.860849e+002, 1.001740e+003
3.865670e+002, 1.001627e+003
3.870491e+002, 1.001026e+003
3.875312e+002, 1.000145e+003
3.880133e+002, 9.994105e+002
3.884955e+002, 9.993444e+002
3.889776e+002, 9.991749e+002
3.894597e+002, 9.980025e+002
3.899418e+002, 9.959756e+002
3.904239e+002, 9.940064e+002
3.909060e+002, 9.927264e+002
3.913882e+002, 9.917078e+002
3.918703e+002, 9.904992e+002
3.923524e+002, 9.887332e+002
3.928345e+002, 9.873264e+002
3.933166e+002, 9.870293e+002
3.937987e+002, 9.873860e+002
3.942809e+002, 9.874857e+002
3.947630e+002, 9.867609e+002
3.952451e+002, 9.859431e+002
3.957272e+002, 9.853785e+002
3.962093e+002, 9.851561e+002
3.966914e+002, 9.847845e+002
3.971736e+002, 9.839796e+002
3.976557e+002, 9.830601e+002
3.981378e+002, 9.823142e+002
3.986199e+002, 9.822911e+002
3.991020e+002, 9.818405e+002
3.995841e+002, 9.803494e+002
4.000663e+002, 9.780884e+002
4.005484e+002, 9.769434e+002
4.010305e+002, 9.778457e+002
4.015126e+002, 9.788643e+002
4.019947e+002, 9.790379e+002
4.024768e+002, 9.779421e+002
4.029590e+002, 9.770908e+002
4.034411e+002, 9.767806e+002
4.039232e+002, 9.765255e+002
4.044053e+002, 9.752507e+002
4.048874e+002, 9.724366e+002
4.053695e+002, 9.702625e+002
4.058517e+002, 9.697486e+002
4.063338e+002, 9.707372e+002
4.068159e+002, 9.704330e+002
4.072980e+002, 9.685156e+002
4.077801e+002, 9.664403e+002
4.082622e+002, 9.657216e+002
4.087444e+002, 9.662910e+002
4.092265e+002, 9.667794e+002
4.097086e+002, 9.668748e+002
4.101907e+002, 9.667999e+002
4.106728e+002, 9.672504e+002
4.111549e+002, 9.681338e+002
4.116371e+002, 9.684899e+002
4.121192e+002, 9.672355e+002
4.126013e+002, 9.650852e+002
4.130834e+002, 9.635156e+002
4.135655e+002, 9.626277e+002
4.140476e+002, 9.624004e+002
4.145298e+002, 9.635239e+002
4.150119e+002, 9.652468e+002
4.154940e+002, 9.660758e+002
4.159761e+002, 9.645338e+002
4.164582e+002, 9.625047e+002
4.169403e+002, 9.616943e+002
4.174225e+002, 9.619355e+002
4.179046e+002, 9.622159e+002
4.183867e+002, 9.618532e+002
4.188688e+002, 9.613505e+002
4.193509e+002, 9.612015e+002
4.198330e+002, 9.618152e+002
4.203152e+002, 9.621331e+002
4.207973e+002, 9.616830e+002
4.212794e+002, 9.606867e+002
4.217615e+002, 9.595433e+002
4.222436e+002, 9.574686e+002
4.227257e+002, 9.561114e+002
4.232079e+002, 9.564836e+002
4.236900e+002, 9.589673e+002
4.241721e+002, 9.603593e+002
4.246542e+002, 9.594694e+002
4.251363e+002, 9.579847e+002
4.256184e+002, 9.571254e+002
4.261006e+002, 9.573949e+002
4.265827e+002, 9.575018e+002
4.270648e+002, 9.571959e+002
4.275469e+002, 9.566442e+002
4.280290e+002, 9.565123e+002
4.285111e+002, 9.570476e+002
4.289933e+002, 9.574694e+002
4.294754e+002, 9.572330e+002
4.299575e+002, 9.561131e+002
4.304396e+002, 9.561086e+002
4.309217e+002, 9.576154e+002
4.314038e+002, 9.593666e+002
4.318860e+002, 9.596264e+002
4.323681e+002, 9.583445e+002
4.328502e+002, 9.569736e+002
4.333323e+002, 9.557820e+002
4.338144e+002, 9.548576e+002
4.342965e+002, 9.545197e+002
4.347787e+002, 9.547753e+002
4.352608e+002, 9.552214e+002
4.357429e+002, 9.559073e+002
4.362250e+002, 9.565729e+002
4.367071e+002, 9.563322e+002
4.371892e+002, 9.548808e+002
4.376714e+002, 9.534525e+002
4.381535e+002, 9.535081e+002
4.386356e+002, 9.546028e+002
4.391177e+002, 9.557586e+002
4.395998e+002, 9.568753e+002
4.400819e+002, 9.576209e+002
4.405641e+002, 9.573508e+002
4.410462e+002, 9.561830e+002
4.415283e+002, 9.554351e+002
4.420104e+002, 9.565287e+002
4.424925e+002, 9.579503e+002
4.429746e+002, 9.582986e+002
4.434568e+002, 9.563749e+002
4.439389e+002, 9.549894e+002
4.444210e+002, 9.554293e+002
4.449031e+002, 9.569469e+002
4.453852e+002, 9.581243e+002
4.458673e+002, 9.582867e+002
4.463495e+002, 9.584446e+002
4.468316e+002, 9.590153e+002
4.473137e+002, 9.601324e+002
4.477958e+002, 9.608137e+002
4.482779e+002, 9.609122e+002
4.487600e+002, 9.607187e+002
4.492422e+002, 9.604011e+002
4.497243e+002, 9.597629e+002
4.502064e+002, 9.594539e+002
4.506885e+002, 9.596203e+002
4.511706e+002, 9.600997e+002
4.516527e+002, 9.605237e+002
4.521349e+002, 9.609862e+002
4.526170e+002, 9.610345e+002
4.530991e+002, 9.601307e+002
4.535812e+002, 9.583328e+002
4.540633e+002, 9.578052e+002
4.545454e+002, 9.586898e+002
4.550276e+002, 9.600533e+002
4.555097e+002, 9.607553e+002
4.559918e+002, 9.609733e+002
4.564739e+002, 9.619268e+002
4.569560e+002, 9.644854e+002
4.574381e+002, 9.670523e+002
4.579203e+002, 9.666848e+002
4.584024e+002, 9.638959e+002
4.588845e+002, 9.610396e+002
4.593666e+002, 9.596149e+002
4.598488e+002, 9.589033e+002
4.603309e+002, 9.580339e+002
4.608130e+002, 9.569120e+002
4.612951e+002, 9.559744e+002
4.617772e+002, 9.556777e+002
4.622593e+002, 9.557054e+002
4.627415e+002, 9.556947e+002
4.632236e+002, 9.556823e+002
4.637057e+002, 9.554600e+002
4.641878e+002, 9.547999e+002
4.646699e+002, 9.538376e+002
4.651520e+002, 9.530264e+002
4.656342e+002, 9.523105e+002
4.661163e+002, 9.519452e+002
4.665984e+002, 9.522676e+002
4.670805e+002, 9.539666e+002
4.675626e+002, 9.543772e+002
4.680447e+002, 9.521870e+002
4.685269e+002, 9.494798e+002
4.690090e+002, 9.484642e+002
4.694911e+002, 9.504258e+002
4.699732e+002, 9.516121e+002
4.704553e+002, 9.511290e+002
4.709374e+002, 9.494700e+002
4.714196e+002, 9.488574e+002
4.719017e+002, 9.495572e+002
4.723838e+002, 9.504612e+002
4.728659e+002, 9.509719e+002
4.733480e+002, 9.510815e+002
4.738301e+002, 9.512485e+002
4.743123e+002, 9.515178e+002
4.747944e+002, 9.516642e+002
4.752765e+002, 9.514368e+002
4.757586e+002, 9.508492e+002
4.762407e+002, 9.499154e+002
4.767228e+002, 9.483147e+002
4.772050e+002, 9.467380e+002
4.776871e+002, 9.467086e+002
4.781692e+002, 9.478790e+002
4.786513e+002, 9.485355e+002
4.791334e+002, 9.468276e+002
4.796155e+002, 9.444725e+002
4.800977e+002, 9.435064e+002
4.805798e+002, 9.443541e+002
4.810619e+002, 9.451647e+002
4.815440e+002, 9.445049e+002
4.820261e+002, 9.433176e+002
4.825082e+002, 9.426881e+002
4.829904e+002, 9.438868e+002
4.834725e+002, 9.447036e+002
4.839546e+002, 9.440995e+002
4.844367e+002, 9.424313e+002
4.849188e+002, 9.413070e+002
4.854009e+002, 9.415551e+002
4.858831e+002, 9.418326e+002
4.863652e+002, 9.415822e+002
4.868473e+002, 9.406277e+002
4.873294e+002, 9.397188e+002
4.878115e+002, 9.387854e+002
4.882936e+002, 9.379316e+002
4.887758e+002, 9.372745e+002
4.892579e+002, 9.368635e+002
4.897400e+002, 9.364277e+002
4.902221e+002, 9.358812e+002
4.907042e+002, 9.352957e+002
4.911863e+002, 9.349508e+002
4.916685e+002, 9.348707e+002
4.921506e+002, 9.347968e+002
4.926327e+002, 9.348173e+002
4.931148e+002, 9.347888e+002
4.935969e+002, 9.337956e+002
4.940790e+002, 9.317357e+002
4.945612e+002, 9.297164e+002
4.950433e+002, 9.289647e+002
4.955254e+002, 9.290652e+002
4.960075e+002, 9.291133e+002
4.964896e+002, 9.289694e+002
4.969717e+002, 9.285294e+002
4.974539e+002, 9.271519e+002
4.979360e+002, 9.253436e+002
4.984181e+002, 9.244736e+002
4.989002e+002, 9.261376e+002
4.993823e+002, 9.281883e+002
4.998644e+002, 9.292766e+002
5.003466e+002, 9.292452e+002
5.008287e+002, 9.290282e+002
5.013108e+002, 9.288161e+002
5.017929e+002, 9.285547e+002
5.022750e+002, 9.282031e+002
5.027571e+002, 9.277906e+002
5.032393e+002, 9.271917e+002
5.037214e+002, 9.261348e+002
5.042035e+002, 9.249387e+002
5.046856e+002, 9.243135e+002
5.051677e+002, 9.245812e+002
5.056498e+002, 9.248408e+002
5.061320e+002, 9.248267e+002
5.066141e+002, 9.245559e+002
5.070962e+002, 9.243572e+002
5.075783e+002, 9.243120e+002
5.080604e+002, 9.241231e+002
5.085425e+002, 9.234240e+002
5.090247e+002, 9.222816e+002
5.095068e+002, 9.213621e+002
5.099889e+002, 9.207005e+002
5.104710e+002, 9.204427e+002
5.109531e+002, 9.212816e+002
5.114352e+002, 9.228258e+002
5.119174e+002, 9.236220e+002
5.123995e+002, 9.225633e+002
5.128816e+002, 9.207541e+002
5.133637e+002, 9.191821e+002
5.138458e+002, 9.178779e+002
5.143279e+002, 9.170684e+002
5.148101e+002, 9.172364e+002
5.152922e+002, 9.177127e+002
5.157743e+002, 9.179478e+002
5.162564e+002, 9.177809e+002
5.167385e+002, 9.175887e+002
5.172206e+002, 9.175754e+002
5.177028e+002, 9.175656e+002
5.181849e+002, 9.173629e+002
5.186670e+002, 9.165512e+002
5.191491e+002, 9.160016e+002
5.196312e+002, 9.159761e+002
5.201133e+002, 9.163499e+002
5.205955e+002, 9.165852e+002
5.210776e+002, 9.167398e+002
5.215597e+002, 9.167077e+002
5.220418e+002, 9.164812e+002
5.225239e+002, 9.160866e+002
5.230060e+002, 9.152401e+002
5.234882e+002, 9.137463e+002
5.239703e+002, 9.123796e+002
5.244524e+002, 9.120566e+002
5.249345e+002, 9.127174e+002
5.254166e+002, 9.134366e+002
5.258987e+002, 9.140589e+002
5.263809e+002, 9.146224e+002
5.268630e+002, 9.151530e+002
5.273451e+002, 9.156639e+002
5.278272e+002, 9.162277e+002
5.283093e+002, 9.171368e+002
5.287914e+002, 9.179437e+002
5.292736e+002, 9.180137e+002
5.297557e+002, 9.173779e+002
5.302378e+002, 9.167674e+002
5.307199e+002, 9.164835e+002
5.312020e+002, 9.164499e+002
5.316841e+002, 9.166516e+002
5.321663e+002, 9.172537e+002
5.326484e+002, 9.177061e+002
5.331305e+002, 9.178349e+002
5.336126e+002, 9.177556e+002
5.340947e+002, 9.176374e+002
5.345768e+002, 9.176564e+002
5.350590e+002, 9.174605e+002
5.355411e+002, 9.169395e+002
5.360232e+002, 9.161586e+002
5.365053e+002, 9.154951e+002
5.369874e+002, 9.150447e+002
5.374695e+002, 9.145626e+002
5.379517e+002, 9.138583e+002
5.384338e+002, 9.129037e+002
5.389159e+002, 9.122840e+002
5.393980e+002, 9.119924e+002
5.398801e+002, 9.120558e+002
5.403622e+002, 9.127512e+002
5.408444e+002, 9.138987e+002
5.413265e+002, 9.146752e+002
5.418086e+002, 9.148426e+002
5.422907e+002, 9.146705e+002
5.427728e+002, 9.144355e+002
5.432549e+002, 9.141326e+002
5.437371e+002, 9.137676e+002
5.442192e+002, 9.129857e+002
5.447013e+002, 9.124051e+002
5.451834e+002, 9.127762e+002
5.456655e+002, 9.140280e+002
5.461476e+002, 9.148327e+002
5.466298e+002, 9.139835e+002
5.471119e+002, 9.129590e+002
5.475940e+002, 9.128286e+002
5.480761e+002, 9.144927e+002
5.485582e+002, 9.155106e+002
5.490403e+002, 9.153094e+002
5.495225e+002, 9.145771e+002
5.500046e+002, 9.141287e+002
5.504867e+002, 9.141443e+002
5.509688e+002, 9.140547e+002
5.514509e+002, 9.136647e+002
5.519330e+002, 9.131175e+002
5.524152e+002, 9.129932e+002
5.528973e+002, 9.133368e+002
5.533794e+002, 9.137565e+002
5.538615e+002, 9.140575e+002
5.543436e+002, 9.142514e+002
5.548257e+002, 9.144016e+002
5.553079e+002, 9.144949e+002
5.557900e+002, 9.146535e+002
5.562721e+002, 9.152718e+002
5.567542e+002, 9.159797e+002
5.572363e+002, 9.159589e+002
5.577184e+002, 9.147626e+002
5.582006e+002, 9.136367e+002
5.586827e+002, 9.138816e+002
5.591648e+002, 9.148176e+002
5.596469e+002, 9.152939e+002
5.601290e+002, 9.144811e+002
5.606111e+002, 9.135336e+002
5.610933e+002, 9.126572e+002
5.615754e+002, 9.119411e+002
5.620575e+002, 9.119044e+002
5.625396e+002, 9.138102e+002
5.630217e+002, 9.153039e+002
5.635038e+002, 9.153171e+002
5.639860e+002, 9.133859e+002
5.644681e+002, 9.121148e+002
5.649502e+002, 9.115895e+002
5.654323e+002, 9.115819e+002
5.659144e+002, 9.119726e+002
5.663965e+002, 9.127971e+002
5.668787e+002, 9.136995e+002
5.673608e+002, 9.147756e+002
5.678429e+002, 9.156198e+002
5.683250e+002, 9.151594e+002
5.688071e+002, 9.136574e+002
5.692892e+002, 9.125421e+002
5.697714e+002, 9.126124e+002
5.702535e+002, 9.133210e+002
5.707356e+002, 9.140065e+002
5.712177e+002, 9.146865e+002
5.716998e+002, 9.154120e+002
5.721819e+002, 9.164017e+002
5.726641e+002, 9.173307e+002
5.731462e+002, 9.179919e+002
5.736283e+002, 9.183849e+002
5.741104e+002, 9.183510e+002
5.745925e+002, 9.172446e+002
5.750746e+002, 9.159934e+002
5.755568e+002, 9.154363e+002
5.760389e+002, 9.163605e+002
5.765210e+002, 9.169916e+002
5.770031e+002, 9.172552e+002
5.774852e+002, 9.171946e+002
5.779673e+002, 9.168488e+002
5.784495e+002, 9.161117e+002
5.789316e+002, 9.154559e+002
5.794137e+002, 9.150702e+002
5.798958e+002, 9.148885e+002
5.803779e+002, 9.144852e+002
5.808600e+002, 9.138520e+002
5.813422e+002, 9.134446e+002
5.818243e+002, 9.138250e+002
5.823064e+002, 9.146273e+002
5.827885e+002, 9.148688e+002
5.832706e+002, 9.144339e+002
5.837527e+002, 9.141402e+002
5.842349e+002, 9.150846e+002
5.847170e+002, 9.163845e+002
5.851991e+002, 9.168754e+002
5.856812e+002, 9.157249e+002
5.861633e+002, 9.146163e+002
5.866454e+002, 9.142263e+002
5.871276e+002, 9.143505e+002
5.876097e+002, 9.146282e+002
5.880918e+002, 9.151705e+002
5.885739e+002, 9.156472e+002
5.890560e+002, 9.159072e+002
5.895381e+002, 9.160076e+002
5.900203e+002, 9.164561e+002
5.905024e+002, 9.176387e+002
5.909845e+002, 9.184211e+002
5.914666e+002, 9.181668e+002
5.919487e+002, 9.168762e+002
5.924308e+002, 9.154218e+002
5.929130e+002, 9.137092e+002
5.933951e+002, 9.123895e+002
5.938772e+002, 9.123453e+002
5.943593e+002, 9.132576e+002
5.948414e+002, 9.141205e+002
5.953235e+002, 9.147868e+002
5.958057e+002, 9.152464e+002
5.962878e+002, 9.154666e+002
5.967699e+002, 9.154677e+002
5.972520e+002, 9.152882e+002
5.977341e+002, 9.144216e+002
5.982162e+002, 9.138668e+002
5.986984e+002, 9.143993e+002
5.991805e+002, 9.157014e+002
5.996626e+002, 9.166313e+002
6.001447e+002, 9.165696e+002
6.006268e+002, 9.164177e+002
6.011089e+002, 9.164979e+002
6.015911e+002, 9.168281e+002
6.020732e+002, 9.171270e+002
6.025553e+002, 9.173428e+002
6.030374e+002, 9.176097e+002
6.035195e+002, 9.180090e+002
6.040016e+002, 9.185398e+002
6.044838e+002, 9.193929e+002
6.049659e+002, 9.207650e+002
6.054480e+002, 9.218404e+002
6.059301e+002, 9.208645e+002
6.064122e+002, 9.185125e+002
6.068943e+002, 9.176495e+002
6.073765e+002, 9.196744e+002
6.078586e+002, 9.224283e+002
6.083407e+002, 9.237111e+002
6.088228e+002, 9.238375e+002
6.093049e+002, 9.235466e+002
6.097870e+002, 9.225079e+002
6.102692e+002, 9.217342e+002
6.107513e+002, 9.219816e+002
6.112334e+002, 9.231611e+002
6.117155e+002, 9.240832e+002
6.121976e+002, 9.243878e+002
6.126797e+002, 9.245012e+002
6.131619e+002, 9.245566e+002
6.136440e+002, 9.244707e+002
6.141261e+002, 9.248221e+002
6.146082e+002, 9.259608e+002
6.150903e+002, 9.270045e+002
6.155724e+002, 9.269015e+002
6.160546e+002, 9.255865e+002
6.165367e+002, 9.250940e+002
6.170188e+002, 9.258064e+002
6.175009e+002, 9.270430e+002
6.179830e+002, 9.279672e+002
6.184651e+002, 9.286000e+002
6.189473e+002, 9.290009e+002
6.194294e+002, 9.290587e+002
6.199115e+002, 9.290366e+002
6.203936e+002, 9.290957e+002
6.208757e+002, 9.292696e+002
6.213578e+002, 9.296620e+002
6.218400e+002, 9.307733e+002
6.223221e+002, 9.317159e+002
6.228042e+002, 9.318976e+002
6.232863e+002, 9.312888e+002
6.237684e+002, 9.309166e+002
6.242505e+002, 9.308714e+002
6.247327e+002, 9.311036e+002
6.252148e+002, 9.316637e+002
6.256969e+002, 9.327032e+002
6.261790e+002, 9.334744e+002
6.266611e+002, 9.339504e+002
6.271432e+002, 9.342103e+002
6.276254e+002, 9.343323e+002
6.281075e+002, 9.343137e+002
6.285896e+002, 9.340297e+002
6.290717e+002, 9.333474e+002
6.295538e+002, 9.327079e+002
6.300359e+002, 9.329174e+002
6.305181e+002, 9.336443e+002
6.310002e+002, 9.340552e+002
6.314823e+002, 9.333199e+002
6.319644e+002, 9.326281e+002
6.324465e+002, 9.330267e+002
6.329286e+002, 9.341887e+002
6.334108e+002, 9.350872e+002
6.338929e+002, 9.353551e+002
6.343750e+002, 9.353174e+002
6.348571e+002, 9.351003e+002
6.353392e+002, 9.347094e+002
6.358214e+002, 9.340204e+002
6.363035e+002, 9.326660e+002
6.367856e+002, 9.315490e+002
6.372677e+002, 9.312321e+002
6.377498e+002, 9.318227e+002
6.382319e+002, 9.326289e+002
6.387141e+002, 9.337853e+002
6.391962e+002, 9.347128e+002
6.396783e+002, 9.347766e+002
6.401604e+002, 9.341035e+002
6.406425e+002, 9.329717e+002
6.411246e+002, 9.311480e+002
6.416068e+002, 9.298115e+002
6.420889e+002, 9.306023e+002
6.425710e+002, 9.326384e+002
6.430531e+002, 9.343856e+002
6.435352e+002, 9.350064e+002
6.440173e+002, 9.354938e+002
6.444995e+002, 9.362906e+002
6.449816e+002, 9.372648e+002
6.454637e+002, 9.380720e+002
6.459458e+002, 9.386889e+002
6.464279e+002, 9.390382e+002
6.469100e+002, 9.388596e+002
6.473922e+002, 9.382458e+002
6.478743e+002, 9.385508e+002
6.483564e+002, 9.400128e+002
6.488385e+002, 9.416787e+002
6.493206e+002, 9.432653e+002
6.498027e+002, 9.446940e+002
6.502849e+002, 9.449228e+002
6.507670e+002, 9.438968e+002
6.512491e+002, 9.426296e+002
6.517312e+002, 9.413936e+002
6.522133e+002, 9.407269e+002
6.526954e+002, 9.419820e+002
6.531776e+002, 9.460342e+002
6.536597e+002, 9.492830e+002
6.541418e+002, 9.488875e+002
6.546239e+002, 9.467764e+002
6.551060e+002, 9.451993e+002
6.555881e+002, 9.447150e+002
6.560703e+002, 9.447846e+002
6.565524e+002, 9.456791e+002
6.570345e+002, 9.469972e+002
6.575166e+002, 9.480760e+002
6.579987e+002, 9.489816e+002
6.584808e+002, 9.494550e+002
6.589630e+002, 9.492487e+002
6.594451e+002, 9.486572e+002
6.599272e+002, 9.488934e+002
6.604093e+002, 9.499618e+002
6.608914e+002, 9.506903e+002
6.613735e+002, 9.498871e+002
6.618557e+002, 9.485365e+002
6.623378e+002, 9.487014e+002
6.628199e+002, 9.502226e+002
6.633020e+002, 9.515700e+002
6.637841e+002, 9.516668e+002
6.642662e+002, 9.512701e+002
6.647484e+002, 9.508990e+002
6.652305e+002, 9.505984e+002
6.657126e+002, 9.504974e+002
6.661947e+002, 9.504830e+002
6.666768e+002, 9.507916e+002
6.671589e+002, 9.516211e+002
6.676411e+002, 9.534235e+002
6.681232e+002, 9.547460e+002
6.686053e+002, 9.555285e+002
6.690874e+002, 9.558802e+002
6.695695e+002, 9.557244e+002
6.700516e+002, 9.550602e+002
6.705338e+002, 9.549754e+002
6.710159e+002, 9.558329e+002
6.714980e+002, 9.569919e+002
6.719801e+002, 9.574863e+002
6.724622e+002, 9.574981e+002
6.729443e+002, 9.575155e+002
6.734265e+002, 9.577909e+002
6.739086e+002, 9.581110e+002
6.743907e+002, 9.584788e+002
6.748728e+002, 9.588053e+002
6.753549e+002, 9.587991e+002
6.758370e+002, 9.578368e+002
6.763192e+002, 9.570839e+002
6.768013e+002, 9.569470e+002
6.772834e+002, 9.573977e+002
6.777655e+002, 9.583179e+002
6.782476e+002, 9.601106e+002
6.787297e+002, 9.615247e+002
6.792119e+002, 9.616911e+002
6.796940e+002, 9.606969e+002
6.801761e+002, 9.604066e+002
6.806582e+002, 9.608783e+002
6.811403e+002, 9.613953e+002
6.816224e+002, 9.609436e+002
6.821046e+002, 9.602025e+002
6.825867e+002, 9.607188e+002
6.830688e+002, 9.628452e+002
6.835509e+002, 9.647891e+002
6.840330e+002, 9.651733e+002
6.845151e+002, 9.648333e+002
6.849973e+002, 9.646043e+002
6.854794e+002, 9.644851e+002
6.859615e+002, 9.647718e+002
6.864436e+002, 9.658521e+002
6.869257e+002, 9.672105e+002
6.874078e+002, 9.682878e+002
6.878900e+002, 9.691304e+002
6.883721e+002, 9.695384e+002
6.888542e+002, 9.692582e+002
6.893363e+002, 9.688184e+002
6.898184e+002, 9.694995e+002
6.903005e+002, 9.712003e+002
6.907827e+002, 9.726862e+002
6.912648e+002, 9.734714e+002
6.917469e+002, 9.737870e+002
6.922290e+002, 9.735528e+002
6.927111e+002, 9.730462e+002
6.931932e+002, 9.731902e+002
6.936754e+002, 9.753511e+002
6.941575e+002, 9.774807e+002
6.946396e+002, 9.781219e+002
6.951217e+002, 9.773864e+002
6.956038e+002, 9.773062e+002
6.960859e+002, 9.789523e+002
6.965681e+002, 9.804838e+002
6.970502e+002, 9.811759e+002
6.975323e+002, 9.809919e+002
6.980144e+002, 9.808771e+002
6.984965e+002, 9.808242e+002
6.989786e+002, 9.808918e+002
6.994608e+002, 9.811299e+002
6.999429e+002, 9.815389e+002
7.004250e+002, 9.821334e+002
7.009071e+002, 9.829326e+002
7.013892e+002, 9.837437e+002
7.018713e+002, 9.844005e+002
7.023535e+002, 9.849745e+002
7.028356e+002, 9.855940e+002
7.033177e+002, 9.863785e+002
7.037998e+002, 9.869108e+002
7.042819e+002, 9.864847e+002
7.047640e+002, 9.859877e+002
7.052462e+002, 9.864083e+002
7.057283e+002, 9.882510e+002
7.062104e+002, 9.902233e+002
7.066925e+002, 9.924412e+002
7.071746e+002, 9.945967e+002
7.076567e+002, 9.962208e+002
7.081389e+002, 9.972918e+002
7.086210e+002, 9.978929e+002
7.091031e+002, 9.978278e+002
7.095852e+002, 9.977100e+002
7.100673e+002, 9.987247e+002
7.105494e+002, 1.000562e+003
7.110316e+002, 1.002312e+003
7.115137e+002, 1.003834e+003
7.119958e+002, 1.004860e+003
7.124779e+002, 1.004561e+003
7.129600e+002, 1.003553e+003
7.134421e+002, 1.003722e+003
7.139243e+002, 1.006812e+003
7.144064e+002, 1.009840e+003
7.148885e+002, 1.011920e+003
7.153706e+002, 1.013156e+003
7.158527e+002, 1.014154e+003
7.163348e+002, 1.014765e+003
7.168170e+002, 1.015576e+003
7.172991e+002, 1.017068e+003
7.177812e+002, 1.019014e+003
7.182633e+002, 1.019989e+003
7.187454e+002, 1.020028e+003
7.192275e+002, 1.020191e+003
7.197097e+002, 1.021304e+003
7.201918e+002, 1.022932e+003
7.206739e+002, 1.024698e+003
7.211560e+002, 1.026559e+003
7.216381e+002, 1.028211e+003
7.221202e+002, 1.029285e+003
7.226024e+002, 1.030248e+003
7.230845e+002, 1.031371e+003
7.235666e+002, 1.032610e+003
7.240487e+002, 1.034295e+003
7.245308e+002, 1.036675e+003
7.250129e+002, 1.039209e+003
7.254951e+002, 1.041477e+003
7.259772e+002, 1.043489e+003
7.264593e+002, 1.045421e+003
7.269414e+002, 1.047349e+003
7.274235e+002, 1.048888e+003
7.279056e+002, 1.049039e+003
7.283878e+002, 1.048533e+003
7.288699e+002, 1.049139e+003
7.293520e+002, 1.051715e+003
7.298341e+002, 1.054111e+003
7.303162e+002, 1.054182e+003
7.307983e+002, 1.053478e+003
7.312805e+002, 1.053952e+003
7.317626e+002, 1.057319e+003
7.322447e+002, 1.060254e+003
7.327268e+002, 1.062354e+003
7.332089e+002, 1.063909e+003
7.336910e+002, 1.065268e+003
7.341732e+002, 1.066295e+003
7.346553e+002, 1.067885e+003
7.351374e+002, 1.070463e+003
7.356195e+002, 1.073317e+003
7.361016e+002, 1.074858e+003
7.365837e+002, 1.075367e+003
7.370659e+002, 1.076058e+003
7.375480e+002, 1.077494e+003
7.380301e+002, 1.079257e+003
7.385122e+002, 1.081224e+003
7.389943e+002, 1.083211e+003
7.394764e+002, 1.084737e+003
7.399586e+002, 1.084974e+003
7.404407e+002, 1.085403e+003
7.409228e+002, 1.086626e+003
7.414049e+002, 1.088469e+003
7.418870e+002, 1.090272e+003
7.423691e+002, 1.092085e+003
7.428513e+002, 1.093650e+003
7.433334e+002, 1.094902e+003
7.438155e+002, 1.095830e+003
7.442976e+002, 1.096075e+003
7.447797e+002, 1.095709e+003
7.452618e+002, 1.095838e+003
7.457440e+002, 1.097936e+003
7.462261e+002, 1.100438e+003
7.467082e+002, 1.101234e+003
7.471903e+002, 1.100469e+003
7.476724e+002, 1.100076e+003
7.481545e+002, 1.100873e+003
7.486367e+002, 1.102299e+003
7.491188e+002, 1.104426e+003
7.496009e+002, 1.107427e+003
7.500830e+002, 1.109035e+003
7.505651e+002, 1.108701e+003
7.510472e+002, 1.108004e+003
7.515294e+002, 1.107940e+003
7.520115e+002, 1.108470e+003
7.524936e+002, 1.108427e+003
7.529757e+002, 1.107783e+003
7.534578e+002, 1.107010e+003
7.539399e+002, 1.106393e+003
7.544221e+002, 1.105979e+003
7.549042e+002, 1.105804e+003
7.553863e+002, 1.105868e+003
7.558684e+002, 1.106382e+003
7.563505e+002, 1.108100e+003
7.568326e+002, 1.109906e+003
7.573148e+002, 1.110995e+003
7.577969e+002, 1.111352e+003
7.582790e+002, 1.110650e+003
7.587611e+002, 1.108128e+003
7.592432e+002, 1.105563e+003
7.597253e+002, 1.104591e+003
7.602075e+002, 1.105235e+003
7.606896e+002, 1.106022e+003
7.611717e+002, 1.106924e+003
7.616538e+002, 1.107496e+003
7.621359e+002, 1.107013e+003
7.626180e+002, 1.105924e+003
7.631002e+002, 1.105044e+003
7.635823e+002, 1.104584e+003
7.640644e+002, 1.104208e+003
7.645465e+002, 1.103704e+003
7.650286e+002, 1.103213e+003
7.655107e+002, 1.102895e+003
7.659929e+002, 1.103016e+003
7.664750e+002, 1.102992e+003
7.669571e+002, 1.102917e+003
7.674392e+002, 1.102615e+003
7.679213e+002, 1.101539e+003
7.684034e+002, 1.099622e+003
7.688856e+002, 1.098958e+003
7.693677e+002, 1.100118e+003
7.698498e+002, 1.101849e+003
7.703319e+002, 1.102696e+003
7.708140e+002, 1.102879e+003
7.712961e+002, 1.102983e+003
7.717783e+002, 1.103743e+003
7.722604e+002, 1.103391e+003
7.727425e+002, 1.099708e+003
7.732246e+002, 1.094704e+003
7.737067e+002, 1.091431e+003
7.741888e+002, 1.091595e+003
7.746710e+002, 1.091512e+003
7.751531e+002, 1.090884e+003
7.756352e+002, 1.089866e+003
7.761173e+002, 1.088575e+003
7.765994e+002, 1.087004e+003
7.770815e+002, 1.085910e+003
7.775637e+002, 1.085634e+003
7.780458e+002, 1.085564e+003
7.785279e+002, 1.084769e+003
7.790100e+002, 1.083492e+003
7.794921e+002, 1.082283e+003
7.799742e+002, 1.081467e+003
7.804564e+002, 1.080650e+003
7.809385e+002, 1.079389e+003
7.814206e+002, 1.078020e+003
7.819027e+002, 1.077341e+003
7.823848e+002, 1.078155e+003
7.828669e+002, 1.078357e+003
7.833491e+002, 1.077602e+003
7.838312e+002, 1.076053e+003
7.843133e+002, 1.073625e+003
7.847954e+002, 1.070380e+003
7.852775e+002, 1.068499e+003
7.857596e+002, 1.069323e+003
7.862418e+002, 1.071051e+003
7.867239e+002, 1.071418e+003
7.872060e+002, 1.070699e+003
7.876881e+002, 1.069562e+003
7.881702e+002, 1.067920e+003
7.886523e+002, 1.066345e+003
7.891345e+002, 1.064773e+003
7.896166e+002, 1.063460e+003
7.900987e+002, 1.063155e+003
7.905808e+002, 1.064763e+003
7.910629e+002, 1.065481e+003
7.915450e+002, 1.064317e+003
7.920272e+002, 1.062080e+003
7.925093e+002, 1.061133e+003
7.929914e+002, 1.061378e+003
7.934735e+002, 1.061881e+003
7.939556e+002, 1.062545e+003
7.944377e+002, 1.062968e+003
7.949199e+002, 1.062494e+003
7.954020e+002, 1.061383e+003
7.958841e+002, 1.060336e+003
7.963662e+002, 1.059775e+003
7.968483e+002, 1.059161e+003
7.973304e+002, 1.058042e+003
7.978126e+002, 1.056722e+003
7.982947e+002, 1.056301e+003
7.987768e+002, 1.057244e+003
7.992589e+002, 1.057736e+003
7.997410e+002, 1.057036e+003
8.002231e+002, 1.055758e+003
8.007053e+002, 1.055767e+003
8.011874e+002, 1.056790e+003
8.016695e+002, 1.057248e+003
8.021516e+002, 1.055492e+003
8.026337e+002, 1.053624e+003
8.031158e+002, 1.053877e+003
8.035980e+002, 1.055541e+003
8.040801e+002, 1.056673e+003
8.045622e+002, 1.056183e+003
8.050443e+002, 1.055614e+003
8.055264e+002, 1.055144e+003
8.060085e+002, 1.054910e+003
8.064907e+002, 1.055589e+003
8.069728e+002, 1.057468e+003
8.074549e+002, 1.058636e+003
8.079370e+002, 1.058034e+003
8.084191e+002, 1.056803e+003
8.089012e+002, 1.057717e+003
8.093834e+002, 1.060158e+003
8.098655e+002, 1.061916e+003
8.103476e+002, 1.061313e+003
8.108297e+002, 1.060256e+003
8.113118e+002, 1.059680e+003
8.117939e+002, 1.059575e+003
8.122761e+002, 1.059908e+003
8.127582e+002, 1.061139e+003
8.132403e+002, 1.062152e+003
8.137224e+002, 1.062622e+003
8.142045e+002, 1.062783e+003
8.146866e+002, 1.063478e+003
8.151688e+002, 1.064709e+003
8.156509e+002, 1.065478e+003
8.161330e+002, 1.065213e+003
8.166151e+002, 1.064545e+003
8.170972e+002, 1.063888e+003
8.175793e+002, 1.063559e+003
8.180615e+002, 1.064368e+003
8.185436e+002, 1.068741e+003
8.190257e+002, 1.072072e+003
8.195078e+002, 1.071847e+003
8.199899e+002, 1.069201e+003
8.204720e+002, 1.067365e+003
8.209542e+002, 1.066464e+003
8.214363e+002, 1.066128e+003
8.219184e+002, 1.066411e+003
8.224005e+002, 1.067068e+003
8.228826e+002, 1.067630e+003
8.233647e+002, 1.068095e+003
8.238469e+002, 1.068371e+003
8.243290e+002, 1.068153e+003
8.248111e+002, 1.068147e+003
8.252932e+002, 1.069428e+003
8.257753e+002, 1.071348e+003
8.262574e+002, 1.072584e+003
8.267396e+002, 1.072219e+003
8.272217e+002, 1.071843e+003
8.277038e+002, 1.071738e+003
8.281859e+002, 1.071795e+003
8.286681e+002, 1.071716e+003
8.291502e+002, 1.071410e+003
8.296323e+002, 1.071722e+003
8.301144e+002, 1.073096e+003
8.305966e+002, 1.074614e+003
8.310787e+002, 1.074764e+003
8.315608e+002, 1.073967e+003
8.320429e+002, 1.073214e+003
8.325250e+002, 1.072694e+003
8.330071e+002, 1.072542e+003
8.334893e+002, 1.073088e+003
8.339714e+002, 1.073963e+003
8.344535e+002, 1.074602e+003
8.349356e+002, 1.075074e+003
8.354177e+002, 1.075049e+003
8.358998e+002, 1.074203e+003
8.363820e+002, 1.073257e+003
8.368641e+002, 1.073503e+003
8.373462e+002, 1.074770e+003
8.378283e+002, 1.075537e+003
8.383104e+002, 1.075369e+003
8.387925e+002, 1.075029e+003
8.392747e+002, 1.075273e+003
8.397568e+002, 1.075808e+003
8.402389e+002, 1.076258e+003
8.407210e+002, 1.076659e+003
8.412031e+002, 1.076709e+003
8.416852e+002, 1.075965e+003
8.421674e+002, 1.075130e+003
8.426495e+002, 1.074860e+003
8.431316e+002, 1.075219e+003
8.436137e+002, 1.076006e+003
8.440958e+002, 1.077405e+003
8.445779e+002, 1.078528e+003
8.450601e+002, 1.077879e+003
8.455422e+002, 1.076294e+003
8.460243e+002, 1.075583e+003
8.465064e+002, 1.076178e+003
8.469885e+002, 1.076922e+003
8.474706e+002, 1.077207e+003
8.479528e+002, 1.077318e+003
8.484349e+002, 1.077468e+003
8.489170e+002, 1.077605e+003
8.493991e+002, 1.077987e+003
8.498812e+002, 1.078773e+003
8.503633e+002, 1.079448e+003
8.508455e+002, 1.079380e+003
8.513276e+002, 1.078731e+003
8.518097e+002, 1.078826e+003
8.522918e+002, 1.079755e+003
8.527739e+002, 1.080462e+003
8.532560e+002, 1.079682e+003
8.537382e+002, 1.078579e+003
8.542203e+002, 1.078310e+003
8.547024e+002, 1.079080e+003
8.551845e+002, 1.079891e+003
8.556666e+002, 1.080720e+003
8.561487e+002, 1.081378e+003
8.566309e+002, 1.081766e+003
8.571130e+002, 1.081883e+003
8.575951e+002, 1.081880e+003
8.580772e+002, 1.081752e+003
8.585593e+002, 1.081549e+003
8.590414e+002, 1.080861e+003
8.595236e+002, 1.080325e+003
8.600057e+002, 1.081255e+003
8.604878e+002, 1.083450e+003
8.609699e+002, 1.085409e+003
8.614520e+002, 1.086401e+003
8.619341e+002, 1.087056e+003
8.624163e+002, 1.087690e+003
8.628984e+002, 1.088275e+003
8.633805e+002, 1.088369e+003
8.638626e+002, 1.087718e+003
8.643447e+002, 1.087484e+003
8.648268e+002, 1.088397e+003
8.653090e+002, 1.089814e+003
8.657911e+002, 1.089749e+003
8.662732e+002, 1.088624e+003
8.667553e+002, 1.088196e+003
8.672374e+002, 1.090576e+003
8.677195e+002, 1.092719e+003
8.682017e+002, 1.092117e+003
8.686838e+002, 1.089794e+003
8.691659e+002, 1.088835e+003
8.696480e+002, 1.090498e+003
8.701301e+002, 1.091545e+003
8.706122e+002, 1.091106e+003
8.710944e+002, 1.090025e+003
8.715765e+002, 1.090395e+003
8.720586e+002, 1.091976e+003
8.725407e+002, 1.092798e+003
8.730228e+002, 1.092078e+003
8.735049e+002, 1.090909e+003
8.739871e+002, 1.089928e+003
8.744692e+002, 1.089334e+003
8.749513e+002, 1.089411e+003
8.754334e+002, 1.091157e+003
8.759155e+002, 1.092337e+003
8.763976e+002, 1.092478e+003
8.768798e+002, 1.092284e+003
8.773619e+002, 1.092466e+003
8.778440e+002, 1.093010e+003
8.783261e+002, 1.094261e+003
8.788082e+002, 1.096403e+003
8.792903e+002, 1.098449e+003
8.797725e+002, 1.098745e+003
8.802546e+002, 1.098506e+003
8.807367e+002, 1.099853e+003
8.812188e+002, 1.103676e+003
8.817009e+002, 1.106442e+003
8.821830e+002, 1.105702e+003
8.826652e+002, 1.104401e+003
8.831473e+002, 1.104675e+003
8.836294e+002, 1.106881e+003
8.841115e+002, 1.108234e+003
8.845936e+002, 1.108570e+003
8.850757e+002, 1.108936e+003
8.855579e+002, 1.110377e+003
8.860400e+002, 1.112375e+003
8.865221e+002, 1.114004e+003
8.870042e+002, 1.115209e+003
8.874863e+002, 1.115913e+003
8.879684e+002, 1.114914e+003
8.884506e+002, 1.114465e+003
8.889327e+002, 1.116692e+003
8.894148e+002, 1.121292e+003
8.898969e+002, 1.123119e+003
8.903790e+002, 1.121277e+003
8.908611e+002, 1.119266e+003
8.913433e+002, 1.118312e+003
8.918254e+002, 1.118315e+003
8.923075e+002, 1.119520e+003
8.927896e+002, 1.121582e+003
8.932717e+002, 1.123018e+003
8.937538e+002, 1.122226e+003
8.942360e+002, 1.121419e+003
8.947181e+002, 1.122205e+003
8.952002e+002, 1.123937e+003
8.956823e+002, 1.124916e+003
8.961644e+002, 1.124977e+003
8.966465e+002, 1.124326e+003
8.971287e+002, 1.122628e+003
8.976108e+002, 1.120765e+003
8.980929e+002, 1.120861e+003
8.985750e+002, 1.122393e+003
8.990571e+002, 1.122756e+003
8.995392e+002, 1.120950e+003
9.000214e+002, 1.118836e+003
9.005035e+002, 1.118054e+003
9.009856e+002, 1.117737e+003
9.014677e+002, 1.116818e+003
9.019498e+002, 1.114424e+003
9.024319e+002, 1.112720e+003
9.029141e+002, 1.112040e+003
9.033962e+002, 1.111571e+003
9.038783e+002, 1.110331e+003
9.043604e+002, 1.108472e+003
9.048425e+002, 1.107693e+003
9.053246e+002, 1.108136e+003
9.058068e+002, 1.108561e+003
9.062889e+002, 1.108327e+003
9.067710e+002, 1.107323e+003
9.072531e+002, 1.105062e+003
9.077352e+002, 1.101399e+003
9.082173e+002, 1.098531e+003
9.086995e+002, 1.097043e+003
9.091816e+002, 1.095990e+003
9.096637e+002, 1.095169e+003
9.101458e+002, 1.094482e+003
9.106279e+002, 1.093313e+003
9.111100e+002, 1.091670e+003
9.115922e+002, 1.089665e+003
9.120743e+002, 1.086999e+003
9.125564e+002, 1.084264e+003
9.130385e+002, 1.082137e+003
9.135206e+002, 1.080459e+003
9.140027e+002, 1.078670e+003
9.144849e+002, 1.076003e+003
9.149670e+002, 1.074099e+003
9.154491e+002, 1.073811e+003
9.159312e+002, 1.074054e+003
9.164133e+002, 1.072040e+003
9.168954e+002, 1.067831e+003
9.173776e+002, 1.065266e+003
9.178597e+002, 1.065777e+003
9.183418e+002, 1.066603e+003
9.188239e+002, 1.063961e+003
9.193060e+002, 1.059973e+003
9.197881e+002, 1.057762e+003
9.202703e+002, 1.059391e+003
9.207524e+002, 1.060096e+003
9.212345e+002, 1.058891e+003
9.217166e+002, 1.056854e+003
9.221987e+002, 1.054636e+003
9.226808e+002, 1.052206e+003
9.231630e+002, 1.050484e+003
9.236451e+002, 1.049536e+003
9.241272e+002, 1.048817e+003
9.246093e+002, 1.047880e+003
9.250914e+002, 1.046893e+003
9.255735e+002, 1.046174e+003
9.260557e+002, 1.045730e+003
9.265378e+002, 1.044894e+003
9.270199e+002, 1.043017e+003
9.275020e+002, 1.041216e+003
9.279841e+002, 1.039952e+003
9.284662e+002, 1.039092e+003
9.289484e+002, 1.037759e+003
9.294305e+002, 1.035958e+003
9.299126e+002, 1.034134e+003
9.303947e+002, 1.032570e+003
9.308768e+002, 1.031046e+003
9.313589e+002, 1.029430e+003
9.318411e+002, 1.027664e+003
9.323232e+002, 1.025645e+003
9.328053e+002, 1.022429e+003
9.332874e+002, 1.020278e+003
9.337695e+002, 1.020185e+003
9.342516e+002, 1.020734e+003
9.347338e+002, 1.019522e+003
9.352159e+002, 1.016554e+003
9.356980e+002, 1.014604e+003
9.361801e+002, 1.014251e+003
9.366622e+002, 1.014189e+003
9.371443e+002, 1.013132e+003
9.376265e+002, 1.011563e+003
9.381086e+002, 1.010033e+003
9.385907e+002, 1.008589e+003
9.390728e+002, 1.007284e+003
9.395549e+002, 1.005970e+003
9.400370e+002, 1.004978e+003
9.405192e+002, 1.004742e+003
9.410013e+002, 1.005176e+003
9.414834e+002, 1.004402e+003
9.419655e+002, 1.002436e+003
9.424476e+002, 1.000724e+003
9.429297e+002, 1.000817e+003
9.434119e+002, 1.001168e+003
9.438940e+002, 1.000200e+003
9.443761e+002, 9.981201e+002
9.448582e+002, 9.960440e+002
9.453403e+002, 9.935012e+002
9.458224e+002, 9.920927e+002
9.463046e+002, 9.927196e+002
9.467867e+002, 9.942474e+002
9.472688e+002, 9.936942e+002
9.477509e+002, 9.913574e+002
9.482330e+002, 9.897736e+002
9.487151e+002, 9.899966e+002
9.491973e+002, 9.902679e+002
9.496794e+002, 9.884207e+002
9.501615e+002, 9.859687e+002
9.506436e+002, 9.848252e+002
9.511257e+002, 9.865316e+002
9.516078e+002, 9.872320e+002
9.520900e+002, 9.864890e+002
9.525721e+002, 9.853917e+002
9.530542e+002, 9.848274e+002
9.535363e+002, 9.847178e+002
9.540184e+002, 9.846653e+002
9.545005e+002, 9.846409e+002
9.549827e+002, 9.844110e+002
9.554648e+002, 9.833742e+002
9.559469e+002, 9.824168e+002
9.564290e+002, 9.822175e+002
9.569111e+002, 9.827692e+002
9.573932e+002, 9.834498e+002
9.578754e+002, 9.844475e+002
9.583575e+002, 9.849749e+002
9.588396e+002, 9.845645e+002
9.593217e+002, 9.837370e+002
9.598038e+002, 9.838590e+002
9.602859e+002, 9.846744e+002
9.607681e+002, 9.852520e+002
9.612502e+002, 9.848435e+002
9.617323e+002, 9.847972e+002
9.622144e+002, 9.865892e+002
9.626965e+002, 9.888570e+002
9.631786e+002, 9.897836e+002
9.636608e+002, 9.888292e+002
9.641429e+002, 9.879258e+002
9.646250e+002, 9.870943e+002
9.651071e+002, 9.865414e+002
9.655892e+002, 9.866096e+002
9.660714e+002, 9.870963e+002
9.665535e+002, 9.878198e+002
9.670356e+002, 9.887330e+002
9.675177e+002, 9.888347e+002
9.679998e+002, 9.866088e+002
9.684819e+002, 9.843937e+002
9.689641e+002, 9.835134e+002
9.694462e+002, 9.837890e+002
9.699283e+002, 9.839377e+002
9.704104e+002, 9.839401e+002
9.708925e+002, 9.838597e+002
9.713746e+002, 9.835621e+002
9.718568e+002, 9.833815e+002
9.723389e+002, 9.842890e+002
9.728210e+002, 9.856356e+002
9.733031e+002, 9.860587e+002
9.737852e+002, 9.835273e+002
9.742673e+002, 9.821378e+002
9.747495e+002, 9.835853e+002
9.752316e+002, 9.856944e+002
9.757137e+002, 9.860326e+002
9.761958e+002, 9.845170e+002
9.766779e+002, 9.835087e+002
9.771600e+002, 9.831666e+002
9.776422e+002, 9.835629e+002
9.781243e+002, 9.855573e+002
9.786064e+002, 9.878254e+002
9.790885e+002, 9.888527e+002
9.795706e+002, 9.884978e+002
9.800527e+002, 9.882100e+002
9.805349e+002, 9.881957e+002
9.810170e+002, 9.883309e+002
9.814991e+002, 9.885910e+002
9.819812e+002, 9.889539e+002
9.824633e+002, 9.891738e+002
9.829454e+002, 9.893518e+002
9.834276e+002, 9.901898e+002
9.839097e+002, 9.926216e+002
9.843918e+002, 9.948799e+002
9.848739e+002, 9.952304e+002
9.853560e+002, 9.947742e+002
9.858381e+002, 9.953503e+002
9.863203e+002, 9.983207e+002
9.868024e+002, 9.993978e+002
9.872845e+002, 9.979205e+002
9.877666e+002, 9.958469e+002
9.882487e+002, 9.952161e+002
9.887308e+002, 9.955891e+002
9.892130e+002, 9.960240e+002
9.896951e+002, 9.964139e+002
9.901772e+002, 9.961826e+002
9.906593e+002, 9.949804e+002
9.911414e+002, 9.930716e+002
9.916235e+002, 9.898596e+002
9.921057e+002, 9.858814e+002
9.925878e+002, 9.847167e+002
9.930699e+002, 9.869245e+002
9.935520e+002, 9.875403e+002
9.940341e+002, 9.844127e+002
9.945162e+002, 9.794374e+002
9.949984e+002, 9.746171e+002
9.954805e+002, 9.701164e+002
9.959626e+002, 9.662045e+002
9.964447e+002, 9.626119e+002
9.969268e+002, 9.602649e+002
9.974089e+002, 9.601963e+002
9.978911e+002, 9.604431e+002
9.983732e+002, 9.591035e+002
9.988553e+002, 9.562645e+002
9.993374e+002, 9.539319e+002
9.998195e+002, 9.522092e+002
1.000302e+003, 9.505027e+002
1.000784e+003, 9.480190e+002
1.001266e+003, 9.456121e+002
1.001748e+003, 9.440479e+002
1.002230e+003, 9.432735e+002
1.002712e+003, 9.424486e+002
1.003194e+003, 9.414059e+002
1.003676e+003, 9.404889e+002
1.004159e+003, 9.398197e+002
1.004641e+003, 9.392339e+002
1.005123e+003, 9.384227e+002
1.005605e+003, 9.374054e+002
1.006087e+003, 9.362053e+002
1.006569e+003, 9.346788e+002
1.007051e+003, 9.333583e+002
1.007533e+003, 9.327454e+002
1.008016e+003, 9.322879e+002
1.008498e+003, 9.313922e+002
1.008980e+003, 9.298785e+002
1.009462e+003, 9.292155e+002
1.009944e+003, 9.295401e+002
1.010426e+003, 9.297289e+002
1.010908e+003, 9.285532e+002
1.011390e+003, 9.269972e+002
1.011872e+003, 9.264260e+002
1.012355e+003, 9.266805e+002
1.012837e+003, 9.269184e+002
1.013319e+003, 9.268583e+002
1.013801e+003, 9.267220e+002
1.014283e+003, 9.264984e+002
1.014765e+003, 9.262506e+002
1.015247e+003, 9.261998e+002
1.015729e+003, 9.262800e+002
1.016211e+003, 9.258860e+002
1.016694e+003, 9.247598e+002
1.017176e+003, 9.239137e+002
1.017658e+003, 9.249098e+002
1.018140e+003, 9.260867e+002
1.018622e+003, 9.257684e+002
1.019104e+003, 9.235441e+002
1.019586e+003, 9.217517e+002
1.020068e+003, 9.203235e+002
1.020551e+003, 9.196398e+002
1.021033e+003, 9.204740e+002
1.021515e+003, 9.218336e+002
1.021997e+003, 9.210401e+002
1.022479e+003, 9.188492e+002
1.022961e+003, 9.175020e+002
1.023443e+003, 9.186400e+002
1.023925e+003, 9.199042e+002
1.024407e+003, 9.209517e+002
1.024890e+003, 9.215429e+002
1.025372e+003, 9.210071e+002
1.025854e+003, 9.192775e+002
1.026336e+003, 9.189352e+002
1.026818e+003, 9.203310e+002
1.027300e+003, 9.218618e+002
1.027782e+003, 9.220764e+002
1.028264e+003, 9.217668e+002
1.028746e+003, 9.216896e+002
1.029229e+003, 9.219074e+002
1.029711e+003, 9.219218e+002
1.030193e+003, 9.216826e+002
1.030675e+003, 9.212550e+002
1.031157e+003, 9.205149e+002
1.031639e+003, 9.197657e+002
1.032121e+003, 9.199645e+002
1.032603e+003, 9.207485e+002
1.033086e+003, 9.209226e+002
1.033568e+003, 9.197565e+002
1.034050e+003, 9.187172e+002
1.034532e+003, 9.185119e+002
1.035014e+003, 9.187294e+002
1.035496e+003, 9.190812e+002
1.035978e+003, 9.196501e+002
1.036460e+003, 9.197196e+002
1.036943e+003, 9.192628e+002
1.037425e+003, 9.187734e+002
1.037907e+003, 9.187444e+002
1.038389e+003, 9.187702e+002
1.038871e+003, 9.180095e+002
1.039353e+003, 9.168293e+002
1.039835e+003, 9.168238e+002
1.040317e+003, 9.195309e+002
1.040799e+003, 9.213055e+002
1.041281e+003, 9.214805e+002
1.041764e+003, 9.206844e+002
1.042246e+003, 9.193491e+002
1.042728e+003, 9.178815e+002
1.043210e+003, 9.180882e+002
1.043692e+003, 9.205860e+002
1.044174e+003, 9.221519e+002
1.044656e+003, 9.199549e+002
1.045138e+003, 9.171161e+002
1.045621e+003, 9.155475e+002
1.046103e+003, 9.152116e+002
1.046585e+003, 9.155840e+002
1.047067e+003, 9.167366e+002
1.047549e+003, 9.175548e+002
1.048031e+003, 9.173956e+002
1.048513e+003, 9.168448e+002
1.048995e+003, 9.163835e+002
1.049478e+003, 9.160761e+002
1.049960e+003, 9.160320e+002
1.050442e+003, 9.165273e+002
1.050924e+003, 9.169450e+002
1.051406e+003, 9.173520e+002
1.051888e+003, 9.175561e+002
1.052370e+003, 9.171400e+002
1.052852e+003, 9.163993e+002
1.053334e+003, 9.167548e+002
1.053817e+003, 9.180632e+002
1.054299e+003, 9.184172e+002
1.054781e+003, 9.150980e+002
1.055263e+003, 9.123727e+002
1.055745e+003, 9.127922e+002
1.056227e+003, 9.150240e+002
1.056709e+003, 9.160793e+002
1.057191e+003, 9.159085e+002
1.057673e+003, 9.152848e+002
1.058156e+003, 9.141855e+002
1.058638e+003, 9.134293e+002
1.059120e+003, 9.145660e+002
1.059602e+003, 9.160673e+002
1.060084e+003, 9.159148e+002
1.060566e+003, 9.133071e+002
1.061048e+003, 9.125980e+002
1.061530e+003, 9.148088e+002
1.062013e+003, 9.167795e+002
1.062495e+003, 9.168949e+002
1.062977e+003, 9.158391e+002
1.063459e+003, 9.149446e+002
1.063941e+003, 9.143142e+002
1.064423e+003, 9.142502e+002
1.064905e+003, 9.159689e+002
1.065387e+003, 9.167169e+002
1.065870e+003, 9.143765e+002
1.066352e+003, 9.116847e+002
1.066834e+003, 9.113690e+002
1.067316e+003, 9.134582e+002
1.067798e+003, 9.143642e+002
1.068280e+003, 9.139679e+002
1.068762e+003, 9.132635e+002
1.069244e+003, 9.128489e+002
1.069726e+003, 9.125302e+002
1.070208e+003, 9.121999e+002
1.070691e+003, 9.118400e+002
1.071173e+003, 9.114071e+002
1.071655e+003, 9.108297e+002
1.072137e+003, 9.103939e+002
1.072619e+003, 9.101544e+002
1.073101e+003, 9.100416e+002
1.073583e+003, 9.097650e+002
1.074065e+003, 9.096226e+002
1.074548e+003, 9.103138e+002
1.075030e+003, 9.120980e+002
1.075512e+003, 9.132900e+002
1.075994e+003, 9.131371e+002
1.076476e+003, 9.126918e+002
1.076958e+003, 9.123452e+002
1.077440e+003, 9.120311e+002
1.077922e+003, 9.114215e+002
1.078405e+003, 9.105941e+002
1.078887e+003, 9.099314e+002
1.079369e+003, 9.097202e+002
1.079851e+003, 9.094651e+002
1.080333e+003, 9.085380e+002
1.080815e+003, 9.076659e+002
1.081297e+003, 9.077609e+002
1.081779e+003, 9.091501e+002
1.082261e+003, 9.094962e+002
1.082744e+003, 9.087201e+002
1.083226e+003, 9.079265e+002
1.083708e+003, 9.080861e+002
1.084190e+003, 9.084960e+002
1.084672e+003, 9.082617e+002
1.085154e+003, 9.076315e+002
1.085636e+003, 9.075563e+002
1.086118e+003, 9.087806e+002
1.086601e+003, 9.091480e+002
1.087083e+003, 9.080912e+002
1.087565e+003, 9.068641e+002
1.088047e+003, 9.075141e+002
1.088529e+003, 9.090495e+002
1.089011e+003, 9.091717e+002
1.089493e+003, 9.076348e+002
1.089975e+003, 9.063932e+002
1.090458e+003, 9.064172e+002
1.090940e+003, 9.067318e+002
1.091422e+003, 9.070807e+002
1.091904e+003, 9.073871e+002
1.092386e+003, 9.073600e+002
1.092868e+003, 9.070445e+002
1.093350e+003, 9.067373e+002
1.093832e+003, 9.065215e+002
1.094314e+003, 9.063381e+002
1.094797e+003, 9.062560e+002
1.095279e+003, 9.061170e+002
1.095761e+003, 9.057151e+002
1.096243e+003, 9.050342e+002
1.096725e+003, 9.046533e+002
1.097207e+003, 9.045957e+002
1.097689e+003, 9.046658e+002
1.098171e+003, 9.047783e+002
1.098653e+003, 9.049474e+002
1.099136e+003, 9.053486e+002
1.099618e+003, 9.057839e+002
1.100100e+003, 9.058593e+002
1.100582e+003, 9.053874e+002
1.101064e+003, 9.046907e+002
1.101546e+003, 9.036719e+002
1.102028e+003, 9.026617e+002
1.102510e+003, 9.019035e+002
1.102993e+003, 9.013785e+002
1.103475e+003, 9.012004e+002
1.103957e+003, 9.012772e+002
1.104439e+003, 9.010720e+002
1.104921e+003, 8.994653e+002
1.105403e+003, 8.988001e+002
1.105885e+003, 9.000157e+002
1.106367e+003, 9.020561e+002
1.106849e+003, 9.031070e+002
1.107332e+003, 9.033124e+002
1.107814e+003, 9.034084e+002
1.108296e+003, 9.035216e+002
1.108778e+003, 9.034095e+002
1.109260e+003, 9.025195e+002
1.109742e+003, 9.017289e+002
1.110224e+003, 9.017416e+002
1.110706e+003, 9.023491e+002
1.111188e+003, 9.023968e+002
1.111671e+003, 9.018611e+002
1.112153e+003, 9.015221e+002
1.112635e+003, 9.017227e+002
1.113117e+003, 9.019279e+002
1.113599e+003, 9.016810e+002
1.114081e+003, 9.010882e+002
1.114563e+003, 9.001481e+002
1.115045e+003, 8.986594e+002
1.115528e+003, 8.979570e+002
1.116010e+003, 8.981659e+002
1.116492e+003, 8.986250e+002
1.116974e+003, 8.991046e+002
1.117456e+003, 8.994951e+002
1.117938e+003, 8.995751e+002
1.118420e+003, 8.994454e+002
1.118902e+003, 8.993104e+002
1.119385e+003, 8.989265e+002
1.119867e+003, 8.991740e+002
1.120349e+003, 9.005788e+002
1.120831e+003, 9.016741e+002
1.121313e+003, 9.006210e+002
1.121795e+003, 8.982803e+002
1.122277e+003, 8.972291e+002
1.122759e+003, 8.973526e+002
1.123241e+003, 8.974792e+002
1.123724e+003, 8.968205e+002
1.124206e+003, 8.963900e+002
1.124688e+003, 8.965027e+002
1.125170e+003, 8.969279e+002
1.125652e+003, 8.975267e+002
1.126134e+003, 8.981860e+002
1.126616e+003, 8.978430e+002
1.127098e+003, 8.963353e+002
1.127580e+003, 8.952657e+002
1.128063e+003, 8.965115e+002
1.128545e+003, 8.977917e+002
1.129027e+003, 8.974698e+002
1.129509e+003, 8.960399e+002
1.129991e+003, 8.950955e+002
1.130473e+003, 8.946502e+002
1.130955e+003, 8.945388e+002
1.131437e+003, 8.948497e+002
1.131920e+003, 8.949974e+002
1.132402e+003, 8.941478e+002
1.132884e+003, 8.930538e+002
1.133366e+003, 8.923319e+002
1.133848e+003, 8.920232e+002
1.134330e+003, 8.927448e+002
1.134812e+003, 8.947695e+002
1.135294e+003, 8.962764e+002
1.135776e+003, 8.962903e+002
1.136259e+003, 8.956534e+002
1.136741e+003, 8.951135e+002
1.137223e+003, 8.948206e+002
1.137705e+003, 8.950441e+002
1.138187e+003, 8.961873e+002
1.138669e+003, 8.970855e+002
1.139151e+003, 8.977911e+002
1.139633e+003, 8.980604e+002
1.140115e+003, 8.974278e+002
1.140598e+003, 8.964025e+002
1.141080e+003, 8.960715e+002
1.141562e+003, 8.962570e+002
1.142044e+003, 8.964503e+002
1.142526e+003, 8.966544e+002
1.143008e+003, 8.965659e+002
1.143490e+003, 8.960199e+002
1.143972e+003, 8.954415e+002
1.144455e+003, 8.953049e+002
1.144937e+003, 8.954886e+002
1.145419e+003, 8.955587e+002
1.145901e+003, 8.955234e+002
1.146383e+003, 8.955634e+002
1.146865e+003, 8.963046e+002
1.147347e+003, 8.964000e+002
1.147829e+003, 8.950051e+002
1.148312e+003, 8.932314e+002
1.148794e+003, 8.929220e+002
1.149276e+003, 8.938669e+002
1.149758e+003, 8.948057e+002
1.150240e+003, 8.955915e+002
1.150722e+003, 8.959760e+002
1.151204e+003, 8.952631e+002
1.151686e+003, 8.946548e+002
1.152168e+003, 8.951304e+002
1.152651e+003, 8.961256e+002
1.153133e+003, 8.958152e+002
1.153615e+003, 8.942652e+002
1.154097e+003, 8.929955e+002
1.154579e+003, 8.922986e+002
1.155061e+003, 8.922855e+002
1.155543e+003, 8.938475e+002
1.156025e+003, 8.955108e+002
1.156507e+003, 8.957316e+002
1.156990e+003, 8.947097e+002
1.157472e+003, 8.946973e+002
1.157954e+003, 8.957880e+002
1.158436e+003, 8.963912e+002
1.158918e+003, 8.956544e+002
1.159400e+003, 8.949945e+002
1.159882e+003, 8.963633e+002
1.160364e+003, 8.983207e+002
1.160847e+003, 8.990690e+002
1.161329e+003, 8.982404e+002
1.161811e+003, 8.976832e+002
1.162293e+003, 8.973751e+002
1.162775e+003, 8.975156e+002
1.163257e+003, 8.984762e+002
1.163739e+003, 8.995994e+002
1.164221e+003, 9.002519e+002
1.164703e+003, 9.004250e+002
1.165186e+003, 9.000369e+002
1.165668e+003, 8.985118e+002
1.166150e+003, 8.978098e+002
1.166632e+003, 8.981285e+002
1.167114e+003, 8.985399e+002
1.167596e+003, 8.983324e+002
1.168078e+003, 8.978193e+002
1.168560e+003, 8.975870e+002
1.169042e+003, 8.974778e+002
1.169525e+003, 8.970583e+002
1.170007e+003, 8.955173e+002
1.170489e+003, 8.949743e+002
1.170971e+003, 8.958918e+002
1.171453e+003, 8.969359e+002
1.171935e+003, 8.966298e+002
1.172417e+003, 8.956390e+002
1.172899e+003, 8.952905e+002
1.173382e+003, 8.955092e+002
1.173864e+003, 8.956454e+002
1.174346e+003, 8.954111e+002
1.174828e+003, 8.951882e+002
1.175310e+003, 8.950452e+002
1.175792e+003, 8.948925e+002
1.176274e+003, 8.943605e+002
1.176756e+003, 8.937927e+002
1.177239e+003, 8.942419e+002
1.177721e+003, 8.956898e+002
1.178203e+003, 8.967034e+002
1.178685e+003, 8.964612e+002
1.179167e+003, 8.959252e+002
1.179649e+003, 8.950284e+002
1.180131e+003, 8.943399e+002
1.180613e+003, 8.954010e+002
1.181095e+003, 8.974578e+002
1.181578e+003, 8.981115e+002
1.182060e+003, 8.969421e+002
1.182542e+003, 8.959654e+002
1.183024e+003, 8.959589e+002
1.183506e+003, 8.965328e+002
1.183988e+003, 8.977867e+002
1.184470e+003, 8.993108e+002
1.184952e+003, 9.002636e+002
1.185434e+003, 9.005912e+002
1.185917e+003, 8.998575e+002
1.186399e+003, 8.976907e+002
1.186881e+003, 8.959731e+002
1.187363e+003, 8.956375e+002
1.187845e+003, 8.960154e+002
1.188327e+003, 8.969605e+002
1.188809e+003, 8.982439e+002
1.189291e+003, 8.991506e+002
1.189774e+003, 8.996466e+002
1.190256e+003, 8.994864e+002
1.190738e+003, 8.981738e+002
1.191220e+003, 8.973824e+002
1.191702e+003, 8.985304e+002
1.192184e+003, 8.998935e+002
1.192666e+003, 9.004346e+002
1.193148e+003, 9.002353e+002
1.193630e+003, 8.995671e+002
1.194113e+003, 8.985771e+002
1.194595e+003, 8.981533e+002
1.195077e+003, 8.989839e+002
1.195559e+003, 8.998730e+002
1.196041e+003, 9.006914e+002
1.196523e+003, 9.008939e+002
1.197005e+003, 8.998282e+002
1.197487e+003, 8.976086e+002
1.197969e+003, 8.960311e+002
1.198452e+003, 8.951060e+002
1.198934e+003, 8.948069e+002
1.199416e+003, 8.957427e+002
1.199898e+003, 8.965208e+002
1.200380e+003, 8.962372e+002
1.200862e+003, 8.956464e+002
1.201344e+003, 8.954473e+002
1.201826e+003, 8.956377e+002
1.202309e+003, 8.962141e+002
1.202791e+003, 8.971077e+002
1.203273e+003, 8.975401e+002
1.203755e+003, 8.962744e+002
1.204237e+003, 8.953267e+002
1.204719e+003, 8.962382e+002
1.205201e+003, 8.977081e+002
1.205683e+003, 8.981483e+002
1.206166e+003, 8.975696e+002
1.206648e+003, 8.971613e+002
1.207130e+003, 8.969691e+002
1.207612e+003, 8.969324e+002
1.208094e+003, 8.971494e+002
1.208576e+003, 8.973586e+002
1.209058e+003, 8.972723e+002
1.209540e+003, 8.971766e+002
1.210022e+003, 8.977345e+002
1.210505e+003, 8.988939e+002
1.210987e+003, 8.987094e+002
1.211469e+003, 8.970727e+002
1.211951e+003, 8.953183e+002
1.212433e+003, 8.937054e+002
1.212915e+003, 8.928978e+002
1.213397e+003, 8.936390e+002
1.213879e+003, 8.952592e+002
1.214361e+003, 8.971526e+002
1.214844e+003, 8.992063e+002
1.215326e+003, 8.990954e+002
1.215808e+003, 8.965338e+002
1.216290e+003, 8.945182e+002
1.216772e+003, 8.960275e+002
1.217254e+003, 8.976369e+002
1.217736e+003, 8.971519e+002
1.218218e+003, 8.956406e+002
1.218701e+003, 8.954427e+002
1.219183e+003, 8.964150e+002
1.219665e+003, 8.968118e+002
1.220147e+003, 8.963260e+002
1.220629e+003, 8.960448e+002
1.221111e+003, 8.970169e+002
1.221593e+003, 8.980247e+002
1.222075e+003, 8.985183e+002
1.222557e+003, 8.985282e+002
1.223040e+003, 8.978234e+002
1.223522e+003, 8.965748e+002
1.224004e+003, 8.963605e+002
1.224486e+003, 8.976016e+002
1.224968e+003, 8.983606e+002
1.225450e+003, 8.969449e+002
1.225932e+003, 8.952565e+002
1.226414e+003, 8.942332e+002
1.226896e+003, 8.937300e+002
1.227379e+003, 8.932392e+002
1.227861e+003, 8.928403e+002
1.228343e+003, 8.930818e+002
1.228825e+003, 8.942355e+002
1.229307e+003, 8.950075e+002
1.229789e+003, 8.942543e+002
1.230271e+003, 8.933690e+002
1.230753e+003, 8.930732e+002
1.231236e+003, 8.931566e+002
1.231718e+003, 8.928887e+002
1.232200e+003, 8.923849e+002
1.232682e+003, 8.921561e+002
1.233164e+003, 8.923648e+002
1.233646e+003, 8.926787e+002
1.234128e+003, 8.929814e+002
1.234610e+003, 8.933494e+002
1.235093e+003, 8.940479e+002
1.235575e+003, 8.946979e+002
1.236057e+003, 8.936627e+002
1.236539e+003, 8.915031e+002
1.237021e+003, 8.900665e+002
1.237503e+003, 8.899626e+002
1.237985e+003, 8.903151e+002
1.238467e+003, 8.914797e+002
1.238949e+003, 8.921455e+002
1.239432e+003, 8.913513e+002
1.239914e+003, 8.898964e+002
1.240396e+003, 8.906817e+002
1.240878e+003, 8.928153e+002
1.241360e+003, 8.936785e+002
1.241842e+003, 8.919781e+002
1.242324e+003, 8.907697e+002
1.242806e+003, 8.909454e+002
1.243288e+003, 8.913906e+002
1.243771e+003, 8.916556e+002
1.244253e+003, 8.917350e+002
1.244735e+003, 8.913111e+002
1.245217e+003, 8.907438e+002
1.245699e+003, 8.909201e+002
1.246181e+003, 8.923422e+002
1.246663e+003, 8.939470e+002
1.247145e+003, 8.962401e+002
1.247628e+003, 8.972738e+002
1.248110e+003, 8.953281e+002
1.248592e+003, 8.921057e+002
1.249074e+003, 8.912082e+002
1.249556e+003, 8.917999e+002
1.250038e+003, 8.922415e+002
1.250520e+003, 8.920452e+002
1.251002e+003, 8.917800e+002
1.251484e+003, 8.912648e+002
1.251967e+003, 8.913420e+002
1.252449e+003, 8.928890e+002
1.252931e+003, 8.948864e+002
1.253413e+003, 8.958821e+002
1.253895e+003, 8.961003e+002
1.254377e+003, 8.958195e+002
1.254859e+003, 8.946439e+002
1.255341e+003, 8.944861e+002
1.255823e+003, 8.956965e+002
1.256306e+003, 8.961828e+002
1.256788e+003, 8.939153e+002
1.257270e+003, 8.912211e+002
1.257752e+003, 8.912995e+002
1.258234e+003, 8.927476e+002
1.258716e+003, 8.932859e+002
1.259198e+003, 8.924855e+002
1.259680e+003, 8.917842e+002
1.260163e+003, 8.911592e+002
1.260645e+003, 8.909838e+002
1.261127e+003, 8.919366e+002
1.261609e+003, 8.928599e+002
1.262091e+003, 8.925545e+002
1.262573e+003, 8.916414e+002
1.263055e+003, 8.909650e+002
1.263537e+003, 8.905731e+002
1.264020e+003, 8.901883e+002
1.264502e+003, 8.898044e+002
1.264984e+003, 8.896387e+002
1.265466e+003, 8.897393e+002
1.265948e+003, 8.901733e+002
1.266430e+003, 8.913994e+002
1.266912e+003, 8.926779e+002
1.267394e+003, 8.930985e+002
1.267876e+003, 8.926339e+002
1.268359e+003, 8.928330e+002
1.268841e+003, 8.935673e+002
1.269323e+003, 8.936607e+002
1.269805e+003, 8.914955e+002
1.270287e+003, 8.898770e+002
1.270769e+003, 8.909261e+002
1.271251e+003, 8.923188e+002
1.271733e+003, 8.920643e+002
1.272215e+003, 8.904291e+002
1.272698e+003, 8.893978e+002
1.273180e+003, 8.889876e+002
1.273662e+003, 8.892981e+002
1.274144e+003, 8.914883e+002
1.274626e+003, 8.927733e+002
1.275108e+003, 8.923282e+002
1.275590e+003, 8.912940e+002
1.276072e+003, 8.904093e+002
1.276555e+003, 8.896692e+002
1.277037e+003, 8.888856e+002
1.277519e+003, 8.882512e+002
1.278001e+003, 8.883437e+002
1.278483e+003, 8.909111e+002
1.278965e+003, 8.915082e+002
1.279447e+003, 8.890881e+002
1.279929e+003, 8.866780e+002
1.280411e+003, 8.868422e+002
1.280894e+003, 8.884307e+002
1.281376e+003, 8.897628e+002
1.281858e+003, 8.907538e+002
1.282340e+003, 8.912255e+002
1.282822e+003, 8.907402e+002
1.283304e+003, 8.906749e+002
1.283786e+003, 8.911612e+002
1.284268e+003, 8.914513e+002
1.284750e+003, 8.905556e+002
1.285233e+003, 8.896181e+002
1.285715e+003, 8.903212e+002
1.286197e+003, 8.917974e+002
1.286679e+003, 8.924814e+002
1.287161e+003, 8.920341e+002
1.287643e+003, 8.918574e+002
1.288125e+003, 8.919444e+002
1.288607e+003, 8.923066e+002
1.289090e+003, 8.936367e+002
1.289572e+003, 8.944307e+002
1.290054e+003, 8.929199e+002
1.290536e+003, 8.906768e+002
1.291018e+003, 8.897012e+002
1.291500e+003, 8.900397e+002
1.291982e+003, 8.902811e+002
1.292464e+003, 8.904169e+002
1.292947e+003, 8.903857e+002
1.293429e+003, 8.902412e+002
1.293911e+003, 8.898271e+002
1.294393e+003, 8.887015e+002
1.294875e+003, 8.876788e+002
1.295357e+003, 8.875953e+002
1.295839e+003, 8.881536e+002
1.296321e+003, 8.874283e+002
1.296803e+003, 8.858834e+002
1.297286e+003, 8.851478e+002
1.297768e+003, 8.866205e+002
1.298250e+003, 8.876945e+002
1.298732e+003, 8.877741e+002
1.299214e+003, 8.878669e+002
1.299696e+003, 8.887971e+002
1.300178e+003, 8.900661e+002
1.300660e+003, 8.910928e+002
##END=



