##NAMES=Hulsite
##RRUFFID=R130016
##IDEAL CHEMISTRY=Fe^2+^_2_Fe^3+^O_2_(BO_3_)
##LOCALITY=Brooks Mountain, Seward Peninsula, Nome Borough, Alaska, USA
##OWNER=RRUFF
##SOURCE=Robert Lavinsky
##DESCRIPTION=Blocky black crystals, associated with diopside, dolomite, pale yellow vesuvianite, and nordenski√∂ldine, R130017
##STATUS=The identification of this mineral has been confirmed by single-crystal X-ray diffraction.
##URL=rruff.info/R130016
8.984375e+001, 2.166434e+002
9.032587e+001, 2.188246e+002
9.080798e+001, 2.192539e+002
9.129010e+001, 2.172756e+002
9.177222e+001, 2.143047e+002
9.225433e+001, 2.120480e+002
9.273645e+001, 2.104367e+002
9.321857e+001, 2.088319e+002
9.370068e+001, 2.067816e+002
9.418280e+001, 2.043304e+002
9.466492e+001, 2.016050e+002
9.514703e+001, 1.982429e+002
9.562915e+001, 1.947139e+002
9.611127e+001, 1.924211e+002
9.659338e+001, 1.915294e+002
9.707550e+001, 1.911270e+002
9.755762e+001, 1.902341e+002
9.803973e+001, 1.888412e+002
9.852185e+001, 1.871230e+002
9.900397e+001, 1.849477e+002
9.948608e+001, 1.822880e+002
9.996820e+001, 1.801433e+002
1.004503e+002, 1.787043e+002
1.009324e+002, 1.775348e+002
1.014146e+002, 1.756471e+002
1.018967e+002, 1.727998e+002
1.023788e+002, 1.698773e+002
1.028609e+002, 1.672159e+002
1.033430e+002, 1.647312e+002
1.038251e+002, 1.628994e+002
1.043073e+002, 1.620016e+002
1.047894e+002, 1.618296e+002
1.052715e+002, 1.613392e+002
1.057536e+002, 1.606183e+002
1.062357e+002, 1.594797e+002
1.067178e+002, 1.576898e+002
1.072000e+002, 1.543480e+002
1.076821e+002, 1.516956e+002
1.081642e+002, 1.502973e+002
1.086463e+002, 1.502748e+002
1.091284e+002, 1.498209e+002
1.096105e+002, 1.488882e+002
1.100927e+002, 1.475400e+002
1.105748e+002, 1.458470e+002
1.110569e+002, 1.430766e+002
1.115390e+002, 1.406518e+002
1.120211e+002, 1.390132e+002
1.125032e+002, 1.384129e+002
1.129854e+002, 1.377205e+002
1.134675e+002, 1.370925e+002
1.139496e+002, 1.362341e+002
1.144317e+002, 1.347030e+002
1.149138e+002, 1.310188e+002
1.153959e+002, 1.276692e+002
1.158781e+002, 1.260152e+002
1.163602e+002, 1.272408e+002
1.168423e+002, 1.280628e+002
1.173244e+002, 1.269543e+002
1.178065e+002, 1.245234e+002
1.182886e+002, 1.223178e+002
1.187708e+002, 1.212800e+002
1.192529e+002, 1.205770e+002
1.197350e+002, 1.195232e+002
1.202171e+002, 1.174344e+002
1.206992e+002, 1.155594e+002
1.211813e+002, 1.149825e+002
1.216635e+002, 1.154826e+002
1.221456e+002, 1.158605e+002
1.226277e+002, 1.153359e+002
1.231098e+002, 1.142507e+002
1.235919e+002, 1.130531e+002
1.240740e+002, 1.118447e+002
1.245562e+002, 1.106237e+002
1.250383e+002, 1.093620e+002
1.255204e+002, 1.080547e+002
1.260025e+002, 1.068354e+002
1.264846e+002, 1.058430e+002
1.269667e+002, 1.050315e+002
1.274489e+002, 1.042856e+002
1.279310e+002, 1.036582e+002
1.284131e+002, 1.030462e+002
1.288952e+002, 1.022657e+002
1.293773e+002, 1.013116e+002
1.298594e+002, 1.001705e+002
1.303416e+002, 9.849982e+001
1.308237e+002, 9.643662e+001
1.313058e+002, 9.486893e+001
1.317879e+002, 9.473328e+001
1.322700e+002, 9.565727e+001
1.327521e+002, 9.570902e+001
1.332343e+002, 9.452023e+001
1.337164e+002, 9.279736e+001
1.341985e+002, 9.182368e+001
1.346806e+002, 9.164259e+001
1.351627e+002, 9.163745e+001
1.356448e+002, 9.152477e+001
1.361270e+002, 9.130830e+001
1.366091e+002, 9.073779e+001
1.370912e+002, 8.965769e+001
1.375733e+002, 8.826543e+001
1.380554e+002, 8.716447e+001
1.385375e+002, 8.640409e+001
1.390197e+002, 8.578508e+001
1.395018e+002, 8.511259e+001
1.399839e+002, 8.433360e+001
1.404660e+002, 8.378542e+001
1.409481e+002, 8.364890e+001
1.414302e+002, 8.386618e+001
1.419124e+002, 8.364867e+001
1.423945e+002, 8.287979e+001
1.428766e+002, 8.184300e+001
1.433587e+002, 8.076254e+001
1.438408e+002, 7.951399e+001
1.443229e+002, 7.850517e+001
1.448051e+002, 7.791808e+001
1.452872e+002, 7.783379e+001
1.457693e+002, 7.747913e+001
1.462514e+002, 7.659746e+001
1.467335e+002, 7.560146e+001
1.472156e+002, 7.503242e+001
1.476978e+002, 7.536848e+001
1.481799e+002, 7.554896e+001
1.486620e+002, 7.528041e+001
1.491441e+002, 7.439780e+001
1.496262e+002, 7.351244e+001
1.501083e+002, 7.246570e+001
1.505905e+002, 7.145292e+001
1.510726e+002, 7.081868e+001
1.515547e+002, 7.093568e+001
1.520368e+002, 7.111356e+001
1.525189e+002, 7.118479e+001
1.530010e+002, 7.132126e+001
1.534832e+002, 7.103381e+001
1.539653e+002, 6.981240e+001
1.544474e+002, 6.811753e+001
1.549295e+002, 6.705472e+001
1.554116e+002, 6.762794e+001
1.558937e+002, 6.823478e+001
1.563759e+002, 6.811728e+001
1.568580e+002, 6.645763e+001
1.573401e+002, 6.503143e+001
1.578222e+002, 6.418747e+001
1.583043e+002, 6.384616e+001
1.587864e+002, 6.371370e+001
1.592686e+002, 6.399323e+001
1.597507e+002, 6.429220e+001
1.602328e+002, 6.436080e+001
1.607149e+002, 6.412221e+001
1.611970e+002, 6.366369e+001
1.616791e+002, 6.282951e+001
1.621613e+002, 6.170849e+001
1.626434e+002, 6.080875e+001
1.631255e+002, 6.046379e+001
1.636076e+002, 6.038712e+001
1.640897e+002, 6.032349e+001
1.645718e+002, 6.013831e+001
1.650540e+002, 5.999048e+001
1.655361e+002, 6.004108e+001
1.660182e+002, 6.027679e+001
1.665003e+002, 6.037175e+001
1.669824e+002, 6.012160e+001
1.674645e+002, 5.963746e+001
1.679467e+002, 5.906206e+001
1.684288e+002, 5.818148e+001
1.689109e+002, 5.740716e+001
1.693930e+002, 5.715503e+001
1.698751e+002, 5.746080e+001
1.703572e+002, 5.770742e+001
1.708394e+002, 5.738732e+001
1.713215e+002, 5.672798e+001
1.718036e+002, 5.612006e+001
1.722857e+002, 5.577190e+001
1.727678e+002, 5.553214e+001
1.732499e+002, 5.519298e+001
1.737321e+002, 5.470672e+001
1.742142e+002, 5.437912e+001
1.746963e+002, 5.458451e+001
1.751784e+002, 5.515266e+001
1.756605e+002, 5.568252e+001
1.761426e+002, 5.581834e+001
1.766248e+002, 5.584168e+001
1.771069e+002, 5.615449e+001
1.775890e+002, 5.682644e+001
1.780711e+002, 5.765204e+001
1.785532e+002, 5.834800e+001
1.790353e+002, 5.899407e+001
1.795175e+002, 5.984765e+001
1.799996e+002, 6.133899e+001
1.804817e+002, 6.310085e+001
1.809638e+002, 6.442784e+001
1.814459e+002, 6.518757e+001
1.819280e+002, 6.563755e+001
1.824102e+002, 6.599678e+001
1.828923e+002, 6.629256e+001
1.833744e+002, 6.674178e+001
1.838565e+002, 6.752538e+001
1.843386e+002, 6.857362e+001
1.848207e+002, 6.971225e+001
1.853029e+002, 7.101221e+001
1.857850e+002, 7.223821e+001
1.862671e+002, 7.287866e+001
1.867492e+002, 7.296068e+001
1.872313e+002, 7.312047e+001
1.877134e+002, 7.381086e+001
1.881956e+002, 7.496684e+001
1.886777e+002, 7.625172e+001
1.891598e+002, 7.763909e+001
1.896419e+002, 7.911624e+001
1.901240e+002, 8.075341e+001
1.906061e+002, 8.258548e+001
1.910883e+002, 8.426432e+001
1.915704e+002, 8.526466e+001
1.920525e+002, 8.571456e+001
1.925346e+002, 8.682193e+001
1.930167e+002, 8.888781e+001
1.934988e+002, 9.161720e+001
1.939810e+002, 9.414858e+001
1.944631e+002, 9.641709e+001
1.949452e+002, 9.850345e+001
1.954273e+002, 1.000698e+002
1.959094e+002, 1.011318e+002
1.963915e+002, 1.020214e+002
1.968737e+002, 1.026924e+002
1.973558e+002, 1.032782e+002
1.978379e+002, 1.043808e+002
1.983200e+002, 1.060962e+002
1.988021e+002, 1.078601e+002
1.992842e+002, 1.091595e+002
1.997664e+002, 1.099951e+002
2.002485e+002, 1.107005e+002
2.007306e+002, 1.113732e+002
2.012127e+002, 1.119855e+002
2.016948e+002, 1.122713e+002
2.021769e+002, 1.120980e+002
2.026591e+002, 1.120183e+002
2.031412e+002, 1.126623e+002
2.036233e+002, 1.141410e+002
2.041054e+002, 1.154973e+002
2.045875e+002, 1.165527e+002
2.050696e+002, 1.173165e+002
2.055518e+002, 1.177746e+002
2.060339e+002, 1.178384e+002
2.065160e+002, 1.178010e+002
2.069981e+002, 1.179367e+002
2.074802e+002, 1.182395e+002
2.079623e+002, 1.187217e+002
2.084445e+002, 1.194467e+002
2.089266e+002, 1.204008e+002
2.094087e+002, 1.212262e+002
2.098908e+002, 1.219866e+002
2.103729e+002, 1.225235e+002
2.108550e+002, 1.226333e+002
2.113372e+002, 1.222454e+002
2.118193e+002, 1.216734e+002
2.123014e+002, 1.208672e+002
2.127835e+002, 1.198299e+002
2.132656e+002, 1.193499e+002
2.137477e+002, 1.196973e+002
2.142298e+002, 1.202151e+002
2.147120e+002, 1.200829e+002
2.151941e+002, 1.190731e+002
2.156762e+002, 1.180574e+002
2.161583e+002, 1.172813e+002
2.166404e+002, 1.167736e+002
2.171225e+002, 1.160630e+002
2.176047e+002, 1.151233e+002
2.180868e+002, 1.140134e+002
2.185689e+002, 1.127367e+002
2.190510e+002, 1.111298e+002
2.195331e+002, 1.097376e+002
2.200152e+002, 1.087778e+002
2.204974e+002, 1.083202e+002
2.209795e+002, 1.074552e+002
2.214616e+002, 1.059951e+002
2.219437e+002, 1.043245e+002
2.224258e+002, 1.029132e+002
2.229079e+002, 1.019217e+002
2.233901e+002, 1.008648e+002
2.238722e+002, 9.961642e+001
2.243543e+002, 9.813499e+001
2.248364e+002, 9.671777e+001
2.253185e+002, 9.538790e+001
2.258006e+002, 9.411349e+001
2.262828e+002, 9.283749e+001
2.267649e+002, 9.156283e+001
2.272470e+002, 9.029076e+001
2.277291e+002, 8.906081e+001
2.282112e+002, 8.786987e+001
2.286933e+002, 8.657713e+001
2.291755e+002, 8.505645e+001
2.296576e+002, 8.354122e+001
2.301397e+002, 8.238675e+001
2.306218e+002, 8.177139e+001
2.311039e+002, 8.116433e+001
2.315860e+002, 8.043698e+001
2.320682e+002, 7.956028e+001
2.325503e+002, 7.871737e+001
2.330324e+002, 7.796304e+001
2.335145e+002, 7.720433e+001
2.339966e+002, 7.629117e+001
2.344787e+002, 7.510141e+001
2.349609e+002, 7.398970e+001
2.354430e+002, 7.306152e+001
2.359251e+002, 7.234374e+001
2.364072e+002, 7.159983e+001
2.368893e+002, 7.071449e+001
2.373714e+002, 6.989510e+001
2.378536e+002, 6.944384e+001
2.383357e+002, 6.963627e+001
2.388178e+002, 6.969971e+001
2.392999e+002, 6.939751e+001
2.397820e+002, 6.867181e+001
2.402641e+002, 6.803522e+001
2.407463e+002, 6.751167e+001
2.412284e+002, 6.705394e+001
2.417105e+002, 6.663538e+001
2.421926e+002, 6.639511e+001
2.426747e+002, 6.592864e+001
2.431568e+002, 6.501133e+001
2.436390e+002, 6.352351e+001
2.441211e+002, 6.258868e+001
2.446032e+002, 6.249586e+001
2.450853e+002, 6.268848e+001
2.455674e+002, 6.251241e+001
2.460495e+002, 6.178211e+001
2.465317e+002, 6.102252e+001
2.470138e+002, 6.031870e+001
2.474959e+002, 5.966238e+001
2.479780e+002, 5.916219e+001
2.484601e+002, 5.893291e+001
2.489422e+002, 5.874479e+001
2.494244e+002, 5.832319e+001
2.499065e+002, 5.751731e+001
2.503886e+002, 5.677947e+001
2.508707e+002, 5.621353e+001
2.513528e+002, 5.583055e+001
2.518349e+002, 5.548634e+001
2.523171e+002, 5.524915e+001
2.527992e+002, 5.498152e+001
2.532813e+002, 5.452666e+001
2.537634e+002, 5.380263e+001
2.542455e+002, 5.307338e+001
2.547276e+002, 5.236323e+001
2.552098e+002, 5.166707e+001
2.556919e+002, 5.112229e+001
2.561740e+002, 5.080239e+001
2.566561e+002, 5.054004e+001
2.571382e+002, 5.014563e+001
2.576204e+002, 4.946961e+001
2.581025e+002, 4.903215e+001
2.585846e+002, 4.904778e+001
2.590667e+002, 4.948101e+001
2.595488e+002, 4.952446e+001
2.600309e+002, 4.902348e+001
2.605131e+002, 4.835997e+001
2.609952e+002, 4.788075e+001
2.614773e+002, 4.765599e+001
2.619594e+002, 4.741552e+001
2.624415e+002, 4.714094e+001
2.629236e+002, 4.682292e+001
2.634058e+002, 4.633083e+001
2.638879e+002, 4.548421e+001
2.643700e+002, 4.476139e+001
2.648521e+002, 4.462251e+001
2.653342e+002, 4.532031e+001
2.658163e+002, 4.574294e+001
2.662985e+002, 4.566356e+001
2.667806e+002, 4.517146e+001
2.672627e+002, 4.476343e+001
2.677448e+002, 4.446483e+001
2.682269e+002, 4.420164e+001
2.687090e+002, 4.391954e+001
2.691912e+002, 4.360627e+001
2.696733e+002, 4.330450e+001
2.701554e+002, 4.299223e+001
2.706375e+002, 4.269928e+001
2.711196e+002, 4.261363e+001
2.716017e+002, 4.283594e+001
2.720839e+002, 4.298668e+001
2.725660e+002, 4.273650e+001
2.730481e+002, 4.199475e+001
2.735302e+002, 4.145652e+001
2.740123e+002, 4.122871e+001
2.744944e+002, 4.121543e+001
2.749766e+002, 4.112627e+001
2.754587e+002, 4.093628e+001
2.759408e+002, 4.076984e+001
2.764229e+002, 4.074464e+001
2.769050e+002, 4.088182e+001
2.773871e+002, 4.089070e+001
2.778693e+002, 4.073211e+001
2.783514e+002, 4.045707e+001
2.788335e+002, 4.017060e+001
2.793156e+002, 3.987038e+001
2.797977e+002, 3.955742e+001
2.802798e+002, 3.916505e+001
2.807620e+002, 3.869440e+001
2.812441e+002, 3.850636e+001
2.817262e+002, 3.869350e+001
2.822083e+002, 3.903222e+001
2.826904e+002, 3.911745e+001
2.831725e+002, 3.893461e+001
2.836547e+002, 3.870464e+001
2.841368e+002, 3.858836e+001
2.846189e+002, 3.856105e+001
2.851010e+002, 3.824700e+001
2.855831e+002, 3.755956e+001
2.860652e+002, 3.680638e+001
2.865474e+002, 3.649471e+001
2.870295e+002, 3.661516e+001
2.875116e+002, 3.670948e+001
2.879937e+002, 3.648910e+001
2.884758e+002, 3.603740e+001
2.889579e+002, 3.590892e+001
2.894401e+002, 3.615298e+001
2.899222e+002, 3.645458e+001
2.904043e+002, 3.636346e+001
2.908864e+002, 3.593396e+001
2.913685e+002, 3.560693e+001
2.918506e+002, 3.564646e+001
2.923328e+002, 3.590240e+001
2.928149e+002, 3.592721e+001
2.932970e+002, 3.571226e+001
2.937791e+002, 3.538398e+001
2.942612e+002, 3.502125e+001
2.947433e+002, 3.464160e+001
2.952255e+002, 3.431942e+001
2.957076e+002, 3.407515e+001
2.961897e+002, 3.390805e+001
2.966718e+002, 3.386115e+001
2.971539e+002, 3.393121e+001
2.976360e+002, 3.399016e+001
2.981182e+002, 3.390273e+001
2.986003e+002, 3.371904e+001
2.990824e+002, 3.356546e+001
2.995645e+002, 3.349422e+001
3.000466e+002, 3.344879e+001
3.005287e+002, 3.334292e+001
3.010109e+002, 3.318423e+001
3.014930e+002, 3.302174e+001
3.019751e+002, 3.289351e+001
3.024572e+002, 3.278595e+001
3.029393e+002, 3.267947e+001
3.034214e+002, 3.256922e+001
3.039036e+002, 3.245793e+001
3.043857e+002, 3.234583e+001
3.048678e+002, 3.223473e+001
3.053499e+002, 3.212833e+001
3.058320e+002, 3.202952e+001
3.063141e+002, 3.193759e+001
3.067963e+002, 3.183954e+001
3.072784e+002, 3.171056e+001
3.077605e+002, 3.163939e+001
3.082426e+002, 3.178453e+001
3.087247e+002, 3.205153e+001
3.092068e+002, 3.221408e+001
3.096890e+002, 3.209346e+001
3.101711e+002, 3.185354e+001
3.106532e+002, 3.161545e+001
3.111353e+002, 3.138474e+001
3.116174e+002, 3.120126e+001
3.120995e+002, 3.117856e+001
3.125817e+002, 3.120968e+001
3.130638e+002, 3.112251e+001
3.135459e+002, 3.059542e+001
3.140280e+002, 3.011516e+001
3.145101e+002, 3.006724e+001
3.149922e+002, 3.050675e+001
3.154744e+002, 3.086012e+001
3.159565e+002, 3.079753e+001
3.164386e+002, 3.051892e+001
3.169207e+002, 3.025365e+001
3.174028e+002, 3.010658e+001
3.178849e+002, 2.995639e+001
3.183671e+002, 2.970447e+001
3.188492e+002, 2.935930e+001
3.193313e+002, 2.914401e+001
3.198134e+002, 2.931679e+001
3.202955e+002, 2.955399e+001
3.207776e+002, 2.959632e+001
3.212598e+002, 2.906551e+001
3.217419e+002, 2.867673e+001
3.222240e+002, 2.871484e+001
3.227061e+002, 2.908487e+001
3.231882e+002, 2.928834e+001
3.236703e+002, 2.912020e+001
3.241525e+002, 2.883422e+001
3.246346e+002, 2.856174e+001
3.251167e+002, 2.816006e+001
3.255988e+002, 2.798335e+001
3.260809e+002, 2.831844e+001
3.265630e+002, 2.892504e+001
3.270452e+002, 2.914450e+001
3.275273e+002, 2.835301e+001
3.280094e+002, 2.767282e+001
3.284915e+002, 2.756206e+001
3.289736e+002, 2.848512e+001
3.294557e+002, 2.894013e+001
3.299379e+002, 2.859780e+001
3.304200e+002, 2.789060e+001
3.309021e+002, 2.752173e+001
3.313842e+002, 2.773844e+001
3.318663e+002, 2.796181e+001
3.323484e+002, 2.804895e+001
3.328306e+002, 2.798781e+001
3.333127e+002, 2.785127e+001
3.337948e+002, 2.757876e+001
3.342769e+002, 2.728398e+001
3.347590e+002, 2.709808e+001
3.352411e+002, 2.705567e+001
3.357233e+002, 2.704130e+001
3.362054e+002, 2.702869e+001
3.366875e+002, 2.702077e+001
3.371696e+002, 2.708292e+001
3.376517e+002, 2.726841e+001
3.381338e+002, 2.742281e+001
3.386159e+002, 2.741357e+001
3.390981e+002, 2.722091e+001
3.395802e+002, 2.694309e+001
3.400623e+002, 2.652668e+001
3.405444e+002, 2.606549e+001
3.410265e+002, 2.595102e+001
3.415086e+002, 2.624943e+001
3.419908e+002, 2.656452e+001
3.424729e+002, 2.660368e+001
3.429550e+002, 2.636833e+001
3.434371e+002, 2.627921e+001
3.439192e+002, 2.641074e+001
3.444013e+002, 2.662429e+001
3.448835e+002, 2.667301e+001
3.453656e+002, 2.655774e+001
3.458477e+002, 2.638106e+001
3.463298e+002, 2.607627e+001
3.468119e+002, 2.572462e+001
3.472940e+002, 2.577699e+001
3.477762e+002, 2.630687e+001
3.482583e+002, 2.690145e+001
3.487404e+002, 2.707293e+001
3.492225e+002, 2.688420e+001
3.497046e+002, 2.659267e+001
3.501867e+002, 2.615055e+001
3.506689e+002, 2.573342e+001
3.511510e+002, 2.575044e+001
3.516331e+002, 2.619286e+001
3.521152e+002, 2.661878e+001
3.525973e+002, 2.660956e+001
3.530794e+002, 2.632964e+001
3.535616e+002, 2.607998e+001
3.540437e+002, 2.593859e+001
3.545258e+002, 2.586637e+001
3.550079e+002, 2.590164e+001
3.554900e+002, 2.600150e+001
3.559721e+002, 2.597585e+001
3.564543e+002, 2.547701e+001
3.569364e+002, 2.490278e+001
3.574185e+002, 2.470819e+001
3.579006e+002, 2.511186e+001
3.583827e+002, 2.552692e+001
3.588648e+002, 2.555384e+001
3.593470e+002, 2.532848e+001
3.598291e+002, 2.512737e+001
3.603112e+002, 2.499143e+001
3.607933e+002, 2.497570e+001
3.612754e+002, 2.517951e+001
3.617575e+002, 2.565644e+001
3.622397e+002, 2.601404e+001
3.627218e+002, 2.598299e+001
3.632039e+002, 2.579645e+001
3.636860e+002, 2.571473e+001
3.641681e+002, 2.602332e+001
3.646502e+002, 2.623457e+001
3.651324e+002, 2.610225e+001
3.656145e+002, 2.564302e+001
3.660966e+002, 2.534768e+001
3.665787e+002, 2.539023e+001
3.670608e+002, 2.556333e+001
3.675429e+002, 2.573408e+001
3.680251e+002, 2.601517e+001
3.685072e+002, 2.614675e+001
3.689893e+002, 2.604162e+001
3.694714e+002, 2.576412e+001
3.699535e+002, 2.551549e+001
3.704356e+002, 2.519913e+001
3.709178e+002, 2.501438e+001
3.713999e+002, 2.506777e+001
3.718820e+002, 2.549426e+001
3.723641e+002, 2.581355e+001
3.728462e+002, 2.601241e+001
3.733283e+002, 2.610965e+001
3.738105e+002, 2.612386e+001
3.742926e+002, 2.602030e+001
3.747747e+002, 2.591296e+001
3.752568e+002, 2.584939e+001
3.757389e+002, 2.583025e+001
3.762210e+002, 2.568461e+001
3.767032e+002, 2.533015e+001
3.771853e+002, 2.501739e+001
3.776674e+002, 2.503739e+001
3.781495e+002, 2.543747e+001
3.786316e+002, 2.573870e+001
3.791137e+002, 2.580962e+001
3.795959e+002, 2.574751e+001
3.800780e+002, 2.588374e+001
3.805601e+002, 2.623523e+001
3.810422e+002, 2.659386e+001
3.815243e+002, 2.681817e+001
3.820064e+002, 2.692664e+001
3.824886e+002, 2.700817e+001
3.829707e+002, 2.707449e+001
3.834528e+002, 2.711218e+001
3.839349e+002, 2.708365e+001
3.844170e+002, 2.700111e+001
3.848991e+002, 2.693081e+001
3.853813e+002, 2.690708e+001
3.858634e+002, 2.691504e+001
3.863455e+002, 2.688465e+001
3.868276e+002, 2.680768e+001
3.873097e+002, 2.685567e+001
3.877918e+002, 2.738200e+001
3.882740e+002, 2.811139e+001
3.887561e+002, 2.853564e+001
3.892382e+002, 2.820781e+001
3.897203e+002, 2.778805e+001
3.902024e+002, 2.789840e+001
3.906845e+002, 2.843411e+001
3.911667e+002, 2.890598e+001
3.916488e+002, 2.900311e+001
3.921309e+002, 2.893426e+001
3.926130e+002, 2.888599e+001
3.930951e+002, 2.895276e+001
3.935772e+002, 2.891555e+001
3.940594e+002, 2.844329e+001
3.945415e+002, 2.782496e+001
3.950236e+002, 2.759686e+001
3.955057e+002, 2.828994e+001
3.959878e+002, 2.908139e+001
3.964699e+002, 2.968636e+001
3.969521e+002, 3.008550e+001
3.974342e+002, 3.028278e+001
3.979163e+002, 3.013864e+001
3.983984e+002, 2.986065e+001
3.988805e+002, 2.963818e+001
3.993626e+002, 2.934523e+001
3.998448e+002, 2.927221e+001
4.003269e+002, 2.957204e+001
4.008090e+002, 3.017910e+001
4.012911e+002, 3.058625e+001
4.017732e+002, 3.072746e+001
4.022553e+002, 3.075200e+001
4.027375e+002, 3.071775e+001
4.032196e+002, 3.056531e+001
4.037017e+002, 3.051338e+001
4.041838e+002, 3.061382e+001
4.046659e+002, 3.077828e+001
4.051480e+002, 3.082216e+001
4.056302e+002, 3.070729e+001
4.061123e+002, 3.061570e+001
4.065944e+002, 3.063206e+001
4.070765e+002, 3.074835e+001
4.075586e+002, 3.078264e+001
4.080407e+002, 3.072310e+001
4.085229e+002, 3.062745e+001
4.090050e+002, 3.052272e+001
4.094871e+002, 3.041566e+001
4.099692e+002, 3.042281e+001
4.104513e+002, 3.064974e+001
4.109334e+002, 3.091468e+001
4.114156e+002, 3.078269e+001
4.118977e+002, 3.028418e+001
4.123798e+002, 2.975996e+001
4.128619e+002, 2.939587e+001
4.133440e+002, 2.917832e+001
4.138261e+002, 2.911778e+001
4.143083e+002, 2.924653e+001
4.147904e+002, 2.937853e+001
4.152725e+002, 2.928594e+001
4.157546e+002, 2.906392e+001
4.162367e+002, 2.890728e+001
4.167188e+002, 2.900198e+001
4.172010e+002, 2.912863e+001
4.176831e+002, 2.907525e+001
4.181652e+002, 2.885281e+001
4.186473e+002, 2.868425e+001
4.191294e+002, 2.881821e+001
4.196115e+002, 2.899764e+001
4.200937e+002, 2.897893e+001
4.205758e+002, 2.851351e+001
4.210579e+002, 2.811960e+001
4.215400e+002, 2.795014e+001
4.220221e+002, 2.797226e+001
4.225042e+002, 2.809982e+001
4.229864e+002, 2.858445e+001
4.234685e+002, 2.893502e+001
4.239506e+002, 2.888157e+001
4.244327e+002, 2.819228e+001
4.249148e+002, 2.784279e+001
4.253969e+002, 2.816630e+001
4.258791e+002, 2.867745e+001
4.263612e+002, 2.888742e+001
4.268433e+002, 2.853811e+001
4.273254e+002, 2.830011e+001
4.278075e+002, 2.832384e+001
4.282896e+002, 2.855942e+001
4.287718e+002, 2.863557e+001
4.292539e+002, 2.847809e+001
4.297360e+002, 2.830919e+001
4.302181e+002, 2.825910e+001
4.307002e+002, 2.833785e+001
4.311823e+002, 2.847794e+001
4.316645e+002, 2.869508e+001
4.321466e+002, 2.894023e+001
4.326287e+002, 2.912864e+001
4.331108e+002, 2.925831e+001
4.335929e+002, 2.936757e+001
4.340750e+002, 2.946569e+001
4.345572e+002, 2.955565e+001
4.350393e+002, 2.964428e+001
4.355214e+002, 2.973133e+001
4.360035e+002, 2.982400e+001
4.364856e+002, 2.995374e+001
4.369677e+002, 3.009233e+001
4.374499e+002, 3.015624e+001
4.379320e+002, 3.008099e+001
4.384141e+002, 3.001805e+001
4.388962e+002, 3.019031e+001
4.393783e+002, 3.052178e+001
4.398604e+002, 3.078982e+001
4.403426e+002, 3.078985e+001
4.408247e+002, 3.072848e+001
4.413068e+002, 3.077538e+001
4.417889e+002, 3.094845e+001
4.422710e+002, 3.117755e+001
4.427531e+002, 3.153582e+001
4.432353e+002, 3.188733e+001
4.437174e+002, 3.209100e+001
4.441995e+002, 3.184400e+001
4.446816e+002, 3.172095e+001
4.451637e+002, 3.203980e+001
4.456458e+002, 3.266832e+001
4.461280e+002, 3.301073e+001
4.466101e+002, 3.270261e+001
4.470922e+002, 3.232029e+001
4.475743e+002, 3.210554e+001
4.480564e+002, 3.210708e+001
4.485385e+002, 3.217086e+001
4.490207e+002, 3.237794e+001
4.495028e+002, 3.259586e+001
4.499849e+002, 3.262959e+001
4.504670e+002, 3.236328e+001
4.509491e+002, 3.217282e+001
4.514312e+002, 3.213803e+001
4.519134e+002, 3.224832e+001
4.523955e+002, 3.249414e+001
4.528776e+002, 3.294927e+001
4.533597e+002, 3.327273e+001
4.538418e+002, 3.309320e+001
4.543239e+002, 3.243132e+001
4.548061e+002, 3.214172e+001
4.552882e+002, 3.238750e+001
4.557703e+002, 3.278828e+001
4.562524e+002, 3.270654e+001
4.567345e+002, 3.221331e+001
4.572166e+002, 3.179393e+001
4.576988e+002, 3.173940e+001
4.581809e+002, 3.184519e+001
4.586630e+002, 3.175812e+001
4.591451e+002, 3.148584e+001
4.596272e+002, 3.114229e+001
4.601093e+002, 3.071191e+001
4.605915e+002, 3.030038e+001
4.610736e+002, 3.007823e+001
4.615557e+002, 3.018564e+001
4.620378e+002, 3.025397e+001
4.625199e+002, 3.000838e+001
4.630020e+002, 2.955480e+001
4.634842e+002, 2.910356e+001
4.639663e+002, 2.867861e+001
4.644484e+002, 2.832244e+001
4.649305e+002, 2.810450e+001
4.654126e+002, 2.803747e+001
4.658947e+002, 2.789598e+001
4.663769e+002, 2.752051e+001
4.668590e+002, 2.712411e+001
4.673411e+002, 2.686279e+001
4.678232e+002, 2.690996e+001
4.683053e+002, 2.687039e+001
4.687874e+002, 2.670481e+001
4.692696e+002, 2.645038e+001
4.697517e+002, 2.617545e+001
4.702338e+002, 2.580113e+001
4.707159e+002, 2.556314e+001
4.711980e+002, 2.561467e+001
4.716801e+002, 2.597649e+001
4.721623e+002, 2.605106e+001
4.726444e+002, 2.577216e+001
4.731265e+002, 2.538579e+001
4.736086e+002, 2.514126e+001
4.740907e+002, 2.503576e+001
4.745728e+002, 2.489274e+001
4.750550e+002, 2.465672e+001
4.755371e+002, 2.440436e+001
4.760192e+002, 2.429395e+001
4.765013e+002, 2.431113e+001
4.769834e+002, 2.434667e+001
4.774655e+002, 2.433210e+001
4.779477e+002, 2.429958e+001
4.784298e+002, 2.433090e+001
4.789119e+002, 2.443253e+001
4.793940e+002, 2.447222e+001
4.798761e+002, 2.423321e+001
4.803582e+002, 2.390513e+001
4.808404e+002, 2.374643e+001
4.813225e+002, 2.394703e+001
4.818046e+002, 2.417343e+001
4.822867e+002, 2.425030e+001
4.827688e+002, 2.422077e+001
4.832509e+002, 2.419528e+001
4.837331e+002, 2.412457e+001
4.842152e+002, 2.413993e+001
4.846973e+002, 2.439326e+001
4.851794e+002, 2.501200e+001
4.856615e+002, 2.526494e+001
4.861436e+002, 2.456819e+001
4.866258e+002, 2.379894e+001
4.871079e+002, 2.367282e+001
4.875900e+002, 2.483705e+001
4.880721e+002, 2.547474e+001
4.885542e+002, 2.519373e+001
4.890363e+002, 2.435666e+001
4.895185e+002, 2.404989e+001
4.900006e+002, 2.443714e+001
4.904827e+002, 2.484113e+001
4.909648e+002, 2.493604e+001
4.914469e+002, 2.474208e+001
4.919290e+002, 2.467525e+001
4.924112e+002, 2.475249e+001
4.928933e+002, 2.487791e+001
4.933754e+002, 2.494756e+001
4.938575e+002, 2.497914e+001
4.943396e+002, 2.504613e+001
4.948217e+002, 2.515845e+001
4.953039e+002, 2.532438e+001
4.957860e+002, 2.559977e+001
4.962681e+002, 2.594845e+001
4.967502e+002, 2.624507e+001
4.972323e+002, 2.642715e+001
4.977144e+002, 2.652648e+001
4.981966e+002, 2.655866e+001
4.986787e+002, 2.652515e+001
4.991608e+002, 2.647153e+001
4.996429e+002, 2.627695e+001
5.001250e+002, 2.614849e+001
5.006071e+002, 2.628714e+001
5.010893e+002, 2.714914e+001
5.015714e+002, 2.770717e+001
5.020535e+002, 2.745789e+001
5.025356e+002, 2.676188e+001
5.030177e+002, 2.644470e+001
5.034998e+002, 2.701034e+001
5.039820e+002, 2.747873e+001
5.044641e+002, 2.759586e+001
5.049462e+002, 2.735287e+001
5.054283e+002, 2.703480e+001
5.059104e+002, 2.655651e+001
5.063925e+002, 2.613998e+001
5.068747e+002, 2.597771e+001
5.073568e+002, 2.610745e+001
5.078389e+002, 2.624178e+001
5.083210e+002, 2.636306e+001
5.088031e+002, 2.646204e+001
5.092852e+002, 2.650577e+001
5.097674e+002, 2.649813e+001
5.102495e+002, 2.651084e+001
5.107316e+002, 2.663937e+001
5.112137e+002, 2.677893e+001
5.116958e+002, 2.663578e+001
5.121780e+002, 2.623406e+001
5.126601e+002, 2.587711e+001
5.131422e+002, 2.586842e+001
5.136243e+002, 2.600339e+001
5.141064e+002, 2.602806e+001
5.145886e+002, 2.589452e+001
5.150707e+002, 2.566253e+001
5.155528e+002, 2.527482e+001
5.160349e+002, 2.483704e+001
5.165170e+002, 2.449550e+001
5.169991e+002, 2.421164e+001
5.174813e+002, 2.411819e+001
5.179634e+002, 2.442194e+001
5.184455e+002, 2.504687e+001
5.189276e+002, 2.537922e+001
5.194097e+002, 2.515948e+001
5.198918e+002, 2.479076e+001
5.203740e+002, 2.440687e+001
5.208561e+002, 2.396451e+001
5.213382e+002, 2.365726e+001
5.218203e+002, 2.357068e+001
5.223024e+002, 2.351914e+001
5.227845e+002, 2.319942e+001
5.232667e+002, 2.250150e+001
5.237488e+002, 2.219777e+001
5.242309e+002, 2.258996e+001
5.247130e+002, 2.333261e+001
5.251951e+002, 2.353757e+001
5.256772e+002, 2.321331e+001
5.261594e+002, 2.277653e+001
5.266415e+002, 2.241406e+001
5.271236e+002, 2.211404e+001
5.276057e+002, 2.183148e+001
5.280878e+002, 2.156468e+001
5.285699e+002, 2.140495e+001
5.290521e+002, 2.154173e+001
5.295342e+002, 2.179523e+001
5.300163e+002, 2.192390e+001
5.304984e+002, 2.182313e+001
5.309805e+002, 2.166108e+001
5.314626e+002, 2.151955e+001
5.319448e+002, 2.138328e+001
5.324269e+002, 2.122333e+001
5.329090e+002, 2.095309e+001
5.333911e+002, 2.073187e+001
5.338732e+002, 2.063073e+001
5.343553e+002, 2.065717e+001
5.348375e+002, 2.066593e+001
5.353196e+002, 2.069947e+001
5.358017e+002, 2.066804e+001
5.362838e+002, 2.048902e+001
5.367659e+002, 2.002358e+001
5.372480e+002, 1.982754e+001
5.377302e+002, 2.001672e+001
5.382123e+002, 2.032267e+001
5.386944e+002, 2.029513e+001
5.391765e+002, 1.990198e+001
5.396586e+002, 1.964614e+001
5.401407e+002, 1.972467e+001
5.406229e+002, 1.997544e+001
5.411050e+002, 2.003392e+001
5.415871e+002, 1.990851e+001
5.420692e+002, 1.967966e+001
5.425513e+002, 1.924793e+001
5.430334e+002, 1.879896e+001
5.435156e+002, 1.866259e+001
5.439977e+002, 1.886959e+001
5.444798e+002, 1.911622e+001
5.449619e+002, 1.927111e+001
5.454440e+002, 1.931500e+001
5.459261e+002, 1.921136e+001
5.464083e+002, 1.876647e+001
5.468904e+002, 1.843750e+001
5.473725e+002, 1.846855e+001
5.478546e+002, 1.871935e+001
5.483367e+002, 1.889042e+001
5.488188e+002, 1.896720e+001
5.493010e+002, 1.892303e+001
5.497831e+002, 1.869475e+001
5.502652e+002, 1.828659e+001
5.507473e+002, 1.802832e+001
5.512294e+002, 1.797652e+001
5.517115e+002, 1.797883e+001
5.521937e+002, 1.794358e+001
5.526758e+002, 1.786660e+001
5.531579e+002, 1.780353e+001
5.536400e+002, 1.776997e+001
5.541221e+002, 1.771506e+001
5.546042e+002, 1.748078e+001
5.550864e+002, 1.712188e+001
5.555685e+002, 1.700456e+001
5.560506e+002, 1.734988e+001
5.565327e+002, 1.784629e+001
5.570148e+002, 1.808843e+001
5.574969e+002, 1.810607e+001
5.579791e+002, 1.801090e+001
5.584612e+002, 1.773309e+001
5.589433e+002, 1.746026e+001
5.594254e+002, 1.737638e+001
5.599075e+002, 1.749565e+001
5.603896e+002, 1.760544e+001
5.608718e+002, 1.764404e+001
5.613539e+002, 1.762380e+001
5.618360e+002, 1.754718e+001
5.623181e+002, 1.730050e+001
5.628002e+002, 1.717449e+001
5.632823e+002, 1.726060e+001
5.637645e+002, 1.744062e+001
5.642466e+002, 1.754764e+001
5.647287e+002, 1.760379e+001
5.652108e+002, 1.751934e+001
5.656929e+002, 1.718654e+001
5.661750e+002, 1.670874e+001
5.666572e+002, 1.661179e+001
5.671393e+002, 1.695398e+001
5.676214e+002, 1.725860e+001
5.681035e+002, 1.715769e+001
5.685856e+002, 1.677580e+001
5.690677e+002, 1.663318e+001
5.695499e+002, 1.676328e+001
5.700320e+002, 1.688954e+001
5.705141e+002, 1.664341e+001
5.709962e+002, 1.624688e+001
5.714783e+002, 1.609290e+001
5.719604e+002, 1.640650e+001
5.724426e+002, 1.670934e+001
5.729247e+002, 1.660763e+001
5.734068e+002, 1.629556e+001
5.738889e+002, 1.611864e+001
5.743710e+002, 1.631893e+001
5.748531e+002, 1.654437e+001
5.753353e+002, 1.670325e+001
5.758174e+002, 1.679037e+001
5.762995e+002, 1.680061e+001
5.767816e+002, 1.668864e+001
5.772637e+002, 1.655450e+001
5.777458e+002, 1.643228e+001
5.782280e+002, 1.631649e+001
5.787101e+002, 1.624566e+001
5.791922e+002, 1.622152e+001
5.796743e+002, 1.623835e+001
5.801564e+002, 1.631887e+001
5.806385e+002, 1.645624e+001
5.811207e+002, 1.652030e+001
5.816028e+002, 1.647074e+001
5.820849e+002, 1.637718e+001
5.825670e+002, 1.634103e+001
5.830491e+002, 1.634922e+001
5.835313e+002, 1.635781e+001
5.840133e+002, 1.635413e+001
5.844954e+002, 1.633586e+001
5.849775e+002, 1.632540e+001
5.854597e+002, 1.630932e+001
5.859418e+002, 1.621342e+001
5.864239e+002, 1.576871e+001
5.869060e+002, 1.541439e+001
5.873881e+002, 1.547405e+001
5.878702e+002, 1.613885e+001
5.883524e+002, 1.659983e+001
5.888345e+002, 1.670659e+001
5.893166e+002, 1.660694e+001
5.897987e+002, 1.637162e+001
5.902808e+002, 1.582090e+001
5.907629e+002, 1.557572e+001
5.912451e+002, 1.579850e+001
5.917272e+002, 1.622522e+001
5.922093e+002, 1.632454e+001
5.926914e+002, 1.607294e+001
5.931735e+002, 1.585387e+001
5.936556e+002, 1.577881e+001
5.941378e+002, 1.583302e+001
5.946199e+002, 1.607610e+001
5.951020e+002, 1.647096e+001
5.955841e+002, 1.673069e+001
5.960662e+002, 1.655997e+001
5.965483e+002, 1.620807e+001
5.970305e+002, 1.594559e+001
5.975126e+002, 1.579527e+001
5.979947e+002, 1.570419e+001
5.984768e+002, 1.555729e+001
5.989589e+002, 1.550594e+001
5.994410e+002, 1.571320e+001
5.999232e+002, 1.658901e+001
6.004053e+002, 1.710080e+001
6.008874e+002, 1.679874e+001
6.013695e+002, 1.614894e+001
6.018516e+002, 1.579558e+001
6.023337e+002, 1.587624e+001
6.028159e+002, 1.599069e+001
6.032980e+002, 1.607437e+001
6.037801e+002, 1.613681e+001
6.042622e+002, 1.623573e+001
6.047443e+002, 1.638223e+001
6.052264e+002, 1.646357e+001
6.057086e+002, 1.640634e+001
6.061907e+002, 1.623658e+001
6.066728e+002, 1.598952e+001
6.071549e+002, 1.566924e+001
6.076370e+002, 1.545429e+001
6.081191e+002, 1.552404e+001
6.086013e+002, 1.577258e+001
6.090834e+002, 1.612665e+001
6.095655e+002, 1.665129e+001
6.100476e+002, 1.695747e+001
6.105297e+002, 1.664774e+001
6.110118e+002, 1.608254e+001
6.114940e+002, 1.566249e+001
6.119761e+002, 1.548070e+001
6.124582e+002, 1.545496e+001
6.129403e+002, 1.570686e+001
6.134224e+002, 1.608710e+001
6.139045e+002, 1.626295e+001
6.143867e+002, 1.614716e+001
6.148688e+002, 1.599910e+001
6.153509e+002, 1.586393e+001
6.158330e+002, 1.575500e+001
6.163151e+002, 1.578015e+001
6.167972e+002, 1.595261e+001
6.172794e+002, 1.612329e+001
6.177615e+002, 1.616252e+001
6.182436e+002, 1.612214e+001
6.187257e+002, 1.617575e+001
6.192078e+002, 1.633735e+001
6.196899e+002, 1.645962e+001
6.201721e+002, 1.638527e+001
6.206542e+002, 1.621116e+001
6.211363e+002, 1.605106e+001
6.216184e+002, 1.591030e+001
6.221005e+002, 1.583050e+001
6.225826e+002, 1.587328e+001
6.230648e+002, 1.597363e+001
6.235469e+002, 1.604066e+001
6.240290e+002, 1.599223e+001
6.245111e+002, 1.599603e+001
6.249932e+002, 1.615086e+001
6.254753e+002, 1.637154e+001
6.259575e+002, 1.632912e+001
6.264396e+002, 1.590780e+001
6.269217e+002, 1.556175e+001
6.274038e+002, 1.546963e+001
6.278859e+002, 1.560138e+001
6.283680e+002, 1.583533e+001
6.288502e+002, 1.617887e+001
6.293323e+002, 1.642974e+001
6.298144e+002, 1.635937e+001
6.302965e+002, 1.610888e+001
6.307786e+002, 1.594641e+001
6.312607e+002, 1.590078e+001
6.317429e+002, 1.589261e+001
6.322250e+002, 1.586715e+001
6.327071e+002, 1.584577e+001
6.331892e+002, 1.585219e+001
6.336713e+002, 1.590338e+001
6.341534e+002, 1.596330e+001
6.346356e+002, 1.603414e+001
6.351177e+002, 1.610452e+001
6.355998e+002, 1.615647e+001
6.360819e+002, 1.616905e+001
6.365640e+002, 1.619566e+001
6.370461e+002, 1.623965e+001
6.375283e+002, 1.630523e+001
6.380104e+002, 1.642508e+001
6.384925e+002, 1.661588e+001
6.389746e+002, 1.676375e+001
6.394567e+002, 1.684648e+001
6.399388e+002, 1.684402e+001
6.404210e+002, 1.661892e+001
6.409031e+002, 1.618517e+001
6.413852e+002, 1.581426e+001
6.418673e+002, 1.574169e+001
6.423494e+002, 1.582278e+001
6.428315e+002, 1.590971e+001
6.433137e+002, 1.599131e+001
6.437958e+002, 1.602491e+001
6.442779e+002, 1.585527e+001
6.447600e+002, 1.570267e+001
6.452421e+002, 1.577111e+001
6.457242e+002, 1.635313e+001
6.462064e+002, 1.675541e+001
6.466885e+002, 1.691109e+001
6.471706e+002, 1.689287e+001
6.476527e+002, 1.677959e+001
6.481348e+002, 1.654238e+001
6.486169e+002, 1.628674e+001
6.490991e+002, 1.599153e+001
6.495812e+002, 1.572676e+001
6.500633e+002, 1.572567e+001
6.505454e+002, 1.596344e+001
6.510275e+002, 1.607604e+001
6.515096e+002, 1.572348e+001
6.519918e+002, 1.524891e+001
6.524739e+002, 1.527034e+001
6.529560e+002, 1.569721e+001
6.534381e+002, 1.605668e+001
6.539202e+002, 1.597969e+001
6.544023e+002, 1.580587e+001
6.548845e+002, 1.578847e+001
6.553666e+002, 1.597049e+001
6.558487e+002, 1.607463e+001
6.563308e+002, 1.597172e+001
6.568129e+002, 1.582260e+001
6.572950e+002, 1.572316e+001
6.577772e+002, 1.568810e+001
6.582593e+002, 1.566626e+001
6.587414e+002, 1.566458e+001
6.592235e+002, 1.566497e+001
6.597056e+002, 1.563292e+001
6.601877e+002, 1.557004e+001
6.606699e+002, 1.556060e+001
6.611520e+002, 1.563338e+001
6.616341e+002, 1.573044e+001
6.621162e+002, 1.578562e+001
6.625983e+002, 1.579977e+001
6.630804e+002, 1.577298e+001
6.635626e+002, 1.564943e+001
6.640447e+002, 1.554256e+001
6.645268e+002, 1.553115e+001
6.650089e+002, 1.560062e+001
6.654910e+002, 1.570753e+001
6.659731e+002, 1.602478e+001
6.664553e+002, 1.619407e+001
6.669374e+002, 1.599236e+001
6.674195e+002, 1.545414e+001
6.679016e+002, 1.508525e+001
6.683837e+002, 1.493192e+001
6.688658e+002, 1.485705e+001
6.693480e+002, 1.481772e+001
6.698301e+002, 1.481262e+001
6.703122e+002, 1.469923e+001
6.707943e+002, 1.445574e+001
6.712764e+002, 1.426918e+001
6.717585e+002, 1.438855e+001
6.722407e+002, 1.467389e+001
6.727228e+002, 1.479111e+001
6.732049e+002, 1.467397e+001
6.736870e+002, 1.453121e+001
6.741691e+002, 1.452177e+001
6.746512e+002, 1.457263e+001
6.751334e+002, 1.460206e+001
6.756155e+002, 1.461828e+001
6.760976e+002, 1.456741e+001
6.765797e+002, 1.435642e+001
6.770618e+002, 1.409854e+001
6.775439e+002, 1.396853e+001
6.780261e+002, 1.403052e+001
6.785082e+002, 1.408698e+001
6.789903e+002, 1.410071e+001
6.794724e+002, 1.409151e+001
6.799545e+002, 1.414243e+001
6.804366e+002, 1.425443e+001
6.809188e+002, 1.426264e+001
6.814009e+002, 1.400450e+001
6.818830e+002, 1.365995e+001
6.823651e+002, 1.359835e+001
6.828472e+002, 1.377217e+001
6.833293e+002, 1.394717e+001
6.838115e+002, 1.402910e+001
6.842936e+002, 1.402857e+001
6.847757e+002, 1.392615e+001
6.852578e+002, 1.372332e+001
6.857399e+002, 1.354282e+001
6.862220e+002, 1.337050e+001
6.867042e+002, 1.327236e+001
6.871863e+002, 1.329968e+001
6.876684e+002, 1.350203e+001
6.881505e+002, 1.361009e+001
6.886326e+002, 1.360368e+001
6.891147e+002, 1.354723e+001
6.895969e+002, 1.348764e+001
6.900790e+002, 1.342530e+001
6.905611e+002, 1.338832e+001
6.910432e+002, 1.338979e+001
6.915253e+002, 1.336409e+001
6.920074e+002, 1.315876e+001
6.924896e+002, 1.288710e+001
6.929717e+002, 1.277644e+001
6.934538e+002, 1.297248e+001
6.939359e+002, 1.317528e+001
6.944180e+002, 1.319463e+001
6.949001e+002, 1.311325e+001
6.953823e+002, 1.305945e+001
6.958644e+002, 1.305212e+001
6.963465e+002, 1.309113e+001
6.968286e+002, 1.322687e+001
6.973107e+002, 1.339602e+001
6.977928e+002, 1.341543e+001
6.982750e+002, 1.324571e+001
6.987571e+002, 1.307181e+001
6.992392e+002, 1.293838e+001
6.997213e+002, 1.285094e+001
7.002034e+002, 1.285450e+001
7.006855e+002, 1.293777e+001
7.011677e+002, 1.300233e+001
7.016498e+002, 1.300711e+001
7.021319e+002, 1.295209e+001
7.026140e+002, 1.278740e+001
7.030961e+002, 1.253286e+001
7.035782e+002, 1.236113e+001
7.040604e+002, 1.241046e+001
7.045425e+002, 1.251537e+001
7.050246e+002, 1.257720e+001
7.055067e+002, 1.257270e+001
7.059888e+002, 1.262387e+001
7.064709e+002, 1.278417e+001
7.069531e+002, 1.293107e+001
7.074352e+002, 1.298087e+001
7.079173e+002, 1.292644e+001
7.083994e+002, 1.285154e+001
7.088815e+002, 1.275346e+001
7.093636e+002, 1.265528e+001
7.098458e+002, 1.256183e+001
7.103279e+002, 1.248883e+001
7.108100e+002, 1.249174e+001
7.112921e+002, 1.260219e+001
7.117742e+002, 1.269180e+001
7.122563e+002, 1.263260e+001
7.127385e+002, 1.250980e+001
7.132206e+002, 1.242778e+001
7.137027e+002, 1.250870e+001
7.141848e+002, 1.250161e+001
7.146669e+002, 1.224735e+001
7.151490e+002, 1.192613e+001
7.156312e+002, 1.179268e+001
7.161133e+002, 1.192760e+001
7.165954e+002, 1.201958e+001
7.170775e+002, 1.198599e+001
7.175596e+002, 1.191654e+001
7.180417e+002, 1.206276e+001
7.185239e+002, 1.239432e+001
7.190060e+002, 1.259272e+001
7.194881e+002, 1.244211e+001
7.199702e+002, 1.219560e+001
7.204523e+002, 1.217816e+001
7.209344e+002, 1.232752e+001
7.214166e+002, 1.245903e+001
7.218987e+002, 1.252314e+001
7.223808e+002, 1.251399e+001
7.228629e+002, 1.239548e+001
7.233450e+002, 1.218313e+001
7.238271e+002, 1.199663e+001
7.243093e+002, 1.177475e+001
7.247914e+002, 1.168370e+001
7.252735e+002, 1.183867e+001
7.257556e+002, 1.220917e+001
7.262377e+002, 1.240823e+001
7.267198e+002, 1.242727e+001
7.272020e+002, 1.236442e+001
7.276841e+002, 1.221349e+001
7.281662e+002, 1.204541e+001
7.286483e+002, 1.206034e+001
7.291304e+002, 1.225658e+001
7.296125e+002, 1.242743e+001
7.300947e+002, 1.240214e+001
7.305768e+002, 1.231385e+001
7.310589e+002, 1.227987e+001
7.315410e+002, 1.233550e+001
7.320231e+002, 1.233417e+001
7.325052e+002, 1.218847e+001
7.329874e+002, 1.202724e+001
7.334695e+002, 1.192570e+001
7.339516e+002, 1.189689e+001
7.344337e+002, 1.188145e+001
7.349158e+002, 1.187411e+001
7.353979e+002, 1.189399e+001
7.358801e+002, 1.200364e+001
7.363622e+002, 1.216650e+001
7.368443e+002, 1.220532e+001
7.373264e+002, 1.206877e+001
7.378085e+002, 1.193042e+001
7.382906e+002, 1.196455e+001
7.387728e+002, 1.209196e+001
7.392549e+002, 1.221795e+001
7.397370e+002, 1.237227e+001
7.402191e+002, 1.242807e+001
7.407012e+002, 1.224299e+001
7.411833e+002, 1.198422e+001
7.416655e+002, 1.188253e+001
7.421476e+002, 1.203646e+001
7.426297e+002, 1.210667e+001
7.431118e+002, 1.202436e+001
7.435939e+002, 1.187851e+001
7.440760e+002, 1.181579e+001
7.445582e+002, 1.183467e+001
7.450403e+002, 1.192906e+001
7.455224e+002, 1.214129e+001
7.460045e+002, 1.235162e+001
7.464866e+002, 1.243117e+001
7.469688e+002, 1.239595e+001
7.474509e+002, 1.227869e+001
7.479330e+002, 1.201586e+001
7.484151e+002, 1.175476e+001
7.488972e+002, 1.150880e+001
7.493793e+002, 1.130560e+001
7.498615e+002, 1.123272e+001
7.503436e+002, 1.132799e+001
7.508257e+002, 1.149085e+001
7.513078e+002, 1.174617e+001
7.517899e+002, 1.203246e+001
7.522720e+002, 1.207695e+001
7.527542e+002, 1.188055e+001
7.532363e+002, 1.171168e+001
7.537184e+002, 1.172417e+001
7.542005e+002, 1.182891e+001
7.546826e+002, 1.192393e+001
7.551647e+002, 1.199740e+001
7.556469e+002, 1.199576e+001
7.561290e+002, 1.178183e+001
7.566111e+002, 1.158558e+001
7.570932e+002, 1.154139e+001
7.575753e+002, 1.164845e+001
7.580574e+002, 1.175862e+001
7.585396e+002, 1.188814e+001
7.590217e+002, 1.198245e+001
7.595038e+002, 1.202834e+001
7.599859e+002, 1.202348e+001
7.604680e+002, 1.191715e+001
7.609501e+002, 1.169936e+001
7.614323e+002, 1.150383e+001
7.619144e+002, 1.145592e+001
7.623965e+002, 1.147703e+001
7.628786e+002, 1.139650e+001
7.633607e+002, 1.122243e+001
7.638428e+002, 1.110376e+001
7.643250e+002, 1.115792e+001
7.648071e+002, 1.127849e+001
7.652892e+002, 1.142255e+001
7.657713e+002, 1.160292e+001
7.662534e+002, 1.166019e+001
7.667355e+002, 1.148924e+001
7.672177e+002, 1.132428e+001
7.676998e+002, 1.130582e+001
7.681819e+002, 1.144438e+001
7.686640e+002, 1.155585e+001
7.691461e+002, 1.164140e+001
7.696282e+002, 1.168454e+001
7.701104e+002, 1.163837e+001
7.705925e+002, 1.154882e+001
7.710746e+002, 1.149325e+001
7.715567e+002, 1.147832e+001
7.720388e+002, 1.152149e+001
7.725209e+002, 1.173617e+001
7.730031e+002, 1.194409e+001
7.734852e+002, 1.198447e+001
7.739673e+002, 1.175099e+001
7.744494e+002, 1.163040e+001
7.749315e+002, 1.170149e+001
7.754136e+002, 1.180812e+001
7.758958e+002, 1.182207e+001
7.763779e+002, 1.173166e+001
7.768600e+002, 1.172570e+001
7.773421e+002, 1.182830e+001
7.778242e+002, 1.190646e+001
7.783063e+002, 1.179690e+001
7.787885e+002, 1.157515e+001
7.792706e+002, 1.135569e+001
7.797527e+002, 1.114186e+001
7.802348e+002, 1.104110e+001
7.807169e+002, 1.126097e+001
7.811990e+002, 1.153993e+001
7.816812e+002, 1.163663e+001
7.821633e+002, 1.135934e+001
7.826454e+002, 1.120959e+001
7.831275e+002, 1.126140e+001
7.836096e+002, 1.135214e+001
7.840917e+002, 1.129258e+001
7.845739e+002, 1.107856e+001
7.850560e+002, 1.098072e+001
7.855381e+002, 1.103602e+001
7.860202e+002, 1.115357e+001
7.865023e+002, 1.126310e+001
7.869844e+002, 1.135712e+001
7.874666e+002, 1.143198e+001
7.879487e+002, 1.150073e+001
7.884308e+002, 1.150368e+001
7.889129e+002, 1.133064e+001
7.893950e+002, 1.112026e+001
7.898771e+002, 1.101401e+001
7.903593e+002, 1.103983e+001
7.908414e+002, 1.115445e+001
7.913235e+002, 1.142640e+001
7.918056e+002, 1.168966e+001
7.922877e+002, 1.170258e+001
7.927698e+002, 1.148419e+001
7.932520e+002, 1.133543e+001
7.937341e+002, 1.130554e+001
7.942162e+002, 1.131934e+001
7.946983e+002, 1.131110e+001
7.951804e+002, 1.128632e+001
7.956625e+002, 1.124671e+001
7.961447e+002, 1.116409e+001
7.966268e+002, 1.113267e+001
7.971089e+002, 1.124833e+001
7.975910e+002, 1.140019e+001
7.980731e+002, 1.145839e+001
7.985552e+002, 1.135452e+001
7.990374e+002, 1.132842e+001
7.995195e+002, 1.142758e+001
8.000016e+002, 1.154191e+001
8.004837e+002, 1.152657e+001
8.009658e+002, 1.139753e+001
8.014479e+002, 1.122951e+001
8.019301e+002, 1.101858e+001
8.024122e+002, 1.084983e+001
8.028943e+002, 1.081421e+001
8.033764e+002, 1.087028e+001
8.038585e+002, 1.097830e+001
8.043406e+002, 1.124421e+001
8.048228e+002, 1.134909e+001
8.053049e+002, 1.101745e+001
8.057870e+002, 1.061830e+001
8.062691e+002, 1.053980e+001
8.067512e+002, 1.088301e+001
8.072333e+002, 1.114530e+001
8.077155e+002, 1.127106e+001
8.081976e+002, 1.133549e+001
8.086797e+002, 1.145057e+001
8.091618e+002, 1.158282e+001
8.096439e+002, 1.162355e+001
8.101260e+002, 1.153082e+001
8.106082e+002, 1.141700e+001
8.110903e+002, 1.135156e+001
8.115724e+002, 1.131730e+001
8.120545e+002, 1.129733e+001
8.125366e+002, 1.131049e+001
8.130187e+002, 1.130149e+001
8.135009e+002, 1.126618e+001
8.139830e+002, 1.121055e+001
8.144651e+002, 1.112394e+001
8.149472e+002, 1.099974e+001
8.154293e+002, 1.095465e+001
8.159114e+002, 1.100768e+001
8.163936e+002, 1.110545e+001
8.168757e+002, 1.126636e+001
8.173578e+002, 1.140684e+001
8.178399e+002, 1.134888e+001
8.183220e+002, 1.098313e+001
8.188041e+002, 1.066799e+001
8.192863e+002, 1.050945e+001
8.197684e+002, 1.051943e+001
8.202505e+002, 1.075246e+001
8.207326e+002, 1.147494e+001
8.212147e+002, 1.177967e+001
8.216968e+002, 1.153891e+001
8.221790e+002, 1.110921e+001
8.226611e+002, 1.083734e+001
8.231432e+002, 1.070861e+001
8.236253e+002, 1.067055e+001
8.241074e+002, 1.072355e+001
8.245895e+002, 1.080477e+001
8.250717e+002, 1.087427e+001
8.255538e+002, 1.093079e+001
8.260359e+002, 1.097590e+001
8.265180e+002, 1.101775e+001
8.270001e+002, 1.102067e+001
8.274822e+002, 1.097461e+001
8.279644e+002, 1.088785e+001
8.284465e+002, 1.074623e+001
8.289286e+002, 1.052099e+001
8.294107e+002, 1.037599e+001
8.298928e+002, 1.030413e+001
8.303749e+002, 1.035156e+001
8.308571e+002, 1.065469e+001
8.313392e+002, 1.108656e+001
8.318213e+002, 1.141246e+001
8.323034e+002, 1.160829e+001
8.327855e+002, 1.161532e+001
8.332676e+002, 1.115985e+001
8.337498e+002, 1.066718e+001
8.342319e+002, 1.047655e+001
8.347140e+002, 1.071327e+001
8.351961e+002, 1.090669e+001
8.356782e+002, 1.106672e+001
8.361603e+002, 1.116564e+001
8.366425e+002, 1.116798e+001
8.371246e+002, 1.107997e+001
8.376067e+002, 1.099030e+001
8.380888e+002, 1.089931e+001
8.385709e+002, 1.082256e+001
8.390530e+002, 1.070928e+001
8.395352e+002, 1.065558e+001
8.400173e+002, 1.082867e+001
8.404994e+002, 1.123270e+001
8.409815e+002, 1.152740e+001
8.414636e+002, 1.160467e+001
8.419457e+002, 1.153002e+001
8.424279e+002, 1.124747e+001
8.429100e+002, 1.076709e+001
8.433921e+002, 1.075438e+001
8.438742e+002, 1.131394e+001
8.443563e+002, 1.176689e+001
8.448384e+002, 1.153885e+001
8.453206e+002, 1.095953e+001
8.458027e+002, 1.084190e+001
8.462848e+002, 1.111356e+001
8.467669e+002, 1.137474e+001
8.472490e+002, 1.143759e+001
8.477311e+002, 1.139272e+001
8.482133e+002, 1.125948e+001
8.486954e+002, 1.104881e+001
8.491775e+002, 1.083524e+001
8.496596e+002, 1.052401e+001
8.501417e+002, 1.041512e+001
8.506238e+002, 1.069086e+001
8.511060e+002, 1.119960e+001
8.515881e+002, 1.143314e+001
8.520702e+002, 1.141075e+001
8.525523e+002, 1.128985e+001
8.530344e+002, 1.104568e+001
8.535165e+002, 1.083457e+001
8.539987e+002, 1.086398e+001
8.544808e+002, 1.103856e+001
8.549629e+002, 1.111636e+001
8.554450e+002, 1.090217e+001
8.559271e+002, 1.073348e+001
8.564092e+002, 1.067819e+001
8.568914e+002, 1.070884e+001
8.573735e+002, 1.078105e+001
8.578556e+002, 1.090217e+001
8.583377e+002, 1.096010e+001
8.588198e+002, 1.088483e+001
8.593019e+002, 1.081720e+001
8.597841e+002, 1.111320e+001
8.602662e+002, 1.155632e+001
8.607483e+002, 1.167443e+001
8.612304e+002, 1.099216e+001
8.617125e+002, 1.043024e+001
8.621946e+002, 1.041674e+001
8.626768e+002, 1.069222e+001
8.631589e+002, 1.089412e+001
8.636410e+002, 1.104472e+001
8.641231e+002, 1.103521e+001
8.646052e+002, 1.080301e+001
8.650873e+002, 1.053646e+001
8.655695e+002, 1.052585e+001
8.660516e+002, 1.068669e+001
8.665337e+002, 1.072548e+001
8.670158e+002, 1.055450e+001
8.674979e+002, 1.043182e+001
8.679800e+002, 1.063446e+001
8.684622e+002, 1.092033e+001
8.689443e+002, 1.105476e+001
8.694264e+002, 1.095373e+001
8.699085e+002, 1.079043e+001
8.703906e+002, 1.046598e+001
8.708727e+002, 1.023780e+001
8.713549e+002, 1.042840e+001
8.718370e+002, 1.098132e+001
8.723191e+002, 1.117448e+001
8.728012e+002, 1.097811e+001
8.732833e+002, 1.070139e+001
8.737654e+002, 1.054054e+001
8.742476e+002, 1.046337e+001
8.747297e+002, 1.045653e+001
8.752118e+002, 1.051952e+001
8.756939e+002, 1.057606e+001
8.761760e+002, 1.063493e+001
8.766581e+002, 1.064992e+001
8.771403e+002, 1.057116e+001
8.776224e+002, 1.041372e+001
8.781045e+002, 1.040252e+001
8.785866e+002, 1.054285e+001
8.790687e+002, 1.070850e+001
8.795508e+002, 1.085606e+001
8.800330e+002, 1.096259e+001
8.805151e+002, 1.096558e+001
8.809972e+002, 1.089106e+001
8.814793e+002, 1.083842e+001
8.819614e+002, 1.091526e+001
8.824435e+002, 1.094998e+001
8.829257e+002, 1.085965e+001
8.834078e+002, 1.068229e+001
8.838899e+002, 1.048897e+001
8.843720e+002, 1.025233e+001
8.848541e+002, 1.015510e+001
8.853362e+002, 1.028474e+001
8.858184e+002, 1.052360e+001
8.863005e+002, 1.069608e+001
8.867826e+002, 1.081095e+001
8.872647e+002, 1.088990e+001
8.877468e+002, 1.095565e+001
8.882289e+002, 1.096491e+001
8.887111e+002, 1.086548e+001
8.891932e+002, 1.070975e+001
8.896753e+002, 1.056563e+001
8.901574e+002, 1.040205e+001
8.906395e+002, 1.035099e+001
8.911216e+002, 1.044992e+001
8.916038e+002, 1.059978e+001
8.920859e+002, 1.067943e+001
8.925680e+002, 1.070927e+001
8.930501e+002, 1.077429e+001
8.935322e+002, 1.090330e+001
8.940143e+002, 1.094792e+001
8.944965e+002, 1.068640e+001
8.949786e+002, 1.037378e+001
8.954607e+002, 1.023474e+001
8.959428e+002, 1.034572e+001
8.964249e+002, 1.045582e+001
8.969070e+002, 1.059138e+001
8.973892e+002, 1.067104e+001
8.978713e+002, 1.057694e+001
8.983534e+002, 1.036069e+001
8.988355e+002, 1.039775e+001
8.993176e+002, 1.066791e+001
8.997997e+002, 1.084090e+001
9.002819e+002, 1.056599e+001
9.007640e+002, 1.021518e+001
9.012461e+002, 1.004270e+001
9.017282e+002, 1.005667e+001
9.022103e+002, 1.018958e+001
9.026924e+002, 1.057570e+001
9.031746e+002, 1.082187e+001
9.036567e+002, 1.076082e+001
9.041388e+002, 1.050850e+001
9.046209e+002, 1.044284e+001
9.051030e+002, 1.054613e+001
9.055851e+002, 1.066176e+001
9.060673e+002, 1.077415e+001
9.065494e+002, 1.080514e+001
9.070315e+002, 1.054816e+001
9.075136e+002, 1.018951e+001
9.079957e+002, 1.005558e+001
9.084778e+002, 1.045794e+001
9.089600e+002, 1.078731e+001
9.094421e+002, 1.099481e+001
9.099242e+002, 1.110188e+001
9.104063e+002, 1.111021e+001
9.108884e+002, 1.102719e+001
9.113705e+002, 1.100908e+001
9.118527e+002, 1.109493e+001
9.123348e+002, 1.114418e+001
9.128169e+002, 1.093499e+001
9.132990e+002, 1.066023e+001
9.137811e+002, 1.057166e+001
9.142632e+002, 1.078634e+001
9.147454e+002, 1.085298e+001
9.152275e+002, 1.053944e+001
9.157096e+002, 1.026092e+001
9.161917e+002, 1.031762e+001
9.166738e+002, 1.070066e+001
9.171559e+002, 1.073783e+001
9.176381e+002, 1.042518e+001
9.181202e+002, 1.022066e+001
9.186023e+002, 1.067744e+001
9.190844e+002, 1.124441e+001
9.195665e+002, 1.122469e+001
9.200486e+002, 1.071816e+001
9.205308e+002, 1.039786e+001
9.210129e+002, 1.062269e+001
9.214950e+002, 1.086858e+001
9.219771e+002, 1.102980e+001
9.224592e+002, 1.110824e+001
9.229413e+002, 1.107841e+001
9.234235e+002, 1.094322e+001
9.239056e+002, 1.085591e+001
9.243877e+002, 1.089416e+001
9.248698e+002, 1.094547e+001
9.253519e+002, 1.085953e+001
9.258340e+002, 1.070560e+001
9.263162e+002, 1.059177e+001
9.267983e+002, 1.054389e+001
9.272804e+002, 1.054641e+001
9.277625e+002, 1.057742e+001
9.282446e+002, 1.067194e+001
9.287267e+002, 1.092819e+001
9.292089e+002, 1.134830e+001
9.296910e+002, 1.149586e+001
9.301731e+002, 1.132008e+001
9.306552e+002, 1.109628e+001
9.311373e+002, 1.111007e+001
9.316194e+002, 1.119220e+001
9.321016e+002, 1.111166e+001
9.325837e+002, 1.083390e+001
9.330658e+002, 1.068513e+001
9.335479e+002, 1.083062e+001
9.340300e+002, 1.101884e+001
9.345121e+002, 1.118644e+001
9.349943e+002, 1.131885e+001
9.354764e+002, 1.127734e+001
9.359585e+002, 1.106549e+001
9.364406e+002, 1.085365e+001
9.369227e+002, 1.068279e+001
9.374048e+002, 1.059126e+001
9.378870e+002, 1.066340e+001
9.383691e+002, 1.084193e+001
9.388512e+002, 1.099268e+001
9.393333e+002, 1.109736e+001
9.398154e+002, 1.114134e+001
9.402975e+002, 1.109020e+001
9.407797e+002, 1.101361e+001
9.412618e+002, 1.102969e+001
9.417439e+002, 1.113151e+001
9.422260e+002, 1.121754e+001
9.427081e+002, 1.126631e+001
9.431902e+002, 1.132765e+001
9.436724e+002, 1.155065e+001
9.441545e+002, 1.175183e+001
9.446366e+002, 1.166955e+001
9.451187e+002, 1.111029e+001
9.456008e+002, 1.093704e+001
9.460829e+002, 1.147231e+001
9.465651e+002, 1.198622e+001
9.470472e+002, 1.202698e+001
9.475293e+002, 1.165090e+001
9.480114e+002, 1.127722e+001
9.484935e+002, 1.091398e+001
9.489756e+002, 1.067719e+001
9.494578e+002, 1.069410e+001
9.499399e+002, 1.081829e+001
9.504220e+002, 1.098642e+001
9.509041e+002, 1.117377e+001
9.513862e+002, 1.129763e+001
9.518683e+002, 1.140359e+001
9.523505e+002, 1.133768e+001
9.528326e+002, 1.099895e+001
9.533147e+002, 1.057451e+001
9.537968e+002, 1.044939e+001
9.542789e+002, 1.055780e+001
9.547610e+002, 1.059813e+001
9.552432e+002, 1.045906e+001
9.557253e+002, 1.037375e+001
9.562074e+002, 1.062527e+001
9.566895e+002, 1.094560e+001
9.571716e+002, 1.103938e+001
9.576537e+002, 1.075576e+001
9.581359e+002, 1.069254e+001
9.586180e+002, 1.096060e+001
9.591001e+002, 1.116878e+001
9.595822e+002, 1.089267e+001
9.600643e+002, 1.034563e+001
9.605464e+002, 1.024818e+001
9.610286e+002, 1.055579e+001
9.615107e+002, 1.082766e+001
9.619928e+002, 1.074089e+001
9.624749e+002, 1.062640e+001
9.629570e+002, 1.072848e+001
9.634391e+002, 1.095138e+001
9.639213e+002, 1.090275e+001
9.644034e+002, 1.048270e+001
9.648855e+002, 1.020297e+001
9.653676e+002, 1.021815e+001
9.658497e+002, 1.036668e+001
9.663318e+002, 1.039167e+001
9.668140e+002, 1.035359e+001
9.672961e+002, 1.038545e+001
9.677782e+002, 1.055570e+001
9.682603e+002, 1.070924e+001
9.687424e+002, 1.081791e+001
9.692245e+002, 1.086122e+001
9.697067e+002, 1.079926e+001
9.701888e+002, 1.059985e+001
9.706709e+002, 1.056882e+001
9.711530e+002, 1.072660e+001
9.716351e+002, 1.085911e+001
9.721172e+002, 1.074666e+001
9.725994e+002, 1.054505e+001
9.730815e+002, 1.045379e+001
9.735636e+002, 1.046579e+001
9.740457e+002, 1.049179e+001
9.745278e+002, 1.048825e+001
9.750099e+002, 1.051794e+001
9.754921e+002, 1.063103e+001
9.759742e+002, 1.076598e+001
9.764563e+002, 1.074471e+001
9.769384e+002, 1.057732e+001
9.774205e+002, 1.046275e+001
9.779026e+002, 1.047250e+001
9.783848e+002, 1.049196e+001
9.788669e+002, 1.036897e+001
9.793490e+002, 1.021314e+001
9.798311e+002, 1.016877e+001
9.803132e+002, 1.034376e+001
9.807953e+002, 1.041284e+001
9.812775e+002, 1.033253e+001
9.817596e+002, 1.020484e+001
9.822417e+002, 1.005379e+001
9.827238e+002, 9.908536e+000
9.832059e+002, 9.964437e+000
9.836880e+002, 1.020131e+001
9.841702e+002, 1.043553e+001
9.846523e+002, 1.054598e+001
9.851344e+002, 1.062739e+001
9.856165e+002, 1.075036e+001
9.860986e+002, 1.089180e+001
9.865807e+002, 1.097510e+001
9.870629e+002, 1.100810e+001
9.875450e+002, 1.094148e+001
9.880271e+002, 1.073416e+001
9.885092e+002, 1.049867e+001
9.889913e+002, 1.042896e+001
9.894734e+002, 1.045570e+001
9.899556e+002, 1.041922e+001
9.904377e+002, 1.025038e+001
9.909198e+002, 1.016870e+001
9.914019e+002, 1.039551e+001
9.918840e+002, 1.062857e+001
9.923661e+002, 1.065328e+001
9.928483e+002, 1.046204e+001
9.933304e+002, 1.032453e+001
9.938125e+002, 1.024209e+001
9.942946e+002, 1.018965e+001
9.947767e+002, 1.017041e+001
9.952589e+002, 1.015886e+001
9.957410e+002, 1.013912e+001
9.962231e+002, 1.010178e+001
9.967052e+002, 1.002024e+001
9.971873e+002, 9.778562e+000
9.976694e+002, 9.645617e+000
9.981516e+002, 9.683568e+000
9.986337e+002, 9.813839e+000
9.991158e+002, 9.930893e+000
9.995979e+002, 1.003594e+001
1.000080e+003, 1.012185e+001
1.000562e+003, 1.018442e+001
1.001044e+003, 1.027041e+001
1.001526e+003, 1.052354e+001
1.002008e+003, 1.073872e+001
1.002491e+003, 1.068351e+001
1.002973e+003, 1.030062e+001
1.003455e+003, 1.015750e+001
1.003937e+003, 1.032998e+001
1.004419e+003, 1.050719e+001
1.004901e+003, 1.056807e+001
1.005383e+003, 1.052463e+001
1.005865e+003, 1.032861e+001
1.006348e+003, 1.004871e+001
1.006830e+003, 9.875761e+000
1.007312e+003, 1.001258e+001
1.007794e+003, 1.012252e+001
1.008276e+003, 1.000815e+001
1.008758e+003, 9.876023e+000
1.009240e+003, 9.988812e+000
1.009722e+003, 1.038674e+001
1.010204e+003, 1.059435e+001
1.010687e+003, 1.057254e+001
1.011169e+003, 1.046786e+001
1.011651e+003, 1.040348e+001
1.012133e+003, 1.033228e+001
1.012615e+003, 1.018084e+001
1.013097e+003, 9.952027e+000
1.013579e+003, 9.773392e+000
1.014061e+003, 9.621857e+000
1.014544e+003, 9.599685e+000
1.015026e+003, 9.783292e+000
1.015508e+003, 1.007281e+001
1.015990e+003, 1.021233e+001
1.016472e+003, 1.023912e+001
1.016954e+003, 1.032551e+001
1.017436e+003, 1.059361e+001
1.017918e+003, 1.075752e+001
1.018400e+003, 1.055437e+001
1.018883e+003, 1.021029e+001
1.019365e+003, 9.916341e+000
1.019847e+003, 9.628161e+000
1.020329e+003, 9.691064e+000
1.020811e+003, 1.017180e+001
1.021293e+003, 1.063903e+001
1.021775e+003, 1.083509e+001
1.022257e+003, 1.079202e+001
1.022740e+003, 1.038738e+001
1.023222e+003, 9.758874e+000
1.023704e+003, 9.415770e+000
1.024186e+003, 9.830949e+000
1.024668e+003, 1.018043e+001
1.025150e+003, 1.026619e+001
1.025632e+003, 1.022154e+001
1.026114e+003, 1.026904e+001
1.026596e+003, 1.039580e+001
1.027079e+003, 1.051471e+001
1.027561e+003, 1.062338e+001
1.028043e+003, 1.062535e+001
1.028525e+003, 1.028955e+001
1.029007e+003, 9.923100e+000
1.029489e+003, 9.824738e+000
1.029971e+003, 1.003604e+001
1.030453e+003, 1.016635e+001
1.030936e+003, 1.020589e+001
1.031418e+003, 1.019600e+001
1.031900e+003, 1.014708e+001
1.032382e+003, 1.006796e+001
1.032864e+003, 9.916486e+000
1.033346e+003, 9.753691e+000
1.033828e+003, 9.734982e+000
1.034310e+003, 1.008561e+001
1.034792e+003, 1.032129e+001
1.035275e+003, 1.023746e+001
1.035757e+003, 1.007019e+001
1.036239e+003, 1.002485e+001
1.036721e+003, 1.010175e+001
1.037203e+003, 1.015224e+001
1.037685e+003, 1.017115e+001
1.038167e+003, 1.017587e+001
1.038649e+003, 1.017492e+001
1.039131e+003, 1.016838e+001
1.039614e+003, 1.012606e+001
1.040096e+003, 1.007184e+001
1.040578e+003, 1.013817e+001
1.041060e+003, 1.044960e+001
1.041542e+003, 1.054151e+001
1.042024e+003, 1.026060e+001
1.042506e+003, 9.875464e+000
1.042988e+003, 9.763271e+000
1.043471e+003, 9.855911e+000
1.043953e+003, 1.001846e+001
1.044435e+003, 1.023248e+001
1.044917e+003, 1.048231e+001
1.045399e+003, 1.099099e+001
1.045881e+003, 1.128414e+001
1.046363e+003, 1.100114e+001
1.046845e+003, 1.026038e+001
1.047328e+003, 1.011510e+001
1.047810e+003, 1.052284e+001
1.048292e+003, 1.077356e+001
1.048774e+003, 1.038791e+001
1.049256e+003, 9.931286e+000
1.049738e+003, 9.886091e+000
1.050220e+003, 1.005928e+001
1.050702e+003, 1.013855e+001
1.051184e+003, 1.004658e+001
1.051667e+003, 9.970387e+000
1.052149e+003, 9.902424e+000
1.052631e+003, 9.887103e+000
1.053113e+003, 1.001476e+001
1.053595e+003, 1.020161e+001
1.054077e+003, 1.029844e+001
1.054559e+003, 1.029998e+001
1.055041e+003, 1.022574e+001
1.055523e+003, 9.933092e+000
1.056006e+003, 9.761483e+000
1.056488e+003, 9.860394e+000
1.056970e+003, 1.007909e+001
1.057452e+003, 1.009002e+001
1.057934e+003, 9.919037e+000
1.058416e+003, 9.807946e+000
1.058898e+003, 9.809591e+000
1.059380e+003, 9.833034e+000
1.059863e+003, 9.722961e+000
1.060345e+003, 9.663930e+000
1.060827e+003, 9.921633e+000
1.061309e+003, 1.052126e+001
1.061791e+003, 1.060234e+001
1.062273e+003, 1.001999e+001
1.062755e+003, 9.625804e+000
1.063237e+003, 9.932069e+000
1.063719e+003, 1.044812e+001
1.064202e+003, 1.033685e+001
1.064684e+003, 9.884776e+000
1.065166e+003, 9.647678e+000
1.065648e+003, 1.001532e+001
1.066130e+003, 1.020475e+001
1.066612e+003, 1.004650e+001
1.067094e+003, 9.831655e+000
1.067576e+003, 9.772716e+000
1.068058e+003, 9.861548e+000
1.068541e+003, 1.016624e+001
1.069023e+003, 1.063696e+001
1.069505e+003, 1.087231e+001
1.069987e+003, 1.032729e+001
1.070469e+003, 9.806089e+000
1.070951e+003, 9.833603e+000
1.071433e+003, 1.014266e+001
1.071915e+003, 1.024413e+001
1.072398e+003, 1.012018e+001
1.072880e+003, 9.899632e+000
1.073362e+003, 9.572931e+000
1.073844e+003, 9.339253e+000
1.074326e+003, 9.546982e+000
1.074808e+003, 9.860518e+000
1.075290e+003, 9.865993e+000
1.075772e+003, 9.527271e+000
1.076255e+003, 9.405498e+000
1.076737e+003, 9.627212e+000
1.077219e+003, 9.862554e+000
1.077701e+003, 1.004746e+001
1.078183e+003, 1.012130e+001
1.078665e+003, 9.815728e+000
1.079147e+003, 9.326260e+000
1.079629e+003, 9.134313e+000
1.080111e+003, 9.469666e+000
1.080594e+003, 9.796507e+000
1.081076e+003, 1.000241e+001
1.081558e+003, 1.006466e+001
1.082040e+003, 9.885212e+000
1.082522e+003, 9.510829e+000
1.083004e+003, 9.509058e+000
1.083486e+003, 9.837718e+000
1.083968e+003, 1.009414e+001
1.084450e+003, 9.989135e+000
1.084932e+003, 9.817641e+000
1.085415e+003, 9.724446e+000
1.085897e+003, 9.703984e+000
1.086379e+003, 9.762586e+000
1.086861e+003, 9.965180e+000
1.087343e+003, 9.936586e+000
1.087825e+003, 9.621572e+000
1.088307e+003, 9.334238e+000
1.088789e+003, 9.386097e+000
1.089272e+003, 9.596913e+000
1.089754e+003, 9.798264e+000
1.090236e+003, 9.967795e+000
1.090718e+003, 1.004124e+001
1.091200e+003, 9.967223e+000
1.091682e+003, 9.863168e+000
1.092164e+003, 9.723037e+000
1.092646e+003, 9.608463e+000
1.093129e+003, 9.640579e+000
1.093611e+003, 9.768373e+000
1.094093e+003, 9.887958e+000
1.094575e+003, 9.988209e+000
1.095057e+003, 9.998387e+000
1.095539e+003, 9.753839e+000
1.096021e+003, 9.563784e+000
1.096503e+003, 9.616409e+000
1.096985e+003, 9.807923e+000
1.097468e+003, 9.643117e+000
1.097950e+003, 9.186652e+000
1.098432e+003, 9.029378e+000
1.098914e+003, 9.479189e+000
1.099396e+003, 9.945735e+000
1.099878e+003, 9.955035e+000
1.100360e+003, 9.801839e+000
1.100842e+003, 9.803142e+000
1.101324e+003, 1.000213e+001
1.101807e+003, 9.958172e+000
1.102289e+003, 9.639812e+000
1.102771e+003, 9.416493e+000
1.103253e+003, 9.614431e+000
1.103735e+003, 9.903169e+000
1.104217e+003, 9.829756e+000
1.104699e+003, 9.573743e+000
1.105181e+003, 9.482603e+000
1.105664e+003, 9.832624e+000
1.106146e+003, 9.937284e+000
1.106628e+003, 9.711443e+000
1.107110e+003, 9.423453e+000
1.107592e+003, 9.293447e+000
1.108074e+003, 9.280875e+000
1.108556e+003, 9.338279e+000
1.109038e+003, 9.441113e+000
1.109521e+003, 9.481171e+000
1.110003e+003, 9.305561e+000
1.110485e+003, 9.214822e+000
1.110967e+003, 9.291284e+000
1.111449e+003, 9.452806e+000
1.111931e+003, 9.613209e+000
1.112413e+003, 9.754696e+000
1.112895e+003, 9.762671e+000
1.113377e+003, 9.621352e+000
1.113859e+003, 9.522202e+000
1.114342e+003, 9.722646e+000
1.114824e+003, 9.847975e+000
1.115306e+003, 9.594908e+000
1.115788e+003, 9.127813e+000
1.116270e+003, 9.036383e+000
1.116752e+003, 9.311785e+000
1.117234e+003, 9.496575e+000
1.117716e+003, 9.461575e+000
1.118199e+003, 9.364635e+000
1.118681e+003, 9.304023e+000
1.119163e+003, 9.277225e+000
1.119645e+003, 9.267423e+000
1.120127e+003, 9.269984e+000
1.120609e+003, 9.453901e+000
1.121091e+003, 9.879719e+000
1.121573e+003, 1.008103e+001
1.122056e+003, 9.735722e+000
1.122538e+003, 9.270432e+000
1.123020e+003, 9.251792e+000
1.123502e+003, 9.476640e+000
1.123984e+003, 9.631360e+000
1.124466e+003, 9.631246e+000
1.124948e+003, 9.587495e+000
1.125430e+003, 9.490387e+000
1.125912e+003, 9.380929e+000
1.126395e+003, 9.285433e+000
1.126877e+003, 9.197368e+000
1.127359e+003, 9.065503e+000
1.127841e+003, 8.927152e+000
1.128323e+003, 8.888221e+000
1.128805e+003, 9.132586e+000
1.129287e+003, 9.263314e+000
1.129769e+003, 9.162966e+000
1.130251e+003, 9.039145e+000
1.130734e+003, 9.140428e+000
1.131216e+003, 9.391938e+000
1.131698e+003, 9.500937e+000
1.132180e+003, 9.462950e+000
1.132662e+003, 9.338531e+000
1.133144e+003, 8.961802e+000
1.133626e+003, 8.749747e+000
1.134108e+003, 8.949937e+000
1.134591e+003, 9.311264e+000
1.135073e+003, 9.420269e+000
1.135555e+003, 9.305705e+000
1.136037e+003, 9.376994e+000
1.136519e+003, 9.686912e+000
1.137001e+003, 9.910270e+000
1.137483e+003, 9.729413e+000
1.137965e+003, 9.467311e+000
1.138448e+003, 9.303664e+000
1.138930e+003, 9.227741e+000
1.139412e+003, 9.225935e+000
1.139894e+003, 9.305366e+000
1.140376e+003, 9.295092e+000
1.140858e+003, 9.136121e+000
1.141340e+003, 9.007496e+000
1.141822e+003, 9.129987e+000
1.142304e+003, 9.320948e+000
1.142786e+003, 9.417777e+000
1.143269e+003, 9.406683e+000
1.143751e+003, 9.343327e+000
1.144233e+003, 9.194101e+000
1.144715e+003, 9.214917e+000
1.145197e+003, 9.585815e+000
1.145679e+003, 9.942952e+000
1.146161e+003, 9.727596e+000
1.146643e+003, 9.250830e+000
1.147126e+003, 8.910511e+000
1.147608e+003, 8.808688e+000
1.148090e+003, 8.745490e+000
1.148572e+003, 8.711602e+000
1.149054e+003, 8.736716e+000
1.149536e+003, 8.871665e+000
1.150018e+003, 9.032282e+000
1.150500e+003, 9.037249e+000
1.150983e+003, 8.964230e+000
1.151465e+003, 8.977030e+000
1.151947e+003, 9.224952e+000
1.152429e+003, 9.329900e+000
1.152911e+003, 9.230535e+000
1.153393e+003, 9.068617e+000
1.153875e+003, 8.874317e+000
1.154357e+003, 8.716106e+000
1.154839e+003, 8.896642e+000
1.155322e+003, 9.286352e+000
1.155804e+003, 9.464998e+000
1.156286e+003, 8.983938e+000
1.156768e+003, 8.693192e+000
1.157250e+003, 8.787440e+000
1.157732e+003, 8.984046e+000
1.158214e+003, 8.993525e+000
1.158696e+003, 8.880293e+000
1.159178e+003, 8.976150e+000
1.159661e+003, 9.240952e+000
1.160143e+003, 9.392859e+000
1.160625e+003, 9.085078e+000
1.161107e+003, 8.914454e+000
1.161589e+003, 9.173264e+000
1.162071e+003, 9.539487e+000
1.162553e+003, 9.567487e+000
1.163035e+003, 9.313596e+000
1.163518e+003, 9.198541e+000
1.164000e+003, 9.243634e+000
1.164482e+003, 9.275890e+000
1.164964e+003, 9.173717e+000
1.165446e+003, 9.048999e+000
1.165928e+003, 8.887788e+000
1.166410e+003, 8.777865e+000
1.166892e+003, 8.977534e+000
1.167375e+003, 9.451183e+000
1.167857e+003, 9.611346e+000
1.168339e+003, 9.371189e+000
1.168821e+003, 9.089125e+000
1.169303e+003, 9.046097e+000
1.169785e+003, 9.024313e+000
1.170267e+003, 8.819983e+000
1.170749e+003, 8.533254e+000
1.171231e+003, 8.472686e+000
1.171714e+003, 8.636048e+000
1.172196e+003, 8.824519e+000
1.172678e+003, 9.003520e+000
1.173160e+003, 9.151361e+000
1.173642e+003, 9.258676e+000
1.174124e+003, 9.317166e+000
1.174606e+003, 9.279439e+000
1.175088e+003, 9.175756e+000
1.175570e+003, 9.217731e+000
1.176053e+003, 9.420295e+000
1.176535e+003, 9.439592e+000
1.177017e+003, 9.110586e+000
1.177499e+003, 8.808089e+000
1.177981e+003, 9.003342e+000
1.178463e+003, 9.324688e+000
1.178945e+003, 9.353953e+000
1.179427e+003, 9.073973e+000
1.179910e+003, 9.109464e+000
1.180392e+003, 9.511281e+000
1.180874e+003, 9.691352e+000
1.181356e+003, 9.329529e+000
1.181838e+003, 8.893976e+000
1.182320e+003, 8.924076e+000
1.182802e+003, 9.140371e+000
1.183284e+003, 9.204513e+000
1.183766e+003, 9.059381e+000
1.184249e+003, 8.975786e+000
1.184731e+003, 8.956592e+000
1.185213e+003, 8.977804e+000
1.185695e+003, 9.041797e+000
1.186177e+003, 9.119020e+000
1.186659e+003, 9.203901e+000
1.187141e+003, 9.267216e+000
1.187623e+003, 9.261952e+000
1.188105e+003, 9.175615e+000
1.188588e+003, 9.025355e+000
1.189070e+003, 8.785984e+000
1.189552e+003, 8.639459e+000
1.190034e+003, 8.788031e+000
1.190516e+003, 8.981236e+000
1.190998e+003, 8.811480e+000
1.191480e+003, 8.493762e+000
1.191962e+003, 8.416300e+000
1.192445e+003, 8.800731e+000
1.192927e+003, 8.984597e+000
1.193409e+003, 8.927616e+000
1.193891e+003, 8.855401e+000
1.194373e+003, 8.950545e+000
1.194855e+003, 9.099529e+000
1.195337e+003, 9.164180e+000
1.195819e+003, 9.164409e+000
1.196302e+003, 9.143068e+000
1.196784e+003, 9.117521e+000
1.197266e+003, 9.028870e+000
1.197748e+003, 8.847508e+000
1.198230e+003, 8.724681e+000
1.198712e+003, 8.839164e+000
1.199194e+003, 9.043941e+000
1.199676e+003, 9.125277e+000
1.200158e+003, 9.131897e+000
1.200641e+003, 9.215145e+000
1.201123e+003, 9.507003e+000
1.201605e+003, 9.586656e+000
1.202087e+003, 9.378525e+000
1.202569e+003, 9.175351e+000
1.203051e+003, 9.298018e+000
1.203533e+003, 9.545949e+000
1.204015e+003, 9.692573e+000
1.204497e+003, 9.732149e+000
1.204980e+003, 9.667225e+000
1.205462e+003, 9.410473e+000
1.205944e+003, 9.277361e+000
1.206426e+003, 9.309443e+000
1.206908e+003, 9.405027e+000
1.207390e+003, 9.546667e+000
1.207872e+003, 9.635230e+000
1.208354e+003, 9.496799e+000
1.208837e+003, 9.175793e+000
1.209319e+003, 8.889360e+000
1.209801e+003, 8.568221e+000
1.210283e+003, 8.561360e+000
1.210765e+003, 8.986014e+000
1.211247e+003, 9.437297e+000
1.211729e+003, 9.429904e+000
1.212211e+003, 9.247008e+000
1.212693e+003, 9.266728e+000
1.213176e+003, 9.463084e+000
1.213658e+003, 9.547525e+000
1.214140e+003, 9.479518e+000
1.214622e+003, 9.339782e+000
1.215104e+003, 9.116347e+000
1.215586e+003, 8.925836e+000
1.216068e+003, 8.925371e+000
1.216550e+003, 9.007598e+000
1.217032e+003, 9.055777e+000
1.217515e+003, 9.062865e+000
1.217997e+003, 9.047650e+000
1.218479e+003, 9.010007e+000
1.218961e+003, 8.953786e+000
1.219443e+003, 8.869165e+000
1.219925e+003, 8.809244e+000
1.220407e+003, 8.860351e+000
1.220889e+003, 8.950042e+000
1.221372e+003, 8.999014e+000
1.221854e+003, 9.002951e+000
1.222336e+003, 8.990720e+000
1.222818e+003, 8.936495e+000
1.223300e+003, 9.001954e+000
1.223782e+003, 9.251454e+000
1.224264e+003, 9.476231e+000
1.224746e+003, 9.445029e+000
1.225229e+003, 9.268792e+000
1.225711e+003, 8.982541e+000
1.226193e+003, 8.630298e+000
1.226675e+003, 8.544730e+000
1.227157e+003, 8.782656e+000
1.227639e+003, 9.001514e+000
1.228121e+003, 9.139262e+000
1.228603e+003, 9.186774e+000
1.229085e+003, 9.082509e+000
1.229568e+003, 8.922304e+000
1.230050e+003, 8.750461e+000
1.230532e+003, 8.596725e+000
1.231014e+003, 8.663454e+000
1.231496e+003, 8.988726e+000
1.231978e+003, 9.174978e+000
1.232460e+003, 9.099893e+000
1.232942e+003, 9.026570e+000
1.233424e+003, 9.342890e+000
1.233907e+003, 9.667911e+000
1.234389e+003, 9.578086e+000
1.234871e+003, 9.155877e+000
1.235353e+003, 9.002926e+000
1.235835e+003, 9.134090e+000
1.236317e+003, 9.211860e+000
1.236799e+003, 9.148111e+000
1.237281e+003, 9.057543e+000
1.237764e+003, 9.019697e+000
1.238246e+003, 9.009345e+000
1.238728e+003, 8.992474e+000
1.239210e+003, 8.984259e+000
1.239692e+003, 9.113845e+000
1.240174e+003, 9.368367e+000
1.240656e+003, 9.413606e+000
1.241138e+003, 9.123402e+000
1.241620e+003, 8.894440e+000
1.242103e+003, 9.138754e+000
1.242585e+003, 9.434982e+000
1.243067e+003, 9.488375e+000
1.243549e+003, 9.366284e+000
1.244031e+003, 9.344934e+000
1.244513e+003, 9.399007e+000
1.244995e+003, 9.288574e+000
1.245477e+003, 8.915036e+000
1.245959e+003, 8.640900e+000
1.246442e+003, 8.778791e+000
1.246924e+003, 8.988222e+000
1.247406e+003, 9.111995e+000
1.247888e+003, 9.141923e+000
1.248370e+003, 8.955045e+000
1.248852e+003, 8.634203e+000
1.249334e+003, 8.568533e+000
1.249816e+003, 8.888150e+000
1.250299e+003, 9.173495e+000
1.250781e+003, 9.238276e+000
1.251263e+003, 9.191209e+000
1.251745e+003, 9.024267e+000
1.252227e+003, 8.830053e+000
1.252709e+003, 8.843706e+000
1.253191e+003, 9.020146e+000
1.253673e+003, 9.289275e+000
1.254156e+003, 9.680902e+000
1.254638e+003, 9.790959e+000
1.255120e+003, 9.224839e+000
1.255602e+003, 8.766695e+000
1.256084e+003, 8.708160e+000
1.256566e+003, 8.859057e+000
1.257048e+003, 8.840426e+000
1.257530e+003, 8.741252e+000
1.258012e+003, 8.766335e+000
1.258495e+003, 8.969458e+000
1.258977e+003, 9.083327e+000
1.259459e+003, 9.031484e+000
1.259941e+003, 8.982947e+000
1.260423e+003, 9.002563e+000
1.260905e+003, 9.027151e+000
1.261387e+003, 8.966049e+000
1.261869e+003, 8.839010e+000
1.262351e+003, 8.605437e+000
1.262834e+003, 8.246352e+000
1.263316e+003, 8.267999e+000
1.263798e+003, 8.841196e+000
1.264280e+003, 9.221166e+000
1.264762e+003, 9.152357e+000
1.265244e+003, 8.918817e+000
1.265726e+003, 8.785552e+000
1.266208e+003, 8.732777e+000
1.266691e+003, 8.780421e+000
1.267173e+003, 8.920353e+000
1.267655e+003, 8.881594e+000
1.268137e+003, 8.618451e+000
1.268619e+003, 8.609044e+000
1.269101e+003, 9.060895e+000
1.269583e+003, 9.430448e+000
1.270065e+003, 8.977678e+000
1.270547e+003, 8.394348e+000
1.271030e+003, 8.365357e+000
1.271512e+003, 8.767632e+000
1.271994e+003, 9.080789e+000
1.272476e+003, 9.301817e+000
1.272958e+003, 9.324530e+000
1.273440e+003, 9.092700e+000
1.273922e+003, 8.910263e+000
1.274404e+003, 9.179584e+000
1.274886e+003, 9.363708e+000
1.275369e+003, 9.027221e+000
1.275851e+003, 8.436858e+000
1.276333e+003, 8.423324e+000
1.276815e+003, 8.858709e+000
1.277297e+003, 9.061904e+000
1.277779e+003, 8.890165e+000
1.278261e+003, 8.736147e+000
1.278743e+003, 8.801192e+000
1.279226e+003, 8.934800e+000
1.279708e+003, 9.109188e+000
1.280190e+003, 9.280619e+000
1.280672e+003, 9.396042e+000
1.281154e+003, 9.439441e+000
1.281636e+003, 9.342761e+000
1.282118e+003, 9.096394e+000
1.282600e+003, 8.880569e+000
1.283083e+003, 8.756785e+000
1.283565e+003, 8.650219e+000
1.284047e+003, 8.535945e+000
1.284529e+003, 8.453268e+000
1.285011e+003, 8.473557e+000
1.285493e+003, 8.554365e+000
1.285975e+003, 8.653962e+000
1.286457e+003, 8.760927e+000
1.286939e+003, 8.781954e+000
1.287422e+003, 8.666339e+000
1.287904e+003, 8.641855e+000
1.288386e+003, 8.772253e+000
1.288868e+003, 8.906325e+000
1.289350e+003, 8.842380e+000
1.289832e+003, 8.729684e+000
1.290314e+003, 8.729465e+000
1.290796e+003, 8.823706e+000
1.291278e+003, 8.877885e+000
1.291761e+003, 8.893484e+000
1.292243e+003, 8.811528e+000
1.292725e+003, 8.610830e+000
1.293207e+003, 8.514232e+000
1.293689e+003, 8.852690e+000
1.294171e+003, 9.203359e+000
1.294653e+003, 9.230497e+000
1.295135e+003, 9.097037e+000
1.295618e+003, 9.111881e+000
1.296100e+003, 9.241897e+000
1.296582e+003, 9.086826e+000
1.297064e+003, 8.632567e+000
1.297546e+003, 8.319540e+000
1.298028e+003, 8.516165e+000
1.298510e+003, 8.758992e+000
1.298992e+003, 8.923095e+000
1.299474e+003, 9.022381e+000
1.299957e+003, 9.073668e+000
1.300439e+003, 9.074243e+000
1.300921e+003, 8.993897e+000
1.301403e+003, 8.846754e+000
1.301885e+003, 8.710195e+000
1.302367e+003, 8.589993e+000
##END=



