##NAMES=Humboldtine
##RRUFFID=R130689
##IDEAL CHEMISTRY=Fe^2+^(C_2_)^6+^O_4_&#183;2H_2_O
##LOCALITY=Minas Gerais, Brazil
##OWNER=RRUFF
##SOURCE=Bob Jenkins
##DESCRIPTION=Sample needs to be returned to Bob Jenkins after a picture can be taken of it. Label shows doubt as to the sample coming specifically from Minas Gerais.
##STATUS=The identification of this mineral has been confirmed by single-crystal X-ray diffraction.
##URL=rruff.info/R130689
8.813672e+001, 1.730372e+004
8.861884e+001, 1.754085e+004
8.910095e+001, 1.776561e+004
8.958307e+001, 1.807223e+004
9.006519e+001, 1.841069e+004
9.054730e+001, 1.866107e+004
9.102942e+001, 1.881869e+004
9.151154e+001, 1.891768e+004
9.199365e+001, 1.897832e+004
9.247577e+001, 1.901285e+004
9.295789e+001, 1.905349e+004
9.344000e+001, 1.911675e+004
9.392212e+001, 1.918746e+004
9.440424e+001, 1.927113e+004
9.488635e+001, 1.939970e+004
9.536847e+001, 1.956529e+004
9.585059e+001, 1.973881e+004
9.633270e+001, 1.991826e+004
9.681482e+001, 2.011308e+004
9.729694e+001, 2.033054e+004
9.777905e+001, 2.057070e+004
9.826117e+001, 2.082537e+004
9.874329e+001, 2.109383e+004
9.922540e+001, 2.137217e+004
9.970752e+001, 2.164470e+004
1.001896e+002, 2.190422e+004
1.006718e+002, 2.216213e+004
1.011539e+002, 2.243315e+004
1.016360e+002, 2.272441e+004
1.021181e+002, 2.301018e+004
1.026002e+002, 2.327786e+004
1.030823e+002, 2.352333e+004
1.035645e+002, 2.377808e+004
1.040466e+002, 2.404608e+004
1.045287e+002, 2.432377e+004
1.050108e+002, 2.461212e+004
1.054929e+002, 2.491653e+004
1.059750e+002, 2.522466e+004
1.064572e+002, 2.553125e+004
1.069393e+002, 2.584043e+004
1.074214e+002, 2.614623e+004
1.079035e+002, 2.644480e+004
1.083856e+002, 2.674362e+004
1.088677e+002, 2.705371e+004
1.093499e+002, 2.737847e+004
1.098320e+002, 2.771818e+004
1.103141e+002, 2.807249e+004
1.107962e+002, 2.845555e+004
1.112783e+002, 2.884518e+004
1.117604e+002, 2.924235e+004
1.122426e+002, 2.965049e+004
1.127247e+002, 3.006407e+004
1.132068e+002, 3.049913e+004
1.136889e+002, 3.093215e+004
1.141710e+002, 3.134231e+004
1.146531e+002, 3.175527e+004
1.151353e+002, 3.211496e+004
1.156174e+002, 3.241273e+004
1.160995e+002, 3.264588e+004
1.165816e+002, 3.281918e+004
1.170637e+002, 3.291912e+004
1.175458e+002, 3.296248e+004
1.180280e+002, 3.296823e+004
1.185101e+002, 3.291959e+004
1.189922e+002, 3.284859e+004
1.194743e+002, 3.276709e+004
1.199564e+002, 3.267275e+004
1.204385e+002, 3.258559e+004
1.209207e+002, 3.251809e+004
1.214028e+002, 3.246547e+004
1.218849e+002, 3.241991e+004
1.223670e+002, 3.237568e+004
1.228491e+002, 3.233638e+004
1.233312e+002, 3.230417e+004
1.238134e+002, 3.227738e+004
1.242955e+002, 3.226354e+004
1.247776e+002, 3.227080e+004
1.252597e+002, 3.229744e+004
1.257418e+002, 3.233751e+004
1.262239e+002, 3.238675e+004
1.267061e+002, 3.244786e+004
1.271882e+002, 3.252411e+004
1.276703e+002, 3.261777e+004
1.281524e+002, 3.272539e+004
1.286345e+002, 3.284354e+004
1.291166e+002, 3.297196e+004
1.295988e+002, 3.310855e+004
1.300809e+002, 3.325734e+004
1.305630e+002, 3.341434e+004
1.310451e+002, 3.356296e+004
1.315272e+002, 3.369401e+004
1.320093e+002, 3.381613e+004
1.324915e+002, 3.395138e+004
1.329736e+002, 3.409966e+004
1.334557e+002, 3.425548e+004
1.339378e+002, 3.441420e+004
1.344199e+002, 3.457549e+004
1.349020e+002, 3.473171e+004
1.353842e+002, 3.488001e+004
1.358663e+002, 3.501849e+004
1.363484e+002, 3.515746e+004
1.368305e+002, 3.529776e+004
1.373126e+002, 3.543199e+004
1.377947e+002, 3.554855e+004
1.382769e+002, 3.564448e+004
1.387590e+002, 3.573808e+004
1.392411e+002, 3.583965e+004
1.397232e+002, 3.595082e+004
1.402053e+002, 3.602045e+004
1.406874e+002, 3.603767e+004
1.411696e+002, 3.603063e+004
1.416517e+002, 3.603711e+004
1.421338e+002, 3.606551e+004
1.426159e+002, 3.609324e+004
1.430980e+002, 3.611711e+004
1.435801e+002, 3.614027e+004
1.440623e+002, 3.614997e+004
1.445444e+002, 3.613957e+004
1.450265e+002, 3.612222e+004
1.455086e+002, 3.612062e+004
1.459907e+002, 3.614903e+004
1.464728e+002, 3.617684e+004
1.469550e+002, 3.619440e+004
1.474371e+002, 3.619694e+004
1.479192e+002, 3.620107e+004
1.484013e+002, 3.620425e+004
1.488834e+002, 3.620925e+004
1.493655e+002, 3.622266e+004
1.498477e+002, 3.624948e+004
1.503298e+002, 3.627993e+004
1.508119e+002, 3.631050e+004
1.512940e+002, 3.634471e+004
1.517761e+002, 3.637329e+004
1.522583e+002, 3.639100e+004
1.527404e+002, 3.640162e+004
1.532225e+002, 3.641623e+004
1.537046e+002, 3.643928e+004
1.541867e+002, 3.646372e+004
1.546688e+002, 3.648650e+004
1.551510e+002, 3.651341e+004
1.556331e+002, 3.653166e+004
1.561152e+002, 3.652759e+004
1.565973e+002, 3.650975e+004
1.570794e+002, 3.651182e+004
1.575615e+002, 3.656203e+004
1.580437e+002, 3.662205e+004
1.585258e+002, 3.666823e+004
1.590079e+002, 3.667465e+004
1.594900e+002, 3.668853e+004
1.599721e+002, 3.672614e+004
1.604542e+002, 3.678423e+004
1.609364e+002, 3.684381e+004
1.614185e+002, 3.689647e+004
1.619006e+002, 3.694855e+004
1.623827e+002, 3.700507e+004
1.628648e+002, 3.706984e+004
1.633469e+002, 3.713709e+004
1.638291e+002, 3.720451e+004
1.643112e+002, 3.727163e+004
1.647933e+002, 3.734037e+004
1.652754e+002, 3.741409e+004
1.657575e+002, 3.748884e+004
1.662396e+002, 3.756041e+004
1.667218e+002, 3.763495e+004
1.672039e+002, 3.770015e+004
1.676860e+002, 3.774959e+004
1.681681e+002, 3.778280e+004
1.686502e+002, 3.780043e+004
1.691323e+002, 3.779516e+004
1.696145e+002, 3.777604e+004
1.700966e+002, 3.775536e+004
1.705787e+002, 3.773771e+004
1.710608e+002, 3.772100e+004
1.715429e+002, 3.770177e+004
1.720250e+002, 3.767970e+004
1.725072e+002, 3.766215e+004
1.729893e+002, 3.764798e+004
1.734714e+002, 3.764229e+004
1.739535e+002, 3.765436e+004
1.744356e+002, 3.770198e+004
1.749177e+002, 3.776344e+004
1.753999e+002, 3.781210e+004
1.758820e+002, 3.784613e+004
1.763641e+002, 3.787863e+004
1.768462e+002, 3.792434e+004
1.773283e+002, 3.797860e+004
1.778104e+002, 3.803009e+004
1.782926e+002, 3.806367e+004
1.787747e+002, 3.809241e+004
1.792568e+002, 3.814095e+004
1.797389e+002, 3.821175e+004
1.802210e+002, 3.828802e+004
1.807031e+002, 3.834898e+004
1.811853e+002, 3.839782e+004
1.816674e+002, 3.844496e+004
1.821495e+002, 3.849424e+004
1.826316e+002, 3.854573e+004
1.831137e+002, 3.859775e+004
1.835958e+002, 3.865066e+004
1.840780e+002, 3.870641e+004
1.845601e+002, 3.877188e+004
1.850422e+002, 3.884507e+004
1.855243e+002, 3.891739e+004
1.860064e+002, 3.897885e+004
1.864885e+002, 3.903550e+004
1.869707e+002, 3.910571e+004
1.874528e+002, 3.919293e+004
1.879349e+002, 3.929103e+004
1.884170e+002, 3.939057e+004
1.888991e+002, 3.949194e+004
1.893812e+002, 3.960025e+004
1.898634e+002, 3.972784e+004
1.903455e+002, 3.986880e+004
1.908276e+002, 3.998737e+004
1.913097e+002, 4.007724e+004
1.917918e+002, 4.015391e+004
1.922739e+002, 4.024215e+004
1.927561e+002, 4.034279e+004
1.932382e+002, 4.045205e+004
1.937203e+002, 4.057134e+004
1.942024e+002, 4.069913e+004
1.946845e+002, 4.082627e+004
1.951666e+002, 4.095018e+004
1.956488e+002, 4.107447e+004
1.961309e+002, 4.120495e+004
1.966130e+002, 4.134345e+004
1.970951e+002, 4.148869e+004
1.975772e+002, 4.164319e+004
1.980593e+002, 4.180722e+004
1.985415e+002, 4.197393e+004
1.990236e+002, 4.214356e+004
1.995057e+002, 4.231507e+004
1.999878e+002, 4.248488e+004
2.004699e+002, 4.265505e+004
2.009520e+002, 4.281429e+004
2.014342e+002, 4.295527e+004
2.019163e+002, 4.307862e+004
2.023984e+002, 4.318733e+004
2.028805e+002, 4.328655e+004
2.033626e+002, 4.336680e+004
2.038447e+002, 4.340613e+004
2.043269e+002, 4.340470e+004
2.048090e+002, 4.336118e+004
2.052911e+002, 4.327272e+004
2.057732e+002, 4.313668e+004
2.062553e+002, 4.296901e+004
2.067374e+002, 4.276341e+004
2.072196e+002, 4.253160e+004
2.077017e+002, 4.230420e+004
2.081838e+002, 4.208184e+004
2.086659e+002, 4.186164e+004
2.091480e+002, 4.164195e+004
2.096301e+002, 4.141743e+004
2.101123e+002, 4.121005e+004
2.105944e+002, 4.102041e+004
2.110765e+002, 4.084759e+004
2.115586e+002, 4.068838e+004
2.120407e+002, 4.054165e+004
2.125228e+002, 4.041071e+004
2.130050e+002, 4.029951e+004
2.134871e+002, 4.021094e+004
2.139692e+002, 4.013218e+004
2.144513e+002, 4.006213e+004
2.149334e+002, 4.000138e+004
2.154155e+002, 3.995137e+004
2.158977e+002, 3.991486e+004
2.163798e+002, 3.988213e+004
2.168619e+002, 3.984584e+004
2.173440e+002, 3.979942e+004
2.178261e+002, 3.976896e+004
2.183082e+002, 3.975830e+004
2.187904e+002, 3.976311e+004
2.192725e+002, 3.977176e+004
2.197546e+002, 3.978427e+004
2.202367e+002, 3.980025e+004
2.207188e+002, 3.982005e+004
2.212009e+002, 3.984605e+004
2.216831e+002, 3.987165e+004
2.221652e+002, 3.989845e+004
2.226473e+002, 3.992523e+004
2.231294e+002, 3.994426e+004
2.236115e+002, 3.994562e+004
2.240936e+002, 3.995783e+004
2.245758e+002, 3.999807e+004
2.250579e+002, 4.008165e+004
2.255400e+002, 4.015657e+004
2.260221e+002, 4.021920e+004
2.265042e+002, 4.027411e+004
2.269863e+002, 4.033059e+004
2.274685e+002, 4.038660e+004
2.279506e+002, 4.044844e+004
2.284327e+002, 4.051848e+004
2.289148e+002, 4.059731e+004
2.293969e+002, 4.068291e+004
2.298790e+002, 4.077060e+004
2.303612e+002, 4.086571e+004
2.308433e+002, 4.098420e+004
2.313254e+002, 4.114095e+004
2.318075e+002, 4.129930e+004
2.322896e+002, 4.144322e+004
2.327717e+002, 4.156536e+004
2.332539e+002, 4.168883e+004
2.337360e+002, 4.181119e+004
2.342181e+002, 4.193281e+004
2.347002e+002, 4.205567e+004
2.351823e+002, 4.217677e+004
2.356644e+002, 4.230116e+004
2.361466e+002, 4.243107e+004
2.366287e+002, 4.256775e+004
2.371108e+002, 4.270560e+004
2.375929e+002, 4.284655e+004
2.380750e+002, 4.298582e+004
2.385571e+002, 4.311199e+004
2.390393e+002, 4.322124e+004
2.395214e+002, 4.332418e+004
2.400035e+002, 4.342600e+004
2.404856e+002, 4.353344e+004
2.409677e+002, 4.362459e+004
2.414498e+002, 4.370021e+004
2.419320e+002, 4.376045e+004
2.424141e+002, 4.380688e+004
2.428962e+002, 4.384291e+004
2.433783e+002, 4.386190e+004
2.438604e+002, 4.386236e+004
2.443425e+002, 4.384500e+004
2.448247e+002, 4.380967e+004
2.453068e+002, 4.375828e+004
2.457889e+002, 4.368838e+004
2.462710e+002, 4.359282e+004
2.467531e+002, 4.346094e+004
2.472352e+002, 4.332079e+004
2.477174e+002, 4.317675e+004
2.481995e+002, 4.302638e+004
2.486816e+002, 4.288905e+004
2.491637e+002, 4.276925e+004
2.496458e+002, 4.265758e+004
2.501279e+002, 4.254327e+004
2.506101e+002, 4.242587e+004
2.510922e+002, 4.230308e+004
2.515743e+002, 4.216966e+004
2.520564e+002, 4.201966e+004
2.525385e+002, 4.190007e+004
2.530206e+002, 4.182349e+004
2.535028e+002, 4.176505e+004
2.539849e+002, 4.169618e+004
2.544670e+002, 4.160950e+004
2.549491e+002, 4.152640e+004
2.554312e+002, 4.144925e+004
2.559133e+002, 4.137815e+004
2.563955e+002, 4.132611e+004
2.568776e+002, 4.130086e+004
2.573597e+002, 4.128588e+004
2.578418e+002, 4.126279e+004
2.583239e+002, 4.122518e+004
2.588061e+002, 4.119318e+004
2.592882e+002, 4.117013e+004
2.597703e+002, 4.115587e+004
2.602524e+002, 4.114950e+004
2.607345e+002, 4.115626e+004
2.612166e+002, 4.116354e+004
2.616988e+002, 4.115932e+004
2.621809e+002, 4.114025e+004
2.626630e+002, 4.111927e+004
2.631451e+002, 4.109482e+004
2.636272e+002, 4.106901e+004
2.641093e+002, 4.106481e+004
2.645915e+002, 4.109237e+004
2.650736e+002, 4.112447e+004
2.655557e+002, 4.114002e+004
2.660378e+002, 4.113561e+004
2.665199e+002, 4.112685e+004
2.670020e+002, 4.111435e+004
2.674842e+002, 4.109926e+004
2.679663e+002, 4.108620e+004
2.684484e+002, 4.107265e+004
2.689305e+002, 4.106629e+004
2.694126e+002, 4.107333e+004
2.698947e+002, 4.109593e+004
2.703769e+002, 4.112279e+004
2.708590e+002, 4.115549e+004
2.713411e+002, 4.119034e+004
2.718232e+002, 4.121415e+004
2.723053e+002, 4.122463e+004
2.727874e+002, 4.123036e+004
2.732696e+002, 4.123291e+004
2.737517e+002, 4.122976e+004
2.742338e+002, 4.124218e+004
2.747159e+002, 4.127718e+004
2.751980e+002, 4.132302e+004
2.756801e+002, 4.134904e+004
2.761623e+002, 4.135111e+004
2.766444e+002, 4.135342e+004
2.771265e+002, 4.136807e+004
2.776086e+002, 4.139611e+004
2.780907e+002, 4.143254e+004
2.785728e+002, 4.148345e+004
2.790550e+002, 4.153358e+004
2.795371e+002, 4.154949e+004
2.800192e+002, 4.152643e+004
2.805013e+002, 4.150787e+004
2.809834e+002, 4.151347e+004
2.814655e+002, 4.154260e+004
2.819477e+002, 4.157700e+004
2.824298e+002, 4.161672e+004
2.829119e+002, 4.165925e+004
2.833940e+002, 4.170379e+004
2.838761e+002, 4.175009e+004
2.843582e+002, 4.178748e+004
2.848404e+002, 4.180936e+004
2.853225e+002, 4.181740e+004
2.858046e+002, 4.182192e+004
2.862867e+002, 4.182142e+004
2.867688e+002, 4.182285e+004
2.872509e+002, 4.184075e+004
2.877331e+002, 4.187315e+004
2.882152e+002, 4.189062e+004
2.886973e+002, 4.187804e+004
2.891794e+002, 4.184606e+004
2.896615e+002, 4.182944e+004
2.901436e+002, 4.182943e+004
2.906258e+002, 4.183489e+004
2.911079e+002, 4.183957e+004
2.915900e+002, 4.184293e+004
2.920721e+002, 4.183783e+004
2.925542e+002, 4.181773e+004
2.930363e+002, 4.179370e+004
2.935185e+002, 4.179304e+004
2.940006e+002, 4.181560e+004
2.944827e+002, 4.183679e+004
2.949648e+002, 4.183048e+004
2.954469e+002, 4.180672e+004
2.959290e+002, 4.179862e+004
2.964112e+002, 4.181632e+004
2.968933e+002, 4.184404e+004
2.973754e+002, 4.185445e+004
2.978575e+002, 4.185027e+004
2.983396e+002, 4.185079e+004
2.988217e+002, 4.186721e+004
2.993039e+002, 4.189689e+004
2.997860e+002, 4.193740e+004
3.002681e+002, 4.199175e+004
3.007502e+002, 4.204591e+004
3.012323e+002, 4.208426e+004
3.017144e+002, 4.210864e+004
3.021966e+002, 4.212393e+004
3.026787e+002, 4.212828e+004
3.031608e+002, 4.212716e+004
3.036429e+002, 4.212729e+004
3.041250e+002, 4.212895e+004
3.046071e+002, 4.213353e+004
3.050893e+002, 4.214516e+004
3.055714e+002, 4.216077e+004
3.060535e+002, 4.217342e+004
3.065356e+002, 4.218148e+004
3.070177e+002, 4.218454e+004
3.074998e+002, 4.217789e+004
3.079820e+002, 4.216149e+004
3.084641e+002, 4.215124e+004
3.089462e+002, 4.216398e+004
3.094283e+002, 4.218889e+004
3.099104e+002, 4.221115e+004
3.103925e+002, 4.223134e+004
3.108747e+002, 4.224292e+004
3.113568e+002, 4.223482e+004
3.118389e+002, 4.221035e+004
3.123210e+002, 4.219201e+004
3.128031e+002, 4.219625e+004
3.132852e+002, 4.221086e+004
3.137674e+002, 4.222368e+004
3.142495e+002, 4.222552e+004
3.147316e+002, 4.223243e+004
3.152137e+002, 4.225766e+004
3.156958e+002, 4.229546e+004
3.161779e+002, 4.232690e+004
3.166601e+002, 4.233534e+004
3.171422e+002, 4.233966e+004
3.176243e+002, 4.235175e+004
3.181064e+002, 4.237476e+004
3.185885e+002, 4.240189e+004
3.190706e+002, 4.243349e+004
3.195528e+002, 4.246699e+004
3.200349e+002, 4.249777e+004
3.205170e+002, 4.252830e+004
3.209991e+002, 4.255229e+004
3.214812e+002, 4.256374e+004
3.219633e+002, 4.255652e+004
3.224455e+002, 4.255808e+004
3.229276e+002, 4.257855e+004
3.234097e+002, 4.260932e+004
3.238918e+002, 4.263980e+004
3.243739e+002, 4.267514e+004
3.248560e+002, 4.270402e+004
3.253382e+002, 4.272339e+004
3.258203e+002, 4.273309e+004
3.263024e+002, 4.273835e+004
3.267845e+002, 4.273105e+004
3.272666e+002, 4.272474e+004
3.277487e+002, 4.273029e+004
3.282309e+002, 4.275877e+004
3.287130e+002, 4.278654e+004
3.291951e+002, 4.281152e+004
3.296772e+002, 4.283396e+004
3.301593e+002, 4.285560e+004
3.306414e+002, 4.287546e+004
3.311236e+002, 4.289470e+004
3.316057e+002, 4.291388e+004
3.320878e+002, 4.293325e+004
3.325699e+002, 4.295057e+004
3.330520e+002, 4.296335e+004
3.335341e+002, 4.297352e+004
3.340163e+002, 4.298679e+004
3.344984e+002, 4.300215e+004
3.349805e+002, 4.302141e+004
3.354626e+002, 4.304818e+004
3.359447e+002, 4.308849e+004
3.364268e+002, 4.311194e+004
3.369090e+002, 4.311177e+004
3.373911e+002, 4.310265e+004
3.378732e+002, 4.311067e+004
3.383553e+002, 4.314350e+004
3.388374e+002, 4.316801e+004
3.393195e+002, 4.316988e+004
3.398017e+002, 4.315068e+004
3.402838e+002, 4.314940e+004
3.407659e+002, 4.317173e+004
3.412480e+002, 4.319889e+004
3.417301e+002, 4.320879e+004
3.422122e+002, 4.319982e+004
3.426944e+002, 4.319729e+004
3.431765e+002, 4.320743e+004
3.436586e+002, 4.322736e+004
3.441407e+002, 4.325003e+004
3.446228e+002, 4.327574e+004
3.451049e+002, 4.329722e+004
3.455871e+002, 4.330244e+004
3.460692e+002, 4.329511e+004
3.465513e+002, 4.330228e+004
3.470334e+002, 4.332990e+004
3.475155e+002, 4.336786e+004
3.479977e+002, 4.340402e+004
3.484798e+002, 4.343766e+004
3.489619e+002, 4.346043e+004
3.494440e+002, 4.345528e+004
3.499261e+002, 4.343724e+004
3.504082e+002, 4.344379e+004
3.508904e+002, 4.347985e+004
3.513725e+002, 4.352339e+004
3.518546e+002, 4.355327e+004
3.523367e+002, 4.357277e+004
3.528188e+002, 4.359079e+004
3.533009e+002, 4.361842e+004
3.537831e+002, 4.364276e+004
3.542652e+002, 4.364240e+004
3.547473e+002, 4.361852e+004
3.552294e+002, 4.359802e+004
3.557115e+002, 4.360441e+004
3.561936e+002, 4.362475e+004
3.566758e+002, 4.364193e+004
3.571579e+002, 4.364852e+004
3.576400e+002, 4.365412e+004
3.581221e+002, 4.366768e+004
3.586042e+002, 4.368676e+004
3.590863e+002, 4.370258e+004
3.595685e+002, 4.370709e+004
3.600506e+002, 4.370930e+004
3.605327e+002, 4.371624e+004
3.610148e+002, 4.373069e+004
3.614969e+002, 4.374625e+004
3.619790e+002, 4.375882e+004
3.624612e+002, 4.377099e+004
3.629433e+002, 4.378726e+004
3.634254e+002, 4.381134e+004
3.639075e+002, 4.383724e+004
3.643896e+002, 4.386152e+004
3.648717e+002, 4.388296e+004
3.653539e+002, 4.390809e+004
3.658360e+002, 4.394502e+004
3.663181e+002, 4.398220e+004
3.668002e+002, 4.400985e+004
3.672823e+002, 4.402124e+004
3.677644e+002, 4.402851e+004
3.682466e+002, 4.402959e+004
3.687287e+002, 4.402546e+004
3.692108e+002, 4.402831e+004
3.696929e+002, 4.404268e+004
3.701750e+002, 4.406027e+004
3.706571e+002, 4.407766e+004
3.711393e+002, 4.410216e+004
3.716214e+002, 4.411402e+004
3.721035e+002, 4.410568e+004
3.725856e+002, 4.408766e+004
3.730677e+002, 4.408266e+004
3.735498e+002, 4.409064e+004
3.740320e+002, 4.411274e+004
3.745141e+002, 4.415569e+004
3.749962e+002, 4.422445e+004
3.754783e+002, 4.426969e+004
3.759604e+002, 4.428840e+004
3.764425e+002, 4.428805e+004
3.769247e+002, 4.427075e+004
3.774068e+002, 4.423178e+004
3.778889e+002, 4.420643e+004
3.783710e+002, 4.420721e+004
3.788531e+002, 4.422759e+004
3.793352e+002, 4.423936e+004
3.798174e+002, 4.424094e+004
3.802995e+002, 4.424354e+004
3.807816e+002, 4.425877e+004
3.812637e+002, 4.428478e+004
3.817458e+002, 4.430333e+004
3.822279e+002, 4.430953e+004
3.827101e+002, 4.431307e+004
3.831922e+002, 4.433148e+004
3.836743e+002, 4.436316e+004
3.841564e+002, 4.439518e+004
3.846385e+002, 4.442173e+004
3.851206e+002, 4.444391e+004
3.856028e+002, 4.446160e+004
3.860849e+002, 4.447415e+004
3.865670e+002, 4.449075e+004
3.870491e+002, 4.453063e+004
3.875312e+002, 4.458015e+004
3.880133e+002, 4.461193e+004
3.884955e+002, 4.459855e+004
3.889776e+002, 4.457755e+004
3.894597e+002, 4.458260e+004
3.899418e+002, 4.461116e+004
3.904239e+002, 4.464839e+004
3.909060e+002, 4.469991e+004
3.913882e+002, 4.474864e+004
3.918703e+002, 4.477651e+004
3.923524e+002, 4.477038e+004
3.928345e+002, 4.476384e+004
3.933166e+002, 4.476640e+004
3.937987e+002, 4.478038e+004
3.942809e+002, 4.481021e+004
3.947630e+002, 4.488740e+004
3.952451e+002, 4.495470e+004
3.957272e+002, 4.497808e+004
3.962093e+002, 4.494449e+004
3.966914e+002, 4.493298e+004
3.971736e+002, 4.498301e+004
3.976557e+002, 4.505013e+004
3.981378e+002, 4.509357e+004
3.986199e+002, 4.509218e+004
3.991020e+002, 4.508440e+004
3.995841e+002, 4.506363e+004
4.000663e+002, 4.503496e+004
4.005484e+002, 4.503521e+004
4.010305e+002, 4.508666e+004
4.015126e+002, 4.514319e+004
4.019947e+002, 4.518521e+004
4.024768e+002, 4.521751e+004
4.029590e+002, 4.522148e+004
4.034411e+002, 4.518089e+004
4.039232e+002, 4.512525e+004
4.044053e+002, 4.511250e+004
4.048874e+002, 4.516160e+004
4.053695e+002, 4.519788e+004
4.058517e+002, 4.518958e+004
4.063338e+002, 4.514185e+004
4.068159e+002, 4.512836e+004
4.072980e+002, 4.515460e+004
4.077801e+002, 4.519720e+004
4.082622e+002, 4.523631e+004
4.087444e+002, 4.527202e+004
4.092265e+002, 4.530463e+004
4.097086e+002, 4.533230e+004
4.101907e+002, 4.535834e+004
4.106728e+002, 4.539498e+004
4.111549e+002, 4.544016e+004
4.116371e+002, 4.547444e+004
4.121192e+002, 4.547122e+004
4.126013e+002, 4.544965e+004
4.130834e+002, 4.545631e+004
4.135655e+002, 4.549737e+004
4.140476e+002, 4.554309e+004
4.145298e+002, 4.556288e+004
4.150119e+002, 4.556628e+004
4.154940e+002, 4.557320e+004
4.159761e+002, 4.559993e+004
4.164582e+002, 4.562726e+004
4.169403e+002, 4.563445e+004
4.174225e+002, 4.562514e+004
4.179046e+002, 4.562016e+004
4.183867e+002, 4.563457e+004
4.188688e+002, 4.565747e+004
4.193509e+002, 4.568138e+004
4.198330e+002, 4.571015e+004
4.203152e+002, 4.572988e+004
4.207973e+002, 4.573052e+004
4.212794e+002, 4.571987e+004
4.217615e+002, 4.571185e+004
4.222436e+002, 4.571047e+004
4.227257e+002, 4.571275e+004
4.232079e+002, 4.571787e+004
4.236900e+002, 4.572589e+004
4.241721e+002, 4.573773e+004
4.246542e+002, 4.575291e+004
4.251363e+002, 4.577226e+004
4.256184e+002, 4.579659e+004
4.261006e+002, 4.582455e+004
4.265827e+002, 4.585827e+004
4.270648e+002, 4.590285e+004
4.275469e+002, 4.595228e+004
4.280290e+002, 4.598455e+004
4.285111e+002, 4.599246e+004
4.289933e+002, 4.599498e+004
4.294754e+002, 4.599769e+004
4.299575e+002, 4.599876e+004
4.304396e+002, 4.601079e+004
4.309217e+002, 4.603705e+004
4.314038e+002, 4.606597e+004
4.318860e+002, 4.608162e+004
4.323681e+002, 4.608362e+004
4.328502e+002, 4.608634e+004
4.333323e+002, 4.609559e+004
4.338144e+002, 4.610787e+004
4.342965e+002, 4.611384e+004
4.347787e+002, 4.611418e+004
4.352608e+002, 4.610985e+004
4.357429e+002, 4.609865e+004
4.362250e+002, 4.608440e+004
4.367071e+002, 4.607468e+004
4.371892e+002, 4.607024e+004
4.376714e+002, 4.607377e+004
4.381535e+002, 4.608893e+004
4.386356e+002, 4.611435e+004
4.391177e+002, 4.614675e+004
4.395998e+002, 4.619813e+004
4.400819e+002, 4.624583e+004
4.405641e+002, 4.626497e+004
4.410462e+002, 4.625757e+004
4.415283e+002, 4.625098e+004
4.420104e+002, 4.625492e+004
4.424925e+002, 4.626793e+004
4.429746e+002, 4.628928e+004
4.434568e+002, 4.632205e+004
4.439389e+002, 4.635588e+004
4.444210e+002, 4.638717e+004
4.449031e+002, 4.641705e+004
4.453852e+002, 4.644807e+004
4.458673e+002, 4.648230e+004
4.463495e+002, 4.651627e+004
4.468316e+002, 4.655313e+004
4.473137e+002, 4.659604e+004
4.477958e+002, 4.662174e+004
4.482779e+002, 4.662511e+004
4.487600e+002, 4.661664e+004
4.492422e+002, 4.660132e+004
4.497243e+002, 4.656589e+004
4.502064e+002, 4.655387e+004
4.506885e+002, 4.657531e+004
4.511706e+002, 4.661914e+004
4.516527e+002, 4.665443e+004
4.521349e+002, 4.667910e+004
4.526170e+002, 4.670224e+004
4.530991e+002, 4.672523e+004
4.535812e+002, 4.674835e+004
4.540633e+002, 4.678284e+004
4.545454e+002, 4.683157e+004
4.550276e+002, 4.687721e+004
4.555097e+002, 4.689357e+004
4.559918e+002, 4.688661e+004
4.564739e+002, 4.689322e+004
4.569560e+002, 4.692795e+004
4.574381e+002, 4.697146e+004
4.579203e+002, 4.698880e+004
4.584024e+002, 4.698572e+004
4.588845e+002, 4.698936e+004
4.593666e+002, 4.702718e+004
4.598488e+002, 4.707599e+004
4.603309e+002, 4.710759e+004
4.608130e+002, 4.711922e+004
4.612951e+002, 4.712055e+004
4.617772e+002, 4.711001e+004
4.622593e+002, 4.709591e+004
4.627415e+002, 4.708823e+004
4.632236e+002, 4.709247e+004
4.637057e+002, 4.710188e+004
4.641878e+002, 4.711540e+004
4.646699e+002, 4.713247e+004
4.651520e+002, 4.715127e+004
4.656342e+002, 4.717721e+004
4.661163e+002, 4.719993e+004
4.665984e+002, 4.721589e+004
4.670805e+002, 4.722568e+004
4.675626e+002, 4.722560e+004
4.680447e+002, 4.719782e+004
4.685269e+002, 4.717142e+004
4.690090e+002, 4.717812e+004
4.694911e+002, 4.724105e+004
4.699732e+002, 4.729288e+004
4.704553e+002, 4.731971e+004
4.709374e+002, 4.732787e+004
4.714196e+002, 4.734582e+004
4.719017e+002, 4.737437e+004
4.723838e+002, 4.740809e+004
4.728659e+002, 4.744964e+004
4.733480e+002, 4.749872e+004
4.738301e+002, 4.751955e+004
4.743123e+002, 4.750457e+004
4.747944e+002, 4.748725e+004
4.752765e+002, 4.751810e+004
4.757586e+002, 4.758651e+004
4.762407e+002, 4.763778e+004
4.767228e+002, 4.765296e+004
4.772050e+002, 4.764566e+004
4.776871e+002, 4.762510e+004
4.781692e+002, 4.759645e+004
4.786513e+002, 4.758445e+004
4.791334e+002, 4.762318e+004
4.796155e+002, 4.767793e+004
4.800977e+002, 4.771037e+004
4.805798e+002, 4.771443e+004
4.810619e+002, 4.771429e+004
4.815440e+002, 4.771929e+004
4.820261e+002, 4.773063e+004
4.825082e+002, 4.774959e+004
4.829904e+002, 4.777958e+004
4.834725e+002, 4.781431e+004
4.839546e+002, 4.785394e+004
4.844367e+002, 4.789732e+004
4.849188e+002, 4.793896e+004
4.854009e+002, 4.797566e+004
4.858831e+002, 4.801164e+004
4.863652e+002, 4.804594e+004
4.868473e+002, 4.807218e+004
4.873294e+002, 4.811684e+004
4.878115e+002, 4.819318e+004
4.882936e+002, 4.827393e+004
4.887758e+002, 4.833023e+004
4.892579e+002, 4.835427e+004
4.897400e+002, 4.837752e+004
4.902221e+002, 4.840695e+004
4.907042e+002, 4.843729e+004
4.911863e+002, 4.844925e+004
4.916685e+002, 4.844131e+004
4.921506e+002, 4.843341e+004
4.926327e+002, 4.843558e+004
4.931148e+002, 4.844766e+004
4.935969e+002, 4.847071e+004
4.940790e+002, 4.850691e+004
4.945612e+002, 4.854168e+004
4.950433e+002, 4.855560e+004
4.955254e+002, 4.855880e+004
4.960075e+002, 4.857413e+004
4.964896e+002, 4.861384e+004
4.969717e+002, 4.865953e+004
4.974539e+002, 4.868963e+004
4.979360e+002, 4.871114e+004
4.984181e+002, 4.874064e+004
4.989002e+002, 4.879412e+004
4.993823e+002, 4.885155e+004
4.998644e+002, 4.889941e+004
5.003466e+002, 4.893584e+004
5.008287e+002, 4.897166e+004
5.013108e+002, 4.900747e+004
5.017929e+002, 4.904401e+004
5.022750e+002, 4.908160e+004
5.027571e+002, 4.912255e+004
5.032393e+002, 4.916054e+004
5.037214e+002, 4.919546e+004
5.042035e+002, 4.922635e+004
5.046856e+002, 4.925070e+004
5.051677e+002, 4.926101e+004
5.056498e+002, 4.927910e+004
5.061320e+002, 4.931638e+004
5.066141e+002, 4.937220e+004
5.070962e+002, 4.940934e+004
5.075783e+002, 4.942514e+004
5.080604e+002, 4.943405e+004
5.085425e+002, 4.944686e+004
5.090247e+002, 4.946399e+004
5.095068e+002, 4.948510e+004
5.099889e+002, 4.951246e+004
5.104710e+002, 4.953888e+004
5.109531e+002, 4.954876e+004
5.114352e+002, 4.954772e+004
5.119174e+002, 4.955583e+004
5.123995e+002, 4.958873e+004
5.128816e+002, 4.963026e+004
5.133637e+002, 4.965930e+004
5.138458e+002, 4.967819e+004
5.143279e+002, 4.970311e+004
5.148101e+002, 4.975353e+004
5.152922e+002, 4.980639e+004
5.157743e+002, 4.984047e+004
5.162564e+002, 4.984603e+004
5.167385e+002, 4.985327e+004
5.172206e+002, 4.988148e+004
5.177028e+002, 4.991269e+004
5.181849e+002, 4.992639e+004
5.186670e+002, 4.988637e+004
5.191491e+002, 4.986770e+004
5.196312e+002, 4.989855e+004
5.201133e+002, 4.996317e+004
5.205955e+002, 4.999223e+004
5.210776e+002, 4.996833e+004
5.215597e+002, 4.994032e+004
5.220418e+002, 4.993021e+004
5.225239e+002, 4.994110e+004
5.230060e+002, 4.994459e+004
5.234882e+002, 4.993829e+004
5.239703e+002, 4.993414e+004
5.244524e+002, 4.994931e+004
5.249345e+002, 4.998197e+004
5.254166e+002, 5.000361e+004
5.258987e+002, 5.000520e+004
5.263809e+002, 5.000018e+004
5.268630e+002, 5.000760e+004
5.273451e+002, 5.002589e+004
5.278272e+002, 5.004974e+004
5.283093e+002, 5.008302e+004
5.287914e+002, 5.011522e+004
5.292736e+002, 5.013013e+004
5.297557e+002, 5.012851e+004
5.302378e+002, 5.013130e+004
5.307199e+002, 5.015902e+004
5.312020e+002, 5.019053e+004
5.316841e+002, 5.020734e+004
5.321663e+002, 5.020048e+004
5.326484e+002, 5.019158e+004
5.331305e+002, 5.018996e+004
5.336126e+002, 5.018891e+004
5.340947e+002, 5.017861e+004
5.345768e+002, 5.014492e+004
5.350590e+002, 5.012019e+004
5.355411e+002, 5.011452e+004
5.360232e+002, 5.012444e+004
5.365053e+002, 5.012674e+004
5.369874e+002, 5.012187e+004
5.374695e+002, 5.011104e+004
5.379517e+002, 5.009277e+004
5.384338e+002, 5.006654e+004
5.389159e+002, 5.004678e+004
5.393980e+002, 5.003340e+004
5.398801e+002, 5.002662e+004
5.403622e+002, 5.002752e+004
5.408444e+002, 5.003529e+004
5.413265e+002, 5.004791e+004
5.418086e+002, 5.006720e+004
5.422907e+002, 5.008558e+004
5.427728e+002, 5.008967e+004
5.432549e+002, 5.008398e+004
5.437371e+002, 5.008197e+004
5.442192e+002, 5.009450e+004
5.447013e+002, 5.011002e+004
5.451834e+002, 5.012029e+004
5.456655e+002, 5.012542e+004
5.461476e+002, 5.012900e+004
5.466298e+002, 5.012634e+004
5.471119e+002, 5.012773e+004
5.475940e+002, 5.014321e+004
5.480761e+002, 5.019449e+004
5.485582e+002, 5.021898e+004
5.490403e+002, 5.018722e+004
5.495225e+002, 5.013934e+004
5.500046e+002, 5.012449e+004
5.504867e+002, 5.015929e+004
5.509688e+002, 5.019360e+004
5.514509e+002, 5.022004e+004
5.519330e+002, 5.023919e+004
5.524152e+002, 5.025145e+004
5.528973e+002, 5.025492e+004
5.533794e+002, 5.025955e+004
5.538615e+002, 5.026889e+004
5.543436e+002, 5.028271e+004
5.548257e+002, 5.030302e+004
5.553079e+002, 5.032962e+004
5.557900e+002, 5.035771e+004
5.562721e+002, 5.039007e+004
5.567542e+002, 5.041930e+004
5.572363e+002, 5.042768e+004
5.577184e+002, 5.040393e+004
5.582006e+002, 5.038194e+004
5.586827e+002, 5.039562e+004
5.591648e+002, 5.042841e+004
5.596469e+002, 5.045229e+004
5.601290e+002, 5.044903e+004
5.606111e+002, 5.044314e+004
5.610933e+002, 5.044325e+004
5.615754e+002, 5.044916e+004
5.620575e+002, 5.045715e+004
5.625396e+002, 5.046761e+004
5.630217e+002, 5.047924e+004
5.635038e+002, 5.049143e+004
5.639860e+002, 5.050382e+004
5.644681e+002, 5.051775e+004
5.649502e+002, 5.053305e+004
5.654323e+002, 5.054975e+004
5.659144e+002, 5.056701e+004
5.663965e+002, 5.058455e+004
5.668787e+002, 5.060682e+004
5.673608e+002, 5.063433e+004
5.678429e+002, 5.066729e+004
5.683250e+002, 5.070678e+004
5.688071e+002, 5.075215e+004
5.692892e+002, 5.079761e+004
5.697714e+002, 5.083700e+004
5.702535e+002, 5.087728e+004
5.707356e+002, 5.093045e+004
5.712177e+002, 5.099456e+004
5.716998e+002, 5.105420e+004
5.721819e+002, 5.109007e+004
5.726641e+002, 5.112562e+004
5.731462e+002, 5.118265e+004
5.736283e+002, 5.126909e+004
5.741104e+002, 5.134702e+004
5.745925e+002, 5.139795e+004
5.750746e+002, 5.143863e+004
5.755568e+002, 5.148518e+004
5.760389e+002, 5.153491e+004
5.765210e+002, 5.159497e+004
5.770031e+002, 5.167254e+004
5.774852e+002, 5.175835e+004
5.779673e+002, 5.183397e+004
5.784495e+002, 5.189905e+004
5.789316e+002, 5.195879e+004
5.794137e+002, 5.201421e+004
5.798958e+002, 5.206611e+004
5.803779e+002, 5.212100e+004
5.808600e+002, 5.217929e+004
5.813422e+002, 5.223537e+004
5.818243e+002, 5.228983e+004
5.823064e+002, 5.233910e+004
5.827885e+002, 5.237082e+004
5.832706e+002, 5.238333e+004
5.837527e+002, 5.239046e+004
5.842349e+002, 5.242545e+004
5.847170e+002, 5.245296e+004
5.851991e+002, 5.242534e+004
5.856812e+002, 5.230073e+004
5.861633e+002, 5.216793e+004
5.866454e+002, 5.206054e+004
5.871276e+002, 5.196970e+004
5.876097e+002, 5.188132e+004
5.880918e+002, 5.178760e+004
5.885739e+002, 5.170055e+004
5.890560e+002, 5.162545e+004
5.895381e+002, 5.156028e+004
5.900203e+002, 5.148805e+004
5.905024e+002, 5.140001e+004
5.909845e+002, 5.132329e+004
5.914666e+002, 5.127491e+004
5.919487e+002, 5.125548e+004
5.924308e+002, 5.124019e+004
5.929130e+002, 5.123168e+004
5.933951e+002, 5.121789e+004
5.938772e+002, 5.117785e+004
5.943593e+002, 5.112240e+004
5.948414e+002, 5.108821e+004
5.953235e+002, 5.108522e+004
5.958057e+002, 5.109485e+004
5.962878e+002, 5.110009e+004
5.967699e+002, 5.110404e+004
5.972520e+002, 5.111247e+004
5.977341e+002, 5.113280e+004
5.982162e+002, 5.115238e+004
5.986984e+002, 5.116271e+004
5.991805e+002, 5.116571e+004
5.996626e+002, 5.117077e+004
6.001447e+002, 5.118039e+004
6.006268e+002, 5.119076e+004
6.011089e+002, 5.120064e+004
6.015911e+002, 5.121006e+004
6.020732e+002, 5.121718e+004
6.025553e+002, 5.122237e+004
6.030374e+002, 5.122479e+004
6.035195e+002, 5.122009e+004
6.040016e+002, 5.120668e+004
6.044838e+002, 5.121437e+004
6.049659e+002, 5.125085e+004
6.054480e+002, 5.128926e+004
6.059301e+002, 5.128312e+004
6.064122e+002, 5.124621e+004
6.068943e+002, 5.123816e+004
6.073765e+002, 5.129173e+004
6.078586e+002, 5.135205e+004
6.083407e+002, 5.134748e+004
6.088228e+002, 5.130080e+004
6.093049e+002, 5.126817e+004
6.097870e+002, 5.128907e+004
6.102692e+002, 5.131799e+004
6.107513e+002, 5.132963e+004
6.112334e+002, 5.132476e+004
6.117155e+002, 5.132310e+004
6.121976e+002, 5.134255e+004
6.126797e+002, 5.135354e+004
6.131619e+002, 5.133804e+004
6.136440e+002, 5.128445e+004
6.141261e+002, 5.126080e+004
6.146082e+002, 5.127872e+004
6.150903e+002, 5.130871e+004
6.155724e+002, 5.132260e+004
6.160546e+002, 5.131962e+004
6.165367e+002, 5.132576e+004
6.170188e+002, 5.134566e+004
6.175009e+002, 5.137137e+004
6.179830e+002, 5.139380e+004
6.184651e+002, 5.141255e+004
6.189473e+002, 5.142612e+004
6.194294e+002, 5.143248e+004
6.199115e+002, 5.143457e+004
6.203936e+002, 5.143425e+004
6.208757e+002, 5.143172e+004
6.213578e+002, 5.142804e+004
6.218400e+002, 5.141585e+004
6.223221e+002, 5.140958e+004
6.228042e+002, 5.142250e+004
6.232863e+002, 5.145548e+004
6.237684e+002, 5.147425e+004
6.242505e+002, 5.146106e+004
6.247327e+002, 5.144747e+004
6.252148e+002, 5.144974e+004
6.256969e+002, 5.147252e+004
6.261790e+002, 5.149276e+004
6.266611e+002, 5.150866e+004
6.271432e+002, 5.152596e+004
6.276254e+002, 5.155552e+004
6.281075e+002, 5.159578e+004
6.285896e+002, 5.161881e+004
6.290717e+002, 5.161527e+004
6.295538e+002, 5.160515e+004
6.300359e+002, 5.161703e+004
6.305181e+002, 5.164329e+004
6.310002e+002, 5.166560e+004
6.314823e+002, 5.167687e+004
6.319644e+002, 5.168063e+004
6.324465e+002, 5.167388e+004
6.329286e+002, 5.166051e+004
6.334108e+002, 5.165341e+004
6.338929e+002, 5.167240e+004
6.343750e+002, 5.168360e+004
6.348571e+002, 5.166696e+004
6.353392e+002, 5.162030e+004
6.358214e+002, 5.159231e+004
6.363035e+002, 5.159110e+004
6.367856e+002, 5.159788e+004
6.372677e+002, 5.160429e+004
6.377498e+002, 5.161142e+004
6.382319e+002, 5.161304e+004
6.387141e+002, 5.160833e+004
6.391962e+002, 5.160383e+004
6.396783e+002, 5.160443e+004
6.401604e+002, 5.161096e+004
6.406425e+002, 5.162629e+004
6.411246e+002, 5.165227e+004
6.416068e+002, 5.168371e+004
6.420889e+002, 5.171995e+004
6.425710e+002, 5.175723e+004
6.430531e+002, 5.178829e+004
6.435352e+002, 5.180932e+004
6.440173e+002, 5.182445e+004
6.444995e+002, 5.183336e+004
6.449816e+002, 5.183702e+004
6.454637e+002, 5.183907e+004
6.459458e+002, 5.182821e+004
6.464279e+002, 5.182862e+004
6.469100e+002, 5.184980e+004
6.473922e+002, 5.188970e+004
6.478743e+002, 5.192086e+004
6.483564e+002, 5.194189e+004
6.488385e+002, 5.195830e+004
6.493206e+002, 5.197091e+004
6.498027e+002, 5.198063e+004
6.502849e+002, 5.199740e+004
6.507670e+002, 5.202174e+004
6.512491e+002, 5.204288e+004
6.517312e+002, 5.204097e+004
6.522133e+002, 5.203220e+004
6.526954e+002, 5.204946e+004
6.531776e+002, 5.210788e+004
6.536597e+002, 5.215264e+004
6.541418e+002, 5.213310e+004
6.546239e+002, 5.208899e+004
6.551060e+002, 5.206651e+004
6.555881e+002, 5.210999e+004
6.560703e+002, 5.213540e+004
6.565524e+002, 5.211398e+004
6.570345e+002, 5.207188e+004
6.575166e+002, 5.205635e+004
6.579987e+002, 5.207880e+004
6.584808e+002, 5.209839e+004
6.589630e+002, 5.210471e+004
6.594451e+002, 5.210191e+004
6.599272e+002, 5.210493e+004
6.604093e+002, 5.211385e+004
6.608914e+002, 5.212274e+004
6.613735e+002, 5.213110e+004
6.618557e+002, 5.213669e+004
6.623378e+002, 5.213326e+004
6.628199e+002, 5.212210e+004
6.633020e+002, 5.211208e+004
6.637841e+002, 5.210363e+004
6.642662e+002, 5.210283e+004
6.647484e+002, 5.211728e+004
6.652305e+002, 5.215034e+004
6.657126e+002, 5.218190e+004
6.661947e+002, 5.220027e+004
6.666768e+002, 5.222009e+004
6.671589e+002, 5.225373e+004
6.676411e+002, 5.232070e+004
6.681232e+002, 5.235534e+004
6.686053e+002, 5.234557e+004
6.690874e+002, 5.231825e+004
6.695695e+002, 5.230499e+004
6.700516e+002, 5.230516e+004
6.705338e+002, 5.231527e+004
6.710159e+002, 5.233775e+004
6.714980e+002, 5.236169e+004
6.719801e+002, 5.236834e+004
6.724622e+002, 5.236294e+004
6.729443e+002, 5.235980e+004
6.734265e+002, 5.236705e+004
6.739086e+002, 5.237722e+004
6.743907e+002, 5.238948e+004
6.748728e+002, 5.240169e+004
6.753549e+002, 5.240634e+004
6.758370e+002, 5.238298e+004
6.763192e+002, 5.237117e+004
6.768013e+002, 5.239080e+004
6.772834e+002, 5.243902e+004
6.777655e+002, 5.248009e+004
6.782476e+002, 5.251342e+004
6.787297e+002, 5.254074e+004
6.792119e+002, 5.256575e+004
6.796940e+002, 5.258758e+004
6.801761e+002, 5.257905e+004
6.806582e+002, 5.253668e+004
6.811403e+002, 5.249876e+004
6.816224e+002, 5.250020e+004
6.821046e+002, 5.252777e+004
6.825867e+002, 5.255883e+004
6.830688e+002, 5.259109e+004
6.835509e+002, 5.262151e+004
6.840330e+002, 5.265295e+004
6.845151e+002, 5.267907e+004
6.849973e+002, 5.269241e+004
6.854794e+002, 5.267357e+004
6.859615e+002, 5.267180e+004
6.864436e+002, 5.271420e+004
6.869257e+002, 5.276872e+004
6.874078e+002, 5.279689e+004
6.878900e+002, 5.278802e+004
6.883721e+002, 5.278329e+004
6.888542e+002, 5.278923e+004
6.893363e+002, 5.280243e+004
6.898184e+002, 5.281676e+004
6.903005e+002, 5.283222e+004
6.907827e+002, 5.284753e+004
6.912648e+002, 5.286275e+004
6.917469e+002, 5.287672e+004
6.922290e+002, 5.288277e+004
6.927111e+002, 5.288488e+004
6.931932e+002, 5.289626e+004
6.936754e+002, 5.292857e+004
6.941575e+002, 5.296684e+004
6.946396e+002, 5.300582e+004
6.951217e+002, 5.304404e+004
6.956038e+002, 5.307418e+004
6.960859e+002, 5.309177e+004
6.965681e+002, 5.310293e+004
6.970502e+002, 5.310837e+004
6.975323e+002, 5.310781e+004
6.980144e+002, 5.310959e+004
6.984965e+002, 5.311489e+004
6.989786e+002, 5.311954e+004
6.994608e+002, 5.312232e+004
6.999429e+002, 5.312268e+004
7.004250e+002, 5.311233e+004
7.009071e+002, 5.309004e+004
7.013892e+002, 5.307731e+004
7.018713e+002, 5.310814e+004
7.023535e+002, 5.315318e+004
7.028356e+002, 5.317262e+004
7.033177e+002, 5.314918e+004
7.037998e+002, 5.313051e+004
7.042819e+002, 5.313627e+004
7.047640e+002, 5.315514e+004
7.052462e+002, 5.317532e+004
7.057283e+002, 5.319582e+004
7.062104e+002, 5.321695e+004
7.066925e+002, 5.324052e+004
7.071746e+002, 5.326245e+004
7.076567e+002, 5.327420e+004
7.081389e+002, 5.327473e+004
7.086210e+002, 5.328020e+004
7.091031e+002, 5.329707e+004
7.095852e+002, 5.331567e+004
7.100673e+002, 5.331724e+004
7.105494e+002, 5.330687e+004
7.110316e+002, 5.329985e+004
7.115137e+002, 5.330822e+004
7.119958e+002, 5.331815e+004
7.124779e+002, 5.331753e+004
7.129600e+002, 5.331088e+004
7.134421e+002, 5.331165e+004
7.139243e+002, 5.332148e+004
7.144064e+002, 5.334229e+004
7.148885e+002, 5.338339e+004
7.153706e+002, 5.343954e+004
7.158527e+002, 5.346350e+004
7.163348e+002, 5.344429e+004
7.168170e+002, 5.342538e+004
7.172991e+002, 5.343045e+004
7.177812e+002, 5.345350e+004
7.182633e+002, 5.346119e+004
7.187454e+002, 5.345390e+004
7.192275e+002, 5.345010e+004
7.197097e+002, 5.346388e+004
7.201918e+002, 5.348800e+004
7.206739e+002, 5.351948e+004
7.211560e+002, 5.355791e+004
7.216381e+002, 5.358405e+004
7.221202e+002, 5.357527e+004
7.226024e+002, 5.356086e+004
7.230845e+002, 5.356093e+004
7.235666e+002, 5.358123e+004
7.240487e+002, 5.360507e+004
7.245308e+002, 5.363622e+004
7.250129e+002, 5.366679e+004
7.254951e+002, 5.369123e+004
7.259772e+002, 5.370985e+004
7.264593e+002, 5.371807e+004
7.269414e+002, 5.371348e+004
7.274235e+002, 5.370709e+004
7.279056e+002, 5.371099e+004
7.283878e+002, 5.372224e+004
7.288699e+002, 5.373414e+004
7.293520e+002, 5.374352e+004
7.298341e+002, 5.375738e+004
7.303162e+002, 5.378950e+004
7.307983e+002, 5.382538e+004
7.312805e+002, 5.384728e+004
7.317626e+002, 5.383366e+004
7.322447e+002, 5.382868e+004
7.327268e+002, 5.383735e+004
7.332089e+002, 5.385662e+004
7.336910e+002, 5.388420e+004
7.341732e+002, 5.392424e+004
7.346553e+002, 5.395461e+004
7.351374e+002, 5.396680e+004
7.356195e+002, 5.397301e+004
7.361016e+002, 5.399710e+004
7.365837e+002, 5.403605e+004
7.370659e+002, 5.407766e+004
7.375480e+002, 5.412574e+004
7.380301e+002, 5.416430e+004
7.385122e+002, 5.416668e+004
7.389943e+002, 5.414696e+004
7.394764e+002, 5.414186e+004
7.399586e+002, 5.418559e+004
7.404407e+002, 5.422243e+004
7.409228e+002, 5.422632e+004
7.414049e+002, 5.420612e+004
7.418870e+002, 5.420190e+004
7.423691e+002, 5.422055e+004
7.428513e+002, 5.423756e+004
7.433334e+002, 5.424359e+004
7.438155e+002, 5.424133e+004
7.442976e+002, 5.423856e+004
7.447797e+002, 5.423607e+004
7.452618e+002, 5.424054e+004
7.457440e+002, 5.426752e+004
7.462261e+002, 5.429724e+004
7.467082e+002, 5.430391e+004
7.471903e+002, 5.428898e+004
7.476724e+002, 5.427323e+004
7.481545e+002, 5.424654e+004
7.486367e+002, 5.423775e+004
7.491188e+002, 5.427298e+004
7.496009e+002, 5.436000e+004
7.500830e+002, 5.441424e+004
7.505651e+002, 5.442816e+004
7.510472e+002, 5.442368e+004
7.515294e+002, 5.440743e+004
7.520115e+002, 5.437977e+004
7.524936e+002, 5.436488e+004
7.529757e+002, 5.436273e+004
7.534578e+002, 5.437011e+004
7.539399e+002, 5.439344e+004
7.544221e+002, 5.442122e+004
7.549042e+002, 5.443582e+004
7.553863e+002, 5.443537e+004
7.558684e+002, 5.442857e+004
7.563505e+002, 5.441230e+004
7.568326e+002, 5.439725e+004
7.573148e+002, 5.439162e+004
7.577969e+002, 5.439816e+004
7.582790e+002, 5.441132e+004
7.587611e+002, 5.443564e+004
7.592432e+002, 5.446085e+004
7.597253e+002, 5.447658e+004
7.602075e+002, 5.448240e+004
7.606896e+002, 5.449251e+004
7.611717e+002, 5.450866e+004
7.616538e+002, 5.452293e+004
7.621359e+002, 5.451507e+004
7.626180e+002, 5.450193e+004
7.631002e+002, 5.452059e+004
7.635823e+002, 5.459130e+004
7.640644e+002, 5.464968e+004
7.645465e+002, 5.464774e+004
7.650286e+002, 5.462257e+004
7.655107e+002, 5.461430e+004
7.659929e+002, 5.464689e+004
7.664750e+002, 5.466992e+004
7.669571e+002, 5.467957e+004
7.674392e+002, 5.468451e+004
7.679213e+002, 5.469459e+004
7.684034e+002, 5.470994e+004
7.688856e+002, 5.473065e+004
7.693677e+002, 5.475632e+004
7.698498e+002, 5.478742e+004
7.703319e+002, 5.482792e+004
7.708140e+002, 5.487350e+004
7.712961e+002, 5.491676e+004
7.717783e+002, 5.495955e+004
7.722604e+002, 5.499027e+004
7.727425e+002, 5.499118e+004
7.732246e+002, 5.497906e+004
7.737067e+002, 5.498003e+004
7.741888e+002, 5.500861e+004
7.746710e+002, 5.503366e+004
7.751531e+002, 5.505154e+004
7.756352e+002, 5.506628e+004
7.761173e+002, 5.508617e+004
7.765994e+002, 5.511159e+004
7.770815e+002, 5.513254e+004
7.775637e+002, 5.514616e+004
7.780458e+002, 5.515564e+004
7.785279e+002, 5.515746e+004
7.790100e+002, 5.515891e+004
7.794921e+002, 5.517705e+004
7.799742e+002, 5.523853e+004
7.804564e+002, 5.529433e+004
7.809385e+002, 5.532725e+004
7.814206e+002, 5.533844e+004
7.819027e+002, 5.532705e+004
7.823848e+002, 5.525996e+004
7.828669e+002, 5.523148e+004
7.833491e+002, 5.527489e+004
7.838312e+002, 5.535312e+004
7.843133e+002, 5.536975e+004
7.847954e+002, 5.532670e+004
7.852775e+002, 5.528841e+004
7.857596e+002, 5.527899e+004
7.862418e+002, 5.528338e+004
7.867239e+002, 5.527754e+004
7.872060e+002, 5.526911e+004
7.876881e+002, 5.527632e+004
7.881702e+002, 5.533330e+004
7.886523e+002, 5.537947e+004
7.891345e+002, 5.537946e+004
7.896166e+002, 5.534932e+004
7.900987e+002, 5.533845e+004
7.905808e+002, 5.535411e+004
7.910629e+002, 5.537599e+004
7.915450e+002, 5.540164e+004
7.920272e+002, 5.542834e+004
7.925093e+002, 5.544749e+004
7.929914e+002, 5.545954e+004
7.934735e+002, 5.546825e+004
7.939556e+002, 5.547184e+004
7.944377e+002, 5.547655e+004
7.949199e+002, 5.548908e+004
7.954020e+002, 5.550893e+004
7.958841e+002, 5.553411e+004
7.963662e+002, 5.557749e+004
7.968483e+002, 5.561165e+004
7.973304e+002, 5.562214e+004
7.978126e+002, 5.561575e+004
7.982947e+002, 5.561251e+004
7.987768e+002, 5.561406e+004
7.992589e+002, 5.561491e+004
7.997410e+002, 5.561354e+004
8.002231e+002, 5.561096e+004
8.007053e+002, 5.560618e+004
8.011874e+002, 5.560113e+004
8.016695e+002, 5.560583e+004
8.021516e+002, 5.563280e+004
8.026337e+002, 5.566516e+004
8.031158e+002, 5.569029e+004
8.035980e+002, 5.570863e+004
8.040801e+002, 5.572241e+004
8.045622e+002, 5.573080e+004
8.050443e+002, 5.573516e+004
8.055264e+002, 5.573146e+004
8.060085e+002, 5.572424e+004
8.064907e+002, 5.572849e+004
8.069728e+002, 5.574486e+004
8.074549e+002, 5.576893e+004
8.079370e+002, 5.580470e+004
8.084191e+002, 5.584106e+004
8.089012e+002, 5.585051e+004
8.093834e+002, 5.583957e+004
8.098655e+002, 5.583174e+004
8.103476e+002, 5.584011e+004
8.108297e+002, 5.585413e+004
8.113118e+002, 5.586863e+004
8.117939e+002, 5.588405e+004
8.122761e+002, 5.590138e+004
8.127582e+002, 5.592218e+004
8.132403e+002, 5.594454e+004
8.137224e+002, 5.597313e+004
8.142045e+002, 5.600099e+004
8.146866e+002, 5.599943e+004
8.151688e+002, 5.596795e+004
8.156509e+002, 5.595308e+004
8.161330e+002, 5.597770e+004
8.166151e+002, 5.602020e+004
8.170972e+002, 5.604682e+004
8.175793e+002, 5.606523e+004
8.180615e+002, 5.609630e+004
8.185436e+002, 5.618044e+004
8.190257e+002, 5.624416e+004
8.195078e+002, 5.624045e+004
8.199899e+002, 5.619429e+004
8.204720e+002, 5.617788e+004
8.209542e+002, 5.620476e+004
8.214363e+002, 5.622849e+004
8.219184e+002, 5.624013e+004
8.224005e+002, 5.624171e+004
8.228826e+002, 5.623175e+004
8.233647e+002, 5.621385e+004
8.238469e+002, 5.620970e+004
8.243290e+002, 5.623726e+004
8.248111e+002, 5.626812e+004
8.252932e+002, 5.627527e+004
8.257753e+002, 5.626752e+004
8.262574e+002, 5.626190e+004
8.267396e+002, 5.626493e+004
8.272217e+002, 5.626921e+004
8.277038e+002, 5.627159e+004
8.281859e+002, 5.627561e+004
8.286681e+002, 5.628801e+004
8.291502e+002, 5.630907e+004
8.296323e+002, 5.633774e+004
8.301144e+002, 5.637838e+004
8.305966e+002, 5.641570e+004
8.310787e+002, 5.642032e+004
8.315608e+002, 5.640393e+004
8.320429e+002, 5.639506e+004
8.325250e+002, 5.640686e+004
8.330071e+002, 5.642289e+004
8.334893e+002, 5.643778e+004
8.339714e+002, 5.645082e+004
8.344535e+002, 5.646110e+004
8.349356e+002, 5.646937e+004
8.354177e+002, 5.647246e+004
8.358998e+002, 5.646554e+004
8.363820e+002, 5.645949e+004
8.368641e+002, 5.647409e+004
8.373462e+002, 5.650659e+004
8.378283e+002, 5.653342e+004
8.383104e+002, 5.654786e+004
8.387925e+002, 5.656067e+004
8.392747e+002, 5.658771e+004
8.397568e+002, 5.661762e+004
8.402389e+002, 5.663405e+004
8.407210e+002, 5.662176e+004
8.412031e+002, 5.661579e+004
8.416852e+002, 5.663020e+004
8.421674e+002, 5.664926e+004
8.426495e+002, 5.665898e+004
8.431316e+002, 5.665902e+004
8.436137e+002, 5.665530e+004
8.440958e+002, 5.664822e+004
8.445779e+002, 5.664020e+004
8.450601e+002, 5.663048e+004
8.455422e+002, 5.662282e+004
8.460243e+002, 5.662608e+004
8.465064e+002, 5.664350e+004
8.469885e+002, 5.666139e+004
8.474706e+002, 5.666476e+004
8.479528e+002, 5.666930e+004
8.484349e+002, 5.668896e+004
8.489170e+002, 5.672729e+004
8.493991e+002, 5.677095e+004
8.498812e+002, 5.682296e+004
8.503633e+002, 5.687228e+004
8.508455e+002, 5.691546e+004
8.513276e+002, 5.694945e+004
8.518097e+002, 5.694781e+004
8.522918e+002, 5.690870e+004
8.527739e+002, 5.686879e+004
8.532560e+002, 5.685081e+004
8.537382e+002, 5.685134e+004
8.542203e+002, 5.687671e+004
8.547024e+002, 5.693204e+004
8.551845e+002, 5.696233e+004
8.556666e+002, 5.692842e+004
8.561487e+002, 5.689852e+004
8.566309e+002, 5.690872e+004
8.571130e+002, 5.695826e+004
8.575951e+002, 5.699051e+004
8.580772e+002, 5.700482e+004
8.585593e+002, 5.700888e+004
8.590414e+002, 5.699893e+004
8.595236e+002, 5.698591e+004
8.600057e+002, 5.698362e+004
8.604878e+002, 5.699292e+004
8.609699e+002, 5.701780e+004
8.614520e+002, 5.707970e+004
8.619341e+002, 5.713844e+004
8.624163e+002, 5.717453e+004
8.628984e+002, 5.719069e+004
8.633805e+002, 5.720105e+004
8.638626e+002, 5.720415e+004
8.643447e+002, 5.720651e+004
8.648268e+002, 5.720701e+004
8.653090e+002, 5.721108e+004
8.657911e+002, 5.723508e+004
8.662732e+002, 5.727533e+004
8.667553e+002, 5.731652e+004
8.672374e+002, 5.735083e+004
8.677195e+002, 5.738318e+004
8.682017e+002, 5.742377e+004
8.686838e+002, 5.746419e+004
8.691659e+002, 5.747689e+004
8.696480e+002, 5.743859e+004
8.701301e+002, 5.741420e+004
8.706122e+002, 5.742413e+004
8.710944e+002, 5.744589e+004
8.715765e+002, 5.742260e+004
8.720586e+002, 5.736212e+004
8.725407e+002, 5.732264e+004
8.730228e+002, 5.732954e+004
8.735049e+002, 5.734886e+004
8.739871e+002, 5.734902e+004
8.744692e+002, 5.734150e+004
8.749513e+002, 5.734318e+004
8.754334e+002, 5.738393e+004
8.759155e+002, 5.739973e+004
8.763976e+002, 5.736967e+004
8.768798e+002, 5.732921e+004
8.773619e+002, 5.731648e+004
8.778440e+002, 5.733169e+004
8.783261e+002, 5.737541e+004
8.788082e+002, 5.745393e+004
8.792903e+002, 5.752482e+004
8.797725e+002, 5.752668e+004
8.802546e+002, 5.749758e+004
8.807367e+002, 5.749418e+004
8.812188e+002, 5.753043e+004
8.817009e+002, 5.756919e+004
8.821830e+002, 5.759139e+004
8.826652e+002, 5.761584e+004
8.831473e+002, 5.766051e+004
8.836294e+002, 5.773452e+004
8.841115e+002, 5.776635e+004
8.845936e+002, 5.774963e+004
8.850757e+002, 5.772521e+004
8.855579e+002, 5.771757e+004
8.860400e+002, 5.772801e+004
8.865221e+002, 5.777228e+004
8.870042e+002, 5.784687e+004
8.874863e+002, 5.790090e+004
8.879684e+002, 5.788225e+004
8.884506e+002, 5.785886e+004
8.889327e+002, 5.786943e+004
8.894148e+002, 5.791335e+004
8.898969e+002, 5.796304e+004
8.903790e+002, 5.801980e+004
8.908611e+002, 5.807649e+004
8.913433e+002, 5.813043e+004
8.918254e+002, 5.818124e+004
8.923075e+002, 5.822165e+004
8.927896e+002, 5.825700e+004
8.932717e+002, 5.831146e+004
8.937538e+002, 5.842502e+004
8.942360e+002, 5.853346e+004
8.947181e+002, 5.858313e+004
8.952002e+002, 5.859773e+004
8.956823e+002, 5.863986e+004
8.961644e+002, 5.871858e+004
8.966465e+002, 5.881124e+004
8.971287e+002, 5.891583e+004
8.976108e+002, 5.902973e+004
8.980929e+002, 5.915973e+004
8.985750e+002, 5.929699e+004
8.990571e+002, 5.939133e+004
8.995392e+002, 5.941526e+004
9.000214e+002, 5.944085e+004
9.005035e+002, 5.952963e+004
9.009856e+002, 5.965197e+004
9.014677e+002, 5.977490e+004
9.019498e+002, 5.987953e+004
9.024319e+002, 6.000618e+004
9.029141e+002, 6.016504e+004
9.033962e+002, 6.033273e+004
9.038783e+002, 6.048848e+004
9.043604e+002, 6.063357e+004
9.048425e+002, 6.078214e+004
9.053246e+002, 6.093604e+004
9.058068e+002, 6.111170e+004
9.062889e+002, 6.135111e+004
9.067710e+002, 6.160060e+004
9.072531e+002, 6.180691e+004
9.077352e+002, 6.196014e+004
9.082173e+002, 6.212773e+004
9.086995e+002, 6.232493e+004
9.091816e+002, 6.253086e+004
9.096637e+002, 6.273774e+004
9.101458e+002, 6.294414e+004
9.106279e+002, 6.313905e+004
9.111100e+002, 6.332193e+004
9.115922e+002, 6.347698e+004
9.120743e+002, 6.359286e+004
9.125564e+002, 6.368105e+004
9.130385e+002, 6.376654e+004
9.135206e+002, 6.383571e+004
9.140027e+002, 6.384897e+004
9.144849e+002, 6.378219e+004
9.149670e+002, 6.367168e+004
9.154491e+002, 6.352360e+004
9.159312e+002, 6.333783e+004
9.164133e+002, 6.310169e+004
9.168954e+002, 6.281523e+004
9.173776e+002, 6.254280e+004
9.178597e+002, 6.230155e+004
9.183418e+002, 6.206705e+004
9.188239e+002, 6.180341e+004
9.193060e+002, 6.153246e+004
9.197881e+002, 6.128520e+004
9.202703e+002, 6.107331e+004
9.207524e+002, 6.087529e+004
9.212345e+002, 6.068671e+004
9.217166e+002, 6.051047e+004
9.221987e+002, 6.034711e+004
9.226808e+002, 6.019607e+004
9.231630e+002, 6.007908e+004
9.236451e+002, 5.999888e+004
9.241272e+002, 5.992163e+004
9.246093e+002, 5.979939e+004
9.250914e+002, 5.967541e+004
9.255735e+002, 5.961050e+004
9.260557e+002, 5.960789e+004
9.265378e+002, 5.958869e+004
9.270199e+002, 5.950535e+004
9.275020e+002, 5.942989e+004
9.279841e+002, 5.939195e+004
9.284662e+002, 5.938334e+004
9.289484e+002, 5.934920e+004
9.294305e+002, 5.928989e+004
9.299126e+002, 5.923932e+004
9.303947e+002, 5.922036e+004
9.308768e+002, 5.921192e+004
9.313589e+002, 5.919407e+004
9.318411e+002, 5.916793e+004
9.323232e+002, 5.913586e+004
9.328053e+002, 5.909213e+004
9.332874e+002, 5.905241e+004
9.337695e+002, 5.901932e+004
9.342516e+002, 5.899239e+004
9.347338e+002, 5.896851e+004
9.352159e+002, 5.894766e+004
9.356980e+002, 5.894974e+004
9.361801e+002, 5.898198e+004
9.366622e+002, 5.901472e+004
9.371443e+002, 5.901202e+004
9.376265e+002, 5.899462e+004
9.381086e+002, 5.898701e+004
9.385907e+002, 5.899418e+004
9.390728e+002, 5.900546e+004
9.395549e+002, 5.902157e+004
9.400370e+002, 5.903618e+004
9.405192e+002, 5.904299e+004
9.410013e+002, 5.904250e+004
9.414834e+002, 5.905314e+004
9.419655e+002, 5.907451e+004
9.424476e+002, 5.909471e+004
9.429297e+002, 5.911283e+004
9.434119e+002, 5.912067e+004
9.438940e+002, 5.910607e+004
9.443761e+002, 5.907307e+004
9.448582e+002, 5.903976e+004
9.453403e+002, 5.899451e+004
9.458224e+002, 5.897376e+004
9.463046e+002, 5.899637e+004
9.467867e+002, 5.903985e+004
9.472688e+002, 5.905134e+004
9.477509e+002, 5.903384e+004
9.482330e+002, 5.900620e+004
9.487151e+002, 5.896922e+004
9.491973e+002, 5.893749e+004
9.496794e+002, 5.892295e+004
9.501615e+002, 5.892275e+004
9.506436e+002, 5.893449e+004
9.511257e+002, 5.896834e+004
9.516078e+002, 5.899476e+004
9.520900e+002, 5.901330e+004
9.525721e+002, 5.902530e+004
9.530542e+002, 5.902288e+004
9.535363e+002, 5.901214e+004
9.540184e+002, 5.903943e+004
9.545005e+002, 5.910447e+004
9.549827e+002, 5.916352e+004
9.554648e+002, 5.917741e+004
9.559469e+002, 5.917978e+004
9.564290e+002, 5.919307e+004
9.569111e+002, 5.921748e+004
9.573932e+002, 5.924171e+004
9.578754e+002, 5.926601e+004
9.583575e+002, 5.928374e+004
9.588396e+002, 5.928602e+004
9.593217e+002, 5.928593e+004
9.598038e+002, 5.932748e+004
9.602859e+002, 5.939589e+004
9.607681e+002, 5.943829e+004
9.612502e+002, 5.942205e+004
9.617323e+002, 5.939682e+004
9.622144e+002, 5.938781e+004
9.626965e+002, 5.938814e+004
9.631786e+002, 5.939038e+004
9.636608e+002, 5.940059e+004
9.641429e+002, 5.939380e+004
9.646250e+002, 5.936361e+004
9.651071e+002, 5.933887e+004
9.655892e+002, 5.936368e+004
9.660714e+002, 5.941236e+004
9.665535e+002, 5.942612e+004
9.670356e+002, 5.940129e+004
9.675177e+002, 5.937278e+004
9.679998e+002, 5.935284e+004
9.684819e+002, 5.933985e+004
9.689641e+002, 5.933185e+004
9.694462e+002, 5.932911e+004
9.699283e+002, 5.933496e+004
9.704104e+002, 5.934836e+004
9.708925e+002, 5.937455e+004
9.713746e+002, 5.942112e+004
9.718568e+002, 5.947245e+004
9.723389e+002, 5.950797e+004
9.728210e+002, 5.952949e+004
9.733031e+002, 5.954196e+004
9.737852e+002, 5.952370e+004
9.742673e+002, 5.952740e+004
9.747495e+002, 5.957968e+004
9.752316e+002, 5.964334e+004
9.757137e+002, 5.967699e+004
9.761958e+002, 5.967956e+004
9.766779e+002, 5.969643e+004
9.771600e+002, 5.973313e+004
9.776422e+002, 5.976562e+004
9.781243e+002, 5.978068e+004
9.786064e+002, 5.977697e+004
9.790885e+002, 5.974213e+004
9.795706e+002, 5.967557e+004
9.800527e+002, 5.963751e+004
9.805349e+002, 5.965633e+004
9.810170e+002, 5.967629e+004
9.814991e+002, 5.967612e+004
9.819812e+002, 5.966336e+004
9.824633e+002, 5.966384e+004
9.829454e+002, 5.967602e+004
9.834276e+002, 5.969255e+004
9.839097e+002, 5.971517e+004
9.843918e+002, 5.973357e+004
9.848739e+002, 5.973965e+004
9.853560e+002, 5.973709e+004
9.858381e+002, 5.973037e+004
9.863203e+002, 5.971027e+004
9.868024e+002, 5.971034e+004
9.872845e+002, 5.973634e+004
9.877666e+002, 5.977323e+004
9.882487e+002, 5.981421e+004
9.887308e+002, 5.985293e+004
9.892130e+002, 5.987127e+004
9.896951e+002, 5.986806e+004
9.901772e+002, 5.985696e+004
9.906593e+002, 5.982931e+004
9.911414e+002, 5.981045e+004
9.916235e+002, 5.982014e+004
9.921057e+002, 5.985134e+004
9.925878e+002, 5.986239e+004
9.930699e+002, 5.984745e+004
9.935520e+002, 5.985421e+004
9.940341e+002, 5.991398e+004
9.945162e+002, 5.997870e+004
9.949984e+002, 5.996556e+004
9.954805e+002, 5.990939e+004
9.959626e+002, 5.987708e+004
9.964447e+002, 5.990986e+004
9.969268e+002, 5.993426e+004
9.974089e+002, 5.993639e+004
9.978911e+002, 5.993176e+004
9.983732e+002, 5.993474e+004
9.988553e+002, 5.994571e+004
9.993374e+002, 5.995266e+004
9.998195e+002, 5.995553e+004
1.000302e+003, 5.996361e+004
1.000784e+003, 5.999144e+004
1.001266e+003, 6.002124e+004
1.001748e+003, 6.003254e+004
1.002230e+003, 6.002751e+004
1.002712e+003, 6.004069e+004
1.003194e+003, 6.008200e+004
1.003676e+003, 6.011960e+004
1.004159e+003, 6.014477e+004
1.004641e+003, 6.016020e+004
1.005123e+003, 6.016767e+004
1.005605e+003, 6.017068e+004
1.006087e+003, 6.018132e+004
1.006569e+003, 6.020621e+004
1.007051e+003, 6.023244e+004
1.007533e+003, 6.026470e+004
1.008016e+003, 6.028905e+004
1.008498e+003, 6.029025e+004
1.008980e+003, 6.026046e+004
1.009462e+003, 6.026411e+004
1.009944e+003, 6.030724e+004
1.010426e+003, 6.034374e+004
1.010908e+003, 6.031170e+004
1.011390e+003, 6.026970e+004
1.011872e+003, 6.031528e+004
1.012355e+003, 6.042696e+004
1.012837e+003, 6.050407e+004
1.013319e+003, 6.047811e+004
1.013801e+003, 6.045820e+004
1.014283e+003, 6.046557e+004
1.014765e+003, 6.049001e+004
1.015247e+003, 6.051714e+004
1.015729e+003, 6.054578e+004
1.016211e+003, 6.056788e+004
1.016694e+003, 6.058259e+004
1.017176e+003, 6.058745e+004
1.017658e+003, 6.057262e+004
1.018140e+003, 6.055352e+004
1.018622e+003, 6.054598e+004
1.019104e+003, 6.055504e+004
1.019586e+003, 6.055652e+004
1.020068e+003, 6.054916e+004
1.020551e+003, 6.054203e+004
1.021033e+003, 6.054132e+004
1.021515e+003, 6.054384e+004
1.021997e+003, 6.053655e+004
1.022479e+003, 6.052567e+004
1.022961e+003, 6.052979e+004
1.023443e+003, 6.057041e+004
1.023925e+003, 6.060961e+004
1.024407e+003, 6.063611e+004
1.024890e+003, 6.065511e+004
1.025372e+003, 6.066751e+004
1.025854e+003, 6.067205e+004
1.026336e+003, 6.070557e+004
1.026818e+003, 6.077483e+004
1.027300e+003, 6.083335e+004
1.027782e+003, 6.082834e+004
1.028264e+003, 6.080139e+004
1.028746e+003, 6.079207e+004
1.029229e+003, 6.080388e+004
1.029711e+003, 6.081079e+004
1.030193e+003, 6.080582e+004
1.030675e+003, 6.080595e+004
1.031157e+003, 6.081486e+004
1.031639e+003, 6.083461e+004
1.032121e+003, 6.088593e+004
1.032603e+003, 6.095370e+004
1.033086e+003, 6.098679e+004
1.033568e+003, 6.095536e+004
1.034050e+003, 6.091969e+004
1.034532e+003, 6.090141e+004
1.035014e+003, 6.089652e+004
1.035496e+003, 6.090174e+004
1.035978e+003, 6.091822e+004
1.036460e+003, 6.094330e+004
1.036943e+003, 6.097783e+004
1.037425e+003, 6.100561e+004
1.037907e+003, 6.100334e+004
1.038389e+003, 6.099618e+004
1.038871e+003, 6.101648e+004
1.039353e+003, 6.105669e+004
1.039835e+003, 6.108288e+004
1.040317e+003, 6.106073e+004
1.040799e+003, 6.107199e+004
1.041281e+003, 6.114028e+004
1.041764e+003, 6.122786e+004
1.042246e+003, 6.127369e+004
1.042728e+003, 6.128868e+004
1.043210e+003, 6.130889e+004
1.043692e+003, 6.134234e+004
1.044174e+003, 6.136729e+004
1.044656e+003, 6.136693e+004
1.045138e+003, 6.135804e+004
1.045621e+003, 6.134779e+004
1.046103e+003, 6.133743e+004
1.046585e+003, 6.134561e+004
1.047067e+003, 6.137389e+004
1.047549e+003, 6.139843e+004
1.048031e+003, 6.140523e+004
1.048513e+003, 6.140728e+004
1.048995e+003, 6.142102e+004
1.049478e+003, 6.144039e+004
1.049960e+003, 6.145500e+004
1.050442e+003, 6.145855e+004
1.050924e+003, 6.146273e+004
1.051406e+003, 6.146717e+004
1.051888e+003, 6.147386e+004
1.052370e+003, 6.148701e+004
1.052852e+003, 6.150417e+004
1.053334e+003, 6.151858e+004
1.053817e+003, 6.152954e+004
1.054299e+003, 6.153158e+004
1.054781e+003, 6.151026e+004
1.055263e+003, 6.149170e+004
1.055745e+003, 6.148533e+004
1.056227e+003, 6.149084e+004
1.056709e+003, 6.151019e+004
1.057191e+003, 6.154371e+004
1.057673e+003, 6.158289e+004
1.058156e+003, 6.162861e+004
1.058638e+003, 6.166682e+004
1.059120e+003, 6.167534e+004
1.059602e+003, 6.167322e+004
1.060084e+003, 6.168142e+004
1.060566e+003, 6.170474e+004
1.061048e+003, 6.172776e+004
1.061530e+003, 6.175264e+004
1.062013e+003, 6.177027e+004
1.062495e+003, 6.177404e+004
1.062977e+003, 6.176960e+004
1.063459e+003, 6.176768e+004
1.063941e+003, 6.176939e+004
1.064423e+003, 6.177800e+004
1.064905e+003, 6.180613e+004
1.065387e+003, 6.182553e+004
1.065870e+003, 6.181396e+004
1.066352e+003, 6.180052e+004
1.066834e+003, 6.181736e+004
1.067316e+003, 6.186481e+004
1.067798e+003, 6.188261e+004
1.068280e+003, 6.186877e+004
1.068762e+003, 6.185099e+004
1.069244e+003, 6.184584e+004
1.069726e+003, 6.184818e+004
1.070208e+003, 6.185354e+004
1.070691e+003, 6.186319e+004
1.071173e+003, 6.188252e+004
1.071655e+003, 6.191679e+004
1.072137e+003, 6.194429e+004
1.072619e+003, 6.196073e+004
1.073101e+003, 6.197014e+004
1.073583e+003, 6.197482e+004
1.074065e+003, 6.197724e+004
1.074548e+003, 6.198135e+004
1.075030e+003, 6.198748e+004
1.075512e+003, 6.199593e+004
1.075994e+003, 6.201013e+004
1.076476e+003, 6.202199e+004
1.076958e+003, 6.202663e+004
1.077440e+003, 6.202722e+004
1.077922e+003, 6.204057e+004
1.078405e+003, 6.206226e+004
1.078887e+003, 6.206801e+004
1.079369e+003, 6.203513e+004
1.079851e+003, 6.200898e+004
1.080333e+003, 6.202211e+004
1.080815e+003, 6.205164e+004
1.081297e+003, 6.207151e+004
1.081779e+003, 6.207977e+004
1.082261e+003, 6.208955e+004
1.082744e+003, 6.210074e+004
1.083226e+003, 6.211504e+004
1.083708e+003, 6.213662e+004
1.084190e+003, 6.215915e+004
1.084672e+003, 6.217046e+004
1.085154e+003, 6.217646e+004
1.085636e+003, 6.219952e+004
1.086118e+003, 6.225752e+004
1.086601e+003, 6.229949e+004
1.087083e+003, 6.231521e+004
1.087565e+003, 6.232343e+004
1.088047e+003, 6.235429e+004
1.088529e+003, 6.239341e+004
1.089011e+003, 6.240902e+004
1.089493e+003, 6.239757e+004
1.089975e+003, 6.238129e+004
1.090458e+003, 6.235900e+004
1.090940e+003, 6.234509e+004
1.091422e+003, 6.234419e+004
1.091904e+003, 6.235499e+004
1.092386e+003, 6.237849e+004
1.092868e+003, 6.241184e+004
1.093350e+003, 6.243771e+004
1.093832e+003, 6.245057e+004
1.094314e+003, 6.245639e+004
1.094797e+003, 6.245918e+004
1.095279e+003, 6.245734e+004
1.095761e+003, 6.244705e+004
1.096243e+003, 6.242809e+004
1.096725e+003, 6.242096e+004
1.097207e+003, 6.242659e+004
1.097689e+003, 6.244051e+004
1.098171e+003, 6.246393e+004
1.098653e+003, 6.249121e+004
1.099136e+003, 6.252336e+004
1.099618e+003, 6.255302e+004
1.100100e+003, 6.256532e+004
1.100582e+003, 6.254051e+004
1.101064e+003, 6.252823e+004
1.101546e+003, 6.253124e+004
1.102028e+003, 6.254082e+004
1.102510e+003, 6.254977e+004
1.102993e+003, 6.255854e+004
1.103475e+003, 6.256866e+004
1.103957e+003, 6.257992e+004
1.104439e+003, 6.259174e+004
1.104921e+003, 6.260364e+004
1.105403e+003, 6.261759e+004
1.105885e+003, 6.263814e+004
1.106367e+003, 6.265784e+004
1.106849e+003, 6.265924e+004
1.107332e+003, 6.264709e+004
1.107814e+003, 6.264311e+004
1.108296e+003, 6.265082e+004
1.108778e+003, 6.266879e+004
1.109260e+003, 6.271216e+004
1.109742e+003, 6.275059e+004
1.110224e+003, 6.275815e+004
1.110706e+003, 6.274270e+004
1.111188e+003, 6.274968e+004
1.111671e+003, 6.277911e+004
1.112153e+003, 6.280476e+004
1.112635e+003, 6.281638e+004
1.113117e+003, 6.282469e+004
1.113599e+003, 6.283810e+004
1.114081e+003, 6.285518e+004
1.114563e+003, 6.287504e+004
1.115045e+003, 6.289881e+004
1.115528e+003, 6.291639e+004
1.116010e+003, 6.292559e+004
1.116492e+003, 6.293969e+004
1.116974e+003, 6.297832e+004
1.117456e+003, 6.301661e+004
1.117938e+003, 6.300716e+004
1.118420e+003, 6.296786e+004
1.118902e+003, 6.293639e+004
1.119385e+003, 6.291721e+004
1.119867e+003, 6.292395e+004
1.120349e+003, 6.297348e+004
1.120831e+003, 6.301747e+004
1.121313e+003, 6.299559e+004
1.121795e+003, 6.293571e+004
1.122277e+003, 6.292268e+004
1.122759e+003, 6.295191e+004
1.123241e+003, 6.298099e+004
1.123724e+003, 6.298213e+004
1.124206e+003, 6.298934e+004
1.124688e+003, 6.301030e+004
1.125170e+003, 6.304243e+004
1.125652e+003, 6.308910e+004
1.126134e+003, 6.314559e+004
1.126616e+003, 6.317777e+004
1.127098e+003, 6.318105e+004
1.127580e+003, 6.317594e+004
1.128063e+003, 6.317105e+004
1.128545e+003, 6.316768e+004
1.129027e+003, 6.316512e+004
1.129509e+003, 6.316568e+004
1.129991e+003, 6.318094e+004
1.130473e+003, 6.321204e+004
1.130955e+003, 6.323180e+004
1.131437e+003, 6.323049e+004
1.131920e+003, 6.322951e+004
1.132402e+003, 6.325223e+004
1.132884e+003, 6.328352e+004
1.133366e+003, 6.330624e+004
1.133848e+003, 6.331773e+004
1.134330e+003, 6.334828e+004
1.134812e+003, 6.340306e+004
1.135294e+003, 6.344571e+004
1.135776e+003, 6.345426e+004
1.136259e+003, 6.345065e+004
1.136741e+003, 6.345314e+004
1.137223e+003, 6.346692e+004
1.137705e+003, 6.350269e+004
1.138187e+003, 6.357869e+004
1.138669e+003, 6.363732e+004
1.139151e+003, 6.367526e+004
1.139633e+003, 6.370166e+004
1.140115e+003, 6.371861e+004
1.140598e+003, 6.373039e+004
1.141080e+003, 6.374678e+004
1.141562e+003, 6.376601e+004
1.142044e+003, 6.378351e+004
1.142526e+003, 6.381046e+004
1.143008e+003, 6.381505e+004
1.143490e+003, 6.378468e+004
1.143972e+003, 6.374965e+004
1.144455e+003, 6.374100e+004
1.144937e+003, 6.375311e+004
1.145419e+003, 6.376876e+004
1.145901e+003, 6.378679e+004
1.146383e+003, 6.380464e+004
1.146865e+003, 6.382342e+004
1.147347e+003, 6.383836e+004
1.147829e+003, 6.384477e+004
1.148312e+003, 6.385052e+004
1.148794e+003, 6.387105e+004
1.149276e+003, 6.390338e+004
1.149758e+003, 6.392449e+004
1.150240e+003, 6.393141e+004
1.150722e+003, 6.393809e+004
1.151204e+003, 6.394128e+004
1.151686e+003, 6.395943e+004
1.152168e+003, 6.401124e+004
1.152651e+003, 6.408257e+004
1.153133e+003, 6.413520e+004
1.153615e+003, 6.416924e+004
1.154097e+003, 6.419361e+004
1.154579e+003, 6.420796e+004
1.155061e+003, 6.422184e+004
1.155543e+003, 6.425324e+004
1.156025e+003, 6.427914e+004
1.156507e+003, 6.426964e+004
1.156990e+003, 6.423076e+004
1.157472e+003, 6.422251e+004
1.157954e+003, 6.424634e+004
1.158436e+003, 6.428588e+004
1.158918e+003, 6.433996e+004
1.159400e+003, 6.439824e+004
1.159882e+003, 6.446682e+004
1.160364e+003, 6.452463e+004
1.160847e+003, 6.453780e+004
1.161329e+003, 6.449308e+004
1.161811e+003, 6.448451e+004
1.162293e+003, 6.451645e+004
1.162775e+003, 6.455737e+004
1.163257e+003, 6.459729e+004
1.163739e+003, 6.462948e+004
1.164221e+003, 6.464152e+004
1.164703e+003, 6.464115e+004
1.165186e+003, 6.464102e+004
1.165668e+003, 6.463976e+004
1.166150e+003, 6.464523e+004
1.166632e+003, 6.465668e+004
1.167114e+003, 6.467588e+004
1.167596e+003, 6.470739e+004
1.168078e+003, 6.474588e+004
1.168560e+003, 6.479245e+004
1.169042e+003, 6.483870e+004
1.169525e+003, 6.486079e+004
1.170007e+003, 6.482809e+004
1.170489e+003, 6.481407e+004
1.170971e+003, 6.482843e+004
1.171453e+003, 6.484807e+004
1.171935e+003, 6.485282e+004
1.172417e+003, 6.484677e+004
1.172899e+003, 6.482718e+004
1.173382e+003, 6.480124e+004
1.173864e+003, 6.480209e+004
1.174346e+003, 6.487609e+004
1.174828e+003, 6.492543e+004
1.175310e+003, 6.492892e+004
1.175792e+003, 6.491824e+004
1.176274e+003, 6.493782e+004
1.176756e+003, 6.497364e+004
1.177239e+003, 6.498985e+004
1.177721e+003, 6.498475e+004
1.178203e+003, 6.498734e+004
1.178685e+003, 6.500955e+004
1.179167e+003, 6.504052e+004
1.179649e+003, 6.508115e+004
1.180131e+003, 6.512389e+004
1.180613e+003, 6.515777e+004
1.181095e+003, 6.518264e+004
1.181578e+003, 6.519493e+004
1.182060e+003, 6.519355e+004
1.182542e+003, 6.519844e+004
1.183024e+003, 6.522309e+004
1.183506e+003, 6.525192e+004
1.183988e+003, 6.528129e+004
1.184470e+003, 6.531032e+004
1.184952e+003, 6.533850e+004
1.185434e+003, 6.536435e+004
1.185917e+003, 6.538139e+004
1.186399e+003, 6.538704e+004
1.186881e+003, 6.539009e+004
1.187363e+003, 6.537159e+004
1.187845e+003, 6.537949e+004
1.188327e+003, 6.545001e+004
1.188809e+003, 6.555760e+004
1.189291e+003, 6.560305e+004
1.189774e+003, 6.559695e+004
1.190256e+003, 6.559014e+004
1.190738e+003, 6.559493e+004
1.191220e+003, 6.561061e+004
1.191702e+003, 6.563817e+004
1.192184e+003, 6.567595e+004
1.192666e+003, 6.572965e+004
1.193148e+003, 6.579304e+004
1.193630e+003, 6.581773e+004
1.194113e+003, 6.581041e+004
1.194595e+003, 6.581009e+004
1.195077e+003, 6.584091e+004
1.195559e+003, 6.586789e+004
1.196041e+003, 6.586985e+004
1.196523e+003, 6.586447e+004
1.197005e+003, 6.586695e+004
1.197487e+003, 6.587645e+004
1.197969e+003, 6.587202e+004
1.198452e+003, 6.585604e+004
1.198934e+003, 6.584468e+004
1.199416e+003, 6.585158e+004
1.199898e+003, 6.585886e+004
1.200380e+003, 6.585727e+004
1.200862e+003, 6.585266e+004
1.201344e+003, 6.584597e+004
1.201826e+003, 6.583720e+004
1.202309e+003, 6.586178e+004
1.202791e+003, 6.591734e+004
1.203273e+003, 6.597292e+004
1.203755e+003, 6.601010e+004
1.204237e+003, 6.604356e+004
1.204719e+003, 6.608959e+004
1.205201e+003, 6.612885e+004
1.205683e+003, 6.613320e+004
1.206166e+003, 6.610302e+004
1.206648e+003, 6.607373e+004
1.207130e+003, 6.604827e+004
1.207612e+003, 6.604973e+004
1.208094e+003, 6.612313e+004
1.208576e+003, 6.619442e+004
1.209058e+003, 6.622031e+004
1.209540e+003, 6.622063e+004
1.210022e+003, 6.622059e+004
1.210505e+003, 6.622014e+004
1.210987e+003, 6.621290e+004
1.211469e+003, 6.619878e+004
1.211951e+003, 6.618666e+004
1.212433e+003, 6.617262e+004
1.212915e+003, 6.617371e+004
1.213397e+003, 6.621473e+004
1.213879e+003, 6.627031e+004
1.214361e+003, 6.629586e+004
1.214844e+003, 6.629367e+004
1.215326e+003, 6.629395e+004
1.215808e+003, 6.630005e+004
1.216290e+003, 6.631106e+004
1.216772e+003, 6.632273e+004
1.217254e+003, 6.634303e+004
1.217736e+003, 6.638107e+004
1.218218e+003, 6.642730e+004
1.218701e+003, 6.646857e+004
1.219183e+003, 6.650282e+004
1.219665e+003, 6.650410e+004
1.220147e+003, 6.646571e+004
1.220629e+003, 6.644368e+004
1.221111e+003, 6.649513e+004
1.221593e+003, 6.655022e+004
1.222075e+003, 6.656970e+004
1.222557e+003, 6.656641e+004
1.223040e+003, 6.657654e+004
1.223522e+003, 6.659670e+004
1.224004e+003, 6.659370e+004
1.224486e+003, 6.655885e+004
1.224968e+003, 6.653530e+004
1.225450e+003, 6.656480e+004
1.225932e+003, 6.659756e+004
1.226414e+003, 6.660625e+004
1.226896e+003, 6.660083e+004
1.227379e+003, 6.661183e+004
1.227861e+003, 6.663633e+004
1.228343e+003, 6.665837e+004
1.228825e+003, 6.667534e+004
1.229307e+003, 6.668310e+004
1.229789e+003, 6.666413e+004
1.230271e+003, 6.665124e+004
1.230753e+003, 6.666251e+004
1.231236e+003, 6.668967e+004
1.231718e+003, 6.670523e+004
1.232200e+003, 6.671219e+004
1.232682e+003, 6.672541e+004
1.233164e+003, 6.675143e+004
1.233646e+003, 6.676905e+004
1.234128e+003, 6.675353e+004
1.234610e+003, 6.674455e+004
1.235093e+003, 6.676633e+004
1.235575e+003, 6.680517e+004
1.236057e+003, 6.681141e+004
1.236539e+003, 6.679602e+004
1.237021e+003, 6.679592e+004
1.237503e+003, 6.682749e+004
1.237985e+003, 6.685302e+004
1.238467e+003, 6.686011e+004
1.238949e+003, 6.685350e+004
1.239432e+003, 6.682323e+004
1.239914e+003, 6.678805e+004
1.240396e+003, 6.682305e+004
1.240878e+003, 6.689984e+004
1.241360e+003, 6.693433e+004
1.241842e+003, 6.688182e+004
1.242324e+003, 6.685345e+004
1.242806e+003, 6.688309e+004
1.243288e+003, 6.692611e+004
1.243771e+003, 6.696551e+004
1.244253e+003, 6.699977e+004
1.244735e+003, 6.702463e+004
1.245217e+003, 6.704233e+004
1.245699e+003, 6.705809e+004
1.246181e+003, 6.707313e+004
1.246663e+003, 6.708679e+004
1.247145e+003, 6.709523e+004
1.247628e+003, 6.711057e+004
1.248110e+003, 6.713759e+004
1.248592e+003, 6.717725e+004
1.249074e+003, 6.725453e+004
1.249556e+003, 6.733897e+004
1.250038e+003, 6.736891e+004
1.250520e+003, 6.729409e+004
1.251002e+003, 6.724916e+004
1.251484e+003, 6.724092e+004
1.251967e+003, 6.725889e+004
1.252449e+003, 6.731280e+004
1.252931e+003, 6.737180e+004
1.253413e+003, 6.737168e+004
1.253895e+003, 6.734586e+004
1.254377e+003, 6.735620e+004
1.254859e+003, 6.743658e+004
1.255341e+003, 6.748989e+004
1.255823e+003, 6.751252e+004
1.256306e+003, 6.752330e+004
1.256788e+003, 6.752963e+004
1.257270e+003, 6.753384e+004
1.257752e+003, 6.753617e+004
1.258234e+003, 6.753980e+004
1.258716e+003, 6.755158e+004
1.259198e+003, 6.757732e+004
1.259680e+003, 6.759436e+004
1.260163e+003, 6.760388e+004
1.260645e+003, 6.760195e+004
1.261127e+003, 6.757774e+004
1.261609e+003, 6.755330e+004
1.262091e+003, 6.754739e+004
1.262573e+003, 6.755477e+004
1.263055e+003, 6.756869e+004
1.263537e+003, 6.758966e+004
1.264020e+003, 6.760595e+004
1.264502e+003, 6.761715e+004
1.264984e+003, 6.762695e+004
1.265466e+003, 6.762324e+004
1.265948e+003, 6.763461e+004
1.266430e+003, 6.770896e+004
1.266912e+003, 6.778641e+004
1.267394e+003, 6.778989e+004
1.267876e+003, 6.771734e+004
1.268359e+003, 6.770977e+004
1.268841e+003, 6.776037e+004
1.269323e+003, 6.780827e+004
1.269805e+003, 6.782238e+004
1.270287e+003, 6.782484e+004
1.270769e+003, 6.782043e+004
1.271251e+003, 6.781353e+004
1.271733e+003, 6.780666e+004
1.272215e+003, 6.780061e+004
1.272698e+003, 6.780217e+004
1.273180e+003, 6.780892e+004
1.273662e+003, 6.780774e+004
1.274144e+003, 6.777801e+004
1.274626e+003, 6.776198e+004
1.275108e+003, 6.776774e+004
1.275590e+003, 6.778931e+004
1.276072e+003, 6.783116e+004
1.276555e+003, 6.788324e+004
1.277037e+003, 6.790955e+004
1.277519e+003, 6.791551e+004
1.278001e+003, 6.791809e+004
1.278483e+003, 6.790519e+004
1.278965e+003, 6.792054e+004
1.279447e+003, 6.797555e+004
1.279929e+003, 6.803280e+004
1.280411e+003, 6.806689e+004
1.280894e+003, 6.808105e+004
1.281376e+003, 6.806514e+004
1.281858e+003, 6.803742e+004
1.282340e+003, 6.804041e+004
1.282822e+003, 6.810745e+004
1.283304e+003, 6.815579e+004
1.283786e+003, 6.818331e+004
1.284268e+003, 6.820491e+004
1.284750e+003, 6.823069e+004
1.285233e+003, 6.825699e+004
1.285715e+003, 6.827933e+004
1.286197e+003, 6.829889e+004
1.286679e+003, 6.831666e+004
1.287161e+003, 6.832939e+004
1.287643e+003, 6.835457e+004
1.288125e+003, 6.839211e+004
1.288607e+003, 6.842973e+004
1.289090e+003, 6.846726e+004
1.289572e+003, 6.849121e+004
1.290054e+003, 6.847504e+004
1.290536e+003, 6.844942e+004
1.291018e+003, 6.845439e+004
1.291500e+003, 6.849114e+004
1.291982e+003, 6.852141e+004
1.292464e+003, 6.854416e+004
1.292947e+003, 6.855184e+004
1.293429e+003, 6.853428e+004
1.293911e+003, 6.851102e+004
1.294393e+003, 6.848940e+004
1.294875e+003, 6.847034e+004
1.295357e+003, 6.845205e+004
1.295839e+003, 6.843558e+004
1.296321e+003, 6.844034e+004
1.296803e+003, 6.846189e+004
1.297286e+003, 6.847752e+004
1.297768e+003, 6.846377e+004
1.298250e+003, 6.847105e+004
1.298732e+003, 6.851452e+004
1.299214e+003, 6.856604e+004
1.299696e+003, 6.859777e+004
1.300178e+003, 6.862152e+004
1.300660e+003, 6.868638e+004
##END=



