##NAMES=Hydrokenoralstonite
##RRUFFID=R060012
##IDEAL CHEMISTRY=[box]_2_Al_2_F_6_(H_2_O)
##LOCALITY=Ivigtut, Greenland
##OWNER=RRUFF
##SOURCE=University of Arizona Mineral Museum
##DESCRIPTION=Colorless octahedral ralstonite stained with iron oxide, associated with thomsenolite
##STATUS=The identification of this mineral is confirmed by single-crystal X-ray diffraction and chemical analysis.
##URL=rruff.info/R060012
##MEASURED CHEMISTRY=Na_0.70_Mg_0.70_Al_1.30_(F_4.18_(OH)_1.82_)_Σ=6_·H_2_O
154.6351, 2114.462
155.1172, 2114.490
155.5993, 2113.758
156.0814, 2111.755
156.5635, 2109.528
157.0456, 2107.096
157.5278, 2104.497
158.0099, 2102.300
158.4920, 2100.571
158.9741, 2099.321
159.4562, 2098.556
159.9383, 2098.448
160.4205, 2098.714
160.9026, 2099.431
161.3847, 2100.651
161.8668, 2101.757
162.3489, 2101.896
162.8310, 2102.014
163.3132, 2103.207
163.7953, 2107.924
164.2774, 2112.180
164.7595, 2113.398
165.2416, 2110.914
165.7237, 2108.667
166.2059, 2107.814
166.6880, 2108.484
167.1701, 2110.892
167.6522, 2117.664
168.1343, 2124.560
168.6164, 2128.122
169.0985, 2127.361
169.5807, 2126.164
170.0628, 2128.073
170.5449, 2131.438
171.0270, 2133.004
171.5091, 2128.326
171.9912, 2122.503
172.4734, 2120.945
172.9555, 2125.310
173.4376, 2130.915
173.9197, 2133.981
174.4018, 2135.135
174.8839, 2136.019
175.3661, 2137.397
175.8482, 2139.090
176.3303, 2140.868
176.8124, 2142.702
177.2945, 2144.578
177.7766, 2146.551
178.2588, 2148.584
178.7409, 2150.479
179.2230, 2152.068
179.7051, 2153.443
180.1872, 2154.672
180.6693, 2155.611
181.1515, 2156.707
181.6336, 2158.790
182.1157, 2161.732
182.5978, 2164.601
183.0799, 2166.786
183.5620, 2168.426
184.0442, 2169.839
184.5263, 2171.059
185.0084, 2172.136
185.4905, 2173.080
185.9726, 2173.899
186.4547, 2174.876
186.9369, 2176.504
187.4190, 2178.583
187.9011, 2180.073
188.3832, 2180.479
188.8653, 2180.507
189.3474, 2181.965
189.8296, 2184.934
190.3117, 2187.958
190.7938, 2189.892
191.2759, 2190.826
191.7580, 2191.229
192.2401, 2190.839
192.7223, 2190.202
193.2044, 2191.090
193.6865, 2193.638
194.1686, 2196.622
194.6507, 2198.876
195.1328, 2200.415
195.6150, 2202.105
196.0971, 2204.450
196.5792, 2206.966
197.0613, 2207.222
197.5434, 2204.695
198.0255, 2202.275
198.5077, 2202.884
198.9898, 2206.586
199.4719, 2211.375
199.9540, 2217.754
200.4361, 2224.896
200.9182, 2227.698
201.4004, 2225.164
201.8825, 2221.321
202.3646, 2220.248
202.8467, 2222.254
203.3288, 2224.737
203.8109, 2227.397
204.2931, 2230.123
204.7752, 2231.449
205.2573, 2230.734
205.7394, 2230.172
206.2215, 2232.592
206.7036, 2238.724
207.1858, 2243.878
207.6679, 2246.906
208.1500, 2247.889
208.6321, 2247.696
209.1142, 2245.578
209.5963, 2243.672
210.0785, 2244.733
210.5606, 2249.735
211.0427, 2254.031
211.5248, 2256.510
212.0069, 2257.212
212.4890, 2257.308
212.9712, 2256.340
213.4533, 2255.504
213.9354, 2256.288
214.4175, 2259.253
214.8996, 2262.157
215.3817, 2264.339
215.8639, 2265.771
216.3460, 2268.115
216.8281, 2271.746
217.3102, 2275.778
217.7923, 2279.138
218.2744, 2281.536
218.7565, 2284.065
219.2387, 2287.104
219.7208, 2290.702
220.2029, 2293.408
220.6850, 2295.048
221.1671, 2295.958
221.6492, 2296.200
222.1314, 2294.908
222.6135, 2295.006
223.0956, 2297.628
223.5777, 2302.964
224.0598, 2306.752
224.5419, 2307.763
225.0241, 2308.628
225.5062, 2312.686
225.9883, 2322.352
226.4704, 2329.981
226.9525, 2333.234
227.4346, 2331.928
227.9168, 2331.648
228.3989, 2332.297
228.8810, 2334.062
229.3631, 2337.352
229.8452, 2343.292
230.3273, 2348.617
230.8095, 2352.665
231.2916, 2355.415
231.7737, 2357.557
232.2558, 2358.601
232.7379, 2359.554
233.2200, 2361.468
233.7022, 2364.831
234.1843, 2368.218
234.6664, 2371.440
235.1485, 2374.476
235.6306, 2377.024
236.1127, 2378.774
236.5949, 2380.375
237.0770, 2382.529
237.5591, 2385.770
238.0412, 2388.470
238.5233, 2390.059
239.0054, 2390.550
239.4876, 2391.862
239.9697, 2394.406
240.4518, 2397.354
240.9339, 2399.970
241.4160, 2402.055
241.8981, 2404.173
242.3803, 2406.082
242.8624, 2407.841
243.3445, 2411.402
243.8266, 2418.429
244.3087, 2425.397
244.7908, 2429.130
245.2730, 2427.589
245.7551, 2426.866
246.2372, 2428.070
246.7193, 2431.008
247.2014, 2433.245
247.6835, 2434.194
248.1657, 2435.060
248.6478, 2436.833
249.1299, 2440.161
249.6120, 2442.981
250.0941, 2445.077
250.5762, 2446.472
251.0584, 2447.239
251.5405, 2447.048
252.0226, 2446.718
252.5047, 2446.915
252.9868, 2448.130
253.4689, 2448.772
253.9511, 2448.283
254.4332, 2447.067
254.9153, 2447.468
255.3974, 2450.499
255.8795, 2453.679
256.3616, 2455.283
256.8438, 2454.461
257.3259, 2454.485
257.8080, 2456.187
258.2901, 2458.879
258.7722, 2459.661
259.2543, 2457.333
259.7365, 2455.061
260.2186, 2454.554
260.7007, 2456.165
261.1828, 2458.424
261.6649, 2461.512
262.1470, 2465.033
262.6292, 2468.059
263.1113, 2470.704
263.5934, 2472.450
264.0755, 2472.669
264.5576, 2470.559
265.0397, 2469.913
265.5219, 2471.597
266.0040, 2474.293
266.4861, 2474.776
266.9682, 2472.291
267.4503, 2469.555
267.9324, 2467.780
268.4146, 2467.045
268.8967, 2467.060
269.3788, 2468.112
269.8609, 2469.687
270.3430, 2471.022
270.8251, 2472.403
271.3073, 2472.604
271.7894, 2470.636
272.2715, 2466.176
272.7536, 2462.984
273.2357, 2461.354
273.7178, 2460.539
274.2000, 2459.333
274.6821, 2457.551
275.1642, 2456.075
275.6463, 2455.183
276.1284, 2454.860
276.6105, 2454.916
277.0927, 2455.383
277.5748, 2456.145
278.0569, 2457.308
278.5390, 2459.014
279.0211, 2460.032
279.5032, 2459.570
279.9854, 2457.935
280.4675, 2458.118
280.9496, 2460.684
281.4317, 2463.273
281.9138, 2462.885
282.3959, 2459.400
282.8781, 2456.648
283.3602, 2455.987
283.8423, 2456.773
284.3244, 2456.109
284.8065, 2453.818
285.2886, 2451.165
285.7708, 2448.763
286.2529, 2446.669
286.7350, 2446.358
287.2171, 2448.717
287.6992, 2452.622
288.1813, 2455.077
288.6635, 2456.048
289.1456, 2456.104
289.6277, 2454.799
290.1098, 2452.531
290.5919, 2452.357
291.0740, 2455.380
291.5562, 2459.746
292.0383, 2461.843
292.5204, 2461.759
293.0025, 2461.021
293.4846, 2460.265
293.9667, 2459.636
294.4489, 2459.656
294.9310, 2460.485
295.4131, 2461.827
295.8952, 2463.851
296.3773, 2466.333
296.8594, 2467.755
297.3416, 2466.282
297.8237, 2463.263
298.3058, 2461.812
298.7879, 2462.254
299.2700, 2463.722
299.7521, 2465.771
300.2343, 2468.125
300.7164, 2469.804
301.1985, 2469.037
301.6806, 2467.719
302.1627, 2469.327
302.6448, 2474.136
303.1270, 2479.243
303.6091, 2481.983
304.0912, 2483.039
304.5733, 2483.988
305.0554, 2485.591
305.5375, 2487.302
306.0197, 2488.220
306.5018, 2488.401
306.9839, 2488.986
307.4660, 2490.990
307.9481, 2493.885
308.4302, 2497.006
308.9124, 2501.337
309.3945, 2504.685
309.8766, 2504.086
310.3587, 2500.355
310.8408, 2497.779
311.3229, 2499.657
311.8051, 2503.676
312.2872, 2507.605
312.7693, 2511.414
313.2514, 2514.261
313.7335, 2514.605
314.2156, 2513.417
314.6978, 2513.538
315.1799, 2517.795
315.6620, 2522.916
316.1441, 2526.208
316.6262, 2526.324
317.1083, 2527.098
317.5905, 2531.237
318.0726, 2536.968
318.5547, 2541.274
319.0368, 2542.671
319.5189, 2542.662
320.0010, 2541.452
320.4832, 2538.633
320.9653, 2536.925
321.4474, 2537.895
321.9295, 2540.136
322.4116, 2542.002
322.8937, 2542.114
323.3759, 2542.844
323.8580, 2545.585
324.3401, 2550.531
324.8222, 2553.894
325.3043, 2554.513
325.7864, 2553.707
326.2686, 2552.490
326.7507, 2548.584
327.2328, 2546.895
327.7149, 2548.838
328.1970, 2554.072
328.6791, 2559.069
329.1613, 2564.777
329.6434, 2569.380
330.1255, 2571.888
330.6076, 2570.392
331.0897, 2569.500
331.5718, 2569.096
332.0540, 2569.346
332.5361, 2570.854
333.0182, 2574.878
333.5003, 2578.541
333.9824, 2580.586
334.4645, 2580.456
334.9467, 2580.498
335.4288, 2580.776
335.9109, 2581.205
336.3930, 2581.531
336.8751, 2581.418
337.3572, 2582.052
337.8394, 2584.113
338.3215, 2587.688
338.8036, 2590.089
339.2857, 2590.738
339.7678, 2591.218
340.2499, 2593.441
340.7320, 2597.661
341.2141, 2601.903
341.6963, 2605.719
342.1784, 2609.178
342.6605, 2612.697
343.1426, 2616.366
343.6247, 2619.452
344.1068, 2620.897
344.5890, 2620.767
345.0711, 2621.486
345.5532, 2623.759
346.0353, 2626.524
346.5174, 2626.956
346.9995, 2625.099
347.4817, 2623.966
347.9638, 2625.600
348.4459, 2629.483
348.9280, 2634.094
349.4101, 2639.563
349.8922, 2644.695
350.3744, 2647.618
350.8565, 2648.731
351.3386, 2649.615
351.8207, 2650.389
352.3028, 2651.615
352.7849, 2654.768
353.2671, 2659.929
353.7492, 2664.820
354.2313, 2667.613
354.7134, 2668.780
355.1955, 2669.027
355.6776, 2667.073
356.1598, 2665.784
356.6419, 2668.509
357.1240, 2674.649
357.6061, 2680.934
358.0882, 2686.673
358.5703, 2691.012
359.0525, 2692.482
359.5346, 2688.890
360.0167, 2686.219
360.4988, 2688.392
360.9809, 2694.029
361.4630, 2700.137
361.9452, 2706.976
362.4273, 2712.740
362.9094, 2715.807
363.3915, 2715.202
363.8736, 2715.517
364.3557, 2719.039
364.8379, 2723.974
365.3200, 2728.223
365.8021, 2730.937
366.2842, 2733.280
366.7663, 2735.536
367.2484, 2737.747
367.7306, 2739.776
368.2127, 2741.677
368.6948, 2743.426
369.1769, 2745.038
369.6590, 2745.954
370.1411, 2747.553
370.6233, 2750.673
371.1054, 2754.686
371.5875, 2757.134
372.0696, 2757.292
372.5517, 2756.731
373.0338, 2755.816
373.5160, 2753.762
373.9981, 2753.656
374.4802, 2756.013
374.9623, 2759.888
375.4444, 2763.786
375.9265, 2767.708
376.4087, 2771.802
376.8908, 2776.630
377.3729, 2782.106
377.8550, 2784.280
378.3371, 2782.116
378.8192, 2779.349
379.3014, 2779.771
379.7835, 2783.512
380.2656, 2787.841
380.7477, 2792.678
381.2298, 2797.350
381.7119, 2800.192
382.1941, 2801.150
382.6762, 2800.992
383.1583, 2798.778
383.6404, 2795.546
384.1225, 2795.979
384.6046, 2801.091
385.0868, 2807.777
385.5689, 2812.910
386.0510, 2816.492
386.5331, 2818.619
387.0152, 2818.061
387.4973, 2816.662
387.9795, 2817.348
388.4616, 2820.176
388.9437, 2823.242
389.4258, 2824.971
389.9079, 2826.094
390.3900, 2827.560
390.8722, 2829.312
391.3543, 2831.979
391.8364, 2837.455
392.3185, 2844.613
392.8006, 2849.452
393.2827, 2846.367
393.7649, 2842.593
394.2470, 2843.852
394.7291, 2853.245
395.2112, 2861.388
395.6933, 2862.700
396.1754, 2861.121
396.6576, 2862.573
397.1397, 2872.881
397.6218, 2882.195
398.1039, 2886.505
398.5860, 2885.097
399.0681, 2885.296
399.5503, 2888.523
400.0324, 2893.230
400.5145, 2898.259
400.9966, 2904.138
401.4787, 2909.754
401.9608, 2915.676
402.4430, 2921.387
402.9251, 2924.459
403.4072, 2922.597
403.8893, 2921.638
404.3714, 2924.703
404.8535, 2933.293
405.3357, 2939.495
405.8178, 2942.428
406.2999, 2944.015
406.7820, 2947.216
407.2641, 2952.431
407.7462, 2956.782
408.2284, 2958.878
408.7105, 2959.386
409.1926, 2962.462
409.6747, 2968.518
410.1568, 2974.199
410.6389, 2975.513
411.1211, 2973.467
411.6032, 2974.193
412.0853, 2979.552
412.5674, 2986.463
413.0495, 2990.203
413.5316, 2991.341
414.0138, 2992.624
414.4959, 2994.952
414.9780, 2998.628
415.4601, 3005.255
415.9422, 3015.243
416.4243, 3023.491
416.9065, 3023.385
417.3886, 3019.415
417.8707, 3018.284
418.3528, 3024.544
418.8349, 3032.197
419.3170, 3037.921
419.7992, 3041.952
420.2813, 3045.212
420.7634, 3047.995
421.2455, 3050.296
421.7276, 3051.925
422.2097, 3052.257
422.6919, 3053.383
423.1740, 3055.922
423.6561, 3059.544
424.1382, 3063.815
424.6203, 3071.192
425.1024, 3076.566
425.5846, 3077.525
426.0667, 3073.691
426.5488, 3072.653
427.0309, 3076.943
427.5130, 3081.792
427.9951, 3083.742
428.4773, 3080.997
428.9594, 3079.377
429.4415, 3079.841
429.9236, 3081.438
430.4057, 3081.320
430.8878, 3078.558
431.3700, 3077.081
431.8521, 3079.470
432.3342, 3085.747
432.8163, 3089.226
433.2984, 3089.539
433.7805, 3088.437
434.2627, 3086.789
434.7448, 3084.891
435.2269, 3086.056
435.7090, 3092.482
436.1911, 3101.064
436.6732, 3105.276
437.1554, 3105.536
437.6375, 3105.181
438.1196, 3106.813
438.6017, 3109.118
439.0838, 3109.292
439.5659, 3106.415
440.0480, 3104.611
440.5302, 3109.007
441.0123, 3116.592
441.4944, 3122.323
441.9765, 3122.633
442.4586, 3121.729
442.9407, 3121.962
443.4229, 3123.294
443.9050, 3124.905
444.3871, 3126.999
444.8692, 3128.936
445.3513, 3130.294
445.8334, 3130.896
446.3156, 3131.136
446.7977, 3129.910
447.2798, 3128.542
447.7619, 3129.407
448.2440, 3134.564
448.7261, 3139.894
449.2083, 3144.715
449.6904, 3149.077
450.1725, 3152.370
450.6546, 3154.639
451.1367, 3155.757
451.6188, 3155.102
452.1010, 3151.495
452.5831, 3150.363
453.0652, 3152.793
453.5473, 3157.368
454.0294, 3161.092
454.5115, 3163.935
454.9937, 3166.290
455.4758, 3167.780
455.9579, 3168.788
456.4400, 3172.038
456.9221, 3177.782
457.4042, 3183.454
457.8864, 3185.801
458.3685, 3185.980
458.8506, 3187.708
459.3327, 3192.634
459.8148, 3198.170
460.2969, 3200.942
460.7791, 3201.670
461.2612, 3202.671
461.7433, 3205.614
462.2254, 3209.189
462.7075, 3212.413
463.1896, 3215.276
463.6718, 3217.513
464.1539, 3217.674
464.6360, 3217.749
465.1181, 3219.722
465.6002, 3227.272
466.0823, 3233.403
466.5645, 3235.214
467.0466, 3233.903
467.5287, 3234.082
468.0108, 3237.548
468.4929, 3241.402
468.9750, 3244.492
469.4572, 3246.342
469.9393, 3249.093
470.4214, 3253.306
470.9035, 3257.818
471.3856, 3261.244
471.8677, 3263.107
472.3499, 3265.408
472.8320, 3268.858
473.3141, 3272.875
473.7962, 3275.196
474.2783, 3275.594
474.7604, 3276.128
475.2426, 3278.153
475.7247, 3281.478
476.2068, 3284.915
476.6889, 3288.545
477.1710, 3291.826
477.6531, 3294.297
478.1353, 3295.954
478.6174, 3296.631
479.0995, 3295.352
479.5816, 3294.083
480.0637, 3295.363
480.5458, 3298.622
481.0280, 3301.798
481.5101, 3303.793
481.9922, 3305.116
482.4743, 3305.916
482.9564, 3306.022
483.4385, 3306.547
483.9207, 3309.334
484.4028, 3312.181
484.8849, 3312.779
485.3670, 3308.453
485.8491, 3304.342
486.3312, 3301.355
486.8134, 3299.441
487.2955, 3298.039
487.7776, 3298.044
488.2597, 3297.685
488.7418, 3296.258
489.2239, 3293.658
489.7061, 3290.647
490.1882, 3286.857
490.6703, 3283.222
491.1524, 3281.079
491.6345, 3280.695
492.1166, 3279.235
492.5988, 3275.801
493.0809, 3271.131
493.5630, 3267.244
494.0451, 3264.042
494.5272, 3260.709
495.0093, 3256.184
495.4915, 3251.189
495.9736, 3247.593
496.4557, 3245.546
496.9378, 3243.660
497.4199, 3240.667
497.9020, 3237.097
498.3842, 3233.977
498.8663, 3232.779
499.3484, 3230.445
499.8305, 3223.096
500.3126, 3213.015
500.7947, 3205.979
501.2769, 3207.687
501.7590, 3209.804
502.2411, 3208.262
502.7232, 3202.256
503.2053, 3196.263
503.6874, 3190.563
504.1696, 3185.322
504.6517, 3180.788
505.1338, 3177.686
505.6159, 3173.849
506.0980, 3168.355
506.5801, 3162.375
507.0623, 3158.985
507.5444, 3159.006
508.0265, 3158.781
508.5086, 3156.878
508.9907, 3153.492
509.4728, 3150.312
509.9550, 3147.408
510.4371, 3144.328
510.9192, 3140.485
511.4013, 3136.135
511.8834, 3132.284
512.3655, 3129.101
512.8477, 3126.448
513.3298, 3124.753
513.8119, 3123.525
514.2940, 3121.536
514.7761, 3116.984
515.2582, 3112.478
515.7404, 3110.102
516.2225, 3109.680
516.7046, 3109.666
517.1867, 3110.865
517.6688, 3111.195
518.1509, 3108.757
518.6331, 3101.138
519.1152, 3095.952
519.5973, 3096.173
520.0794, 3098.763
520.5615, 3099.863
521.0436, 3098.281
521.5258, 3096.919
522.0079, 3096.238
522.4900, 3096.065
522.9721, 3095.803
523.4542, 3095.601
523.9363, 3094.838
524.4185, 3092.477
524.9006, 3088.555
525.3827, 3088.159
525.8648, 3092.084
526.3469, 3095.749
526.8290, 3092.926
527.3112, 3085.370
527.7933, 3079.766
528.2754, 3078.153
528.7575, 3078.351
529.2396, 3078.461
529.7217, 3078.318
530.2039, 3077.410
530.6860, 3074.303
531.1681, 3071.179
531.6502, 3069.654
532.1323, 3069.749
532.6144, 3070.061
533.0966, 3069.861
533.5787, 3069.707
534.0608, 3070.012
534.5429, 3071.299
535.0250, 3072.210
535.5071, 3073.154
535.9893, 3073.437
536.4714, 3071.725
536.9535, 3066.109
537.4356, 3062.347
537.9177, 3062.509
538.3998, 3065.736
538.8820, 3066.144
539.3641, 3063.041
539.8462, 3060.388
540.3283, 3061.828
540.8104, 3066.458
541.2925, 3067.395
541.7747, 3063.992
542.2568, 3059.280
542.7389, 3055.848
543.2210, 3053.633
543.7031, 3052.593
544.1852, 3053.156
544.6674, 3054.191
545.1495, 3055.327
545.6316, 3056.181
546.1137, 3055.781
546.5958, 3051.939
547.0779, 3048.239
547.5601, 3046.875
548.0422, 3048.024
548.5243, 3048.903
549.0064, 3049.233
549.4885, 3048.856
549.9706, 3047.503
550.4528, 3043.468
550.9349, 3041.672
551.4170, 3042.928
551.8991, 3045.674
552.3812, 3047.801
552.8633, 3049.344
553.3455, 3049.993
553.8276, 3049.498
554.3097, 3048.159
554.7918, 3046.775
555.2739, 3045.386
555.7560, 3044.293
556.2382, 3043.257
556.7203, 3042.770
557.2024, 3044.742
557.6845, 3049.373
558.1666, 3053.027
558.6487, 3051.417
559.1309, 3047.513
559.6130, 3045.175
560.0951, 3045.927
560.5772, 3047.227
561.0593, 3048.040
561.5414, 3048.539
562.0236, 3049.019
562.5057, 3049.801
562.9878, 3050.279
563.4699, 3049.455
563.9520, 3047.622
564.4341, 3048.529
564.9163, 3054.421
565.3984, 3059.844
565.8805, 3061.885
566.3626, 3059.860
566.8447, 3058.577
567.3268, 3058.140
567.8090, 3058.071
568.2911, 3058.203
568.7732, 3058.418
569.2553, 3057.280
569.7374, 3053.754
570.2195, 3050.304
570.7017, 3050.855
571.1838, 3054.427
571.6659, 3057.876
572.1480, 3060.317
572.6301, 3061.542
573.1122, 3060.756
573.5944, 3058.227
574.0765, 3056.224
574.5586, 3055.798
575.0407, 3056.171
575.5228, 3057.128
576.0049, 3059.305
576.4871, 3060.140
576.9692, 3057.852
577.4513, 3055.151
577.9334, 3054.697
578.4155, 3057.727
578.8976, 3060.218
579.3798, 3061.945
579.8619, 3062.722
580.3440, 3061.564
580.8261, 3058.305
581.3082, 3055.475
581.7903, 3053.756
582.2725, 3053.392
582.7546, 3055.755
583.2367, 3060.648
583.7188, 3065.594
584.2009, 3069.579
584.6830, 3072.113
585.1652, 3071.611
585.6473, 3067.184
586.1294, 3064.310
586.6115, 3067.997
587.0936, 3074.047
587.5757, 3077.996
588.0578, 3076.293
588.5399, 3075.181
589.0220, 3076.120
589.5042, 3078.343
589.9863, 3080.174
590.4684, 3082.146
590.9505, 3082.751
591.4326, 3081.188
591.9147, 3077.768
592.3969, 3074.886
592.8790, 3072.327
593.3611, 3071.330
593.8432, 3074.097
594.3253, 3079.567
594.8074, 3081.668
595.2896, 3079.967
595.7717, 3077.200
596.2538, 3075.868
596.7359, 3075.440
597.2180, 3074.799
597.7001, 3073.229
598.1823, 3072.449
598.6644, 3074.306
599.1465, 3077.634
599.6286, 3080.427
600.1107, 3081.790
600.5928, 3082.724
601.0750, 3083.419
601.5571, 3083.874
602.0392, 3084.207
602.5213, 3084.395
603.0034, 3084.415
603.4855, 3083.903
603.9677, 3082.665
604.4498, 3083.663
604.9319, 3087.538
605.4140, 3091.549
605.8961, 3092.962
606.3782, 3092.110
606.8604, 3090.968
607.3425, 3089.622
607.8246, 3088.621
608.3067, 3088.704
608.7888, 3089.626
609.2709, 3090.954
609.7531, 3093.708
610.2352, 3095.436
610.7173, 3093.421
611.1994, 3089.049
611.6815, 3086.061
612.1636, 3086.457
612.6458, 3087.709
613.1279, 3089.589
613.6100, 3092.120
614.0921, 3092.387
614.5742, 3088.758
615.0563, 3085.081
615.5385, 3083.514
616.0206, 3084.388
616.5027, 3085.594
616.9848, 3087.286
617.4669, 3088.888
617.9490, 3089.993
618.4312, 3090.497
618.9133, 3089.501
619.3954, 3086.267
619.8775, 3082.913
620.3596, 3081.982
620.8417, 3082.854
621.3239, 3084.158
621.8060, 3085.547
622.2881, 3086.960
622.7702, 3088.380
623.2523, 3089.777
623.7344, 3091.076
624.2166, 3091.786
624.6987, 3092.786
625.1808, 3094.267
625.6629, 3096.166
626.1450, 3099.152
626.6271, 3104.296
627.1093, 3108.751
627.5914, 3110.495
628.0735, 3109.402
628.5556, 3106.848
629.0377, 3102.496
629.5198, 3098.277
630.0020, 3096.562
630.4841, 3096.878
630.9662, 3097.874
631.4483, 3099.674
631.9304, 3101.190
632.4125, 3101.024
632.8947, 3099.891
633.3768, 3099.172
633.8589, 3100.795
634.3410, 3101.715
634.8231, 3099.650
635.3052, 3095.366
635.7874, 3093.398
636.2695, 3095.159
636.7516, 3098.288
637.2337, 3102.519
637.7158, 3107.971
638.1979, 3111.167
638.6801, 3111.622
639.1622, 3110.962
639.6443, 3109.780
640.1264, 3108.232
640.6085, 3108.203
641.0906, 3109.886
641.5728, 3112.482
642.0549, 3116.472
642.5370, 3120.535
643.0191, 3122.093
643.5012, 3119.398
643.9833, 3116.239
644.4655, 3115.227
644.9476, 3115.409
645.4297, 3115.092
645.9118, 3112.573
646.3939, 3110.995
646.8760, 3111.795
647.3582, 3114.322
647.8403, 3116.116
648.3224, 3117.193
648.8045, 3117.538
649.2866, 3116.786
649.7687, 3115.156
650.2509, 3115.301
650.7330, 3117.455
651.2151, 3118.805
651.6972, 3116.052
652.1793, 3111.084
652.6614, 3108.790
653.1436, 3109.614
653.6257, 3110.946
654.1078, 3110.641
654.5899, 3109.806
655.0720, 3109.633
655.5541, 3110.482
656.0363, 3111.855
656.5184, 3114.140
657.0005, 3116.652
657.4826, 3118.448
657.9647, 3118.512
658.4468, 3119.567
658.9290, 3122.440
659.4111, 3126.172
659.8932, 3128.288
660.3753, 3128.573
660.8574, 3128.872
661.3395, 3130.128
661.8217, 3131.630
662.3038, 3131.008
662.7859, 3128.634
663.2680, 3127.212
663.7501, 3129.071
664.2322, 3132.258
664.7144, 3135.509
665.1965, 3138.661
665.6786, 3140.157
666.1607, 3138.136
666.6428, 3135.170
667.1249, 3132.712
667.6071, 3130.696
668.0892, 3130.116
668.5713, 3131.912
669.0534, 3134.226
669.5355, 3135.544
670.0176, 3135.900
670.4998, 3135.000
670.9819, 3132.346
671.4640, 3129.697
671.9461, 3130.395
672.4282, 3133.458
672.9103, 3134.759
673.3925, 3131.510
673.8746, 3128.592
674.3567, 3132.847
674.8388, 3141.063
675.3209, 3146.351
675.8030, 3142.325
676.2852, 3138.325
676.7673, 3138.359
677.2494, 3141.823
677.7315, 3144.531
678.2136, 3147.079
678.6957, 3147.733
679.1779, 3145.302
679.6600, 3139.937
680.1421, 3136.188
680.6242, 3134.227
681.1063, 3132.654
681.5884, 3129.509
682.0706, 3125.978
682.5527, 3126.345
683.0348, 3130.938
683.5169, 3136.802
683.9990, 3144.560
684.4811, 3150.968
684.9633, 3151.563
685.4454, 3143.217
685.9275, 3136.526
686.4096, 3136.102
686.8917, 3138.692
687.3738, 3140.842
687.8560, 3142.770
688.3381, 3143.319
688.8202, 3141.225
689.3023, 3138.762
689.7844, 3140.061
690.2665, 3145.352
690.7487, 3150.910
691.2308, 3156.128
691.7129, 3160.418
692.1950, 3162.553
692.6771, 3162.875
693.1592, 3162.802
693.6414, 3162.747
694.1235, 3162.761
694.6056, 3163.397
695.0877, 3164.295
695.5698, 3163.967
696.0519, 3160.801
696.5341, 3157.515
697.0162, 3154.947
697.4983, 3153.155
697.9804, 3152.570
698.4625, 3153.556
698.9446, 3155.169
699.4268, 3157.082
699.9089, 3159.292
700.3910, 3160.781
700.8731, 3161.439
701.3552, 3162.874
701.8373, 3168.142
702.3195, 3174.646
702.8016, 3177.350
703.2837, 3175.120
703.7658, 3172.527
704.2479, 3172.453
704.7300, 3173.310
705.2122, 3173.500
705.6943, 3171.169
706.1764, 3170.832
706.6585, 3174.703
707.1406, 3179.334
707.6227, 3180.040
708.1049, 3175.183
708.5870, 3173.521
709.0691, 3177.296
709.5512, 3183.066
710.0333, 3184.254
710.5154, 3181.741
710.9976, 3180.280
711.4797, 3182.195
711.9618, 3184.969
712.4439, 3186.000
712.9260, 3185.836
713.4081, 3185.833
713.8903, 3186.716
714.3724, 3187.690
714.8545, 3188.677
715.3366, 3189.590
715.8187, 3189.958
716.3008, 3189.829
716.7830, 3189.054
717.2651, 3186.853
717.7472, 3183.776
718.2293, 3185.083
718.7114, 3191.072
719.1935, 3196.638
719.6757, 3198.033
720.1578, 3196.922
720.6399, 3196.376
721.1220, 3196.450
721.6041, 3196.423
722.0862, 3195.349
722.5684, 3194.272
723.0505, 3193.839
723.5326, 3194.048
724.0147, 3195.156
724.4968, 3197.735
724.9789, 3200.679
725.4611, 3203.701
725.9432, 3207.509
726.4253, 3208.189
726.9074, 3205.061
727.3895, 3200.916
727.8716, 3199.212
728.3538, 3199.200
728.8359, 3197.039
729.3180, 3191.326
729.8001, 3187.306
730.2822, 3191.374
730.7643, 3199.487
731.2465, 3206.303
731.7286, 3210.903
732.2107, 3213.118
732.6928, 3210.572
733.1749, 3206.320
733.6570, 3205.211
734.1392, 3209.250
734.6213, 3211.531
735.1034, 3210.141
735.5855, 3207.497
736.0676, 3209.345
736.5497, 3215.301
737.0319, 3219.768
737.5140, 3220.462
737.9961, 3219.290
738.4782, 3218.162
738.9603, 3217.196
739.4424, 3216.651
739.9246, 3216.333
740.4067, 3216.867
740.8888, 3219.743
741.3709, 3224.090
741.8530, 3225.742
742.3351, 3222.835
742.8173, 3219.907
743.2994, 3218.098
743.7815, 3217.292
744.2636, 3216.941
744.7457, 3217.046
745.2278, 3217.402
745.7100, 3217.746
746.1921, 3218.278
746.6742, 3219.708
747.1563, 3221.859
747.6384, 3223.560
748.1205, 3223.467
748.6027, 3223.215
749.0848, 3223.910
749.5669, 3225.642
750.0490, 3227.617
750.5311, 3230.893
751.0132, 3233.075
751.4954, 3232.602
751.9775, 3229.163
752.4596, 3227.577
752.9417, 3228.006
753.4238, 3229.437
753.9059, 3232.152
754.3881, 3235.142
754.8702, 3235.404
755.3523, 3232.692
755.8344, 3229.762
756.3165, 3227.658
756.7986, 3226.927
757.2808, 3228.585
757.7629, 3233.884
758.2450, 3237.516
758.7271, 3236.633
759.2092, 3235.492
759.6913, 3237.416
760.1735, 3243.700
760.6556, 3247.106
761.1377, 3246.717
761.6198, 3245.673
762.1019, 3247.955
762.5840, 3252.441
763.0662, 3255.519
763.5483, 3256.475
764.0304, 3256.442
764.5125, 3254.939
764.9946, 3253.578
765.4767, 3254.485
765.9589, 3260.783
766.4410, 3264.662
766.9231, 3262.751
767.4052, 3259.131
767.8873, 3258.041
768.3694, 3260.183
768.8516, 3262.563
769.3337, 3265.284
769.8158, 3267.242
770.2979, 3265.820
770.7800, 3262.091
771.2621, 3260.214
771.7443, 3262.109
772.2264, 3264.101
772.7085, 3261.867
773.1906, 3258.062
773.6727, 3256.653
774.1548, 3260.542
774.6370, 3264.840
775.1191, 3270.023
775.6012, 3274.641
776.0833, 3275.724
776.5654, 3271.999
777.0475, 3270.468
777.5297, 3273.119
778.0118, 3277.363
778.4939, 3277.902
778.9760, 3275.830
779.4581, 3275.330
779.9402, 3278.495
780.4224, 3282.812
780.9045, 3286.963
781.3866, 3290.620
781.8687, 3293.176
782.3508, 3293.708
782.8329, 3293.833
783.3151, 3293.481
783.7972, 3293.004
784.2793, 3293.477
784.7614, 3295.218
785.2435, 3296.181
785.7256, 3295.894
786.2077, 3294.474
786.6898, 3291.070
787.1719, 3286.540
787.6541, 3284.051
788.1362, 3286.913
788.6183, 3290.520
789.1004, 3292.928
789.5825, 3293.777
790.0646, 3292.005
790.5468, 3283.089
791.0289, 3276.800
791.5110, 3275.420
791.9931, 3277.864
792.4752, 3281.344
792.9573, 3286.037
793.4395, 3290.217
793.9216, 3293.443
794.4037, 3295.585
794.8858, 3295.480
795.3679, 3293.920
795.8500, 3293.534
796.3322, 3296.452
796.8143, 3299.989
797.2964, 3303.675
797.7785, 3306.908
798.2606, 3307.388
798.7427, 3302.388
799.2249, 3298.576
799.7070, 3297.654
800.1891, 3298.977
800.6712, 3300.726
801.1533, 3302.938
801.6354, 3304.544
802.1176, 3304.532
802.5997, 3304.284
803.0818, 3306.408
803.5639, 3310.104
804.0460, 3312.894
804.5281, 3313.195
805.0103, 3312.816
805.4924, 3311.949
805.9745, 3310.918
806.4566, 3311.043
806.9387, 3312.837
807.4208, 3314.499
807.9030, 3315.202
808.3851, 3315.586
808.8672, 3318.213
809.3493, 3322.747
809.8314, 3326.267
810.3135, 3326.035
810.7957, 3325.297
811.2778, 3328.918
811.7599, 3334.859
812.2420, 3337.406
812.7241, 3329.317
813.2062, 3323.383
813.6884, 3325.264
814.1705, 3332.188
814.6526, 3335.110
815.1347, 3332.943
815.6168, 3331.549
816.0989, 3333.296
816.5811, 3336.359
817.0632, 3336.119
817.5453, 3333.421
818.0274, 3331.675
818.5095, 3333.660
818.9916, 3336.091
819.4738, 3336.572
819.9559, 3335.823
820.4380, 3335.766
820.9201, 3337.476
821.4022, 3338.970
821.8843, 3339.502
822.3665, 3339.792
822.8486, 3342.396
823.3307, 3347.414
823.8128, 3350.588
824.2949, 3349.728
824.7770, 3347.434
825.2592, 3347.259
825.7413, 3348.694
826.2234, 3350.511
826.7055, 3352.235
827.1876, 3354.165
827.6697, 3356.856
828.1519, 3359.735
828.6340, 3361.735
829.1161, 3363.142
829.5982, 3362.573
830.0803, 3358.774
830.5624, 3354.278
831.0446, 3354.500
831.5267, 3358.685
832.0088, 3362.947
832.4909, 3366.231
832.9730, 3368.775
833.4551, 3370.226
833.9373, 3371.256
834.4194, 3372.926
834.9015, 3377.113
835.3836, 3379.866
835.8657, 3380.230
836.3478, 3379.325
836.8300, 3378.410
837.3121, 3377.292
837.7942, 3378.220
838.2763, 3382.116
838.7584, 3386.512
839.2405, 3388.082
839.7227, 3387.630
840.2048, 3386.558
840.6869, 3384.349
841.1690, 3383.573
841.6511, 3386.687
842.1332, 3391.292
842.6154, 3394.490
843.0975, 3395.588
843.5796, 3396.689
844.0617, 3398.220
844.5438, 3399.125
845.0259, 3397.452
845.5081, 3393.842
845.9902, 3391.547
846.4723, 3391.137
846.9544, 3391.602
847.4365, 3392.556
847.9186, 3393.695
848.4008, 3394.845
848.8829, 3396.519
849.3650, 3396.742
849.8471, 3394.190
850.3292, 3391.367
850.8113, 3390.048
851.2935, 3390.337
851.7756, 3391.830
852.2577, 3394.771
852.7398, 3397.156
853.2219, 3395.021
853.7040, 3391.996
854.1862, 3395.046
854.6683, 3405.181
855.1504, 3413.774
855.6325, 3415.669
856.1146, 3415.519
856.5967, 3416.058
857.0789, 3417.344
857.5610, 3418.893
858.0431, 3420.452
858.5252, 3422.807
859.0073, 3428.088
859.4894, 3434.522
859.9716, 3434.625
860.4537, 3428.964
860.9358, 3424.023
861.4179, 3423.493
861.9000, 3425.560
862.3821, 3430.711
862.8643, 3438.511
863.3464, 3441.891
863.8285, 3438.086
864.3106, 3433.836
864.7927, 3430.953
865.2748, 3429.641
865.7570, 3432.317
866.2391, 3438.654
866.7212, 3442.339
867.2033, 3436.724
867.6854, 3429.563
868.1675, 3429.946
868.6497, 3435.591
869.1318, 3440.001
869.6139, 3438.601
870.0960, 3438.636
870.5781, 3442.772
871.0602, 3449.072
871.5424, 3452.946
872.0245, 3454.272
872.5066, 3453.946
872.9887, 3451.782
873.4708, 3448.923
873.9529, 3446.544
874.4351, 3444.877
874.9172, 3444.465
875.3993, 3445.952
875.8814, 3448.067
876.3635, 3451.489
876.8456, 3454.815
877.3278, 3456.046
877.8099, 3454.409
878.2920, 3453.257
878.7741, 3453.058
879.2562, 3453.019
879.7383, 3451.293
880.2205, 3448.927
880.7026, 3449.463
881.1847, 3454.136
881.6668, 3458.133
882.1489, 3456.620
882.6310, 3453.938
883.1132, 3454.241
883.5953, 3459.456
884.0774, 3462.891
884.5595, 3463.948
885.0416, 3464.203
885.5237, 3464.685
886.0059, 3465.338
886.4880, 3465.934
886.9701, 3466.456
887.4522, 3467.006
887.9343, 3468.317
888.4164, 3469.231
888.8986, 3467.989
889.3807, 3464.597
889.8628, 3463.665
890.3449, 3467.914
890.8270, 3471.776
891.3091, 3473.160
891.7913, 3472.526
892.2734, 3471.835
892.7555, 3471.129
893.2376, 3470.853
893.7197, 3471.156
894.2018, 3472.060
894.6840, 3474.052
895.1661, 3476.660
895.6482, 3478.584
896.1303, 3477.742
896.6124, 3478.309
897.0945, 3481.989
897.5767, 3487.004
898.0588, 3489.279
898.5409, 3488.718
899.0230, 3488.317
899.5051, 3488.685
899.9872, 3489.727
900.4694, 3491.848
900.9515, 3494.440
901.4336, 3496.413
901.9157, 3496.837
902.3978, 3497.905
902.8799, 3501.876
903.3621, 3505.562
903.8442, 3505.709
904.3263, 3501.348
904.8084, 3499.112
905.2905, 3499.298
905.7726, 3501.353
906.2548, 3506.989
906.7369, 3513.233
907.2190, 3513.932
907.7011, 3508.307
908.1832, 3504.501
908.6653, 3508.311
909.1475, 3513.069
909.6296, 3515.034
910.1117, 3514.251
910.5938, 3513.915
911.0759, 3514.125
911.5580, 3514.353
912.0402, 3514.076
912.5223, 3513.768
913.0044, 3514.728
913.4865, 3516.585
913.9686, 3517.905
914.4507, 3516.599
914.9329, 3516.112
915.4150, 3518.934
915.8971, 3523.506
916.3792, 3525.796
916.8613, 3525.200
917.3434, 3524.547
917.8256, 3524.342
918.3077, 3524.472
918.7898, 3524.617
919.2719, 3524.955
919.7540, 3526.032
920.2361, 3528.410
920.7183, 3530.563
921.2004, 3531.738
921.6825, 3532.367
922.1646, 3532.982
922.6467, 3533.813
923.1288, 3533.820
923.6110, 3532.703
924.0931, 3531.839
924.5752, 3533.500
925.0573, 3536.192
925.5394, 3535.616
926.0215, 3531.593
926.5037, 3529.405
926.9858, 3534.362
927.4679, 3539.950
927.9500, 3541.976
928.4321, 3540.644
928.9142, 3539.313
929.3964, 3537.714
929.8785, 3537.046
930.3606, 3537.834
930.8427, 3539.854
931.3248, 3543.512
931.8069, 3548.063
932.2891, 3551.115
932.7712, 3550.374
933.2533, 3549.215
933.7354, 3548.485
934.2175, 3548.426
934.6996, 3549.521
935.1818, 3552.262
935.6639, 3554.780
936.1460, 3557.117
936.6281, 3558.606
937.1102, 3557.552
937.5923, 3555.193
938.0745, 3554.432
938.5566, 3556.233
939.0387, 3557.583
939.5208, 3555.899
940.0029, 3554.035
940.4850, 3554.206
940.9672, 3556.683
941.4493, 3558.526
941.9314, 3559.506
942.4135, 3560.520
942.8956, 3561.754
943.3777, 3563.542
943.8599, 3567.948
944.3420, 3574.028
944.8241, 3577.241
945.3062, 3572.453
945.7883, 3567.469
946.2704, 3565.459
946.7526, 3565.760
947.2347, 3566.556
947.7168, 3567.785
948.1989, 3570.893
948.6810, 3577.264
949.1631, 3583.506
949.6453, 3583.921
950.1274, 3580.795
950.6095, 3578.331
951.0916, 3577.923
951.5737, 3577.566
952.0558, 3575.339
952.5380, 3573.848
953.0201, 3575.636
953.5022, 3581.339
953.9843, 3584.669
954.4664, 3585.258
954.9485, 3585.693
955.4307, 3589.114
955.9128, 3593.073
956.3949, 3593.908
956.8770, 3591.781
957.3591, 3590.457
957.8412, 3593.190
958.3234, 3594.668
958.8055, 3592.670
959.2876, 3588.424
959.7697, 3586.502
960.2518, 3586.876
960.7339, 3587.700
961.2161, 3588.150
961.6982, 3589.015
962.1803, 3591.622
962.6624, 3595.028
963.1445, 3597.796
963.6266, 3598.122
964.1088, 3599.907
964.5909, 3603.813
965.0730, 3608.494
965.5551, 3613.332
966.0372, 3617.990
966.5193, 3618.761
967.0015, 3615.324
967.4836, 3612.136
967.9657, 3613.579
968.4478, 3616.109
968.9299, 3615.975
969.4120, 3618.629
969.8942, 3614.176
970.3763, 3622.301
970.8584, 3628.699
971.3405, 3629.991
971.8226, 3627.735
972.3047, 3625.113
972.7869, 3622.539
973.2690, 3621.730
973.7511, 3624.856
974.2332, 3627.813
974.7153, 3626.995
975.1974, 3625.258
975.6796, 3627.052
976.1617, 3634.903
976.6438, 3638.909
977.1259, 3637.786
977.6080, 3635.560
978.0901, 3636.895
978.5723, 3639.982
979.0544, 3640.515
979.5365, 3638.149
980.0186, 3637.241
980.5007, 3640.625
980.9828, 3645.331
981.4650, 3650.433
981.9471, 3655.640
982.4291, 3659.460
982.9113, 3661.884
983.3934, 3662.767
983.8755, 3661.408
984.3576, 3659.454
984.8397, 3659.096
985.3218, 3659.758
985.8040, 3660.374
986.2861, 3660.798
986.7682, 3660.788
987.2503, 3659.454
987.7324, 3658.628
988.2145, 3661.030
988.6967, 3666.397
989.1788, 3668.549
989.6609, 3667.024
990.1430, 3665.251
990.6251, 3665.979
991.1072, 3667.682
991.5894, 3669.249
992.0715, 3670.588
992.5536, 3671.704
993.0357, 3672.323
993.5178, 3673.428
993.9999, 3675.637
994.4821, 3678.197
994.9642, 3678.811
995.4463, 3678.101
995.9284, 3678.226
996.4105, 3679.760
996.8926, 3682.521
997.3748, 3688.547
997.8569, 3694.411
998.3390, 3696.159
998.8211, 3692.171
999.3032, 3689.618
999.7853, 3688.767
1000.267, 3688.565
1000.750, 3688.486
1001.232, 3688.380
1001.714, 3687.266
1002.196, 3685.540
1002.678, 3686.073
1003.160, 3693.458
1003.642, 3699.258
1004.124, 3700.556
1004.607, 3698.771
1005.089, 3696.948
1005.571, 3695.171
1006.053, 3696.228
1006.535, 3701.827
1007.017, 3707.524
1007.499, 3708.185
1007.981, 3706.989
1008.463, 3707.921
1008.946, 3713.384
1009.428, 3716.156
1009.910, 3715.363
1010.392, 3713.519
1010.874, 3711.328
1011.356, 3709.593
1011.838, 3713.149
1012.320, 3720.777
1012.802, 3725.451
1013.285, 3720.534
1013.767, 3714.713
1014.249, 3711.499
1014.731, 3710.697
1015.213, 3712.165
1015.695, 3716.335
1016.177, 3720.685
1016.659, 3725.104
1017.142, 3728.317
1017.624, 3727.509
1018.106, 3725.000
1018.588, 3724.215
1019.070, 3726.014
1019.552, 3727.127
1020.034, 3724.309
1020.516, 3724.090
1020.998, 3730.994
1021.481, 3742.957
1021.963, 3748.187
1022.445, 3747.496
1022.927, 3746.409
1023.409, 3747.857
1023.891, 3749.550
1024.373, 3749.075
1024.855, 3748.113
1025.338, 3750.115
1025.820, 3757.847
1026.302, 3760.264
1026.784, 3755.401
1027.266, 3749.649
1027.748, 3750.300
1028.230, 3754.572
1028.712, 3757.392
1029.194, 3758.393
1029.677, 3759.333
1030.159, 3762.063
1030.641, 3763.418
1031.123, 3761.309
1031.605, 3757.368
1032.087, 3758.217
1032.569, 3763.472
1033.051, 3765.860
1033.534, 3761.842
1034.016, 3757.420
1034.498, 3758.474
1034.980, 3762.004
1035.462, 3764.254
1035.944, 3763.414
1036.426, 3765.552
1036.908, 3771.859
1037.391, 3777.911
1037.873, 3780.205
1038.355, 3779.998
1038.837, 3780.284
1039.319, 3780.930
1039.801, 3781.166
1040.283, 3779.673
1040.765, 3778.852
1041.247, 3779.469
1041.729, 3781.147
1042.212, 3783.893
1042.694, 3787.704
1043.176, 3789.125
1043.658, 3787.291
1044.140, 3785.807
1044.622, 3789.041
1045.104, 3793.461
1045.586, 3795.228
1046.069, 3793.729
1046.551, 3794.169
1047.033, 3797.567
1047.515, 3800.888
1047.997, 3803.221
1048.479, 3804.506
1048.961, 3803.833
1049.443, 3802.048
1049.926, 3801.302
1050.408, 3802.751
1050.890, 3804.661
1051.372, 3807.044
1051.854, 3809.187
1052.336, 3810.891
1052.818, 3812.285
1053.300, 3809.798
1053.782, 3803.375
1054.265, 3799.252
1054.747, 3803.702
1055.229, 3810.796
1055.711, 3816.940
1056.193, 3821.573
1056.675, 3823.094
1057.157, 3819.882
1057.639, 3817.651
1058.121, 3817.127
1058.604, 3818.179
1059.086, 3822.179
1059.568, 3827.150
1060.050, 3828.708
1060.532, 3825.839
1061.014, 3823.526
1061.496, 3824.924
1061.978, 3825.978
1062.461, 3824.539
1062.943, 3821.462
1063.425, 3820.292
1063.907, 3821.112
1064.389, 3824.660
1064.871, 3833.423
1065.353, 3841.130
1065.835, 3842.631
1066.318, 3840.483
1066.800, 3837.716
1067.282, 3833.807
1067.764, 3831.719
1068.246, 3831.421
1068.728, 3833.019
1069.210, 3839.022
1069.692, 3845.561
1070.174, 3844.252
1070.656, 3837.479
1071.139, 3835.011
1071.621, 3844.466
1072.103, 3852.569
1072.585, 3857.185
1073.067, 3859.486
1073.549, 3851.016
1074.031, 3864.551
1074.513, 3872.552
1074.996, 3875.321
1075.478, 3857.174
1075.960, 3866.033
1076.442, 3864.069
1076.924, 3861.661
1077.406, 3874.322
1077.888, 3859.216
1078.370, 3871.637
1078.853, 3873.073
1079.335, 3879.534
1079.817, 3875.107
1080.299, 3874.042
1080.781, 3883.872
1081.263, 3887.669
1081.745, 3881.988
1082.227, 3888.770
1082.709, 3873.283
1083.192, 3877.340
1083.674, 3889.825
1084.156, 3884.691
1084.638, 3891.672
1085.120, 3894.039
1085.602, 3875.437
1086.084, 3893.302
1086.566, 3895.396
1087.048, 3881.298
1087.531, 3897.915
1088.013, 3886.049
1088.495, 3884.349
1088.977, 3890.300
1089.459, 3888.274
1089.941, 3898.824
1090.423, 3897.260
1090.905, 3894.613
1091.387, 3896.690
1091.870, 3885.384
1092.352, 3898.907
1092.834, 3895.468
1093.316, 3900.461
1093.798, 3907.365
1094.280, 3899.636
1094.762, 3907.398
1095.244, 3891.137
1095.727, 3894.979
1096.209, 3896.655
1096.691, 3898.592
1097.173, 3900.508
1097.655, 3902.570
1098.137, 3901.435
1098.619, 3899.120
1099.101, 3901.355
1099.583, 3906.274
1100.066, 3908.972
1100.548, 3905.523
1101.030, 3903.807
1101.512, 3907.555
1101.994, 3912.050
1102.476, 3913.407
1102.958, 3911.919
1103.440, 3912.446
1103.922, 3914.784
1104.405, 3916.468
1104.887, 3914.359
1105.369, 3912.925
1105.851, 3915.986
1106.333, 3920.949
1106.815, 3921.928
1107.297, 3917.625
1107.779, 3920.003
1108.262, 3931.112
1108.744, 3941.195
1109.226, 3939.976
1109.708, 3934.294
1110.190, 3929.694
1110.672, 3926.868
1111.154, 3927.219
1111.636, 3931.644
1112.119, 3936.665
1112.601, 3941.997
1113.083, 3946.442
1113.565, 3948.444
1114.047, 3948.296
1114.529, 3945.724
1115.011, 3939.915
1115.493, 3937.222
1115.975, 3941.614
1116.458, 3945.355
1116.940, 3944.558
1117.422, 3941.204
1117.904, 3941.833
1118.386, 3945.539
1118.868, 3949.365
1119.350, 3953.033
1119.832, 3955.028
1120.314, 3951.994
1120.797, 3949.319
1121.279, 3951.761
1121.761, 3959.214
1122.243, 3963.457
1122.725, 3964.630
1123.207, 3965.272
1123.689, 3966.227
1124.171, 3967.812
1124.654, 3971.411
1125.136, 3975.281
1125.618, 3976.083
1126.100, 3972.800
1126.582, 3971.577
1127.064, 3972.817
1127.546, 3975.781
1128.028, 3982.136
1128.510, 3988.148
1128.993, 3989.263
1129.475, 3986.232
1129.957, 3983.936
1130.439, 3982.341
1130.921, 3983.094
1131.403, 3987.335
1131.885, 3991.442
1132.367, 3989.216
1132.849, 3984.456
1133.332, 3983.238
1133.814, 3986.347
1134.296, 3989.672
1134.778, 3992.641
1135.260, 3995.157
1135.742, 3997.200
1136.224, 3998.714
1136.706, 3999.258
1137.189, 3999.240
1137.671, 3999.845
1138.153, 4001.579
1138.635, 4002.988
1139.117, 4003.200
1139.599, 4003.240
1140.081, 4003.324
1140.563, 4003.688
1141.046, 4005.853
1141.528, 4009.459
1142.010, 4012.798
1142.492, 4015.442
1142.974, 4017.128
1143.456, 4016.871
1143.938, 4016.181
1144.420, 4016.304
1144.902, 4017.234
1145.385, 4019.249
1145.867, 4022.236
1146.349, 4024.333
1146.831, 4022.509
1147.313, 4021.270
1147.795, 4024.845
1148.277, 4030.612
1148.759, 4034.272
1149.241, 4035.575
1149.724, 4035.228
1150.206, 4033.088
1150.688, 4031.520
1151.170, 4033.324
1151.652, 4035.965
1152.134, 4037.908
1152.616, 4038.713
1153.098, 4036.560
1153.581, 4029.299
1154.063, 4027.085
1154.545, 4032.156
1155.027, 4038.519
1155.509, 4038.941
1155.991, 4036.977
1156.473, 4037.061
1156.955, 4039.427
1157.438, 4041.650
1157.920, 4044.323
1158.402, 4044.417
1158.884, 4040.122
1159.366, 4035.626
1159.848, 4038.659
1160.330, 4045.306
1160.812, 4048.504
1161.294, 4046.715
1161.776, 4046.385
1162.259, 4049.794
1162.741, 4052.650
1163.223, 4052.564
1163.705, 4052.027
1164.187, 4057.934
1164.669, 4067.567
1165.151, 4074.712
1165.633, 4077.415
1166.116, 4078.617
1166.598, 4078.715
1167.080, 4077.960
1167.562, 4076.237
1168.044, 4073.851
1168.526, 4071.697
1169.008, 4069.869
1169.490, 4068.608
1169.973, 4068.352
1170.455, 4068.173
1170.937, 4067.692
1171.419, 4067.429
1171.901, 4067.894
1172.383, 4068.986
1172.865, 4069.290
1173.347, 4069.083
1173.829, 4069.893
1174.312, 4074.792
1174.794, 4078.038
1175.276, 4074.144
1175.758, 4069.807
1176.240, 4072.450
1176.722, 4081.750
1177.204, 4087.315
1177.686, 4089.065
1178.168, 4089.511
1178.651, 4088.805
1179.133, 4088.711
1179.615, 4090.486
1180.097, 4093.294
1180.579, 4096.586
1181.061, 4100.359
1181.543, 4100.560
1182.025, 4096.900
1182.508, 4093.506
1182.990, 4093.274
1183.472, 4094.383
1183.954, 4097.163
1184.436, 4099.976
1184.918, 4098.433
1185.400, 4092.162
1185.882, 4089.976
1186.365, 4093.326
1186.847, 4097.123
1187.329, 4097.534
1187.811, 4096.493
1188.293, 4094.409
1188.775, 4092.236
1189.257, 4094.077
1189.739, 4100.530
1190.221, 4102.296
1190.703, 4096.631
1191.186, 4091.538
1191.668, 4095.978
1192.150, 4103.297
1192.632, 4107.729
1193.114, 4109.274
1193.596, 4111.492
1194.078, 4114.567
1194.560, 4115.672
1195.043, 4113.447
1195.525, 4110.929
1196.007, 4111.504
1196.489, 4113.109
1196.971, 4113.154
1197.453, 4111.515
1197.935, 4113.727
1198.417, 4120.631
1198.900, 4123.977
1199.382, 4119.439
1199.864, 4113.848
1200.346, 4114.866
1200.828, 4118.645
1201.310, 4120.810
1201.792, 4120.877
1202.274, 4120.853
1202.756, 4120.722
1203.239, 4120.768
1203.721, 4120.926
1204.203, 4121.602
1204.685, 4123.390
1205.167, 4125.844
1205.649, 4128.484
1206.131, 4131.422
1206.613, 4133.053
1207.095, 4133.114
1207.578, 4133.932
1208.060, 4137.916
1208.542, 4141.753
1209.024, 4140.911
1209.506, 4137.860
1209.988, 4136.695
1210.470, 4138.619
1210.952, 4138.440
1211.435, 4135.808
1211.917, 4134.460
1212.399, 4138.044
1212.881, 4142.930
1213.363, 4144.583
1213.845, 4145.106
1214.327, 4148.674
1214.809, 4156.793
1215.292, 4163.379
1215.774, 4168.299
1216.256, 4171.510
1216.738, 4170.983
1217.220, 4170.286
1217.702, 4174.199
1218.184, 4180.099
1218.666, 4182.167
1219.148, 4178.805
1219.630, 4177.411
1220.113, 4178.518
1220.595, 4179.487
1221.077, 4178.006
1221.559, 4175.805
1222.041, 4173.870
1222.523, 4172.682
1223.005, 4173.274
1223.487, 4176.304
1223.970, 4178.388
1224.452, 4179.349
1224.934, 4179.175
1225.416, 4176.385
1225.898, 4173.799
1226.380, 4173.610
1226.862, 4175.658
1227.344, 4179.245
1227.827, 4184.859
1228.309, 4188.495
1228.791, 4189.768
1229.273, 4189.533
1229.755, 4187.220
1230.237, 4184.868
1230.719, 4184.043
1231.201, 4184.532
1231.683, 4185.278
1232.166, 4186.182
1232.648, 4189.038
1233.130, 4194.189
1233.612, 4198.708
1234.094, 4199.771
1234.576, 4199.717
1235.058, 4200.399
1235.540, 4201.178
1236.022, 4200.331
1236.505, 4197.839
1236.987, 4194.350
1237.469, 4189.856
1237.951, 4186.593
1238.433, 4187.063
1238.915, 4188.734
1239.397, 4190.103
1239.879, 4191.529
1240.362, 4194.390
1240.844, 4198.514
1241.326, 4200.563
1241.808, 4199.839
1242.290, 4200.224
1242.772, 4205.639
1243.254, 4211.477
1243.736, 4215.326
1244.219, 4217.710
1244.701, 4219.535
1245.183, 4220.946
1245.665, 4224.112
1246.147, 4229.473
1246.629, 4233.239
1247.111, 4232.210
1247.593, 4230.077
1248.075, 4227.765
1248.557, 4226.188
1249.040, 4228.213
1249.522, 4232.925
1250.004, 4236.421
1250.486, 4238.073
1250.968, 4239.249
1251.450, 4241.139
1251.932, 4241.850
1252.414, 4239.833
1252.897, 4237.502
1253.379, 4241.854
1253.861, 4249.767
1254.343, 4252.377
1254.825, 4247.839
1255.307, 4244.097
1255.789, 4243.488
1256.271, 4244.446
1256.754, 4247.175
1257.236, 4250.138
1257.718, 4249.400
1258.200, 4247.143
1258.682, 4247.850
1259.164, 4252.431
1259.646, 4256.638
1260.128, 4260.136
1260.610, 4262.352
1261.093, 4262.808
1261.575, 4262.561
1262.057, 4263.574
1262.539, 4264.787
1263.021, 4263.888
1263.503, 4260.363
1263.985, 4261.128
1264.467, 4268.569
1264.949, 4272.477
1265.432, 4268.885
1265.914, 4263.572
1266.396, 4264.165
1266.878, 4267.057
1267.360, 4268.090
1267.842, 4266.786
1268.324, 4265.628
1268.806, 4264.326
1269.289, 4265.330
1269.771, 4269.602
1270.253, 4275.291
1270.735, 4283.242
1271.217, 4289.750
1271.699, 4290.062
1272.181, 4285.307
1272.663, 4281.002
1273.146, 4277.236
1273.628, 4277.517
1274.110, 4283.927
1274.592, 4289.292
1275.074, 4285.777
1275.556, 4281.917
1276.038, 4284.342
1276.520, 4290.865
1277.002, 4292.493
1277.484, 4290.089
1277.967, 4288.819
1278.449, 4290.091
1278.931, 4291.648
1279.413, 4290.865
1279.895, 4291.918
1280.377, 4297.433
1280.859, 4305.152
1281.341, 4309.512
1281.823, 4311.239
1282.306, 4312.305
1282.788, 4312.894
1283.270, 4314.314
1283.752, 4317.721
1284.234, 4320.854
1284.716, 4323.278
1285.198, 4324.522
1285.680, 4322.433
1286.163, 4319.054
1286.645, 4318.278
1287.127, 4320.948
1287.609, 4323.168
1288.091, 4324.693
1288.573, 4324.988
1289.055, 4323.247
1289.537, 4321.977
1290.020, 4326.589
1290.502, 4332.333
1290.984, 4332.906
1291.466, 4327.716
1291.948, 4324.723
1292.430, 4324.101
1292.912, 4324.792
1293.394, 4326.715
1293.876, 4329.120
1294.359, 4332.725
1294.841, 4335.353
1295.323, 4333.862
1295.805, 4329.770
1296.287, 4329.077
1296.769, 4331.522
1297.251, 4332.271
1297.733, 4330.010
1298.215, 4328.925
1298.698, 4332.299
1299.180, 4337.235
1299.662, 4342.921
1300.144, 4348.396
1300.626, 4350.432
1301.108, 4350.343
1301.590, 4354.431
1302.072, 4363.982
1302.555, 4369.296
1303.037, 4360.692
1303.519, 4355.430
1304.001, 4358.772
1304.483, 4364.822
1304.965, 4366.388
1305.447, 4364.111
##END=



