##NAMES=Hydrotalcite
##RRUFFID=R050457
##IDEAL CHEMISTRY=Mg_6_Al_2_CO_3_(OH)_16_(H_2_O)_4_
##LOCALITY=Snarum, Norway
##OWNER=RRUFF
##SOURCE=University of Arizona Mineral Museum
##DESCRIPTION=Pearly-white foliated mass
##STATUS=The identification of this mineral has been confirmed by X-ray diffraction and chemical analysis
##URL=rruff.info/R050457
##MEASURED CHEMISTRY=Mg_6.00_(Al_1.60_Fe^3+^_0.40_)_Σ=2_(CO_3_)(OH)_16_·4H_2_O
91.00781, 7.882360
91.48993, 7.782381
91.97205, 7.742647
92.45416, 7.748583
92.93628, 7.814680
93.41840, 7.977396
93.90051, 8.250127
94.38263, 8.605833
94.86475, 9.018147
95.34686, 9.486797
95.82898, 9.987263
96.31110, 10.49372
96.79321, 11.00972
97.27533, 11.55255
97.75745, 12.10306
98.23956, 12.67894
98.72168, 13.31899
99.20380, 13.99877
99.68591, 14.79831
100.1680, 15.83332
100.6501, 17.12955
101.1323, 18.48979
101.6144, 19.82848
102.0965, 21.13056
102.5786, 22.57890
103.0607, 24.16439
103.5428, 25.91405
104.0250, 27.92066
104.5071, 30.21241
104.9892, 32.68513
105.4713, 35.27237
105.9534, 37.90492
106.4355, 40.80878
106.9177, 44.24869
107.3998, 47.97049
107.8819, 51.28321
108.3640, 53.70416
108.8461, 56.06490
109.3282, 58.78581
109.8104, 62.09002
110.2925, 65.43311
110.7746, 68.90250
111.2567, 72.43435
111.7388, 75.67207
112.2209, 78.18675
112.7031, 80.56789
113.1852, 83.25256
113.6673, 86.43108
114.1494, 89.79041
114.6315, 93.16505
115.1136, 96.56789
115.5958, 100.4102
116.0779, 105.0612
116.5600, 110.1518
117.0421, 115.2462
117.5242, 120.2931
118.0063, 125.2907
118.4885, 130.3388
118.9706, 135.4802
119.4527, 140.4687
119.9348, 145.0339
120.4169, 149.3350
120.8990, 153.7391
121.3812, 158.7499
121.8633, 163.7699
122.3454, 168.1863
122.8275, 171.9103
123.3096, 175.1008
123.7917, 177.6626
124.2739, 179.7271
124.7560, 181.7754
125.2381, 184.1611
125.7202, 186.7387
126.2023, 189.1758
126.6844, 191.2533
127.1666, 193.3798
127.6487, 196.1721
128.1308, 199.6198
128.6129, 203.3052
129.0950, 207.1211
129.5771, 210.9765
130.0593, 214.5390
130.5414, 217.5439
131.0235, 220.2277
131.5056, 222.9074
131.9877, 224.7457
132.4698, 225.7335
132.9520, 227.0600
133.4341, 228.7133
133.9162, 230.4658
134.3983, 232.2315
134.8804, 234.0180
135.3625, 235.9961
135.8447, 238.2733
136.3268, 240.5141
136.8089, 242.2173
137.2910, 243.3117
137.7731, 244.3823
138.2552, 245.8223
138.7374, 247.7557
139.2195, 248.9521
139.7016, 249.3087
140.1837, 249.0575
140.6658, 248.5269
141.1479, 247.4049
141.6301, 246.6761
142.1122, 246.9372
142.5943, 248.7776
143.0764, 249.9150
143.5585, 249.9344
144.0406, 249.2521
144.5228, 249.4184
145.0049, 251.0071
145.4870, 252.7147
145.9691, 253.8199
146.4512, 254.1034
146.9333, 254.1754
147.4155, 254.0001
147.8976, 253.6098
148.3797, 253.2937
148.8618, 252.8714
149.3439, 252.6483
149.8260, 252.8173
150.3082, 253.9425
150.7903, 254.8289
151.2724, 255.3457
151.7545, 255.4810
152.2366, 255.5176
152.7188, 255.4588
153.2009, 255.3012
153.6830, 255.0416
154.1651, 254.5218
154.6472, 254.0431
155.1293, 253.7647
155.6115, 253.7426
156.0936, 253.4503
156.5757, 252.7280
157.0578, 251.7215
157.5399, 250.5993
158.0220, 249.0769
158.5042, 247.7253
158.9863, 246.7534
159.4684, 246.1837
159.9505, 245.9444
160.4326, 246.3823
160.9147, 247.0862
161.3969, 247.4418
161.8790, 246.9959
162.3611, 246.3274
162.8432, 245.7261
163.3253, 245.2437
163.8074, 244.8040
164.2896, 244.3464
164.7717, 243.9014
165.2538, 243.5329
165.7359, 243.1807
166.2180, 242.9568
166.7001, 243.0442
167.1823, 243.7254
167.6644, 244.1405
168.1465, 243.3771
168.6286, 241.8383
169.1107, 240.6615
169.5928, 240.7067
170.0750, 241.3325
170.5571, 241.9414
171.0392, 242.5655
171.5213, 242.8646
172.0034, 242.3488
172.4855, 241.1703
172.9677, 240.0109
173.4498, 239.2131
173.9319, 238.7188
174.4140, 238.4793
174.8961, 238.6514
175.3782, 238.8781
175.8604, 238.6900
176.3425, 238.1344
176.8246, 237.6154
177.3067, 237.5335
177.7888, 237.6980
178.2709, 237.6995
178.7531, 237.2299
179.2352, 236.6817
179.7173, 236.8122
180.1994, 237.5909
180.6815, 238.2539
181.1636, 237.7948
181.6458, 236.6145
182.1279, 235.9495
182.6100, 236.5595
183.0921, 237.7769
183.5742, 238.1320
184.0563, 237.5820
184.5385, 236.9120
185.0206, 237.0217
185.5027, 237.7448
185.9848, 238.2807
186.4669, 238.2857
186.9490, 237.9043
187.4312, 237.5129
187.9133, 237.1033
188.3954, 236.7750
188.8775, 236.6462
189.3596, 236.7098
189.8417, 236.9159
190.3239, 237.4079
190.8060, 238.0717
191.2881, 238.2372
191.7702, 237.8323
192.2523, 237.2190
192.7344, 236.7621
193.2166, 236.4664
193.6987, 236.4243
194.1808, 236.8268
194.6629, 237.6154
195.1450, 238.0347
195.6271, 237.9891
196.1093, 237.8197
196.5914, 238.1646
197.0735, 239.0884
197.5556, 239.7119
198.0377, 239.4803
198.5198, 238.3821
199.0020, 237.6934
199.4841, 237.4856
199.9662, 237.5533
200.4483, 237.5936
200.9304, 237.6070
201.4125, 237.5825
201.8947, 237.5163
202.3768, 237.4088
202.8589, 237.2529
203.3410, 237.0424
203.8231, 236.7930
204.3052, 236.5115
204.7874, 236.1716
205.2695, 235.9094
205.7516, 235.8388
206.2337, 236.0129
206.7158, 235.9888
207.1979, 235.6646
207.6801, 235.2366
208.1622, 235.1960
208.6443, 235.7153
209.1264, 236.0903
209.6085, 235.8789
210.0906, 234.8567
210.5728, 234.3150
211.0549, 234.4325
211.5370, 234.9281
212.0191, 235.1414
212.5012, 234.9589
212.9833, 234.7840
213.4655, 234.8423
213.9476, 235.2397
214.4297, 235.4680
214.9118, 235.4391
215.3939, 235.2787
215.8760, 235.3134
216.3581, 235.6194
216.8403, 235.9611
217.3224, 236.2064
217.8045, 236.2898
218.2866, 236.4894
218.7687, 236.8775
219.2508, 237.3525
219.7330, 237.6290
220.2151, 237.6456
220.6972, 237.5627
221.1793, 237.3918
221.6614, 236.9453
222.1435, 236.9429
222.6257, 237.6352
223.1078, 238.7031
223.5899, 239.2603
224.0720, 239.1100
224.5541, 238.7681
225.0362, 238.4647
225.5184, 238.2451
226.0005, 237.9521
226.4826, 237.4802
226.9647, 236.9658
227.4468, 236.7751
227.9289, 236.9684
228.4111, 237.4076
228.8932, 238.1084
229.3753, 239.3744
229.8574, 240.1749
230.3395, 240.3531
230.8216, 240.0882
231.3038, 239.8493
231.7859, 239.6082
232.2680, 239.4346
232.7501, 239.3335
233.2322, 239.1941
233.7143, 239.4084
234.1965, 240.2586
234.6786, 241.4039
235.1607, 241.8562
235.6428, 241.1931
236.1249, 240.4438
236.6070, 240.0424
237.0892, 240.0524
237.5713, 240.2801
238.0534, 240.8416
238.5355, 241.5875
239.0176, 242.1367
239.4997, 242.4426
239.9819, 242.6251
240.4640, 242.6958
240.9461, 242.4988
241.4282, 242.5836
241.9103, 243.1253
242.3924, 243.8956
242.8746, 244.3412
243.3567, 244.3503
243.8388, 244.2100
244.3209, 244.0077
244.8030, 243.6823
245.2851, 243.4688
245.7673, 243.3593
246.2494, 243.3688
246.7315, 243.5645
247.2136, 244.1392
247.6957, 244.5965
248.1778, 244.7084
248.6600, 244.3141
249.1421, 244.0474
249.6242, 243.8648
250.1063, 243.8285
250.5884, 244.1154
251.0705, 245.0003
251.5527, 245.7342
252.0348, 245.9601
252.5169, 245.4367
252.9990, 245.3023
253.4811, 245.7060
253.9632, 246.3979
254.4454, 246.9659
254.9275, 247.4761
255.4096, 247.7364
255.8917, 247.5888
256.3738, 246.8701
256.8560, 246.5402
257.3381, 246.8104
257.8202, 247.2899
258.3023, 247.3150
258.7844, 246.5719
259.2665, 246.0657
259.7487, 246.1795
260.2308, 247.0284
260.7129, 247.7010
261.1950, 248.1513
261.6771, 248.4728
262.1592, 248.7980
262.6414, 249.1629
263.1235, 249.4270
263.6056, 249.5064
264.0877, 249.3807
264.5698, 249.4139
265.0519, 249.6900
265.5341, 250.0103
266.0162, 250.0924
266.4983, 249.8005
266.9804, 249.7000
267.4625, 250.0067
267.9446, 250.7092
268.4268, 251.1906
268.9089, 251.3853
269.3910, 251.4591
269.8731, 251.5891
270.3552, 251.8048
270.8373, 251.9426
271.3195, 251.9259
271.8016, 251.7788
272.2837, 251.7790
272.7658, 251.9608
273.2479, 252.2101
273.7300, 252.4236
274.2122, 252.5911
274.6943, 252.7919
275.1764, 253.0642
275.6585, 253.3837
276.1406, 253.5712
276.6227, 253.5673
277.1049, 253.6358
277.5870, 254.0105
278.0691, 254.7125
278.5512, 255.5444
279.0333, 256.6331
279.5154, 257.7513
279.9976, 257.9415
280.4797, 257.0167
280.9618, 256.1272
281.4439, 256.1412
281.9260, 257.0677
282.4081, 258.0751
282.8903, 259.1850
283.3724, 260.1754
283.8545, 260.3505
284.3366, 259.6327
284.8187, 258.9163
285.3008, 258.8140
285.7830, 259.2790
286.2651, 259.7738
286.7472, 260.2566
287.2293, 260.7433
287.7114, 261.3176
288.1935, 261.9767
288.6757, 262.5101
289.1578, 262.7153
289.6399, 262.6624
290.1220, 262.7272
290.6041, 262.9630
291.0862, 263.2099
291.5684, 263.1140
292.0505, 262.7301
292.5326, 262.5791
293.0147, 263.1949
293.4968, 264.2484
293.9789, 264.6548
294.4611, 264.3011
294.9432, 263.8087
295.4253, 263.9926
295.9074, 264.7019
296.3895, 265.2727
296.8716, 265.3416
297.3538, 265.1088
297.8359, 265.0354
298.3180, 265.1342
298.8001, 265.1098
299.2822, 264.3785
299.7643, 263.2743
300.2465, 262.7000
300.7286, 263.3600
301.2107, 264.4622
301.6928, 264.8662
302.1749, 264.6102
302.6570, 264.3232
303.1392, 264.6040
303.6213, 265.1790
304.1034, 265.5482
304.5855, 265.4006
305.0676, 265.1964
305.5497, 265.5264
306.0319, 266.2797
306.5140, 266.8956
306.9961, 266.9031
307.4782, 266.5964
307.9603, 266.3126
308.4424, 266.1195
308.9246, 265.9794
309.4067, 265.7840
309.8888, 265.5998
310.3709, 265.6214
310.8530, 266.2012
311.3351, 266.8945
311.8173, 267.2841
312.2994, 267.2122
312.7815, 267.1331
313.2636, 267.3959
313.7457, 267.8346
314.2278, 268.1518
314.7100, 268.0110
315.1921, 267.8647
315.6742, 268.0933
316.1563, 268.8340
316.6384, 269.3291
317.1205, 268.9100
317.6027, 268.1474
318.0848, 267.7655
318.5669, 268.5086
319.0490, 269.2119
319.5311, 269.2519
320.0132, 268.5647
320.4954, 268.2100
320.9775, 268.8336
321.4596, 269.7481
321.9417, 270.3624
322.4238, 270.2552
322.9059, 270.1472
323.3881, 270.2951
323.8702, 270.6598
324.3523, 270.7610
324.8344, 270.0959
325.3165, 269.4358
325.7986, 269.2307
326.2808, 270.0597
326.7629, 270.7089
327.2450, 270.9937
327.7271, 271.0148
328.2092, 271.1715
328.6913, 271.7312
329.1735, 272.1938
329.6556, 272.3512
330.1377, 271.9846
330.6198, 271.7223
331.1019, 271.5835
331.5840, 271.5396
332.0662, 271.5159
332.5483, 271.3448
333.0304, 271.4426
333.5125, 272.0980
333.9946, 273.5732
334.4767, 274.1921
334.9589, 273.5788
335.4410, 272.4698
335.9231, 271.7569
336.4052, 271.4992
336.8873, 271.5189
337.3694, 271.8791
337.8516, 272.5489
338.3336, 272.9585
338.8158, 273.0612
339.2979, 273.0154
339.7800, 272.8774
340.2621, 272.5947
340.7442, 272.6632
341.2263, 273.3051
341.7085, 274.2928
342.1906, 274.7767
342.6727, 274.6934
343.1548, 274.5346
343.6369, 274.6778
344.1190, 275.0954
344.6012, 275.3666
345.0833, 275.4253
345.5654, 275.3489
346.0475, 275.1730
346.5296, 274.9131
347.0117, 274.8508
347.4939, 275.2839
347.9760, 276.0411
348.4581, 276.6101
348.9402, 276.9643
349.4223, 277.1316
349.9044, 276.9600
350.3866, 276.5898
350.8687, 276.5004
351.3508, 277.2326
351.8329, 278.2113
352.3150, 278.3672
352.7971, 277.7281
353.2793, 277.2155
353.7614, 277.7633
354.2435, 278.8726
354.7256, 279.7396
355.2077, 280.0901
355.6898, 280.1659
356.1720, 280.1263
356.6541, 279.9771
357.1362, 279.7518
357.6183, 279.3564
358.1004, 278.9506
358.5826, 278.7101
359.0647, 278.7560
359.5468, 278.7401
360.0289, 278.2475
360.5110, 277.5740
360.9931, 277.2818
361.4753, 278.0777
361.9574, 278.9246
362.4395, 279.2051
362.9216, 278.7486
363.4037, 278.4770
363.8858, 278.9889
364.3680, 279.7002
364.8501, 279.9973
365.3322, 279.3081
365.8143, 278.6504
366.2964, 278.2285
366.7785, 278.0500
367.2607, 278.0674
367.7428, 278.4861
368.2249, 278.9637
368.7070, 279.2929
369.1891, 279.2837
369.6712, 279.3755
370.1534, 279.6510
370.6355, 280.0356
371.1176, 280.2928
371.5997, 280.3182
372.0818, 280.3362
372.5639, 280.4301
373.0461, 280.6100
373.5282, 280.8125
374.0103, 281.0334
374.4924, 281.2744
374.9745, 281.5584
375.4566, 281.9312
375.9388, 282.2052
376.4209, 282.2925
376.9030, 282.2125
377.3851, 282.2518
377.8672, 282.4613
378.3493, 282.6551
378.8315, 282.6195
379.3136, 282.3543
379.7957, 282.1339
380.2778, 281.9698
380.7599, 281.9246
381.2420, 282.2366
381.7242, 282.9002
382.2063, 283.5326
382.6884, 283.9259
383.1705, 284.0814
383.6526, 283.9304
384.1347, 283.4030
384.6169, 282.7997
385.0990, 282.4331
385.5811, 282.2921
386.0632, 282.3724
386.5453, 282.8806
387.0274, 283.5121
387.5096, 283.8265
387.9917, 283.8210
388.4738, 283.7600
388.9559, 283.8098
389.4380, 283.9431
389.9201, 284.1434
390.4023, 284.6123
390.8844, 284.9130
391.3665, 284.5232
391.8486, 283.6538
392.3307, 283.0889
392.8128, 283.4403
393.2950, 284.0667
393.7771, 284.5917
394.2592, 285.0386
394.7413, 285.1425
395.2234, 284.3841
395.7055, 283.3058
396.1877, 282.7488
396.6698, 283.4680
397.1519, 284.1889
397.6340, 284.4554
398.1161, 284.1787
398.5982, 284.1266
399.0804, 284.7392
399.5625, 285.3644
400.0446, 285.5212
400.5267, 284.7998
401.0088, 284.2250
401.4909, 283.9502
401.9731, 283.9002
402.4552, 283.7455
402.9373, 283.3541
403.4194, 283.0783
403.9015, 283.1364
404.3836, 283.6598
404.8658, 283.9551
405.3479, 283.9088
405.8300, 283.7766
406.3121, 284.0055
406.7942, 284.6614
407.2763, 285.1773
407.7585, 285.3098
408.2406, 285.1383
408.7227, 285.1256
409.2048, 285.2813
409.6869, 285.4842
410.1690, 285.6552
410.6512, 285.7870
411.1333, 285.8391
411.6154, 285.7691
412.0975, 285.6835
412.5796, 285.7769
413.0617, 286.0160
413.5439, 286.2305
414.0260, 286.2555
414.5081, 286.2281
414.9902, 286.4048
415.4723, 286.8347
415.9544, 287.1708
416.4366, 286.9706
416.9187, 286.5287
417.4008, 286.2857
417.8829, 286.6674
418.3650, 287.0700
418.8471, 287.0388
419.3293, 286.6607
419.8114, 286.4626
420.2935, 286.9969
420.7756, 287.5798
421.2577, 287.6812
421.7398, 286.7954
422.2220, 286.2551
422.7041, 286.5953
423.1862, 287.4273
423.6683, 288.0488
424.1504, 288.3205
424.6325, 288.4355
425.1147, 288.4529
425.5968, 288.3838
426.0789, 288.0988
426.5610, 287.1905
427.0431, 286.4351
427.5252, 286.5606
428.0074, 288.1006
428.4895, 289.2586
428.9716, 289.7238
429.4537, 289.7017
429.9358, 289.8282
430.4179, 290.1353
430.9001, 290.4673
431.3822, 290.7726
431.8643, 291.0527
432.3464, 291.1636
432.8285, 291.0492
433.3106, 290.9497
433.7928, 291.2606
434.2749, 291.9228
434.7570, 292.4191
435.2391, 292.4766
435.7212, 292.3622
436.2033, 292.6827
436.6855, 293.3910
437.1676, 294.0269
437.6497, 294.0216
438.1318, 293.8058
438.6139, 294.1438
439.0960, 295.3158
439.5782, 296.4639
440.0603, 296.7326
440.5424, 296.4877
441.0245, 296.4102
441.5066, 296.8073
441.9887, 297.4413
442.4709, 298.3854
442.9530, 299.6032
443.4351, 300.3756
443.9172, 299.8966
444.3993, 299.1725
444.8814, 298.9435
445.3636, 299.7220
445.8457, 300.4684
446.3278, 301.1283
446.8099, 301.6550
447.2920, 301.9525
447.7741, 302.0147
448.2563, 301.8540
448.7384, 301.3772
449.2205, 300.4942
449.7026, 300.0069
450.1847, 300.0378
450.6668, 300.3224
451.1490, 300.6626
451.6311, 301.1056
452.1132, 301.4335
452.5953, 301.6083
453.0774, 301.6588
453.5595, 301.6327
454.0417, 301.5153
454.5238, 301.4471
455.0059, 301.5924
455.4880, 301.8758
455.9701, 301.8832
456.4522, 301.5757
456.9344, 301.1545
457.4165, 300.7199
457.8986, 300.3327
458.3807, 300.1823
458.8628, 300.3816
459.3449, 300.7808
459.8271, 301.4401
460.3092, 302.2317
460.7913, 302.6249
461.2734, 301.6994
461.7555, 300.6107
462.2376, 300.4536
462.7198, 301.5796
463.2019, 302.6909
463.6840, 303.0877
464.1661, 303.1551
464.6482, 303.3589
465.1303, 304.2128
465.6125, 304.7993
466.0946, 304.8345
466.5767, 304.3525
467.0588, 303.7013
467.5409, 302.3405
468.0230, 301.3168
468.5052, 301.1635
468.9873, 302.3669
469.4694, 303.2726
469.9515, 303.9778
470.4336, 304.3094
470.9157, 303.8175
471.3979, 302.0956
471.8800, 301.0189
472.3621, 301.3224
472.8442, 302.6277
473.3263, 303.0851
473.8084, 302.6206
474.2906, 301.8807
474.7727, 301.2123
475.2548, 300.6342
475.7369, 300.2819
476.2190, 300.2015
476.7011, 300.2039
477.1833, 300.1666
477.6654, 300.0374
478.1475, 299.6689
478.6296, 298.6226
479.1117, 297.5709
479.5938, 297.3093
480.0760, 297.7383
480.5581, 298.1912
481.0402, 298.1974
481.5223, 298.1247
482.0044, 298.3086
482.4865, 298.9363
482.9687, 299.4746
483.4508, 299.7294
483.9329, 299.7922
484.4150, 299.7911
484.8971, 299.6560
485.3792, 299.5569
485.8614, 299.5683
486.3435, 299.6770
486.8256, 299.6958
487.3077, 299.6311
487.7898, 299.4694
488.2719, 299.1147
488.7541, 298.3311
489.2362, 298.2176
489.7183, 299.0648
490.2004, 300.2053
490.6825, 300.5887
491.1646, 300.1402
491.6468, 299.6732
492.1289, 299.3726
492.6110, 299.2469
493.0931, 299.4061
493.5752, 299.8457
494.0573, 300.1961
494.5395, 299.9672
495.0216, 299.4958
495.5037, 299.5635
495.9858, 300.3362
496.4679, 301.2129
496.9500, 301.6338
497.4322, 301.7871
497.9143, 301.9761
498.3964, 302.3155
498.8785, 302.7326
499.3606, 303.2642
499.8427, 303.8713
500.3249, 304.3354
500.8070, 304.5908
501.2891, 304.6861
501.7712, 304.5634
502.2533, 303.9975
502.7354, 303.8474
503.2176, 304.5273
503.6997, 305.4710
504.1818, 306.1076
504.6639, 306.2866
505.1460, 306.4069
505.6281, 306.4134
506.1103, 306.4122
506.5924, 306.9227
507.0745, 308.1158
507.5566, 309.2026
508.0387, 309.6495
508.5208, 309.5024
509.0030, 309.7435
509.4851, 310.4126
509.9672, 311.2486
510.4493, 312.0709
510.9314, 312.8483
511.4135, 313.4239
511.8957, 313.6084
512.3778, 313.8394
512.8599, 314.7810
513.3420, 316.2199
513.8242, 317.5191
514.3063, 318.4588
514.7884, 319.0760
515.2705, 319.1225
515.7526, 318.5782
516.2347, 318.6162
516.7169, 320.0741
517.1990, 322.0757
517.6811, 323.9579
518.1632, 325.4931
518.6453, 327.0547
519.1274, 328.8033
519.6096, 330.5773
520.0917, 332.0551
520.5738, 333.1314
521.0559, 334.0552
521.5380, 334.7676
522.0201, 335.3052
522.5023, 336.3554
522.9844, 338.0327
523.4665, 339.9232
523.9486, 341.9453
524.4307, 344.0724
524.9128, 345.3059
525.3950, 345.3546
525.8771, 345.2188
526.3592, 346.3388
526.8413, 348.4216
527.3234, 350.4598
527.8055, 352.1221
528.2877, 353.4900
528.7698, 354.6901
529.2519, 355.6904
529.7340, 356.4089
530.2161, 356.5288
530.6982, 356.5294
531.1804, 356.7748
531.6625, 357.3322
532.1446, 357.9832
532.6267, 358.8102
533.1088, 359.6269
533.5909, 360.2489
534.0731, 360.1408
534.5552, 360.5057
535.0373, 361.7861
535.5194, 363.5406
536.0015, 364.6745
536.4836, 364.8882
536.9658, 365.0632
537.4479, 365.4666
537.9300, 366.0885
538.4121, 366.8483
538.8942, 367.7520
539.3763, 368.7329
539.8585, 369.8726
540.3406, 371.0878
540.8227, 371.8254
541.3048, 371.9201
541.7869, 371.8929
542.2690, 372.6522
542.7512, 373.8150
543.2333, 374.4157
543.7154, 373.5888
544.1975, 372.4278
544.6796, 372.1464
545.1617, 372.4253
545.6439, 371.8610
546.1260, 368.9548
546.6081, 365.6724
547.0902, 363.2190
547.5723, 361.9916
548.0544, 360.5799
548.5366, 358.7845
549.0187, 356.7079
549.5008, 354.4120
549.9829, 351.6208
550.4650, 349.1210
550.9471, 347.0224
551.4293, 345.2348
551.9114, 343.5229
552.3935, 341.9002
552.8756, 340.3012
553.3577, 338.7574
553.8398, 337.2182
554.3220, 335.3721
554.8041, 333.2000
555.2862, 331.0693
555.7683, 329.1967
556.2504, 327.5681
556.7325, 326.1157
557.2147, 324.8288
557.6968, 323.7284
558.1789, 322.9673
558.6610, 322.3663
559.1431, 321.6694
559.6252, 320.4836
560.1074, 319.4904
560.5895, 319.1699
561.0716, 319.2926
561.5537, 319.1019
562.0358, 318.2954
562.5179, 317.2887
563.0001, 316.1576
563.4822, 314.8750
563.9643, 313.8312
564.4464, 313.0997
564.9285, 312.5057
565.4106, 311.8890
565.8928, 311.2141
566.3749, 310.7773
566.8570, 310.6468
567.3391, 310.6530
567.8212, 310.5138
568.3033, 310.2567
568.7855, 310.0981
569.2676, 310.1625
569.7497, 310.3101
570.2318, 310.2924
570.7139, 310.1566
571.1960, 310.1091
571.6782, 310.4171
572.1603, 310.7646
572.6424, 310.9425
573.1245, 310.9400
573.6066, 310.6582
574.0887, 309.8183
574.5709, 308.8275
575.0530, 307.9877
575.5351, 307.1009
576.0172, 306.7224
576.4993, 307.1309
576.9814, 307.9231
577.4636, 308.4383
577.9457, 308.5717
578.4278, 308.7222
578.9099, 309.0473
579.3920, 309.4362
579.8741, 309.3889
580.3563, 308.8729
580.8384, 308.3483
581.3205, 308.0284
581.8026, 307.9115
582.2847, 308.0910
582.7668, 308.5740
583.2490, 309.0288
583.7311, 309.0602
584.2132, 308.9401
584.6953, 309.1093
585.1774, 309.9505
585.6595, 310.4152
586.1416, 309.3600
586.6237, 307.7325
587.1058, 306.9498
587.5880, 308.3854
588.0701, 309.5599
588.5522, 309.7228
589.0343, 309.1113
589.5164, 308.8211
589.9985, 309.0565
590.4807, 309.2593
590.9628, 309.1012
591.4449, 308.5640
591.9270, 308.6505
592.4091, 309.5036
592.8912, 310.3551
593.3734, 310.4442
593.8555, 309.9087
594.3376, 309.3535
594.8197, 308.8233
595.3018, 308.4563
595.7839, 308.4966
596.2661, 308.8058
596.7482, 309.1194
597.2303, 309.4205
597.7124, 309.6206
598.1945, 309.6144
598.6766, 309.4668
599.1588, 309.3573
599.6409, 309.3114
600.1230, 309.3451
600.6051, 309.4865
601.0872, 309.7397
601.5693, 309.9883
602.0515, 310.2081
602.5336, 310.4471
603.0157, 310.7353
603.4978, 311.0751
603.9799, 311.4778
604.4620, 312.0071
604.9442, 312.4173
605.4263, 312.2755
605.9084, 311.6800
606.3905, 311.1927
606.8726, 310.8766
607.3547, 310.8487
607.8369, 311.5244
608.3190, 312.6164
608.8011, 313.4111
609.2832, 313.2110
609.7653, 312.8993
610.2474, 313.1198
610.7296, 313.7946
611.2117, 314.2124
611.6938, 314.0132
612.1759, 313.6471
612.6580, 313.2674
613.1401, 312.7911
613.6223, 312.7010
614.1044, 313.2392
614.5865, 313.8370
615.0686, 313.9483
615.5507, 313.5082
616.0328, 313.1718
616.5150, 313.0059
616.9971, 312.9731
617.4792, 313.1187
617.9613, 313.3852
618.4434, 313.4932
618.9255, 313.3654
619.4077, 313.0259
619.8898, 312.3404
620.3719, 311.4378
620.8540, 310.7083
621.3361, 310.2083
621.8182, 310.0636
622.3004, 310.5295
622.7825, 311.5962
623.2646, 312.4083
623.7467, 312.6821
624.2288, 312.7421
624.7109, 312.7019
625.1931, 312.4521
625.6752, 312.4809
626.1573, 312.8626
626.6394, 313.3866
627.1215, 313.9842
627.6036, 314.6620
628.0858, 314.6375
628.5679, 313.5770
629.0500, 312.3110
629.5321, 312.1971
630.0142, 312.9503
630.4963, 313.6723
630.9785, 314.0381
631.4606, 314.2032
631.9427, 314.2307
632.4248, 314.1608
632.9069, 314.1149
633.3890, 314.2832
633.8712, 314.3658
634.3533, 314.1393
634.8354, 313.5606
635.3175, 313.2614
635.7996, 313.4343
636.2817, 313.6852
636.7639, 313.8012
637.2460, 313.7455
637.7281, 313.6758
638.2102, 313.5380
638.6923, 313.5185
639.1744, 314.0607
639.6566, 314.9954
640.1387, 315.2418
640.6208, 314.4197
641.1029, 313.4081
641.5850, 313.2351
642.0671, 313.6270
642.5493, 314.0305
643.0314, 314.2421
643.5135, 314.3885
643.9956, 314.5755
644.4777, 314.7602
644.9598, 314.8038
645.4420, 314.4821
645.9241, 314.2295
646.4062, 314.2412
646.8883, 314.4999
647.3704, 314.5095
647.8525, 314.1280
648.3347, 313.8117
648.8168, 313.8877
649.2989, 314.3399
649.7810, 314.6644
650.2631, 314.8547
650.7452, 314.9294
651.2274, 314.7536
651.7095, 314.4944
652.1916, 314.5386
652.6737, 315.0190
653.1558, 313.5133
653.6379, 314.9006
654.1201, 315.8299
654.6022, 316.3226
655.0843, 315.2329
655.5664, 316.0631
656.0485, 316.0484
656.5306, 315.9474
657.0128, 316.8937
657.4949, 315.7570
657.9770, 316.5781
658.4591, 316.5422
658.9412, 316.8200
659.4233, 316.2481
659.9055, 315.8680
660.3876, 316.2303
660.8697, 316.9421
661.3518, 317.1079
661.8339, 317.3868
662.3160, 317.7665
662.7982, 318.0470
663.2803, 318.0605
663.7624, 317.9227
664.2445, 317.6906
664.7266, 317.3318
665.2087, 317.1384
665.6909, 317.1931
666.1730, 317.4630
666.6551, 317.9535
667.1372, 319.0976
667.6193, 319.6506
668.1014, 319.3202
668.5836, 318.6844
669.0657, 318.4888
669.5478, 318.7457
670.0299, 319.3872
670.5120, 320.5859
670.9941, 321.8332
671.4763, 322.1221
671.9584, 321.6430
672.4405, 321.1409
672.9226, 320.7960
673.4047, 320.6974
673.8868, 321.1596
674.3690, 321.9848
674.8511, 322.4843
675.3332, 321.9685
675.8153, 321.4638
676.2974, 321.4434
676.7795, 321.9432
677.2617, 322.4059
677.7438, 322.9212
678.2259, 323.2621
678.7080, 323.2018
679.1901, 322.6909
679.6722, 322.6930
680.1544, 323.2828
680.6365, 323.9419
681.1186, 324.1281
681.6007, 324.0173
682.0828, 324.0878
682.5649, 324.4339
683.0471, 324.7956
683.5292, 325.0607
684.0113, 325.1689
684.4934, 325.0220
684.9755, 324.3333
685.4576, 323.7851
685.9398, 323.4743
686.4219, 323.4323
686.9040, 323.7183
687.3861, 324.6399
687.8682, 325.2697
688.3503, 325.4176
688.8325, 325.2237
689.3146, 324.9843
689.7967, 324.7015
690.2788, 324.5067
690.7609, 324.5688
691.2430, 324.6719
691.7252, 324.3199
692.2073, 323.6136
692.6894, 323.0217
693.1715, 322.7704
693.6536, 322.7595
694.1357, 323.0685
694.6179, 323.6662
695.1000, 323.9631
695.5821, 323.4154
696.0642, 322.8867
696.5463, 322.8565
697.0284, 323.4659
697.5106, 323.5627
697.9927, 322.9525
698.4748, 322.2905
698.9569, 322.1444
699.4390, 322.4614
699.9211, 322.8610
700.4033, 323.3509
700.8854, 323.6876
701.3675, 323.4517
701.8496, 322.9559
702.3317, 322.7521
702.8138, 323.1672
703.2960, 323.3636
703.7781, 322.5389
704.2602, 321.4007
704.7423, 320.8149
705.2244, 321.5267
705.7065, 322.0018
706.1887, 322.0100
706.6708, 321.7847
707.1529, 321.7586
707.6350, 321.9532
708.1171, 322.1817
708.5992, 322.3676
709.0814, 322.5898
709.5635, 323.1470
710.0456, 323.9442
710.5277, 324.5191
711.0098, 324.6349
711.4919, 324.4420
711.9741, 323.8047
712.4562, 322.9057
712.9383, 322.4388
713.4204, 323.1718
713.9025, 323.9059
714.3846, 324.0228
714.8668, 323.5645
715.3489, 323.4663
715.8310, 323.8902
716.3131, 324.3496
716.7952, 324.5883
717.2773, 324.6221
717.7595, 324.7769
718.2416, 325.0683
718.7237, 325.1820
719.2058, 324.5882
719.6879, 323.7532
720.1700, 323.5594
720.6522, 324.1336
721.1343, 324.5480
721.6164, 323.8389
722.0985, 323.0115
722.5806, 322.9713
723.0627, 324.5052
723.5449, 325.2844
724.0270, 324.8489
724.5091, 323.9783
724.9912, 323.3331
725.4733, 322.9047
725.9554, 322.7360
726.4376, 322.8511
726.9197, 323.1539
727.4018, 323.6368
727.8839, 324.2091
728.3660, 324.5616
728.8481, 324.5483
729.3303, 324.4608
729.8124, 324.6007
730.2945, 324.8155
730.7766, 324.8711
731.2587, 324.6184
731.7408, 324.2919
732.2230, 323.7802
732.7051, 323.2646
733.1872, 323.0958
733.6693, 323.3267
734.1514, 323.7906
734.6335, 324.5760
735.1157, 325.4550
735.5978, 325.7307
736.0799, 325.4806
736.5620, 325.3564
737.0441, 325.9673
737.5262, 326.6154
738.0084, 326.3219
738.4905, 325.3517
738.9726, 324.6044
739.4547, 324.5088
739.9368, 324.6790
740.4189, 325.0862
740.9011, 325.6906
741.3832, 325.9896
741.8653, 325.8041
742.3474, 325.6338
742.8295, 325.7202
743.3116, 326.0113
743.7938, 326.0560
744.2759, 325.8436
744.7580, 325.6781
745.2401, 325.9136
745.7222, 326.2704
746.2043, 326.2393
746.6865, 325.8268
747.1686, 325.5221
747.6507, 325.8018
748.1328, 326.1329
748.6149, 326.0840
749.0970, 325.4692
749.5792, 325.2693
750.0613, 325.8300
750.5434, 326.4120
751.0255, 326.4951
751.5076, 326.0182
751.9897, 325.7284
752.4719, 325.6253
752.9540, 325.7375
753.4361, 326.2473
753.9182, 326.9493
754.4003, 327.4280
754.8824, 327.6030
755.3646, 327.6993
755.8467, 327.9402
756.3288, 328.1261
756.8109, 328.0172
757.2930, 327.1923
757.7751, 326.9063
758.2573, 327.6188
758.7394, 328.5123
759.2215, 328.7960
759.7036, 328.3954
760.1857, 327.8588
760.6678, 327.1664
761.1500, 326.6107
761.6321, 326.6698
762.1142, 327.1603
762.5963, 327.6711
763.0784, 328.1574
763.5605, 328.4730
764.0427, 328.3099
764.5248, 327.9919
765.0069, 327.9255
765.4890, 328.4549
765.9711, 328.9023
766.4532, 329.1372
766.9354, 329.3293
767.4175, 329.8612
767.8996, 330.8919
768.3817, 331.1864
768.8638, 330.3630
769.3459, 329.1317
769.8281, 328.6974
770.3102, 328.8039
770.7923, 328.6537
771.2744, 327.6663
771.7565, 326.8248
772.2386, 326.7941
772.7208, 327.3651
773.2029, 328.1750
773.6850, 329.6764
774.1671, 330.7117
774.6492, 330.9429
775.1313, 330.7054
775.6135, 330.7764
776.0956, 331.2416
776.5777, 331.3292
777.0598, 330.6808
777.5419, 329.7754
778.0240, 329.4349
778.5062, 329.5560
778.9883, 329.8201
779.4704, 330.2044
779.9525, 330.5630
780.4346, 330.7924
780.9167, 330.9272
781.3989, 331.0587
781.8810, 331.1978
782.3631, 331.3589
782.8452, 331.6456
783.3273, 331.9237
783.8094, 331.6257
784.2916, 330.6533
784.7737, 330.1822
785.2558, 330.9544
785.7379, 332.1114
786.2200, 331.8491
786.7021, 330.5518
787.1843, 329.5307
787.6664, 329.6780
788.1485, 330.0078
788.6306, 329.9113
789.1127, 329.5333
789.5948, 329.4669
790.0770, 330.0946
790.5591, 330.5292
791.0412, 330.4023
791.5233, 329.9780
792.0054, 330.4193
792.4875, 331.7455
792.9697, 332.6826
793.4518, 332.4395
793.9339, 331.6664
794.4160, 331.2967
794.8981, 331.2661
795.3802, 331.3637
795.8624, 331.6440
796.3445, 331.8748
796.8266, 331.9375
797.3087, 331.8507
797.7908, 331.7295
798.2729, 331.5476
798.7551, 331.4063
799.2372, 331.3682
799.7193, 331.3837
800.2014, 331.1739
800.6835, 330.7705
801.1656, 330.5838
801.6478, 331.0235
802.1299, 331.6390
802.6120, 331.9315
803.0941, 331.9559
803.5762, 331.8932
804.0583, 331.5401
804.5405, 331.3900
805.0226, 331.6740
805.5047, 332.3161
805.9868, 333.1754
806.4689, 334.4830
806.9510, 335.2222
807.4332, 334.8697
807.9153, 333.8321
808.3974, 333.2372
808.8795, 333.0276
809.3616, 332.8690
809.8438, 332.5640
810.3259, 332.2662
810.8080, 332.0372
811.2901, 331.9159
811.7722, 332.0093
812.2543, 332.5891
812.7365, 333.1086
813.2186, 333.3857
813.7007, 333.5096
814.1828, 333.8841
814.6649, 334.5818
815.1470, 334.9180
815.6292, 334.4367
816.1113, 333.6510
816.5934, 333.6537
817.0755, 334.2016
817.5576, 334.4956
818.0397, 333.6826
818.5219, 332.9830
819.0040, 333.2527
819.4861, 334.1598
819.9682, 334.5728
820.4503, 334.0682
820.9324, 333.7354
821.4146, 333.9185
821.8967, 334.3377
822.3788, 334.1093
822.8609, 333.2971
823.3430, 332.8682
823.8251, 333.3929
824.3073, 334.1803
824.7894, 334.5273
825.2715, 334.4919
825.7536, 334.2177
826.2357, 333.2618
826.7178, 332.6372
827.2000, 332.9554
827.6821, 333.7157
828.1642, 333.9392
828.6463, 333.3911
829.1284, 333.1872
829.6105, 333.6535
830.0927, 334.4064
830.5748, 334.7839
831.0569, 334.8596
831.5390, 334.8825
832.0211, 334.9032
832.5032, 334.9583
832.9854, 335.1694
833.4675, 335.4034
833.9496, 335.4526
834.4317, 334.8478
834.9138, 334.6680
835.3959, 335.1442
835.8781, 335.9180
836.3602, 336.5040
836.8423, 336.8932
837.3244, 337.0513
837.8065, 336.9027
838.2886, 336.7460
838.7708, 337.1459
839.2529, 337.7165
839.7350, 337.7867
840.2171, 336.8792
840.6992, 336.0500
841.1813, 335.4278
841.6635, 335.1843
842.1456, 335.5918
842.6277, 337.0987
843.1098, 337.8004
843.5919, 337.4452
844.0740, 336.6859
844.5562, 336.1113
845.0383, 335.7767
845.5204, 336.0111
846.0025, 336.9745
846.4846, 337.7175
846.9667, 337.2896
847.4489, 336.4751
847.9310, 336.0245
848.4131, 336.2081
848.8952, 336.3255
849.3773, 336.3553
849.8594, 336.3140
850.3416, 336.1000
850.8237, 335.7273
851.3058, 335.9882
851.7879, 336.9627
852.2700, 337.7622
852.7521, 337.3626
853.2343, 336.5416
853.7164, 336.1723
854.1985, 336.3566
854.6806, 336.8252
855.1627, 338.0060
855.6448, 338.9616
856.1270, 339.1677
856.6091, 338.6069
857.0912, 338.1457
857.5733, 337.7809
858.0554, 337.5390
858.5375, 337.5272
859.0197, 337.6215
859.5018, 337.4395
859.9839, 337.0539
860.4660, 336.9228
860.9481, 337.6426
861.4302, 338.3671
861.9124, 338.5988
862.3945, 338.3584
862.8766, 338.2226
863.3587, 338.2785
863.8408, 338.2376
864.3229, 337.9224
864.8051, 337.4994
865.2872, 337.5628
865.7693, 338.0286
866.2514, 338.3966
866.7335, 338.4246
867.2156, 338.2539
867.6978, 337.8602
868.1799, 337.3582
868.6620, 337.0048
869.1441, 336.8620
869.6262, 336.8922
870.1083, 337.1617
870.5905, 337.5488
871.0726, 337.8566
871.5547, 338.0865
872.0368, 338.0842
872.5189, 337.7535
873.0010, 337.3418
873.4832, 336.9472
873.9653, 336.7172
874.4474, 336.9234
874.9295, 338.0167
875.4116, 338.8929
875.8937, 339.3012
876.3759, 339.3671
876.8580, 339.0858
877.3401, 338.3283
877.8222, 337.9733
878.3043, 338.1312
878.7864, 338.4612
879.2686, 338.6875
879.7507, 338.8013
880.2328, 338.7323
880.7149, 338.4443
881.1970, 338.2629
881.6791, 338.5768
882.1613, 338.8834
882.6434, 338.7899
883.1255, 338.2313
883.6076, 337.7560
884.0897, 337.3029
884.5718, 337.1431
885.0540, 337.7504
885.5361, 338.7734
886.0182, 338.8666
886.5003, 338.1594
886.9824, 337.7363
887.4645, 338.8573
887.9467, 339.9250
888.4288, 339.6029
888.9109, 338.0578
889.3930, 337.6028
889.8751, 338.9622
890.3572, 339.9413
890.8394, 339.6982
891.3215, 338.7150
891.8036, 338.3753
892.2857, 338.5669
892.7678, 338.6540
893.2499, 338.1993
893.7321, 337.7370
894.2142, 337.6344
894.6963, 337.8164
895.1784, 338.1387
895.6605, 338.7352
896.1426, 339.2612
896.6248, 339.7383
897.1069, 340.0856
897.5890, 340.0792
898.0711, 339.7713
898.5532, 339.7206
899.0353, 340.0793
899.5175, 340.4466
899.9996, 340.4418
900.4817, 340.2286
900.9638, 339.9786
901.4459, 339.6621
901.9280, 339.4682
902.4102, 339.3194
902.8923, 339.3916
903.3744, 339.9496
903.8565, 341.0144
904.3386, 341.4529
904.8207, 341.2374
905.3029, 340.9752
905.7850, 341.3549
906.2671, 341.8034
906.7492, 341.5896
907.2313, 340.7307
907.7134, 339.9954
908.1956, 339.3573
908.6777, 339.2164
909.1598, 339.9791
909.6419, 341.3361
910.1240, 341.5645
910.6061, 340.6442
911.0883, 339.9663
911.5704, 340.2721
912.0525, 340.9637
912.5346, 341.3799
913.0167, 341.5758
913.4988, 341.6701
913.9810, 341.5511
914.4631, 341.5317
914.9452, 341.7498
915.4273, 342.0491
915.9094, 342.2184
916.3915, 342.2535
916.8737, 342.1489
917.3558, 341.8541
917.8379, 341.6432
918.3200, 341.9771
918.8021, 342.5341
919.2842, 342.8161
919.7664, 342.6605
920.2485, 342.5366
920.7306, 342.6509
921.2127, 342.7827
921.6948, 342.7868
922.1769, 342.6494
922.6591, 342.5606
923.1412, 342.5170
923.6233, 342.5372
924.1054, 342.6683
924.5875, 342.8514
925.0696, 343.0233
925.5518, 343.1784
926.0339, 343.2975
926.5160, 343.5414
926.9981, 343.5349
927.4802, 342.9230
927.9623, 342.0385
928.4445, 342.0505
928.9266, 343.0558
929.4087, 343.7687
929.8908, 343.7635
930.3729, 343.3966
930.8550, 342.8840
931.3372, 342.4223
931.8193, 342.4017
932.3014, 343.3398
932.7835, 344.0591
933.2656, 344.3365
933.7477, 344.2511
934.2299, 343.7135
934.7120, 342.6273
935.1941, 342.1390
935.6762, 342.3544
936.1583, 342.7569
936.6404, 342.9000
937.1226, 342.9235
937.6047, 342.9628
938.0868, 343.0318
938.5689, 343.2466
939.0510, 343.8748
939.5331, 344.3952
940.0153, 344.5718
940.4974, 344.4539
940.9795, 344.4326
941.4616, 344.5074
941.9437, 344.4956
942.4258, 344.2049
942.9080, 343.9098
943.3901, 344.1408
943.8722, 344.6056
944.3543, 344.6761
944.8364, 343.4219
945.3185, 342.7921
945.8007, 343.4529
946.2828, 344.4811
946.7649, 344.4721
947.2470, 343.4681
947.7291, 343.0910
948.2112, 343.6030
948.6934, 344.3884
949.1755, 345.2498
949.6576, 345.8430
950.1397, 345.6011
950.6218, 344.2168
951.1039, 343.5098
951.5861, 344.0089
952.0682, 344.7699
952.5503, 345.4650
953.0324, 346.0444
953.5145, 346.0322
953.9966, 345.4777
954.4788, 344.9781
954.9609, 344.9416
955.4430, 345.0337
955.9251, 344.9324
956.4072, 344.7516
956.8893, 344.8077
957.3715, 345.2582
957.8536, 345.7929
958.3357, 346.5061
958.8178, 347.0802
959.2999, 346.6996
959.7820, 345.6601
960.2642, 345.4441
960.7463, 346.4658
961.2284, 347.5052
961.7105, 347.6452
962.1926, 347.4290
962.6747, 347.3490
963.1569, 347.5164
963.6390, 347.4494
964.1211, 347.0861
964.6032, 346.6498
965.0853, 346.1192
965.5674, 345.6680
966.0496, 346.0629
966.5317, 347.1041
967.0138, 347.8429
967.4959, 347.4106
967.9780, 346.9409
968.4601, 346.8954
968.9423, 347.2328
969.4244, 347.9440
969.9065, 349.2710
970.3886, 349.9042
970.8707, 349.4961
971.3528, 348.7169
971.8350, 348.1755
972.3171, 347.9945
972.7992, 348.5191
973.2813, 350.0151
973.7634, 351.2552
974.2455, 351.5851
974.7277, 351.6758
975.2098, 351.8207
975.6919, 352.0130
976.1740, 352.8767
976.6561, 354.4418
977.1382, 356.0005
977.6204, 357.0542
978.1025, 357.9203
978.5846, 358.8095
979.0667, 359.8209
979.5488, 361.2643
980.0309, 363.6997
980.5131, 365.9171
980.9952, 367.6256
981.4773, 369.1255
981.9594, 370.9390
982.4415, 373.0143
982.9236, 374.9925
983.4058, 376.7572
983.8879, 378.5604
984.3700, 380.4165
984.8521, 382.5330
985.3342, 385.0945
985.8163, 388.1568
986.2985, 391.6581
986.7806, 395.6845
987.2627, 399.9536
987.7448, 404.2137
988.2269, 408.6930
988.7090, 414.2430
989.1912, 420.6911
989.6733, 427.2986
990.1554, 434.7582
990.6375, 441.1871
991.1196, 445.7614
991.6017, 448.5366
992.0839, 449.8279
992.5660, 449.9346
993.0481, 447.0140
993.5302, 440.5605
994.0123, 432.1183
994.4944, 422.5114
994.9766, 412.4740
995.4587, 402.9933
995.9408, 394.2541
996.4229, 386.4945
996.9050, 379.7014
997.3871, 374.0825
997.8693, 369.8752
998.3514, 366.9294
998.8335, 364.7391
999.3156, 363.2804
999.7977, 361.9578
1000.280, 360.4323
1000.762, 359.0791
1001.244, 358.4637
1001.726, 358.2144
1002.208, 357.6862
1002.690, 356.3806
1003.173, 355.4807
1003.655, 355.1030
1004.137, 354.9897
1004.619, 354.9733
1005.101, 355.0019
1005.583, 354.7954
1006.065, 354.3538
1006.547, 354.1662
1007.029, 354.8387
1007.512, 355.5378
1007.994, 355.7085
1008.476, 355.4666
1008.958, 355.3515
1009.440, 355.3878
1009.922, 355.3816
1010.404, 355.3019
1010.886, 355.0964
1011.369, 354.5217
1011.851, 353.8243
1012.333, 353.4353
1012.815, 353.5932
1013.297, 353.7776
1013.779, 354.0106
1014.261, 354.1229
1014.743, 353.8805
1015.225, 353.3255
1015.708, 353.2959
1016.190, 353.7700
1016.672, 354.3600
1017.154, 355.1178
1017.636, 355.6053
1018.118, 355.2317
1018.600, 354.3109
1019.082, 353.8801
1019.565, 354.0759
1020.047, 354.5374
1020.529, 355.3028
1021.011, 356.0630
1021.493, 356.3324
1021.975, 356.2977
1022.457, 356.4154
1022.939, 356.8057
1023.421, 356.9291
1023.904, 356.0289
1024.386, 355.3360
1024.868, 355.6320
1025.350, 356.7542
1025.832, 357.0761
1026.314, 356.6108
1026.796, 356.2238
1027.278, 356.4100
1027.760, 356.7409
1028.243, 356.9693
1028.725, 356.9993
1029.207, 356.6475
1029.689, 355.3326
1030.171, 354.6004
1030.653, 354.6139
1031.135, 354.9090
1031.617, 355.0005
1032.100, 355.0126
1032.582, 355.4584
1033.064, 356.3055
1033.546, 356.8650
1034.028, 356.3454
1034.510, 355.9015
1034.992, 356.2928
1035.474, 357.1385
1035.957, 357.2105
1036.439, 356.4440
1036.921, 356.0941
1037.403, 356.5155
1037.885, 357.2394
1038.367, 357.9582
1038.849, 358.5557
1039.331, 358.8105
1039.813, 358.5577
1040.296, 358.5207
1040.778, 358.7460
1041.260, 359.1756
1041.742, 359.9309
1042.224, 360.8072
1042.706, 360.8738
1043.188, 360.3665
1043.670, 360.2171
1044.152, 361.0575
1044.635, 362.1280
1045.117, 363.3301
1045.599, 364.4672
1046.081, 365.2260
1046.563, 365.5373
1047.045, 366.1541
1047.527, 367.1539
1048.009, 368.1642
1048.492, 368.6277
1048.974, 369.0841
1049.456, 370.2522
1049.938, 372.0943
1050.420, 373.5890
1050.902, 374.5643
1051.384, 375.3456
1051.866, 375.8564
1052.349, 376.4567
1052.831, 378.0346
1053.313, 380.2547
1053.795, 382.1523
1054.277, 383.3614
1054.759, 384.7030
1055.241, 386.7309
1055.723, 388.8563
1056.205, 390.7133
1056.688, 392.3025
1057.170, 393.8534
1057.652, 395.3697
1058.134, 396.4150
1058.616, 396.2969
1059.098, 396.1360
1059.580, 397.5009
1060.062, 399.4482
1060.544, 400.1514
1061.027, 398.8095
1061.509, 397.3524
1061.991, 395.8402
1062.473, 394.2693
1062.955, 392.8472
1063.437, 391.2998
1063.919, 388.8585
1064.401, 385.6027
1064.884, 382.3754
1065.366, 379.2790
1065.848, 376.6716
1066.330, 374.8217
1066.812, 373.3971
1067.294, 371.5901
1067.776, 369.4857
1068.258, 367.8228
1068.740, 366.7913
1069.223, 366.0877
1069.705, 365.6071
1070.187, 365.2404
1070.669, 364.9040
1071.151, 364.5905
1071.633, 364.2801
1072.115, 363.9759
1072.597, 363.6437
1073.079, 363.2768
1073.562, 362.8613
1074.044, 362.2234
1074.526, 361.5548
1075.008, 361.2003
1075.490, 361.3242
1075.972, 361.7120
1076.454, 362.4664
1076.936, 363.2459
1077.419, 364.0094
1077.901, 364.5901
1078.383, 363.8362
1078.865, 361.9737
1079.347, 360.6448
1079.829, 361.3200
1080.311, 362.1047
1080.793, 361.9758
1081.275, 361.4902
1081.758, 361.5948
1082.240, 362.3344
1082.722, 362.7882
1083.204, 362.8341
1083.686, 362.6822
1084.168, 362.4769
1084.650, 362.1963
1085.132, 361.6940
1085.615, 361.0091
1086.097, 360.8621
1086.579, 361.5094
1087.061, 361.9431
1087.543, 361.7935
1088.025, 361.4844
1088.507, 361.8701
1088.989, 362.5343
1089.471, 362.6040
1089.953, 361.5827
1090.436, 361.1533
1090.918, 362.0749
1091.400, 363.1313
1091.882, 363.8046
1092.364, 364.0870
1092.846, 363.6115
1093.328, 362.6201
1093.810, 362.2812
1094.293, 363.7016
1094.775, 365.1035
1095.257, 365.7163
1095.739, 365.8399
1096.221, 365.7457
1096.703, 365.3873
1097.185, 365.1870
1097.667, 365.1497
1098.150, 365.2903
1098.632, 365.6941
1099.114, 366.2119
1099.596, 366.8360
1100.078, 367.4665
1100.560, 367.7969
1101.042, 367.7173
1101.524, 367.5974
1102.006, 367.4369
1102.489, 367.3985
1102.971, 367.8776
1103.453, 368.4983
1103.935, 368.6190
1104.417, 368.2005
1104.899, 367.8389
1105.381, 367.8265
1105.863, 367.6761
1106.345, 367.2631
1106.828, 366.6457
1107.310, 365.6980
1107.792, 364.6577
1108.274, 364.3743
1108.756, 365.2098
1109.238, 366.0116
1109.720, 366.4064
1110.202, 366.3857
1110.685, 365.8001
1111.167, 364.7758
1111.649, 364.3336
1112.131, 364.4302
1112.613, 364.6546
1113.095, 364.9253
1113.577, 365.1019
1114.059, 364.9096
1114.542, 364.6651
1115.024, 364.8386
1115.506, 365.6789
1115.988, 365.5129
1116.470, 364.2185
1116.952, 363.1370
1117.434, 363.2306
1117.916, 363.9594
1118.398, 365.3156
1118.880, 366.7806
1119.363, 367.0075
1119.845, 364.8921
1120.327, 363.6325
1120.809, 363.5992
1121.291, 363.9410
1121.773, 363.8201
1122.255, 363.4893
1122.737, 363.4208
1123.220, 363.5951
1123.702, 363.7065
1124.184, 363.6397
1124.666, 363.5007
1125.148, 363.2657
1125.630, 363.0284
1126.112, 362.9330
1126.594, 362.9622
1127.077, 363.0765
1127.559, 363.2747
1128.041, 363.5011
1128.523, 363.8390
1129.005, 364.0734
1129.487, 364.0688
1129.969, 363.9217
1130.451, 363.8989
1130.933, 364.0023
1131.416, 364.3034
1131.898, 364.8966
1132.380, 365.3647
1132.862, 365.4854
1133.344, 365.2935
1133.826, 364.5285
1134.308, 363.2857
1134.790, 363.7754
1135.272, 366.0548
1135.755, 367.5818
1136.237, 367.0264
1136.719, 365.8668
1137.201, 365.3181
1137.683, 365.0818
1138.165, 364.7801
1138.647, 364.3494
1139.129, 364.0237
1139.612, 363.8130
1140.094, 363.6687
1140.576, 363.5606
1141.058, 363.5080
1141.540, 363.7167
1142.022, 363.9680
1142.504, 363.7684
1142.986, 362.4392
1143.469, 361.8368
1143.951, 362.1325
1144.433, 362.7514
1144.915, 363.3191
1145.397, 363.8114
1145.879, 364.2710
1146.361, 364.6366
1146.843, 364.6665
1147.325, 363.7829
1147.807, 363.3026
1148.290, 363.4939
1148.772, 363.9327
1149.254, 364.1231
1149.736, 364.1446
1150.218, 364.2307
1150.700, 364.3860
1151.182, 364.4507
1151.664, 364.0557
1152.147, 363.9785
1152.629, 364.6115
1153.111, 365.4626
1153.593, 365.6319
1154.075, 365.2125
1154.557, 364.4315
1155.039, 363.2856
1155.521, 362.5294
1156.004, 362.8399
1156.486, 363.3914
1156.968, 363.9171
1157.450, 364.3114
1157.932, 364.0631
1158.414, 363.3032
1158.896, 362.9873
1159.378, 363.4071
1159.860, 364.0273
1160.343, 364.9761
1160.825, 365.5358
1161.307, 364.9759
1161.789, 363.5391
1162.271, 363.1079
1162.753, 363.6509
1163.235, 364.5443
1163.717, 365.8271
1164.199, 366.7318
1164.682, 366.2437
1165.164, 365.3114
1165.646, 364.8913
1166.128, 365.0315
1166.610, 364.9879
1167.092, 363.6557
1167.574, 364.6331
1168.056, 365.2061
1168.539, 365.3966
1169.021, 364.0585
1169.503, 364.6942
1169.985, 364.5389
1170.467, 364.3511
1170.949, 365.2646
1171.431, 364.1488
1171.913, 365.0448
1172.396, 365.1379
1172.878, 365.5984
1173.360, 365.2629
1173.842, 365.1734
1174.324, 365.8799
1174.806, 366.1457
1175.288, 365.7186
1175.770, 366.2025
1176.252, 365.0589
1176.734, 365.3434
1177.217, 366.2442
1177.699, 365.8572
1178.181, 366.3556
1178.663, 366.5168
1179.145, 365.1455
1179.627, 366.4393
1180.109, 366.5806
1180.591, 365.5384
1181.074, 366.7410
1181.556, 365.8620
1182.038, 365.7260
1182.520, 366.1490
1183.002, 365.9893
1183.484, 366.7484
1183.966, 366.6223
1184.448, 366.4171
1184.931, 366.5572
1185.413, 365.7190
1185.895, 366.6955
1186.377, 366.4323
1186.859, 366.7854
1187.341, 367.2782
1187.823, 366.7015
1188.305, 367.2570
1188.787, 366.0568
1189.270, 366.3257
1189.752, 366.4364
1190.234, 367.4860
1190.716, 366.2944
1191.198, 367.4247
1191.680, 367.5046
1192.162, 367.6229
1192.644, 367.8651
1193.126, 368.3282
1193.609, 368.7877
1194.091, 368.8879
1194.573, 368.7200
1195.055, 368.3497
1195.537, 367.7694
1196.019, 367.4959
1196.501, 367.8322
1196.983, 368.1214
1197.466, 368.1271
1197.948, 368.0441
1198.430, 368.2666
1198.912, 368.6552
1199.394, 368.8656
1199.876, 368.7595
1200.358, 369.0605
1200.840, 370.3598
1201.323, 371.2484
1201.805, 371.1222
1202.287, 370.4182
1202.769, 369.9398
1203.251, 369.6017
1203.733, 369.1391
1204.215, 368.3322
1204.697, 368.2521
1205.179, 369.5923
1205.661, 370.6648
1206.144, 370.6576
1206.626, 369.9974
1207.108, 369.4804
1207.590, 369.0933
1208.072, 368.7799
1208.554, 368.4478
1209.036, 368.5169
1209.518, 369.2622
1210.001, 369.9124
1210.483, 369.9383
1210.965, 369.7230
1211.447, 370.5071
1211.929, 371.7138
1212.411, 371.9737
1212.893, 370.1650
1213.375, 369.4444
1213.858, 370.6573
1214.340, 371.8814
1214.822, 371.9811
1215.304, 371.3994
1215.786, 371.0428
1216.268, 370.8849
1216.750, 370.8916
1217.232, 371.1821
1217.714, 371.3514
1218.197, 371.3246
1218.679, 371.2846
1219.161, 371.4327
1219.643, 371.5872
1220.125, 371.2237
1220.607, 370.5697
1221.089, 370.1557
1221.571, 370.2847
1222.053, 370.3668
1222.536, 370.2596
1223.018, 370.3936
1223.500, 371.4326
1223.982, 372.6709
1224.464, 372.4311
1224.946, 371.3079
1225.428, 370.6491
1225.910, 371.1673
1226.393, 371.7022
1226.875, 372.3094
1227.357, 372.7024
1227.839, 372.5706
1228.321, 372.1499
1228.803, 371.8163
1229.285, 371.5074
1229.767, 371.0553
1230.250, 369.8866
1230.732, 369.8105
1231.214, 371.1472
1231.696, 372.4106
1232.178, 372.0712
1232.660, 371.2599
1233.142, 371.7300
1233.624, 372.9322
1234.106, 373.5196
1234.589, 373.0049
1235.071, 372.7247
1235.553, 372.7750
1236.035, 372.7135
1236.517, 371.9095
1236.999, 371.0461
1237.481, 371.0547
1237.963, 371.5880
1238.445, 371.8239
1238.928, 371.5841
1239.410, 371.4163
1239.892, 371.3190
1240.374, 371.4213
1240.856, 372.0059
1241.338, 372.6591
1241.820, 373.0847
1242.302, 373.2735
1242.785, 373.2195
1243.267, 372.8824
1243.749, 372.5395
1244.231, 372.1985
1244.713, 371.9856
1245.195, 372.0315
1245.677, 372.2041
1246.159, 372.4617
1246.641, 372.7587
1247.124, 373.0285
1247.606, 373.2783
1248.088, 373.3150
1248.570, 373.1349
1249.052, 373.1347
1249.534, 373.8824
1250.016, 374.5580
1250.498, 374.5688
1250.980, 374.2601
1251.463, 374.1151
1251.945, 374.1269
1252.427, 373.7078
1252.909, 372.9054
1253.391, 372.5187
1253.873, 373.7762
1254.355, 374.6689
1254.837, 373.8931
1255.320, 372.6865
1255.802, 372.4144
1256.284, 372.9480
1256.766, 373.5988
1257.248, 374.3094
1257.730, 374.9141
1258.212, 375.4209
1258.694, 375.6611
1259.177, 375.5361
1259.659, 375.2460
1260.141, 374.9295
1260.623, 374.6250
1261.105, 374.4411
1261.587, 374.3883
1262.069, 374.4973
1262.551, 375.3450
1263.033, 375.4026
1263.516, 374.1780
1263.998, 372.8245
1264.480, 372.4590
1264.962, 372.7867
1265.444, 373.4723
1265.926, 374.3256
1266.408, 374.7528
1266.890, 374.4489
1267.372, 373.8917
1267.855, 372.9527
1268.337, 372.3097
1268.819, 372.7953
1269.301, 373.7560
1269.783, 374.3139
1270.265, 374.5848
1270.747, 374.9858
1271.229, 375.7663
1271.712, 375.8893
1272.194, 375.2012
1272.676, 374.6686
1273.158, 375.2739
1273.640, 376.1565
1274.122, 376.4575
1274.604, 376.4681
1275.086, 376.8660
1275.568, 377.8354
1276.051, 377.8902
1276.533, 376.9821
1277.015, 376.1501
1277.497, 376.1756
1277.979, 376.3750
1278.461, 376.3068
1278.943, 376.1956
1279.425, 376.3723
1279.907, 376.8326
1280.390, 377.0038
1280.872, 376.9111
1281.354, 376.8072
1281.836, 376.8976
1282.318, 376.9153
1282.800, 376.6860
1283.282, 376.4373
1283.764, 376.3241
1284.247, 376.3548
1284.729, 376.7097
1285.211, 377.2700
1285.693, 377.5941
1286.175, 377.3697
1286.657, 377.0483
1287.139, 376.5770
1287.621, 376.2517
1288.104, 376.4417
1288.586, 376.8550
1289.068, 376.7562
1289.550, 376.4005
1290.032, 376.3889
1290.514, 377.2393
1290.996, 377.7533
1291.478, 377.9073
1291.960, 377.8376
1292.443, 377.5733
1292.925, 377.2010
1293.407, 376.5161
1293.889, 375.9168
1294.371, 376.2551
1294.853, 377.8434
1295.335, 378.4692
1295.817, 378.1113
1296.299, 377.6501
1296.782, 377.3609
1297.264, 377.4019
1297.746, 378.4869
1298.228, 379.4709
1298.710, 378.9996
1299.192, 377.2505
1299.674, 377.2887
1300.156, 378.8021
1300.639, 379.6996
1301.121, 378.8360
1301.603, 377.9716
1302.085, 377.9073
1302.567, 378.2212
1303.049, 378.7497
1303.531, 379.4245
##END=



