##NAMES=Hydrocerussite
##RRUFFID=R160062
##IDEAL CHEMISTRY=Pb^2+^_3_(CO_3_)_2_(OH)_2_
##LOCALITY=Tiger, Pinal County, Arizona, USA
##OWNER=University of Arizona Mineral Museum
##SOURCE=University of Arizona Mineral Museum
##DESCRIPTION=Colorless massive crystals, associated with pale bluish leadhillite and colorless susannite. Both leadhillite and susannite show good cleavage.
##STATUS=The identification of this mineral has been confirmed by single-crystal X-ray diffraction.
##URL=rruff.info/R160062
9.059570e+001, 1.246312e+003
9.107782e+001, 1.216636e+003
9.155994e+001, 1.206145e+003
9.204205e+001, 1.226985e+003
9.252417e+001, 1.258872e+003
9.300629e+001, 1.295793e+003
9.348840e+001, 1.328433e+003
9.397052e+001, 1.347145e+003
9.445264e+001, 1.347130e+003
9.493475e+001, 1.346127e+003
9.541687e+001, 1.344108e+003
9.589898e+001, 1.341682e+003
9.638110e+001, 1.339624e+003
9.686321e+001, 1.338720e+003
9.734533e+001, 1.338390e+003
9.782745e+001, 1.335716e+003
9.830956e+001, 1.333444e+003
9.879168e+001, 1.331756e+003
9.927380e+001, 1.330808e+003
9.975591e+001, 1.329951e+003
1.002380e+002, 1.329386e+003
1.007201e+002, 1.330180e+003
1.012023e+002, 1.333200e+003
1.016844e+002, 1.338063e+003
1.021665e+002, 1.342493e+003
1.026486e+002, 1.346397e+003
1.031307e+002, 1.349803e+003
1.036128e+002, 1.352424e+003
1.040950e+002, 1.354009e+003
1.045771e+002, 1.355812e+003
1.050592e+002, 1.357883e+003
1.055413e+002, 1.360349e+003
1.060234e+002, 1.363742e+003
1.065055e+002, 1.369089e+003
1.069877e+002, 1.375619e+003
1.074698e+002, 1.380278e+003
1.079519e+002, 1.382205e+003
1.084340e+002, 1.382904e+003
1.089161e+002, 1.383194e+003
1.093982e+002, 1.382897e+003
1.098804e+002, 1.381514e+003
1.103625e+002, 1.378376e+003
1.108446e+002, 1.373088e+003
1.113267e+002, 1.368028e+003
1.118088e+002, 1.363491e+003
1.122909e+002, 1.358896e+003
1.127731e+002, 1.354212e+003
1.132552e+002, 1.349314e+003
1.137373e+002, 1.343785e+003
1.142194e+002, 1.337042e+003
1.147015e+002, 1.328017e+003
1.151836e+002, 1.319449e+003
1.156658e+002, 1.311962e+003
1.161479e+002, 1.304598e+003
1.166300e+002, 1.296328e+003
1.171121e+002, 1.286734e+003
1.175942e+002, 1.276331e+003
1.180763e+002, 1.266311e+003
1.185584e+002, 1.256494e+003
1.190406e+002, 1.247209e+003
1.195227e+002, 1.238692e+003
1.200048e+002, 1.230814e+003
1.204869e+002, 1.223056e+003
1.209690e+002, 1.214887e+003
1.214511e+002, 1.207098e+003
1.219333e+002, 1.200959e+003
1.224154e+002, 1.197010e+003
1.228975e+002, 1.193747e+003
1.233796e+002, 1.189970e+003
1.238617e+002, 1.185606e+003
1.243438e+002, 1.181215e+003
1.248260e+002, 1.176915e+003
1.253081e+002, 1.172789e+003
1.257902e+002, 1.169105e+003
1.262723e+002, 1.166324e+003
1.267544e+002, 1.163620e+003
1.272365e+002, 1.159264e+003
1.277187e+002, 1.153204e+003
1.282008e+002, 1.145199e+003
1.286829e+002, 1.136129e+003
1.291650e+002, 1.125285e+003
1.296471e+002, 1.111734e+003
1.301292e+002, 1.094789e+003
1.306114e+002, 1.074569e+003
1.310935e+002, 1.052702e+003
1.315756e+002, 1.027530e+003
1.320577e+002, 1.002044e+003
1.325398e+002, 9.765612e+002
1.330219e+002, 9.513135e+002
1.335041e+002, 9.267123e+002
1.339862e+002, 9.029749e+002
1.344683e+002, 8.799849e+002
1.349504e+002, 8.584667e+002
1.354325e+002, 8.380379e+002
1.359146e+002, 8.189783e+002
1.363968e+002, 8.015727e+002
1.368789e+002, 7.858160e+002
1.373610e+002, 7.714827e+002
1.378431e+002, 7.587057e+002
1.383252e+002, 7.477372e+002
1.388073e+002, 7.371281e+002
1.392895e+002, 7.263066e+002
1.397716e+002, 7.159614e+002
1.402537e+002, 7.070251e+002
1.407358e+002, 6.998737e+002
1.412179e+002, 6.936336e+002
1.417000e+002, 6.873693e+002
1.421821e+002, 6.810920e+002
1.426643e+002, 6.749340e+002
1.431464e+002, 6.688930e+002
1.436285e+002, 6.630078e+002
1.441106e+002, 6.573938e+002
1.445927e+002, 6.521885e+002
1.450748e+002, 6.471746e+002
1.455570e+002, 6.419418e+002
1.460391e+002, 6.365082e+002
1.465212e+002, 6.314708e+002
1.470033e+002, 6.275125e+002
1.474854e+002, 6.247449e+002
1.479675e+002, 6.219064e+002
1.484497e+002, 6.189255e+002
1.489318e+002, 6.156556e+002
1.494139e+002, 6.116728e+002
1.498960e+002, 6.069750e+002
1.503781e+002, 6.023488e+002
1.508602e+002, 5.990452e+002
1.513424e+002, 5.975037e+002
1.518245e+002, 5.963932e+002
1.523066e+002, 5.957594e+002
1.527887e+002, 5.952981e+002
1.532708e+002, 5.947596e+002
1.537529e+002, 5.940557e+002
1.542351e+002, 5.932773e+002
1.547172e+002, 5.926521e+002
1.551993e+002, 5.922407e+002
1.556814e+002, 5.919453e+002
1.561635e+002, 5.916252e+002
1.566456e+002, 5.914523e+002
1.571278e+002, 5.916513e+002
1.576099e+002, 5.923405e+002
1.580920e+002, 5.934424e+002
1.585741e+002, 5.946602e+002
1.590562e+002, 5.960396e+002
1.595383e+002, 5.974597e+002
1.600205e+002, 5.986127e+002
1.605026e+002, 5.997545e+002
1.609847e+002, 6.015507e+002
1.614668e+002, 6.045060e+002
1.619489e+002, 6.083485e+002
1.624310e+002, 6.116896e+002
1.629131e+002, 6.147012e+002
1.633953e+002, 6.171165e+002
1.638774e+002, 6.185106e+002
1.643595e+002, 6.189750e+002
1.648416e+002, 6.193766e+002
1.653237e+002, 6.202924e+002
1.658058e+002, 6.215060e+002
1.662880e+002, 6.225248e+002
1.667701e+002, 6.234739e+002
1.672522e+002, 6.240746e+002
1.677343e+002, 6.239282e+002
1.682164e+002, 6.229372e+002
1.686985e+002, 6.216624e+002
1.691807e+002, 6.204771e+002
1.696628e+002, 6.192036e+002
1.701449e+002, 6.175792e+002
1.706270e+002, 6.155335e+002
1.711091e+002, 6.130670e+002
1.715912e+002, 6.102245e+002
1.720734e+002, 6.071615e+002
1.725555e+002, 6.033390e+002
1.730376e+002, 5.984698e+002
1.735197e+002, 5.928608e+002
1.740018e+002, 5.868882e+002
1.744839e+002, 5.807660e+002
1.749661e+002, 5.744846e+002
1.754482e+002, 5.680594e+002
1.759303e+002, 5.616778e+002
1.764124e+002, 5.548769e+002
1.768945e+002, 5.475917e+002
1.773766e+002, 5.398236e+002
1.778588e+002, 5.315904e+002
1.783409e+002, 5.227620e+002
1.788230e+002, 5.133110e+002
1.793051e+002, 5.046226e+002
1.797872e+002, 4.975292e+002
1.802693e+002, 4.903600e+002
1.807515e+002, 4.825578e+002
1.812336e+002, 4.742417e+002
1.817157e+002, 4.659082e+002
1.821978e+002, 4.579540e+002
1.826799e+002, 4.504043e+002
1.831620e+002, 4.430602e+002
1.836441e+002, 4.361217e+002
1.841263e+002, 4.291623e+002
1.846084e+002, 4.218456e+002
1.850905e+002, 4.142566e+002
1.855726e+002, 4.068437e+002
1.860547e+002, 4.000557e+002
1.865368e+002, 3.939894e+002
1.870190e+002, 3.881559e+002
1.875011e+002, 3.827062e+002
1.879832e+002, 3.774203e+002
1.884653e+002, 3.721396e+002
1.889474e+002, 3.668699e+002
1.894296e+002, 3.616589e+002
1.899117e+002, 3.564906e+002
1.903938e+002, 3.514048e+002
1.908759e+002, 3.467063e+002
1.913580e+002, 3.427285e+002
1.918401e+002, 3.390437e+002
1.923223e+002, 3.350565e+002
1.928044e+002, 3.306104e+002
1.932865e+002, 3.263028e+002
1.937686e+002, 3.228234e+002
1.942507e+002, 3.199653e+002
1.947328e+002, 3.172679e+002
1.952150e+002, 3.145543e+002
1.956971e+002, 3.119033e+002
1.961792e+002, 3.095255e+002
1.966613e+002, 3.075858e+002
1.971434e+002, 3.055873e+002
1.976255e+002, 3.031249e+002
1.981077e+002, 3.003084e+002
1.985898e+002, 2.974422e+002
1.990719e+002, 2.944272e+002
1.995540e+002, 2.914106e+002
2.000361e+002, 2.891429e+002
2.005182e+002, 2.881785e+002
2.010004e+002, 2.872282e+002
2.014825e+002, 2.855994e+002
2.019646e+002, 2.834466e+002
2.024467e+002, 2.811784e+002
2.029288e+002, 2.789893e+002
2.034109e+002, 2.768857e+002
2.038930e+002, 2.750646e+002
2.043752e+002, 2.737677e+002
2.048573e+002, 2.725407e+002
2.053394e+002, 2.712572e+002
2.058215e+002, 2.699144e+002
2.063036e+002, 2.685292e+002
2.067857e+002, 2.671297e+002
2.072679e+002, 2.657195e+002
2.077500e+002, 2.642238e+002
2.082321e+002, 2.624679e+002
2.087142e+002, 2.607803e+002
2.091963e+002, 2.592846e+002
2.096784e+002, 2.579568e+002
2.101606e+002, 2.567233e+002
2.106427e+002, 2.555546e+002
2.111248e+002, 2.545016e+002
2.116069e+002, 2.531032e+002
2.120890e+002, 2.506538e+002
2.125711e+002, 2.485422e+002
2.130533e+002, 2.475956e+002
2.135354e+002, 2.475716e+002
2.140175e+002, 2.475667e+002
2.144996e+002, 2.467405e+002
2.149817e+002, 2.449509e+002
2.154638e+002, 2.432769e+002
2.159460e+002, 2.415363e+002
2.164281e+002, 2.400315e+002
2.169102e+002, 2.389931e+002
2.173923e+002, 2.383682e+002
2.178744e+002, 2.378939e+002
2.183565e+002, 2.373807e+002
2.188387e+002, 2.368429e+002
2.193208e+002, 2.359448e+002
2.198029e+002, 2.344639e+002
2.202850e+002, 2.328478e+002
2.207671e+002, 2.312769e+002
2.212492e+002, 2.297934e+002
2.217314e+002, 2.284704e+002
2.222135e+002, 2.273767e+002
2.226956e+002, 2.265417e+002
2.231777e+002, 2.258270e+002
2.236598e+002, 2.252586e+002
2.241419e+002, 2.247868e+002
2.246240e+002, 2.244604e+002
2.251062e+002, 2.242632e+002
2.255883e+002, 2.239653e+002
2.260704e+002, 2.233629e+002
2.265525e+002, 2.224697e+002
2.270346e+002, 2.215205e+002
2.275167e+002, 2.204814e+002
2.279989e+002, 2.194232e+002
2.284810e+002, 2.183228e+002
2.289631e+002, 2.171704e+002
2.294452e+002, 2.163028e+002
2.299273e+002, 2.162038e+002
2.304094e+002, 2.165940e+002
2.308916e+002, 2.166861e+002
2.313737e+002, 2.161432e+002
2.318558e+002, 2.153619e+002
2.323379e+002, 2.148416e+002
2.328200e+002, 2.146367e+002
2.333021e+002, 2.143076e+002
2.337843e+002, 2.133817e+002
2.342664e+002, 2.121778e+002
2.347485e+002, 2.111766e+002
2.352306e+002, 2.105291e+002
2.357127e+002, 2.101099e+002
2.361948e+002, 2.098075e+002
2.366770e+002, 2.096720e+002
2.371591e+002, 2.094355e+002
2.376412e+002, 2.087052e+002
2.381233e+002, 2.078733e+002
2.386054e+002, 2.074628e+002
2.390875e+002, 2.078537e+002
2.395697e+002, 2.084151e+002
2.400518e+002, 2.079697e+002
2.405339e+002, 2.061026e+002
2.410160e+002, 2.045594e+002
2.414981e+002, 2.045682e+002
2.419802e+002, 2.049866e+002
2.424624e+002, 2.046255e+002
2.429445e+002, 2.029473e+002
2.434266e+002, 2.007554e+002
2.439087e+002, 1.994600e+002
2.443908e+002, 1.993546e+002
2.448729e+002, 1.993707e+002
2.453550e+002, 1.994251e+002
2.458372e+002, 1.993584e+002
2.463193e+002, 1.989785e+002
2.468014e+002, 1.982077e+002
2.472835e+002, 1.972455e+002
2.477656e+002, 1.963797e+002
2.482477e+002, 1.955352e+002
2.487299e+002, 1.949998e+002
2.492120e+002, 1.953366e+002
2.496941e+002, 1.956671e+002
2.501762e+002, 1.951581e+002
2.506583e+002, 1.935808e+002
2.511404e+002, 1.916138e+002
2.516226e+002, 1.904313e+002
2.521047e+002, 1.904905e+002
2.525868e+002, 1.903293e+002
2.530689e+002, 1.895416e+002
2.535510e+002, 1.886985e+002
2.540331e+002, 1.882295e+002
2.545153e+002, 1.882325e+002
2.549974e+002, 1.884653e+002
2.554795e+002, 1.885452e+002
2.559616e+002, 1.883161e+002
2.564437e+002, 1.882827e+002
2.569258e+002, 1.885082e+002
2.574080e+002, 1.888516e+002
2.578901e+002, 1.891928e+002
2.583722e+002, 1.895248e+002
2.588543e+002, 1.899622e+002
2.593364e+002, 1.906897e+002
2.598185e+002, 1.918938e+002
2.603007e+002, 1.929173e+002
2.607828e+002, 1.937399e+002
2.612649e+002, 1.944492e+002
2.617470e+002, 1.949770e+002
2.622291e+002, 1.953865e+002
2.627112e+002, 1.959225e+002
2.631934e+002, 1.969079e+002
2.636755e+002, 1.985424e+002
2.641576e+002, 1.998989e+002
2.646397e+002, 2.007039e+002
2.651218e+002, 2.015101e+002
2.656039e+002, 2.027003e+002
2.660861e+002, 2.042257e+002
2.665682e+002, 2.057329e+002
2.670503e+002, 2.068713e+002
2.675324e+002, 2.075797e+002
2.680145e+002, 2.082542e+002
2.684966e+002, 2.090340e+002
2.689788e+002, 2.096664e+002
2.694609e+002, 2.099928e+002
2.699430e+002, 2.100451e+002
2.704251e+002, 2.099607e+002
2.709072e+002, 2.098396e+002
2.713893e+002, 2.096813e+002
2.718715e+002, 2.095255e+002
2.723536e+002, 2.094712e+002
2.728357e+002, 2.093247e+002
2.733178e+002, 2.089937e+002
2.737999e+002, 2.085007e+002
2.742820e+002, 2.079575e+002
2.747642e+002, 2.074805e+002
2.752463e+002, 2.070226e+002
2.757284e+002, 2.059667e+002
2.762105e+002, 2.039388e+002
2.766926e+002, 2.018713e+002
2.771747e+002, 2.001223e+002
2.776568e+002, 1.985633e+002
2.781389e+002, 1.968945e+002
2.786211e+002, 1.949461e+002
2.791032e+002, 1.927757e+002
2.795853e+002, 1.905979e+002
2.800674e+002, 1.882229e+002
2.805495e+002, 1.860500e+002
2.810316e+002, 1.843312e+002
2.815138e+002, 1.828639e+002
2.819959e+002, 1.813012e+002
2.824780e+002, 1.795018e+002
2.829601e+002, 1.775051e+002
2.834422e+002, 1.754086e+002
2.839243e+002, 1.730104e+002
2.844065e+002, 1.708799e+002
2.848886e+002, 1.692742e+002
2.853707e+002, 1.679696e+002
2.858528e+002, 1.666957e+002
2.863349e+002, 1.653820e+002
2.868170e+002, 1.639478e+002
2.872992e+002, 1.621565e+002
2.877813e+002, 1.598251e+002
2.882634e+002, 1.578083e+002
2.887455e+002, 1.563538e+002
2.892276e+002, 1.552492e+002
2.897097e+002, 1.543184e+002
2.901919e+002, 1.535291e+002
2.906740e+002, 1.527497e+002
2.911561e+002, 1.517947e+002
2.916382e+002, 1.506418e+002
2.921203e+002, 1.495036e+002
2.926024e+002, 1.484170e+002
2.930846e+002, 1.473443e+002
2.935667e+002, 1.461930e+002
2.940488e+002, 1.449522e+002
2.945309e+002, 1.438356e+002
2.950130e+002, 1.430973e+002
2.954951e+002, 1.427437e+002
2.959773e+002, 1.422289e+002
2.964594e+002, 1.413311e+002
2.969415e+002, 1.404115e+002
2.974236e+002, 1.397507e+002
2.979057e+002, 1.393526e+002
2.983878e+002, 1.390739e+002
2.988700e+002, 1.388675e+002
2.993521e+002, 1.386981e+002
2.998342e+002, 1.383848e+002
3.003163e+002, 1.378102e+002
3.007984e+002, 1.372043e+002
3.012805e+002, 1.364839e+002
3.017627e+002, 1.357658e+002
3.022448e+002, 1.356654e+002
3.027269e+002, 1.367994e+002
3.032090e+002, 1.385522e+002
3.036911e+002, 1.390963e+002
3.041732e+002, 1.379799e+002
3.046554e+002, 1.365569e+002
3.051375e+002, 1.352400e+002
3.056196e+002, 1.340628e+002
3.061017e+002, 1.331340e+002
3.065838e+002, 1.325305e+002
3.070659e+002, 1.321339e+002
3.075481e+002, 1.317153e+002
3.080302e+002, 1.312337e+002
3.085123e+002, 1.308694e+002
3.089944e+002, 1.309164e+002
3.094765e+002, 1.310721e+002
3.099586e+002, 1.306909e+002
3.104408e+002, 1.295124e+002
3.109229e+002, 1.282041e+002
3.114050e+002, 1.278271e+002
3.118871e+002, 1.284202e+002
3.123692e+002, 1.286142e+002
3.128513e+002, 1.277887e+002
3.133335e+002, 1.265871e+002
3.138156e+002, 1.257620e+002
3.142977e+002, 1.254286e+002
3.147798e+002, 1.252951e+002
3.152619e+002, 1.251631e+002
3.157440e+002, 1.250193e+002
3.162262e+002, 1.247415e+002
3.167083e+002, 1.242355e+002
3.171904e+002, 1.236506e+002
3.176725e+002, 1.230911e+002
3.181546e+002, 1.225611e+002
3.186367e+002, 1.220506e+002
3.191188e+002, 1.215210e+002
3.196010e+002, 1.210181e+002
3.200831e+002, 1.206935e+002
3.205652e+002, 1.208773e+002
3.210473e+002, 1.209078e+002
3.215294e+002, 1.203116e+002
3.220115e+002, 1.192328e+002
3.224937e+002, 1.181500e+002
3.229758e+002, 1.172608e+002
3.234579e+002, 1.165421e+002
3.239400e+002, 1.159365e+002
3.244221e+002, 1.153784e+002
3.249042e+002, 1.150263e+002
3.253864e+002, 1.152434e+002
3.258685e+002, 1.156626e+002
3.263506e+002, 1.154987e+002
3.268327e+002, 1.144230e+002
3.273148e+002, 1.130035e+002
3.277969e+002, 1.121377e+002
3.282791e+002, 1.118930e+002
3.287612e+002, 1.116522e+002
3.292433e+002, 1.113233e+002
3.297254e+002, 1.109336e+002
3.302075e+002, 1.104761e+002
3.306896e+002, 1.099495e+002
3.311718e+002, 1.094793e+002
3.316539e+002, 1.092376e+002
3.321360e+002, 1.092463e+002
3.326181e+002, 1.090477e+002
3.331002e+002, 1.083813e+002
3.335823e+002, 1.076919e+002
3.340645e+002, 1.073179e+002
3.345466e+002, 1.072511e+002
3.350287e+002, 1.072662e+002
3.355108e+002, 1.072128e+002
3.359929e+002, 1.071092e+002
3.364750e+002, 1.070857e+002
3.369572e+002, 1.073150e+002
3.374393e+002, 1.074352e+002
3.379214e+002, 1.072337e+002
3.384035e+002, 1.068043e+002
3.388856e+002, 1.063544e+002
3.393677e+002, 1.059648e+002
3.398499e+002, 1.056479e+002
3.403320e+002, 1.054547e+002
3.408141e+002, 1.054166e+002
3.412962e+002, 1.054202e+002
3.417783e+002, 1.055740e+002
3.422604e+002, 1.057114e+002
3.427426e+002, 1.055297e+002
3.432247e+002, 1.049421e+002
3.437068e+002, 1.042968e+002
3.441889e+002, 1.041066e+002
3.446710e+002, 1.046252e+002
3.451531e+002, 1.048757e+002
3.456353e+002, 1.046585e+002
3.461174e+002, 1.043060e+002
3.465995e+002, 1.040529e+002
3.470816e+002, 1.039256e+002
3.475637e+002, 1.038378e+002
3.480458e+002, 1.037091e+002
3.485280e+002, 1.035345e+002
3.490101e+002, 1.034594e+002
3.494922e+002, 1.035093e+002
3.499743e+002, 1.036141e+002
3.504564e+002, 1.038283e+002
3.509385e+002, 1.040763e+002
3.514207e+002, 1.041724e+002
3.519028e+002, 1.039877e+002
3.523849e+002, 1.036131e+002
3.528670e+002, 1.034404e+002
3.533491e+002, 1.036704e+002
3.538312e+002, 1.038527e+002
3.543134e+002, 1.039173e+002
3.547955e+002, 1.039130e+002
3.552776e+002, 1.039106e+002
3.557597e+002, 1.039326e+002
3.562418e+002, 1.039213e+002
3.567239e+002, 1.037523e+002
3.572061e+002, 1.031619e+002
3.576882e+002, 1.029842e+002
3.581703e+002, 1.035965e+002
3.586524e+002, 1.042987e+002
3.591345e+002, 1.045525e+002
3.596166e+002, 1.043592e+002
3.600987e+002, 1.041231e+002
3.605808e+002, 1.042602e+002
3.610630e+002, 1.048300e+002
3.615451e+002, 1.051929e+002
3.620272e+002, 1.052382e+002
3.625093e+002, 1.052067e+002
3.629914e+002, 1.050911e+002
3.634735e+002, 1.049637e+002
3.639557e+002, 1.049277e+002
3.644378e+002, 1.050409e+002
3.649199e+002, 1.053053e+002
3.654020e+002, 1.057506e+002
3.658841e+002, 1.067494e+002
3.663662e+002, 1.073998e+002
3.668484e+002, 1.073187e+002
3.673305e+002, 1.069994e+002
3.678126e+002, 1.069132e+002
3.682947e+002, 1.072121e+002
3.687768e+002, 1.077350e+002
3.692589e+002, 1.082661e+002
3.697411e+002, 1.088554e+002
3.702232e+002, 1.093068e+002
3.707053e+002, 1.094739e+002
3.711874e+002, 1.096287e+002
3.716695e+002, 1.099012e+002
3.721516e+002, 1.102990e+002
3.726338e+002, 1.107809e+002
3.731159e+002, 1.113544e+002
3.735980e+002, 1.120103e+002
3.740801e+002, 1.124526e+002
3.745622e+002, 1.123719e+002
3.750443e+002, 1.124631e+002
3.755265e+002, 1.129809e+002
3.760086e+002, 1.138009e+002
3.764907e+002, 1.147549e+002
3.769728e+002, 1.158043e+002
3.774549e+002, 1.168521e+002
3.779370e+002, 1.176421e+002
3.784192e+002, 1.180429e+002
3.789013e+002, 1.185598e+002
3.793834e+002, 1.194600e+002
3.798655e+002, 1.204517e+002
3.803476e+002, 1.213144e+002
3.808297e+002, 1.220047e+002
3.813119e+002, 1.226273e+002
3.817940e+002, 1.232728e+002
3.822761e+002, 1.239423e+002
3.827582e+002, 1.246086e+002
3.832403e+002, 1.252470e+002
3.837224e+002, 1.259111e+002
3.842046e+002, 1.266086e+002
3.846867e+002, 1.273495e+002
3.851688e+002, 1.281895e+002
3.856509e+002, 1.293357e+002
3.861330e+002, 1.305632e+002
3.866151e+002, 1.312795e+002
3.870973e+002, 1.313336e+002
3.875794e+002, 1.314109e+002
3.880615e+002, 1.319538e+002
3.885436e+002, 1.327536e+002
3.890257e+002, 1.335429e+002
3.895078e+002, 1.342879e+002
3.899900e+002, 1.349815e+002
3.904721e+002, 1.356379e+002
3.909542e+002, 1.362500e+002
3.914363e+002, 1.367334e+002
3.919184e+002, 1.370230e+002
3.924005e+002, 1.372136e+002
3.928827e+002, 1.374250e+002
3.933648e+002, 1.376543e+002
3.938469e+002, 1.379234e+002
3.943290e+002, 1.384022e+002
3.948111e+002, 1.388752e+002
3.952932e+002, 1.389583e+002
3.957754e+002, 1.385786e+002
3.962575e+002, 1.380158e+002
3.967396e+002, 1.374500e+002
3.972217e+002, 1.368964e+002
3.977038e+002, 1.364540e+002
3.981859e+002, 1.362695e+002
3.986681e+002, 1.360686e+002
3.991501e+002, 1.356439e+002
3.996323e+002, 1.350412e+002
4.001144e+002, 1.344365e+002
4.005965e+002, 1.339181e+002
4.010786e+002, 1.334539e+002
4.015607e+002, 1.329614e+002
4.020428e+002, 1.324525e+002
4.025250e+002, 1.318987e+002
4.030071e+002, 1.312595e+002
4.034892e+002, 1.305874e+002
4.039713e+002, 1.299736e+002
4.044534e+002, 1.294333e+002
4.049355e+002, 1.288540e+002
4.054177e+002, 1.280921e+002
4.058998e+002, 1.271031e+002
4.063819e+002, 1.261704e+002
4.068640e+002, 1.254009e+002
4.073461e+002, 1.245839e+002
4.078282e+002, 1.235072e+002
4.083104e+002, 1.222892e+002
4.087925e+002, 1.212437e+002
4.092746e+002, 1.205725e+002
4.097567e+002, 1.201844e+002
4.102388e+002, 1.196408e+002
4.107209e+002, 1.187006e+002
4.112031e+002, 1.179193e+002
4.116852e+002, 1.175125e+002
4.121673e+002, 1.171890e+002
4.126494e+002, 1.166998e+002
4.131315e+002, 1.159693e+002
4.136136e+002, 1.150370e+002
4.140958e+002, 1.138794e+002
4.145779e+002, 1.123452e+002
4.150600e+002, 1.111787e+002
4.155421e+002, 1.108889e+002
4.160242e+002, 1.105056e+002
4.165063e+002, 1.095213e+002
4.169885e+002, 1.081271e+002
4.174706e+002, 1.068489e+002
4.179527e+002, 1.060271e+002
4.184348e+002, 1.055517e+002
4.189169e+002, 1.050718e+002
4.193990e+002, 1.046848e+002
4.198812e+002, 1.040728e+002
4.203633e+002, 1.029548e+002
4.208454e+002, 1.016852e+002
4.213275e+002, 1.006045e+002
4.218096e+002, 9.979858e+001
4.222917e+002, 9.906301e+001
4.227739e+002, 9.814851e+001
4.232560e+002, 9.707181e+001
4.237381e+002, 9.615914e+001
4.242202e+002, 9.550472e+001
4.247023e+002, 9.497042e+001
4.251844e+002, 9.442234e+001
4.256666e+002, 9.388454e+001
4.261487e+002, 9.344702e+001
4.266308e+002, 9.311169e+001
4.271129e+002, 9.291392e+001
4.275950e+002, 9.311198e+001
4.280771e+002, 9.375752e+001
4.285593e+002, 9.388414e+001
4.290414e+002, 9.270833e+001
4.295235e+002, 9.079705e+001
4.300056e+002, 8.946738e+001
4.304877e+002, 8.887865e+001
4.309698e+002, 8.851649e+001
4.314520e+002, 8.819650e+001
4.319341e+002, 8.791671e+001
4.324162e+002, 8.764255e+001
4.328983e+002, 8.735360e+001
4.333804e+002, 8.716438e+001
4.338625e+002, 8.721435e+001
4.343447e+002, 8.753159e+001
4.348268e+002, 8.796150e+001
4.353089e+002, 8.852464e+001
4.357910e+002, 8.917704e+001
4.362731e+002, 8.988915e+001
4.367552e+002, 9.066277e+001
4.372374e+002, 9.153452e+001
4.377195e+002, 9.254277e+001
4.382016e+002, 9.362890e+001
4.386837e+002, 9.455116e+001
4.391658e+002, 9.521414e+001
4.396479e+002, 9.583348e+001
4.401301e+002, 9.652656e+001
4.406122e+002, 9.712174e+001
4.410943e+002, 9.750166e+001
4.415764e+002, 9.761813e+001
4.420585e+002, 9.742195e+001
4.425406e+002, 9.686578e+001
4.430227e+002, 9.595630e+001
4.435049e+002, 9.462746e+001
4.439870e+002, 9.237906e+001
4.444691e+002, 9.022954e+001
4.449512e+002, 8.855622e+001
4.454333e+002, 8.719261e+001
4.459154e+002, 8.581711e+001
4.463976e+002, 8.427745e+001
4.468797e+002, 8.264494e+001
4.473618e+002, 8.104273e+001
4.478439e+002, 7.940701e+001
4.483260e+002, 7.799763e+001
4.488081e+002, 7.695386e+001
4.492903e+002, 7.608006e+001
4.497724e+002, 7.528481e+001
4.502545e+002, 7.455228e+001
4.507366e+002, 7.387858e+001
4.512187e+002, 7.328756e+001
4.517008e+002, 7.275789e+001
4.521830e+002, 7.219943e+001
4.526651e+002, 7.157642e+001
4.531472e+002, 7.101624e+001
4.536293e+002, 7.062495e+001
4.541114e+002, 7.033729e+001
4.545935e+002, 7.007069e+001
4.550757e+002, 6.980400e+001
4.555578e+002, 6.956486e+001
4.560399e+002, 6.940614e+001
4.565220e+002, 6.930315e+001
4.570041e+002, 6.912525e+001
4.574862e+002, 6.879891e+001
4.579684e+002, 6.846411e+001
4.584505e+002, 6.837600e+001
4.589326e+002, 6.853996e+001
4.594147e+002, 6.849741e+001
4.598968e+002, 6.792871e+001
4.603789e+002, 6.729282e+001
4.608611e+002, 6.703020e+001
4.613432e+002, 6.710619e+001
4.618253e+002, 6.718060e+001
4.623074e+002, 6.703074e+001
4.627895e+002, 6.673465e+001
4.632716e+002, 6.661655e+001
4.637538e+002, 6.699125e+001
4.642359e+002, 6.712128e+001
4.647180e+002, 6.668520e+001
4.652001e+002, 6.609417e+001
4.656822e+002, 6.578011e+001
4.661643e+002, 6.581743e+001
4.666465e+002, 6.599195e+001
4.671286e+002, 6.608421e+001
4.676107e+002, 6.609521e+001
4.680928e+002, 6.601348e+001
4.685749e+002, 6.569534e+001
4.690570e+002, 6.543669e+001
4.695392e+002, 6.524638e+001
4.700213e+002, 6.518611e+001
4.705034e+002, 6.543749e+001
4.709855e+002, 6.610091e+001
4.714676e+002, 6.679295e+001
4.719497e+002, 6.671777e+001
4.724319e+002, 6.562747e+001
4.729140e+002, 6.486162e+001
4.733961e+002, 6.473438e+001
4.738782e+002, 6.490069e+001
4.743603e+002, 6.535864e+001
4.748424e+002, 6.598735e+001
4.753246e+002, 6.639748e+001
4.758067e+002, 6.624468e+001
4.762888e+002, 6.575560e+001
4.767709e+002, 6.542668e+001
4.772530e+002, 6.528562e+001
4.777351e+002, 6.513438e+001
4.782173e+002, 6.482349e+001
4.786994e+002, 6.448299e+001
4.791815e+002, 6.432240e+001
4.796636e+002, 6.438689e+001
4.801457e+002, 6.449525e+001
4.806278e+002, 6.459423e+001
4.811100e+002, 6.466644e+001
4.815920e+002, 6.469250e+001
4.820742e+002, 6.467059e+001
4.825563e+002, 6.455202e+001
4.830384e+002, 6.422890e+001
4.835205e+002, 6.371730e+001
4.840026e+002, 6.350769e+001
4.844847e+002, 6.387367e+001
4.849669e+002, 6.422466e+001
4.854490e+002, 6.427585e+001
4.859311e+002, 6.415867e+001
4.864132e+002, 6.411318e+001
4.868953e+002, 6.422886e+001
4.873774e+002, 6.442986e+001
4.878596e+002, 6.460059e+001
4.883417e+002, 6.477094e+001
4.888238e+002, 6.482400e+001
4.893059e+002, 6.465953e+001
4.897880e+002, 6.449421e+001
4.902701e+002, 6.444027e+001
4.907523e+002, 6.447123e+001
4.912344e+002, 6.448952e+001
4.917165e+002, 6.442085e+001
4.921986e+002, 6.434654e+001
4.926807e+002, 6.454961e+001
4.931628e+002, 6.522034e+001
4.936450e+002, 6.564049e+001
4.941271e+002, 6.544811e+001
4.946092e+002, 6.510355e+001
4.950913e+002, 6.485994e+001
4.955734e+002, 6.474911e+001
4.960555e+002, 6.473579e+001
4.965377e+002, 6.486720e+001
4.970198e+002, 6.507265e+001
4.975019e+002, 6.516230e+001
4.979840e+002, 6.512759e+001
4.984661e+002, 6.499230e+001
4.989482e+002, 6.468378e+001
4.994304e+002, 6.431236e+001
4.999125e+002, 6.407907e+001
5.003946e+002, 6.399516e+001
5.008767e+002, 6.404449e+001
5.013588e+002, 6.437791e+001
5.018409e+002, 6.479768e+001
5.023231e+002, 6.489907e+001
5.028052e+002, 6.459557e+001
5.032873e+002, 6.422829e+001
5.037694e+002, 6.412531e+001
5.042515e+002, 6.429813e+001
5.047336e+002, 6.441000e+001
5.052158e+002, 6.447945e+001
5.056979e+002, 6.447578e+001
5.061800e+002, 6.427858e+001
5.066621e+002, 6.403374e+001
5.071442e+002, 6.400108e+001
5.076263e+002, 6.426427e+001
5.081085e+002, 6.461349e+001
5.085906e+002, 6.469402e+001
5.090727e+002, 6.436575e+001
5.095548e+002, 6.427563e+001
5.100369e+002, 6.473325e+001
5.105190e+002, 6.511936e+001
5.110012e+002, 6.519759e+001
5.114833e+002, 6.503097e+001
5.119654e+002, 6.474407e+001
5.124475e+002, 6.437095e+001
5.129296e+002, 6.399783e+001
5.134117e+002, 6.375153e+001
5.138939e+002, 6.362125e+001
5.143760e+002, 6.372440e+001
5.148581e+002, 6.438955e+001
5.153402e+002, 6.498599e+001
5.158223e+002, 6.494061e+001
5.163044e+002, 6.433018e+001
5.167866e+002, 6.369602e+001
5.172687e+002, 6.315928e+001
5.177508e+002, 6.278016e+001
5.182329e+002, 6.271652e+001
5.187150e+002, 6.294303e+001
5.191971e+002, 6.311678e+001
5.196793e+002, 6.305983e+001
5.201614e+002, 6.287318e+001
5.206435e+002, 6.279560e+001
5.211256e+002, 6.288127e+001
5.216077e+002, 6.289417e+001
5.220898e+002, 6.273574e+001
5.225720e+002, 6.252998e+001
5.230541e+002, 6.240423e+001
5.235362e+002, 6.234874e+001
5.240183e+002, 6.225146e+001
5.245004e+002, 6.202649e+001
5.249825e+002, 6.170233e+001
5.254647e+002, 6.141879e+001
5.259468e+002, 6.118566e+001
5.264289e+002, 6.098753e+001
5.269110e+002, 6.078997e+001
5.273931e+002, 6.064586e+001
5.278752e+002, 6.062613e+001
5.283574e+002, 6.072068e+001
5.288395e+002, 6.083595e+001
5.293216e+002, 6.092632e+001
5.298037e+002, 6.097225e+001
5.302858e+002, 6.079900e+001
5.307679e+002, 6.024176e+001
5.312501e+002, 5.985056e+001
5.317322e+002, 6.003443e+001
5.322143e+002, 6.042496e+001
5.326964e+002, 6.066585e+001
5.331785e+002, 6.069841e+001
5.336606e+002, 6.062226e+001
5.341428e+002, 6.033497e+001
5.346249e+002, 6.001729e+001
5.351070e+002, 6.022113e+001
5.355891e+002, 6.107164e+001
5.360712e+002, 6.167298e+001
5.365533e+002, 6.120439e+001
5.370355e+002, 5.988640e+001
5.375176e+002, 5.915554e+001
5.379997e+002, 5.953424e+001
5.384818e+002, 5.980205e+001
5.389639e+002, 5.945525e+001
5.394460e+002, 5.888100e+001
5.399282e+002, 5.855738e+001
5.404103e+002, 5.858232e+001
5.408924e+002, 5.876497e+001
5.413745e+002, 5.892302e+001
5.418566e+002, 5.905764e+001
5.423387e+002, 5.912828e+001
5.428209e+002, 5.916935e+001
5.433029e+002, 5.909486e+001
5.437850e+002, 5.874186e+001
5.442672e+002, 5.833522e+001
5.447493e+002, 5.816656e+001
5.452314e+002, 5.830243e+001
5.457135e+002, 5.848754e+001
5.461956e+002, 5.839738e+001
5.466777e+002, 5.806507e+001
5.471599e+002, 5.791145e+001
5.476420e+002, 5.804424e+001
5.481241e+002, 5.817438e+001
5.486062e+002, 5.805997e+001
5.490883e+002, 5.783719e+001
5.495704e+002, 5.774450e+001
5.500526e+002, 5.791061e+001
5.505347e+002, 5.802004e+001
5.510168e+002, 5.774450e+001
5.514989e+002, 5.729272e+001
5.519810e+002, 5.715961e+001
5.524631e+002, 5.745559e+001
5.529453e+002, 5.779136e+001
5.534274e+002, 5.780211e+001
5.539095e+002, 5.748500e+001
5.543916e+002, 5.717553e+001
5.548737e+002, 5.681348e+001
5.553558e+002, 5.652859e+001
5.558380e+002, 5.636847e+001
5.563201e+002, 5.629771e+001
5.568022e+002, 5.627541e+001
5.572843e+002, 5.629001e+001
5.577664e+002, 5.635886e+001
5.582485e+002, 5.653123e+001
5.587307e+002, 5.681493e+001
5.592128e+002, 5.694923e+001
5.596949e+002, 5.681535e+001
5.601770e+002, 5.669788e+001
5.606591e+002, 5.674527e+001
5.611412e+002, 5.683761e+001
5.616234e+002, 5.683272e+001
5.621055e+002, 5.669339e+001
5.625876e+002, 5.647276e+001
5.630697e+002, 5.610069e+001
5.635518e+002, 5.567710e+001
5.640339e+002, 5.560332e+001
5.645161e+002, 5.599207e+001
5.649982e+002, 5.638883e+001
5.654803e+002, 5.647170e+001
5.659624e+002, 5.628780e+001
5.664445e+002, 5.610306e+001
5.669266e+002, 5.586881e+001
5.674088e+002, 5.570220e+001
5.678909e+002, 5.573056e+001
5.683730e+002, 5.580737e+001
5.688551e+002, 5.570162e+001
5.693372e+002, 5.539907e+001
5.698193e+002, 5.512338e+001
5.703015e+002, 5.509662e+001
5.707836e+002, 5.530278e+001
5.712657e+002, 5.543371e+001
5.717478e+002, 5.541447e+001
5.722299e+002, 5.541868e+001
5.727120e+002, 5.556152e+001
5.731942e+002, 5.568402e+001
5.736763e+002, 5.561843e+001
5.741584e+002, 5.535021e+001
5.746405e+002, 5.502207e+001
5.751226e+002, 5.467632e+001
5.756047e+002, 5.436304e+001
5.760869e+002, 5.433789e+001
5.765690e+002, 5.467014e+001
5.770511e+002, 5.500562e+001
5.775332e+002, 5.523946e+001
5.780153e+002, 5.533372e+001
5.784974e+002, 5.519846e+001
5.789796e+002, 5.475574e+001
5.794617e+002, 5.443169e+001
5.799438e+002, 5.452188e+001
5.804259e+002, 5.473481e+001
5.809080e+002, 5.470271e+001
5.813901e+002, 5.443320e+001
5.818723e+002, 5.420162e+001
5.823544e+002, 5.419661e+001
5.828365e+002, 5.432876e+001
5.833186e+002, 5.428587e+001
5.838007e+002, 5.378830e+001
5.842828e+002, 5.354779e+001
5.847650e+002, 5.380233e+001
5.852471e+002, 5.411084e+001
5.857292e+002, 5.416197e+001
5.862113e+002, 5.399849e+001
5.866934e+002, 5.383770e+001
5.871755e+002, 5.379733e+001
5.876577e+002, 5.387833e+001
5.881398e+002, 5.418533e+001
5.886219e+002, 5.480343e+001
5.891040e+002, 5.503304e+001
5.895861e+002, 5.445042e+001
5.900682e+002, 5.370003e+001
5.905504e+002, 5.324825e+001
5.910325e+002, 5.310930e+001
5.915146e+002, 5.343034e+001
5.919967e+002, 5.484393e+001
5.924788e+002, 5.623916e+001
5.929609e+002, 5.656081e+001
5.934431e+002, 5.606456e+001
5.939252e+002, 5.550614e+001
5.944073e+002, 5.514944e+001
5.948894e+002, 5.490913e+001
5.953715e+002, 5.463764e+001
5.958536e+002, 5.424434e+001
5.963358e+002, 5.425308e+001
5.968179e+002, 5.518658e+001
5.973000e+002, 5.588204e+001
5.977821e+002, 5.552821e+001
5.982642e+002, 5.482752e+001
5.987463e+002, 5.495793e+001
5.992285e+002, 5.628884e+001
5.997106e+002, 5.778971e+001
6.001927e+002, 5.808355e+001
6.006748e+002, 5.722360e+001
6.011569e+002, 5.668838e+001
6.016390e+002, 5.662424e+001
6.021212e+002, 5.670681e+001
6.026033e+002, 5.677514e+001
6.030854e+002, 5.686893e+001
6.035675e+002, 5.705566e+001
6.040496e+002, 5.735673e+001
6.045317e+002, 5.771221e+001
6.050139e+002, 5.812380e+001
6.054960e+002, 5.855922e+001
6.059781e+002, 5.902457e+001
6.064602e+002, 5.949696e+001
6.069423e+002, 5.978854e+001
6.074244e+002, 5.972484e+001
6.079066e+002, 5.941159e+001
6.083887e+002, 5.933161e+001
6.088708e+002, 5.978118e+001
6.093529e+002, 6.004367e+001
6.098350e+002, 6.007013e+001
6.103171e+002, 5.992689e+001
6.107993e+002, 5.947930e+001
6.112814e+002, 5.888190e+001
6.117635e+002, 5.862623e+001
6.122456e+002, 5.918174e+001
6.127277e+002, 6.000399e+001
6.132098e+002, 5.982066e+001
6.136920e+002, 5.852854e+001
6.141741e+002, 5.742875e+001
6.146562e+002, 5.687334e+001
6.151383e+002, 5.655996e+001
6.156204e+002, 5.616233e+001
6.161025e+002, 5.571300e+001
6.165847e+002, 5.545488e+001
6.170668e+002, 5.560870e+001
6.175489e+002, 5.579798e+001
6.180310e+002, 5.578859e+001
6.185131e+002, 5.563864e+001
6.189952e+002, 5.544440e+001
6.194774e+002, 5.523972e+001
6.199595e+002, 5.508858e+001
6.204416e+002, 5.509014e+001
6.209237e+002, 5.526561e+001
6.214058e+002, 5.527004e+001
6.218879e+002, 5.500169e+001
6.223701e+002, 5.467698e+001
6.228522e+002, 5.425965e+001
6.233343e+002, 5.385542e+001
6.238164e+002, 5.360150e+001
6.242985e+002, 5.351328e+001
6.247806e+002, 5.343191e+001
6.252628e+002, 5.319222e+001
6.257448e+002, 5.286715e+001
6.262269e+002, 5.267208e+001
6.267090e+002, 5.262244e+001
6.271912e+002, 5.256670e+001
6.276733e+002, 5.244055e+001
6.281554e+002, 5.226337e+001
6.286375e+002, 5.203077e+001
6.291196e+002, 5.168828e+001
6.296017e+002, 5.153756e+001
6.300839e+002, 5.179781e+001
6.305660e+002, 5.210661e+001
6.310481e+002, 5.220807e+001
6.315302e+002, 5.215229e+001
6.320123e+002, 5.210088e+001
6.324944e+002, 5.212801e+001
6.329766e+002, 5.218851e+001
6.334587e+002, 5.221975e+001
6.339408e+002, 5.223384e+001
6.344229e+002, 5.214568e+001
6.349050e+002, 5.182278e+001
6.353871e+002, 5.157272e+001
6.358693e+002, 5.162238e+001
6.363514e+002, 5.179226e+001
6.368335e+002, 5.178704e+001
6.373156e+002, 5.150138e+001
6.377977e+002, 5.120290e+001
6.382798e+002, 5.106685e+001
6.387620e+002, 5.105483e+001
6.392441e+002, 5.112975e+001
6.397262e+002, 5.128104e+001
6.402083e+002, 5.139143e+001
6.406904e+002, 5.137457e+001
6.411725e+002, 5.127209e+001
6.416547e+002, 5.122315e+001
6.421368e+002, 5.126878e+001
6.426189e+002, 5.131025e+001
6.431010e+002, 5.132212e+001
6.435831e+002, 5.135197e+001
6.440652e+002, 5.144339e+001
6.445474e+002, 5.157792e+001
6.450295e+002, 5.172119e+001
6.455116e+002, 5.186652e+001
6.459937e+002, 5.195583e+001
6.464758e+002, 5.184000e+001
6.469579e+002, 5.152174e+001
6.474401e+002, 5.134631e+001
6.479222e+002, 5.141417e+001
6.484043e+002, 5.152909e+001
6.488864e+002, 5.155483e+001
6.493685e+002, 5.150866e+001
6.498506e+002, 5.144195e+001
6.503328e+002, 5.135041e+001
6.508149e+002, 5.125203e+001
6.512970e+002, 5.106736e+001
6.517791e+002, 5.092760e+001
6.522612e+002, 5.108342e+001
6.527433e+002, 5.149617e+001
6.532255e+002, 5.179767e+001
6.537076e+002, 5.169194e+001
6.541897e+002, 5.131438e+001
6.546718e+002, 5.119954e+001
6.551539e+002, 5.152908e+001
6.556360e+002, 5.167990e+001
6.561182e+002, 5.128422e+001
6.566003e+002, 5.093155e+001
6.570824e+002, 5.103013e+001
6.575645e+002, 5.145060e+001
6.580466e+002, 5.176024e+001
6.585287e+002, 5.176636e+001
6.590109e+002, 5.165090e+001
6.594930e+002, 5.152482e+001
6.599751e+002, 5.141593e+001
6.604572e+002, 5.144483e+001
6.609393e+002, 5.164305e+001
6.614214e+002, 5.178562e+001
6.619036e+002, 5.163875e+001
6.623857e+002, 5.124688e+001
6.628678e+002, 5.109203e+001
6.633499e+002, 5.151942e+001
6.638320e+002, 5.172779e+001
6.643141e+002, 5.143421e+001
6.647963e+002, 5.106230e+001
6.652784e+002, 5.098008e+001
6.657605e+002, 5.115222e+001
6.662426e+002, 5.127862e+001
6.667247e+002, 5.113594e+001
6.672068e+002, 5.090774e+001
6.676890e+002, 5.095729e+001
6.681711e+002, 5.127579e+001
6.686532e+002, 5.156588e+001
6.691353e+002, 5.178211e+001
6.696174e+002, 5.189941e+001
6.700995e+002, 5.182930e+001
6.705817e+002, 5.160427e+001
6.710638e+002, 5.154923e+001
6.715459e+002, 5.181320e+001
6.720280e+002, 5.206942e+001
6.725101e+002, 5.216949e+001
6.729922e+002, 5.223510e+001
6.734744e+002, 5.237827e+001
6.739565e+002, 5.262540e+001
6.744386e+002, 5.297730e+001
6.749207e+002, 5.344598e+001
6.754028e+002, 5.400478e+001
6.758849e+002, 5.454866e+001
6.763671e+002, 5.503999e+001
6.768492e+002, 5.569555e+001
6.773313e+002, 5.670758e+001
6.778134e+002, 5.773316e+001
6.782955e+002, 5.849320e+001
6.787776e+002, 5.904111e+001
6.792598e+002, 5.956108e+001
6.797419e+002, 6.016232e+001
6.802240e+002, 6.065923e+001
6.807061e+002, 6.096759e+001
6.811882e+002, 6.109137e+001
6.816703e+002, 6.098360e+001
6.821525e+002, 6.066503e+001
6.826346e+002, 6.032325e+001
6.831167e+002, 6.012679e+001
6.835988e+002, 6.001600e+001
6.840809e+002, 5.968946e+001
6.845630e+002, 5.908301e+001
6.850452e+002, 5.840298e+001
6.855273e+002, 5.750681e+001
6.860094e+002, 5.669856e+001
6.864915e+002, 5.619286e+001
6.869736e+002, 5.592655e+001
6.874557e+002, 5.567897e+001
6.879379e+002, 5.532600e+001
6.884200e+002, 5.504275e+001
6.889021e+002, 5.504081e+001
6.893842e+002, 5.521858e+001
6.898663e+002, 5.533921e+001
6.903484e+002, 5.536079e+001
6.908306e+002, 5.537437e+001
6.913127e+002, 5.545788e+001
6.917948e+002, 5.558864e+001
6.922769e+002, 5.564573e+001
6.927590e+002, 5.544904e+001
6.932411e+002, 5.547514e+001
6.937233e+002, 5.596369e+001
6.942054e+002, 5.646718e+001
6.946875e+002, 5.672218e+001
6.951696e+002, 5.676812e+001
6.956517e+002, 5.676324e+001
6.961339e+002, 5.678172e+001
6.966160e+002, 5.675965e+001
6.970981e+002, 5.653699e+001
6.975802e+002, 5.620782e+001
6.980623e+002, 5.619937e+001
6.985444e+002, 5.660777e+001
6.990266e+002, 5.684008e+001
6.995087e+002, 5.641371e+001
6.999908e+002, 5.553050e+001
7.004729e+002, 5.496667e+001
7.009550e+002, 5.497010e+001
7.014371e+002, 5.492445e+001
7.019193e+002, 5.472985e+001
7.024014e+002, 5.456932e+001
7.028835e+002, 5.458961e+001
7.033656e+002, 5.472711e+001
7.038477e+002, 5.483601e+001
7.043298e+002, 5.485395e+001
7.048120e+002, 5.482246e+001
7.052941e+002, 5.475250e+001
7.057762e+002, 5.466854e+001
7.062583e+002, 5.471033e+001
7.067404e+002, 5.490788e+001
7.072225e+002, 5.511853e+001
7.077046e+002, 5.528097e+001
7.081867e+002, 5.538625e+001
7.086688e+002, 5.541014e+001
7.091509e+002, 5.535243e+001
7.096331e+002, 5.521924e+001
7.101152e+002, 5.497225e+001
7.105973e+002, 5.468562e+001
7.110794e+002, 5.440459e+001
7.115615e+002, 5.411538e+001
7.120436e+002, 5.378719e+001
7.125258e+002, 5.340689e+001
7.130079e+002, 5.299658e+001
7.134900e+002, 5.251384e+001
7.139721e+002, 5.200481e+001
7.144542e+002, 5.176736e+001
7.149363e+002, 5.186143e+001
7.154185e+002, 5.189685e+001
7.159006e+002, 5.164753e+001
7.163827e+002, 5.129411e+001
7.168648e+002, 5.115713e+001
7.173469e+002, 5.127448e+001
7.178290e+002, 5.135386e+001
7.183112e+002, 5.133135e+001
7.187933e+002, 5.130854e+001
7.192754e+002, 5.136127e+001
7.197575e+002, 5.143501e+001
7.202396e+002, 5.142419e+001
7.207217e+002, 5.131487e+001
7.212039e+002, 5.123188e+001
7.216860e+002, 5.133876e+001
7.221681e+002, 5.156175e+001
7.226502e+002, 5.155433e+001
7.231323e+002, 5.126951e+001
7.236144e+002, 5.117070e+001
7.240966e+002, 5.151069e+001
7.245787e+002, 5.193579e+001
7.250608e+002, 5.199929e+001
7.255429e+002, 5.171029e+001
7.260250e+002, 5.151725e+001
7.265071e+002, 5.156722e+001
7.269893e+002, 5.156852e+001
7.274714e+002, 5.128865e+001
7.279535e+002, 5.098000e+001
7.284356e+002, 5.097145e+001
7.289177e+002, 5.126358e+001
7.293998e+002, 5.158664e+001
7.298820e+002, 5.174326e+001
7.303641e+002, 5.180202e+001
7.308462e+002, 5.195243e+001
7.313283e+002, 5.220194e+001
7.318104e+002, 5.228230e+001
7.322925e+002, 5.207239e+001
7.327747e+002, 5.184292e+001
7.332568e+002, 5.180797e+001
7.337389e+002, 5.194429e+001
7.342210e+002, 5.210530e+001
7.347031e+002, 5.240680e+001
7.351852e+002, 5.255237e+001
7.356674e+002, 5.230980e+001
7.361495e+002, 5.202652e+001
7.366316e+002, 5.204466e+001
7.371137e+002, 5.227736e+001
7.375958e+002, 5.238486e+001
7.380779e+002, 5.218595e+001
7.385601e+002, 5.192464e+001
7.390422e+002, 5.202722e+001
7.395243e+002, 5.244056e+001
7.400064e+002, 5.261415e+001
7.404885e+002, 5.244754e+001
7.409706e+002, 5.230738e+001
7.414528e+002, 5.242309e+001
7.419349e+002, 5.267659e+001
7.424170e+002, 5.281376e+001
7.428991e+002, 5.283008e+001
7.433812e+002, 5.276447e+001
7.438633e+002, 5.250122e+001
7.443455e+002, 5.228069e+001
7.448276e+002, 5.225426e+001
7.453097e+002, 5.234491e+001
7.457918e+002, 5.243467e+001
7.462739e+002, 5.248705e+001
7.467560e+002, 5.252593e+001
7.472382e+002, 5.262933e+001
7.477203e+002, 5.272797e+001
7.482024e+002, 5.251800e+001
7.486845e+002, 5.198710e+001
7.491666e+002, 5.167911e+001
7.496487e+002, 5.181858e+001
7.501309e+002, 5.214408e+001
7.506130e+002, 5.237115e+001
7.510951e+002, 5.249337e+001
7.515772e+002, 5.259749e+001
7.520593e+002, 5.264410e+001
7.525414e+002, 5.272363e+001
7.530236e+002, 5.293134e+001
7.535057e+002, 5.312522e+001
7.539878e+002, 5.312011e+001
7.544699e+002, 5.296260e+001
7.549520e+002, 5.290405e+001
7.554341e+002, 5.313433e+001
7.559163e+002, 5.342784e+001
7.563984e+002, 5.341439e+001
7.568805e+002, 5.317760e+001
7.573626e+002, 5.314585e+001
7.578447e+002, 5.340880e+001
7.583268e+002, 5.351922e+001
7.588090e+002, 5.307639e+001
7.592911e+002, 5.232585e+001
7.597732e+002, 5.210466e+001
7.602553e+002, 5.288405e+001
7.607374e+002, 5.333879e+001
7.612195e+002, 5.328059e+001
7.617017e+002, 5.312156e+001
7.621838e+002, 5.300132e+001
7.626659e+002, 5.292971e+001
7.631480e+002, 5.292297e+001
7.636301e+002, 5.299056e+001
7.641122e+002, 5.300965e+001
7.645944e+002, 5.277974e+001
7.650765e+002, 5.250096e+001
7.655586e+002, 5.254265e+001
7.660407e+002, 5.285852e+001
7.665228e+002, 5.313026e+001
7.670049e+002, 5.323682e+001
7.674871e+002, 5.324293e+001
7.679692e+002, 5.322843e+001
7.684513e+002, 5.319270e+001
7.689334e+002, 5.312169e+001
7.694155e+002, 5.287708e+001
7.698976e+002, 5.282558e+001
7.703798e+002, 5.328851e+001
7.708619e+002, 5.377528e+001
7.713440e+002, 5.385227e+001
7.718261e+002, 5.357689e+001
7.723082e+002, 5.335020e+001
7.727903e+002, 5.330489e+001
7.732725e+002, 5.335808e+001
7.737546e+002, 5.348119e+001
7.742367e+002, 5.365383e+001
7.747188e+002, 5.389157e+001
7.752009e+002, 5.416446e+001
7.756830e+002, 5.432001e+001
7.761652e+002, 5.424746e+001
7.766473e+002, 5.404626e+001
7.771294e+002, 5.395138e+001
7.776115e+002, 5.397745e+001
7.780936e+002, 5.401658e+001
7.785757e+002, 5.408327e+001
7.790579e+002, 5.412331e+001
7.795400e+002, 5.408271e+001
7.800221e+002, 5.400725e+001
7.805042e+002, 5.397334e+001
7.809863e+002, 5.398841e+001
7.814684e+002, 5.401698e+001
7.819506e+002, 5.402272e+001
7.824327e+002, 5.406673e+001
7.829148e+002, 5.424157e+001
7.833969e+002, 5.446297e+001
7.838790e+002, 5.461534e+001
7.843611e+002, 5.465771e+001
7.848433e+002, 5.455762e+001
7.853254e+002, 5.418290e+001
7.858075e+002, 5.370595e+001
7.862896e+002, 5.373991e+001
7.867717e+002, 5.429417e+001
7.872538e+002, 5.469212e+001
7.877360e+002, 5.475715e+001
7.882181e+002, 5.464031e+001
7.887002e+002, 5.440715e+001
7.891823e+002, 5.409542e+001
7.896644e+002, 5.403559e+001
7.901465e+002, 5.443222e+001
7.906286e+002, 5.477430e+001
7.911107e+002, 5.505645e+001
7.915928e+002, 5.524376e+001
7.920750e+002, 5.526780e+001
7.925571e+002, 5.518996e+001
7.930392e+002, 5.512786e+001
7.935213e+002, 5.512157e+001
7.940034e+002, 5.515573e+001
7.944855e+002, 5.525476e+001
7.949677e+002, 5.536952e+001
7.954498e+002, 5.541040e+001
7.959319e+002, 5.537531e+001
7.964140e+002, 5.526141e+001
7.968961e+002, 5.505604e+001
7.973782e+002, 5.489323e+001
7.978604e+002, 5.498695e+001
7.983425e+002, 5.535567e+001
7.988246e+002, 5.552773e+001
7.993067e+002, 5.540567e+001
7.997888e+002, 5.526342e+001
8.002709e+002, 5.509626e+001
8.007531e+002, 5.499001e+001
8.012352e+002, 5.507756e+001
8.017173e+002, 5.530493e+001
8.021994e+002, 5.540665e+001
8.026815e+002, 5.522725e+001
8.031636e+002, 5.503492e+001
8.036458e+002, 5.491919e+001
8.041279e+002, 5.489873e+001
8.046100e+002, 5.503847e+001
8.050921e+002, 5.530000e+001
8.055742e+002, 5.557437e+001
8.060563e+002, 5.580653e+001
8.065385e+002, 5.594983e+001
8.070206e+002, 5.589524e+001
8.075027e+002, 5.565877e+001
8.079848e+002, 5.544979e+001
8.084669e+002, 5.527072e+001
8.089490e+002, 5.515350e+001
8.094312e+002, 5.513672e+001
8.099133e+002, 5.515649e+001
8.103954e+002, 5.511399e+001
8.108775e+002, 5.499557e+001
8.113596e+002, 5.490365e+001
8.118417e+002, 5.489558e+001
8.123239e+002, 5.484153e+001
8.128060e+002, 5.467756e+001
8.132881e+002, 5.447291e+001
8.137702e+002, 5.425360e+001
8.142523e+002, 5.405285e+001
8.147344e+002, 5.396508e+001
8.152166e+002, 5.408115e+001
8.156987e+002, 5.423441e+001
8.161808e+002, 5.426424e+001
8.166629e+002, 5.419627e+001
8.171450e+002, 5.405891e+001
8.176271e+002, 5.386861e+001
8.181093e+002, 5.370811e+001
8.185914e+002, 5.362475e+001
8.190735e+002, 5.359628e+001
8.195556e+002, 5.358072e+001
8.200377e+002, 5.357557e+001
8.205198e+002, 5.360725e+001
8.210020e+002, 5.374169e+001
8.214841e+002, 5.378328e+001
8.219662e+002, 5.350099e+001
8.224483e+002, 5.320218e+001
8.229304e+002, 5.332734e+001
8.234125e+002, 5.385591e+001
8.238947e+002, 5.409871e+001
8.243768e+002, 5.358581e+001
8.248589e+002, 5.316224e+001
8.253410e+002, 5.326985e+001
8.258231e+002, 5.361079e+001
8.263052e+002, 5.388605e+001
8.267874e+002, 5.405751e+001
8.272695e+002, 5.419481e+001
8.277516e+002, 5.433318e+001
8.282337e+002, 5.447680e+001
8.287158e+002, 5.462722e+001
8.291979e+002, 5.478775e+001
8.296801e+002, 5.498552e+001
8.301622e+002, 5.522208e+001
8.306443e+002, 5.540974e+001
8.311264e+002, 5.547662e+001
8.316085e+002, 5.555574e+001
8.320906e+002, 5.588952e+001
8.325728e+002, 5.652709e+001
8.330549e+002, 5.704363e+001
8.335370e+002, 5.733421e+001
8.340191e+002, 5.764789e+001
8.345012e+002, 5.806110e+001
8.349833e+002, 5.849757e+001
8.354655e+002, 5.893700e+001
8.359476e+002, 5.935358e+001
8.364297e+002, 5.966293e+001
8.369118e+002, 5.987189e+001
8.373939e+002, 5.991835e+001
8.378760e+002, 5.974994e+001
8.383582e+002, 5.941385e+001
8.388403e+002, 5.885235e+001
8.393224e+002, 5.817173e+001
8.398045e+002, 5.768407e+001
8.402866e+002, 5.753843e+001
8.407687e+002, 5.750800e+001
8.412509e+002, 5.731584e+001
8.417330e+002, 5.697269e+001
8.422151e+002, 5.648637e+001
8.426972e+002, 5.584291e+001
8.431793e+002, 5.534591e+001
8.436614e+002, 5.513962e+001
8.441436e+002, 5.502817e+001
8.446257e+002, 5.477113e+001
8.451078e+002, 5.437447e+001
8.455899e+002, 5.413724e+001
8.460720e+002, 5.406152e+001
8.465541e+002, 5.415110e+001
8.470363e+002, 5.464033e+001
8.475184e+002, 5.506786e+001
8.480005e+002, 5.507340e+001
8.484826e+002, 5.480762e+001
8.489647e+002, 5.464344e+001
8.494468e+002, 5.469759e+001
8.499290e+002, 5.475663e+001
8.504111e+002, 5.460227e+001
8.508932e+002, 5.447975e+001
8.513753e+002, 5.473566e+001
8.518574e+002, 5.521297e+001
8.523395e+002, 5.549485e+001
8.528217e+002, 5.547038e+001
8.533038e+002, 5.541323e+001
8.537859e+002, 5.560283e+001
8.542680e+002, 5.595423e+001
8.547501e+002, 5.621790e+001
8.552322e+002, 5.639473e+001
8.557144e+002, 5.646271e+001
8.561965e+002, 5.639769e+001
8.566786e+002, 5.630669e+001
8.571607e+002, 5.626493e+001
8.576428e+002, 5.626081e+001
8.581249e+002, 5.625739e+001
8.586071e+002, 5.625146e+001
8.590892e+002, 5.625243e+001
8.595713e+002, 5.631674e+001
8.600534e+002, 5.632127e+001
8.605355e+002, 5.610423e+001
8.610176e+002, 5.587028e+001
8.614998e+002, 5.589664e+001
8.619819e+002, 5.620153e+001
8.624640e+002, 5.650085e+001
8.629461e+002, 5.676902e+001
8.634282e+002, 5.690203e+001
8.639103e+002, 5.669120e+001
8.643925e+002, 5.637400e+001
8.648746e+002, 5.635168e+001
8.653567e+002, 5.659098e+001
8.658388e+002, 5.670045e+001
8.663209e+002, 5.644117e+001
8.668030e+002, 5.603600e+001
8.672852e+002, 5.583474e+001
8.677673e+002, 5.579579e+001
8.682494e+002, 5.570257e+001
8.687315e+002, 5.554269e+001
8.692136e+002, 5.532816e+001
8.696957e+002, 5.505445e+001
8.701779e+002, 5.474981e+001
8.706600e+002, 5.442204e+001
8.711421e+002, 5.406773e+001
8.716242e+002, 5.401917e+001
8.721063e+002, 5.461404e+001
8.725884e+002, 5.491944e+001
8.730705e+002, 5.443180e+001
8.735526e+002, 5.393673e+001
8.740347e+002, 5.400745e+001
8.745168e+002, 5.442021e+001
8.749990e+002, 5.459386e+001
8.754811e+002, 5.436076e+001
8.759632e+002, 5.411516e+001
8.764453e+002, 5.393402e+001
8.769274e+002, 5.384781e+001
8.774095e+002, 5.397552e+001
8.778917e+002, 5.417791e+001
8.783738e+002, 5.421260e+001
8.788559e+002, 5.403606e+001
8.793380e+002, 5.381068e+001
8.798201e+002, 5.364667e+001
8.803022e+002, 5.352538e+001
8.807844e+002, 5.337898e+001
8.812665e+002, 5.324640e+001
8.817486e+002, 5.331117e+001
8.822307e+002, 5.359000e+001
8.827128e+002, 5.386036e+001
8.831949e+002, 5.398081e+001
8.836771e+002, 5.400820e+001
8.841592e+002, 5.408318e+001
8.846413e+002, 5.423970e+001
8.851234e+002, 5.415240e+001
8.856055e+002, 5.366526e+001
8.860876e+002, 5.332726e+001
8.865698e+002, 5.342687e+001
8.870519e+002, 5.365429e+001
8.875340e+002, 5.364775e+001
8.880161e+002, 5.342563e+001
8.884982e+002, 5.328300e+001
8.889803e+002, 5.334610e+001
8.894625e+002, 5.332240e+001
8.899446e+002, 5.297224e+001
8.904267e+002, 5.269787e+001
8.909088e+002, 5.290936e+001
8.913909e+002, 5.337049e+001
8.918730e+002, 5.355224e+001
8.923552e+002, 5.329792e+001
8.928373e+002, 5.308468e+001
8.933194e+002, 5.331521e+001
8.938015e+002, 5.365662e+001
8.942836e+002, 5.378042e+001
8.947657e+002, 5.373096e+001
8.952479e+002, 5.355737e+001
8.957300e+002, 5.331163e+001
8.962121e+002, 5.318292e+001
8.966942e+002, 5.332436e+001
8.971763e+002, 5.362648e+001
8.976584e+002, 5.388751e+001
8.981406e+002, 5.410879e+001
8.986227e+002, 5.434051e+001
8.991048e+002, 5.459715e+001
8.995869e+002, 5.471361e+001
9.000690e+002, 5.458787e+001
9.005511e+002, 5.434978e+001
9.010333e+002, 5.419198e+001
9.015154e+002, 5.411962e+001
9.019975e+002, 5.399926e+001
9.024796e+002, 5.371989e+001
9.029617e+002, 5.360049e+001
9.034438e+002, 5.383728e+001
9.039260e+002, 5.411922e+001
9.044081e+002, 5.423378e+001
9.048902e+002, 5.423099e+001
9.053723e+002, 5.424487e+001
9.058544e+002, 5.431701e+001
9.063365e+002, 5.432684e+001
9.068187e+002, 5.412919e+001
9.073008e+002, 5.398368e+001
9.077829e+002, 5.408980e+001
9.082650e+002, 5.432206e+001
9.087471e+002, 5.455861e+001
9.092292e+002, 5.474255e+001
9.097114e+002, 5.474374e+001
9.101935e+002, 5.434831e+001
9.106756e+002, 5.395592e+001
9.111577e+002, 5.407543e+001
9.116398e+002, 5.444632e+001
9.121219e+002, 5.461151e+001
9.126041e+002, 5.453505e+001
9.130862e+002, 5.429455e+001
9.135683e+002, 5.392609e+001
9.140504e+002, 5.366899e+001
9.145325e+002, 5.396089e+001
9.150146e+002, 5.465676e+001
9.154968e+002, 5.483693e+001
9.159789e+002, 5.447807e+001
9.164610e+002, 5.435404e+001
9.169431e+002, 5.471801e+001
9.174252e+002, 5.506917e+001
9.179073e+002, 5.494814e+001
9.183895e+002, 5.452770e+001
9.188716e+002, 5.446014e+001
9.193537e+002, 5.495577e+001
9.198358e+002, 5.526561e+001
9.203179e+002, 5.531299e+001
9.208000e+002, 5.527967e+001
9.212822e+002, 5.520848e+001
9.217643e+002, 5.510850e+001
9.222464e+002, 5.493559e+001
9.227285e+002, 5.470164e+001
9.232106e+002, 5.465995e+001
9.236927e+002, 5.500292e+001
9.241749e+002, 5.532800e+001
9.246570e+002, 5.565662e+001
9.251391e+002, 5.580569e+001
9.256212e+002, 5.542006e+001
9.261033e+002, 5.479815e+001
9.265854e+002, 5.460296e+001
9.270676e+002, 5.503983e+001
9.275497e+002, 5.548524e+001
9.280318e+002, 5.552802e+001
9.285139e+002, 5.538252e+001
9.289960e+002, 5.517910e+001
9.294781e+002, 5.498229e+001
9.299603e+002, 5.489265e+001
9.304424e+002, 5.492720e+001
9.309245e+002, 5.507252e+001
9.314066e+002, 5.533394e+001
9.318887e+002, 5.561883e+001
9.323708e+002, 5.580713e+001
9.328530e+002, 5.589239e+001
9.333351e+002, 5.582208e+001
9.338172e+002, 5.560138e+001
9.342993e+002, 5.531651e+001
9.347814e+002, 5.498280e+001
9.352635e+002, 5.479336e+001
9.357457e+002, 5.499596e+001
9.362278e+002, 5.550524e+001
9.367099e+002, 5.580891e+001
9.371920e+002, 5.585670e+001
9.376741e+002, 5.591644e+001
9.381563e+002, 5.602172e+001
9.386384e+002, 5.614116e+001
9.391205e+002, 5.631269e+001
9.396026e+002, 5.644350e+001
9.400847e+002, 5.634375e+001
9.405668e+002, 5.596046e+001
9.410490e+002, 5.566234e+001
9.415311e+002, 5.534968e+001
9.420132e+002, 5.525368e+001
9.424953e+002, 5.563067e+001
9.429774e+002, 5.604755e+001
9.434595e+002, 5.615857e+001
9.439417e+002, 5.605827e+001
9.444238e+002, 5.602339e+001
9.449059e+002, 5.611567e+001
9.453880e+002, 5.624312e+001
9.458701e+002, 5.643370e+001
9.463522e+002, 5.658574e+001
9.468344e+002, 5.654851e+001
9.473165e+002, 5.647632e+001
9.477986e+002, 5.661954e+001
9.482807e+002, 5.696580e+001
9.487628e+002, 5.726818e+001
9.492449e+002, 5.740642e+001
9.497271e+002, 5.742541e+001
9.502092e+002, 5.726064e+001
9.506913e+002, 5.706691e+001
9.511734e+002, 5.712244e+001
9.516555e+002, 5.737354e+001
9.521376e+002, 5.755257e+001
9.526198e+002, 5.758225e+001
9.531019e+002, 5.769342e+001
9.535840e+002, 5.815383e+001
9.540661e+002, 5.879689e+001
9.545482e+002, 5.921622e+001
9.550303e+002, 5.944017e+001
9.555124e+002, 5.963616e+001
9.559945e+002, 5.982947e+001
9.564766e+002, 6.006147e+001
9.569587e+002, 6.035303e+001
9.574409e+002, 6.070610e+001
9.579230e+002, 6.110962e+001
9.584051e+002, 6.156833e+001
9.588872e+002, 6.216619e+001
9.593693e+002, 6.287646e+001
9.598514e+002, 6.387525e+001
9.603336e+002, 6.527711e+001
9.608157e+002, 6.678406e+001
9.612978e+002, 6.809795e+001
9.617799e+002, 6.938026e+001
9.622620e+002, 7.107340e+001
9.627441e+002, 7.316967e+001
9.632263e+002, 7.568894e+001
9.637084e+002, 7.852450e+001
9.641905e+002, 8.192959e+001
9.646726e+002, 8.592673e+001
9.651547e+002, 9.052368e+001
9.656368e+002, 9.561172e+001
9.661190e+002, 1.013045e+002
9.666011e+002, 1.081181e+002
9.670832e+002, 1.167024e+002
9.675653e+002, 1.252480e+002
9.680474e+002, 1.340652e+002
9.685295e+002, 1.420056e+002
9.690117e+002, 1.492705e+002
9.694938e+002, 1.547466e+002
9.699759e+002, 1.570012e+002
9.704580e+002, 1.559321e+002
9.709401e+002, 1.523337e+002
9.714222e+002, 1.456976e+002
9.719044e+002, 1.380129e+002
9.723865e+002, 1.301641e+002
9.728686e+002, 1.221862e+002
9.733507e+002, 1.138482e+002
9.738328e+002, 1.055236e+002
9.743149e+002, 9.789602e+001
9.747971e+002, 9.120838e+001
9.752792e+002, 8.541284e+001
9.757613e+002, 8.057140e+001
9.762434e+002, 7.654829e+001
9.767255e+002, 7.332462e+001
9.772076e+002, 7.073180e+001
9.776898e+002, 6.834306e+001
9.781719e+002, 6.615029e+001
9.786540e+002, 6.453168e+001
9.791361e+002, 6.365431e+001
9.796182e+002, 6.311765e+001
9.801003e+002, 6.240924e+001
9.805825e+002, 6.164032e+001
9.810646e+002, 6.125570e+001
9.815467e+002, 6.120924e+001
9.820288e+002, 6.113399e+001
9.825109e+002, 6.095796e+001
9.829930e+002, 6.072446e+001
9.834752e+002, 6.045840e+001
9.839573e+002, 6.016980e+001
9.844394e+002, 5.985925e+001
9.849215e+002, 5.952632e+001
9.854036e+002, 5.934220e+001
9.858857e+002, 5.935556e+001
9.863679e+002, 5.918229e+001
9.868500e+002, 5.862543e+001
9.873321e+002, 5.817353e+001
9.878142e+002, 5.826301e+001
9.882963e+002, 5.872495e+001
9.887784e+002, 5.904105e+001
9.892606e+002, 5.920752e+001
9.897427e+002, 5.921156e+001
9.902248e+002, 5.886345e+001
9.907069e+002, 5.873365e+001
9.911890e+002, 5.920835e+001
9.916711e+002, 5.974147e+001
9.921533e+002, 5.977717e+001
9.926354e+002, 5.939946e+001
9.931175e+002, 5.910110e+001
9.935996e+002, 5.882419e+001
9.940817e+002, 5.873167e+001
9.945638e+002, 5.907814e+001
9.950460e+002, 5.930704e+001
9.955281e+002, 5.902180e+001
9.960102e+002, 5.863909e+001
9.964923e+002, 5.868773e+001
9.969744e+002, 5.911103e+001
9.974565e+002, 5.931511e+001
9.979387e+002, 5.898129e+001
9.984208e+002, 5.876702e+001
9.989029e+002, 5.886184e+001
9.993850e+002, 5.909970e+001
9.998671e+002, 5.955227e+001
1.000349e+003, 5.998905e+001
1.000831e+003, 6.004967e+001
1.001313e+003, 5.972552e+001
1.001796e+003, 5.940524e+001
1.002278e+003, 5.919334e+001
1.002760e+003, 5.910704e+001
1.003242e+003, 5.919051e+001
1.003724e+003, 5.937318e+001
1.004206e+003, 5.974004e+001
1.004688e+003, 6.010372e+001
1.005170e+003, 6.004072e+001
1.005653e+003, 5.950287e+001
1.006135e+003, 5.907859e+001
1.006617e+003, 5.925903e+001
1.007099e+003, 5.954332e+001
1.007581e+003, 5.939640e+001
1.008063e+003, 5.909872e+001
1.008545e+003, 5.906468e+001
1.009027e+003, 5.924968e+001
1.009509e+003, 5.939469e+001
1.009992e+003, 5.941137e+001
1.010474e+003, 5.942397e+001
1.010956e+003, 5.955705e+001
1.011438e+003, 5.973131e+001
1.011920e+003, 5.982013e+001
1.012402e+003, 5.985844e+001
1.012884e+003, 5.995780e+001
1.013366e+003, 6.010017e+001
1.013849e+003, 6.010321e+001
1.014331e+003, 5.989326e+001
1.014813e+003, 5.972691e+001
1.015295e+003, 5.996118e+001
1.015777e+003, 6.039725e+001
1.016259e+003, 6.049562e+001
1.016741e+003, 6.033533e+001
1.017223e+003, 6.028367e+001
1.017705e+003, 6.039052e+001
1.018188e+003, 6.055870e+001
1.018670e+003, 6.074384e+001
1.019152e+003, 6.086527e+001
1.019634e+003, 6.077306e+001
1.020116e+003, 6.053220e+001
1.020598e+003, 6.045575e+001
1.021080e+003, 6.054093e+001
1.021562e+003, 6.073227e+001
1.022044e+003, 6.102701e+001
1.022527e+003, 6.129911e+001
1.023009e+003, 6.147020e+001
1.023491e+003, 6.161117e+001
1.023973e+003, 6.185807e+001
1.024455e+003, 6.219611e+001
1.024937e+003, 6.230766e+001
1.025419e+003, 6.213218e+001
1.025901e+003, 6.230687e+001
1.026384e+003, 6.305457e+001
1.026866e+003, 6.368127e+001
1.027348e+003, 6.372499e+001
1.027830e+003, 6.345158e+001
1.028312e+003, 6.335485e+001
1.028794e+003, 6.344594e+001
1.029276e+003, 6.339425e+001
1.029758e+003, 6.310261e+001
1.030240e+003, 6.303566e+001
1.030723e+003, 6.338229e+001
1.031205e+003, 6.372371e+001
1.031687e+003, 6.375999e+001
1.032169e+003, 6.363923e+001
1.032651e+003, 6.364138e+001
1.033133e+003, 6.375463e+001
1.033615e+003, 6.408197e+001
1.034097e+003, 6.462532e+001
1.034579e+003, 6.538895e+001
1.035062e+003, 6.644492e+001
1.035544e+003, 6.761700e+001
1.036026e+003, 6.881207e+001
1.036508e+003, 7.001574e+001
1.036990e+003, 7.113467e+001
1.037472e+003, 7.205684e+001
1.037954e+003, 7.350848e+001
1.038436e+003, 7.550467e+001
1.038919e+003, 7.799297e+001
1.039401e+003, 8.092463e+001
1.039883e+003, 8.436917e+001
1.040365e+003, 8.801957e+001
1.040847e+003, 9.233360e+001
1.041329e+003, 9.816368e+001
1.041811e+003, 1.055255e+002
1.042293e+003, 1.144036e+002
1.042776e+003, 1.241837e+002
1.043258e+003, 1.363969e+002
1.043740e+003, 1.521633e+002
1.044222e+003, 1.696103e+002
1.044704e+003, 1.876544e+002
1.045186e+003, 2.064408e+002
1.045668e+003, 2.262674e+002
1.046150e+003, 2.471612e+002
1.046632e+003, 2.685260e+002
1.047115e+003, 2.885892e+002
1.047597e+003, 3.114585e+002
1.048079e+003, 3.380437e+002
1.048561e+003, 3.677609e+002
1.049043e+003, 4.040394e+002
1.049525e+003, 4.417855e+002
1.050007e+003, 4.732784e+002
1.050489e+003, 4.976558e+002
1.050971e+003, 5.132571e+002
1.051454e+003, 5.223900e+002
1.051936e+003, 5.189847e+002
1.052418e+003, 5.000996e+002
1.052900e+003, 4.690712e+002
1.053382e+003, 4.229952e+002
1.053864e+003, 3.686237e+002
1.054346e+003, 3.156776e+002
1.054828e+003, 2.652326e+002
1.055311e+003, 2.218382e+002
1.055793e+003, 1.876206e+002
1.056275e+003, 1.593431e+002
1.056757e+003, 1.370152e+002
1.057239e+003, 1.191360e+002
1.057721e+003, 1.054984e+002
1.058203e+003, 9.529826e+001
1.058685e+003, 8.748509e+001
1.059167e+003, 8.186514e+001
1.059650e+003, 7.790457e+001
1.060132e+003, 7.625130e+001
1.060614e+003, 7.511967e+001
1.061096e+003, 7.392142e+001
1.061578e+003, 7.289217e+001
1.062060e+003, 7.225750e+001
1.062542e+003, 7.189407e+001
1.063024e+003, 7.155263e+001
1.063506e+003, 7.121077e+001
1.063989e+003, 7.113813e+001
1.064471e+003, 7.158687e+001
1.064953e+003, 7.210191e+001
1.065435e+003, 7.259447e+001
1.065917e+003, 7.298521e+001
1.066399e+003, 7.315137e+001
1.066881e+003, 7.320618e+001
1.067363e+003, 7.327713e+001
1.067846e+003, 7.340579e+001
1.068328e+003, 7.369691e+001
1.068810e+003, 7.430447e+001
1.069292e+003, 7.488040e+001
1.069774e+003, 7.524954e+001
1.070256e+003, 7.554957e+001
1.070738e+003, 7.587625e+001
1.071220e+003, 7.620699e+001
1.071703e+003, 7.650890e+001
1.072185e+003, 7.677403e+001
1.072667e+003, 7.701332e+001
1.073149e+003, 7.728315e+001
1.073631e+003, 7.740649e+001
1.074113e+003, 7.714879e+001
1.074595e+003, 7.687342e+001
1.075077e+003, 7.690420e+001
1.075559e+003, 7.704044e+001
1.076042e+003, 7.696166e+001
1.076524e+003, 7.669368e+001
1.077006e+003, 7.656424e+001
1.077488e+003, 7.676434e+001
1.077970e+003, 7.685551e+001
1.078452e+003, 7.642976e+001
1.078934e+003, 7.605022e+001
1.079416e+003, 7.630058e+001
1.079898e+003, 7.667258e+001
1.080380e+003, 7.641967e+001
1.080863e+003, 7.569363e+001
1.081345e+003, 7.529036e+001
1.081827e+003, 7.552950e+001
1.082309e+003, 7.572159e+001
1.082791e+003, 7.550500e+001
1.083273e+003, 7.520744e+001
1.083755e+003, 7.503857e+001
1.084237e+003, 7.488515e+001
1.084720e+003, 7.458892e+001
1.085202e+003, 7.419862e+001
1.085684e+003, 7.388107e+001
1.086166e+003, 7.368847e+001
1.086648e+003, 7.348417e+001
1.087130e+003, 7.321752e+001
1.087612e+003, 7.291576e+001
1.088094e+003, 7.270640e+001
1.088577e+003, 7.236644e+001
1.089059e+003, 7.148862e+001
1.089541e+003, 7.037875e+001
1.090023e+003, 6.974685e+001
1.090505e+003, 6.973582e+001
1.090987e+003, 6.967055e+001
1.091469e+003, 6.921383e+001
1.091951e+003, 6.876337e+001
1.092433e+003, 6.854583e+001
1.092916e+003, 6.834648e+001
1.093398e+003, 6.799401e+001
1.093880e+003, 6.754321e+001
1.094362e+003, 6.711880e+001
1.094844e+003, 6.673212e+001
1.095326e+003, 6.625652e+001
1.095808e+003, 6.547932e+001
1.096290e+003, 6.486677e+001
1.096772e+003, 6.461136e+001
1.097255e+003, 6.452502e+001
1.097737e+003, 6.459747e+001
1.098219e+003, 6.469545e+001
1.098701e+003, 6.461759e+001
1.099183e+003, 6.438512e+001
1.099665e+003, 6.426678e+001
1.100147e+003, 6.444209e+001
1.100629e+003, 6.448592e+001
1.101112e+003, 6.421822e+001
1.101594e+003, 6.387758e+001
1.102076e+003, 6.342505e+001
1.102558e+003, 6.307623e+001
1.103040e+003, 6.314606e+001
1.103522e+003, 6.352116e+001
1.104004e+003, 6.374519e+001
1.104486e+003, 6.374300e+001
1.104969e+003, 6.361879e+001
1.105451e+003, 6.327678e+001
1.105933e+003, 6.296329e+001
1.106415e+003, 6.265773e+001
1.106897e+003, 6.250970e+001
1.107379e+003, 6.276432e+001
1.107861e+003, 6.323970e+001
1.108343e+003, 6.351167e+001
1.108825e+003, 6.354548e+001
1.109307e+003, 6.340056e+001
1.109790e+003, 6.276546e+001
1.110272e+003, 6.240301e+001
1.110754e+003, 6.271919e+001
1.111236e+003, 6.308302e+001
1.111718e+003, 6.307166e+001
1.112200e+003, 6.288600e+001
1.112682e+003, 6.285847e+001
1.113164e+003, 6.300012e+001
1.113647e+003, 6.315414e+001
1.114129e+003, 6.356591e+001
1.114611e+003, 6.357078e+001
1.115093e+003, 6.268227e+001
1.115575e+003, 6.198531e+001
1.116057e+003, 6.201018e+001
1.116539e+003, 6.239295e+001
1.117021e+003, 6.281038e+001
1.117504e+003, 6.322825e+001
1.117986e+003, 6.338555e+001
1.118468e+003, 6.319261e+001
1.118950e+003, 6.292834e+001
1.119432e+003, 6.242000e+001
1.119914e+003, 6.221576e+001
1.120396e+003, 6.265984e+001
1.120878e+003, 6.318107e+001
1.121360e+003, 6.328732e+001
1.121843e+003, 6.309881e+001
1.122325e+003, 6.295985e+001
1.122807e+003, 6.287156e+001
1.123289e+003, 6.281783e+001
1.123771e+003, 6.277022e+001
1.124253e+003, 6.288557e+001
1.124735e+003, 6.328049e+001
1.125217e+003, 6.359657e+001
1.125699e+003, 6.361433e+001
1.126182e+003, 6.338966e+001
1.126664e+003, 6.294617e+001
1.127146e+003, 6.231991e+001
1.127628e+003, 6.227140e+001
1.128110e+003, 6.290192e+001
1.128592e+003, 6.313923e+001
1.129074e+003, 6.278181e+001
1.129556e+003, 6.251368e+001
1.130039e+003, 6.265700e+001
1.130521e+003, 6.294342e+001
1.131003e+003, 6.307638e+001
1.131485e+003, 6.309190e+001
1.131967e+003, 6.312486e+001
1.132449e+003, 6.316963e+001
1.132931e+003, 6.312948e+001
1.133413e+003, 6.299850e+001
1.133896e+003, 6.273125e+001
1.134378e+003, 6.231472e+001
1.134860e+003, 6.211564e+001
1.135342e+003, 6.245350e+001
1.135824e+003, 6.299402e+001
1.136306e+003, 6.307490e+001
1.136788e+003, 6.284585e+001
1.137270e+003, 6.296548e+001
1.137752e+003, 6.333166e+001
1.138234e+003, 6.332216e+001
1.138717e+003, 6.289426e+001
1.139199e+003, 6.263607e+001
1.139681e+003, 6.284860e+001
1.140163e+003, 6.325718e+001
1.140645e+003, 6.363625e+001
1.141127e+003, 6.393203e+001
1.141609e+003, 6.408679e+001
1.142091e+003, 6.406934e+001
1.142574e+003, 6.363202e+001
1.143056e+003, 6.295783e+001
1.143538e+003, 6.273425e+001
1.144020e+003, 6.312533e+001
1.144502e+003, 6.354756e+001
1.144984e+003, 6.360769e+001
1.145466e+003, 6.348378e+001
1.145948e+003, 6.327505e+001
1.146431e+003, 6.306124e+001
1.146913e+003, 6.289732e+001
1.147395e+003, 6.282648e+001
1.147877e+003, 6.298169e+001
1.148359e+003, 6.330888e+001
1.148841e+003, 6.351300e+001
1.149323e+003, 6.345048e+001
1.149805e+003, 6.337635e+001
1.150287e+003, 6.346334e+001
1.150770e+003, 6.358248e+001
1.151252e+003, 6.360791e+001
1.151734e+003, 6.364233e+001
1.152216e+003, 6.388460e+001
1.152698e+003, 6.420667e+001
1.153180e+003, 6.429153e+001
1.153662e+003, 6.407382e+001
1.154144e+003, 6.381215e+001
1.154626e+003, 6.347224e+001
1.155109e+003, 6.327356e+001
1.155591e+003, 6.335138e+001
1.156073e+003, 6.352306e+001
1.156555e+003, 6.371857e+001
1.157037e+003, 6.391314e+001
1.157519e+003, 6.412859e+001
1.158001e+003, 6.433804e+001
1.158483e+003, 6.435953e+001
1.158966e+003, 6.401588e+001
1.159448e+003, 6.382904e+001
1.159930e+003, 6.390212e+001
1.160412e+003, 6.403965e+001
1.160894e+003, 6.425630e+001
1.161376e+003, 6.444576e+001
1.161858e+003, 6.452715e+001
1.162340e+003, 6.452572e+001
1.162822e+003, 6.448060e+001
1.163305e+003, 6.437852e+001
1.163787e+003, 6.438379e+001
1.164269e+003, 6.455449e+001
1.164751e+003, 6.466273e+001
1.165233e+003, 6.467320e+001
1.165715e+003, 6.463528e+001
1.166197e+003, 6.457105e+001
1.166679e+003, 6.445537e+001
1.167161e+003, 6.421166e+001
1.167644e+003, 6.393939e+001
1.168126e+003, 6.414476e+001
1.168608e+003, 6.485607e+001
1.169090e+003, 6.510642e+001
1.169572e+003, 6.484128e+001
1.170054e+003, 6.458006e+001
1.170536e+003, 6.446032e+001
1.171018e+003, 6.457034e+001
1.171500e+003, 6.500209e+001
1.171983e+003, 6.547656e+001
1.172465e+003, 6.544722e+001
1.172947e+003, 6.513225e+001
1.173429e+003, 6.540785e+001
1.173911e+003, 6.604549e+001
1.174393e+003, 6.606185e+001
1.174875e+003, 6.548498e+001
1.175357e+003, 6.514431e+001
1.175840e+003, 6.534197e+001
1.176322e+003, 6.569199e+001
1.176804e+003, 6.590636e+001
1.177286e+003, 6.604556e+001
1.177768e+003, 6.598275e+001
1.178250e+003, 6.604136e+001
1.178732e+003, 6.713496e+001
1.179214e+003, 6.853543e+001
1.179697e+003, 6.862016e+001
1.180179e+003, 6.742947e+001
1.180661e+003, 6.630492e+001
1.181143e+003, 6.577424e+001
1.181625e+003, 6.557420e+001
1.182107e+003, 6.565767e+001
1.182589e+003, 6.588744e+001
1.183071e+003, 6.641959e+001
1.183553e+003, 6.683529e+001
1.184036e+003, 6.650891e+001
1.184518e+003, 6.586582e+001
1.185000e+003, 6.582809e+001
1.185482e+003, 6.648106e+001
1.185964e+003, 6.683320e+001
1.186446e+003, 6.641115e+001
1.186928e+003, 6.607959e+001
1.187410e+003, 6.601060e+001
1.187892e+003, 6.602416e+001
1.188375e+003, 6.613737e+001
1.188857e+003, 6.621843e+001
1.189339e+003, 6.607222e+001
1.189821e+003, 6.582174e+001
1.190303e+003, 6.585378e+001
1.190785e+003, 6.625219e+001
1.191267e+003, 6.643394e+001
1.191749e+003, 6.634129e+001
1.192232e+003, 6.617259e+001
1.192714e+003, 6.589992e+001
1.193196e+003, 6.573064e+001
1.193678e+003, 6.577852e+001
1.194160e+003, 6.595107e+001
1.194642e+003, 6.614603e+001
1.195124e+003, 6.635823e+001
1.195606e+003, 6.659029e+001
1.196089e+003, 6.683681e+001
1.196571e+003, 6.692213e+001
1.197053e+003, 6.684723e+001
1.197535e+003, 6.679999e+001
1.198017e+003, 6.682999e+001
1.198499e+003, 6.694880e+001
1.198981e+003, 6.716936e+001
1.199463e+003, 6.740292e+001
1.199945e+003, 6.757133e+001
1.200427e+003, 6.763882e+001
1.200910e+003, 6.743857e+001
1.201392e+003, 6.712123e+001
1.201874e+003, 6.701865e+001
1.202356e+003, 6.711530e+001
1.202838e+003, 6.725990e+001
1.203320e+003, 6.740387e+001
1.203802e+003, 6.757177e+001
1.204284e+003, 6.782825e+001
1.204767e+003, 6.795907e+001
1.205249e+003, 6.766361e+001
1.205731e+003, 6.732336e+001
1.206213e+003, 6.725266e+001
1.206695e+003, 6.732622e+001
1.207177e+003, 6.738828e+001
1.207659e+003, 6.744257e+001
1.208141e+003, 6.755946e+001
1.208624e+003, 6.775610e+001
1.209106e+003, 6.794669e+001
1.209588e+003, 6.820584e+001
1.210070e+003, 6.831304e+001
1.210552e+003, 6.804549e+001
1.211034e+003, 6.782673e+001
1.211516e+003, 6.783527e+001
1.211998e+003, 6.802571e+001
1.212480e+003, 6.844653e+001
1.212963e+003, 6.899543e+001
1.213445e+003, 6.927187e+001
1.213927e+003, 6.922893e+001
1.214409e+003, 6.914243e+001
1.214891e+003, 6.901460e+001
1.215373e+003, 6.879057e+001
1.215855e+003, 6.839629e+001
1.216337e+003, 6.826353e+001
1.216819e+003, 6.867681e+001
1.217302e+003, 6.914713e+001
1.217784e+003, 6.902317e+001
1.218266e+003, 6.857166e+001
1.218748e+003, 6.873142e+001
1.219230e+003, 6.932276e+001
1.219712e+003, 6.935588e+001
1.220194e+003, 6.890344e+001
1.220676e+003, 6.864334e+001
1.221159e+003, 6.870158e+001
1.221641e+003, 6.871535e+001
1.222123e+003, 6.848080e+001
1.222605e+003, 6.835146e+001
1.223087e+003, 6.884303e+001
1.223569e+003, 6.946501e+001
1.224051e+003, 6.967024e+001
1.224533e+003, 6.965135e+001
1.225016e+003, 6.960632e+001
1.225498e+003, 6.956237e+001
1.225980e+003, 6.950674e+001
1.226462e+003, 6.944511e+001
1.226944e+003, 6.941733e+001
1.227426e+003, 6.943520e+001
1.227908e+003, 6.949198e+001
1.228390e+003, 6.959304e+001
1.228872e+003, 6.972098e+001
1.229354e+003, 6.996977e+001
1.229837e+003, 7.014306e+001
1.230319e+003, 7.004463e+001
1.230801e+003, 6.978579e+001
1.231283e+003, 6.952016e+001
1.231765e+003, 6.925502e+001
1.232247e+003, 6.927261e+001
1.232729e+003, 6.972308e+001
1.233211e+003, 6.999067e+001
1.233694e+003, 7.000916e+001
1.234176e+003, 6.998109e+001
1.234658e+003, 6.994937e+001
1.235140e+003, 6.998384e+001
1.235622e+003, 7.015908e+001
1.236104e+003, 7.032832e+001
1.236586e+003, 7.020627e+001
1.237068e+003, 6.987965e+001
1.237551e+003, 6.971186e+001
1.238033e+003, 6.967117e+001
1.238515e+003, 6.959111e+001
1.238997e+003, 6.948486e+001
1.239479e+003, 6.952878e+001
1.239961e+003, 6.974944e+001
1.240443e+003, 6.993298e+001
1.240925e+003, 6.992819e+001
1.241407e+003, 6.992641e+001
1.241890e+003, 7.019492e+001
1.242372e+003, 7.046864e+001
1.242854e+003, 7.046609e+001
1.243336e+003, 7.033305e+001
1.243818e+003, 7.018893e+001
1.244300e+003, 7.009498e+001
1.244782e+003, 7.016077e+001
1.245264e+003, 7.038729e+001
1.245746e+003, 7.055479e+001
1.246229e+003, 7.056950e+001
1.246711e+003, 7.058949e+001
1.247193e+003, 7.065237e+001
1.247675e+003, 7.070998e+001
1.248157e+003, 7.077132e+001
1.248639e+003, 7.079247e+001
1.249121e+003, 7.074949e+001
1.249603e+003, 7.063433e+001
1.250085e+003, 7.039514e+001
1.250568e+003, 7.005230e+001
1.251050e+003, 6.998969e+001
1.251532e+003, 7.023942e+001
1.252014e+003, 7.041736e+001
1.252496e+003, 7.049336e+001
1.252978e+003, 7.051566e+001
1.253460e+003, 7.049949e+001
1.253942e+003, 7.056225e+001
1.254425e+003, 7.078917e+001
1.254907e+003, 7.108037e+001
1.255389e+003, 7.131782e+001
1.255871e+003, 7.150521e+001
1.256353e+003, 7.168070e+001
1.256835e+003, 7.179189e+001
1.257317e+003, 7.166670e+001
1.257799e+003, 7.140918e+001
1.258281e+003, 7.126139e+001
1.258764e+003, 7.128246e+001
1.259246e+003, 7.145222e+001
1.259728e+003, 7.182844e+001
1.260210e+003, 7.209785e+001
1.260692e+003, 7.204996e+001
1.261174e+003, 7.194700e+001
1.261656e+003, 7.183369e+001
1.262138e+003, 7.179375e+001
1.262620e+003, 7.197663e+001
1.263103e+003, 7.222075e+001
1.263585e+003, 7.224107e+001
1.264067e+003, 7.207089e+001
1.264549e+003, 7.200461e+001
1.265031e+003, 7.208098e+001
1.265513e+003, 7.212927e+001
1.265995e+003, 7.214892e+001
1.266477e+003, 7.211427e+001
1.266960e+003, 7.199870e+001
1.267442e+003, 7.200530e+001
1.267924e+003, 7.226857e+001
1.268406e+003, 7.249390e+001
1.268888e+003, 7.225974e+001
1.269370e+003, 7.187164e+001
1.269852e+003, 7.216299e+001
1.270334e+003, 7.281001e+001
1.270817e+003, 7.295652e+001
1.271299e+003, 7.274417e+001
1.271781e+003, 7.267361e+001
1.272263e+003, 7.279893e+001
1.272745e+003, 7.292293e+001
1.273227e+003, 7.297058e+001
1.273709e+003, 7.295627e+001
1.274191e+003, 7.272939e+001
1.274673e+003, 7.266529e+001
1.275156e+003, 7.320124e+001
1.275638e+003, 7.367911e+001
1.276120e+003, 7.358871e+001
1.276602e+003, 7.325986e+001
1.277084e+003, 7.295863e+001
1.277566e+003, 7.277634e+001
1.278048e+003, 7.299745e+001
1.278530e+003, 7.371374e+001
1.279012e+003, 7.394987e+001
1.279495e+003, 7.352493e+001
1.279977e+003, 7.325063e+001
1.280459e+003, 7.321178e+001
1.280941e+003, 7.338905e+001
1.281423e+003, 7.380708e+001
1.281905e+003, 7.413646e+001
1.282387e+003, 7.410255e+001
1.282869e+003, 7.392126e+001
1.283352e+003, 7.387712e+001
1.283834e+003, 7.399741e+001
1.284316e+003, 7.433593e+001
1.284798e+003, 7.489671e+001
##END=



