##NAMES=Hydromagnesite
##RRUFFID=R060011
##IDEAL CHEMISTRY=Mg_5_(CO_3_)_4_(OH)_2_&#183;4H_2_O
##LOCALITY=Paradise Range, Nye County, Nevada, USA
##OWNER=RRUFF
##SOURCE=University of Arizona Mineral Museum
##DESCRIPTION=Colorless bladed crystals
##STATUS=The identification of this mineral has been confirmed by X-ray diffraction and chemical analysis
##URL=rruff.info/R060011
##MEASURED CHEMISTRY=Mg_5.00_(CO_3_)_4_(OH)_2_Â·4H_2_O
146.5814, 3410.339
147.0635, 3530.835
147.5456, 3649.315
148.0277, 3752.060
148.5098, 3839.135
148.9919, 3910.927
149.4741, 3966.062
149.9562, 4005.152
150.4383, 4033.414
150.9204, 4053.861
151.4025, 4065.981
151.8846, 4072.868
152.3668, 4078.795
152.8489, 4077.003
153.3310, 4058.774
153.8131, 4023.159
154.2952, 3982.101
154.7773, 3944.524
155.2595, 3908.998
155.7416, 3869.889
156.2237, 3820.103
156.7058, 3769.347
157.1879, 3728.297
157.6700, 3697.789
158.1522, 3674.911
158.6343, 3660.056
159.1164, 3651.565
159.5985, 3646.621
160.0806, 3639.978
160.5627, 3638.204
161.0449, 3654.081
161.5270, 3691.915
162.0091, 3732.015
162.4912, 3759.618
162.9733, 3779.362
163.4554, 3799.462
163.9376, 3822.806
164.4197, 3848.058
164.9018, 3868.955
165.3839, 3879.226
165.8660, 3903.149
166.3481, 3962.884
166.8303, 4045.157
167.3124, 4131.088
167.7945, 4234.096
168.2766, 4329.623
168.7587, 4355.160
169.2408, 4281.994
169.7230, 4202.829
170.2051, 4168.230
170.6872, 4160.070
171.1693, 4151.621
171.6514, 4131.651
172.1335, 4103.188
172.6157, 4072.293
173.0978, 4035.167
173.5799, 4003.643
174.0620, 3983.524
174.5441, 3971.192
175.0262, 3962.663
175.5084, 3957.710
175.9905, 3954.188
176.4726, 3944.680
176.9547, 3922.802
177.4368, 3907.095
177.9189, 3905.249
178.4010, 3912.644
178.8832, 3923.656
179.3653, 3936.478
179.8474, 3950.422
180.3295, 3963.401
180.8116, 3974.224
181.2937, 3986.263
181.7759, 4002.276
182.2580, 4019.449
182.7401, 4034.703
183.2222, 4047.095
183.7043, 4055.781
184.1864, 4056.803
184.6686, 4041.895
185.1507, 4034.101
185.6328, 4041.238
186.1149, 4056.902
186.5970, 4075.087
187.0791, 4093.878
187.5613, 4111.132
188.0434, 4119.373
188.5255, 4105.680
189.0076, 4106.178
189.4897, 4138.177
189.9718, 4181.781
190.4540, 4215.168
190.9361, 4227.677
191.4182, 4230.016
191.9003, 4249.371
192.3824, 4298.959
192.8645, 4342.604
193.3467, 4369.498
193.8288, 4390.831
194.3109, 4416.305
194.7930, 4449.708
195.2751, 4490.485
195.7572, 4536.860
196.2394, 4588.145
196.7215, 4648.171
197.2036, 4722.301
197.6857, 4801.131
198.1678, 4879.169
198.6499, 4954.396
199.1321, 5022.241
199.6142, 5073.641
200.0963, 5103.679
200.5784, 5125.466
201.0605, 5151.958
201.5426, 5165.802
202.0248, 5153.264
202.5069, 5110.615
202.9890, 5044.011
203.4711, 4958.954
203.9532, 4839.670
204.4353, 4738.398
204.9175, 4667.299
205.3996, 4604.930
205.8817, 4538.118
206.3638, 4463.695
206.8459, 4385.534
207.3280, 4306.365
207.8102, 4221.316
208.2923, 4150.198
208.7744, 4096.937
209.2565, 4052.484
209.7386, 4014.436
210.2207, 3981.333
210.7029, 3950.270
211.1850, 3918.023
211.6671, 3884.492
212.1492, 3850.756
212.6313, 3812.095
213.1134, 3777.333
213.5956, 3748.952
214.0777, 3728.306
214.5598, 3717.464
215.0419, 3720.283
215.5240, 3739.386
216.0061, 3754.780
216.4883, 3763.477
216.9704, 3771.365
217.4525, 3779.967
217.9346, 3789.615
218.4167, 3800.024
218.8988, 3810.198
219.3810, 3819.925
219.8631, 3837.275
220.3452, 3867.382
220.8273, 3900.698
221.3094, 3941.138
221.7915, 3982.836
222.2737, 4014.625
222.7558, 4027.029
223.2379, 4022.427
223.7200, 4025.453
224.2021, 4045.446
224.6842, 4063.367
225.1664, 4075.516
225.6485, 4083.115
226.1306, 4088.464
226.6127, 4092.917
227.0948, 4095.966
227.5770, 4095.347
228.0591, 4088.506
228.5412, 4081.092
229.0233, 4073.146
229.5054, 4065.547
229.9875, 4059.203
230.4697, 4054.526
230.9518, 4051.285
231.4339, 4048.883
231.9160, 4047.274
232.3981, 4046.768
232.8802, 4049.103
233.3624, 4051.474
233.8445, 4050.342
234.3266, 4044.742
234.8087, 4038.534
235.2908, 4038.663
235.7729, 4047.693
236.2551, 4057.237
236.7372, 4063.242
237.2193, 4071.730
237.7014, 4087.494
238.1835, 4111.125
238.6656, 4138.971
239.1478, 4166.941
239.6299, 4194.945
240.1120, 4223.625
240.5941, 4254.583
241.0762, 4284.906
241.5583, 4313.301
242.0405, 4339.770
242.5226, 4365.112
243.0047, 4392.394
243.4868, 4422.839
243.9689, 4440.642
244.4510, 4439.096
244.9332, 4430.019
245.4153, 4417.630
245.8974, 4401.275
246.3795, 4378.022
246.8616, 4342.931
247.3437, 4297.897
247.8259, 4262.234
248.3080, 4241.006
248.7901, 4223.029
249.2722, 4204.696
249.7543, 4186.466
250.2364, 4169.393
250.7186, 4153.975
251.2007, 4139.979
251.6828, 4126.388
252.1649, 4112.114
252.6470, 4100.581
253.1291, 4091.827
253.6113, 4086.405
254.0934, 4086.259
254.5755, 4093.083
255.0576, 4101.595
255.5397, 4102.095
256.0219, 4091.676
256.5040, 4084.310
256.9861, 4078.750
257.4682, 4080.987
257.9503, 4100.530
258.4324, 4140.003
258.9146, 4180.870
259.3967, 4201.546
259.8788, 4201.014
260.3609, 4204.469
260.8430, 4217.273
261.3251, 4235.438
261.8073, 4258.542
262.2894, 4285.795
262.7715, 4310.092
263.2536, 4324.794
263.7357, 4331.559
264.2178, 4339.745
264.7000, 4350.159
265.1821, 4362.456
265.6642, 4378.951
266.1463, 4397.663
266.6284, 4411.393
267.1105, 4421.268
267.5927, 4423.082
268.0748, 4402.204
268.5569, 4350.046
269.0390, 4302.328
269.5211, 4293.416
270.0032, 4305.258
270.4854, 4307.942
270.9675, 4293.050
271.4496, 4266.479
271.9317, 4230.478
272.4138, 4184.576
272.8959, 4143.779
273.3781, 4119.832
273.8602, 4103.779
274.3423, 4078.075
274.8244, 4038.002
275.3065, 3995.263
275.7886, 3953.035
276.2708, 3913.384
276.7529, 3885.979
277.2350, 3877.807
277.7171, 3878.825
278.1992, 3871.746
278.6813, 3855.027
279.1635, 3839.512
279.6456, 3834.509
280.1277, 3832.039
280.6098, 3813.367
281.0919, 3771.430
281.5740, 3731.154
282.0562, 3726.965
282.5383, 3762.519
283.0204, 3787.441
283.5025, 3788.950
283.9846, 3782.020
284.4667, 3779.816
284.9489, 3783.367
285.4310, 3786.862
285.9131, 3784.761
286.3952, 3777.365
286.8773, 3776.216
287.3594, 3786.883
287.8416, 3797.783
288.3237, 3802.606
288.8058, 3803.037
289.2879, 3803.956
289.7700, 3808.014
290.2521, 3814.688
290.7343, 3821.802
291.2164, 3831.399
291.6985, 3838.924
292.1806, 3841.192
292.6627, 3841.899
293.1448, 3845.601
293.6270, 3853.893
294.1091, 3865.499
294.5912, 3879.050
295.0733, 3903.765
295.5554, 3911.452
296.0375, 3888.659
296.5197, 3859.880
297.0018, 3842.657
297.4839, 3838.492
297.9660, 3837.724
298.4481, 3829.419
298.9302, 3811.090
299.4124, 3802.783
299.8945, 3816.339
300.3766, 3827.782
300.8587, 3825.094
301.3408, 3813.844
301.8229, 3807.069
302.3050, 3813.880
302.7871, 3831.488
303.2693, 3846.319
303.7514, 3862.731
304.2335, 3868.826
304.7156, 3856.677
305.1977, 3836.624
305.6798, 3817.962
306.1620, 3803.935
306.6441, 3796.165
307.1262, 3798.404
307.6083, 3812.781
308.0904, 3829.235
308.5725, 3851.879
309.0547, 3871.912
309.5368, 3881.747
310.0189, 3881.536
310.5010, 3880.106
310.9831, 3886.367
311.4652, 3899.327
311.9474, 3907.678
312.4295, 3908.805
312.9116, 3907.641
313.3937, 3907.317
313.8758, 3907.397
314.3579, 3906.677
314.8401, 3903.103
315.3222, 3899.058
315.8043, 3899.198
316.2864, 3904.101
316.7685, 3909.725
317.2506, 3912.929
317.7328, 3915.875
318.2149, 3922.846
318.6970, 3937.666
319.1791, 3950.647
319.6612, 3952.363
320.1433, 3945.260
320.6255, 3940.153
321.1076, 3940.455
321.5897, 3944.729
322.0718, 3951.185
322.5539, 3959.783
323.0360, 3969.472
323.5182, 3982.686
324.0003, 3995.714
324.4824, 4002.312
324.9645, 4001.504
325.4466, 4000.435
325.9287, 4006.967
326.4109, 4022.127
326.8930, 4030.282
327.3751, 4021.708
327.8572, 4015.320
328.3393, 4024.833
328.8214, 4046.004
329.3036, 4064.836
329.7857, 4072.966
330.2678, 4072.891
330.7499, 4075.662
331.2320, 4073.087
331.7141, 4072.115
332.1963, 4090.351
332.6784, 4101.411
333.1605, 4105.657
333.6426, 4084.037
334.1247, 4094.781
334.6068, 4091.921
335.0890, 4088.069
335.5711, 4102.074
336.0532, 4081.887
336.5353, 4094.696
337.0174, 4093.701
337.4995, 4098.364
337.9817, 4089.341
338.4638, 4083.952
338.9459, 4079.306
339.4280, 4079.044
339.9101, 4087.402
340.3922, 4090.629
340.8744, 4080.260
341.3565, 4064.686
341.8386, 4054.321
342.3207, 4053.130
342.8028, 4057.887
343.2849, 4065.414
343.7671, 4076.556
344.2492, 4084.493
344.7313, 4086.836
345.2134, 4085.745
345.6955, 4083.246
346.1776, 4079.389
346.6598, 4072.743
347.1419, 4059.683
347.6240, 4043.193
348.1061, 4030.035
348.5882, 4019.226
349.0703, 4017.014
349.5525, 4035.249
350.0346, 4067.000
350.5167, 4091.659
350.9988, 4105.934
351.4809, 4111.673
351.9630, 4107.040
352.4452, 4093.895
352.9273, 4080.236
353.4094, 4067.093
353.8915, 4058.893
354.3736, 4070.669
354.8557, 4113.594
355.3379, 4148.371
355.8200, 4167.039
356.3021, 4172.644
356.7842, 4163.624
357.2663, 4140.920
357.7484, 4117.704
358.2306, 4109.005
358.7127, 4117.647
359.1948, 4125.994
359.6769, 4128.525
360.1590, 4136.117
360.6411, 4163.969
361.1233, 4200.338
361.6054, 4218.283
362.0875, 4200.270
362.5696, 4158.057
363.0517, 4134.766
363.5338, 4141.079
364.0160, 4150.442
364.4981, 4163.085
364.9802, 4174.939
365.4623, 4180.491
365.9444, 4179.439
366.4265, 4179.679
366.9087, 4193.627
367.3908, 4222.932
367.8729, 4239.698
368.3550, 4237.193
368.8371, 4228.015
369.3192, 4213.388
369.8014, 4197.528
370.2835, 4190.427
370.7656, 4200.167
371.2477, 4218.509
371.7298, 4234.383
372.2119, 4248.557
372.6941, 4252.114
373.1762, 4234.358
373.6583, 4207.609
374.1404, 4190.794
374.6225, 4186.219
375.1046, 4185.286
375.5868, 4186.476
376.0689, 4187.733
376.5510, 4183.468
377.0331, 4171.819
377.5152, 4160.435
377.9973, 4158.515
378.4795, 4167.389
378.9616, 4169.305
379.4437, 4165.628
379.9258, 4153.524
380.4079, 4122.710
380.8900, 4081.257
381.3722, 4051.789
381.8543, 4047.432
382.3364, 4060.165
382.8185, 4065.598
383.3006, 4051.796
383.7827, 4046.335
384.2649, 4056.445
384.7470, 4070.668
385.2291, 4079.870
385.7112, 4082.576
386.1933, 4083.054
386.6754, 4086.618
387.1576, 4093.785
387.6397, 4093.523
388.1218, 4077.179
388.6039, 4063.223
389.0860, 4058.053
389.5681, 4059.024
390.0503, 4062.203
390.5324, 4066.419
391.0145, 4070.660
391.4966, 4073.378
391.9787, 4074.483
392.4608, 4074.731
392.9430, 4073.612
393.4251, 4072.315
393.9072, 4071.896
394.3893, 4072.367
394.8714, 4073.343
395.3535, 4077.849
395.8357, 4081.656
396.3178, 4074.108
396.7999, 4053.416
397.2820, 4037.637
397.7641, 4041.338
398.2462, 4060.978
398.7284, 4074.846
399.2105, 4082.154
399.6926, 4084.670
400.1747, 4076.713
400.6568, 4065.852
401.1389, 4067.986
401.6211, 4088.463
402.1032, 4112.256
402.5853, 4116.854
403.0674, 4095.149
403.5495, 4074.708
404.0316, 4052.369
404.5138, 4033.793
404.9959, 4020.490
405.4780, 4013.310
405.9601, 4015.015
406.4422, 4028.731
406.9243, 4049.433
407.4065, 4059.110
407.8886, 4055.006
408.3707, 4045.034
408.8528, 4020.204
409.3349, 3997.425
409.8170, 3994.295
410.2992, 4012.095
410.7813, 4029.739
411.2634, 4024.694
411.7455, 4002.505
412.2276, 3993.267
412.7097, 4003.338
413.1919, 4015.766
413.6740, 4016.748
414.1561, 4011.877
414.6382, 4012.756
415.1203, 4028.645
415.6024, 4042.152
416.0846, 4036.135
416.5667, 4016.816
417.0488, 4003.874
417.5309, 4004.510
418.0130, 4012.200
418.4951, 4018.168
418.9773, 4023.057
419.4594, 4023.171
419.9415, 4007.725
420.4236, 3996.214
420.9057, 4010.405
421.3878, 4041.739
421.8700, 4059.920
422.3521, 4043.676
422.8342, 4002.865
423.3163, 3980.914
423.7984, 3996.061
424.2805, 4001.816
424.7627, 3978.932
425.2448, 3955.197
425.7269, 3958.985
426.2090, 3991.163
426.6911, 4023.330
427.1732, 4026.605
427.6554, 4003.444
428.1375, 3981.615
428.6196, 3957.566
429.1017, 3941.964
429.5838, 3949.380
430.0659, 3966.027
430.5481, 3969.803
431.0302, 3949.679
431.5123, 3928.379
431.9944, 3925.632
432.4765, 3937.502
432.9586, 3951.284
433.4408, 3965.019
433.9229, 3975.394
434.4050, 3977.122
434.8871, 3969.094
435.3692, 3963.725
435.8513, 3962.218
436.3335, 3963.055
436.8156, 3970.116
437.2977, 3978.830
437.7798, 3976.013
438.2619, 3953.896
438.7440, 3922.912
439.2262, 3910.229
439.7083, 3928.649
440.1904, 3943.172
440.6725, 3956.273
441.1546, 3963.275
441.6367, 3958.250
442.1189, 3943.571
442.6010, 3927.676
443.0831, 3914.642
443.5652, 3906.278
444.0473, 3912.310
444.5294, 3939.533
445.0116, 3962.115
445.4937, 3966.813
445.9758, 3963.702
446.4579, 3962.324
446.9400, 3964.262
447.4221, 3964.525
447.9043, 3957.645
448.3864, 3947.387
448.8685, 3941.879
449.3506, 3942.345
449.8327, 3945.028
450.3148, 3946.920
450.7970, 3948.410
451.2791, 3952.672
451.7612, 3960.757
452.2433, 3970.131
452.7254, 3983.602
453.2076, 3996.543
453.6897, 4001.711
454.1718, 3997.295
454.6539, 3988.114
455.1360, 3979.666
455.6181, 3971.355
456.1003, 3967.219
456.5824, 3974.166
457.0645, 3978.298
457.5466, 3968.704
458.0287, 3955.118
458.5108, 3955.244
458.9930, 3978.552
459.4751, 4008.361
459.9572, 4020.162
460.4393, 4013.653
460.9214, 4006.198
461.4035, 3998.449
461.8857, 3994.335
462.3678, 4000.705
462.8499, 4015.004
463.3320, 4023.325
463.8141, 4015.178
464.2962, 4004.782
464.7784, 4007.616
465.2605, 4020.038
465.7426, 4025.947
466.2247, 4017.422
466.7068, 4002.098
467.1889, 3995.094
467.6711, 4002.353
468.1532, 4005.658
468.6353, 4002.096
469.1174, 3997.202
469.5995, 3995.594
470.0816, 3995.792
470.5638, 3992.668
471.0459, 3982.570
471.5280, 3968.042
472.0101, 3956.146
472.4922, 3947.437
472.9743, 3940.084
473.4565, 3933.919
473.9386, 3928.959
474.4207, 3926.520
474.9028, 3926.087
475.3849, 3923.613
475.8670, 3917.529
476.3492, 3907.654
476.8313, 3890.417
477.3134, 3865.702
477.7955, 3847.323
478.2776, 3842.898
478.7597, 3848.612
479.2419, 3856.706
479.7240, 3870.944
480.2061, 3878.089
480.6882, 3872.944
481.1703, 3861.434
481.6524, 3846.380
482.1346, 3829.597
482.6167, 3814.936
483.0988, 3804.934
483.5809, 3799.700
484.0630, 3800.479
484.5451, 3815.956
485.0273, 3822.866
485.5094, 3814.894
485.9915, 3800.370
486.4736, 3781.459
486.9557, 3760.594
487.4378, 3747.846
487.9200, 3757.853
488.4021, 3781.700
488.8842, 3789.234
489.3663, 3776.622
489.8484, 3769.347
490.3305, 3786.563
490.8127, 3813.823
491.2948, 3819.740
491.7769, 3795.664
492.2590, 3775.717
492.7411, 3773.516
493.2232, 3780.330
493.7054, 3788.962
494.1875, 3797.378
494.6696, 3802.200
495.1517, 3800.485
495.6338, 3793.189
496.1159, 3786.400
496.5981, 3779.617
497.0802, 3774.201
497.5623, 3773.269
498.0444, 3771.629
498.5265, 3761.872
499.0086, 3745.151
499.4908, 3733.103
499.9729, 3740.538
500.4550, 3760.129
500.9371, 3760.261
501.4192, 3734.562
501.9013, 3717.063
502.3835, 3731.396
502.8656, 3757.280
503.3477, 3760.686
503.8298, 3734.841
504.3119, 3712.749
504.7940, 3709.608
505.2762, 3715.089
505.7583, 3720.181
506.2404, 3722.951
506.7225, 3718.442
507.2046, 3700.979
507.6867, 3676.893
508.1689, 3674.394
508.6510, 3714.850
509.1331, 3746.254
509.6152, 3769.148
510.0973, 3780.035
510.5794, 3768.446
511.0616, 3739.921
511.5437, 3717.082
512.0258, 3718.765
512.5079, 3736.132
512.9901, 3745.948
513.4722, 3747.728
513.9543, 3743.663
514.4364, 3728.570
514.9185, 3713.146
515.4006, 3712.869
515.8828, 3729.082
516.3649, 3742.272
516.8470, 3744.731
517.3291, 3742.961
517.8112, 3741.414
518.2933, 3740.944
518.7755, 3743.900
519.2576, 3752.181
519.7397, 3761.627
520.2218, 3761.502
520.7039, 3741.874
521.1860, 3731.765
521.6682, 3740.244
522.1503, 3748.618
522.6324, 3742.431
523.1145, 3727.815
523.5966, 3722.846
524.0787, 3740.007
524.5609, 3764.762
525.0430, 3772.955
525.5251, 3764.678
526.0072, 3753.619
526.4893, 3740.139
526.9714, 3729.498
527.4536, 3729.701
527.9357, 3739.300
528.4178, 3746.454
528.8999, 3745.931
529.3820, 3746.094
529.8641, 3754.562
530.3463, 3766.796
530.8284, 3772.890
531.3105, 3769.632
531.7926, 3763.558
532.2747, 3764.826
532.7568, 3776.205
533.2390, 3777.354
533.7211, 3751.435
534.2032, 3734.761
534.6853, 3741.782
535.1674, 3763.063
535.6495, 3790.106
536.1317, 3822.435
536.6138, 3842.387
537.0959, 3821.526
537.5780, 3774.649
538.0601, 3751.503
538.5422, 3759.793
539.0244, 3778.096
539.5065, 3794.851
539.9886, 3808.995
540.4707, 3815.328
540.9528, 3806.083
541.4349, 3800.644
541.9171, 3809.060
542.3992, 3819.057
542.8813, 3816.163
543.3634, 3801.215
543.8455, 3787.552
544.3276, 3785.542
544.8098, 3793.619
545.2919, 3806.274
545.7740, 3826.750
546.2561, 3842.902
546.7382, 3851.049
547.2203, 3853.860
547.7025, 3852.085
548.1846, 3846.192
548.6666, 3839.684
549.1487, 3833.528
549.6309, 3827.939
550.1130, 3821.185
550.5951, 3814.702
551.0772, 3815.571
551.5593, 3827.357
552.0414, 3843.995
552.5236, 3855.441
553.0057, 3858.986
553.4878, 3866.697
553.9699, 3886.277
554.4520, 3901.239
554.9341, 3903.011
555.4163, 3896.418
555.8984, 3888.755
556.3805, 3882.609
556.8626, 3877.754
557.3447, 3871.350
557.8268, 3864.726
558.3090, 3872.043
558.7911, 3900.530
559.2732, 3923.822
559.7553, 3919.889
560.2374, 3897.805
560.7195, 3888.719
561.2017, 3905.229
561.6838, 3913.037
562.1659, 3890.671
562.6480, 3860.866
563.1301, 3847.536
563.6122, 3852.383
564.0944, 3864.745
564.5765, 3877.931
565.0586, 3890.801
565.5407, 3899.541
566.0228, 3905.297
566.5049, 3904.003
566.9871, 3888.102
567.4692, 3870.251
567.9513, 3855.409
568.4334, 3844.974
568.9155, 3842.978
569.3976, 3859.470
569.8798, 3877.627
570.3619, 3875.803
570.8440, 3860.723
571.3261, 3858.054
571.8082, 3876.840
572.2903, 3897.550
572.7725, 3894.987
573.2546, 3865.375
573.7367, 3848.217
574.2188, 3856.921
574.7009, 3861.204
575.1830, 3846.492
575.6652, 3827.129
576.1473, 3819.766
576.6294, 3827.783
577.1115, 3841.573
577.5936, 3856.038
578.0757, 3869.271
578.5579, 3873.445
579.0400, 3867.505
579.5221, 3861.086
580.0042, 3859.362
580.4863, 3858.994
580.9684, 3851.220
581.4506, 3831.395
581.9327, 3823.884
582.4148, 3847.800
582.8969, 3870.815
583.3790, 3866.759
583.8611, 3845.232
584.3433, 3831.032
584.8254, 3835.633
585.3075, 3846.581
585.7896, 3839.999
586.2717, 3812.809
586.7538, 3806.789
587.2360, 3837.422
587.7181, 3867.087
588.2002, 3873.586
588.6823, 3865.293
589.1644, 3853.597
589.6465, 3836.925
590.1287, 3825.028
590.6108, 3828.266
591.0929, 3835.831
591.5750, 3834.034
592.0571, 3822.193
592.5392, 3805.249
593.0214, 3785.395
593.5035, 3766.003
593.9856, 3757.512
594.4677, 3762.558
594.9498, 3772.338
595.4319, 3794.468
595.9141, 3813.556
596.3962, 3822.153
596.8783, 3821.432
597.3604, 3814.257
597.8425, 3797.854
598.3246, 3782.870
598.8068, 3780.051
599.2889, 3786.038
599.7710, 3793.880
600.2531, 3802.283
600.7352, 3806.450
601.2173, 3801.399
601.6995, 3788.552
602.1816, 3779.545
602.6637, 3777.474
603.1458, 3775.173
603.6279, 3771.738
604.1100, 3768.177
604.5922, 3763.022
605.0743, 3758.027
605.5564, 3759.976
606.0385, 3778.316
606.5206, 3798.151
607.0027, 3794.031
607.4849, 3768.841
607.9670, 3743.984
608.4491, 3722.874
608.9312, 3710.588
609.4133, 3714.516
609.8954, 3734.765
610.3776, 3748.918
610.8597, 3759.472
611.3418, 3761.437
611.8239, 3744.552
612.3060, 3724.220
612.7881, 3718.523
613.2703, 3727.294
613.7524, 3733.710
614.2345, 3720.792
614.7166, 3700.065
615.1987, 3704.461
615.6808, 3735.466
616.1630, 3757.842
616.6451, 3760.139
617.1272, 3752.463
617.6093, 3743.981
618.0914, 3734.656
618.5735, 3728.411
619.0557, 3729.905
619.5378, 3729.307
620.0199, 3719.272
620.5020, 3706.769
620.9841, 3700.003
621.4662, 3700.754
621.9484, 3706.977
622.4305, 3719.573
622.9126, 3735.010
623.3947, 3737.624
623.8768, 3725.098
624.3589, 3713.249
624.8411, 3707.174
625.3232, 3703.365
625.8053, 3696.042
626.2874, 3685.476
626.7695, 3682.145
627.2516, 3693.190
627.7338, 3705.644
628.2159, 3714.937
628.6980, 3720.681
629.1801, 3720.401
629.6622, 3714.753
630.1443, 3711.444
630.6265, 3720.280
631.1086, 3737.586
631.5907, 3740.715
632.0728, 3724.843
632.5549, 3714.195
633.0370, 3721.429
633.5192, 3731.746
634.0013, 3724.206
634.4834, 3700.200
634.9655, 3689.866
635.4476, 3711.551
635.9297, 3735.411
636.4119, 3746.053
636.8940, 3747.394
637.3761, 3745.907
637.8582, 3743.327
638.3403, 3737.809
638.8224, 3726.237
639.3046, 3710.361
639.7867, 3701.774
640.2688, 3702.311
640.7509, 3703.198
641.2330, 3698.383
641.7151, 3696.509
642.1973, 3710.368
642.6794, 3738.189
643.1615, 3756.980
643.6436, 3754.723
644.1257, 3750.066
644.6078, 3753.599
645.0900, 3761.216
645.5721, 3767.183
646.0542, 3769.873
646.5363, 3769.559
647.0184, 3766.521
647.5005, 3760.701
647.9827, 3748.047
648.4648, 3722.317
648.9469, 3717.088
649.4290, 3757.990
649.9111, 3803.805
650.3932, 3810.212
650.8754, 3783.263
651.3575, 3765.478
651.8396, 3769.963
652.3217, 3778.201
652.8038, 3785.688
653.2859, 3789.710
653.7681, 3782.708
654.2502, 3766.328
654.7323, 3755.775
655.2144, 3765.363
655.6965, 3787.376
656.1786, 3794.859
656.6608, 3785.063
657.1429, 3778.046
657.6250, 3780.365
658.1071, 3783.140
658.5892, 3774.304
659.0714, 3757.908
659.5535, 3753.041
660.0356, 3777.938
660.5177, 3794.021
660.9998, 3780.689
661.4819, 3756.875
661.9641, 3741.293
662.4462, 3735.765
662.9283, 3733.435
663.4104, 3729.996
663.8925, 3726.345
664.3746, 3721.959
664.8568, 3716.455
665.3389, 3726.115
665.8210, 3762.180
666.3031, 3792.876
666.7852, 3791.505
667.2673, 3764.871
667.7495, 3744.878
668.2316, 3736.392
668.7137, 3726.660
669.1958, 3708.671
669.6779, 3692.306
670.1600, 3687.019
670.6422, 3690.142
671.1243, 3692.929
671.6064, 3691.167
672.0885, 3686.485
672.5706, 3681.053
673.0527, 3674.740
673.5349, 3665.060
674.0170, 3650.258
674.4991, 3640.989
674.9812, 3644.062
675.4633, 3656.589
675.9454, 3671.996
676.4276, 3696.458
676.9097, 3710.163
677.3918, 3706.830
677.8739, 3698.512
678.3560, 3687.226
678.8381, 3676.725
679.3203, 3673.437
679.8024, 3679.396
680.2845, 3685.826
680.7666, 3681.297
681.2487, 3671.895
681.7308, 3674.753
682.2130, 3689.690
682.6951, 3700.333
683.1772, 3699.063
683.6593, 3692.214
684.1414, 3690.794
684.6235, 3698.403
685.1057, 3692.267
685.5878, 3649.030
686.0699, 3620.024
686.5520, 3626.288
687.0341, 3647.507
687.5162, 3664.479
687.9984, 3674.171
688.4805, 3680.011
688.9626, 3684.630
689.4447, 3685.889
689.9268, 3678.733
690.4089, 3666.192
690.8911, 3656.861
691.3732, 3653.111
691.8553, 3652.836
692.3374, 3653.938
692.8195, 3656.585
693.3016, 3664.262
693.7838, 3687.199
694.2659, 3692.012
694.7480, 3647.722
695.2301, 3605.834
695.7122, 3606.761
696.1943, 3640.802
696.6765, 3669.459
697.1586, 3683.698
697.6407, 3689.937
698.1228, 3684.765
698.6049, 3677.303
699.0870, 3678.460
699.5692, 3689.102
700.0513, 3707.392
700.5334, 3733.764
701.0155, 3759.009
701.4976, 3758.967
701.9797, 3731.684
702.4619, 3722.449
702.9440, 3742.202
703.4261, 3762.318
703.9082, 3766.090
704.3903, 3758.592
704.8724, 3751.421
705.3546, 3742.867
705.8367, 3739.397
706.3188, 3741.099
706.8009, 3748.890
707.2830, 3771.216
707.7651, 3797.359
708.2473, 3807.370
708.7294, 3796.026
709.2115, 3782.226
709.6936, 3785.987
710.1757, 3800.390
710.6578, 3807.418
711.1400, 3807.273
711.6221, 3807.800
712.1042, 3811.803
712.5863, 3817.217
713.0684, 3820.797
713.5505, 3822.142
714.0327, 3830.358
714.5148, 3852.050
714.9969, 3871.609
715.4790, 3888.235
715.9611, 3900.611
716.4432, 3905.184
716.9254, 3903.886
717.4075, 3905.079
717.8896, 3912.446
718.3717, 3922.979
718.8538, 3936.952
719.3359, 3951.438
719.8181, 3958.483
720.3002, 3959.071
720.7823, 3967.025
721.2644, 3993.086
721.7465, 4026.161
722.2286, 4035.603
722.7108, 4015.724
723.1929, 4013.868
723.6750, 4045.345
724.1571, 4071.623
724.6392, 4065.510
725.1213, 4041.777
725.6035, 4032.469
726.0856, 4044.093
726.5677, 4047.748
727.0498, 4033.886
727.5319, 4015.038
728.0140, 4001.189
728.4962, 3986.418
728.9783, 3955.905
729.4604, 3907.892
729.9425, 3865.187
730.4246, 3854.564
730.9067, 3861.619
731.3889, 3852.236
731.8710, 3828.317
732.3531, 3808.696
732.8352, 3799.361
733.3173, 3791.841
733.7994, 3777.362
734.2816, 3756.517
734.7637, 3736.205
735.2458, 3713.114
735.7279, 3696.080
736.2100, 3691.450
736.6921, 3687.869
737.1743, 3676.185
737.6564, 3659.904
738.1385, 3649.397
738.6206, 3648.418
739.1027, 3651.023
739.5848, 3653.377
740.0670, 3657.842
740.5491, 3672.879
741.0312, 3692.939
741.5133, 3697.849
741.9954, 3677.982
742.4775, 3651.291
742.9597, 3645.760
743.4418, 3659.346
743.9239, 3659.793
744.4060, 3642.381
744.8881, 3637.926
745.3702, 3665.983
745.8524, 3700.935
746.3345, 3704.571
746.8166, 3671.458
747.2987, 3658.595
747.7808, 3681.377
748.2629, 3703.102
748.7451, 3710.801
749.2272, 3717.125
749.7093, 3736.403
750.1914, 3766.085
750.6735, 3790.974
751.1556, 3803.566
751.6378, 3809.366
752.1199, 3810.507
752.6020, 3809.506
753.0841, 3813.306
753.5662, 3821.137
754.0483, 3821.648
754.5305, 3807.297
755.0126, 3788.289
755.4947, 3787.900
755.9768, 3809.737
756.4589, 3815.364
756.9410, 3800.131
757.4232, 3777.871
757.9053, 3746.923
758.3874, 3717.722
758.8695, 3711.183
759.3516, 3730.764
759.8337, 3733.946
760.3159, 3703.657
760.7980, 3672.780
761.2801, 3652.378
761.7622, 3638.434
762.2443, 3628.542
762.7264, 3620.666
763.2086, 3609.109
763.6907, 3587.698
764.1728, 3566.505
764.6549, 3559.832
765.1370, 3561.916
765.6191, 3558.113
766.1013, 3546.783
766.5834, 3533.605
767.0655, 3521.561
767.5476, 3512.252
768.0297, 3511.616
768.5118, 3523.156
768.9940, 3520.063
769.4761, 3491.454
769.9582, 3471.057
770.4403, 3480.356
770.9224, 3501.212
771.4045, 3504.374
771.8867, 3487.518
772.3688, 3484.198
772.8509, 3518.527
773.3330, 3542.667
773.8151, 3526.534
774.2972, 3498.659
774.7794, 3494.023
775.2615, 3510.428
775.7436, 3515.574
776.2257, 3484.941
776.7078, 3450.405
777.1899, 3453.733
777.6721, 3478.984
778.1542, 3489.147
778.6363, 3480.991
779.1184, 3469.258
779.6005, 3461.809
780.0826, 3458.356
780.5648, 3459.667
781.0469, 3466.667
781.5290, 3468.202
782.0111, 3460.967
782.4932, 3457.362
782.9753, 3465.022
783.4575, 3475.819
783.9396, 3479.744
784.4217, 3476.761
784.9038, 3470.733
785.3859, 3456.654
785.8680, 3446.239
786.3502, 3441.853
786.8323, 3443.027
787.3144, 3453.616
787.7965, 3469.422
788.2786, 3477.769
788.7607, 3471.463
789.2429, 3462.702
789.7250, 3463.902
790.2071, 3468.222
790.6892, 3462.881
791.1713, 3449.563
791.6534, 3439.714
792.1356, 3438.203
792.6177, 3439.779
793.0998, 3436.452
793.5819, 3429.264
794.0640, 3429.207
794.5461, 3437.225
795.0283, 3447.818
795.5104, 3463.248
795.9925, 3472.090
796.4746, 3458.752
796.9567, 3426.530
797.4388, 3411.410
797.9210, 3435.592
798.4031, 3445.104
798.8852, 3422.168
799.3673, 3399.289
799.8494, 3396.701
800.3315, 3407.165
800.8137, 3416.200
801.2958, 3420.867
801.7779, 3421.446
802.2600, 3416.399
802.7421, 3408.778
803.2242, 3396.276
803.7064, 3384.861
804.1885, 3388.723
804.6706, 3409.122
805.1527, 3428.292
805.6348, 3430.308
806.1169, 3422.531
806.5991, 3423.045
807.0812, 3429.633
807.5633, 3422.622
808.0454, 3397.703
808.5275, 3374.958
809.0096, 3367.780
809.4918, 3371.437
809.9739, 3374.248
810.4560, 3375.423
810.9381, 3378.744
811.4202, 3385.064
811.9023, 3392.178
812.3845, 3399.794
812.8666, 3407.410
813.3487, 3414.392
813.8308, 3420.724
814.3129, 3426.844
814.7950, 3440.241
815.2772, 3443.937
815.7593, 3423.113
816.2414, 3397.152
816.7235, 3380.971
817.2056, 3375.935
817.6877, 3381.059
818.1699, 3398.727
818.6520, 3412.987
819.1341, 3405.094
819.6162, 3388.107
820.0983, 3383.659
820.5804, 3389.146
821.0626, 3389.355
821.5447, 3379.130
822.0268, 3368.675
822.5089, 3370.583
822.9910, 3380.873
823.4731, 3381.653
823.9553, 3372.421
824.4374, 3364.209
824.9195, 3359.554
825.4016, 3354.607
825.8837, 3344.586
826.3658, 3333.480
826.8480, 3336.215
827.3301, 3366.358
827.8122, 3378.734
828.2943, 3354.388
828.7764, 3335.496
829.2585, 3343.639
829.7407, 3361.440
830.2228, 3367.116
830.7049, 3359.447
831.1870, 3355.769
831.6691, 3362.494
832.1512, 3371.231
832.6334, 3381.905
833.1155, 3390.247
833.5976, 3393.020
834.0797, 3389.536
834.5618, 3377.088
835.0439, 3351.921
835.5261, 3332.024
836.0082, 3339.130
836.4903, 3359.575
836.9724, 3373.011
837.4545, 3378.932
837.9366, 3380.031
838.4188, 3377.534
838.9009, 3374.884
839.3830, 3375.574
839.8651, 3379.130
840.3472, 3385.435
840.8293, 3394.655
841.3115, 3397.043
841.7936, 3389.798
842.2757, 3380.398
842.7578, 3372.529
843.2399, 3367.778
843.7220, 3371.160
844.2042, 3387.658
844.6863, 3395.105
845.1684, 3383.830
845.6505, 3377.929
846.1326, 3394.559
846.6147, 3413.962
847.0969, 3414.653
847.5790, 3398.016
848.0611, 3385.240
848.5432, 3383.020
849.0253, 3379.750
849.5074, 3365.635
849.9896, 3355.246
850.4717, 3368.085
850.9538, 3391.762
851.4359, 3395.277
851.9180, 3367.586
852.4001, 3344.437
852.8823, 3355.721
853.3644, 3377.725
853.8465, 3386.969
854.3286, 3386.901
854.8107, 3386.136
855.2928, 3386.521
855.7750, 3385.055
856.2571, 3378.814
856.7392, 3371.632
857.2213, 3371.984
857.7034, 3377.566
858.1855, 3376.227
858.6677, 3367.223
859.1498, 3363.612
859.6319, 3372.241
860.1140, 3383.287
860.5961, 3381.727
861.0782, 3368.234
861.5604, 3361.205
862.0425, 3361.068
862.5246, 3366.832
863.0067, 3382.829
863.4888, 3395.674
863.9709, 3391.753
864.4531, 3377.180
864.9352, 3374.661
865.4173, 3394.548
865.8994, 3404.831
866.3815, 3397.000
866.8636, 3390.199
867.3458, 3392.373
867.8279, 3398.215
868.3100, 3402.456
868.7921, 3404.580
869.2742, 3404.490
869.7563, 3395.652
870.2385, 3393.031
870.7206, 3414.720
871.2027, 3434.774
871.6848, 3424.624
872.1669, 3394.551
872.6490, 3371.414
873.1312, 3364.151
873.6133, 3363.388
874.0954, 3362.405
874.5775, 3364.263
875.0596, 3377.585
875.5417, 3394.901
876.0239, 3395.486
876.5060, 3379.722
876.9881, 3375.936
877.4702, 3406.762
877.9523, 3445.077
878.4344, 3442.096
878.9166, 3409.161
879.3987, 3388.120
879.8808, 3381.370
880.3629, 3377.001
880.8450, 3370.051
881.3271, 3368.339
881.8093, 3384.203
882.2914, 3412.424
882.7735, 3416.170
883.2556, 3390.741
883.7377, 3376.490
884.2198, 3381.969
884.7020, 3393.445
885.1841, 3404.929
885.6662, 3413.253
886.1483, 3409.705
886.6304, 3388.626
887.1125, 3381.852
887.5947, 3399.860
888.0768, 3415.287
888.5589, 3418.712
889.0410, 3418.759
889.5231, 3426.285
890.0052, 3437.626
890.4874, 3435.299
890.9695, 3403.999
891.4516, 3384.706
891.9337, 3390.053
892.4158, 3400.933
892.8979, 3414.755
893.3801, 3423.905
893.8622, 3413.422
894.3443, 3383.931
894.8264, 3366.104
895.3085, 3382.666
895.7906, 3401.279
896.2728, 3405.702
896.7549, 3402.805
897.2370, 3396.109
897.7191, 3389.036
898.2012, 3387.660
898.6833, 3394.168
899.1655, 3403.456
899.6476, 3413.605
900.1297, 3422.544
900.6118, 3429.113
901.0939, 3432.047
901.5760, 3426.248
902.0582, 3412.946
902.5403, 3402.094
903.0224, 3399.837
903.5045, 3403.553
903.9866, 3411.678
904.4688, 3422.352
904.9509, 3431.135
905.4330, 3437.127
905.9151, 3433.521
906.3972, 3418.252
906.8793, 3404.395
907.3615, 3405.286
907.8436, 3416.013
908.3257, 3420.831
908.8078, 3419.703
909.2899, 3416.343
909.7720, 3409.989
910.2542, 3411.360
910.7363, 3427.844
911.2184, 3447.746
911.7005, 3453.494
912.1826, 3445.299
912.6647, 3440.739
913.1469, 3438.646
913.6290, 3445.501
914.1111, 3471.230
914.5932, 3488.796
915.0753, 3474.036
915.5574, 3442.955
916.0396, 3434.080
916.5217, 3457.263
917.0038, 3465.471
917.4859, 3445.473
917.9680, 3429.231
918.4501, 3425.067
918.9323, 3426.508
919.4144, 3430.006
919.8965, 3434.947
920.3786, 3439.544
920.8607, 3444.179
921.3428, 3447.349
921.8250, 3444.433
922.3071, 3445.100
922.7892, 3457.785
923.2713, 3473.917
923.7534, 3482.571
924.2355, 3483.970
924.7177, 3487.566
925.1998, 3502.442
925.6819, 3509.672
926.1640, 3491.854
926.6461, 3472.453
927.1282, 3471.624
927.6104, 3482.274
928.0925, 3489.792
928.5746, 3491.244
929.0567, 3494.635
929.5388, 3507.724
930.0209, 3520.542
930.5031, 3528.773
930.9852, 3530.352
931.4673, 3517.243
931.9494, 3495.681
932.4315, 3482.326
932.9136, 3483.131
933.3958, 3491.056
933.8779, 3505.717
934.3600, 3519.514
934.8421, 3521.104
935.3242, 3514.755
935.8063, 3506.954
936.2885, 3500.187
936.7706, 3499.097
937.2527, 3506.460
937.7348, 3515.561
938.2169, 3518.397
938.6990, 3516.822
939.1812, 3512.494
939.6633, 3507.497
940.1454, 3511.931
940.6275, 3526.799
941.1096, 3537.537
941.5917, 3532.724
942.0739, 3524.122
942.5560, 3535.885
943.0381, 3563.263
943.5202, 3584.882
944.0023, 3599.059
944.4844, 3592.293
944.9666, 3559.784
945.4487, 3530.343
945.9308, 3531.021
946.4129, 3551.338
946.8950, 3561.213
947.3771, 3560.750
947.8593, 3571.148
948.3414, 3595.596
948.8235, 3607.208
949.3056, 3593.432
949.7877, 3574.537
950.2698, 3574.905
950.7520, 3588.620
951.2341, 3580.386
951.7162, 3544.178
952.1983, 3526.821
952.6804, 3536.958
953.1625, 3550.268
953.6447, 3555.460
954.1268, 3558.593
954.6089, 3569.224
955.0910, 3586.529
955.5731, 3592.833
956.0552, 3584.323
956.5374, 3576.180
957.0195, 3569.142
957.5016, 3565.116
957.9837, 3567.321
958.4658, 3570.668
958.9479, 3565.843
959.4301, 3551.832
959.9122, 3543.645
960.3943, 3540.152
960.8764, 3545.370
961.3585, 3568.405
961.8406, 3588.603
962.3228, 3592.361
962.8049, 3585.208
963.2870, 3575.141
963.7691, 3558.088
964.2512, 3560.250
964.7333, 3609.965
965.2155, 3637.666
965.6976, 3612.349
966.1797, 3580.444
966.6618, 3571.539
967.1439, 3577.789
967.6260, 3580.768
968.1082, 3577.575
968.5903, 3581.089
969.0724, 3602.988
969.5545, 3616.865
970.0366, 3611.654
970.5187, 3600.112
971.0009, 3588.479
971.4830, 3578.772
971.9651, 3574.959
972.4472, 3577.070
972.9293, 3586.285
973.4114, 3612.685
973.8936, 3633.637
974.3757, 3637.036
974.8578, 3635.071
975.3399, 3640.344
975.8220, 3649.454
976.3041, 3648.231
976.7863, 3628.294
977.2684, 3618.689
977.7505, 3636.684
978.2326, 3653.184
978.7147, 3655.424
979.1968, 3650.095
979.6790, 3636.435
980.1611, 3621.515
980.6432, 3628.980
981.1253, 3675.152
981.6074, 3708.307
982.0895, 3707.703
982.5717, 3696.679
983.0538, 3676.805
983.5359, 3660.316
984.0180, 3664.190
984.5001, 3683.528
984.9822, 3695.975
985.4644, 3694.775
985.9465, 3689.016
986.4286, 3672.632
986.9107, 3663.133
987.3928, 3678.478
987.8749, 3701.091
988.3571, 3707.642
988.8392, 3700.709
989.3213, 3702.932
989.8034, 3727.613
990.2855, 3742.592
990.7676, 3724.513
991.2498, 3703.560
991.7319, 3698.275
992.2140, 3701.919
992.6961, 3706.318
993.1782, 3710.257
993.6603, 3714.838
994.1425, 3720.823
994.6246, 3726.255
995.1067, 3733.281
995.5888, 3736.215
996.0709, 3726.026
996.5530, 3712.763
997.0352, 3706.608
997.5173, 3709.730
997.9994, 3725.030
998.4815, 3760.615
998.9636, 3786.733
999.4457, 3784.598
999.9279, 3773.740
1000.410, 3763.016
1000.892, 3754.740
1001.374, 3751.767
1001.856, 3753.170
1002.338, 3753.838
1002.821, 3750.362
1003.303, 3751.207
1003.785, 3765.061
1004.267, 3779.511
1004.749, 3787.953
1005.231, 3790.600
1005.713, 3783.072
1006.195, 3770.101
1006.677, 3769.846
1007.160, 3793.050
1007.642, 3813.533
1008.124, 3820.129
1008.606, 3819.235
1009.088, 3806.144
1009.570, 3793.938
1010.052, 3800.575
1010.534, 3822.947
1011.017, 3843.808
1011.499, 3859.745
1011.981, 3867.159
1012.463, 3858.065
1012.945, 3847.429
1013.427, 3843.346
1013.909, 3843.441
1014.391, 3845.379
1014.873, 3848.581
1015.356, 3853.286
1015.838, 3860.778
1016.320, 3864.370
1016.802, 3849.995
1017.284, 3844.666
1017.766, 3874.076
1018.248, 3911.224
1018.730, 3928.326
1019.213, 3928.137
1019.695, 3927.415
1020.177, 3930.558
1020.659, 3930.446
1021.141, 3921.666
1021.623, 3912.951
1022.105, 3901.452
1022.587, 3897.656
1023.069, 3917.366
1023.552, 3951.396
1024.034, 3976.646
1024.516, 3988.656
1024.998, 3993.066
1025.480, 3980.353
1025.962, 3974.588
1026.444, 3996.593
1026.926, 4018.140
1027.409, 4008.692
1027.891, 3983.512
1028.373, 3979.348
1028.855, 4003.993
1029.337, 4022.580
1029.819, 4026.438
1030.301, 4026.777
1030.783, 4024.059
1031.266, 4021.338
1031.748, 4016.313
1032.230, 4014.447
1032.712, 4028.435
1033.194, 4060.921
1033.676, 4083.240
1034.158, 4087.768
1034.640, 4088.788
1035.122, 4083.798
1035.604, 4081.064
1036.087, 4086.191
1036.569, 4095.813
1037.051, 4105.381
1037.533, 4114.854
1038.015, 4123.723
1038.497, 4137.300
1038.979, 4141.460
1039.461, 4122.769
1039.944, 4111.136
1040.426, 4125.444
1040.908, 4148.593
1041.390, 4160.947
1041.872, 4163.176
1042.354, 4162.634
1042.836, 4158.379
1043.318, 4152.663
1043.800, 4138.598
1044.283, 4136.958
1044.765, 4163.114
1045.247, 4193.717
1045.729, 4203.309
1046.211, 4197.669
1046.693, 4205.236
1047.175, 4234.580
1047.657, 4246.267
1048.140, 4232.053
1048.622, 4224.561
1049.104, 4236.146
1049.586, 4250.310
1050.068, 4252.030
1050.550, 4247.483
1051.032, 4253.865
1051.514, 4272.298
1051.996, 4291.288
1052.479, 4311.585
1052.961, 4326.298
1053.443, 4332.918
1053.925, 4338.666
1054.407, 4348.527
1054.889, 4360.319
1055.371, 4370.572
1055.853, 4379.170
1056.335, 4383.220
1056.818, 4382.795
1057.300, 4390.134
1057.782, 4407.398
1058.264, 4426.154
1058.746, 4442.210
1059.228, 4454.913
1059.710, 4463.457
1060.192, 4467.743
1060.675, 4464.095
1061.157, 4455.238
1061.639, 4456.563
1062.121, 4469.172
1062.603, 4487.512
1063.085, 4509.114
1063.567, 4529.597
1064.049, 4544.586
1064.531, 4555.685
1065.014, 4565.180
1065.496, 4573.176
1065.978, 4579.776
1066.460, 4585.069
1066.942, 4587.957
1067.424, 4589.045
1067.906, 4594.558
1068.388, 4610.167
1068.870, 4626.402
1069.353, 4631.554
1069.835, 4631.465
1070.317, 4628.420
1070.799, 4629.014
1071.281, 4651.362
1071.763, 4690.933
1072.245, 4718.673
1072.727, 4720.696
1073.210, 4715.589
1073.692, 4706.578
1074.174, 4707.191
1074.656, 4741.214
1075.138, 4782.375
1075.620, 4794.606
1076.102, 4785.915
1076.584, 4786.124
1077.067, 4803.208
1077.549, 4825.787
1078.031, 4860.343
1078.513, 4884.162
1078.995, 4872.204
1079.477, 4860.105
1079.959, 4878.923
1080.441, 4915.066
1080.923, 4946.308
1081.406, 4969.644
1081.888, 4985.341
1082.370, 4998.566
1082.852, 4996.386
1083.334, 4944.920
1083.816, 4915.893
1084.298, 4964.894
1084.780, 5035.166
1085.262, 5061.435
1085.745, 5053.578
1086.227, 5061.701
1086.709, 5093.110
1087.191, 5121.185
1087.673, 5146.101
1088.155, 5167.284
1088.637, 5185.359
1089.119, 5197.758
1089.602, 5200.430
1090.084, 5198.618
1090.566, 5202.477
1091.048, 5211.708
1091.530, 5237.182
1092.012, 5282.603
1092.494, 5319.511
1092.976, 5342.989
1093.458, 5359.332
1093.941, 5370.941
1094.423, 5382.224
1094.905, 5398.861
1095.387, 5419.783
1095.869, 5439.521
1096.351, 5459.145
1096.833, 5489.339
1097.315, 5529.403
1097.797, 5563.259
1098.280, 5586.360
1098.762, 5613.549
1099.244, 5657.054
1099.726, 5708.438
1100.208, 5759.269
1100.690, 5806.132
1101.172, 5832.837
1101.654, 5852.052
1102.137, 5899.830
1102.619, 5975.987
1103.101, 6049.283
1103.583, 6103.945
1104.065, 6165.407
1104.547, 6256.836
1105.029, 6361.558
1105.511, 6451.404
1105.994, 6555.481
1106.476, 6715.174
1106.958, 6917.419
1107.440, 7124.699
1107.922, 7330.104
1108.404, 7553.637
1108.886, 7813.368
1109.368, 8078.271
1109.850, 8322.747
1110.333, 8583.017
1110.815, 8886.251
1111.297, 9213.199
1111.779, 9525.565
1112.261, 9834.303
1112.743, 10203.82
1113.225, 10638.66
1113.707, 11133.58
1114.189, 11716.68
1114.672, 12310.01
1115.154, 12921.30
1115.636, 13514.68
1116.118, 14095.46
1116.600, 14618.50
1117.082, 15025.21
1117.564, 15316.39
1118.046, 15276.35
1118.529, 14871.58
1119.011, 14304.11
1119.493, 13579.59
1119.975, 12795.94
1120.457, 11984.51
1120.939, 11190.23
1121.421, 10458.72
1121.903, 9792.673
1122.385, 9209.267
1122.868, 8708.854
1123.350, 8287.125
1123.832, 7941.822
1124.314, 7657.599
1124.796, 7428.444
1125.278, 7231.642
1125.760, 7055.003
1126.242, 6902.329
1126.724, 6781.673
1127.207, 6687.353
1127.689, 6614.412
1128.171, 6560.634
1128.653, 6528.717
1129.135, 6511.238
1129.617, 6493.720
1130.099, 6471.506
1130.581, 6442.704
1131.064, 6404.418
1131.546, 6362.466
1132.028, 6310.168
1132.510, 6265.686
1132.992, 6239.720
1133.474, 6229.654
1133.956, 6235.819
1134.438, 6254.434
1134.921, 6274.756
1135.403, 6300.645
1135.885, 6310.477
1136.367, 6288.234
1136.849, 6270.783
1137.331, 6265.933
1137.813, 6264.989
1138.295, 6264.276
1138.777, 6262.856
1139.260, 6257.531
1139.742, 6249.985
1140.224, 6257.746
1140.706, 6283.292
1141.188, 6306.061
1141.670, 6324.904
1142.152, 6338.950
1142.634, 6347.646
1143.116, 6355.695
1143.599, 6367.338
1144.081, 6377.360
1144.563, 6369.051
1145.045, 6354.276
1145.527, 6376.259
1146.009, 6422.102
1146.491, 6450.895
1146.973, 6460.488
1147.456, 6471.824
1147.938, 6492.008
1148.420, 6503.790
1148.902, 6484.420
1149.384, 6468.651
1149.866, 6492.843
1150.348, 6530.398
1150.830, 6560.618
1151.313, 6582.566
1151.795, 6597.616
1152.277, 6606.398
1152.759, 6610.710
1153.241, 6611.327
1153.723, 6605.974
1154.205, 6574.661
1154.687, 6564.365
1155.169, 6610.224
1155.651, 6658.053
1156.134, 6670.879
1156.616, 6668.731
1157.098, 6680.146
1157.580, 6703.935
1158.062, 6728.146
1158.544, 6757.239
1159.026, 6761.537
1159.508, 6732.680
1159.991, 6721.566
1160.473, 6744.912
1160.955, 6776.162
1161.437, 6796.246
1161.919, 6812.971
1162.401, 6842.136
1162.883, 6878.084
1163.365, 6903.896
1163.848, 6919.872
1164.330, 6920.188
1164.812, 6910.639
1165.294, 6916.069
1165.776, 6942.518
1166.258, 6966.178
1166.740, 6968.463
1167.222, 6969.910
1167.704, 6993.681
1168.187, 7017.673
1168.669, 7018.045
1169.151, 7009.692
1169.633, 7006.795
1170.115, 7013.777
1170.597, 7040.259
1171.079, 7092.104
1171.561, 7127.916
1172.043, 7131.919
1172.526, 7132.961
1173.008, 7128.561
1173.490, 7132.652
1173.972, 7159.502
1174.454, 7185.575
1174.936, 7184.399
1175.418, 7164.108
1175.900, 7149.559
1176.383, 7139.491
1176.865, 7156.726
1177.347, 7201.935
1177.829, 7251.993
1178.311, 7301.937
1178.793, 7326.287
1179.275, 7312.586
1179.757, 7300.665
1180.240, 7339.190
1180.722, 7392.207
1181.204, 7395.793
1181.686, 7376.680
1182.168, 7376.508
1182.650, 7392.395
1183.132, 7415.242
1183.614, 7440.415
1184.096, 7460.447
1184.578, 7472.441
1185.061, 7480.135
1185.543, 7479.492
1186.025, 7482.744
1186.507, 7499.087
1186.989, 7516.828
1187.471, 7523.188
1187.953, 7529.125
1188.435, 7556.271
1188.918, 7598.594
1189.400, 7616.480
1189.882, 7599.896
1190.364, 7593.080
1190.846, 7594.201
1191.328, 7618.232
1191.810, 7673.559
1192.292, 7714.374
1192.775, 7713.003
1193.257, 7697.353
1193.739, 7703.044
1194.221, 7719.272
1194.703, 7713.720
1195.185, 7699.397
1195.667, 7711.780
1196.149, 7746.758
1196.631, 7788.172
1197.114, 7831.118
1197.596, 7876.949
1198.078, 7928.168
1198.560, 7961.977
1199.042, 7949.394
1199.524, 7934.401
1200.006, 7947.470
1200.488, 7962.492
1200.970, 7949.504
1201.453, 7930.692
1201.935, 7947.911
1202.417, 7994.989
1202.899, 8009.190
1203.381, 7965.896
1203.863, 7974.076
1204.345, 8061.377
1204.827, 8105.265
1205.310, 8070.815
1205.792, 8038.698
1206.274, 8051.639
1206.756, 8089.739
1207.238, 8134.991
1207.720, 8177.167
1208.202, 8183.737
1208.684, 8168.547
1209.167, 8174.132
1209.649, 8193.412
1210.131, 8193.861
1210.613, 8177.728
1211.095, 8181.325
1211.577, 8219.452
1212.059, 8258.964
1212.541, 8285.174
1213.023, 8299.769
1213.505, 8292.072
1213.988, 8285.920
1214.470, 8299.918
1214.952, 8323.471
1215.434, 8346.094
1215.916, 8365.747
1216.398, 8376.529
1216.880, 8375.732
1217.362, 8382.647
1217.845, 8397.773
1218.327, 8421.168
1218.809, 8455.613
1219.291, 8475.854
1219.773, 8470.041
1220.255, 8467.647
1220.737, 8497.934
1221.219, 8538.115
1221.702, 8544.461
1222.184, 8533.490
1222.666, 8534.000
1223.148, 8546.729
1223.630, 8580.877
1224.112, 8624.771
1224.594, 8643.868
1225.076, 8631.475
1225.558, 8622.140
1226.041, 8625.788
1226.523, 8644.060
1227.005, 8689.609
1227.487, 8734.231
1227.969, 8776.565
1228.451, 8801.061
1228.933, 8786.162
1229.415, 8756.550
1229.897, 8755.704
1230.380, 8780.656
1230.862, 8796.907
1231.344, 8803.552
1231.826, 8829.485
1232.308, 8874.892
1232.790, 8902.644
1233.272, 8904.592
1233.754, 8904.809
1234.237, 8917.063
1234.719, 8929.584
1235.201, 8926.149
1235.683, 8921.313
1236.165, 8925.894
1236.647, 8942.649
1237.129, 8989.512
1237.611, 9041.701
1238.094, 9055.262
1238.576, 9036.438
1239.058, 9032.588
1239.540, 9058.741
1240.022, 9066.119
1240.504, 9021.731
1240.986, 9023.825
1241.468, 9110.670
1241.950, 9175.234
1242.432, 9170.534
1242.915, 9138.424
1243.397, 9114.335
1243.879, 9098.179
##END=



