##NAMES=Hydroniumjarosite
##RRUFFID=R060402
##IDEAL CHEMISTRY=(H_3_O)Fe^3+^_3_(S^6+^O_4_)_2_(OH)_6_
##LOCALITY=Cyprus, Greece
##OWNER=RRUFF
##SOURCE=American Museum of Natural History
##DESCRIPTION=Tan colored consolidated powder
##STATUS=The identification of this mineral has been made only by X-ray diffraction.
##URL=rruff.info/R060402
163.8349, 111.2496
164.3170, 113.8582
164.7991, 116.1034
165.2812, 118.1148
165.7633, 120.0414
166.2454, 122.0187
166.7276, 124.1521
167.2097, 126.2887
167.6918, 128.2954
168.1739, 130.1863
168.6560, 132.2285
169.1381, 134.8428
169.6203, 137.5689
170.1024, 138.9868
170.5845, 139.2714
171.0666, 139.2994
171.5487, 139.1992
172.0309, 138.9984
172.5130, 139.1371
172.9951, 139.8538
173.4772, 141.1045
173.9593, 142.8363
174.4414, 145.7865
174.9236, 148.7934
175.4057, 150.1940
175.8878, 149.9846
176.3699, 149.8911
176.8520, 152.2290
177.3341, 155.7953
177.8163, 157.9673
178.2984, 156.4377
178.7805, 153.2716
179.2626, 151.4107
179.7447, 150.9514
180.2268, 151.3976
180.7090, 152.8295
181.1911, 154.8974
181.6732, 156.4991
182.1553, 156.5568
182.6374, 155.8768
183.1195, 156.2932
183.6017, 157.9791
184.0838, 160.0210
184.5659, 161.3709
185.0480, 162.1453
185.5301, 163.0023
186.0123, 164.5639
186.4944, 166.4816
186.9765, 167.2618
187.4586, 166.5393
187.9407, 165.8717
188.4228, 167.9705
188.9050, 172.5492
189.3871, 176.7526
189.8692, 178.9780
190.3513, 179.5204
190.8334, 179.7318
191.3155, 179.5471
191.7977, 179.3733
192.2798, 179.9189
192.7619, 181.1814
193.2440, 182.6004
193.7261, 183.9308
194.2082, 185.1779
194.6904, 186.4599
195.1725, 187.7993
195.6546, 189.1510
196.1367, 190.3186
196.6188, 191.2845
197.1009, 192.3675
197.5831, 193.8876
198.0652, 195.8541
198.5473, 197.1636
199.0294, 197.3400
199.5115, 197.4104
199.9937, 199.9323
200.4758, 205.2617
200.9579, 210.5148
201.4400, 213.7228
201.9221, 214.6715
202.4042, 216.5268
202.8864, 219.4171
203.3685, 223.3402
203.8506, 228.4360
204.3327, 234.7750
204.8148, 241.7656
205.2969, 249.3645
205.7791, 257.7650
206.2612, 265.2938
206.7433, 271.6197
207.2254, 277.2016
207.7075, 283.2461
208.1896, 289.9405
208.6718, 296.6020
209.1539, 302.6701
209.6360, 307.7128
210.1181, 314.1595
210.6002, 322.5252
211.0823, 332.1586
211.5645, 341.1157
212.0466, 349.0271
212.5287, 357.2525
213.0108, 366.6195
213.4929, 377.5011
213.9750, 388.1948
214.4572, 398.3300
214.9393, 408.3117
215.4214, 419.8008
215.9035, 433.3777
216.3856, 447.3925
216.8678, 460.4859
217.3499, 472.1625
217.8320, 485.1081
218.3141, 499.6559
218.7962, 515.3789
219.2783, 530.7797
219.7605, 545.3582
220.2426, 560.2494
220.7247, 576.5178
221.2068, 595.9379
221.6889, 611.5707
222.1710, 622.8702
222.6532, 630.2145
223.1353, 634.6658
223.6174, 637.2471
224.0995, 635.3425
224.5816, 627.2537
225.0637, 610.9308
225.5459, 593.4576
226.0280, 575.3378
226.5101, 556.1033
226.9922, 534.7264
227.4743, 509.8099
227.9564, 484.6692
228.4386, 460.3758
228.9207, 437.1772
229.4028, 415.1761
229.8849, 393.7824
230.3670, 373.6583
230.8492, 356.1285
231.3313, 341.9570
231.8134, 329.4665
232.2955, 317.7458
232.7776, 306.8100
233.2597, 297.0939
233.7419, 288.8675
234.2240, 281.7607
234.7061, 275.0460
235.1882, 268.7403
235.6703, 262.8282
236.1524, 257.1138
236.6346, 250.9976
237.1167, 246.6678
237.5988, 245.0813
238.0809, 244.9183
238.5630, 242.8416
239.0451, 237.1925
239.5273, 232.1418
240.0094, 229.5957
240.4915, 230.8805
240.9736, 231.1660
241.4557, 230.0875
241.9378, 228.1697
242.4200, 226.4873
242.9021, 225.0730
243.3842, 223.8087
243.8663, 222.6704
244.3484, 221.7159
244.8306, 220.7126
245.3127, 219.6885
245.7948, 218.6109
246.2769, 217.3425
246.7590, 215.5037
247.2411, 214.1529
247.7233, 213.8600
248.2054, 215.1554
248.6875, 215.5294
249.1696, 214.8039
249.6517, 213.2850
250.1338, 211.3119
250.6160, 208.2794
251.0981, 205.8891
251.5802, 204.8796
252.0623, 205.6144
252.5444, 205.8215
253.0265, 205.4050
253.5087, 204.5407
253.9908, 203.3461
254.4729, 201.3105
254.9550, 199.9950
255.4371, 200.1990
255.9192, 202.2766
256.4014, 202.8459
256.8835, 201.1058
257.3656, 198.6500
257.8477, 197.4809
258.3298, 198.2752
258.8120, 198.8151
259.2941, 198.3831
259.7762, 196.8781
260.2583, 196.0769
260.7404, 196.0246
261.2225, 196.6037
261.7047, 197.9776
262.1868, 200.8926
262.6689, 202.5551
263.1510, 201.8203
263.6331, 198.7993
264.1152, 197.6627
264.5974, 199.1469
265.0795, 201.3936
265.5616, 202.5257
266.0437, 202.1577
266.5258, 202.0244
267.0079, 202.4946
267.4901, 203.5019
267.9722, 204.5235
268.4543, 205.8297
268.9364, 206.6442
269.4185, 206.0607
269.9006, 203.6093
270.3828, 201.7974
270.8649, 200.9400
271.3470, 201.0045
271.8291, 201.9197
272.3112, 203.8796
272.7933, 206.2033
273.2755, 208.4514
273.7576, 210.6375
274.2397, 212.6644
274.7218, 214.5383
275.2039, 216.2123
275.6860, 217.4580
276.1682, 218.1781
276.6503, 218.8804
277.1324, 219.8226
277.6145, 220.9881
278.0966, 222.5900
278.5787, 224.7778
279.0609, 227.2575
279.5430, 229.2514
280.0251, 230.6115
280.5072, 232.3894
280.9893, 235.4171
281.4715, 239.6640
281.9536, 243.5340
282.4357, 246.9911
282.9178, 249.9952
283.3999, 252.1637
283.8820, 253.4225
284.3642, 255.1128
284.8463, 258.2596
285.3284, 262.6816
285.8105, 265.9776
286.2926, 267.9174
286.7747, 269.4611
287.2569, 271.8560
287.7390, 275.0811
288.2211, 278.6798
288.7032, 282.6326
289.1853, 286.8311
289.6674, 290.8539
290.1496, 294.7085
290.6317, 298.4808
291.1138, 302.3415
291.5959, 306.2666
292.0780, 309.8851
292.5602, 312.7072
293.0423, 315.3131
293.5244, 319.7380
294.0065, 326.0612
294.4886, 331.9320
294.9707, 334.6209
295.4529, 334.9789
295.9350, 336.0965
296.4171, 339.2356
296.8992, 343.1647
297.3813, 345.9437
297.8634, 347.5746
298.3456, 348.1299
298.8277, 347.6136
299.3098, 346.0567
299.7919, 343.4163
300.2740, 339.5040
300.7561, 334.8499
301.2383, 330.2096
301.7204, 325.4862
302.2025, 320.5392
302.6846, 315.4410
303.1667, 309.9857
303.6488, 303.4823
304.1310, 295.5190
304.6131, 287.6587
305.0952, 281.7842
305.5773, 277.3761
306.0594, 273.0500
306.5415, 268.1941
307.0237, 262.9590
307.5058, 257.1213
307.9879, 250.5252
308.4700, 244.5295
308.9521, 240.1373
309.4343, 237.0389
309.9164, 234.5675
310.3985, 232.6330
310.8806, 231.0578
311.3627, 229.7777
311.8448, 228.7793
312.3270, 227.8547
312.8091, 226.9448
313.2912, 226.0157
313.7733, 225.0274
314.2554, 224.1473
314.7375, 223.0490
315.2197, 221.2673
315.7018, 218.9168
316.1839, 217.0831
316.6660, 216.2685
317.1481, 216.1658
317.6302, 216.5857
318.1124, 218.4396
318.5945, 219.6140
319.0766, 219.0394
319.5587, 217.1313
320.0408, 215.3337
320.5229, 214.0592
321.0051, 213.0464
321.4872, 212.1203
321.9693, 211.0919
322.4514, 210.4763
322.9335, 210.3956
323.4156, 210.7959
323.8978, 211.5733
324.3799, 213.5694
324.8620, 215.1936
325.3441, 215.8272
325.8262, 215.1719
326.3083, 214.3118
326.7905, 212.9875
327.2726, 211.6075
327.7547, 210.6902
328.2368, 210.5260
328.7189, 210.5324
329.2010, 210.6960
329.6832, 211.0507
330.1653, 211.1456
330.6474, 210.3849
331.1295, 209.7939
331.6116, 210.3090
332.0938, 213.3052
332.5759, 215.1827
333.0580, 214.9983
333.5401, 213.1113
334.0222, 212.2533
334.5043, 212.8444
334.9865, 213.8700
335.4686, 214.6986
335.9507, 215.1000
336.4328, 216.0296
336.9149, 217.9555
337.3970, 220.2541
337.8792, 220.9780
338.3613, 219.4960
338.8434, 218.2560
339.3255, 218.4996
339.8076, 220.4669
340.2898, 222.1275
340.7719, 223.4856
341.2540, 224.5641
341.7361, 225.1710
342.2182, 225.1772
342.7003, 225.9060
343.1825, 228.3751
343.6646, 232.1296
344.1467, 233.4255
344.6288, 231.7921
345.1109, 230.1310
345.5930, 232.0127
346.0752, 237.0171
346.5573, 240.9910
347.0394, 242.4379
347.5215, 242.6964
348.0036, 245.0726
348.4857, 249.5089
348.9679, 253.9951
349.4500, 256.9168
349.9321, 258.7393
350.4142, 260.8528
350.8963, 263.5902
351.3784, 266.4054
351.8606, 268.3821
352.3427, 269.7297
352.8248, 271.2677
353.3069, 273.8681
353.7890, 276.7531
354.2711, 278.9461
354.7533, 280.3582
355.2354, 281.1750
355.7175, 280.7282
356.1996, 279.8659
356.6817, 280.0662
357.1638, 282.9433
357.6460, 286.3941
358.1281, 289.1603
358.6102, 291.1889
359.0923, 292.2762
359.5744, 291.6127
360.0565, 290.2367
360.5387, 289.1804
361.0208, 289.2285
361.5029, 289.0207
361.9850, 287.6820
362.4671, 285.5600
362.9492, 283.7381
363.4314, 283.2920
363.9135, 282.7407
364.3956, 281.1197
364.8777, 277.6418
365.3598, 274.6581
365.8419, 272.7759
366.3241, 271.6576
366.8062, 270.8149
367.2883, 270.4871
367.7704, 270.1308
368.2526, 269.6939
368.7347, 269.2375
369.2168, 268.2828
369.6989, 266.4247
370.1810, 264.3136
370.6631, 262.4321
371.1453, 260.5202
371.6274, 259.2407
372.1095, 258.8673
372.5916, 259.2541
373.0737, 259.4208
373.5558, 259.2006
374.0380, 259.0086
374.5201, 258.9505
375.0022, 258.7760
375.4843, 259.7154
375.9664, 262.3693
376.4485, 265.6633
376.9307, 267.3345
377.4128, 266.9812
377.8949, 266.6609
378.3770, 267.4145
378.8591, 269.1450
379.3412, 269.6505
379.8234, 268.5792
380.3055, 267.5064
380.7876, 268.5281
381.2697, 271.5233
381.7518, 274.1685
382.2339, 275.8125
382.7161, 276.7520
383.1982, 277.7150
383.6803, 278.6848
384.1624, 279.3654
384.6445, 279.2237
385.1266, 278.6256
385.6088, 278.5147
386.0909, 279.0996
386.5730, 279.9834
387.0551, 280.8839
387.5372, 281.7298
388.0193, 282.3286
388.5015, 281.9897
388.9836, 281.6578
389.4657, 282.6593
389.9478, 285.1091
390.4299, 287.3134
390.9120, 287.8127
391.3942, 287.4925
391.8763, 287.4429
392.3584, 288.8058
392.8405, 289.7983
393.3226, 289.1919
393.8047, 287.3122
394.2869, 285.6479
394.7690, 285.1143
395.2511, 284.7484
395.7332, 283.8758
396.2154, 281.9142
396.6975, 280.4522
397.1796, 279.9750
397.6617, 280.1737
398.1438, 280.5122
398.6259, 281.5594
399.1081, 282.1161
399.5902, 281.5678
400.0723, 279.6419
400.5544, 278.5206
401.0365, 278.9886
401.5186, 279.6694
402.0008, 279.3385
402.4829, 277.0194
402.9650, 275.6062
403.4471, 276.0098
403.9292, 277.5502
404.4113, 277.0909
404.8935, 273.6519
405.3756, 270.4630
405.8577, 269.4992
406.3398, 271.1852
406.8219, 271.9161
407.3040, 271.4447
407.7862, 270.4266
408.2683, 269.6933
408.7504, 269.2470
409.2325, 269.1230
409.7146, 269.4359
410.1967, 270.0634
410.6789, 270.6062
411.1610, 271.0635
411.6431, 271.5471
412.1252, 271.9576
412.6073, 272.4531
413.0894, 273.5681
413.5716, 275.5384
414.0537, 277.8089
414.5358, 279.7102
415.0179, 281.3214
415.5000, 282.9712
415.9821, 285.0497
416.4643, 287.1119
416.9464, 288.2166
417.4285, 288.1634
417.9106, 289.2132
418.3927, 294.0843
418.8748, 300.4701
419.3570, 305.5459
419.8391, 306.1971
420.3212, 307.4969
420.8033, 312.2476
421.2854, 319.7318
421.7675, 326.6260
422.2497, 330.5406
422.7318, 334.6364
423.2139, 340.7887
423.6960, 350.6206
424.1781, 359.3871
424.6602, 365.2799
425.1424, 370.1497
425.6245, 376.6159
426.1066, 384.9487
426.5887, 394.4717
427.0709, 405.5430
427.5530, 418.1595
428.0351, 429.2043
428.5172, 437.8615
428.9993, 446.2263
429.4814, 455.7597
429.9636, 466.5646
430.4457, 478.2966
430.9278, 491.3903
431.4099, 504.9330
431.8920, 516.6514
432.3741, 526.4135
432.8563, 536.1807
433.3384, 547.1351
433.8205, 559.0401
434.3026, 570.0351
434.7847, 580.1955
435.2668, 589.3085
435.7490, 597.0084
436.2311, 603.4898
436.7132, 609.1613
437.1953, 614.1047
437.6774, 618.3456
438.1595, 621.9187
438.6417, 624.8648
439.1238, 627.3500
439.6059, 630.3930
440.0880, 632.5634
440.5701, 632.0863
441.0522, 628.5437
441.5344, 623.9286
442.0165, 620.3037
442.4986, 616.0917
442.9807, 609.3632
443.4628, 596.7255
443.9449, 584.1508
444.4271, 573.9737
444.9092, 565.9081
445.3913, 558.0820
445.8734, 550.7604
446.3555, 543.1896
446.8376, 534.8763
447.3198, 524.7614
447.8019, 515.9371
448.2840, 509.2993
448.7661, 503.6909
449.2482, 497.4414
449.7303, 489.6087
450.2125, 482.8660
450.6946, 478.0168
451.1767, 474.9012
451.6588, 471.7648
452.1409, 469.2482
452.6230, 465.1889
453.1052, 457.7138
453.5873, 446.5166
454.0694, 435.1277
454.5515, 423.9361
455.0337, 412.4627
455.5158, 399.7257
455.9979, 385.7483
456.4800, 372.5669
456.9621, 361.0890
457.4442, 350.8684
457.9264, 340.5546
458.4085, 330.2226
458.8906, 320.7606
459.3727, 313.4710
459.8548, 307.4736
460.3369, 301.4316
460.8191, 294.7247
461.3012, 288.5378
461.7833, 284.1155
462.2654, 280.8935
462.7475, 277.7108
463.2296, 273.1706
463.7118, 269.2198
464.1939, 267.5269
464.6760, 268.2053
465.1581, 267.9056
465.6402, 264.5359
466.1223, 260.4384
466.6045, 257.2980
467.0866, 256.0900
467.5687, 254.9204
468.0508, 253.6027
468.5329, 252.2502
469.0150, 251.1039
469.4972, 250.2496
469.9793, 249.4961
470.4614, 248.8334
470.9435, 248.2736
471.4256, 247.5290
471.9077, 246.4399
472.3899, 245.4926
472.8720, 245.4271
473.3541, 246.4013
473.8362, 246.1524
474.3183, 243.9543
474.8004, 241.0394
475.2826, 239.8486
475.7647, 240.2987
476.2468, 241.2245
476.7289, 242.7093
477.2110, 244.1184
477.6931, 243.6319
478.1753, 241.2463
478.6574, 238.8291
479.1395, 238.0869
479.6216, 238.2482
480.1037, 238.1628
480.5858, 237.4041
481.0680, 236.5830
481.5501, 236.1780
482.0322, 236.0184
482.5143, 235.7505
482.9964, 235.0529
483.4786, 234.3784
483.9607, 233.9827
484.4428, 233.9089
484.9249, 233.7736
485.4070, 233.7021
485.8892, 233.4258
486.3713, 232.7223
486.8534, 230.8930
487.3355, 229.6747
487.8176, 229.1311
488.2997, 229.2144
488.7819, 229.9312
489.2640, 231.6572
489.7461, 233.1834
490.2282, 234.2057
490.7103, 234.7200
491.1924, 234.4303
491.6746, 233.1989
492.1567, 231.7175
492.6388, 230.5757
493.1209, 229.7246
493.6030, 228.7642
494.0851, 227.4688
494.5673, 226.4763
495.0494, 227.0198
495.5315, 228.7433
496.0136, 230.3429
496.4957, 231.0894
496.9778, 231.4754
497.4600, 232.3221
497.9421, 233.5192
498.4242, 234.0235
498.9063, 232.4704
499.3884, 230.3789
499.8705, 229.0448
500.3527, 228.8797
500.8348, 229.1163
501.3169, 229.8625
501.7990, 230.7500
502.2811, 231.2620
502.7632, 231.1446
503.2454, 230.8121
503.7275, 230.1238
504.2096, 229.1616
504.6917, 228.8438
505.1738, 229.6668
505.6559, 230.4689
506.1381, 230.5925
506.6202, 229.8365
507.1023, 229.1450
507.5844, 228.3640
508.0665, 227.9273
508.5486, 228.6883
509.0308, 230.6859
509.5129, 232.3413
509.9950, 233.2181
510.4771, 233.5379
510.9592, 233.6268
511.4413, 233.5154
511.9235, 233.5317
512.4056, 233.9468
512.8877, 234.5904
513.3698, 235.3241
513.8519, 236.1584
514.3340, 236.7096
514.8162, 236.5385
515.2983, 235.9820
515.7804, 235.4235
516.2625, 234.6935
516.7446, 234.3497
517.2267, 235.0098
517.7089, 236.2422
518.1910, 236.9741
518.6731, 236.3621
519.1552, 235.7989
519.6373, 235.8866
520.1194, 236.7245
520.6016, 237.1503
521.0837, 236.7720
521.5658, 236.4097
522.0479, 236.6843
522.5300, 237.7543
523.0121, 238.9250
523.4943, 240.2938
523.9764, 241.5466
524.4585, 241.9483
524.9406, 241.4695
525.4227, 241.1818
525.9048, 241.5504
526.3870, 242.3340
526.8691, 242.6908
527.3513, 242.6936
527.8334, 243.3620
528.3155, 246.3874
528.7976, 250.1998
529.2797, 252.4269
529.7618, 252.6430
530.2440, 252.2149
530.7261, 251.4348
531.2082, 250.7901
531.6903, 250.9173
532.1724, 253.0690
532.6545, 254.9124
533.1367, 255.3909
533.6188, 254.9055
534.1009, 254.9201
534.5830, 255.7264
535.0651, 257.0139
535.5472, 258.9758
536.0294, 261.9094
536.5115, 263.3233
536.9936, 262.2841
537.4757, 261.0328
537.9578, 261.5093
538.4399, 263.9745
538.9221, 266.6986
539.4042, 269.8116
539.8863, 272.6334
540.3684, 273.6108
540.8505, 272.9051
541.3326, 272.4322
541.8148, 272.8208
542.2969, 274.0071
542.7790, 276.2165
543.2611, 279.3216
543.7432, 282.3682
544.2253, 284.5004
544.7075, 286.3585
545.1896, 288.8365
545.6717, 292.2936
546.1538, 295.0037
546.6359, 295.5471
547.1180, 295.1493
547.6002, 295.1029
548.0823, 296.3141
548.5644, 297.2018
549.0465, 296.8268
549.5286, 295.8960
550.0107, 296.5511
550.4929, 300.0744
550.9750, 303.2368
551.4571, 304.8117
551.9392, 304.7912
552.4213, 305.6277
552.9034, 307.5497
553.3856, 309.6185
553.8677, 310.8681
554.3498, 311.4137
554.8319, 312.8116
555.3140, 315.3904
555.7961, 318.2033
556.2783, 320.1171
556.7604, 321.2604
557.2425, 321.9151
557.7246, 321.6707
558.2067, 321.5293
558.6888, 322.7424
559.1710, 324.9476
559.6531, 326.9017
560.1352, 327.8708
560.6173, 328.4989
561.0994, 329.0473
561.5815, 329.5106
562.0637, 330.2142
562.5458, 331.1803
563.0279, 332.4408
563.5100, 334.0834
563.9921, 336.9751
564.4742, 338.6794
564.9564, 338.8318
565.4385, 338.0134
565.9206, 337.1563
566.4027, 336.2938
566.8848, 335.1597
567.3669, 333.3594
567.8491, 331.4035
568.3312, 331.5757
568.8133, 333.7725
569.2954, 335.2599
569.7775, 333.6829
570.2596, 330.3594
570.7418, 327.4393
571.2239, 325.0110
571.7060, 323.4631
572.1881, 324.6456
572.6702, 326.1797
573.1523, 325.2620
573.6345, 319.9418
574.1166, 314.3879
574.5987, 309.6484
575.0808, 305.8191
575.5629, 302.9887
576.0450, 302.8604
576.5272, 301.8913
577.0093, 298.9618
577.4914, 294.4869
577.9735, 291.1212
578.4556, 289.1429
578.9377, 287.7645
579.4199, 286.7352
579.9020, 286.0804
580.3841, 285.3058
580.8662, 284.4912
581.3483, 283.1811
581.8304, 280.4771
582.3126, 276.8456
582.7947, 273.9999
583.2768, 272.4321
583.7589, 271.1865
584.2410, 268.8627
584.7231, 266.1408
585.2053, 264.3687
585.6874, 265.6088
586.1696, 266.5558
586.6517, 264.8541
587.1338, 261.1413
587.6159, 258.3248
588.0980, 257.6247
588.5801, 257.5544
589.0623, 257.4890
589.5444, 257.3356
590.0265, 257.7866
590.5086, 259.7159
590.9907, 261.1366
591.4728, 259.9258
591.9550, 255.3571
592.4371, 253.2031
592.9192, 254.4252
593.4013, 256.9316
593.8834, 257.8209
594.3655, 257.2740
594.8477, 256.3645
595.3298, 255.3165
595.8119, 254.2498
596.2940, 253.3381
596.7761, 252.5555
597.2582, 251.7854
597.7404, 250.5276
598.2225, 249.5943
598.7046, 249.7383
599.1867, 250.9825
599.6688, 252.1504
600.1509, 252.9641
600.6331, 253.5401
601.1152, 253.8574
601.5973, 253.5246
602.0794, 253.9830
602.5615, 256.0878
603.0436, 258.1592
603.5258, 257.8489
604.0079, 254.4653
604.4900, 252.4601
604.9721, 252.6589
605.4542, 254.4444
605.9363, 257.1774
606.4185, 260.6776
606.9006, 263.5130
607.3827, 264.2748
607.8648, 264.4182
608.3469, 265.7870
608.8290, 268.3622
609.3112, 271.9622
609.7933, 277.7104
610.2754, 283.6020
610.7575, 288.0115
611.2396, 290.4681
611.7217, 293.1458
612.2039, 296.9901
612.6860, 301.0084
613.1681, 304.3817
613.6502, 305.1694
614.1323, 308.6917
614.6144, 316.1045
615.0966, 325.2400
615.5787, 332.9774
616.0608, 338.8953
616.5429, 346.0073
617.0250, 355.3820
617.5071, 365.9360
617.9893, 374.9790
618.4714, 382.6984
618.9535, 390.1628
619.4356, 397.7209
619.9177, 405.6389
620.3998, 414.4560
620.8820, 424.0990
621.3641, 433.8223
621.8462, 444.5275
622.3283, 454.3990
622.8104, 462.4609
623.2925, 469.1555
623.7747, 471.9792
624.2568, 472.2811
624.7389, 467.2245
625.2210, 453.9975
625.7031, 427.9506
626.1852, 403.6801
626.6674, 381.9935
627.1495, 362.6666
627.6316, 345.3885
628.1137, 330.1341
628.5958, 317.6726
629.0779, 308.7029
629.5601, 302.1077
630.0422, 295.7534
630.5243, 289.8414
631.0064, 285.0427
631.4885, 282.1094
631.9706, 280.2249
632.4528, 278.9217
632.9349, 278.1196
633.4170, 277.1214
633.8991, 274.8627
634.3812, 272.8945
634.8633, 272.2882
635.3455, 273.7417
635.8276, 274.7010
636.3097, 274.9319
636.7918, 274.7997
637.2739, 274.4071
637.7560, 273.4078
638.2382, 273.7607
638.7203, 276.0887
639.2024, 278.8986
639.6845, 279.6593
640.1666, 278.6353
640.6487, 278.0116
641.1309, 278.5440
641.6130, 279.6469
642.0951, 280.5873
642.5772, 281.4301
643.0594, 282.3246
643.5415, 283.8221
644.0236, 284.9857
644.5057, 285.1347
644.9879, 284.3466
645.4700, 283.4926
645.9521, 283.1934
646.4342, 282.4688
646.9163, 280.6156
647.3984, 277.2418
647.8806, 275.5300
648.3627, 276.2336
648.8448, 277.1776
649.3269, 276.3566
649.8090, 273.7750
650.2911, 272.0111
650.7733, 271.3103
651.2554, 271.1121
651.7375, 270.8921
652.2196, 270.6377
652.7017, 270.3297
653.1838, 270.0109
653.6660, 269.5317
654.1481, 268.4544
654.6302, 267.1844
655.1123, 266.4273
655.5944, 267.5244
656.0765, 267.9944
656.5587, 266.3100
657.0408, 263.1462
657.5229, 261.7164
658.0050, 262.8791
658.4871, 264.3729
658.9692, 265.5359
659.4514, 266.3688
659.9335, 267.0555
660.4156, 267.6805
660.8977, 267.4774
661.3798, 265.0341
661.8619, 261.4211
662.3441, 259.4984
662.8262, 259.4520
663.3083, 260.3044
663.7904, 262.0638
664.2725, 263.9266
664.7546, 264.9955
665.2368, 264.9702
665.7189, 264.4855
666.2010, 263.0143
666.6831, 261.5272
667.1652, 261.2273
667.6473, 263.6016
668.1295, 264.6684
668.6116, 263.5474
669.0937, 261.4313
669.5758, 260.7618
670.0579, 261.6891
670.5400, 262.6036
671.0222, 263.1807
671.5043, 263.2911
671.9864, 262.1076
672.4685, 259.9934
672.9506, 258.7599
673.4327, 260.3080
673.9149, 262.5420
674.3970, 263.7229
674.8791, 263.8785
675.3612, 263.5532
675.8433, 262.1101
676.3254, 260.9624
676.8076, 261.1155
677.2897, 262.9514
677.7718, 263.9068
678.2539, 263.8157
678.7360, 263.0793
679.2181, 261.6718
679.7003, 259.4521
680.1824, 258.2751
680.6645, 258.2984
681.1466, 258.9657
681.6287, 259.8292
682.1108, 260.8510
682.5930, 261.9488
683.0751, 263.1850
683.5572, 264.2404
684.0393, 264.6545
684.5214, 264.7788
685.0035, 265.1212
685.4857, 266.4800
685.9678, 267.3315
686.4499, 267.0011
686.9320, 265.9241
687.4141, 265.0461
687.8962, 264.2535
688.3784, 263.9532
688.8605, 264.5307
689.3426, 265.5468
689.8247, 265.2745
690.3068, 263.6595
690.7889, 262.2087
691.2711, 261.7261
691.7532, 261.8663
692.2353, 262.1789
692.7174, 262.5876
693.1995, 262.6269
693.6816, 261.8617
694.1638, 260.7313
694.6459, 259.2105
695.1280, 257.2582
695.6101, 256.4495
696.0922, 258.1985
696.5743, 260.3597
697.0565, 261.8015
697.5386, 262.3989
698.0207, 262.8674
698.5028, 263.2380
698.9849, 263.4223
699.4670, 263.2318
699.9492, 262.7152
700.4313, 262.4346
700.9135, 262.5008
701.3956, 262.5419
701.8777, 262.0582
702.3598, 261.2889
702.8419, 260.5959
703.3240, 259.8994
703.8062, 259.6498
704.2883, 260.3258
704.7704, 261.5218
705.2525, 262.6355
705.7346, 263.3947
706.2167, 264.3428
706.6989, 265.9295
707.1810, 267.5632
707.6631, 267.7898
708.1452, 266.4091
708.6273, 264.7745
709.1094, 263.0794
709.5916, 261.6012
710.0737, 260.9725
710.5558, 261.1489
711.0379, 261.8646
711.5200, 263.9854
712.0021, 265.8195
712.4843, 265.3370
712.9664, 263.0106
713.4485, 261.4068
713.9306, 262.2719
714.4127, 263.3650
714.8948, 263.5265
715.3770, 262.7222
715.8591, 262.6018
716.3412, 263.6776
716.8233, 264.4264
717.3054, 263.6120
717.7875, 261.3354
718.2697, 260.6185
718.7518, 261.5663
719.2339, 262.5980
719.7160, 262.1233
720.1981, 260.9273
720.6802, 260.3281
721.1624, 260.5452
721.6445, 260.7203
722.1266, 259.8445
722.6087, 259.0010
723.0908, 259.2722
723.5729, 262.0160
724.0551, 263.3385
724.5372, 262.1115
725.0193, 260.3009
725.5014, 260.1851
725.9835, 262.2684
726.4656, 262.6841
726.9478, 260.5471
727.4299, 257.9614
727.9120, 258.2816
728.3941, 260.6855
728.8762, 262.6276
729.3583, 263.4660
729.8405, 263.4824
730.3226, 262.3241
730.8047, 260.6233
731.2868, 259.4595
731.7689, 259.7769
732.2510, 259.9277
732.7332, 259.2610
733.2153, 258.2484
733.6974, 257.7847
734.1795, 257.8559
734.6616, 258.6746
735.1437, 260.7567
735.6259, 263.1992
736.1080, 263.2232
736.5901, 261.0997
737.0722, 259.2346
737.5543, 258.9620
738.0364, 259.4060
738.5186, 259.6708
739.0007, 259.7944
739.4828, 259.9250
739.9649, 260.1812
740.4470, 260.4057
740.9291, 260.5897
741.4113, 260.7089
741.8934, 260.5175
742.3755, 259.7121
742.8576, 259.1562
743.3397, 259.2835
743.8218, 259.9982
744.3040, 260.4862
744.7861, 260.7392
745.2682, 260.9889
745.7503, 261.5789
746.2324, 262.1892
746.7145, 262.1308
747.1967, 261.4383
747.6788, 260.9426
748.1609, 261.4801
748.6430, 262.0785
749.1251, 262.0180
749.6072, 261.0459
750.0894, 260.3833
750.5715, 260.0300
751.0536, 260.0479
751.5357, 260.6503
752.0178, 261.9390
752.4999, 262.6402
752.9821, 262.7431
753.4642, 262.3632
753.9463, 260.9665
754.4284, 259.3157
754.9105, 259.1904
755.3926, 260.9536
755.8748, 262.7671
756.3569, 263.2709
756.8390, 263.3957
757.3211, 264.1495
757.8032, 266.7233
758.2853, 267.3995
758.7675, 264.3431
759.2496, 261.0142
759.7318, 260.9729
760.2139, 264.8494
760.6960, 267.0745
761.1781, 266.9812
761.6602, 265.9594
762.1423, 265.7371
762.6245, 265.9060
763.1066, 265.2887
763.5887, 263.2913
764.0708, 261.6563
764.5529, 261.9347
765.0350, 263.1420
765.5172, 264.1110
765.9993, 264.4856
766.4814, 264.7358
766.9635, 264.9607
767.4456, 265.0250
767.9277, 264.6702
768.4099, 263.7960
768.8920, 263.0883
769.3741, 262.6015
769.8562, 262.4424
770.3383, 263.0847
770.8204, 264.1823
771.3026, 264.7409
771.7847, 264.1412
772.2668, 263.5168
772.7489, 263.4877
773.2310, 263.9837
773.7131, 264.8877
774.1953, 267.2160
774.6774, 268.5760
775.1595, 268.3705
775.6416, 267.2950
776.1237, 266.6181
776.6058, 266.4050
777.0880, 265.9738
777.5701, 264.8954
778.0522, 264.0169
778.5343, 265.3261
779.0164, 268.0703
779.4985, 270.0598
779.9807, 269.8662
780.4628, 269.2812
780.9449, 269.4536
781.4270, 270.0121
781.9091, 270.1881
782.3912, 269.4025
782.8734, 268.7494
783.3555, 268.3482
783.8376, 268.1880
784.3197, 268.3027
784.8018, 268.7214
785.2839, 269.1131
785.7661, 269.4058
786.2482, 269.5744
786.7303, 269.5586
787.2124, 269.3791
787.6945, 269.0948
788.1766, 268.6127
788.6588, 268.1531
789.1409, 267.7358
789.6230, 267.4203
790.1051, 267.3642
790.5872, 267.5113
791.0693, 268.0406
791.5515, 269.1259
792.0336, 270.5455
792.5157, 271.7430
792.9978, 272.7209
793.4799, 273.1865
793.9620, 272.9650
794.4442, 272.2605
794.9263, 271.1452
795.4084, 269.7759
795.8905, 268.5766
796.3726, 267.2858
796.8547, 266.6741
797.3369, 267.3152
797.8190, 268.9335
798.3011, 270.5784
798.7832, 272.6956
799.2653, 273.8756
799.7474, 273.5443
800.2296, 272.2209
800.7117, 271.1120
801.1938, 270.2550
801.6759, 270.1266
802.1580, 271.6118
802.6401, 273.1880
803.1223, 272.6477
803.6044, 270.7680
804.0865, 269.5817
804.5686, 270.4467
805.0507, 271.4529
805.5328, 272.3192
806.0150, 272.8623
806.4971, 272.3219
806.9792, 270.0191
807.4613, 268.9505
807.9434, 270.4418
808.4255, 273.1147
808.9077, 273.5689
809.3898, 272.2857
809.8719, 271.4503
810.3540, 272.5025
810.8361, 273.8618
811.3182, 274.3848
811.8004, 274.2520
812.2825, 273.9102
812.7646, 272.9301
813.2467, 272.4404
813.7288, 272.8865
814.2109, 273.8555
814.6931, 274.2737
815.1752, 274.0955
815.6573, 273.8414
816.1394, 273.6593
816.6215, 273.4888
817.1037, 273.1364
817.5858, 272.7112
818.0679, 272.4825
818.5500, 272.0939
819.0322, 272.4529
819.5143, 275.0887
819.9964, 278.6221
820.4785, 279.9919
820.9606, 277.5529
821.4427, 275.7740
821.9249, 275.3397
822.4070, 275.8844
822.8891, 277.1160
823.3712, 278.8957
823.8533, 279.5867
824.3354, 278.3972
824.8176, 276.6578
825.2997, 275.4492
825.7818, 274.8483
826.2639, 275.0082
826.7460, 277.2602
827.2281, 278.7252
827.7103, 278.1563
828.1924, 276.7349
828.6745, 275.9678
829.1566, 275.9891
829.6387, 276.2051
830.1208, 276.6265
830.6030, 276.9771
831.0851, 276.5345
831.5672, 275.6686
832.0493, 275.4919
832.5314, 276.5482
833.0135, 277.6878
833.4957, 278.1161
833.9778, 278.1754
834.4599, 278.2728
834.9420, 278.4438
835.4241, 278.7721
835.9063, 279.5422
836.3884, 280.1356
836.8705, 279.5061
837.3526, 277.7110
837.8347, 276.9866
838.3168, 277.7935
838.7990, 278.6214
839.2811, 277.1629
839.7632, 275.0272
840.2453, 274.4677
840.7274, 276.1609
841.2095, 278.6188
841.6917, 282.7858
842.1738, 286.4521
842.6559, 287.8532
843.1380, 286.2617
843.6201, 284.8255
844.1022, 283.4122
844.5844, 282.6107
845.0665, 283.7387
845.5486, 285.8472
846.0307, 286.0175
846.5128, 283.9565
846.9949, 281.8535
847.4771, 280.9043
847.9592, 280.6958
848.4413, 281.0281
848.9234, 281.9981
849.4055, 282.9513
849.8876, 284.2445
850.3698, 284.8806
850.8519, 283.7601
851.3340, 281.1311
851.8161, 280.6452
852.2982, 282.2841
852.7803, 283.8899
853.2625, 283.7340
853.7446, 282.8196
854.2267, 282.1255
854.7088, 281.6949
855.1909, 281.3269
855.6730, 280.6954
856.1552, 280.4120
856.6373, 280.6999
857.1194, 281.5344
857.6015, 283.0230
858.0836, 285.4078
858.5657, 286.6917
859.0479, 285.3126
859.5300, 282.6739
860.0121, 281.5392
860.4942, 281.5412
860.9763, 281.4078
861.4584, 279.4999
861.9406, 278.3524
862.4227, 279.5990
862.9048, 282.6361
863.3869, 285.3046
863.8690, 288.1777
864.3511, 289.0440
864.8333, 286.5485
865.3154, 282.8291
865.7975, 282.8864
866.2796, 285.8477
866.7617, 287.8683
867.2438, 287.2184
867.7260, 285.8780
868.2081, 284.6799
868.6902, 283.9730
869.1723, 284.2631
869.6544, 287.3781
870.1365, 289.0050
870.6187, 288.3820
871.1008, 286.8069
871.5829, 285.8979
872.0650, 285.6464
872.5471, 286.0229
873.0292, 287.1824
873.5114, 288.1404
873.9935, 287.3107
874.4756, 285.9381
874.9577, 285.7428
875.4399, 287.5338
875.9220, 288.9713
876.4041, 289.4531
876.8862, 289.3905
877.3683, 288.9200
877.8505, 287.9487
878.3326, 287.1870
878.8147, 286.6456
879.2968, 286.2245
879.7789, 285.5981
880.2610, 285.1434
880.7432, 285.8232
881.2253, 287.6233
881.7074, 288.7999
882.1895, 287.2830
882.6716, 286.0646
883.1537, 287.4370
883.6359, 291.1694
884.1180, 292.4026
884.6001, 290.5817
885.0822, 288.6443
885.5643, 288.0658
886.0464, 288.3097
886.5286, 288.1080
887.0107, 287.5691
887.4928, 287.1332
887.9749, 287.0852
888.4570, 287.1555
888.9391, 287.3469
889.4213, 287.5492
889.9034, 287.3958
890.3855, 286.5997
890.8676, 286.0833
891.3497, 285.9453
891.8318, 286.3032
892.3140, 287.9160
892.7961, 290.3219
893.2782, 291.6079
893.7603, 290.8299
894.2424, 289.6377
894.7245, 289.1349
895.2067, 288.9799
895.6888, 288.7325
896.1709, 287.3982
896.6530, 287.6798
897.1351, 290.3905
897.6172, 293.4395
898.0994, 294.5397
898.5815, 293.9326
899.0636, 293.1503
899.5457, 292.3152
900.0278, 291.7812
900.5099, 292.1273
900.9921, 292.7171
901.4742, 292.9459
901.9563, 292.6913
902.4384, 292.4649
902.9205, 292.0971
903.4026, 292.1128
903.8848, 293.0137
904.3669, 294.5978
904.8490, 294.7497
905.3311, 293.5549
905.8132, 293.3047
906.2953, 297.5522
906.7775, 301.7490
907.2596, 300.0257
907.7417, 294.1845
908.2238, 290.6627
908.7059, 294.3542
909.1880, 296.6493
909.6702, 295.0404
910.1523, 291.4370
910.6344, 290.5463
911.1165, 292.3130
911.5986, 294.1294
912.0807, 295.4892
912.5629, 296.1188
913.0450, 294.7203
913.5271, 292.7197
914.0092, 292.3700
914.4913, 295.9685
914.9734, 298.1559
915.4556, 297.0187
915.9377, 295.2437
916.4198, 295.4429
916.9019, 297.7805
917.3840, 299.1582
917.8661, 299.3825
918.3483, 298.9935
918.8304, 298.2599
919.3125, 297.3256
919.7946, 296.1609
920.2767, 294.7702
920.7589, 294.0524
921.2410, 294.8566
921.7231, 295.8112
922.2052, 296.3698
922.6873, 296.5915
923.1694, 297.0544
923.6516, 297.7642
924.1337, 298.3178
924.6158, 298.3315
925.0979, 298.2326
925.5800, 298.8415
926.0621, 299.7835
926.5443, 300.1320
927.0264, 298.9045
927.5085, 297.8768
927.9906, 297.4383
928.4727, 297.3604
928.9548, 297.3086
929.4370, 297.2862
929.9191, 297.1355
930.4012, 296.7027
930.8833, 296.7031
931.3654, 298.7280
931.8475, 301.3452
932.3297, 302.4087
932.8118, 300.9022
933.2939, 300.0395
933.7761, 301.3466
934.2582, 302.7224
934.7403, 302.8472
935.2224, 301.6821
935.7045, 300.8402
936.1866, 300.3123
936.6688, 300.1537
937.1509, 300.5951
937.6330, 301.2953
938.1151, 302.1433
938.5972, 302.9905
939.0793, 303.1231
939.5615, 301.2147
940.0436, 299.9547
940.5257, 300.1905
941.0078, 301.4101
941.4899, 302.4161
941.9720, 303.1994
942.4542, 303.4358
942.9363, 302.9198
943.4184, 302.1007
943.9005, 300.8217
944.3826, 299.7954
944.8647, 300.1257
945.3469, 303.6010
945.8290, 305.3961
946.3111, 304.1979
946.7932, 302.4809
947.2753, 302.6848
947.7574, 304.6614
948.2396, 304.9938
948.7217, 303.5604
949.2038, 302.0604
949.6859, 301.8066
950.1680, 302.0978
950.6501, 302.3695
951.1323, 302.5904
951.6144, 302.9414
952.0965, 303.7453
952.5786, 304.1284
953.0607, 303.5981
953.5428, 302.6149
954.0250, 302.6940
954.5071, 303.6597
954.9892, 304.5166
955.4713, 304.9881
955.9534, 305.0251
956.4355, 304.1624
956.9177, 302.9941
957.3998, 302.3772
957.8819, 302.5141
958.3640, 303.0423
958.8461, 304.0643
959.3282, 305.2705
959.8104, 306.5787
960.2925, 307.7904
960.7746, 307.9782
961.2567, 307.0750
961.7388, 306.1567
962.2209, 305.7632
962.7031, 305.7171
963.1852, 305.8219
963.6673, 306.1009
964.1494, 307.3710
964.6315, 310.2694
965.1136, 311.7792
965.5958, 310.0766
966.0779, 307.0362
966.5600, 307.0161
967.0421, 308.8892
967.5242, 309.5293
968.0063, 305.8194
968.4885, 303.2885
968.9706, 305.5193
969.4527, 309.2295
969.9348, 310.1260
970.4169, 307.2114
970.8990, 306.7814
971.3812, 309.5994
971.8633, 312.6180
972.3454, 312.2509
972.8275, 310.3939
973.3096, 310.0535
973.7917, 311.4797
974.2739, 312.3155
974.7560, 310.8512
975.2381, 309.5811
975.7202, 309.4503
976.2023, 310.2896
976.6844, 311.4393
977.1666, 312.9010
977.6487, 313.8841
978.1308, 313.6507
978.6129, 313.4555
979.0950, 315.0698
979.5771, 317.5136
980.0593, 319.1848
980.5414, 319.3878
981.0235, 319.0873
981.5056, 317.8702
981.9877, 316.8289
982.4698, 317.4743
982.9520, 319.4103
983.4341, 319.9840
983.9162, 319.0370
984.3983, 317.9142
984.8804, 317.3101
985.3625, 317.1135
985.8447, 317.2658
986.3268, 317.7814
986.8089, 318.7068
987.2910, 320.3312
987.7731, 321.4833
988.2552, 321.5195
988.7374, 321.2339
989.2195, 322.7314
989.7016, 325.2147
990.1837, 326.4476
990.6658, 324.6395
991.1479, 323.5507
991.6301, 325.3052
992.1122, 328.1834
992.5944, 330.5648
993.0765, 332.3603
993.5586, 333.7203
994.0407, 334.5310
994.5228, 335.8177
995.0049, 338.9318
995.4871, 342.7095
995.9692, 345.0003
996.4513, 346.2042
996.9334, 349.4139
997.4155, 357.8516
997.8976, 365.5834
998.3798, 370.7973
998.8619, 374.6909
999.3440, 379.9561
999.8261, 386.6280
1000.308, 394.9379
1000.790, 405.2841
1001.272, 416.1086
1001.755, 425.4892
1002.237, 435.1337
1002.719, 446.8976
1003.201, 461.8672
1003.683, 476.5701
1004.165, 490.9091
1004.647, 505.6156
1005.129, 521.4391
1005.612, 538.1840
1006.094, 556.8401
1006.576, 576.5566
1007.058, 594.1425
1007.540, 609.0283
1008.022, 619.9882
1008.504, 626.1537
1008.986, 628.3298
1009.468, 627.7687
1009.951, 624.6306
1010.433, 617.3269
1010.915, 605.5146
1011.397, 589.4971
1011.879, 567.8552
1012.361, 543.4139
1012.843, 518.6628
1013.325, 493.7065
1013.807, 472.2160
1014.290, 455.6255
1014.772, 441.1373
1015.254, 427.4220
1015.736, 415.1129
1016.218, 406.8934
1016.700, 402.3010
1017.182, 398.6962
1017.664, 395.0035
1018.147, 391.7088
1018.629, 389.1979
1019.111, 387.2656
1019.593, 385.6322
1020.075, 384.6722
1020.557, 382.6789
1021.039, 379.3620
1021.521, 375.8885
1022.003, 373.3219
1022.486, 371.3744
1022.968, 369.5666
1023.450, 367.8761
1023.932, 366.5232
1024.414, 366.5001
1024.896, 365.7205
1025.378, 363.2556
1025.860, 359.7337
1026.343, 356.7284
1026.825, 354.2977
1027.307, 352.6496
1027.789, 351.9381
1028.271, 351.7305
1028.753, 352.0740
1029.235, 352.4699
1029.717, 352.4746
1030.199, 352.2593
1030.682, 350.4794
1031.164, 346.5341
1031.646, 342.6596
1032.128, 340.2715
1032.610, 338.9221
1033.092, 337.1503
1033.574, 335.3419
1034.056, 334.9747
1034.539, 338.8396
1035.021, 341.6453
1035.503, 341.0694
1035.985, 338.9880
1036.467, 337.8682
1036.949, 337.7544
1037.431, 336.8190
1037.913, 334.7228
1038.396, 333.3037
1038.878, 335.1581
1039.360, 337.7731
1039.842, 338.7381
1040.324, 337.8272
1040.806, 336.9170
1041.288, 335.9125
1041.770, 335.4846
1042.252, 336.1684
1042.734, 337.1028
1043.217, 336.1945
1043.699, 334.0991
1044.181, 332.4868
1044.663, 331.7374
1045.145, 331.7959
1045.627, 333.2469
1046.109, 335.0123
1046.591, 336.5549
1047.074, 337.9300
1047.556, 337.0503
1048.038, 333.9005
1048.520, 331.4237
1049.002, 332.2602
1049.484, 334.0280
1049.966, 334.7407
1050.448, 334.7114
1050.931, 334.9979
1051.413, 336.4164
1051.895, 336.3739
1052.377, 334.0141
1052.859, 331.5368
1053.341, 332.1793
1053.823, 334.5794
1054.305, 335.5559
1054.787, 334.7367
1055.270, 334.1080
1055.752, 334.7165
1056.234, 335.5474
1056.716, 336.1743
1057.198, 336.6585
1057.680, 337.3778
1058.162, 338.2830
1058.644, 338.5400
1059.126, 337.6350
1059.609, 336.6198
1060.091, 336.0037
1060.573, 336.0350
1061.055, 337.2765
1061.537, 340.3849
1062.019, 342.0790
1062.501, 342.1022
1062.983, 341.6689
1063.466, 341.4509
1063.948, 341.3855
1064.430, 341.1665
1064.912, 340.9863
1065.394, 341.4175
1065.876, 344.2296
1066.358, 345.4499
1066.840, 343.7104
1067.323, 341.0514
1067.805, 339.7408
1068.287, 339.7209
1068.769, 341.0579
1069.251, 343.7361
1069.733, 346.0695
1070.215, 346.8716
1070.697, 346.9098
1071.179, 346.0795
1071.661, 344.8287
1072.144, 345.1517
1072.626, 347.3170
1073.108, 349.1139
1073.590, 349.7811
1074.072, 350.4344
1074.554, 353.4335
1075.036, 356.7988
1075.518, 357.5490
1076.001, 354.3257
1076.483, 352.4624
1076.965, 352.5988
1077.447, 353.6416
1077.929, 355.3288
1078.411, 357.3452
1078.893, 358.6133
1079.375, 359.3936
1079.858, 360.5362
1080.340, 362.5990
1080.822, 364.7873
1081.304, 366.8727
1081.786, 368.9227
1082.268, 371.0822
1082.750, 373.3440
1083.232, 374.6328
1083.714, 374.9522
1084.197, 375.9412
1084.679, 379.6095
1085.161, 383.6372
1085.643, 386.1450
1086.125, 387.5398
1086.607, 389.5110
1087.089, 392.2747
1087.571, 394.7916
1088.054, 396.6764
1088.536, 399.1891
1089.018, 404.5782
1089.500, 411.1796
1089.982, 415.9485
1090.464, 418.5351
1090.946, 423.4233
1091.428, 432.6996
1091.911, 442.3831
1092.393, 451.3392
1092.875, 459.8432
1093.357, 468.3529
1093.839, 476.9348
1094.321, 486.0211
1094.803, 495.6976
1095.285, 506.0155
1095.767, 516.9143
1096.250, 528.4625
1096.732, 540.7318
1097.214, 553.6127
1097.696, 566.6429
1098.178, 579.9181
1098.660, 594.1396
1099.142, 610.1769
1099.624, 626.8969
1100.106, 644.2028
1100.589, 661.3457
1101.071, 677.2635
1101.553, 692.1301
1102.035, 705.6340
1102.517, 717.8166
1102.999, 728.8088
1103.481, 738.6448
1103.963, 747.2936
1104.446, 754.5604
1104.928, 760.4407
1105.410, 765.0887
1105.892, 769.4672
1106.374, 770.8690
1106.856, 768.7703
1107.338, 763.8129
1107.820, 756.7328
1108.302, 747.5051
1108.785, 735.5273
1109.267, 720.7834
1109.749, 704.3985
1110.231, 685.8748
1110.713, 666.6516
1111.195, 646.7521
1111.677, 626.6982
1112.159, 607.8467
1112.641, 590.0358
1113.124, 572.1291
1113.606, 553.4241
1114.088, 535.6707
1114.570, 519.5903
1115.052, 505.3092
1115.534, 493.1931
1116.016, 483.2034
1116.498, 474.0771
1116.981, 465.7509
1117.463, 457.9344
1117.945, 450.0938
1118.427, 443.3203
1118.909, 439.1886
1119.391, 436.6059
1119.873, 434.2390
1120.355, 432.6751
1120.838, 428.5049
1121.320, 420.9855
1121.802, 414.0402
1122.284, 410.6216
1122.766, 409.3398
1123.248, 408.6630
1123.730, 408.2711
1124.212, 407.3260
1124.694, 404.3680
1125.177, 402.7995
1125.659, 403.2971
1126.141, 404.3624
1126.623, 404.5197
1127.105, 403.9784
1127.587, 402.8950
1128.069, 401.4687
1128.551, 401.0109
1129.033, 404.0293
1129.516, 405.4953
1129.998, 403.1626
1130.480, 399.5300
1130.962, 399.1765
1131.444, 401.4068
1131.926, 402.5657
1132.408, 402.1129
1132.890, 401.3200
1133.373, 399.9577
1133.855, 399.5860
1134.337, 401.7314
1134.819, 405.3961
1135.301, 406.8222
1135.783, 406.1043
1136.265, 406.1437
1136.747, 407.7525
1137.229, 410.0674
1137.712, 412.7203
1138.194, 415.4677
1138.676, 417.9436
1139.158, 420.1531
1139.640, 423.5938
1140.122, 428.5308
1140.604, 432.1711
1141.086, 432.5156
1141.569, 432.7304
1142.051, 437.1375
1142.533, 443.3239
1143.015, 448.0717
1143.497, 450.4845
1143.979, 452.5787
1144.461, 454.0688
1144.943, 456.3229
1145.426, 460.5142
1145.908, 465.6191
1146.390, 469.9448
1146.872, 473.8247
1147.354, 478.0300
1147.836, 483.6396
1148.318, 488.0496
1148.800, 490.8532
1149.282, 493.2728
1149.765, 496.6350
1150.247, 500.2557
1150.729, 502.6294
1151.211, 503.8685
1151.693, 504.6256
1152.175, 504.3995
1152.657, 504.9269
1153.139, 507.1907
1153.621, 509.1963
1154.104, 508.2423
1154.586, 505.0884
1155.068, 502.3749
1155.550, 500.1468
1156.032, 497.2357
1156.514, 492.1633
1156.996, 487.3973
1157.478, 483.8790
1157.961, 480.9171
1158.443, 477.4012
1158.925, 473.3478
1159.407, 468.7596
1159.889, 463.6613
1160.371, 458.4360
1160.853, 452.4352
1161.335, 447.3668
1161.818, 444.4045
1162.300, 442.8358
1162.782, 441.0054
1163.264, 438.8408
1163.746, 435.0587
1164.228, 428.9768
1164.710, 423.6410
1165.192, 422.4363
1165.674, 421.7981
1166.156, 418.9384
1166.639, 414.2387
1167.121, 409.8676
1167.603, 405.8581
1168.085, 403.7814
1168.567, 404.9072
1169.049, 405.7628
1169.531, 402.2740
1170.013, 397.7833
1170.496, 395.9540
1170.978, 396.9069
1171.460, 396.5421
1171.942, 394.7920
1172.424, 392.9007
1172.906, 391.5292
1173.388, 390.0719
1173.870, 386.9770
1174.353, 383.9278
1174.835, 383.6537
1175.317, 387.0384
1175.799, 388.2463
1176.281, 387.0463
1176.763, 385.6236
1177.245, 385.3587
1177.727, 385.3412
1178.209, 384.6776
1178.692, 383.4927
1179.174, 381.8253
1179.656, 378.7876
1180.138, 378.1133
1180.620, 380.2638
1181.102, 382.3643
1181.584, 382.5139
1182.066, 381.3001
1182.548, 378.4093
1183.031, 374.9015
1183.513, 373.3542
1183.995, 375.5516
1184.477, 376.3363
1184.959, 375.2288
1185.441, 373.7769
1185.923, 373.5577
1186.405, 373.6906
1186.888, 372.4913
1187.370, 370.5204
1187.852, 369.9691
1188.334, 372.2531
1188.816, 373.8161
1189.298, 374.3349
1189.780, 374.0908
1190.262, 373.0603
1190.745, 371.6232
1191.227, 370.1199
1191.709, 368.6924
1192.191, 367.9334
1192.673, 368.3087
1193.155, 368.6847
1193.637, 368.9344
1194.119, 369.0797
1194.601, 368.9632
1195.084, 368.8592
1195.566, 369.4839
1196.048, 370.7521
1196.530, 371.1672
1197.012, 369.7642
1197.494, 368.9529
1197.976, 369.3604
1198.458, 370.0982
1198.941, 369.7911
1199.423, 369.0014
1199.905, 368.8199
1200.387, 369.3334
1200.869, 369.2979
1201.351, 367.6776
1201.833, 367.2619
1202.315, 369.2021
1202.797, 371.6886
1203.280, 371.3246
1203.762, 369.6334
1204.244, 369.6090
1204.726, 371.8187
1205.208, 372.6357
1205.690, 370.6388
1206.172, 368.9615
1206.654, 368.6834
1207.136, 368.9096
1207.619, 367.5462
1208.101, 368.1392
1208.583, 365.8597
1209.065, 368.6124
1209.547, 370.5022
1210.029, 370.9530
1210.511, 370.7113
1210.993, 369.8355
1211.476, 368.7297
1211.958, 368.0154
1212.440, 367.6315
1212.922, 367.4147
1213.404, 367.2282
1213.886, 368.0001
1214.368, 370.7017
1214.850, 372.1326
1215.333, 370.5295
1215.815, 367.5650
1216.297, 365.4977
1216.779, 364.5561
1217.261, 365.4430
1217.743, 369.0778
1218.225, 371.4432
1218.707, 372.0412
1219.189, 371.8537
1219.672, 371.1609
1220.154, 370.1735
1220.636, 369.1074
1221.118, 368.0821
1221.600, 367.2715
1222.082, 366.6301
1222.564, 366.6828
1223.046, 367.7268
1223.528, 368.5835
1224.011, 368.4174
1224.493, 367.9724
1224.975, 368.7520
1225.457, 370.0952
1225.939, 370.8383
1226.421, 370.4553
1226.903, 370.1733
1227.385, 370.0778
1227.868, 369.7924
1228.350, 368.8301
1228.832, 367.8644
1229.314, 368.2225
1229.796, 369.2156
1230.278, 369.6204
1230.760, 368.8021
1231.242, 368.5633
1231.724, 368.9453
1232.207, 369.7252
1232.689, 371.3556
1233.171, 372.6842
1233.653, 371.5937
1234.135, 369.3989
1234.617, 368.4121
1235.099, 369.4690
1235.581, 369.7794
1236.063, 369.2466
1236.546, 368.6557
1237.028, 368.3394
1237.510, 368.3794
1237.992, 369.1283
1238.474, 370.1942
1238.956, 370.8938
1239.438, 371.0988
1239.920, 371.3580
1240.403, 371.6644
1240.885, 372.0403
1241.367, 373.3858
1241.849, 373.8682
1242.331, 370.1396
1242.813, 365.3643
1243.295, 364.5522
1243.777, 368.7450
1244.260, 371.3399
1244.742, 372.3671
1245.224, 372.8360
1245.706, 372.8774
1246.188, 373.1388
1246.670, 374.4720
1247.152, 376.0638
1247.634, 376.9076
1248.116, 377.0208
1248.599, 375.8678
1249.081, 373.6022
1249.563, 372.3638
1250.045, 374.2829
1250.527, 376.6035
1251.009, 378.4073
1251.491, 379.4492
1251.973, 379.3891
1252.455, 378.2602
1252.938, 376.3932
1253.420, 374.0008
1253.902, 372.6405
1254.384, 374.2928
1254.866, 375.6913
1255.348, 375.5681
1255.830, 374.7774
1256.313, 373.7274
1256.795, 372.5902
1257.277, 372.4291
1257.759, 373.1990
1258.241, 374.5861
1258.723, 377.9559
1259.205, 379.6337
1259.687, 378.0718
1260.169, 376.1025
1260.651, 376.4940
1261.134, 378.4066
1261.616, 379.3009
1262.098, 379.3062
1262.580, 379.0216
1263.062, 377.8066
1263.544, 377.8778
1264.026, 380.1517
1264.508, 381.9743
1264.991, 380.3904
1265.473, 377.2292
1265.955, 376.0059
1266.437, 376.1606
1266.919, 376.1191
1267.401, 374.8520
1267.883, 374.6823
1268.365, 375.8701
1268.848, 377.2946
1269.330, 378.3182
1269.812, 378.9012
1270.294, 378.7434
1270.776, 378.1620
1271.258, 377.8724
1271.740, 378.0826
1272.222, 377.9820
1272.704, 377.4903
1273.187, 377.2968
1273.669, 378.6909
1274.151, 379.7833
1274.633, 378.2423
1275.115, 375.5952
1275.597, 374.1755
1276.079, 374.0579
1276.561, 375.4453
1277.043, 378.2673
1277.526, 380.4810
1278.008, 380.8202
1278.490, 380.1913
1278.972, 377.8288
1279.454, 375.7474
1279.936, 376.5190
1280.418, 379.9696
1280.900, 380.6421
1281.383, 378.9879
1281.865, 377.9548
1282.347, 379.6010
1282.829, 381.2433
1283.311, 382.0262
1283.793, 382.4406
1284.275, 382.6968
1284.757, 382.8897
1285.240, 383.7221
1285.722, 384.8712
1286.204, 385.2208
1286.686, 383.1977
1287.168, 382.5764
1287.650, 384.2950
1288.132, 386.1295
1288.614, 386.4347
1289.096, 385.8999
1289.578, 385.7330
1290.061, 385.8625
1290.543, 386.1979
1291.025, 387.1701
1291.507, 386.9284
1291.989, 385.0721
1292.471, 383.8933
1292.953, 385.3307
1293.435, 387.3140
1293.918, 387.1461
1294.400, 386.0163
1294.882, 385.9064
1295.364, 384.9493
1295.846, 386.4595
1296.328, 383.6624
1296.810, 381.6163
1297.292, 381.8804
1297.775, 382.8402
1298.257, 384.2872
1298.739, 385.0098
1299.221, 383.4156
1299.703, 379.9596
1300.185, 379.7373
1300.667, 382.2900
1301.149, 384.9551
1301.631, 386.9360
1302.114, 388.1215
1302.596, 388.8376
##END=



