##NAMES=Hydroxylapatite
##RRUFFID=R130713
##IDEAL CHEMISTRY=Ca_5_(P^5+^O_4_)_3_OH
##LOCALITY=Wessels mine, Kalahari manganese field, Northern Cape Province, South Africa
##OWNER=RRUFF
##SOURCE=Robert Lavinsky
##DESCRIPTION=Transparent pale green hexagonal tablets
##STATUS=The identification of this mineral has been confirmed only by single crystal X-ray diffraction.
##URL=rruff.info/R130713
9.059570e+001, 5.358006e+002
9.107782e+001, 5.330641e+002
9.155994e+001, 5.321172e+002
9.204205e+001, 5.346718e+002
9.252417e+001, 5.378344e+002
9.300629e+001, 5.404001e+002
9.348840e+001, 5.393151e+002
9.397052e+001, 5.317672e+002
9.445264e+001, 5.177279e+002
9.493475e+001, 5.047145e+002
9.541687e+001, 4.920781e+002
9.589898e+001, 4.801360e+002
9.638110e+001, 4.688473e+002
9.686321e+001, 4.580501e+002
9.734533e+001, 4.473233e+002
9.782745e+001, 4.360504e+002
9.830956e+001, 4.264759e+002
9.879168e+001, 4.188022e+002
9.927380e+001, 4.120483e+002
9.975591e+001, 4.060812e+002
1.002380e+002, 4.007101e+002
1.007201e+002, 3.956769e+002
1.012023e+002, 3.909311e+002
1.016844e+002, 3.863237e+002
1.021665e+002, 3.814118e+002
1.026486e+002, 3.753610e+002
1.031307e+002, 3.694521e+002
1.036128e+002, 3.649891e+002
1.040950e+002, 3.620816e+002
1.045771e+002, 3.597182e+002
1.050592e+002, 3.573059e+002
1.055413e+002, 3.548525e+002
1.060234e+002, 3.523954e+002
1.065055e+002, 3.497207e+002
1.069877e+002, 3.469879e+002
1.074698e+002, 3.450078e+002
1.079519e+002, 3.448529e+002
1.084340e+002, 3.440562e+002
1.089161e+002, 3.414031e+002
1.093982e+002, 3.372827e+002
1.098804e+002, 3.327222e+002
1.103625e+002, 3.284930e+002
1.108446e+002, 3.245612e+002
1.113267e+002, 3.212358e+002
1.118088e+002, 3.187806e+002
1.122909e+002, 3.166372e+002
1.127731e+002, 3.145063e+002
1.132552e+002, 3.123771e+002
1.137373e+002, 3.104615e+002
1.142194e+002, 3.091111e+002
1.147015e+002, 3.088026e+002
1.151836e+002, 3.082159e+002
1.156658e+002, 3.071490e+002
1.161479e+002, 3.059082e+002
1.166300e+002, 3.048305e+002
1.171121e+002, 3.040439e+002
1.175942e+002, 3.033566e+002
1.180763e+002, 3.022853e+002
1.185584e+002, 3.006943e+002
1.190406e+002, 2.991035e+002
1.195227e+002, 2.975043e+002
1.200048e+002, 2.959930e+002
1.204869e+002, 2.948427e+002
1.209690e+002, 2.942402e+002
1.214511e+002, 2.940755e+002
1.219333e+002, 2.939662e+002
1.224154e+002, 2.938339e+002
1.228975e+002, 2.938817e+002
1.233796e+002, 2.945406e+002
1.238617e+002, 2.959420e+002
1.243438e+002, 2.968354e+002
1.248260e+002, 2.960324e+002
1.253081e+002, 2.946016e+002
1.257902e+002, 2.934335e+002
1.262723e+002, 2.928505e+002
1.267544e+002, 2.926884e+002
1.272365e+002, 2.925926e+002
1.277187e+002, 2.925229e+002
1.282008e+002, 2.926113e+002
1.286829e+002, 2.927928e+002
1.291650e+002, 2.931440e+002
1.296471e+002, 2.938098e+002
1.301292e+002, 2.949443e+002
1.306114e+002, 2.964962e+002
1.310935e+002, 2.976869e+002
1.315756e+002, 2.979877e+002
1.320577e+002, 2.984282e+002
1.325398e+002, 2.994416e+002
1.330219e+002, 3.008401e+002
1.335041e+002, 3.020941e+002
1.339862e+002, 3.026890e+002
1.344683e+002, 3.024371e+002
1.349504e+002, 3.028402e+002
1.354325e+002, 3.043101e+002
1.359146e+002, 3.059669e+002
1.363968e+002, 3.074350e+002
1.368789e+002, 3.086302e+002
1.373610e+002, 3.095128e+002
1.378431e+002, 3.099984e+002
1.383252e+002, 3.100212e+002
1.388073e+002, 3.098310e+002
1.392895e+002, 3.098141e+002
1.397716e+002, 3.094458e+002
1.402537e+002, 3.079869e+002
1.407358e+002, 3.051714e+002
1.412179e+002, 3.016840e+002
1.417000e+002, 2.983296e+002
1.421821e+002, 2.951062e+002
1.426643e+002, 2.918094e+002
1.431464e+002, 2.882858e+002
1.436285e+002, 2.846082e+002
1.441106e+002, 2.809780e+002
1.445927e+002, 2.772798e+002
1.450748e+002, 2.738755e+002
1.455570e+002, 2.709425e+002
1.460391e+002, 2.684936e+002
1.465212e+002, 2.665031e+002
1.470033e+002, 2.650962e+002
1.474854e+002, 2.643377e+002
1.479675e+002, 2.635091e+002
1.484497e+002, 2.623223e+002
1.489318e+002, 2.611127e+002
1.494139e+002, 2.600797e+002
1.498960e+002, 2.592645e+002
1.503781e+002, 2.585302e+002
1.508602e+002, 2.576512e+002
1.513424e+002, 2.564397e+002
1.518245e+002, 2.554954e+002
1.523066e+002, 2.550576e+002
1.527887e+002, 2.547480e+002
1.532708e+002, 2.543556e+002
1.537529e+002, 2.537894e+002
1.542351e+002, 2.529667e+002
1.547172e+002, 2.516624e+002
1.551993e+002, 2.491350e+002
1.556814e+002, 2.470024e+002
1.561635e+002, 2.458884e+002
1.566456e+002, 2.450467e+002
1.571278e+002, 2.434816e+002
1.576099e+002, 2.406542e+002
1.580920e+002, 2.369504e+002
1.585741e+002, 2.340300e+002
1.590562e+002, 2.323635e+002
1.595383e+002, 2.308135e+002
1.600205e+002, 2.290751e+002
1.605026e+002, 2.272536e+002
1.609847e+002, 2.256024e+002
1.614668e+002, 2.242826e+002
1.619489e+002, 2.232591e+002
1.624310e+002, 2.223185e+002
1.629131e+002, 2.214688e+002
1.633953e+002, 2.206866e+002
1.638774e+002, 2.200182e+002
1.643595e+002, 2.194469e+002
1.648416e+002, 2.188158e+002
1.653237e+002, 2.180075e+002
1.658058e+002, 2.170688e+002
1.662880e+002, 2.161226e+002
1.667701e+002, 2.151786e+002
1.672522e+002, 2.142291e+002
1.677343e+002, 2.132380e+002
1.682164e+002, 2.121792e+002
1.686985e+002, 2.112115e+002
1.691807e+002, 2.105696e+002
1.696628e+002, 2.100478e+002
1.701449e+002, 2.093619e+002
1.706270e+002, 2.082808e+002
1.711091e+002, 2.070473e+002
1.715912e+002, 2.062800e+002
1.720734e+002, 2.062867e+002
1.725555e+002, 2.062036e+002
1.730376e+002, 2.057067e+002
1.735197e+002, 2.049218e+002
1.740018e+002, 2.039917e+002
1.744839e+002, 2.029458e+002
1.749661e+002, 2.018329e+002
1.754482e+002, 2.009661e+002
1.759303e+002, 2.004595e+002
1.764124e+002, 2.001102e+002
1.768945e+002, 1.999586e+002
1.773766e+002, 1.999160e+002
1.778588e+002, 1.998572e+002
1.783409e+002, 1.997031e+002
1.788230e+002, 1.994533e+002
1.793051e+002, 1.990381e+002
1.797872e+002, 1.982150e+002
1.802693e+002, 1.974636e+002
1.807515e+002, 1.969581e+002
1.812336e+002, 1.966527e+002
1.817157e+002, 1.964072e+002
1.821978e+002, 1.961027e+002
1.826799e+002, 1.957292e+002
1.831620e+002, 1.953866e+002
1.836441e+002, 1.952059e+002
1.841263e+002, 1.949356e+002
1.846084e+002, 1.943704e+002
1.850905e+002, 1.935557e+002
1.855726e+002, 1.927491e+002
1.860547e+002, 1.921931e+002
1.865368e+002, 1.919299e+002
1.870190e+002, 1.916701e+002
1.875011e+002, 1.914160e+002
1.879832e+002, 1.911665e+002
1.884653e+002, 1.908922e+002
1.889474e+002, 1.905965e+002
1.894296e+002, 1.903629e+002
1.899117e+002, 1.902884e+002
1.903938e+002, 1.903743e+002
1.908759e+002, 1.904889e+002
1.913580e+002, 1.908149e+002
1.918401e+002, 1.910740e+002
1.923223e+002, 1.908289e+002
1.928044e+002, 1.899375e+002
1.932865e+002, 1.890312e+002
1.937686e+002, 1.888518e+002
1.942507e+002, 1.891875e+002
1.947328e+002, 1.894444e+002
1.952150e+002, 1.892603e+002
1.956971e+002, 1.889042e+002
1.961792e+002, 1.890009e+002
1.966613e+002, 1.898371e+002
1.971434e+002, 1.905959e+002
1.976255e+002, 1.905359e+002
1.981077e+002, 1.899143e+002
1.985898e+002, 1.893697e+002
1.990719e+002, 1.892635e+002
1.995540e+002, 1.895110e+002
2.000361e+002, 1.897594e+002
2.005182e+002, 1.900258e+002
2.010004e+002, 1.902554e+002
2.014825e+002, 1.903985e+002
2.019646e+002, 1.904843e+002
2.024467e+002, 1.905815e+002
2.029288e+002, 1.907276e+002
2.034109e+002, 1.909236e+002
2.038930e+002, 1.911878e+002
2.043752e+002, 1.917272e+002
2.048573e+002, 1.921085e+002
2.053394e+002, 1.920624e+002
2.058215e+002, 1.917160e+002
2.063036e+002, 1.913905e+002
2.067857e+002, 1.914088e+002
2.072679e+002, 1.918066e+002
2.077500e+002, 1.918468e+002
2.082321e+002, 1.912753e+002
2.087142e+002, 1.905524e+002
2.091963e+002, 1.897226e+002
2.096784e+002, 1.888457e+002
2.101606e+002, 1.880145e+002
2.106427e+002, 1.873209e+002
2.111248e+002, 1.867912e+002
2.116069e+002, 1.861980e+002
2.120890e+002, 1.853998e+002
2.125711e+002, 1.846744e+002
2.130533e+002, 1.841598e+002
2.135354e+002, 1.838280e+002
2.140175e+002, 1.835500e+002
2.144996e+002, 1.832080e+002
2.149817e+002, 1.827839e+002
2.154638e+002, 1.824224e+002
2.159460e+002, 1.821103e+002
2.164281e+002, 1.818548e+002
2.169102e+002, 1.816866e+002
2.173923e+002, 1.815894e+002
2.178744e+002, 1.814905e+002
2.183565e+002, 1.813103e+002
2.188387e+002, 1.810289e+002
2.193208e+002, 1.809035e+002
2.198029e+002, 1.810302e+002
2.202850e+002, 1.812129e+002
2.207671e+002, 1.813466e+002
2.212492e+002, 1.814231e+002
2.217314e+002, 1.814671e+002
2.222135e+002, 1.814774e+002
2.226956e+002, 1.814565e+002
2.231777e+002, 1.815624e+002
2.236598e+002, 1.819232e+002
2.241419e+002, 1.823157e+002
2.246240e+002, 1.825724e+002
2.251062e+002, 1.826869e+002
2.255883e+002, 1.827444e+002
2.260704e+002, 1.827839e+002
2.265525e+002, 1.828190e+002
2.270346e+002, 1.829279e+002
2.275167e+002, 1.832899e+002
2.279989e+002, 1.836192e+002
2.284810e+002, 1.835113e+002
2.289631e+002, 1.829297e+002
2.294452e+002, 1.825257e+002
2.299273e+002, 1.830133e+002
2.304094e+002, 1.840502e+002
2.308916e+002, 1.846774e+002
2.313737e+002, 1.844686e+002
2.318558e+002, 1.839288e+002
2.323379e+002, 1.835683e+002
2.328200e+002, 1.833876e+002
2.333021e+002, 1.833848e+002
2.337843e+002, 1.837743e+002
2.342664e+002, 1.843060e+002
2.347485e+002, 1.845824e+002
2.352306e+002, 1.844290e+002
2.357127e+002, 1.840401e+002
2.361948e+002, 1.835752e+002
2.366770e+002, 1.829443e+002
2.371591e+002, 1.826085e+002
2.376412e+002, 1.832207e+002
2.381233e+002, 1.841341e+002
2.386054e+002, 1.846236e+002
2.390875e+002, 1.843942e+002
2.395697e+002, 1.837508e+002
2.400518e+002, 1.831858e+002
2.405339e+002, 1.827655e+002
2.410160e+002, 1.821971e+002
2.414981e+002, 1.810848e+002
2.419802e+002, 1.798919e+002
2.424624e+002, 1.791011e+002
2.429445e+002, 1.789246e+002
2.434266e+002, 1.790702e+002
2.439087e+002, 1.790901e+002
2.443908e+002, 1.790257e+002
2.448729e+002, 1.787019e+002
2.453550e+002, 1.778288e+002
2.458372e+002, 1.768225e+002
2.463193e+002, 1.760488e+002
2.468014e+002, 1.756360e+002
2.472835e+002, 1.754146e+002
2.477656e+002, 1.750927e+002
2.482477e+002, 1.746377e+002
2.487299e+002, 1.741545e+002
2.492120e+002, 1.736783e+002
2.496941e+002, 1.731783e+002
2.501762e+002, 1.725835e+002
2.506583e+002, 1.718792e+002
2.511404e+002, 1.712005e+002
2.516226e+002, 1.708106e+002
2.521047e+002, 1.709288e+002
2.525868e+002, 1.708407e+002
2.530689e+002, 1.702141e+002
2.535510e+002, 1.695654e+002
2.540331e+002, 1.693118e+002
2.545153e+002, 1.695381e+002
2.549974e+002, 1.699590e+002
2.554795e+002, 1.701319e+002
2.559616e+002, 1.699027e+002
2.564437e+002, 1.697514e+002
2.569258e+002, 1.695138e+002
2.574080e+002, 1.694591e+002
2.578901e+002, 1.699473e+002
2.583722e+002, 1.709512e+002
2.588543e+002, 1.719634e+002
2.593364e+002, 1.722228e+002
2.598185e+002, 1.711834e+002
2.603007e+002, 1.707855e+002
2.607828e+002, 1.714924e+002
2.612649e+002, 1.723389e+002
2.617470e+002, 1.727277e+002
2.622291e+002, 1.726049e+002
2.627112e+002, 1.722937e+002
2.631934e+002, 1.721594e+002
2.636755e+002, 1.722551e+002
2.641576e+002, 1.723450e+002
2.646397e+002, 1.724868e+002
2.651218e+002, 1.725767e+002
2.656039e+002, 1.726125e+002
2.660861e+002, 1.725598e+002
2.665682e+002, 1.723031e+002
2.670503e+002, 1.716760e+002
2.675324e+002, 1.705591e+002
2.680145e+002, 1.698835e+002
2.684966e+002, 1.699980e+002
2.689788e+002, 1.701411e+002
2.694609e+002, 1.698918e+002
2.699430e+002, 1.693109e+002
2.704251e+002, 1.687424e+002
2.709072e+002, 1.684814e+002
2.713893e+002, 1.685457e+002
2.718715e+002, 1.684444e+002
2.723536e+002, 1.680616e+002
2.728357e+002, 1.676658e+002
2.733178e+002, 1.673945e+002
2.737999e+002, 1.672094e+002
2.742820e+002, 1.669906e+002
2.747642e+002, 1.666552e+002
2.752463e+002, 1.662110e+002
2.757284e+002, 1.657592e+002
2.762105e+002, 1.650427e+002
2.766926e+002, 1.645854e+002
2.771747e+002, 1.648168e+002
2.776568e+002, 1.654459e+002
2.781389e+002, 1.658064e+002
2.786211e+002, 1.655060e+002
2.791032e+002, 1.647090e+002
2.795853e+002, 1.641104e+002
2.800674e+002, 1.636749e+002
2.805495e+002, 1.634251e+002
2.810316e+002, 1.634750e+002
2.815138e+002, 1.637029e+002
2.819959e+002, 1.638962e+002
2.824780e+002, 1.639632e+002
2.829601e+002, 1.639486e+002
2.834422e+002, 1.639620e+002
2.839243e+002, 1.640176e+002
2.844065e+002, 1.640711e+002
2.848886e+002, 1.642943e+002
2.853707e+002, 1.644643e+002
2.858528e+002, 1.641224e+002
2.863349e+002, 1.630587e+002
2.868170e+002, 1.618103e+002
2.872992e+002, 1.613504e+002
2.877813e+002, 1.619258e+002
2.882634e+002, 1.623691e+002
2.887455e+002, 1.624700e+002
2.892276e+002, 1.623570e+002
2.897097e+002, 1.621669e+002
2.901919e+002, 1.619293e+002
2.906740e+002, 1.616378e+002
2.911561e+002, 1.612388e+002
2.916382e+002, 1.607011e+002
2.921203e+002, 1.603340e+002
2.926024e+002, 1.603198e+002
2.930846e+002, 1.604040e+002
2.935667e+002, 1.603348e+002
2.940488e+002, 1.600801e+002
2.945309e+002, 1.597787e+002
2.950130e+002, 1.596094e+002
2.954951e+002, 1.595572e+002
2.959773e+002, 1.591890e+002
2.964594e+002, 1.580343e+002
2.969415e+002, 1.568864e+002
2.974236e+002, 1.564614e+002
2.979057e+002, 1.567348e+002
2.983878e+002, 1.570729e+002
2.988700e+002, 1.570401e+002
2.993521e+002, 1.566826e+002
2.998342e+002, 1.564175e+002
3.003163e+002, 1.562996e+002
3.007984e+002, 1.562227e+002
3.012805e+002, 1.561465e+002
3.017627e+002, 1.560647e+002
3.022448e+002, 1.559538e+002
3.027269e+002, 1.558019e+002
3.032090e+002, 1.556092e+002
3.036911e+002, 1.553761e+002
3.041732e+002, 1.550425e+002
3.046554e+002, 1.547672e+002
3.051375e+002, 1.546501e+002
3.056196e+002, 1.546482e+002
3.061017e+002, 1.546637e+002
3.065838e+002, 1.546783e+002
3.070659e+002, 1.546609e+002
3.075481e+002, 1.545304e+002
3.080302e+002, 1.542589e+002
3.085123e+002, 1.540152e+002
3.089944e+002, 1.538816e+002
3.094765e+002, 1.538058e+002
3.099586e+002, 1.536676e+002
3.104408e+002, 1.534132e+002
3.109229e+002, 1.531957e+002
3.114050e+002, 1.532444e+002
3.118871e+002, 1.535546e+002
3.123692e+002, 1.539310e+002
3.128513e+002, 1.545255e+002
3.133335e+002, 1.550781e+002
3.138156e+002, 1.552242e+002
3.142977e+002, 1.548990e+002
3.147798e+002, 1.544397e+002
3.152619e+002, 1.540936e+002
3.157440e+002, 1.538718e+002
3.162262e+002, 1.538254e+002
3.167083e+002, 1.540549e+002
3.171904e+002, 1.543936e+002
3.176725e+002, 1.547749e+002
3.181546e+002, 1.551794e+002
3.186367e+002, 1.554370e+002
3.191188e+002, 1.553618e+002
3.196010e+002, 1.550496e+002
3.200831e+002, 1.549760e+002
3.205652e+002, 1.553715e+002
3.210473e+002, 1.557687e+002
3.215294e+002, 1.558638e+002
3.220115e+002, 1.557348e+002
3.224937e+002, 1.556643e+002
3.229758e+002, 1.557982e+002
3.234579e+002, 1.560541e+002
3.239400e+002, 1.562095e+002
3.244221e+002, 1.562052e+002
3.249042e+002, 1.562478e+002
3.253864e+002, 1.564673e+002
3.258685e+002, 1.567760e+002
3.263506e+002, 1.570008e+002
3.268327e+002, 1.570783e+002
3.273148e+002, 1.570937e+002
3.277969e+002, 1.571839e+002
3.282791e+002, 1.573632e+002
3.287612e+002, 1.575184e+002
3.292433e+002, 1.575292e+002
3.297254e+002, 1.575511e+002
3.302075e+002, 1.578527e+002
3.306896e+002, 1.584807e+002
3.311718e+002, 1.590605e+002
3.316539e+002, 1.591889e+002
3.321360e+002, 1.588204e+002
3.326181e+002, 1.585196e+002
3.331002e+002, 1.583507e+002
3.335823e+002, 1.582208e+002
3.340645e+002, 1.580266e+002
3.345466e+002, 1.577854e+002
3.350287e+002, 1.576806e+002
3.355108e+002, 1.579572e+002
3.359929e+002, 1.584709e+002
3.364750e+002, 1.582616e+002
3.369572e+002, 1.566485e+002
3.374393e+002, 1.551116e+002
3.379214e+002, 1.543666e+002
3.384035e+002, 1.541728e+002
3.388856e+002, 1.539591e+002
3.393677e+002, 1.534635e+002
3.398499e+002, 1.527817e+002
3.403320e+002, 1.521682e+002
3.408141e+002, 1.516542e+002
3.412962e+002, 1.511405e+002
3.417783e+002, 1.505430e+002
3.422604e+002, 1.499581e+002
3.427426e+002, 1.495654e+002
3.432247e+002, 1.494184e+002
3.437068e+002, 1.493102e+002
3.441889e+002, 1.489461e+002
3.446710e+002, 1.482084e+002
3.451531e+002, 1.475301e+002
3.456353e+002, 1.469356e+002
3.461174e+002, 1.463917e+002
3.465995e+002, 1.458404e+002
3.470816e+002, 1.452976e+002
3.475637e+002, 1.448707e+002
3.480458e+002, 1.446866e+002
3.485280e+002, 1.447619e+002
3.490101e+002, 1.447064e+002
3.494922e+002, 1.445235e+002
3.499743e+002, 1.442340e+002
3.504564e+002, 1.437953e+002
3.509385e+002, 1.432580e+002
3.514207e+002, 1.427320e+002
3.519028e+002, 1.422887e+002
3.523849e+002, 1.418965e+002
3.528670e+002, 1.414106e+002
3.533491e+002, 1.404818e+002
3.538312e+002, 1.398935e+002
3.543134e+002, 1.400077e+002
3.547955e+002, 1.404074e+002
3.552776e+002, 1.406270e+002
3.557597e+002, 1.405016e+002
3.562418e+002, 1.401451e+002
3.567239e+002, 1.397385e+002
3.572061e+002, 1.392316e+002
3.576882e+002, 1.387774e+002
3.581703e+002, 1.382668e+002
3.586524e+002, 1.378809e+002
3.591345e+002, 1.378397e+002
3.596166e+002, 1.380983e+002
3.600987e+002, 1.383625e+002
3.605808e+002, 1.383366e+002
3.610630e+002, 1.379845e+002
3.615451e+002, 1.376803e+002
3.620272e+002, 1.373590e+002
3.625093e+002, 1.371477e+002
3.629914e+002, 1.371925e+002
3.634735e+002, 1.373716e+002
3.639557e+002, 1.374468e+002
3.644378e+002, 1.372628e+002
3.649199e+002, 1.368972e+002
3.654020e+002, 1.366855e+002
3.658841e+002, 1.367904e+002
3.663662e+002, 1.368328e+002
3.668484e+002, 1.367110e+002
3.673305e+002, 1.365389e+002
3.678126e+002, 1.364256e+002
3.682947e+002, 1.364069e+002
3.687768e+002, 1.364470e+002
3.692589e+002, 1.364900e+002
3.697411e+002, 1.365231e+002
3.702232e+002, 1.365961e+002
3.707053e+002, 1.368934e+002
3.711874e+002, 1.370774e+002
3.716695e+002, 1.368457e+002
3.721516e+002, 1.362828e+002
3.726338e+002, 1.357833e+002
3.731159e+002, 1.357498e+002
3.735980e+002, 1.361623e+002
3.740801e+002, 1.363386e+002
3.745622e+002, 1.360931e+002
3.750443e+002, 1.358233e+002
3.755265e+002, 1.356312e+002
3.760086e+002, 1.355085e+002
3.764907e+002, 1.354421e+002
3.769728e+002, 1.354322e+002
3.774549e+002, 1.354582e+002
3.779370e+002, 1.354764e+002
3.784192e+002, 1.354862e+002
3.789013e+002, 1.354906e+002
3.793834e+002, 1.355168e+002
3.798655e+002, 1.355229e+002
3.803476e+002, 1.355218e+002
3.808297e+002, 1.355126e+002
3.813119e+002, 1.353462e+002
3.817940e+002, 1.347297e+002
3.822761e+002, 1.336772e+002
3.827582e+002, 1.329653e+002
3.832403e+002, 1.328174e+002
3.837224e+002, 1.329118e+002
3.842046e+002, 1.330902e+002
3.846867e+002, 1.333162e+002
3.851688e+002, 1.334734e+002
3.856509e+002, 1.334230e+002
3.861330e+002, 1.332719e+002
3.866151e+002, 1.332709e+002
3.870973e+002, 1.334459e+002
3.875794e+002, 1.336780e+002
3.880615e+002, 1.339802e+002
3.885436e+002, 1.342750e+002
3.890257e+002, 1.344428e+002
3.895078e+002, 1.344426e+002
3.899900e+002, 1.343428e+002
3.904721e+002, 1.341688e+002
3.909542e+002, 1.339303e+002
3.914363e+002, 1.336976e+002
3.919184e+002, 1.334473e+002
3.924005e+002, 1.332751e+002
3.928827e+002, 1.333560e+002
3.933648e+002, 1.337129e+002
3.938469e+002, 1.339907e+002
3.943290e+002, 1.339544e+002
3.948111e+002, 1.337849e+002
3.952932e+002, 1.338188e+002
3.957754e+002, 1.341273e+002
3.962575e+002, 1.343909e+002
3.967396e+002, 1.342775e+002
3.972217e+002, 1.338238e+002
3.977038e+002, 1.335292e+002
3.981859e+002, 1.334229e+002
3.986681e+002, 1.334722e+002
3.991501e+002, 1.337565e+002
3.996323e+002, 1.342012e+002
4.001144e+002, 1.345517e+002
4.005965e+002, 1.346753e+002
4.010786e+002, 1.346302e+002
4.015607e+002, 1.345650e+002
4.020428e+002, 1.343861e+002
4.025250e+002, 1.343471e+002
4.030071e+002, 1.345928e+002
4.034892e+002, 1.349544e+002
4.039713e+002, 1.352516e+002
4.044534e+002, 1.354391e+002
4.049355e+002, 1.355460e+002
4.054177e+002, 1.355736e+002
4.058998e+002, 1.354534e+002
4.063819e+002, 1.356371e+002
4.068640e+002, 1.364387e+002
4.073461e+002, 1.372048e+002
4.078282e+002, 1.375092e+002
4.083104e+002, 1.375074e+002
4.087925e+002, 1.376487e+002
4.092746e+002, 1.382311e+002
4.097567e+002, 1.391445e+002
4.102388e+002, 1.398868e+002
4.107209e+002, 1.402844e+002
4.112031e+002, 1.407244e+002
4.116852e+002, 1.410799e+002
4.121673e+002, 1.415760e+002
4.126494e+002, 1.425259e+002
4.131315e+002, 1.439668e+002
4.136136e+002, 1.455347e+002
4.140958e+002, 1.467339e+002
4.145779e+002, 1.474752e+002
4.150600e+002, 1.482254e+002
4.155421e+002, 1.488295e+002
4.160242e+002, 1.495882e+002
4.165063e+002, 1.505904e+002
4.169885e+002, 1.518506e+002
4.174706e+002, 1.533757e+002
4.179527e+002, 1.552338e+002
4.184348e+002, 1.573128e+002
4.189169e+002, 1.592534e+002
4.193990e+002, 1.609884e+002
4.198812e+002, 1.627115e+002
4.203633e+002, 1.642297e+002
4.208454e+002, 1.658847e+002
4.213275e+002, 1.680518e+002
4.218096e+002, 1.708255e+002
4.222917e+002, 1.738371e+002
4.227739e+002, 1.767717e+002
4.232560e+002, 1.796232e+002
4.237381e+002, 1.823549e+002
4.242202e+002, 1.847561e+002
4.247023e+002, 1.873234e+002
4.251844e+002, 1.905892e+002
4.256666e+002, 1.943618e+002
4.261487e+002, 1.979719e+002
4.266308e+002, 2.010943e+002
4.271129e+002, 2.039192e+002
4.275950e+002, 2.066718e+002
4.280771e+002, 2.093674e+002
4.285593e+002, 2.120681e+002
4.290414e+002, 2.149758e+002
4.295235e+002, 2.177907e+002
4.300056e+002, 2.199854e+002
4.304877e+002, 2.215805e+002
4.309698e+002, 2.225128e+002
4.314520e+002, 2.224901e+002
4.319341e+002, 2.218194e+002
4.324162e+002, 2.211210e+002
4.328983e+002, 2.205636e+002
4.333804e+002, 2.199001e+002
4.338625e+002, 2.187661e+002
4.343447e+002, 2.170716e+002
4.348268e+002, 2.156758e+002
4.353089e+002, 2.146325e+002
4.357910e+002, 2.138717e+002
4.362731e+002, 2.134270e+002
4.367552e+002, 2.132422e+002
4.372374e+002, 2.131344e+002
4.377195e+002, 2.129747e+002
4.382016e+002, 2.128556e+002
4.386837e+002, 2.131407e+002
4.391658e+002, 2.138684e+002
4.396479e+002, 2.149714e+002
4.401301e+002, 2.167836e+002
4.406122e+002, 2.187770e+002
4.410943e+002, 2.203734e+002
4.415764e+002, 2.214935e+002
4.420585e+002, 2.225898e+002
4.425406e+002, 2.242368e+002
4.430227e+002, 2.265921e+002
4.435049e+002, 2.283797e+002
4.439870e+002, 2.291776e+002
4.444691e+002, 2.298316e+002
4.449512e+002, 2.306428e+002
4.454333e+002, 2.314663e+002
4.459154e+002, 2.320820e+002
4.463976e+002, 2.323870e+002
4.468797e+002, 2.323351e+002
4.473618e+002, 2.318622e+002
4.478439e+002, 2.310482e+002
4.483260e+002, 2.295629e+002
4.488081e+002, 2.268033e+002
4.492903e+002, 2.237286e+002
4.497724e+002, 2.209739e+002
4.502545e+002, 2.185429e+002
4.507366e+002, 2.159408e+002
4.512187e+002, 2.127825e+002
4.517008e+002, 2.091367e+002
4.521830e+002, 2.053306e+002
4.526651e+002, 2.013202e+002
4.531472e+002, 1.973172e+002
4.536293e+002, 1.933447e+002
4.541114e+002, 1.894838e+002
4.545935e+002, 1.858969e+002
4.550757e+002, 1.827218e+002
4.555578e+002, 1.796544e+002
4.560399e+002, 1.763336e+002
4.565220e+002, 1.728731e+002
4.570041e+002, 1.697397e+002
4.574862e+002, 1.671227e+002
4.579684e+002, 1.647476e+002
4.584505e+002, 1.622018e+002
4.589326e+002, 1.594745e+002
4.594147e+002, 1.570710e+002
4.598968e+002, 1.552682e+002
4.603789e+002, 1.537029e+002
4.608611e+002, 1.520579e+002
4.613432e+002, 1.503433e+002
4.618253e+002, 1.487441e+002
4.623074e+002, 1.473747e+002
4.627895e+002, 1.461952e+002
4.632716e+002, 1.450076e+002
4.637538e+002, 1.437287e+002
4.642359e+002, 1.425504e+002
4.647180e+002, 1.416523e+002
4.652001e+002, 1.407682e+002
4.656822e+002, 1.394976e+002
4.661643e+002, 1.378252e+002
4.666465e+002, 1.362617e+002
4.671286e+002, 1.354289e+002
4.676107e+002, 1.354379e+002
4.680928e+002, 1.350314e+002
4.685749e+002, 1.336396e+002
4.690570e+002, 1.324355e+002
4.695392e+002, 1.318143e+002
4.700213e+002, 1.315600e+002
4.705034e+002, 1.313700e+002
4.709855e+002, 1.311168e+002
4.714676e+002, 1.307883e+002
4.719497e+002, 1.303618e+002
4.724319e+002, 1.298355e+002
4.729140e+002, 1.292196e+002
4.733961e+002, 1.282344e+002
4.738782e+002, 1.274138e+002
4.743603e+002, 1.271904e+002
4.748424e+002, 1.274480e+002
4.753246e+002, 1.276586e+002
4.758067e+002, 1.275004e+002
4.762888e+002, 1.270891e+002
4.767709e+002, 1.266428e+002
4.772530e+002, 1.261513e+002
4.777351e+002, 1.256932e+002
4.782173e+002, 1.252255e+002
4.786994e+002, 1.248682e+002
4.791815e+002, 1.248856e+002
4.796636e+002, 1.254643e+002
4.801457e+002, 1.257688e+002
4.806278e+002, 1.251453e+002
4.811100e+002, 1.240228e+002
4.815920e+002, 1.231157e+002
4.820742e+002, 1.225427e+002
4.825563e+002, 1.223095e+002
4.830384e+002, 1.225496e+002
4.835205e+002, 1.232400e+002
4.840026e+002, 1.234562e+002
4.844847e+002, 1.229614e+002
4.849669e+002, 1.222830e+002
4.854490e+002, 1.214211e+002
4.859311e+002, 1.205633e+002
4.864132e+002, 1.200390e+002
4.868953e+002, 1.199672e+002
4.873774e+002, 1.201740e+002
4.878596e+002, 1.204137e+002
4.883417e+002, 1.208473e+002
4.888238e+002, 1.208516e+002
4.893059e+002, 1.200035e+002
4.897880e+002, 1.192048e+002
4.902701e+002, 1.190219e+002
4.907523e+002, 1.192424e+002
4.912344e+002, 1.192906e+002
4.917165e+002, 1.187866e+002
4.921986e+002, 1.179813e+002
4.926807e+002, 1.175891e+002
4.931628e+002, 1.177651e+002
4.936450e+002, 1.179293e+002
4.941271e+002, 1.180026e+002
4.946092e+002, 1.179937e+002
4.950913e+002, 1.178708e+002
4.955734e+002, 1.176483e+002
4.960555e+002, 1.174253e+002
4.965377e+002, 1.173476e+002
4.970198e+002, 1.173167e+002
4.975019e+002, 1.170017e+002
4.979840e+002, 1.163204e+002
4.984661e+002, 1.157130e+002
4.989482e+002, 1.154489e+002
4.994304e+002, 1.154041e+002
4.999125e+002, 1.153212e+002
5.003946e+002, 1.151439e+002
5.008767e+002, 1.150346e+002
5.013588e+002, 1.151370e+002
5.018409e+002, 1.153447e+002
5.023231e+002, 1.155070e+002
5.028052e+002, 1.155946e+002
5.032873e+002, 1.155170e+002
5.037694e+002, 1.151261e+002
5.042515e+002, 1.144041e+002
5.047336e+002, 1.140100e+002
5.052158e+002, 1.142072e+002
5.056979e+002, 1.143986e+002
5.061800e+002, 1.143238e+002
5.066621e+002, 1.141213e+002
5.071442e+002, 1.140350e+002
5.076263e+002, 1.141474e+002
5.081085e+002, 1.143102e+002
5.085906e+002, 1.142732e+002
5.090727e+002, 1.139365e+002
5.095548e+002, 1.137600e+002
5.100369e+002, 1.140176e+002
5.105190e+002, 1.141610e+002
5.110012e+002, 1.137719e+002
5.114833e+002, 1.131428e+002
5.119654e+002, 1.128856e+002
5.124475e+002, 1.133710e+002
5.129296e+002, 1.141531e+002
5.134117e+002, 1.143744e+002
5.138939e+002, 1.139471e+002
5.143760e+002, 1.136521e+002
5.148581e+002, 1.137864e+002
5.153402e+002, 1.139754e+002
5.158223e+002, 1.139255e+002
5.163044e+002, 1.136527e+002
5.167866e+002, 1.132882e+002
5.172687e+002, 1.127387e+002
5.177508e+002, 1.122110e+002
5.182329e+002, 1.119839e+002
5.187150e+002, 1.120485e+002
5.191971e+002, 1.122557e+002
5.196793e+002, 1.125983e+002
5.201614e+002, 1.129676e+002
5.206435e+002, 1.130996e+002
5.211256e+002, 1.129674e+002
5.216077e+002, 1.127439e+002
5.220898e+002, 1.123316e+002
5.225720e+002, 1.119274e+002
5.230541e+002, 1.117592e+002
5.235362e+002, 1.117958e+002
5.240183e+002, 1.117972e+002
5.245004e+002, 1.115828e+002
5.249825e+002, 1.112032e+002
5.254647e+002, 1.109171e+002
5.259468e+002, 1.108395e+002
5.264289e+002, 1.106956e+002
5.269110e+002, 1.102651e+002
5.273931e+002, 1.098960e+002
5.278752e+002, 1.099578e+002
5.283574e+002, 1.104334e+002
5.288395e+002, 1.109364e+002
5.293216e+002, 1.111238e+002
5.298037e+002, 1.110428e+002
5.302858e+002, 1.109912e+002
5.307679e+002, 1.110138e+002
5.312501e+002, 1.109614e+002
5.317322e+002, 1.106567e+002
5.322143e+002, 1.102979e+002
5.326964e+002, 1.100922e+002
5.331785e+002, 1.100822e+002
5.336606e+002, 1.101436e+002
5.341428e+002, 1.103041e+002
5.346249e+002, 1.104572e+002
5.351070e+002, 1.103050e+002
5.355891e+002, 1.097854e+002
5.360712e+002, 1.092815e+002
5.365533e+002, 1.090629e+002
5.370355e+002, 1.091137e+002
5.375176e+002, 1.092770e+002
5.379997e+002, 1.098269e+002
5.384818e+002, 1.101468e+002
5.389639e+002, 1.098089e+002
5.394460e+002, 1.092629e+002
5.399282e+002, 1.091334e+002
5.404103e+002, 1.095158e+002
5.408924e+002, 1.099777e+002
5.413745e+002, 1.100642e+002
5.418566e+002, 1.097646e+002
5.423387e+002, 1.094531e+002
5.428209e+002, 1.089406e+002
5.433029e+002, 1.086564e+002
5.437850e+002, 1.089087e+002
5.442672e+002, 1.093261e+002
5.447493e+002, 1.094594e+002
5.452314e+002, 1.091986e+002
5.457135e+002, 1.088465e+002
5.461956e+002, 1.087508e+002
5.466777e+002, 1.088861e+002
5.471599e+002, 1.089443e+002
5.476420e+002, 1.088673e+002
5.481241e+002, 1.088025e+002
5.486062e+002, 1.088917e+002
5.490883e+002, 1.090434e+002
5.495704e+002, 1.090889e+002
5.500526e+002, 1.089166e+002
5.505347e+002, 1.088155e+002
5.510168e+002, 1.090853e+002
5.514989e+002, 1.095357e+002
5.519810e+002, 1.097353e+002
5.524631e+002, 1.095892e+002
5.529453e+002, 1.093686e+002
5.534274e+002, 1.093066e+002
5.539095e+002, 1.094047e+002
5.543916e+002, 1.096193e+002
5.548737e+002, 1.101670e+002
5.553558e+002, 1.105550e+002
5.558380e+002, 1.105507e+002
5.563201e+002, 1.103580e+002
5.568022e+002, 1.101610e+002
5.572843e+002, 1.100371e+002
5.577664e+002, 1.100837e+002
5.582485e+002, 1.104429e+002
5.587307e+002, 1.111232e+002
5.592128e+002, 1.118178e+002
5.596949e+002, 1.126191e+002
5.601770e+002, 1.132855e+002
5.606591e+002, 1.136701e+002
5.611412e+002, 1.139237e+002
5.616234e+002, 1.141830e+002
5.621055e+002, 1.144664e+002
5.625876e+002, 1.149253e+002
5.630697e+002, 1.157815e+002
5.635518e+002, 1.169255e+002
5.640339e+002, 1.178867e+002
5.645161e+002, 1.185159e+002
5.649982e+002, 1.195178e+002
5.654803e+002, 1.217417e+002
5.659624e+002, 1.247527e+002
5.664445e+002, 1.266470e+002
5.669266e+002, 1.266874e+002
5.674088e+002, 1.266717e+002
5.678909e+002, 1.269815e+002
5.683730e+002, 1.276810e+002
5.688551e+002, 1.290010e+002
5.693372e+002, 1.308985e+002
5.698193e+002, 1.328926e+002
5.703015e+002, 1.344706e+002
5.707836e+002, 1.356845e+002
5.712657e+002, 1.374176e+002
5.717478e+002, 1.398474e+002
5.722299e+002, 1.426131e+002
5.727120e+002, 1.457283e+002
5.731942e+002, 1.491027e+002
5.736763e+002, 1.526657e+002
5.741584e+002, 1.564144e+002
5.746405e+002, 1.603414e+002
5.751226e+002, 1.642777e+002
5.756047e+002, 1.683693e+002
5.760869e+002, 1.733764e+002
5.765690e+002, 1.795090e+002
5.770511e+002, 1.856467e+002
5.775332e+002, 1.911331e+002
5.780153e+002, 1.963317e+002
5.784974e+002, 2.020934e+002
5.789796e+002, 2.088487e+002
5.794617e+002, 2.142690e+002
5.799438e+002, 2.177766e+002
5.804259e+002, 2.193126e+002
5.809080e+002, 2.186295e+002
5.813901e+002, 2.158383e+002
5.818723e+002, 2.114248e+002
5.823544e+002, 2.055299e+002
5.828365e+002, 1.985406e+002
5.833186e+002, 1.917205e+002
5.838007e+002, 1.846381e+002
5.842828e+002, 1.784065e+002
5.847650e+002, 1.729509e+002
5.852471e+002, 1.683431e+002
5.857292e+002, 1.646450e+002
5.862113e+002, 1.618313e+002
5.866934e+002, 1.598235e+002
5.871755e+002, 1.585786e+002
5.876577e+002, 1.580958e+002
5.881398e+002, 1.585468e+002
5.886219e+002, 1.600670e+002
5.891040e+002, 1.616245e+002
5.895861e+002, 1.631039e+002
5.900682e+002, 1.643978e+002
5.905504e+002, 1.656028e+002
5.910325e+002, 1.666402e+002
5.915146e+002, 1.669170e+002
5.919967e+002, 1.662466e+002
5.924788e+002, 1.647482e+002
5.929609e+002, 1.624089e+002
5.934431e+002, 1.593263e+002
5.939252e+002, 1.555745e+002
5.944073e+002, 1.511342e+002
5.948894e+002, 1.466118e+002
5.953715e+002, 1.428143e+002
5.958536e+002, 1.397941e+002
5.963358e+002, 1.372905e+002
5.968179e+002, 1.349923e+002
5.973000e+002, 1.334680e+002
5.977821e+002, 1.334064e+002
5.982642e+002, 1.340618e+002
5.987463e+002, 1.343291e+002
5.992285e+002, 1.338451e+002
5.997106e+002, 1.332641e+002
6.001927e+002, 1.334021e+002
6.006748e+002, 1.342369e+002
6.011569e+002, 1.350959e+002
6.016390e+002, 1.358059e+002
6.021212e+002, 1.368402e+002
6.026033e+002, 1.384791e+002
6.030854e+002, 1.406215e+002
6.035675e+002, 1.432093e+002
6.040496e+002, 1.464229e+002
6.045317e+002, 1.495516e+002
6.050139e+002, 1.523219e+002
6.054960e+002, 1.547679e+002
6.059781e+002, 1.570420e+002
6.064602e+002, 1.591099e+002
6.069423e+002, 1.605911e+002
6.074244e+002, 1.612142e+002
6.079066e+002, 1.610154e+002
6.083887e+002, 1.601421e+002
6.088708e+002, 1.584442e+002
6.093529e+002, 1.562240e+002
6.098350e+002, 1.531258e+002
6.103171e+002, 1.498308e+002
6.107993e+002, 1.466654e+002
6.112814e+002, 1.437328e+002
6.117635e+002, 1.411180e+002
6.122456e+002, 1.388724e+002
6.127277e+002, 1.369787e+002
6.132098e+002, 1.353443e+002
6.136920e+002, 1.339424e+002
6.141741e+002, 1.330766e+002
6.146562e+002, 1.330843e+002
6.151383e+002, 1.333018e+002
6.156204e+002, 1.331819e+002
6.161025e+002, 1.327331e+002
6.165847e+002, 1.318731e+002
6.170668e+002, 1.305399e+002
6.175489e+002, 1.288395e+002
6.180310e+002, 1.267299e+002
6.185131e+002, 1.243210e+002
6.189952e+002, 1.217250e+002
6.194774e+002, 1.189922e+002
6.199595e+002, 1.163750e+002
6.204416e+002, 1.141734e+002
6.209237e+002, 1.123924e+002
6.214058e+002, 1.108301e+002
6.218879e+002, 1.096234e+002
6.223701e+002, 1.084786e+002
6.228522e+002, 1.073188e+002
6.233343e+002, 1.062053e+002
6.238164e+002, 1.051495e+002
6.242985e+002, 1.041798e+002
6.247806e+002, 1.034704e+002
6.252628e+002, 1.033566e+002
6.257448e+002, 1.035883e+002
6.262269e+002, 1.034590e+002
6.267090e+002, 1.029259e+002
6.271912e+002, 1.023555e+002
6.276733e+002, 1.018452e+002
6.281554e+002, 1.014580e+002
6.286375e+002, 1.013704e+002
6.291196e+002, 1.016508e+002
6.296017e+002, 1.018370e+002
6.300839e+002, 1.018151e+002
6.305660e+002, 1.017193e+002
6.310481e+002, 1.015967e+002
6.315302e+002, 1.014800e+002
6.320123e+002, 1.014177e+002
6.324944e+002, 1.014324e+002
6.329766e+002, 1.015109e+002
6.334587e+002, 1.016851e+002
6.339408e+002, 1.020314e+002
6.344229e+002, 1.020611e+002
6.349050e+002, 1.014697e+002
6.353871e+002, 1.009500e+002
6.358693e+002, 1.009026e+002
6.363514e+002, 1.010797e+002
6.368335e+002, 1.010747e+002
6.373156e+002, 1.007444e+002
6.377977e+002, 1.004473e+002
6.382798e+002, 1.004839e+002
6.387620e+002, 1.007165e+002
6.392441e+002, 1.009007e+002
6.397262e+002, 1.010069e+002
6.402083e+002, 1.010800e+002
6.406904e+002, 1.011485e+002
6.411725e+002, 1.012055e+002
6.416547e+002, 1.012274e+002
6.421368e+002, 1.011579e+002
6.426189e+002, 1.011358e+002
6.431010e+002, 1.012475e+002
6.435831e+002, 1.013292e+002
6.440652e+002, 1.012753e+002
6.445474e+002, 1.011028e+002
6.450295e+002, 1.008510e+002
6.455116e+002, 1.005179e+002
6.459937e+002, 1.002268e+002
6.464758e+002, 1.002643e+002
6.469579e+002, 1.006260e+002
6.474401e+002, 1.007138e+002
6.479222e+002, 1.002899e+002
6.484043e+002, 9.989942e+001
6.488864e+002, 1.000532e+002
6.493685e+002, 1.005768e+002
6.498506e+002, 1.009245e+002
6.503328e+002, 1.010457e+002
6.508149e+002, 1.010036e+002
6.512970e+002, 1.007218e+002
6.517791e+002, 1.003453e+002
6.522612e+002, 1.000171e+002
6.527433e+002, 9.977113e+001
6.532255e+002, 9.962132e+001
6.537076e+002, 9.958227e+001
6.541897e+002, 9.963755e+001
6.546718e+002, 9.973320e+001
6.551539e+002, 9.988741e+001
6.556360e+002, 1.000357e+002
6.561182e+002, 1.001921e+002
6.566003e+002, 1.003182e+002
6.570824e+002, 1.004165e+002
6.575645e+002, 1.004665e+002
6.580466e+002, 1.004010e+002
6.585287e+002, 1.001154e+002
6.590109e+002, 9.983054e+001
6.594930e+002, 9.981329e+001
6.599751e+002, 9.996187e+001
6.604572e+002, 9.994859e+001
6.609393e+002, 9.969705e+001
6.614214e+002, 9.949799e+001
6.619036e+002, 9.965151e+001
6.623857e+002, 1.001023e+002
6.628678e+002, 1.002460e+002
6.633499e+002, 9.960859e+001
6.638320e+002, 9.929507e+001
6.643141e+002, 9.979976e+001
6.647963e+002, 1.003572e+002
6.652784e+002, 1.002579e+002
6.657605e+002, 9.960435e+001
6.662426e+002, 9.904213e+001
6.667247e+002, 9.898743e+001
6.672068e+002, 9.921731e+001
6.676890e+002, 9.936235e+001
6.681711e+002, 9.942332e+001
6.686532e+002, 9.941881e+001
6.691353e+002, 9.935257e+001
6.696174e+002, 9.921645e+001
6.700995e+002, 9.892020e+001
6.705817e+002, 9.850860e+001
6.710638e+002, 9.839146e+001
6.715459e+002, 9.894473e+001
6.720280e+002, 9.933649e+001
6.725101e+002, 9.915730e+001
6.729922e+002, 9.876879e+001
6.734744e+002, 9.854501e+001
6.739565e+002, 9.853677e+001
6.744386e+002, 9.861127e+001
6.749207e+002, 9.867903e+001
6.754028e+002, 9.873481e+001
6.758849e+002, 9.876786e+001
6.763671e+002, 9.878585e+001
6.768492e+002, 9.874007e+001
6.773313e+002, 9.854729e+001
6.778134e+002, 9.837132e+001
6.782955e+002, 9.835780e+001
6.787776e+002, 9.846928e+001
6.792598e+002, 9.857411e+001
6.797419e+002, 9.864053e+001
6.802240e+002, 9.869604e+001
6.807061e+002, 9.884232e+001
6.811882e+002, 9.895572e+001
6.816703e+002, 9.872126e+001
6.821525e+002, 9.815008e+001
6.826346e+002, 9.774326e+001
6.831167e+002, 9.795017e+001
6.835988e+002, 9.861596e+001
6.840809e+002, 9.897730e+001
6.845630e+002, 9.894541e+001
6.850452e+002, 9.880219e+001
6.855273e+002, 9.839458e+001
6.860094e+002, 9.805322e+001
6.864915e+002, 9.797290e+001
6.869736e+002, 9.812009e+001
6.874557e+002, 9.839955e+001
6.879379e+002, 9.893151e+001
6.884200e+002, 9.930451e+001
6.889021e+002, 9.898441e+001
6.893842e+002, 9.825220e+001
6.898663e+002, 9.772311e+001
6.903484e+002, 9.751049e+001
6.908306e+002, 9.757774e+001
6.913127e+002, 9.795509e+001
6.917948e+002, 9.854250e+001
6.922769e+002, 9.884189e+001
6.927590e+002, 9.876409e+001
6.932411e+002, 9.852439e+001
6.937233e+002, 9.789574e+001
6.942054e+002, 9.733993e+001
6.946875e+002, 9.723623e+001
6.951696e+002, 9.743192e+001
6.956517e+002, 9.747132e+001
6.961339e+002, 9.708866e+001
6.966160e+002, 9.669241e+001
6.970981e+002, 9.681442e+001
6.975802e+002, 9.730791e+001
6.980623e+002, 9.764019e+001
6.985444e+002, 9.772088e+001
6.990266e+002, 9.779521e+001
6.995087e+002, 9.808485e+001
6.999908e+002, 9.846902e+001
7.004729e+002, 9.847945e+001
7.009550e+002, 9.772019e+001
7.014371e+002, 9.718711e+001
7.019193e+002, 9.703049e+001
7.024014e+002, 9.697439e+001
7.028835e+002, 9.682504e+001
7.033656e+002, 9.664687e+001
7.038477e+002, 9.664098e+001
7.043298e+002, 9.691215e+001
7.048120e+002, 9.721008e+001
7.052941e+002, 9.717021e+001
7.057762e+002, 9.687388e+001
7.062583e+002, 9.671413e+001
7.067404e+002, 9.673328e+001
7.072225e+002, 9.686351e+001
7.077046e+002, 9.711228e+001
7.081867e+002, 9.741257e+001
7.086688e+002, 9.758977e+001
7.091509e+002, 9.760414e+001
7.096331e+002, 9.760398e+001
7.101152e+002, 9.764544e+001
7.105973e+002, 9.762827e+001
7.110794e+002, 9.745691e+001
7.115615e+002, 9.719376e+001
7.120436e+002, 9.694506e+001
7.125258e+002, 9.674870e+001
7.130079e+002, 9.659022e+001
7.134900e+002, 9.641874e+001
7.139721e+002, 9.626042e+001
7.144542e+002, 9.627908e+001
7.149363e+002, 9.650069e+001
7.154185e+002, 9.677433e+001
7.159006e+002, 9.708299e+001
7.163827e+002, 9.735203e+001
7.168648e+002, 9.742467e+001
7.173469e+002, 9.726250e+001
7.178290e+002, 9.716117e+001
7.183112e+002, 9.729321e+001
7.187933e+002, 9.733347e+001
7.192754e+002, 9.693225e+001
7.197575e+002, 9.641578e+001
7.202396e+002, 9.637007e+001
7.207217e+002, 9.688268e+001
7.212039e+002, 9.733273e+001
7.216860e+002, 9.702465e+001
7.221681e+002, 9.618208e+001
7.226502e+002, 9.566183e+001
7.231323e+002, 9.547000e+001
7.236144e+002, 9.556443e+001
7.240966e+002, 9.609411e+001
7.245787e+002, 9.666390e+001
7.250608e+002, 9.676626e+001
7.255429e+002, 9.641234e+001
7.260250e+002, 9.613818e+001
7.265071e+002, 9.606864e+001
7.269893e+002, 9.596727e+001
7.274714e+002, 9.557662e+001
7.279535e+002, 9.521089e+001
7.284356e+002, 9.534318e+001
7.289177e+002, 9.593215e+001
7.293998e+002, 9.644669e+001
7.298820e+002, 9.648070e+001
7.303641e+002, 9.621916e+001
7.308462e+002, 9.607699e+001
7.313283e+002, 9.605857e+001
7.318104e+002, 9.602759e+001
7.322925e+002, 9.594546e+001
7.327747e+002, 9.587080e+001
7.332568e+002, 9.582511e+001
7.337389e+002, 9.582624e+001
7.342210e+002, 9.595156e+001
7.347031e+002, 9.636989e+001
7.351852e+002, 9.664796e+001
7.356674e+002, 9.669834e+001
7.361495e+002, 9.657475e+001
7.366316e+002, 9.620144e+001
7.371137e+002, 9.569758e+001
7.375958e+002, 9.533322e+001
7.380779e+002, 9.523972e+001
7.385601e+002, 9.533849e+001
7.390422e+002, 9.562871e+001
7.395243e+002, 9.606246e+001
7.400064e+002, 9.609728e+001
7.404885e+002, 9.558562e+001
7.409706e+002, 9.516063e+001
7.414528e+002, 9.519952e+001
7.419349e+002, 9.553270e+001
7.424170e+002, 9.585104e+001
7.428991e+002, 9.628865e+001
7.433812e+002, 9.627363e+001
7.438633e+002, 9.518136e+001
7.443455e+002, 9.422845e+001
7.448276e+002, 9.417696e+001
7.453097e+002, 9.464202e+001
7.457918e+002, 9.499770e+001
7.462739e+002, 9.506562e+001
7.467560e+002, 9.508615e+001
7.472382e+002, 9.530515e+001
7.477203e+002, 9.565430e+001
7.482024e+002, 9.594582e+001
7.486845e+002, 9.618134e+001
7.491666e+002, 9.629972e+001
7.496487e+002, 9.626760e+001
7.501309e+002, 9.613889e+001
7.506130e+002, 9.594376e+001
7.510951e+002, 9.567347e+001
7.515772e+002, 9.553186e+001
7.520593e+002, 9.562077e+001
7.525414e+002, 9.569270e+001
7.530236e+002, 9.568751e+001
7.535057e+002, 9.564474e+001
7.539878e+002, 9.556084e+001
7.544699e+002, 9.546879e+001
7.549520e+002, 9.547330e+001
7.554341e+002, 9.567061e+001
7.559163e+002, 9.591251e+001
7.563984e+002, 9.601558e+001
7.568805e+002, 9.598589e+001
7.573626e+002, 9.580268e+001
7.578447e+002, 9.544918e+001
7.583268e+002, 9.516353e+001
7.588090e+002, 9.514100e+001
7.592911e+002, 9.528800e+001
7.597732e+002, 9.528223e+001
7.602553e+002, 9.494794e+001
7.607374e+002, 9.478692e+001
7.612195e+002, 9.484974e+001
7.617017e+002, 9.502279e+001
7.621838e+002, 9.541901e+001
7.626659e+002, 9.583177e+001
7.631480e+002, 9.591021e+001
7.636301e+002, 9.554697e+001
7.641122e+002, 9.512070e+001
7.645944e+002, 9.488875e+001
7.650765e+002, 9.478236e+001
7.655586e+002, 9.470817e+001
7.660407e+002, 9.465903e+001
7.665228e+002, 9.463223e+001
7.670049e+002, 9.462629e+001
7.674871e+002, 9.463044e+001
7.679692e+002, 9.460962e+001
7.684513e+002, 9.455375e+001
7.689334e+002, 9.473910e+001
7.694155e+002, 9.549427e+001
7.698976e+002, 9.594814e+001
7.703798e+002, 9.572488e+001
7.708619e+002, 9.528904e+001
7.713440e+002, 9.486167e+001
7.718261e+002, 9.451843e+001
7.723082e+002, 9.449848e+001
7.727903e+002, 9.517763e+001
7.732725e+002, 9.581100e+001
7.737546e+002, 9.584672e+001
7.742367e+002, 9.551482e+001
7.747188e+002, 9.505157e+001
7.752009e+002, 9.456273e+001
7.756830e+002, 9.430836e+001
7.761652e+002, 9.447999e+001
7.766473e+002, 9.489562e+001
7.771294e+002, 9.513724e+001
7.776115e+002, 9.519333e+001
7.780936e+002, 9.515292e+001
7.785757e+002, 9.498854e+001
7.790579e+002, 9.478466e+001
7.795400e+002, 9.445644e+001
7.800221e+002, 9.417636e+001
7.805042e+002, 9.429581e+001
7.809863e+002, 9.494019e+001
7.814684e+002, 9.540681e+001
7.819506e+002, 9.543136e+001
7.824327e+002, 9.532151e+001
7.829148e+002, 9.520211e+001
7.833969e+002, 9.511135e+001
7.838790e+002, 9.515543e+001
7.843611e+002, 9.532506e+001
7.848433e+002, 9.534629e+001
7.853254e+002, 9.481269e+001
7.858075e+002, 9.403344e+001
7.862896e+002, 9.411075e+001
7.867717e+002, 9.506171e+001
7.872538e+002, 9.560658e+001
7.877360e+002, 9.533569e+001
7.882181e+002, 9.485757e+001
7.887002e+002, 9.471431e+001
7.891823e+002, 9.486414e+001
7.896644e+002, 9.495694e+001
7.901465e+002, 9.497757e+001
7.906286e+002, 9.496664e+001
7.911107e+002, 9.486970e+001
7.915928e+002, 9.479549e+001
7.920750e+002, 9.486227e+001
7.925571e+002, 9.499748e+001
7.930392e+002, 9.500632e+001
7.935213e+002, 9.479563e+001
7.940034e+002, 9.465836e+001
7.944855e+002, 9.494602e+001
7.949677e+002, 9.544314e+001
7.954498e+002, 9.577892e+001
7.959319e+002, 9.593379e+001
7.964140e+002, 9.592748e+001
7.968961e+002, 9.576038e+001
7.973782e+002, 9.552149e+001
7.978604e+002, 9.533633e+001
7.983425e+002, 9.520787e+001
7.988246e+002, 9.500858e+001
7.993067e+002, 9.460910e+001
7.997888e+002, 9.437025e+001
8.002709e+002, 9.447997e+001
8.007531e+002, 9.470692e+001
8.012352e+002, 9.494958e+001
8.017173e+002, 9.517506e+001
8.021994e+002, 9.525810e+001
8.026815e+002, 9.505188e+001
8.031636e+002, 9.486423e+001
8.036458e+002, 9.488793e+001
8.041279e+002, 9.499804e+001
8.046100e+002, 9.506595e+001
8.050921e+002, 9.507610e+001
8.055742e+002, 9.504151e+001
8.060563e+002, 9.496648e+001
8.065385e+002, 9.489030e+001
8.070206e+002, 9.489014e+001
8.075027e+002, 9.495834e+001
8.079848e+002, 9.496458e+001
8.084669e+002, 9.487911e+001
8.089490e+002, 9.487760e+001
8.094312e+002, 9.510744e+001
8.099133e+002, 9.536355e+001
8.103954e+002, 9.528535e+001
8.108775e+002, 9.477830e+001
8.113596e+002, 9.457595e+001
8.118417e+002, 9.506208e+001
8.123239e+002, 9.536129e+001
8.128060e+002, 9.505972e+001
8.132881e+002, 9.459220e+001
8.137702e+002, 9.434740e+001
8.142523e+002, 9.434534e+001
8.147344e+002, 9.442689e+001
8.152166e+002, 9.453836e+001
8.156987e+002, 9.464836e+001
8.161808e+002, 9.474532e+001
8.166629e+002, 9.480928e+001
8.171450e+002, 9.474254e+001
8.176271e+002, 9.456156e+001
8.181093e+002, 9.451872e+001
8.185914e+002, 9.477982e+001
8.190735e+002, 9.512749e+001
8.195556e+002, 9.509789e+001
8.200377e+002, 9.459398e+001
8.205198e+002, 9.431893e+001
8.210020e+002, 9.431278e+001
8.214841e+002, 9.446080e+001
8.219662e+002, 9.493774e+001
8.224483e+002, 9.539334e+001
8.229304e+002, 9.538356e+001
8.234125e+002, 9.492252e+001
8.238947e+002, 9.452592e+001
8.243768e+002, 9.429680e+001
8.248589e+002, 9.415248e+001
8.253410e+002, 9.404265e+001
8.258231e+002, 9.400845e+001
8.263052e+002, 9.415409e+001
8.267874e+002, 9.443119e+001
8.272695e+002, 9.465237e+001
8.277516e+002, 9.471230e+001
8.282337e+002, 9.467847e+001
8.287158e+002, 9.461608e+001
8.291979e+002, 9.453960e+001
8.296801e+002, 9.447649e+001
8.301622e+002, 9.442826e+001
8.306443e+002, 9.458811e+001
8.311264e+002, 9.512259e+001
8.316085e+002, 9.570303e+001
8.320906e+002, 9.576659e+001
8.325728e+002, 9.523136e+001
8.330549e+002, 9.475841e+001
8.335370e+002, 9.410249e+001
8.340191e+002, 9.388061e+001
8.345012e+002, 9.460892e+001
8.349833e+002, 9.549471e+001
8.354655e+002, 9.593285e+001
8.359476e+002, 9.593542e+001
8.364297e+002, 9.576649e+001
8.369118e+002, 9.528230e+001
8.373939e+002, 9.499869e+001
8.378760e+002, 9.531647e+001
8.383582e+002, 9.590654e+001
8.388403e+002, 9.647549e+001
8.393224e+002, 9.695293e+001
8.398045e+002, 9.724365e+001
8.402866e+002, 9.730050e+001
8.407687e+002, 9.735723e+001
8.412509e+002, 9.778774e+001
8.417330e+002, 9.851488e+001
8.422151e+002, 9.907378e+001
8.426972e+002, 9.944364e+001
8.431793e+002, 9.980843e+001
8.436614e+002, 1.002075e+002
8.441436e+002, 1.006916e+002
8.446257e+002, 1.013396e+002
8.451078e+002, 1.021465e+002
8.455899e+002, 1.028703e+002
8.460720e+002, 1.034565e+002
8.465541e+002, 1.040302e+002
8.470363e+002, 1.045145e+002
8.475184e+002, 1.050726e+002
8.480005e+002, 1.058592e+002
8.484826e+002, 1.067913e+002
8.489647e+002, 1.076777e+002
8.494468e+002, 1.084613e+002
8.499290e+002, 1.092353e+002
8.504111e+002, 1.099757e+002
8.508932e+002, 1.107959e+002
8.513753e+002, 1.118732e+002
8.518574e+002, 1.131211e+002
8.523395e+002, 1.144143e+002
8.528217e+002, 1.156718e+002
8.533038e+002, 1.166886e+002
8.537859e+002, 1.172520e+002
8.542680e+002, 1.174112e+002
8.547501e+002, 1.172445e+002
8.552322e+002, 1.167526e+002
8.557144e+002, 1.162511e+002
8.561965e+002, 1.158070e+002
8.566786e+002, 1.153624e+002
8.571607e+002, 1.149204e+002
8.576428e+002, 1.144149e+002
8.581249e+002, 1.136110e+002
8.586071e+002, 1.123032e+002
8.590892e+002, 1.111452e+002
8.595713e+002, 1.102423e+002
8.600534e+002, 1.093608e+002
8.605355e+002, 1.083283e+002
8.610176e+002, 1.073189e+002
8.614998e+002, 1.065620e+002
8.619819e+002, 1.060731e+002
8.624640e+002, 1.056437e+002
8.629461e+002, 1.052516e+002
8.634282e+002, 1.048180e+002
8.639103e+002, 1.042326e+002
8.643925e+002, 1.036035e+002
8.648746e+002, 1.030875e+002
8.653567e+002, 1.026908e+002
8.658388e+002, 1.023477e+002
8.663209e+002, 1.020227e+002
8.668030e+002, 1.017055e+002
8.672852e+002, 1.013528e+002
8.677673e+002, 1.009899e+002
8.682494e+002, 1.007656e+002
8.687315e+002, 1.006927e+002
8.692136e+002, 1.006484e+002
8.696957e+002, 1.005992e+002
8.701779e+002, 1.004956e+002
8.706600e+002, 1.002689e+002
8.711421e+002, 9.991788e+001
8.716242e+002, 9.952805e+001
8.721063e+002, 9.903365e+001
8.725884e+002, 9.861576e+001
8.730705e+002, 9.830163e+001
8.735526e+002, 9.807908e+001
8.740347e+002, 9.797335e+001
8.745168e+002, 9.795163e+001
8.749990e+002, 9.795019e+001
8.754811e+002, 9.799960e+001
8.759632e+002, 9.794313e+001
8.764453e+002, 9.768409e+001
8.769274e+002, 9.734077e+001
8.774095e+002, 9.684769e+001
8.778917e+002, 9.639146e+001
8.783738e+002, 9.633449e+001
8.788559e+002, 9.671114e+001
8.793380e+002, 9.712009e+001
8.798201e+002, 9.730630e+001
8.803022e+002, 9.727715e+001
8.807844e+002, 9.695210e+001
8.812665e+002, 9.641805e+001
8.817486e+002, 9.605617e+001
8.822307e+002, 9.590897e+001
8.827128e+002, 9.557413e+001
8.831949e+002, 9.476507e+001
8.836771e+002, 9.375912e+001
8.841592e+002, 9.315511e+001
8.846413e+002, 9.300794e+001
8.851234e+002, 9.283572e+001
8.856055e+002, 9.261358e+001
8.860876e+002, 9.243197e+001
8.865698e+002, 9.238158e+001
8.870519e+002, 9.232248e+001
8.875340e+002, 9.208553e+001
8.880161e+002, 9.168005e+001
8.884982e+002, 9.125256e+001
8.889803e+002, 9.080798e+001
8.894625e+002, 9.034097e+001
8.899446e+002, 8.967961e+001
8.904267e+002, 8.915425e+001
8.909088e+002, 8.909927e+001
8.913909e+002, 8.932482e+001
8.918730e+002, 8.945428e+001
8.923552e+002, 8.938493e+001
8.928373e+002, 8.923154e+001
8.933194e+002, 8.902181e+001
8.938015e+002, 8.880346e+001
8.942836e+002, 8.867236e+001
8.947657e+002, 8.856113e+001
8.952479e+002, 8.828790e+001
8.957300e+002, 8.784580e+001
8.962121e+002, 8.743932e+001
8.966942e+002, 8.722180e+001
8.971763e+002, 8.713421e+001
8.976584e+002, 8.707000e+001
8.981406e+002, 8.702968e+001
8.986227e+002, 8.703748e+001
8.991048e+002, 8.710303e+001
8.995869e+002, 8.712312e+001
9.000690e+002, 8.705531e+001
9.005511e+002, 8.689323e+001
9.010333e+002, 8.660342e+001
9.015154e+002, 8.617405e+001
9.019975e+002, 8.587741e+001
9.024796e+002, 8.570370e+001
9.029617e+002, 8.568307e+001
9.034438e+002, 8.598665e+001
9.039260e+002, 8.628451e+001
9.044081e+002, 8.632349e+001
9.048902e+002, 8.618864e+001
9.053723e+002, 8.609446e+001
9.058544e+002, 8.606443e+001
9.063365e+002, 8.607359e+001
9.068187e+002, 8.622254e+001
9.073008e+002, 8.629617e+001
9.077829e+002, 8.605927e+001
9.082650e+002, 8.572163e+001
9.087471e+002, 8.559506e+001
9.092292e+002, 8.570628e+001
9.097114e+002, 8.581847e+001
9.101935e+002, 8.577026e+001
9.106756e+002, 8.569911e+001
9.111577e+002, 8.582014e+001
9.116398e+002, 8.598734e+001
9.121219e+002, 8.588157e+001
9.126041e+002, 8.553091e+001
9.130862e+002, 8.519755e+001
9.135683e+002, 8.500576e+001
9.140504e+002, 8.496548e+001
9.145325e+002, 8.516470e+001
9.150146e+002, 8.553294e+001
9.154968e+002, 8.561995e+001
9.159789e+002, 8.541406e+001
9.164610e+002, 8.529164e+001
9.169431e+002, 8.535190e+001
9.174252e+002, 8.550716e+001
9.179073e+002, 8.572728e+001
9.183895e+002, 8.594919e+001
9.188716e+002, 8.591254e+001
9.193537e+002, 8.539401e+001
9.198358e+002, 8.519436e+001
9.203179e+002, 8.553559e+001
9.208000e+002, 8.587813e+001
9.212822e+002, 8.605938e+001
9.217643e+002, 8.610191e+001
9.222464e+002, 8.596484e+001
9.227285e+002, 8.566148e+001
9.232106e+002, 8.547401e+001
9.236927e+002, 8.540160e+001
9.241749e+002, 8.550185e+001
9.246570e+002, 8.603902e+001
9.251391e+002, 8.653442e+001
9.256212e+002, 8.652023e+001
9.261033e+002, 8.619089e+001
9.265854e+002, 8.598624e+001
9.270676e+002, 8.603596e+001
9.275497e+002, 8.618813e+001
9.280318e+002, 8.640468e+001
9.285139e+002, 8.662125e+001
9.289960e+002, 8.677866e+001
9.294781e+002, 8.688702e+001
9.299603e+002, 8.694766e+001
9.304424e+002, 8.697813e+001
9.309245e+002, 8.703358e+001
9.314066e+002, 8.714153e+001
9.318887e+002, 8.733451e+001
9.323708e+002, 8.770908e+001
9.328530e+002, 8.821416e+001
9.333351e+002, 8.862314e+001
9.338172e+002, 8.892994e+001
9.342993e+002, 8.927966e+001
9.347814e+002, 8.972724e+001
9.352635e+002, 9.017365e+001
9.357457e+002, 9.047409e+001
9.362278e+002, 9.069997e+001
9.367099e+002, 9.132687e+001
9.371920e+002, 9.248554e+001
9.376741e+002, 9.340290e+001
9.381563e+002, 9.368058e+001
9.386384e+002, 9.446326e+001
9.391205e+002, 9.687363e+001
9.396026e+002, 9.978343e+001
9.400847e+002, 1.010275e+002
9.405668e+002, 1.001774e+002
9.410490e+002, 1.001863e+002
9.415311e+002, 1.013606e+002
9.420132e+002, 1.029386e+002
9.424953e+002, 1.050267e+002
9.429774e+002, 1.072478e+002
9.434595e+002, 1.091144e+002
9.439417e+002, 1.109249e+002
9.444238e+002, 1.134388e+002
9.449059e+002, 1.168653e+002
9.453880e+002, 1.207755e+002
9.458701e+002, 1.247944e+002
9.463522e+002, 1.295067e+002
9.468344e+002, 1.350656e+002
9.473165e+002, 1.416416e+002
9.477986e+002, 1.494113e+002
9.482807e+002, 1.583784e+002
9.487628e+002, 1.685459e+002
9.492449e+002, 1.800068e+002
9.497271e+002, 1.924468e+002
9.502092e+002, 2.058510e+002
9.506913e+002, 2.199435e+002
9.511734e+002, 2.345385e+002
9.516555e+002, 2.495113e+002
9.521376e+002, 2.644008e+002
9.526198e+002, 2.791555e+002
9.531019e+002, 2.948110e+002
9.535840e+002, 3.121100e+002
9.540661e+002, 3.314902e+002
9.545482e+002, 3.535314e+002
9.550303e+002, 3.785165e+002
9.555124e+002, 4.080919e+002
9.559945e+002, 4.426762e+002
9.564766e+002, 4.821742e+002
9.569587e+002, 5.265468e+002
9.574409e+002, 5.767430e+002
9.579230e+002, 6.337924e+002
9.584051e+002, 6.980977e+002
9.588872e+002, 7.693262e+002
9.593693e+002, 8.485259e+002
9.598514e+002, 9.322004e+002
9.603336e+002, 1.022014e+003
9.608157e+002, 1.111212e+003
9.612978e+002, 1.199045e+003
9.617799e+002, 1.278983e+003
9.622620e+002, 1.333524e+003
9.627441e+002, 1.364684e+003
9.632263e+002, 1.364147e+003
9.637084e+002, 1.325377e+003
9.641905e+002, 1.263196e+003
9.646726e+002, 1.171545e+003
9.651547e+002, 1.067296e+003
9.656368e+002, 9.589834e+002
9.661190e+002, 8.494435e+002
9.666011e+002, 7.491867e+002
9.670832e+002, 6.589731e+002
9.675653e+002, 5.784770e+002
9.680474e+002, 5.082470e+002
9.685295e+002, 4.469435e+002
9.690117e+002, 3.953843e+002
9.694938e+002, 3.516195e+002
9.699759e+002, 3.145873e+002
9.704580e+002, 2.834978e+002
9.709401e+002, 2.559328e+002
9.714222e+002, 2.311569e+002
9.719044e+002, 2.093110e+002
9.723865e+002, 1.909539e+002
9.728686e+002, 1.751927e+002
9.733507e+002, 1.614541e+002
9.738328e+002, 1.495347e+002
9.743149e+002, 1.393488e+002
9.747971e+002, 1.308324e+002
9.752792e+002, 1.235550e+002
9.757613e+002, 1.173485e+002
9.762434e+002, 1.120802e+002
9.767255e+002, 1.076927e+002
9.772076e+002, 1.040744e+002
9.776898e+002, 1.009960e+002
9.781719e+002, 9.839205e+001
9.786540e+002, 9.630357e+001
9.791361e+002, 9.473418e+001
9.796182e+002, 9.339767e+001
9.801003e+002, 9.195010e+001
9.805825e+002, 9.043645e+001
9.810646e+002, 8.897250e+001
9.815467e+002, 8.759245e+001
9.820288e+002, 8.659974e+001
9.825109e+002, 8.605777e+001
9.829930e+002, 8.568188e+001
9.834752e+002, 8.530737e+001
9.839573e+002, 8.490853e+001
9.844394e+002, 8.442302e+001
9.849215e+002, 8.385091e+001
9.854036e+002, 8.331589e+001
9.858857e+002, 8.281433e+001
9.863679e+002, 8.237400e+001
9.868500e+002, 8.199889e+001
9.873321e+002, 8.170157e+001
9.878142e+002, 8.152676e+001
9.882963e+002, 8.140533e+001
9.887784e+002, 8.110835e+001
9.892606e+002, 8.057221e+001
9.897427e+002, 8.007681e+001
9.902248e+002, 7.954890e+001
9.907069e+002, 7.921346e+001
9.911890e+002, 7.928651e+001
9.916711e+002, 7.941558e+001
9.921533e+002, 7.920727e+001
9.926354e+002, 7.874116e+001
9.931175e+002, 7.850025e+001
9.935996e+002, 7.871496e+001
9.940817e+002, 7.874071e+001
9.945638e+002, 7.846426e+001
9.950460e+002, 7.812222e+001
9.955281e+002, 7.764114e+001
9.960102e+002, 7.725439e+001
9.964923e+002, 7.733351e+001
9.969744e+002, 7.779885e+001
9.974565e+002, 7.799314e+001
9.979387e+002, 7.758849e+001
9.984208e+002, 7.724641e+001
9.989029e+002, 7.707046e+001
9.993850e+002, 7.707217e+001
9.998671e+002, 7.750594e+001
1.000349e+003, 7.799337e+001
1.000831e+003, 7.788541e+001
1.001313e+003, 7.718325e+001
1.001796e+003, 7.671338e+001
1.002278e+003, 7.696581e+001
1.002760e+003, 7.730144e+001
1.003242e+003, 7.736583e+001
1.003724e+003, 7.736081e+001
1.004206e+003, 7.759093e+001
1.004688e+003, 7.786193e+001
1.005170e+003, 7.766911e+001
1.005653e+003, 7.695299e+001
1.006135e+003, 7.639553e+001
1.006617e+003, 7.652885e+001
1.007099e+003, 7.685923e+001
1.007581e+003, 7.692783e+001
1.008063e+003, 7.689915e+001
1.008545e+003, 7.704688e+001
1.009027e+003, 7.731100e+001
1.009509e+003, 7.744743e+001
1.009992e+003, 7.737374e+001
1.010474e+003, 7.720802e+001
1.010956e+003, 7.698441e+001
1.011438e+003, 7.680627e+001
1.011920e+003, 7.686977e+001
1.012402e+003, 7.709028e+001
1.012884e+003, 7.721502e+001
1.013366e+003, 7.727522e+001
1.013849e+003, 7.758125e+001
1.014331e+003, 7.826575e+001
1.014813e+003, 7.908105e+001
1.015295e+003, 7.981797e+001
1.015777e+003, 8.042728e+001
1.016259e+003, 8.065715e+001
1.016741e+003, 8.062815e+001
1.017223e+003, 8.094335e+001
1.017705e+003, 8.166502e+001
1.018188e+003, 8.241715e+001
1.018670e+003, 8.300462e+001
1.019152e+003, 8.355955e+001
1.019634e+003, 8.422634e+001
1.020116e+003, 8.502829e+001
1.020598e+003, 8.614558e+001
1.021080e+003, 8.756250e+001
1.021562e+003, 8.895766e+001
1.022044e+003, 9.027417e+001
1.022527e+003, 9.159351e+001
1.023009e+003, 9.292764e+001
1.023491e+003, 9.447079e+001
1.023973e+003, 9.660414e+001
1.024455e+003, 9.928853e+001
1.024937e+003, 1.017550e+002
1.025419e+003, 1.039401e+002
1.025901e+003, 1.063714e+002
1.026384e+003, 1.091700e+002
1.026866e+003, 1.122114e+002
1.027348e+003, 1.155315e+002
1.027830e+003, 1.188284e+002
1.028312e+003, 1.215872e+002
1.028794e+003, 1.238427e+002
1.029276e+003, 1.250937e+002
1.029758e+003, 1.251669e+002
1.030240e+003, 1.248854e+002
1.030723e+003, 1.245080e+002
1.031205e+003, 1.235208e+002
1.031687e+003, 1.214006e+002
1.032169e+003, 1.186438e+002
1.032651e+003, 1.162158e+002
1.033133e+003, 1.141271e+002
1.033615e+003, 1.123029e+002
1.034097e+003, 1.107482e+002
1.034579e+003, 1.094417e+002
1.035062e+003, 1.083895e+002
1.035544e+003, 1.075621e+002
1.036026e+003, 1.069055e+002
1.036508e+003, 1.064885e+002
1.036990e+003, 1.064555e+002
1.037472e+003, 1.068098e+002
1.037954e+003, 1.075327e+002
1.038436e+003, 1.089151e+002
1.038919e+003, 1.101928e+002
1.039401e+003, 1.112648e+002
1.039883e+003, 1.121578e+002
1.040365e+003, 1.128776e+002
1.040847e+003, 1.134333e+002
1.041329e+003, 1.138862e+002
1.041811e+003, 1.143089e+002
1.042293e+003, 1.142616e+002
1.042776e+003, 1.133377e+002
1.043258e+003, 1.125062e+002
1.043740e+003, 1.119732e+002
1.044222e+003, 1.115581e+002
1.044704e+003, 1.112122e+002
1.045186e+003, 1.108810e+002
1.045668e+003, 1.103960e+002
1.046150e+003, 1.096712e+002
1.046632e+003, 1.093545e+002
1.047115e+003, 1.098098e+002
1.047597e+003, 1.102721e+002
1.048079e+003, 1.105002e+002
1.048561e+003, 1.107280e+002
1.049043e+003, 1.111605e+002
1.049525e+003, 1.116946e+002
1.050007e+003, 1.121797e+002
1.050489e+003, 1.126137e+002
1.050971e+003, 1.127771e+002
1.051454e+003, 1.123222e+002
1.051936e+003, 1.120063e+002
1.052418e+003, 1.121132e+002
1.052900e+003, 1.123793e+002
1.053382e+003, 1.125312e+002
1.053864e+003, 1.127325e+002
1.054346e+003, 1.134235e+002
1.054828e+003, 1.146864e+002
1.055311e+003, 1.155735e+002
1.055793e+003, 1.158108e+002
1.056275e+003, 1.156678e+002
1.056757e+003, 1.153831e+002
1.057239e+003, 1.146110e+002
1.057721e+003, 1.128185e+002
1.058203e+003, 1.104720e+002
1.058685e+003, 1.083776e+002
1.059167e+003, 1.066561e+002
1.059650e+003, 1.048134e+002
1.060132e+003, 1.026062e+002
1.060614e+003, 1.003606e+002
1.061096e+003, 9.813213e+001
1.061578e+003, 9.596651e+001
1.062060e+003, 9.383449e+001
1.062542e+003, 9.180165e+001
1.063024e+003, 8.989336e+001
1.063506e+003, 8.814553e+001
1.063989e+003, 8.688924e+001
1.064471e+003, 8.659065e+001
1.064953e+003, 8.630305e+001
1.065435e+003, 8.550350e+001
1.065917e+003, 8.469881e+001
1.066399e+003, 8.434616e+001
1.066881e+003, 8.421560e+001
1.067363e+003, 8.388827e+001
1.067846e+003, 8.333491e+001
1.068328e+003, 8.290504e+001
1.068810e+003, 8.279540e+001
1.069292e+003, 8.271642e+001
1.069774e+003, 8.232292e+001
1.070256e+003, 8.213177e+001
1.070738e+003, 8.270055e+001
1.071220e+003, 8.362340e+001
1.071703e+003, 8.437208e+001
1.072185e+003, 8.485661e+001
1.072667e+003, 8.512069e+001
1.073149e+003, 8.486173e+001
1.073631e+003, 8.511727e+001
1.074113e+003, 8.681046e+001
1.074595e+003, 8.873348e+001
1.075077e+003, 9.012154e+001
1.075559e+003, 9.113407e+001
1.076042e+003, 9.213327e+001
1.076524e+003, 9.306630e+001
1.077006e+003, 9.352475e+001
1.077488e+003, 9.338307e+001
1.077970e+003, 9.272229e+001
1.078452e+003, 9.122475e+001
1.078934e+003, 8.960689e+001
1.079416e+003, 8.848640e+001
1.079898e+003, 8.742261e+001
1.080380e+003, 8.566003e+001
1.080863e+003, 8.342101e+001
1.081345e+003, 8.169646e+001
1.081827e+003, 8.088819e+001
1.082309e+003, 8.013361e+001
1.082791e+003, 7.884364e+001
1.083273e+003, 7.771697e+001
1.083755e+003, 7.739364e+001
1.084237e+003, 7.729482e+001
1.084720e+003, 7.679700e+001
1.085202e+003, 7.596468e+001
1.085684e+003, 7.508043e+001
1.086166e+003, 7.418111e+001
1.086648e+003, 7.362833e+001
1.087130e+003, 7.382433e+001
1.087612e+003, 7.409499e+001
1.088094e+003, 7.418034e+001
1.088577e+003, 7.410111e+001
1.089059e+003, 7.377184e+001
1.089541e+003, 7.333815e+001
1.090023e+003, 7.311611e+001
1.090505e+003, 7.317001e+001
1.090987e+003, 7.315211e+001
1.091469e+003, 7.285852e+001
1.091951e+003, 7.256577e+001
1.092433e+003, 7.238069e+001
1.092916e+003, 7.225417e+001
1.093398e+003, 7.214426e+001
1.093880e+003, 7.206867e+001
1.094362e+003, 7.210207e+001
1.094844e+003, 7.223766e+001
1.095326e+003, 7.226344e+001
1.095808e+003, 7.204319e+001
1.096290e+003, 7.180679e+001
1.096772e+003, 7.148495e+001
1.097255e+003, 7.132555e+001
1.097737e+003, 7.167271e+001
1.098219e+003, 7.216222e+001
1.098701e+003, 7.226851e+001
1.099183e+003, 7.200359e+001
1.099665e+003, 7.182113e+001
1.100147e+003, 7.184526e+001
1.100629e+003, 7.191411e+001
1.101112e+003, 7.206346e+001
1.101594e+003, 7.215549e+001
1.102076e+003, 7.212635e+001
1.102558e+003, 7.200249e+001
1.103040e+003, 7.174562e+001
1.103522e+003, 7.141929e+001
1.104004e+003, 7.125341e+001
1.104486e+003, 7.135050e+001
1.104969e+003, 7.138345e+001
1.105451e+003, 7.122512e+001
1.105933e+003, 7.108468e+001
1.106415e+003, 7.096530e+001
1.106897e+003, 7.095491e+001
1.107379e+003, 7.120364e+001
1.107861e+003, 7.159707e+001
1.108343e+003, 7.187272e+001
1.108825e+003, 7.201493e+001
1.109307e+003, 7.202162e+001
1.109790e+003, 7.182255e+001
1.110272e+003, 7.158726e+001
1.110754e+003, 7.117602e+001
1.111236e+003, 7.092168e+001
1.111718e+003, 7.122292e+001
1.112200e+003, 7.171507e+001
1.112682e+003, 7.174049e+001
1.113164e+003, 7.126096e+001
1.113647e+003, 7.099879e+001
1.114129e+003, 7.104382e+001
1.114611e+003, 7.116337e+001
1.115093e+003, 7.146795e+001
1.115575e+003, 7.167004e+001
1.116057e+003, 7.152919e+001
1.116539e+003, 7.133813e+001
1.117021e+003, 7.149334e+001
1.117504e+003, 7.192326e+001
1.117986e+003, 7.208980e+001
1.118468e+003, 7.187453e+001
1.118950e+003, 7.164878e+001
1.119432e+003, 7.121150e+001
1.119914e+003, 7.122485e+001
1.120396e+003, 7.225174e+001
1.120878e+003, 7.320690e+001
1.121360e+003, 7.308872e+001
1.121843e+003, 7.223740e+001
1.122325e+003, 7.162463e+001
1.122807e+003, 7.124468e+001
1.123289e+003, 7.118657e+001
1.123771e+003, 7.159502e+001
1.124253e+003, 7.179971e+001
1.124735e+003, 7.156340e+001
1.125217e+003, 7.140859e+001
1.125699e+003, 7.171903e+001
1.126182e+003, 7.219335e+001
1.126664e+003, 7.229832e+001
1.127146e+003, 7.205748e+001
1.127628e+003, 7.189913e+001
1.128110e+003, 7.183029e+001
1.128592e+003, 7.177744e+001
1.129074e+003, 7.172420e+001
1.129556e+003, 7.173811e+001
1.130039e+003, 7.184748e+001
1.130521e+003, 7.205880e+001
1.131003e+003, 7.240904e+001
1.131485e+003, 7.282198e+001
1.131967e+003, 7.304797e+001
1.132449e+003, 7.308627e+001
1.132931e+003, 7.283510e+001
1.133413e+003, 7.230256e+001
1.133896e+003, 7.205172e+001
1.134378e+003, 7.225369e+001
1.134860e+003, 7.245529e+001
1.135342e+003, 7.229249e+001
1.135824e+003, 7.198602e+001
1.136306e+003, 7.196027e+001
1.136788e+003, 7.213090e+001
1.137270e+003, 7.214856e+001
1.137752e+003, 7.205196e+001
1.138234e+003, 7.203963e+001
1.138717e+003, 7.215128e+001
1.139199e+003, 7.241386e+001
1.139681e+003, 7.284361e+001
1.140163e+003, 7.315795e+001
1.140645e+003, 7.296848e+001
1.141127e+003, 7.252393e+001
1.141609e+003, 7.224536e+001
1.142091e+003, 7.208213e+001
1.142574e+003, 7.190282e+001
1.143056e+003, 7.173180e+001
1.143538e+003, 7.171542e+001
1.144020e+003, 7.188447e+001
1.144502e+003, 7.208672e+001
1.144984e+003, 7.222199e+001
1.145466e+003, 7.232957e+001
1.145948e+003, 7.246939e+001
1.146431e+003, 7.259041e+001
1.146913e+003, 7.261877e+001
1.147395e+003, 7.258293e+001
1.147877e+003, 7.252018e+001
1.148359e+003, 7.245315e+001
1.148841e+003, 7.242430e+001
1.149323e+003, 7.245123e+001
1.149805e+003, 7.251808e+001
1.150287e+003, 7.269302e+001
1.150770e+003, 7.281527e+001
1.151252e+003, 7.266035e+001
1.151734e+003, 7.247921e+001
1.152216e+003, 7.260570e+001
1.152698e+003, 7.291763e+001
1.153180e+003, 7.305496e+001
1.153662e+003, 7.294389e+001
1.154144e+003, 7.292849e+001
1.154626e+003, 7.327297e+001
1.155109e+003, 7.352042e+001
1.155591e+003, 7.345000e+001
1.156073e+003, 7.331509e+001
1.156555e+003, 7.329887e+001
1.157037e+003, 7.329505e+001
1.157519e+003, 7.307909e+001
1.158001e+003, 7.270326e+001
1.158483e+003, 7.259960e+001
1.158966e+003, 7.299619e+001
1.159448e+003, 7.325986e+001
1.159930e+003, 7.314373e+001
1.160412e+003, 7.318149e+001
1.160894e+003, 7.374335e+001
1.161376e+003, 7.424429e+001
1.161858e+003, 7.414321e+001
1.162340e+003, 7.374311e+001
1.162822e+003, 7.377421e+001
1.163305e+003, 7.433121e+001
1.163787e+003, 7.422915e+001
1.164269e+003, 7.306577e+001
1.164751e+003, 7.245260e+001
1.165233e+003, 7.274331e+001
1.165715e+003, 7.320547e+001
1.166197e+003, 7.355900e+001
1.166679e+003, 7.375322e+001
1.167161e+003, 7.367958e+001
1.167644e+003, 7.344796e+001
1.168126e+003, 7.357223e+001
1.168608e+003, 7.407216e+001
1.169090e+003, 7.424712e+001
1.169572e+003, 7.405408e+001
1.170054e+003, 7.409952e+001
1.170536e+003, 7.455714e+001
1.171018e+003, 7.484052e+001
1.171500e+003, 7.452282e+001
1.171983e+003, 7.396671e+001
1.172465e+003, 7.367310e+001
1.172947e+003, 7.364633e+001
1.173429e+003, 7.412489e+001
1.173911e+003, 7.487522e+001
1.174393e+003, 7.484473e+001
1.174875e+003, 7.409944e+001
1.175357e+003, 7.373624e+001
1.175840e+003, 7.413341e+001
1.176322e+003, 7.452171e+001
1.176804e+003, 7.421398e+001
1.177286e+003, 7.370397e+001
1.177768e+003, 7.352295e+001
1.178250e+003, 7.359158e+001
1.178732e+003, 7.406093e+001
1.179214e+003, 7.457449e+001
1.179697e+003, 7.423647e+001
1.180179e+003, 7.320153e+001
1.180661e+003, 7.275419e+001
1.181143e+003, 7.350973e+001
1.181625e+003, 7.418742e+001
1.182107e+003, 7.374703e+001
1.182589e+003, 7.328712e+001
1.183071e+003, 7.370224e+001
1.183553e+003, 7.428139e+001
1.184036e+003, 7.424152e+001
1.184518e+003, 7.387623e+001
1.185000e+003, 7.386946e+001
1.185482e+003, 7.429573e+001
1.185964e+003, 7.458601e+001
1.186446e+003, 7.448837e+001
1.186928e+003, 7.444784e+001
1.187410e+003, 7.462221e+001
1.187892e+003, 7.476401e+001
1.188375e+003, 7.476595e+001
1.188857e+003, 7.469103e+001
1.189339e+003, 7.454290e+001
1.189821e+003, 7.438179e+001
1.190303e+003, 7.440797e+001
1.190785e+003, 7.468223e+001
1.191267e+003, 7.476588e+001
1.191749e+003, 7.453185e+001
1.192232e+003, 7.448792e+001
1.192714e+003, 7.480201e+001
1.193196e+003, 7.503526e+001
1.193678e+003, 7.492634e+001
1.194160e+003, 7.476089e+001
1.194642e+003, 7.490977e+001
1.195124e+003, 7.526661e+001
1.195606e+003, 7.538989e+001
1.196089e+003, 7.529075e+001
1.196571e+003, 7.525516e+001
1.197053e+003, 7.529931e+001
1.197535e+003, 7.552673e+001
1.198017e+003, 7.594503e+001
1.198499e+003, 7.620907e+001
1.198981e+003, 7.609558e+001
1.199463e+003, 7.585532e+001
1.199945e+003, 7.576822e+001
1.200427e+003, 7.582894e+001
1.200910e+003, 7.616383e+001
1.201392e+003, 7.658126e+001
1.201874e+003, 7.656792e+001
1.202356e+003, 7.624718e+001
1.202838e+003, 7.616927e+001
1.203320e+003, 7.644250e+001
1.203802e+003, 7.663345e+001
1.204284e+003, 7.644920e+001
1.204767e+003, 7.623348e+001
1.205249e+003, 7.618745e+001
1.205731e+003, 7.628082e+001
1.206213e+003, 7.662232e+001
1.206695e+003, 7.698885e+001
1.207177e+003, 7.713147e+001
1.207659e+003, 7.706908e+001
1.208141e+003, 7.685303e+001
1.208624e+003, 7.646867e+001
1.209106e+003, 7.638391e+001
1.209588e+003, 7.697383e+001
1.210070e+003, 7.747890e+001
1.210552e+003, 7.778871e+001
1.211034e+003, 7.792485e+001
1.211516e+003, 7.773162e+001
1.211998e+003, 7.751353e+001
1.212480e+003, 7.759917e+001
1.212963e+003, 7.790723e+001
1.213445e+003, 7.813223e+001
1.213927e+003, 7.826296e+001
1.214409e+003, 7.833711e+001
1.214891e+003, 7.829125e+001
1.215373e+003, 7.850797e+001
1.215855e+003, 7.916921e+001
1.216337e+003, 7.950532e+001
1.216819e+003, 7.904189e+001
1.217302e+003, 7.842540e+001
1.217784e+003, 7.846540e+001
1.218266e+003, 7.894873e+001
1.218748e+003, 7.922279e+001
1.219230e+003, 7.933834e+001
1.219712e+003, 7.958259e+001
1.220194e+003, 7.992818e+001
1.220676e+003, 8.015711e+001
1.221159e+003, 8.021941e+001
1.221641e+003, 8.012521e+001
1.222123e+003, 7.987143e+001
1.222605e+003, 7.967825e+001
1.223087e+003, 7.980463e+001
1.223569e+003, 8.006924e+001
1.224051e+003, 8.022504e+001
1.224533e+003, 8.042187e+001
1.225016e+003, 8.100349e+001
1.225498e+003, 8.171773e+001
1.225980e+003, 8.200813e+001
1.226462e+003, 8.184548e+001
1.226944e+003, 8.171464e+001
1.227426e+003, 8.178374e+001
1.227908e+003, 8.188936e+001
1.228390e+003, 8.189877e+001
1.228872e+003, 8.203281e+001
1.229354e+003, 8.260378e+001
1.229837e+003, 8.311998e+001
1.230319e+003, 8.305824e+001
1.230801e+003, 8.274901e+001
1.231283e+003, 8.281877e+001
1.231765e+003, 8.325392e+001
1.232247e+003, 8.354292e+001
1.232729e+003, 8.361057e+001
1.233211e+003, 8.377300e+001
1.233694e+003, 8.407610e+001
1.234176e+003, 8.435074e+001
1.234658e+003, 8.452639e+001
1.235140e+003, 8.478801e+001
1.235622e+003, 8.531441e+001
1.236104e+003, 8.581451e+001
1.236586e+003, 8.567004e+001
1.237068e+003, 8.513251e+001
1.237551e+003, 8.536193e+001
1.238033e+003, 8.616378e+001
1.238515e+003, 8.669478e+001
1.238997e+003, 8.691039e+001
1.239479e+003, 8.707714e+001
1.239961e+003, 8.728201e+001
1.240443e+003, 8.746866e+001
1.240925e+003, 8.756038e+001
1.241407e+003, 8.784382e+001
1.241890e+003, 8.890101e+001
1.242372e+003, 8.996249e+001
1.242854e+003, 9.009443e+001
1.243336e+003, 8.993205e+001
1.243818e+003, 9.029021e+001
1.244300e+003, 9.101097e+001
1.244782e+003, 9.158249e+001
1.245264e+003, 9.193192e+001
1.245746e+003, 9.233130e+001
1.246229e+003, 9.295733e+001
1.246711e+003, 9.343782e+001
1.247193e+003, 9.347334e+001
1.247675e+003, 9.368020e+001
1.248157e+003, 9.442683e+001
1.248639e+003, 9.521831e+001
1.249121e+003, 9.572257e+001
1.249603e+003, 9.602415e+001
1.250085e+003, 9.620658e+001
1.250568e+003, 9.630357e+001
1.251050e+003, 9.700272e+001
1.251532e+003, 9.839017e+001
1.252014e+003, 9.942696e+001
1.252496e+003, 1.000308e+002
1.252978e+003, 1.004104e+002
1.253460e+003, 1.006310e+002
1.253942e+003, 1.010003e+002
1.254425e+003, 1.017296e+002
1.254907e+003, 1.026855e+002
1.255389e+003, 1.038172e+002
1.255871e+003, 1.049340e+002
1.256353e+003, 1.055082e+002
1.256835e+003, 1.058853e+002
1.257317e+003, 1.068424e+002
1.257799e+003, 1.081241e+002
1.258281e+003, 1.089326e+002
1.258764e+003, 1.091658e+002
1.259246e+003, 1.093556e+002
1.259728e+003, 1.096572e+002
1.260210e+003, 1.102068e+002
1.260692e+003, 1.112192e+002
1.261174e+003, 1.122941e+002
1.261656e+003, 1.133701e+002
1.262138e+003, 1.143108e+002
1.262620e+003, 1.148473e+002
1.263103e+003, 1.152857e+002
1.263585e+003, 1.162171e+002
1.264067e+003, 1.175453e+002
1.264549e+003, 1.183644e+002
1.265031e+003, 1.184686e+002
1.265513e+003, 1.187771e+002
1.265995e+003, 1.193462e+002
1.266477e+003, 1.198636e+002
1.266960e+003, 1.202445e+002
1.267442e+003, 1.206696e+002
1.267924e+003, 1.212378e+002
1.268406e+003, 1.219234e+002
1.268888e+003, 1.227514e+002
1.269370e+003, 1.235850e+002
1.269852e+003, 1.240686e+002
1.270334e+003, 1.243294e+002
1.270817e+003, 1.246783e+002
1.271299e+003, 1.250955e+002
1.271781e+003, 1.254405e+002
1.272263e+003, 1.257324e+002
1.272745e+003, 1.261770e+002
1.273227e+003, 1.268534e+002
1.273709e+003, 1.274202e+002
1.274191e+003, 1.276717e+002
1.274673e+003, 1.277711e+002
1.275156e+003, 1.274895e+002
1.275638e+003, 1.274381e+002
1.276120e+003, 1.282735e+002
1.276602e+003, 1.293625e+002
1.277084e+003, 1.299804e+002
1.277566e+003, 1.302284e+002
1.278048e+003, 1.305192e+002
1.278530e+003, 1.308515e+002
1.279012e+003, 1.312569e+002
1.279495e+003, 1.317357e+002
1.279977e+003, 1.322614e+002
1.280459e+003, 1.328368e+002
1.280941e+003, 1.334814e+002
1.281423e+003, 1.342182e+002
1.281905e+003, 1.348719e+002
1.282387e+003, 1.353009e+002
1.282869e+003, 1.356198e+002
1.283352e+003, 1.359472e+002
1.283834e+003, 1.363354e+002
1.284316e+003, 1.368848e+002
1.284798e+003, 1.376025e+002
##END=



