##NAMES=Hydrotalcite
##RRUFFID=R060527
##IDEAL CHEMISTRY=Mg_6_Al_2_CO_3_(OH)_16_(H_2_O)_4_
##LOCALITY=Jacupiranga Pegmatite, Sao Paulo State, Brazil
##OWNER=RRUFF
##SOURCE=Michael Scott
##DESCRIPTION=Orange hexagonal prisms topped with steep pyramids
##STATUS=The identification of this mineral has been confirmed only by single crystal X-ray diffraction.
##URL=rruff.info/R060527
8.813672e+001, 2.449050e+003
8.861884e+001, 2.483267e+003
8.910095e+001, 2.515331e+003
8.958307e+001, 2.553534e+003
9.006519e+001, 2.597528e+003
9.054730e+001, 2.640451e+003
9.102942e+001, 2.686193e+003
9.151154e+001, 2.727443e+003
9.199365e+001, 2.753721e+003
9.247577e+001, 2.767986e+003
9.295789e+001, 2.781538e+003
9.344000e+001, 2.803585e+003
9.392212e+001, 2.828923e+003
9.440424e+001, 2.849678e+003
9.488635e+001, 2.867439e+003
9.536847e+001, 2.884520e+003
9.585059e+001, 2.903343e+003
9.633270e+001, 2.923573e+003
9.681482e+001, 2.946526e+003
9.729694e+001, 2.972917e+003
9.777905e+001, 3.002742e+003
9.826117e+001, 3.036410e+003
9.874329e+001, 3.075413e+003
9.922540e+001, 3.118345e+003
9.970752e+001, 3.156151e+003
1.001896e+002, 3.186894e+003
1.006718e+002, 3.215265e+003
1.011539e+002, 3.246931e+003
1.016360e+002, 3.282816e+003
1.021181e+002, 3.319386e+003
1.026002e+002, 3.354880e+003
1.030823e+002, 3.388667e+003
1.035645e+002, 3.425499e+003
1.040466e+002, 3.466678e+003
1.045287e+002, 3.510435e+003
1.050108e+002, 3.554721e+003
1.054929e+002, 3.600380e+003
1.059750e+002, 3.645529e+003
1.064572e+002, 3.690010e+003
1.069393e+002, 3.739277e+003
1.074214e+002, 3.778811e+003
1.079035e+002, 3.804831e+003
1.083856e+002, 3.821251e+003
1.088677e+002, 3.840269e+003
1.093499e+002, 3.862806e+003
1.098320e+002, 3.887806e+003
1.103141e+002, 3.914798e+003
1.107962e+002, 3.945993e+003
1.112783e+002, 3.977363e+003
1.117604e+002, 4.008254e+003
1.122426e+002, 4.039227e+003
1.127247e+002, 4.071843e+003
1.132068e+002, 4.105958e+003
1.136889e+002, 4.142106e+003
1.141710e+002, 4.180304e+003
1.146531e+002, 4.226373e+003
1.151353e+002, 4.268792e+003
1.156174e+002, 4.302451e+003
1.160995e+002, 4.327148e+003
1.165816e+002, 4.354292e+003
1.170637e+002, 4.392179e+003
1.175458e+002, 4.433167e+003
1.180280e+002, 4.469447e+003
1.185101e+002, 4.490295e+003
1.189922e+002, 4.510600e+003
1.194743e+002, 4.539213e+003
1.199564e+002, 4.577351e+003
1.204385e+002, 4.618462e+003
1.209207e+002, 4.658207e+003
1.214028e+002, 4.698091e+003
1.218849e+002, 4.740634e+003
1.223670e+002, 4.793519e+003
1.228491e+002, 4.847336e+003
1.233312e+002, 4.889868e+003
1.238134e+002, 4.917368e+003
1.242955e+002, 4.943547e+003
1.247776e+002, 4.982331e+003
1.252597e+002, 5.030995e+003
1.257418e+002, 5.080324e+003
1.262239e+002, 5.122484e+003
1.267061e+002, 5.162138e+003
1.271882e+002, 5.206686e+003
1.276703e+002, 5.258199e+003
1.281524e+002, 5.314545e+003
1.286345e+002, 5.373311e+003
1.291166e+002, 5.434466e+003
1.295988e+002, 5.497643e+003
1.300809e+002, 5.563023e+003
1.305630e+002, 5.630292e+003
1.310451e+002, 5.698726e+003
1.315272e+002, 5.768261e+003
1.320093e+002, 5.837640e+003
1.324915e+002, 5.903095e+003
1.329736e+002, 5.963817e+003
1.334557e+002, 6.027554e+003
1.339378e+002, 6.101760e+003
1.344199e+002, 6.186453e+003
1.349020e+002, 6.271478e+003
1.353842e+002, 6.354198e+003
1.358663e+002, 6.434200e+003
1.363484e+002, 6.518793e+003
1.368305e+002, 6.608681e+003
1.373126e+002, 6.700652e+003
1.377947e+002, 6.791169e+003
1.382769e+002, 6.881065e+003
1.387590e+002, 6.966405e+003
1.392411e+002, 7.044229e+003
1.397232e+002, 7.115318e+003
1.402053e+002, 7.185578e+003
1.406874e+002, 7.255210e+003
1.411696e+002, 7.325576e+003
1.416517e+002, 7.397284e+003
1.421338e+002, 7.470752e+003
1.426159e+002, 7.546795e+003
1.430980e+002, 7.627926e+003
1.435801e+002, 7.715968e+003
1.440623e+002, 7.799004e+003
1.445444e+002, 7.873500e+003
1.450265e+002, 7.945647e+003
1.455086e+002, 8.024419e+003
1.459907e+002, 8.116076e+003
1.464728e+002, 8.207505e+003
1.469550e+002, 8.296027e+003
1.474371e+002, 8.381950e+003
1.479192e+002, 8.463304e+003
1.484013e+002, 8.539907e+003
1.488834e+002, 8.611694e+003
1.493655e+002, 8.679736e+003
1.498477e+002, 8.742669e+003
1.503298e+002, 8.802440e+003
1.508119e+002, 8.859879e+003
1.512940e+002, 8.924776e+003
1.517761e+002, 8.973058e+003
1.522583e+002, 8.999018e+003
1.527404e+002, 9.006716e+003
1.532225e+002, 9.007418e+003
1.537046e+002, 9.003912e+003
1.541867e+002, 8.992071e+003
1.546688e+002, 8.970186e+003
1.551510e+002, 8.939267e+003
1.556331e+002, 8.896426e+003
1.561152e+002, 8.836726e+003
1.565973e+002, 8.763471e+003
1.570794e+002, 8.690738e+003
1.575615e+002, 8.623338e+003
1.580437e+002, 8.555661e+003
1.585258e+002, 8.484107e+003
1.590079e+002, 8.409519e+003
1.594900e+002, 8.329349e+003
1.599721e+002, 8.240480e+003
1.604542e+002, 8.144240e+003
1.609364e+002, 8.048289e+003
1.614185e+002, 7.955104e+003
1.619006e+002, 7.863471e+003
1.623827e+002, 7.772407e+003
1.628648e+002, 7.680032e+003
1.633469e+002, 7.589513e+003
1.638291e+002, 7.504615e+003
1.643112e+002, 7.425112e+003
1.647933e+002, 7.341058e+003
1.652754e+002, 7.237479e+003
1.657575e+002, 7.130445e+003
1.662396e+002, 7.036847e+003
1.667218e+002, 6.971642e+003
1.672039e+002, 6.914986e+003
1.676860e+002, 6.852670e+003
1.681681e+002, 6.785411e+003
1.686502e+002, 6.723975e+003
1.691323e+002, 6.678938e+003
1.696145e+002, 6.643778e+003
1.700966e+002, 6.609908e+003
1.705787e+002, 6.574705e+003
1.710608e+002, 6.538875e+003
1.715429e+002, 6.501077e+003
1.720250e+002, 6.460773e+003
1.725072e+002, 6.425516e+003
1.729893e+002, 6.401623e+003
1.734714e+002, 6.386123e+003
1.739535e+002, 6.373505e+003
1.744356e+002, 6.362867e+003
1.749177e+002, 6.353177e+003
1.753999e+002, 6.342992e+003
1.758820e+002, 6.332105e+003
1.763641e+002, 6.321316e+003
1.768462e+002, 6.311542e+003
1.773283e+002, 6.302204e+003
1.778104e+002, 6.291843e+003
1.782926e+002, 6.278644e+003
1.787747e+002, 6.264231e+003
1.792568e+002, 6.251612e+003
1.797389e+002, 6.241194e+003
1.802210e+002, 6.230981e+003
1.807031e+002, 6.219735e+003
1.811853e+002, 6.207208e+003
1.816674e+002, 6.192810e+003
1.821495e+002, 6.175475e+003
1.826316e+002, 6.156146e+003
1.831137e+002, 6.137685e+003
1.835958e+002, 6.120334e+003
1.840780e+002, 6.103206e+003
1.845601e+002, 6.084742e+003
1.850422e+002, 6.065453e+003
1.855243e+002, 6.045850e+003
1.860064e+002, 6.025461e+003
1.864885e+002, 6.005026e+003
1.869707e+002, 5.987901e+003
1.874528e+002, 5.974437e+003
1.879349e+002, 5.963597e+003
1.884170e+002, 5.954316e+003
1.888991e+002, 5.946519e+003
1.893812e+002, 5.938886e+003
1.898634e+002, 5.930327e+003
1.903455e+002, 5.921075e+003
1.908276e+002, 5.912220e+003
1.913097e+002, 5.903237e+003
1.917918e+002, 5.895502e+003
1.922739e+002, 5.892313e+003
1.927561e+002, 5.893748e+003
1.932382e+002, 5.895075e+003
1.937203e+002, 5.892950e+003
1.942024e+002, 5.887689e+003
1.946845e+002, 5.884151e+003
1.951666e+002, 5.882978e+003
1.956488e+002, 5.883200e+003
1.961309e+002, 5.883057e+003
1.966130e+002, 5.882536e+003
1.970951e+002, 5.881922e+003
1.975772e+002, 5.881500e+003
1.980593e+002, 5.881305e+003
1.985415e+002, 5.880493e+003
1.990236e+002, 5.878707e+003
1.995057e+002, 5.876700e+003
1.999878e+002, 5.876419e+003
2.004699e+002, 5.878175e+003
2.009520e+002, 5.880153e+003
2.014342e+002, 5.881169e+003
2.019163e+002, 5.881111e+003
2.023984e+002, 5.881422e+003
2.028805e+002, 5.882019e+003
2.033626e+002, 5.883168e+003
2.038447e+002, 5.886292e+003
2.043269e+002, 5.892336e+003
2.048090e+002, 5.896897e+003
2.052911e+002, 5.896575e+003
2.057732e+002, 5.890369e+003
2.062553e+002, 5.886232e+003
2.067374e+002, 5.885375e+003
2.072196e+002, 5.886427e+003
2.077017e+002, 5.885173e+003
2.081838e+002, 5.880554e+003
2.086659e+002, 5.876607e+003
2.091480e+002, 5.876409e+003
2.096301e+002, 5.881397e+003
2.101123e+002, 5.883375e+003
2.105944e+002, 5.880885e+003
2.110765e+002, 5.875667e+003
2.115586e+002, 5.872771e+003
2.120407e+002, 5.872862e+003
2.125228e+002, 5.873781e+003
2.130050e+002, 5.874562e+003
2.134871e+002, 5.875416e+003
2.139692e+002, 5.875357e+003
2.144513e+002, 5.874530e+003
2.149334e+002, 5.872620e+003
2.154155e+002, 5.867837e+003
2.158977e+002, 5.857605e+003
2.163798e+002, 5.849366e+003
2.168619e+002, 5.848558e+003
2.173440e+002, 5.859466e+003
2.178261e+002, 5.863590e+003
2.183082e+002, 5.857073e+003
2.187904e+002, 5.844053e+003
2.192725e+002, 5.837891e+003
2.197546e+002, 5.842288e+003
2.202367e+002, 5.847000e+003
2.207188e+002, 5.846327e+003
2.212009e+002, 5.837499e+003
2.216831e+002, 5.831046e+003
2.221652e+002, 5.828334e+003
2.226473e+002, 5.828021e+003
2.231294e+002, 5.825896e+003
2.236115e+002, 5.820425e+003
2.240936e+002, 5.815929e+003
2.245758e+002, 5.814946e+003
2.250579e+002, 5.819903e+003
2.255400e+002, 5.822528e+003
2.260221e+002, 5.821685e+003
2.265042e+002, 5.818782e+003
2.269863e+002, 5.817767e+003
2.274685e+002, 5.819847e+003
2.279506e+002, 5.821932e+003
2.284327e+002, 5.822475e+003
2.289148e+002, 5.820417e+003
2.293969e+002, 5.819075e+003
2.298790e+002, 5.818266e+003
2.303612e+002, 5.818139e+003
2.308433e+002, 5.819237e+003
2.313254e+002, 5.822092e+003
2.318075e+002, 5.825190e+003
2.322896e+002, 5.827475e+003
2.327717e+002, 5.827133e+003
2.332539e+002, 5.830623e+003
2.337360e+002, 5.840772e+003
2.342181e+002, 5.853591e+003
2.347002e+002, 5.859329e+003
2.351823e+002, 5.852820e+003
2.356644e+002, 5.846815e+003
2.361466e+002, 5.846988e+003
2.366287e+002, 5.857042e+003
2.371108e+002, 5.862833e+003
2.375929e+002, 5.862279e+003
2.380750e+002, 5.858240e+003
2.385571e+002, 5.856721e+003
2.390393e+002, 5.859379e+003
2.395214e+002, 5.862042e+003
2.400035e+002, 5.863383e+003
2.404856e+002, 5.863529e+003
2.409677e+002, 5.862289e+003
2.414498e+002, 5.859528e+003
2.419320e+002, 5.855655e+003
2.424141e+002, 5.850999e+003
2.428962e+002, 5.844329e+003
2.433783e+002, 5.839138e+003
2.438604e+002, 5.836641e+003
2.443425e+002, 5.837164e+003
2.448247e+002, 5.839745e+003
2.453068e+002, 5.845916e+003
2.457889e+002, 5.853252e+003
2.462710e+002, 5.858056e+003
2.467531e+002, 5.859957e+003
2.472352e+002, 5.859773e+003
2.477174e+002, 5.856563e+003
2.481995e+002, 5.848656e+003
2.486816e+002, 5.846281e+003
2.491637e+002, 5.852193e+003
2.496458e+002, 5.861439e+003
2.501279e+002, 5.866935e+003
2.506101e+002, 5.867178e+003
2.510922e+002, 5.866381e+003
2.515743e+002, 5.865224e+003
2.520564e+002, 5.863417e+003
2.525385e+002, 5.863271e+003
2.530206e+002, 5.865125e+003
2.535028e+002, 5.868350e+003
2.539849e+002, 5.872390e+003
2.544670e+002, 5.878230e+003
2.549491e+002, 5.882966e+003
2.554312e+002, 5.885791e+003
2.559133e+002, 5.886614e+003
2.563955e+002, 5.887027e+003
2.568776e+002, 5.886447e+003
2.573597e+002, 5.886114e+003
2.578418e+002, 5.887537e+003
2.583239e+002, 5.891651e+003
2.588061e+002, 5.895224e+003
2.592882e+002, 5.897655e+003
2.597703e+002, 5.898943e+003
2.602524e+002, 5.899311e+003
2.607345e+002, 5.898119e+003
2.612166e+002, 5.896911e+003
2.616988e+002, 5.897417e+003
2.621809e+002, 5.900729e+003
2.626630e+002, 5.902464e+003
2.631451e+002, 5.900749e+003
2.636272e+002, 5.896352e+003
2.641093e+002, 5.896714e+003
2.645915e+002, 5.903554e+003
2.650736e+002, 5.912241e+003
2.655557e+002, 5.920156e+003
2.660378e+002, 5.928294e+003
2.665199e+002, 5.931398e+003
2.670020e+002, 5.926790e+003
2.674842e+002, 5.916550e+003
2.679663e+002, 5.911716e+003
2.684484e+002, 5.913632e+003
2.689305e+002, 5.917771e+003
2.694126e+002, 5.921298e+003
2.698947e+002, 5.924217e+003
2.703769e+002, 5.926404e+003
2.708590e+002, 5.927607e+003
2.713411e+002, 5.928161e+003
2.718232e+002, 5.929048e+003
2.723053e+002, 5.930192e+003
2.727874e+002, 5.931820e+003
2.732696e+002, 5.934433e+003
2.737517e+002, 5.938342e+003
2.742338e+002, 5.940804e+003
2.747159e+002, 5.941088e+003
2.751980e+002, 5.940445e+003
2.756801e+002, 5.941806e+003
2.761623e+002, 5.945446e+003
2.766444e+002, 5.950071e+003
2.771265e+002, 5.955549e+003
2.776086e+002, 5.962151e+003
2.780907e+002, 5.967457e+003
2.785728e+002, 5.971594e+003
2.790550e+002, 5.974266e+003
2.795371e+002, 5.973867e+003
2.800192e+002, 5.969817e+003
2.805013e+002, 5.967417e+003
2.809834e+002, 5.969923e+003
2.814655e+002, 5.977144e+003
2.819477e+002, 5.982172e+003
2.824298e+002, 5.984267e+003
2.829119e+002, 5.985767e+003
2.833940e+002, 5.990603e+003
2.838761e+002, 5.998808e+003
2.843582e+002, 6.005558e+003
2.848404e+002, 6.007943e+003
2.853225e+002, 6.006890e+003
2.858046e+002, 6.008864e+003
2.862867e+002, 6.014316e+003
2.867688e+002, 6.020346e+003
2.872509e+002, 6.023423e+003
2.877331e+002, 6.023767e+003
2.882152e+002, 6.024389e+003
2.886973e+002, 6.026736e+003
2.891794e+002, 6.030022e+003
2.896615e+002, 6.031150e+003
2.901436e+002, 6.030036e+003
2.906258e+002, 6.028961e+003
2.911079e+002, 6.031176e+003
2.915900e+002, 6.035872e+003
2.920721e+002, 6.038106e+003
2.925542e+002, 6.035910e+003
2.930363e+002, 6.031358e+003
2.935185e+002, 6.027629e+003
2.940006e+002, 6.024781e+003
2.944827e+002, 6.024681e+003
2.949648e+002, 6.030143e+003
2.954469e+002, 6.039645e+003
2.959290e+002, 6.048506e+003
2.964112e+002, 6.056126e+003
2.968933e+002, 6.062292e+003
2.973754e+002, 6.065207e+003
2.978575e+002, 6.065467e+003
2.983396e+002, 6.067200e+003
2.988217e+002, 6.074351e+003
2.993039e+002, 6.084624e+003
2.997860e+002, 6.093390e+003
3.002681e+002, 6.099958e+003
3.007502e+002, 6.105261e+003
3.012323e+002, 6.110145e+003
3.017144e+002, 6.114607e+003
3.021966e+002, 6.118422e+003
3.026787e+002, 6.121563e+003
3.031608e+002, 6.124013e+003
3.036429e+002, 6.125718e+003
3.041250e+002, 6.126609e+003
3.046071e+002, 6.127118e+003
3.050893e+002, 6.128138e+003
3.055714e+002, 6.129065e+003
3.060535e+002, 6.128597e+003
3.065356e+002, 6.124812e+003
3.070177e+002, 6.120166e+003
3.074998e+002, 6.116800e+003
3.079820e+002, 6.114767e+003
3.084641e+002, 6.114097e+003
3.089462e+002, 6.116858e+003
3.094283e+002, 6.120562e+003
3.099104e+002, 6.121753e+003
3.103925e+002, 6.115828e+003
3.108747e+002, 6.109710e+003
3.113568e+002, 6.109537e+003
3.118389e+002, 6.114450e+003
3.123210e+002, 6.117741e+003
3.128031e+002, 6.113341e+003
3.132852e+002, 6.106700e+003
3.137674e+002, 6.103065e+003
3.142495e+002, 6.105274e+003
3.147316e+002, 6.108965e+003
3.152137e+002, 6.113526e+003
3.156958e+002, 6.118164e+003
3.161779e+002, 6.120257e+003
3.166601e+002, 6.115778e+003
3.171422e+002, 6.110165e+003
3.176243e+002, 6.106976e+003
3.181064e+002, 6.107469e+003
3.185885e+002, 6.108984e+003
3.190706e+002, 6.111013e+003
3.195528e+002, 6.113372e+003
3.200349e+002, 6.115735e+003
3.205170e+002, 6.116665e+003
3.209991e+002, 6.118641e+003
3.214812e+002, 6.123661e+003
3.219633e+002, 6.133541e+003
3.224455e+002, 6.140244e+003
3.229276e+002, 6.138979e+003
3.234097e+002, 6.134775e+003
3.238918e+002, 6.133817e+003
3.243739e+002, 6.141227e+003
3.248560e+002, 6.147957e+003
3.253382e+002, 6.151808e+003
3.258203e+002, 6.152573e+003
3.263024e+002, 6.152277e+003
3.267845e+002, 6.149375e+003
3.272666e+002, 6.146487e+003
3.277487e+002, 6.145697e+003
3.282309e+002, 6.149125e+003
3.287130e+002, 6.152236e+003
3.291951e+002, 6.154202e+003
3.296772e+002, 6.155231e+003
3.301593e+002, 6.157450e+003
3.306414e+002, 6.161573e+003
3.311236e+002, 6.166110e+003
3.316057e+002, 6.170247e+003
3.320878e+002, 6.173643e+003
3.325699e+002, 6.177063e+003
3.330520e+002, 6.180448e+003
3.335341e+002, 6.183748e+003
3.340163e+002, 6.187066e+003
3.344984e+002, 6.191156e+003
3.349805e+002, 6.193844e+003
3.354626e+002, 6.193761e+003
3.359447e+002, 6.189715e+003
3.364268e+002, 6.187641e+003
3.369090e+002, 6.188000e+003
3.373911e+002, 6.189926e+003
3.378732e+002, 6.192129e+003
3.383553e+002, 6.194720e+003
3.388374e+002, 6.197549e+003
3.393195e+002, 6.201364e+003
3.398017e+002, 6.206040e+003
3.402838e+002, 6.206707e+003
3.407659e+002, 6.202325e+003
3.412480e+002, 6.196759e+003
3.417301e+002, 6.194114e+003
3.422122e+002, 6.194601e+003
3.426944e+002, 6.194837e+003
3.431765e+002, 6.193157e+003
3.436586e+002, 6.191052e+003
3.441407e+002, 6.195008e+003
3.446228e+002, 6.205523e+003
3.451049e+002, 6.215656e+003
3.455871e+002, 6.219072e+003
3.460692e+002, 6.216802e+003
3.465513e+002, 6.215681e+003
3.470334e+002, 6.216648e+003
3.475155e+002, 6.218993e+003
3.479977e+002, 6.221729e+003
3.484798e+002, 6.224857e+003
3.489619e+002, 6.228266e+003
3.494440e+002, 6.232313e+003
3.499261e+002, 6.236558e+003
3.504082e+002, 6.239952e+003
3.508904e+002, 6.242386e+003
3.513725e+002, 6.244362e+003
3.518546e+002, 6.245948e+003
3.523367e+002, 6.247462e+003
3.528188e+002, 6.249738e+003
3.533009e+002, 6.254953e+003
3.537831e+002, 6.260154e+003
3.542652e+002, 6.260076e+003
3.547473e+002, 6.255057e+003
3.552294e+002, 6.252416e+003
3.557115e+002, 6.262266e+003
3.561936e+002, 6.276252e+003
3.566758e+002, 6.283039e+003
3.571579e+002, 6.275161e+003
3.576400e+002, 6.264587e+003
3.581221e+002, 6.258497e+003
3.586042e+002, 6.256598e+003
3.590863e+002, 6.257557e+003
3.595685e+002, 6.263771e+003
3.600506e+002, 6.270778e+003
3.605327e+002, 6.274893e+003
3.610148e+002, 6.274217e+003
3.614969e+002, 6.274184e+003
3.619790e+002, 6.277615e+003
3.624612e+002, 6.283087e+003
3.629433e+002, 6.288235e+003
3.634254e+002, 6.292438e+003
3.639075e+002, 6.296024e+003
3.643896e+002, 6.299380e+003
3.648717e+002, 6.302672e+003
3.653539e+002, 6.304168e+003
3.658360e+002, 6.302127e+003
3.663181e+002, 6.298702e+003
3.668002e+002, 6.295834e+003
3.672823e+002, 6.294708e+003
3.677644e+002, 6.292967e+003
3.682466e+002, 6.289991e+003
3.687287e+002, 6.285852e+003
3.692108e+002, 6.281834e+003
3.696929e+002, 6.277054e+003
3.701750e+002, 6.273144e+003
3.706571e+002, 6.271134e+003
3.711393e+002, 6.273010e+003
3.716214e+002, 6.273358e+003
3.721035e+002, 6.271573e+003
3.725856e+002, 6.268498e+003
3.730677e+002, 6.265944e+003
3.735498e+002, 6.263758e+003
3.740320e+002, 6.262399e+003
3.745141e+002, 6.261685e+003
3.749962e+002, 6.261340e+003
3.754783e+002, 6.265064e+003
3.759604e+002, 6.275283e+003
3.764425e+002, 6.285570e+003
3.769247e+002, 6.286726e+003
3.774068e+002, 6.276903e+003
3.778889e+002, 6.269394e+003
3.783710e+002, 6.267984e+003
3.788531e+002, 6.271330e+003
3.793352e+002, 6.274054e+003
3.798174e+002, 6.276076e+003
3.802995e+002, 6.277818e+003
3.807816e+002, 6.279644e+003
3.812637e+002, 6.281524e+003
3.817458e+002, 6.282854e+003
3.822279e+002, 6.283275e+003
3.827101e+002, 6.283768e+003
3.831922e+002, 6.286642e+003
3.836743e+002, 6.291501e+003
3.841564e+002, 6.295370e+003
3.846385e+002, 6.294385e+003
3.851206e+002, 6.291786e+003
3.856028e+002, 6.295288e+003
3.860849e+002, 6.305717e+003
3.865670e+002, 6.316460e+003
3.870491e+002, 6.321197e+003
3.875312e+002, 6.321829e+003
3.880133e+002, 6.322119e+003
3.884955e+002, 6.322064e+003
3.889776e+002, 6.323377e+003
3.894597e+002, 6.329254e+003
3.899418e+002, 6.338757e+003
3.904239e+002, 6.346330e+003
3.909060e+002, 6.347193e+003
3.913882e+002, 6.345354e+003
3.918703e+002, 6.344331e+003
3.923524e+002, 6.344764e+003
3.928345e+002, 6.346268e+003
3.933166e+002, 6.348518e+003
3.937987e+002, 6.351720e+003
3.942809e+002, 6.356233e+003
3.947630e+002, 6.364570e+003
3.952451e+002, 6.372167e+003
3.957272e+002, 6.376460e+003
3.962093e+002, 6.376512e+003
3.966914e+002, 6.377769e+003
3.971736e+002, 6.383218e+003
3.976557e+002, 6.389360e+003
3.981378e+002, 6.392985e+003
3.986199e+002, 6.390528e+003
3.991020e+002, 6.389042e+003
3.995841e+002, 6.390964e+003
4.000663e+002, 6.395276e+003
4.005484e+002, 6.395129e+003
4.010305e+002, 6.387663e+003
4.015126e+002, 6.378858e+003
4.019947e+002, 6.371694e+003
4.024768e+002, 6.367573e+003
4.029590e+002, 6.362034e+003
4.034411e+002, 6.354346e+003
4.039232e+002, 6.345965e+003
4.044053e+002, 6.339530e+003
4.048874e+002, 6.335623e+003
4.053695e+002, 6.332216e+003
4.058517e+002, 6.328569e+003
4.063338e+002, 6.324843e+003
4.068159e+002, 6.322560e+003
4.072980e+002, 6.322148e+003
4.077801e+002, 6.321811e+003
4.082622e+002, 6.318881e+003
4.087444e+002, 6.313537e+003
4.092265e+002, 6.310864e+003
4.097086e+002, 6.312013e+003
4.101907e+002, 6.315917e+003
4.106728e+002, 6.321758e+003
4.111549e+002, 6.329179e+003
4.116371e+002, 6.334657e+003
4.121192e+002, 6.334514e+003
4.126013e+002, 6.330960e+003
4.130834e+002, 6.328742e+003
4.135655e+002, 6.328237e+003
4.140476e+002, 6.328579e+003
4.145298e+002, 6.329093e+003
4.150119e+002, 6.329811e+003
4.154940e+002, 6.330858e+003
4.159761e+002, 6.333564e+003
4.164582e+002, 6.335665e+003
4.169403e+002, 6.334511e+003
4.174225e+002, 6.330635e+003
4.179046e+002, 6.327120e+003
4.183867e+002, 6.325013e+003
4.188688e+002, 6.324573e+003
4.193509e+002, 6.326572e+003
4.198330e+002, 6.333067e+003
4.203152e+002, 6.338047e+003
4.207973e+002, 6.338282e+003
4.212794e+002, 6.335681e+003
4.217615e+002, 6.333694e+003
4.222436e+002, 6.333751e+003
4.227257e+002, 6.334169e+003
4.232079e+002, 6.334702e+003
4.236900e+002, 6.335482e+003
4.241721e+002, 6.335300e+003
4.246542e+002, 6.331075e+003
4.251363e+002, 6.327690e+003
4.256184e+002, 6.328903e+003
4.261006e+002, 6.339486e+003
4.265827e+002, 6.347101e+003
4.270648e+002, 6.350029e+003
4.275469e+002, 6.349247e+003
4.280290e+002, 6.347696e+003
4.285111e+002, 6.343737e+003
4.289933e+002, 6.341957e+003
4.294754e+002, 6.345342e+003
4.299575e+002, 6.354983e+003
4.304396e+002, 6.360854e+003
4.309217e+002, 6.362090e+003
4.314038e+002, 6.361294e+003
4.318860e+002, 6.361532e+003
4.323681e+002, 6.362842e+003
4.328502e+002, 6.364583e+003
4.333323e+002, 6.366900e+003
4.338144e+002, 6.369479e+003
4.342965e+002, 6.372556e+003
4.347787e+002, 6.376167e+003
4.352608e+002, 6.376543e+003
4.357429e+002, 6.367352e+003
4.362250e+002, 6.353209e+003
4.367071e+002, 6.346050e+003
4.371892e+002, 6.348165e+003
4.376714e+002, 6.353878e+003
4.381535e+002, 6.358316e+003
4.386356e+002, 6.361735e+003
4.391177e+002, 6.364606e+003
4.395998e+002, 6.367205e+003
4.400819e+002, 6.369218e+003
4.405641e+002, 6.369729e+003
4.410462e+002, 6.368876e+003
4.415283e+002, 6.368744e+003
4.420104e+002, 6.370057e+003
4.424925e+002, 6.372649e+003
4.429746e+002, 6.376558e+003
4.434568e+002, 6.382924e+003
4.439389e+002, 6.388366e+003
4.444210e+002, 6.390994e+003
4.449031e+002, 6.392027e+003
4.453852e+002, 6.393831e+003
4.458673e+002, 6.398731e+003
4.463495e+002, 6.402721e+003
4.468316e+002, 6.403750e+003
4.473137e+002, 6.400995e+003
4.477958e+002, 6.401756e+003
4.482779e+002, 6.409783e+003
4.487600e+002, 6.418343e+003
4.492422e+002, 6.422104e+003
4.497243e+002, 6.417783e+003
4.502064e+002, 6.415885e+003
4.506885e+002, 6.418232e+003
4.511706e+002, 6.423047e+003
4.516527e+002, 6.424836e+003
4.521349e+002, 6.422327e+003
4.526170e+002, 6.421232e+003
4.530991e+002, 6.424777e+003
4.535812e+002, 6.432738e+003
4.540633e+002, 6.438496e+003
4.545454e+002, 6.441787e+003
4.550276e+002, 6.444175e+003
4.555097e+002, 6.447106e+003
4.559918e+002, 6.450513e+003
4.564739e+002, 6.454069e+003
4.569560e+002, 6.457874e+003
4.574381e+002, 6.461562e+003
4.579203e+002, 6.464253e+003
4.584024e+002, 6.466203e+003
4.588845e+002, 6.468655e+003
4.593666e+002, 6.472534e+003
4.598488e+002, 6.477273e+003
4.603309e+002, 6.482806e+003
4.608130e+002, 6.489323e+003
4.612951e+002, 6.494146e+003
4.617772e+002, 6.493170e+003
4.622593e+002, 6.490163e+003
4.627415e+002, 6.489577e+003
4.632236e+002, 6.495212e+003
4.637057e+002, 6.501197e+003
4.641878e+002, 6.504719e+003
4.646699e+002, 6.506608e+003
4.651520e+002, 6.509827e+003
4.656342e+002, 6.516242e+003
4.661163e+002, 6.523223e+003
4.665984e+002, 6.529497e+003
4.670805e+002, 6.534125e+003
4.675626e+002, 6.540612e+003
4.680447e+002, 6.551499e+003
4.685269e+002, 6.562739e+003
4.690090e+002, 6.569972e+003
4.694911e+002, 6.569829e+003
4.699732e+002, 6.572007e+003
4.704553e+002, 6.578381e+003
4.709374e+002, 6.588049e+003
4.714196e+002, 6.597695e+003
4.719017e+002, 6.607436e+003
4.723838e+002, 6.616337e+003
4.728659e+002, 6.623120e+003
4.733480e+002, 6.627751e+003
4.738301e+002, 6.634696e+003
4.743123e+002, 6.644339e+003
4.747944e+002, 6.654912e+003
4.752765e+002, 6.665028e+003
4.757586e+002, 6.674440e+003
4.762407e+002, 6.681878e+003
4.767228e+002, 6.686546e+003
4.772050e+002, 6.689575e+003
4.776871e+002, 6.692978e+003
4.781692e+002, 6.696486e+003
4.786513e+002, 6.698511e+003
4.791334e+002, 6.697906e+003
4.796155e+002, 6.695526e+003
4.800977e+002, 6.691708e+003
4.805798e+002, 6.686263e+003
4.810619e+002, 6.681813e+003
4.815440e+002, 6.682542e+003
4.820261e+002, 6.684329e+003
4.825082e+002, 6.682366e+003
4.829904e+002, 6.670565e+003
4.834725e+002, 6.659721e+003
4.839546e+002, 6.653858e+003
4.844367e+002, 6.651876e+003
4.849188e+002, 6.648998e+003
4.854009e+002, 6.642361e+003
4.858831e+002, 6.636439e+003
4.863652e+002, 6.633179e+003
4.868473e+002, 6.633700e+003
4.873294e+002, 6.632391e+003
4.878115e+002, 6.627948e+003
4.882936e+002, 6.622665e+003
4.887758e+002, 6.619250e+003
4.892579e+002, 6.618843e+003
4.897400e+002, 6.616005e+003
4.902221e+002, 6.608898e+003
4.907042e+002, 6.599292e+003
4.911863e+002, 6.593290e+003
4.916685e+002, 6.591251e+003
4.921506e+002, 6.589039e+003
4.926327e+002, 6.583373e+003
4.931148e+002, 6.575439e+003
4.935969e+002, 6.571798e+003
4.940790e+002, 6.572979e+003
4.945612e+002, 6.574450e+003
4.950433e+002, 6.571347e+003
4.955254e+002, 6.565336e+003
4.960075e+002, 6.559696e+003
4.964896e+002, 6.555024e+003
4.969717e+002, 6.551800e+003
4.974539e+002, 6.550778e+003
4.979360e+002, 6.551666e+003
4.984181e+002, 6.553721e+003
4.989002e+002, 6.557302e+003
4.993823e+002, 6.561306e+003
4.998644e+002, 6.565430e+003
5.003466e+002, 6.569692e+003
5.008287e+002, 6.572307e+003
5.013108e+002, 6.570554e+003
5.017929e+002, 6.568001e+003
5.022750e+002, 6.567352e+003
5.027571e+002, 6.570597e+003
5.032393e+002, 6.573416e+003
5.037214e+002, 6.575604e+003
5.042035e+002, 6.577155e+003
5.046856e+002, 6.578215e+003
5.051677e+002, 6.579165e+003
5.056498e+002, 6.578771e+003
5.061320e+002, 6.575725e+003
5.066141e+002, 6.570296e+003
5.070962e+002, 6.570240e+003
5.075783e+002, 6.577411e+003
5.080604e+002, 6.584158e+003
5.085425e+002, 6.582740e+003
5.090247e+002, 6.574073e+003
5.095068e+002, 6.569130e+003
5.099889e+002, 6.569737e+003
5.104710e+002, 6.572907e+003
5.109531e+002, 6.574658e+003
5.114352e+002, 6.575432e+003
5.119174e+002, 6.576762e+003
5.123995e+002, 6.579496e+003
5.128816e+002, 6.582971e+003
5.133637e+002, 6.586717e+003
5.138458e+002, 6.590591e+003
5.143279e+002, 6.594009e+003
5.148101e+002, 6.596020e+003
5.152922e+002, 6.597619e+003
5.157743e+002, 6.599531e+003
5.162564e+002, 6.601792e+003
5.167385e+002, 6.604266e+003
5.172206e+002, 6.608167e+003
5.177028e+002, 6.611662e+003
5.181849e+002, 6.612674e+003
5.186670e+002, 6.606242e+003
5.191491e+002, 6.602742e+003
5.196312e+002, 6.604965e+003
5.201133e+002, 6.611604e+003
5.205955e+002, 6.617356e+003
5.210776e+002, 6.623260e+003
5.215597e+002, 6.626718e+003
5.220418e+002, 6.625470e+003
5.225239e+002, 6.618738e+003
5.230060e+002, 6.617481e+003
5.234882e+002, 6.622752e+003
5.239703e+002, 6.630846e+003
5.244524e+002, 6.638373e+003
5.249345e+002, 6.645339e+003
5.254166e+002, 6.651893e+003
5.258987e+002, 6.657731e+003
5.263809e+002, 6.663811e+003
5.268630e+002, 6.671399e+003
5.273451e+002, 6.680508e+003
5.278272e+002, 6.691158e+003
5.283093e+002, 6.705456e+003
5.287914e+002, 6.719980e+003
5.292736e+002, 6.730067e+003
5.297557e+002, 6.735979e+003
5.302378e+002, 6.742478e+003
5.307199e+002, 6.751366e+003
5.312020e+002, 6.762529e+003
5.316841e+002, 6.776193e+003
5.321663e+002, 6.794273e+003
5.326484e+002, 6.810901e+003
5.331305e+002, 6.824391e+003
5.336126e+002, 6.835853e+003
5.340947e+002, 6.847125e+003
5.345768e+002, 6.857014e+003
5.350590e+002, 6.868420e+003
5.355411e+002, 6.881103e+003
5.360232e+002, 6.895634e+003
5.365053e+002, 6.914861e+003
5.369874e+002, 6.940167e+003
5.374695e+002, 6.966875e+003
5.379517e+002, 6.991828e+003
5.384338e+002, 7.015043e+003
5.389159e+002, 7.041875e+003
5.393980e+002, 7.072612e+003
5.398801e+002, 7.105437e+003
5.403622e+002, 7.137612e+003
5.408444e+002, 7.169419e+003
5.413265e+002, 7.203640e+003
5.418086e+002, 7.241493e+003
5.422907e+002, 7.281334e+003
5.427728e+002, 7.320167e+003
5.432549e+002, 7.359362e+003
5.437371e+002, 7.401882e+003
5.442192e+002, 7.452706e+003
5.447013e+002, 7.504818e+003
5.451834e+002, 7.552416e+003
5.456655e+002, 7.596125e+003
5.461476e+002, 7.641576e+003
5.466298e+002, 7.690245e+003
5.471119e+002, 7.742261e+003
5.475940e+002, 7.797991e+003
5.480761e+002, 7.859237e+003
5.485582e+002, 7.921050e+003
5.490403e+002, 7.982158e+003
5.495225e+002, 8.044724e+003
5.500046e+002, 8.110700e+003
5.504867e+002, 8.181675e+003
5.509688e+002, 8.252978e+003
5.514509e+002, 8.324346e+003
5.519330e+002, 8.395544e+003
5.524152e+002, 8.464432e+003
5.528973e+002, 8.531332e+003
5.533794e+002, 8.595468e+003
5.538615e+002, 8.659376e+003
5.543436e+002, 8.720892e+003
5.548257e+002, 8.769228e+003
5.553079e+002, 8.803910e+003
5.557900e+002, 8.825855e+003
5.562721e+002, 8.838571e+003
5.567542e+002, 8.838319e+003
5.572363e+002, 8.817403e+003
5.577184e+002, 8.772856e+003
5.582006e+002, 8.711616e+003
5.586827e+002, 8.636228e+003
5.591648e+002, 8.548657e+003
5.596469e+002, 8.450475e+003
5.601290e+002, 8.337294e+003
5.606111e+002, 8.219668e+003
5.610933e+002, 8.100100e+003
5.615754e+002, 7.979245e+003
5.620575e+002, 7.863623e+003
5.625396e+002, 7.752559e+003
5.630217e+002, 7.648482e+003
5.635038e+002, 7.551173e+003
5.639860e+002, 7.459667e+003
5.644681e+002, 7.378003e+003
5.649502e+002, 7.307616e+003
5.654323e+002, 7.244893e+003
5.659144e+002, 7.187291e+003
5.663965e+002, 7.134345e+003
5.668787e+002, 7.089089e+003
5.673608e+002, 7.053554e+003
5.678429e+002, 7.023456e+003
5.683250e+002, 6.992955e+003
5.688071e+002, 6.962202e+003
5.692892e+002, 6.933220e+003
5.697714e+002, 6.906456e+003
5.702535e+002, 6.882497e+003
5.707356e+002, 6.863407e+003
5.712177e+002, 6.848453e+003
5.716998e+002, 6.835040e+003
5.721819e+002, 6.821291e+003
5.726641e+002, 6.808208e+003
5.731462e+002, 6.796578e+003
5.736283e+002, 6.786435e+003
5.741104e+002, 6.777138e+003
5.745925e+002, 6.767544e+003
5.750746e+002, 6.759030e+003
5.755568e+002, 6.752740e+003
5.760389e+002, 6.751432e+003
5.765210e+002, 6.748718e+003
5.770031e+002, 6.743804e+003
5.774852e+002, 6.737574e+003
5.779673e+002, 6.731781e+003
5.784495e+002, 6.726495e+003
5.789316e+002, 6.721390e+003
5.794137e+002, 6.715824e+003
5.798958e+002, 6.710583e+003
5.803779e+002, 6.710061e+003
5.808600e+002, 6.714578e+003
5.813422e+002, 6.717339e+003
5.818243e+002, 6.711693e+003
5.823064e+002, 6.701202e+003
5.827885e+002, 6.693943e+003
5.832706e+002, 6.690534e+003
5.837527e+002, 6.689208e+003
5.842349e+002, 6.690856e+003
5.847170e+002, 6.692716e+003
5.851991e+002, 6.690886e+003
5.856812e+002, 6.680994e+003
5.861633e+002, 6.672834e+003
5.866454e+002, 6.671803e+003
5.871276e+002, 6.675007e+003
5.876097e+002, 6.677241e+003
5.880918e+002, 6.677655e+003
5.885739e+002, 6.676777e+003
5.890560e+002, 6.674409e+003
5.895381e+002, 6.670741e+003
5.900203e+002, 6.667222e+003
5.905024e+002, 6.664338e+003
5.909845e+002, 6.660739e+003
5.914666e+002, 6.655103e+003
5.919487e+002, 6.647416e+003
5.924308e+002, 6.643833e+003
5.929130e+002, 6.645173e+003
5.933951e+002, 6.646915e+003
5.938772e+002, 6.643241e+003
5.943593e+002, 6.636232e+003
5.948414e+002, 6.633003e+003
5.953235e+002, 6.635537e+003
5.958057e+002, 6.639846e+003
5.962878e+002, 6.642562e+003
5.967699e+002, 6.644050e+003
5.972520e+002, 6.644974e+003
5.977341e+002, 6.645313e+003
5.982162e+002, 6.645325e+003
5.986984e+002, 6.644815e+003
5.991805e+002, 6.643922e+003
5.996626e+002, 6.643278e+003
6.001447e+002, 6.642214e+003
6.006268e+002, 6.642060e+003
6.011089e+002, 6.643871e+003
6.015911e+002, 6.647969e+003
6.020732e+002, 6.649564e+003
6.025553e+002, 6.647400e+003
6.030374e+002, 6.644751e+003
6.035195e+002, 6.643649e+003
6.040016e+002, 6.644085e+003
6.044838e+002, 6.647408e+003
6.049659e+002, 6.654845e+003
6.054480e+002, 6.661398e+003
6.059301e+002, 6.658500e+003
6.064122e+002, 6.648633e+003
6.068943e+002, 6.641999e+003
6.073765e+002, 6.642388e+003
6.078586e+002, 6.645406e+003
6.083407e+002, 6.646890e+003
6.088228e+002, 6.647195e+003
6.093049e+002, 6.647170e+003
6.097870e+002, 6.647040e+003
6.102692e+002, 6.646768e+003
6.107513e+002, 6.646440e+003
6.112334e+002, 6.646008e+003
6.117155e+002, 6.645057e+003
6.121976e+002, 6.643084e+003
6.126797e+002, 6.640966e+003
6.131619e+002, 6.638853e+003
6.136440e+002, 6.636356e+003
6.141261e+002, 6.635967e+003
6.146082e+002, 6.638573e+003
6.150903e+002, 6.641975e+003
6.155724e+002, 6.644683e+003
6.160546e+002, 6.646766e+003
6.165367e+002, 6.646300e+003
6.170188e+002, 6.642390e+003
6.175009e+002, 6.637672e+003
6.179830e+002, 6.636253e+003
6.184651e+002, 6.637323e+003
6.189473e+002, 6.638130e+003
6.194294e+002, 6.637728e+003
6.199115e+002, 6.636530e+003
6.203936e+002, 6.634195e+003
6.208757e+002, 6.631265e+003
6.213578e+002, 6.629361e+003
6.218400e+002, 6.629616e+003
6.223221e+002, 6.630725e+003
6.228042e+002, 6.632606e+003
6.232863e+002, 6.635276e+003
6.237684e+002, 6.636510e+003
6.242505e+002, 6.634923e+003
6.247327e+002, 6.633057e+003
6.252148e+002, 6.632052e+003
6.256969e+002, 6.631908e+003
6.261790e+002, 6.632975e+003
6.266611e+002, 6.635732e+003
6.271432e+002, 6.638748e+003
6.276254e+002, 6.640443e+003
6.281075e+002, 6.640891e+003
6.285896e+002, 6.641005e+003
6.290717e+002, 6.640632e+003
6.295538e+002, 6.640723e+003
6.300359e+002, 6.643702e+003
6.305181e+002, 6.648149e+003
6.310002e+002, 6.650584e+003
6.314823e+002, 6.648185e+003
6.319644e+002, 6.644600e+003
6.324465e+002, 6.641468e+003
6.329286e+002, 6.639076e+003
6.334108e+002, 6.638425e+003
6.338929e+002, 6.641458e+003
6.343750e+002, 6.644729e+003
6.348571e+002, 6.647393e+003
6.353392e+002, 6.649474e+003
6.358214e+002, 6.649081e+003
6.363035e+002, 6.644474e+003
6.367856e+002, 6.640023e+003
6.372677e+002, 6.638792e+003
6.377498e+002, 6.641603e+003
6.382319e+002, 6.641550e+003
6.387141e+002, 6.638074e+003
6.391962e+002, 6.634200e+003
6.396783e+002, 6.633470e+003
6.401604e+002, 6.635103e+003
6.406425e+002, 6.635811e+003
6.411246e+002, 6.634690e+003
6.416068e+002, 6.633607e+003
6.420889e+002, 6.634218e+003
6.425710e+002, 6.636229e+003
6.430531e+002, 6.639103e+003
6.435352e+002, 6.645033e+003
6.440173e+002, 6.649236e+003
6.444995e+002, 6.647914e+003
6.449816e+002, 6.643140e+003
6.454637e+002, 6.640960e+003
6.459458e+002, 6.644306e+003
6.464279e+002, 6.648131e+003
6.469100e+002, 6.651457e+003
6.473922e+002, 6.654273e+003
6.478743e+002, 6.656299e+003
6.483564e+002, 6.657372e+003
6.488385e+002, 6.658088e+003
6.493206e+002, 6.658477e+003
6.498027e+002, 6.658654e+003
6.502849e+002, 6.660278e+003
6.507670e+002, 6.663471e+003
6.512491e+002, 6.665836e+003
6.517312e+002, 6.663673e+003
6.522133e+002, 6.659692e+003
6.526954e+002, 6.658720e+003
6.531776e+002, 6.662406e+003
6.536597e+002, 6.665833e+003
6.541418e+002, 6.665438e+003
6.546239e+002, 6.663391e+003
6.551060e+002, 6.662211e+003
6.555881e+002, 6.662502e+003
6.560703e+002, 6.663748e+003
6.565524e+002, 6.667636e+003
6.570345e+002, 6.671971e+003
6.575166e+002, 6.672463e+003
6.579987e+002, 6.667277e+003
6.584808e+002, 6.662735e+003
6.589630e+002, 6.659760e+003
6.594451e+002, 6.658675e+003
6.599272e+002, 6.662092e+003
6.604093e+002, 6.670040e+003
6.608914e+002, 6.675649e+003
6.613735e+002, 6.673422e+003
6.618557e+002, 6.667107e+003
6.623378e+002, 6.663100e+003
6.628199e+002, 6.661368e+003
6.633020e+002, 6.660989e+003
6.637841e+002, 6.661626e+003
6.642662e+002, 6.663286e+003
6.647484e+002, 6.666724e+003
6.652305e+002, 6.672597e+003
6.657126e+002, 6.676186e+003
6.661947e+002, 6.672811e+003
6.666768e+002, 6.669176e+003
6.671589e+002, 6.670478e+003
6.676411e+002, 6.681885e+003
6.681232e+002, 6.686058e+003
6.686053e+002, 6.679295e+003
6.690874e+002, 6.670146e+003
6.695695e+002, 6.671297e+003
6.700516e+002, 6.682555e+003
6.705338e+002, 6.688424e+003
6.710159e+002, 6.684392e+003
6.714980e+002, 6.677079e+003
6.719801e+002, 6.676604e+003
6.724622e+002, 6.680972e+003
6.729443e+002, 6.684747e+003
6.734265e+002, 6.685086e+003
6.739086e+002, 6.684682e+003
6.743907e+002, 6.685472e+003
6.748728e+002, 6.687096e+003
6.753549e+002, 6.688341e+003
6.758370e+002, 6.689383e+003
6.763192e+002, 6.689563e+003
6.768013e+002, 6.687619e+003
6.772834e+002, 6.683966e+003
6.777655e+002, 6.684243e+003
6.782476e+002, 6.690564e+003
6.787297e+002, 6.696507e+003
6.792119e+002, 6.698524e+003
6.796940e+002, 6.696819e+003
6.801761e+002, 6.694695e+003
6.806582e+002, 6.691920e+003
6.811403e+002, 6.691041e+003
6.816224e+002, 6.695831e+003
6.821046e+002, 6.703569e+003
6.825867e+002, 6.709391e+003
6.830688e+002, 6.712766e+003
6.835509e+002, 6.713662e+003
6.840330e+002, 6.708485e+003
6.845151e+002, 6.702597e+003
6.849973e+002, 6.701644e+003
6.854794e+002, 6.710529e+003
6.859615e+002, 6.718095e+003
6.864436e+002, 6.721865e+003
6.869257e+002, 6.723855e+003
6.874078e+002, 6.726354e+003
6.878900e+002, 6.729731e+003
6.883721e+002, 6.733026e+003
6.888542e+002, 6.736483e+003
6.893363e+002, 6.739394e+003
6.898184e+002, 6.739968e+003
6.903005e+002, 6.738349e+003
6.907827e+002, 6.735855e+003
6.912648e+002, 6.731884e+003
6.917469e+002, 6.728452e+003
6.922290e+002, 6.729110e+003
6.927111e+002, 6.732878e+003
6.931932e+002, 6.736657e+003
6.936754e+002, 6.738000e+003
6.941575e+002, 6.739596e+003
6.946396e+002, 6.743594e+003
6.951217e+002, 6.749687e+003
6.956038e+002, 6.754126e+003
6.960859e+002, 6.754263e+003
6.965681e+002, 6.754705e+003
6.970502e+002, 6.757750e+003
6.975323e+002, 6.763618e+003
6.980144e+002, 6.766225e+003
6.984965e+002, 6.765161e+003
6.989786e+002, 6.762465e+003
6.994608e+002, 6.758906e+003
6.999429e+002, 6.754917e+003
7.004250e+002, 6.753002e+003
7.009071e+002, 6.753486e+003
7.013892e+002, 6.753335e+003
7.018713e+002, 6.747499e+003
7.023535e+002, 6.740555e+003
7.028356e+002, 6.739103e+003
7.033177e+002, 6.746780e+003
7.037998e+002, 6.752469e+003
7.042819e+002, 6.749301e+003
7.047640e+002, 6.743221e+003
7.052462e+002, 6.740647e+003
7.057283e+002, 6.743374e+003
7.062104e+002, 6.747326e+003
7.066925e+002, 6.753757e+003
7.071746e+002, 6.759932e+003
7.076567e+002, 6.760729e+003
7.081389e+002, 6.755740e+003
7.086210e+002, 6.751536e+003
7.091031e+002, 6.749675e+003
7.095852e+002, 6.749187e+003
7.100673e+002, 6.748468e+003
7.105494e+002, 6.747792e+003
7.110316e+002, 6.747943e+003
7.115137e+002, 6.750318e+003
7.119958e+002, 6.752741e+003
7.124779e+002, 6.753407e+003
7.129600e+002, 6.752941e+003
7.134421e+002, 6.753190e+003
7.139243e+002, 6.755314e+003
7.144064e+002, 6.757578e+003
7.148885e+002, 6.760102e+003
7.153706e+002, 6.762572e+003
7.158527e+002, 6.761819e+003
7.163348e+002, 6.756438e+003
7.168170e+002, 6.751987e+003
7.172991e+002, 6.751382e+003
7.177812e+002, 6.753966e+003
7.182633e+002, 6.757033e+003
7.187454e+002, 6.760557e+003
7.192275e+002, 6.763099e+003
7.197097e+002, 6.762124e+003
7.201918e+002, 6.760477e+003
7.206739e+002, 6.762654e+003
7.211560e+002, 6.769020e+003
7.216381e+002, 6.773294e+003
7.221202e+002, 6.770083e+003
7.226024e+002, 6.765507e+003
7.230845e+002, 6.763671e+003
7.235666e+002, 6.765563e+003
7.240487e+002, 6.768337e+003
7.245308e+002, 6.771771e+003
7.250129e+002, 6.776497e+003
7.254951e+002, 6.784349e+003
7.259772e+002, 6.795829e+003
7.264593e+002, 6.801586e+003
7.269414e+002, 6.800275e+003
7.274235e+002, 6.796235e+003
7.279056e+002, 6.792808e+003
7.283878e+002, 6.790554e+003
7.288699e+002, 6.791151e+003
7.293520e+002, 6.795894e+003
7.298341e+002, 6.800703e+003
7.303162e+002, 6.802628e+003
7.307983e+002, 6.803069e+003
7.312805e+002, 6.803823e+003
7.317626e+002, 6.804756e+003
7.322447e+002, 6.806863e+003
7.327268e+002, 6.811565e+003
7.332089e+002, 6.816792e+003
7.336910e+002, 6.818490e+003
7.341732e+002, 6.815385e+003
7.346553e+002, 6.814867e+003
7.351374e+002, 6.818923e+003
7.356195e+002, 6.825741e+003
7.361016e+002, 6.832924e+003
7.365837e+002, 6.840040e+003
7.370659e+002, 6.845205e+003
7.375480e+002, 6.846953e+003
7.380301e+002, 6.847039e+003
7.385122e+002, 6.845675e+003
7.389943e+002, 6.843781e+003
7.394764e+002, 6.843820e+003
7.399586e+002, 6.849368e+003
7.404407e+002, 6.854016e+003
7.409228e+002, 6.854851e+003
7.414049e+002, 6.852825e+003
7.418870e+002, 6.852304e+003
7.423691e+002, 6.854188e+003
7.428513e+002, 6.855152e+003
7.433334e+002, 6.853093e+003
7.438155e+002, 6.849361e+003
7.442976e+002, 6.850444e+003
7.447797e+002, 6.856115e+003
7.452618e+002, 6.861248e+003
7.457440e+002, 6.862315e+003
7.462261e+002, 6.861408e+003
7.467082e+002, 6.860874e+003
7.471903e+002, 6.860719e+003
7.476724e+002, 6.860122e+003
7.481545e+002, 6.855887e+003
7.486367e+002, 6.853502e+003
7.491188e+002, 6.857378e+003
7.496009e+002, 6.868676e+003
7.500830e+002, 6.874878e+003
7.505651e+002, 6.874076e+003
7.510472e+002, 6.871716e+003
7.515294e+002, 6.871051e+003
7.520115e+002, 6.871958e+003
7.524936e+002, 6.871343e+003
7.529757e+002, 6.869092e+003
7.534578e+002, 6.867058e+003
7.539399e+002, 6.867860e+003
7.544221e+002, 6.869571e+003
7.549042e+002, 6.869070e+003
7.553863e+002, 6.865914e+003
7.558684e+002, 6.862765e+003
7.563505e+002, 6.860108e+003
7.568326e+002, 6.858661e+003
7.573148e+002, 6.859104e+003
7.577969e+002, 6.862206e+003
7.582790e+002, 6.865541e+003
7.587611e+002, 6.869235e+003
7.592432e+002, 6.873063e+003
7.597253e+002, 6.877068e+003
7.602075e+002, 6.881276e+003
7.606896e+002, 6.884338e+003
7.611717e+002, 6.886210e+003
7.616538e+002, 6.886342e+003
7.621359e+002, 6.881347e+003
7.626180e+002, 6.874857e+003
7.631002e+002, 6.874263e+003
7.635823e+002, 6.882702e+003
7.640644e+002, 6.891466e+003
7.645465e+002, 6.897271e+003
7.650286e+002, 6.900411e+003
7.655107e+002, 6.901148e+003
7.659929e+002, 6.896229e+003
7.664750e+002, 6.894191e+003
7.669571e+002, 6.896052e+003
7.674392e+002, 6.899931e+003
7.679213e+002, 6.903737e+003
7.684034e+002, 6.907509e+003
7.688856e+002, 6.910526e+003
7.693677e+002, 6.912326e+003
7.698498e+002, 6.914298e+003
7.703319e+002, 6.918638e+003
7.708140e+002, 6.924380e+003
7.712961e+002, 6.929653e+003
7.717783e+002, 6.934000e+003
7.722604e+002, 6.937321e+003
7.727425e+002, 6.939703e+003
7.732246e+002, 6.940909e+003
7.737067e+002, 6.940565e+003
7.741888e+002, 6.936197e+003
7.746710e+002, 6.934015e+003
7.751531e+002, 6.934752e+003
7.756352e+002, 6.937853e+003
7.761173e+002, 6.943022e+003
7.765994e+002, 6.950347e+003
7.770815e+002, 6.956624e+003
7.775637e+002, 6.961149e+003
7.780458e+002, 6.964256e+003
7.785279e+002, 6.965065e+003
7.790100e+002, 6.964869e+003
7.794921e+002, 6.966695e+003
7.799742e+002, 6.976114e+003
7.804564e+002, 6.982647e+003
7.809385e+002, 6.977914e+003
7.814206e+002, 6.967415e+003
7.819027e+002, 6.963325e+003
7.823848e+002, 6.970417e+003
7.828669e+002, 6.977148e+003
7.833491e+002, 6.982722e+003
7.838312e+002, 6.986170e+003
7.843133e+002, 6.983382e+003
7.847954e+002, 6.974615e+003
7.852775e+002, 6.968856e+003
7.857596e+002, 6.970270e+003
7.862418e+002, 6.974778e+003
7.867239e+002, 6.977704e+003
7.872060e+002, 6.979235e+003
7.876881e+002, 6.979861e+003
7.881702e+002, 6.979222e+003
7.886523e+002, 6.978295e+003
7.891345e+002, 6.976860e+003
7.896166e+002, 6.975411e+003
7.900987e+002, 6.975165e+003
7.905808e+002, 6.975470e+003
7.910629e+002, 6.978405e+003
7.915450e+002, 6.985288e+003
7.920272e+002, 6.994440e+003
7.925093e+002, 7.001936e+003
7.929914e+002, 7.007658e+003
7.934735e+002, 7.009016e+003
7.939556e+002, 7.002201e+003
7.944377e+002, 6.993435e+003
7.949199e+002, 6.989828e+003
7.954020e+002, 6.990262e+003
7.958841e+002, 6.991902e+003
7.963662e+002, 6.996551e+003
7.968483e+002, 6.999076e+003
7.973304e+002, 6.995507e+003
7.978126e+002, 6.988355e+003
7.982947e+002, 6.985590e+003
7.987768e+002, 6.988520e+003
7.992589e+002, 6.992416e+003
7.997410e+002, 6.996490e+003
8.002231e+002, 7.000227e+003
8.007053e+002, 7.001993e+003
8.011874e+002, 7.002063e+003
8.016695e+002, 7.001896e+003
8.021516e+002, 7.002039e+003
8.026337e+002, 7.002422e+003
8.031158e+002, 7.002970e+003
8.035980e+002, 7.003693e+003
8.040801e+002, 7.004639e+003
8.045622e+002, 7.004666e+003
8.050443e+002, 7.006283e+003
8.055264e+002, 7.011031e+003
8.060085e+002, 7.017591e+003
8.064907e+002, 7.021235e+003
8.069728e+002, 7.021055e+003
8.074549e+002, 7.022817e+003
8.079370e+002, 7.029877e+003
8.084191e+002, 7.038431e+003
8.089012e+002, 7.040318e+003
8.093834e+002, 7.036760e+003
8.098655e+002, 7.032127e+003
8.103476e+002, 7.025901e+003
8.108297e+002, 7.021845e+003
8.113118e+002, 7.025136e+003
8.117939e+002, 7.032710e+003
8.122761e+002, 7.035232e+003
8.127582e+002, 7.026064e+003
8.132403e+002, 7.019280e+003
8.137224e+002, 7.017981e+003
8.142045e+002, 7.020759e+003
8.146866e+002, 7.023939e+003
8.151688e+002, 7.027481e+003
8.156509e+002, 7.030819e+003
8.161330e+002, 7.034091e+003
8.166151e+002, 7.036554e+003
8.170972e+002, 7.034305e+003
8.175793e+002, 7.030251e+003
8.180615e+002, 7.031913e+003
8.185436e+002, 7.052382e+003
8.190257e+002, 7.068544e+003
8.195078e+002, 7.067044e+003
8.199899e+002, 7.054432e+003
8.204720e+002, 7.049773e+003
8.209542e+002, 7.057523e+003
8.214363e+002, 7.062307e+003
8.219184e+002, 7.060086e+003
8.224005e+002, 7.053791e+003
8.228826e+002, 7.049297e+003
8.233647e+002, 7.046564e+003
8.238469e+002, 7.045645e+003
8.243290e+002, 7.047666e+003
8.248111e+002, 7.049985e+003
8.252932e+002, 7.051018e+003
8.257753e+002, 7.050537e+003
8.262574e+002, 7.048088e+003
8.267396e+002, 7.039485e+003
8.272217e+002, 7.034146e+003
8.277038e+002, 7.034602e+003
8.281859e+002, 7.038605e+003
8.286681e+002, 7.042279e+003
8.291502e+002, 7.045628e+003
8.296323e+002, 7.048509e+003
8.301144e+002, 7.051041e+003
8.305966e+002, 7.052621e+003
8.310787e+002, 7.050985e+003
8.315608e+002, 7.047755e+003
8.320429e+002, 7.047071e+003
8.325250e+002, 7.052675e+003
8.330071e+002, 7.057354e+003
8.334893e+002, 7.055789e+003
8.339714e+002, 7.051530e+003
8.344535e+002, 7.050316e+003
8.349356e+002, 7.054172e+003
8.354177e+002, 7.057551e+003
8.358998e+002, 7.059708e+003
8.363820e+002, 7.061560e+003
8.368641e+002, 7.065099e+003
8.373462e+002, 7.069938e+003
8.378283e+002, 7.072786e+003
8.383104e+002, 7.072701e+003
8.387925e+002, 7.071249e+003
8.392747e+002, 7.068800e+003
8.397568e+002, 7.066333e+003
8.402389e+002, 7.065428e+003
8.407210e+002, 7.068711e+003
8.412031e+002, 7.069407e+003
8.416852e+002, 7.063479e+003
8.421674e+002, 7.056423e+003
8.426495e+002, 7.053446e+003
8.431316e+002, 7.055197e+003
8.436137e+002, 7.058395e+003
8.440958e+002, 7.063506e+003
8.445779e+002, 7.067770e+003
8.450601e+002, 7.068125e+003
8.455422e+002, 7.065269e+003
8.460243e+002, 7.059398e+003
8.465064e+002, 7.049484e+003
8.469885e+002, 7.042815e+003
8.474706e+002, 7.045370e+003
8.479528e+002, 7.051555e+003
8.484349e+002, 7.056683e+003
8.489170e+002, 7.060006e+003
8.493991e+002, 7.062889e+003
8.498812e+002, 7.064982e+003
8.503633e+002, 7.067025e+003
8.508455e+002, 7.070712e+003
8.513276e+002, 7.075264e+003
8.518097e+002, 7.074648e+003
8.522918e+002, 7.068477e+003
8.527739e+002, 7.062087e+003
8.532560e+002, 7.058922e+003
8.537382e+002, 7.058221e+003
8.542203e+002, 7.060872e+003
8.547024e+002, 7.067678e+003
8.551845e+002, 7.069499e+003
8.556666e+002, 7.059354e+003
8.561487e+002, 7.049516e+003
8.566309e+002, 7.046142e+003
8.571130e+002, 7.049194e+003
8.575951e+002, 7.050262e+003
8.580772e+002, 7.049235e+003
8.585593e+002, 7.047403e+003
8.590414e+002, 7.044134e+003
8.595236e+002, 7.041250e+003
8.600057e+002, 7.042312e+003
8.604878e+002, 7.046827e+003
8.609699e+002, 7.051166e+003
8.614520e+002, 7.053745e+003
8.619341e+002, 7.055678e+003
8.624163e+002, 7.057221e+003
8.628984e+002, 7.058507e+003
8.633805e+002, 7.060657e+003
8.638626e+002, 7.064641e+003
8.643447e+002, 7.066143e+003
8.648268e+002, 7.062364e+003
8.653090e+002, 7.055839e+003
8.657911e+002, 7.052533e+003
8.662732e+002, 7.052057e+003
8.667553e+002, 7.053053e+003
8.672374e+002, 7.055737e+003
8.677195e+002, 7.058650e+003
8.682017e+002, 7.061282e+003
8.686838e+002, 7.063359e+003
8.691659e+002, 7.064073e+003
8.696480e+002, 7.063190e+003
8.701301e+002, 7.061372e+003
8.706122e+002, 7.058979e+003
8.710944e+002, 7.055500e+003
8.715765e+002, 7.048810e+003
8.720586e+002, 7.039565e+003
8.725407e+002, 7.032388e+003
8.730228e+002, 7.029068e+003
8.735049e+002, 7.027783e+003
8.739871e+002, 7.029370e+003
8.744692e+002, 7.031228e+003
8.749513e+002, 7.029342e+003
8.754334e+002, 7.017908e+003
8.759155e+002, 7.009521e+003
8.763976e+002, 7.006875e+003
8.768798e+002, 7.006106e+003
8.773619e+002, 7.001089e+003
8.778440e+002, 6.991171e+003
8.783261e+002, 6.990660e+003
8.788082e+002, 7.002854e+003
8.792903e+002, 7.015234e+003
8.797725e+002, 7.011315e+003
8.802546e+002, 7.000089e+003
8.807367e+002, 6.994942e+003
8.812188e+002, 6.999290e+003
8.817009e+002, 7.004153e+003
8.821830e+002, 7.006835e+003
8.826652e+002, 7.008428e+003
8.831473e+002, 7.009610e+003
8.836294e+002, 7.010311e+003
8.841115e+002, 7.011607e+003
8.845936e+002, 7.013984e+003
8.850757e+002, 7.014939e+003
8.855579e+002, 7.010475e+003
8.860400e+002, 7.004022e+003
8.865221e+002, 7.003838e+003
8.870042e+002, 7.009729e+003
8.874863e+002, 7.013835e+003
8.879684e+002, 7.010488e+003
8.884506e+002, 7.005628e+003
8.889327e+002, 7.002253e+003
8.894148e+002, 7.000446e+003
8.898969e+002, 6.999313e+003
8.903790e+002, 6.998874e+003
8.908611e+002, 6.998946e+003
8.913433e+002, 6.999344e+003
8.918254e+002, 7.000127e+003
8.923075e+002, 7.001570e+003
8.927896e+002, 7.003565e+003
8.932717e+002, 7.005896e+003
8.937538e+002, 7.009598e+003
8.942360e+002, 7.012313e+003
8.947181e+002, 7.011045e+003
8.952002e+002, 7.007688e+003
8.956823e+002, 7.007570e+003
8.961644e+002, 7.013207e+003
8.966465e+002, 7.016972e+003
8.971287e+002, 7.016635e+003
8.976108e+002, 7.015321e+003
8.980929e+002, 7.020997e+003
8.985750e+002, 7.031446e+003
8.990571e+002, 7.035342e+003
8.995392e+002, 7.028029e+003
9.000214e+002, 7.018961e+003
9.005035e+002, 7.014327e+003
9.009856e+002, 7.012886e+003
9.014677e+002, 7.013267e+003
9.019498e+002, 7.017534e+003
9.024319e+002, 7.019436e+003
9.029141e+002, 7.018027e+003
9.033962e+002, 7.015635e+003
9.038783e+002, 7.014302e+003
9.043604e+002, 7.013924e+003
9.048425e+002, 7.013645e+003
9.053246e+002, 7.013402e+003
9.058068e+002, 7.012724e+003
9.062889e+002, 7.010610e+003
9.067710e+002, 7.008241e+003
9.072531e+002, 7.006703e+003
9.077352e+002, 7.006144e+003
9.082173e+002, 7.005676e+003
9.086995e+002, 7.004313e+003
9.091816e+002, 7.004224e+003
9.096637e+002, 7.007048e+003
9.101458e+002, 7.012089e+003
9.106279e+002, 7.014495e+003
9.111100e+002, 7.014352e+003
9.115922e+002, 7.013022e+003
9.120743e+002, 7.010141e+003
9.125564e+002, 7.007375e+003
9.130385e+002, 7.006652e+003
9.135206e+002, 7.007521e+003
9.140027e+002, 7.008478e+003
9.144849e+002, 7.008931e+003
9.149670e+002, 7.009803e+003
9.154491e+002, 7.011727e+003
9.159312e+002, 7.013843e+003
9.164133e+002, 7.013339e+003
9.168954e+002, 7.010318e+003
9.173776e+002, 7.011209e+003
9.178597e+002, 7.018940e+003
9.183418e+002, 7.026750e+003
9.188239e+002, 7.027057e+003
9.193060e+002, 7.022699e+003
9.197881e+002, 7.016932e+003
9.202703e+002, 7.006082e+003
9.207524e+002, 7.003595e+003
9.212345e+002, 7.016524e+003
9.217166e+002, 7.032575e+003
9.221987e+002, 7.042029e+003
9.226808e+002, 7.044696e+003
9.231630e+002, 7.044497e+003
9.236451e+002, 7.041257e+003
9.241272e+002, 7.039056e+003
9.246093e+002, 7.042774e+003
9.250914e+002, 7.048566e+003
9.255735e+002, 7.052269e+003
9.260557e+002, 7.053503e+003
9.265378e+002, 7.053754e+003
9.270199e+002, 7.051579e+003
9.275020e+002, 7.050606e+003
9.279841e+002, 7.053209e+003
9.284662e+002, 7.058185e+003
9.289484e+002, 7.056888e+003
9.294305e+002, 7.049426e+003
9.299126e+002, 7.044548e+003
9.303947e+002, 7.048418e+003
9.308768e+002, 7.054862e+003
9.313589e+002, 7.057320e+003
9.318411e+002, 7.056744e+003
9.323232e+002, 7.055112e+003
9.328053e+002, 7.052255e+003
9.332874e+002, 7.049526e+003
9.337695e+002, 7.046699e+003
9.342516e+002, 7.044607e+003
9.347338e+002, 7.044547e+003
9.352159e+002, 7.046530e+003
9.356980e+002, 7.050163e+003
9.361801e+002, 7.055751e+003
9.366622e+002, 7.060920e+003
9.371443e+002, 7.062250e+003
9.376265e+002, 7.062203e+003
9.381086e+002, 7.063916e+003
9.385907e+002, 7.068524e+003
9.390728e+002, 7.072119e+003
9.395549e+002, 7.073607e+003
9.400370e+002, 7.074271e+003
9.405192e+002, 7.074449e+003
9.410013e+002, 7.074176e+003
9.414834e+002, 7.075003e+003
9.419655e+002, 7.076900e+003
9.424476e+002, 7.079378e+003
9.429297e+002, 7.083633e+003
9.434119e+002, 7.087148e+003
9.438940e+002, 7.086791e+003
9.443761e+002, 7.083330e+003
9.448582e+002, 7.080424e+003
9.453403e+002, 7.078215e+003
9.458224e+002, 7.077948e+003
9.463046e+002, 7.081349e+003
9.467867e+002, 7.085806e+003
9.472688e+002, 7.083674e+003
9.477509e+002, 7.076028e+003
9.482330e+002, 7.071936e+003
9.487151e+002, 7.075189e+003
9.491973e+002, 7.079498e+003
9.496794e+002, 7.079458e+003
9.501615e+002, 7.077108e+003
9.506436e+002, 7.074767e+003
9.511257e+002, 7.072018e+003
9.516078e+002, 7.071623e+003
9.520900e+002, 7.074804e+003
9.525721e+002, 7.078450e+003
9.530542e+002, 7.079484e+003
9.535363e+002, 7.078493e+003
9.540184e+002, 7.079275e+003
9.545005e+002, 7.081885e+003
9.549827e+002, 7.084693e+003
9.554648e+002, 7.085913e+003
9.559469e+002, 7.087301e+003
9.564290e+002, 7.089866e+003
9.569111e+002, 7.093659e+003
9.573932e+002, 7.099039e+003
9.578754e+002, 7.107913e+003
9.583575e+002, 7.113331e+003
9.588396e+002, 7.111690e+003
9.593217e+002, 7.106548e+003
9.598038e+002, 7.106517e+003
9.602859e+002, 7.110447e+003
9.607681e+002, 7.114534e+003
9.612502e+002, 7.117742e+003
9.617323e+002, 7.120112e+003
9.622144e+002, 7.122600e+003
9.626965e+002, 7.123878e+003
9.631786e+002, 7.121869e+003
9.636608e+002, 7.114497e+003
9.641429e+002, 7.110522e+003
9.646250e+002, 7.111143e+003
9.651071e+002, 7.112763e+003
9.655892e+002, 7.112761e+003
9.660714e+002, 7.110955e+003
9.665535e+002, 7.105823e+003
9.670356e+002, 7.097482e+003
9.675177e+002, 7.090438e+003
9.679998e+002, 7.086262e+003
9.684819e+002, 7.084873e+003
9.689641e+002, 7.087604e+003
9.694462e+002, 7.093468e+003
9.699283e+002, 7.095056e+003
9.704104e+002, 7.091510e+003
9.708925e+002, 7.089753e+003
9.713746e+002, 7.093252e+003
9.718568e+002, 7.098725e+003
9.723389e+002, 7.101858e+003
9.728210e+002, 7.102974e+003
9.733031e+002, 7.102890e+003
9.737852e+002, 7.099588e+003
9.742673e+002, 7.098048e+003
9.747495e+002, 7.099181e+003
9.752316e+002, 7.102373e+003
9.757137e+002, 7.108260e+003
9.761958e+002, 7.117179e+003
9.766779e+002, 7.121300e+003
9.771600e+002, 7.119905e+003
9.776422e+002, 7.116002e+003
9.781243e+002, 7.111060e+003
9.786064e+002, 7.105841e+003
9.790885e+002, 7.101196e+003
9.795706e+002, 7.097271e+003
9.800527e+002, 7.093139e+003
9.805349e+002, 7.086909e+003
9.810170e+002, 7.083233e+003
9.814991e+002, 7.084479e+003
9.819812e+002, 7.089044e+003
9.824633e+002, 7.091573e+003
9.829454e+002, 7.092273e+003
9.834276e+002, 7.092610e+003
9.839097e+002, 7.093176e+003
9.843918e+002, 7.093504e+003
9.848739e+002, 7.093249e+003
9.853560e+002, 7.092527e+003
9.858381e+002, 7.091432e+003
9.863203e+002, 7.089103e+003
9.868024e+002, 7.088764e+003
9.872845e+002, 7.091249e+003
9.877666e+002, 7.094165e+003
9.882487e+002, 7.095236e+003
9.887308e+002, 7.094822e+003
9.892130e+002, 7.093203e+003
9.896951e+002, 7.090510e+003
9.901772e+002, 7.088975e+003
9.906593e+002, 7.090584e+003
9.911414e+002, 7.092882e+003
9.916235e+002, 7.095000e+003
9.921057e+002, 7.096649e+003
9.925878e+002, 7.096054e+003
9.930699e+002, 7.092689e+003
9.935520e+002, 7.090375e+003
9.940341e+002, 7.090909e+003
9.945162e+002, 7.092235e+003
9.949984e+002, 7.090625e+003
9.954805e+002, 7.087814e+003
9.959626e+002, 7.087318e+003
9.964447e+002, 7.094600e+003
9.969268e+002, 7.096846e+003
9.974089e+002, 7.088567e+003
9.978911e+002, 7.078959e+003
9.983732e+002, 7.077290e+003
9.988553e+002, 7.083306e+003
9.993374e+002, 7.085462e+003
9.998195e+002, 7.083303e+003
1.000302e+003, 7.081572e+003
1.000784e+003, 7.085241e+003
1.001266e+003, 7.089716e+003
1.001748e+003, 7.090775e+003
1.002230e+003, 7.088553e+003
1.002712e+003, 7.087041e+003
1.003194e+003, 7.085659e+003
1.003676e+003, 7.086560e+003
1.004159e+003, 7.090893e+003
1.004641e+003, 7.096763e+003
1.005123e+003, 7.100231e+003
1.005605e+003, 7.102081e+003
1.006087e+003, 7.105317e+003
1.006569e+003, 7.112469e+003
1.007051e+003, 7.116904e+003
1.007533e+003, 7.112669e+003
1.008016e+003, 7.106370e+003
1.008498e+003, 7.104393e+003
1.008980e+003, 7.108137e+003
1.009462e+003, 7.108873e+003
1.009944e+003, 7.106366e+003
1.010426e+003, 7.103068e+003
1.010908e+003, 7.099173e+003
1.011390e+003, 7.096595e+003
1.011872e+003, 7.098191e+003
1.012355e+003, 7.103464e+003
1.012837e+003, 7.110071e+003
1.013319e+003, 7.120284e+003
1.013801e+003, 7.127422e+003
1.014283e+003, 7.128836e+003
1.014765e+003, 7.127558e+003
1.015247e+003, 7.129711e+003
1.015729e+003, 7.134723e+003
1.016211e+003, 7.138307e+003
1.016694e+003, 7.139575e+003
1.017176e+003, 7.139635e+003
1.017658e+003, 7.138730e+003
1.018140e+003, 7.137627e+003
1.018622e+003, 7.137265e+003
1.019104e+003, 7.138111e+003
1.019586e+003, 7.137500e+003
1.020068e+003, 7.134874e+003
1.020551e+003, 7.133076e+003
1.021033e+003, 7.134293e+003
1.021515e+003, 7.137021e+003
1.021997e+003, 7.138020e+003
1.022479e+003, 7.137635e+003
1.022961e+003, 7.136850e+003
1.023443e+003, 7.133912e+003
1.023925e+003, 7.133256e+003
1.024407e+003, 7.136956e+003
1.024890e+003, 7.142898e+003
1.025372e+003, 7.148772e+003
1.025854e+003, 7.154478e+003
1.026336e+003, 7.160851e+003
1.026818e+003, 7.168141e+003
1.027300e+003, 7.173826e+003
1.027782e+003, 7.174193e+003
1.028264e+003, 7.172988e+003
1.028746e+003, 7.174140e+003
1.029229e+003, 7.177940e+003
1.029711e+003, 7.180136e+003
1.030193e+003, 7.179656e+003
1.030675e+003, 7.179364e+003
1.031157e+003, 7.180271e+003
1.031639e+003, 7.181892e+003
1.032121e+003, 7.182679e+003
1.032603e+003, 7.183285e+003
1.033086e+003, 7.185979e+003
1.033568e+003, 7.193358e+003
1.034050e+003, 7.199101e+003
1.034532e+003, 7.198520e+003
1.035014e+003, 7.196456e+003
1.035496e+003, 7.197435e+003
1.035978e+003, 7.202162e+003
1.036460e+003, 7.205155e+003
1.036943e+003, 7.206312e+003
1.037425e+003, 7.207042e+003
1.037907e+003, 7.207432e+003
1.038389e+003, 7.208576e+003
1.038871e+003, 7.211101e+003
1.039353e+003, 7.215286e+003
1.039835e+003, 7.222237e+003
1.040317e+003, 7.234521e+003
1.040799e+003, 7.245419e+003
1.041281e+003, 7.254058e+003
1.041764e+003, 7.260639e+003
1.042246e+003, 7.264137e+003
1.042728e+003, 7.265908e+003
1.043210e+003, 7.270818e+003
1.043692e+003, 7.280168e+003
1.044174e+003, 7.289214e+003
1.044656e+003, 7.293067e+003
1.045138e+003, 7.297881e+003
1.045621e+003, 7.308409e+003
1.046103e+003, 7.324038e+003
1.046585e+003, 7.336141e+003
1.047067e+003, 7.344276e+003
1.047549e+003, 7.354657e+003
1.048031e+003, 7.370798e+003
1.048513e+003, 7.389343e+003
1.048995e+003, 7.404928e+003
1.049478e+003, 7.420234e+003
1.049960e+003, 7.439823e+003
1.050442e+003, 7.470019e+003
1.050924e+003, 7.496249e+003
1.051406e+003, 7.516580e+003
1.051888e+003, 7.536710e+003
1.052370e+003, 7.563470e+003
1.052852e+003, 7.594603e+003
1.053334e+003, 7.620494e+003
1.053817e+003, 7.641776e+003
1.054299e+003, 7.667862e+003
1.054781e+003, 7.709589e+003
1.055263e+003, 7.751383e+003
1.055745e+003, 7.786222e+003
1.056227e+003, 7.816243e+003
1.056709e+003, 7.846627e+003
1.057191e+003, 7.877550e+003
1.057673e+003, 7.904364e+003
1.058156e+003, 7.925413e+003
1.058638e+003, 7.945200e+003
1.059120e+003, 7.972993e+003
1.059602e+003, 7.999601e+003
1.060084e+003, 8.015060e+003
1.060566e+003, 8.016835e+003
1.061048e+003, 8.011545e+003
1.061530e+003, 7.999687e+003
1.062013e+003, 7.980812e+003
1.062495e+003, 7.952682e+003
1.062977e+003, 7.918990e+003
1.063459e+003, 7.888942e+003
1.063941e+003, 7.860671e+003
1.064423e+003, 7.828014e+003
1.064905e+003, 7.788013e+003
1.065387e+003, 7.743901e+003
1.065870e+003, 7.691753e+003
1.066352e+003, 7.640242e+003
1.066834e+003, 7.597287e+003
1.067316e+003, 7.563287e+003
1.067798e+003, 7.528830e+003
1.068280e+003, 7.493483e+003
1.068762e+003, 7.460614e+003
1.069244e+003, 7.434729e+003
1.069726e+003, 7.409834e+003
1.070208e+003, 7.379476e+003
1.070691e+003, 7.345886e+003
1.071173e+003, 7.320507e+003
1.071655e+003, 7.304583e+003
1.072137e+003, 7.293601e+003
1.072619e+003, 7.287990e+003
1.073101e+003, 7.282917e+003
1.073583e+003, 7.270778e+003
1.074065e+003, 7.255149e+003
1.074548e+003, 7.241001e+003
1.075030e+003, 7.229009e+003
1.075512e+003, 7.220769e+003
1.075994e+003, 7.220044e+003
1.076476e+003, 7.218996e+003
1.076958e+003, 7.214552e+003
1.077440e+003, 7.207444e+003
1.077922e+003, 7.199962e+003
1.078405e+003, 7.192205e+003
1.078887e+003, 7.184335e+003
1.079369e+003, 7.174491e+003
1.079851e+003, 7.167934e+003
1.080333e+003, 7.171779e+003
1.080815e+003, 7.177873e+003
1.081297e+003, 7.177012e+003
1.081779e+003, 7.167654e+003
1.082261e+003, 7.159735e+003
1.082744e+003, 7.153125e+003
1.083226e+003, 7.148596e+003
1.083708e+003, 7.148059e+003
1.084190e+003, 7.148725e+003
1.084672e+003, 7.146436e+003
1.085154e+003, 7.142735e+003
1.085636e+003, 7.143482e+003
1.086118e+003, 7.153431e+003
1.086601e+003, 7.159336e+003
1.087083e+003, 7.159212e+003
1.087565e+003, 7.155659e+003
1.088047e+003, 7.149648e+003
1.088529e+003, 7.143346e+003
1.089011e+003, 7.142312e+003
1.089493e+003, 7.147102e+003
1.089975e+003, 7.150340e+003
1.090458e+003, 7.147689e+003
1.090940e+003, 7.144217e+003
1.091422e+003, 7.141466e+003
1.091904e+003, 7.139399e+003
1.092386e+003, 7.137631e+003
1.092868e+003, 7.136368e+003
1.093350e+003, 7.137805e+003
1.093832e+003, 7.144027e+003
1.094314e+003, 7.148308e+003
1.094797e+003, 7.145064e+003
1.095279e+003, 7.138412e+003
1.095761e+003, 7.131197e+003
1.096243e+003, 7.123413e+003
1.096725e+003, 7.120814e+003
1.097207e+003, 7.123823e+003
1.097689e+003, 7.128076e+003
1.098171e+003, 7.132688e+003
1.098653e+003, 7.135802e+003
1.099136e+003, 7.134213e+003
1.099618e+003, 7.129808e+003
1.100100e+003, 7.126200e+003
1.100582e+003, 7.123639e+003
1.101064e+003, 7.122685e+003
1.101546e+003, 7.123354e+003
1.102028e+003, 7.125368e+003
1.102510e+003, 7.128997e+003
1.102993e+003, 7.133543e+003
1.103475e+003, 7.138490e+003
1.103957e+003, 7.143340e+003
1.104439e+003, 7.145380e+003
1.104921e+003, 7.141209e+003
1.105403e+003, 7.136893e+003
1.105885e+003, 7.133756e+003
1.106367e+003, 7.131688e+003
1.106849e+003, 7.130865e+003
1.107332e+003, 7.131103e+003
1.107814e+003, 7.130633e+003
1.108296e+003, 7.129016e+003
1.108778e+003, 7.129686e+003
1.109260e+003, 7.139897e+003
1.109742e+003, 7.148351e+003
1.110224e+003, 7.145278e+003
1.110706e+003, 7.133817e+003
1.111188e+003, 7.131622e+003
1.111671e+003, 7.138847e+003
1.112153e+003, 7.143427e+003
1.112635e+003, 7.140177e+003
1.113117e+003, 7.136206e+003
1.113599e+003, 7.139960e+003
1.114081e+003, 7.146177e+003
1.114563e+003, 7.148467e+003
1.115045e+003, 7.145347e+003
1.115528e+003, 7.142237e+003
1.116010e+003, 7.138782e+003
1.116492e+003, 7.136851e+003
1.116974e+003, 7.138672e+003
1.117456e+003, 7.141717e+003
1.117938e+003, 7.141205e+003
1.118420e+003, 7.138912e+003
1.118902e+003, 7.138552e+003
1.119385e+003, 7.145835e+003
1.119867e+003, 7.147948e+003
1.120349e+003, 7.143127e+003
1.120831e+003, 7.135677e+003
1.121313e+003, 7.127953e+003
1.121795e+003, 7.121039e+003
1.122277e+003, 7.118305e+003
1.122759e+003, 7.119403e+003
1.123241e+003, 7.121790e+003
1.123724e+003, 7.125117e+003
1.124206e+003, 7.128412e+003
1.124688e+003, 7.131151e+003
1.125170e+003, 7.133806e+003
1.125652e+003, 7.138720e+003
1.126134e+003, 7.144804e+003
1.126616e+003, 7.142455e+003
1.127098e+003, 7.130257e+003
1.127580e+003, 7.120407e+003
1.128063e+003, 7.124307e+003
1.128545e+003, 7.130244e+003
1.129027e+003, 7.130588e+003
1.129509e+003, 7.127058e+003
1.129991e+003, 7.125821e+003
1.130473e+003, 7.127019e+003
1.130955e+003, 7.126722e+003
1.131437e+003, 7.123374e+003
1.131920e+003, 7.120721e+003
1.132402e+003, 7.123132e+003
1.132884e+003, 7.127429e+003
1.133366e+003, 7.130596e+003
1.133848e+003, 7.132297e+003
1.134330e+003, 7.133521e+003
1.134812e+003, 7.133940e+003
1.135294e+003, 7.135575e+003
1.135776e+003, 7.139989e+003
1.136259e+003, 7.144733e+003
1.136741e+003, 7.145428e+003
1.137223e+003, 7.144560e+003
1.137705e+003, 7.146260e+003
1.138187e+003, 7.153409e+003
1.138669e+003, 7.158231e+003
1.139151e+003, 7.160073e+003
1.139633e+003, 7.160945e+003
1.140115e+003, 7.162110e+003
1.140598e+003, 7.163292e+003
1.141080e+003, 7.163106e+003
1.141562e+003, 7.162489e+003
1.142044e+003, 7.164038e+003
1.142526e+003, 7.174298e+003
1.143008e+003, 7.178385e+003
1.143490e+003, 7.173178e+003
1.143972e+003, 7.164399e+003
1.144455e+003, 7.155547e+003
1.144937e+003, 7.148118e+003
1.145419e+003, 7.148650e+003
1.145901e+003, 7.156300e+003
1.146383e+003, 7.163064e+003
1.146865e+003, 7.164803e+003
1.147347e+003, 7.165146e+003
1.147829e+003, 7.165403e+003
1.148312e+003, 7.164964e+003
1.148794e+003, 7.161505e+003
1.149276e+003, 7.155954e+003
1.149758e+003, 7.155737e+003
1.150240e+003, 7.161766e+003
1.150722e+003, 7.167475e+003
1.151204e+003, 7.167053e+003
1.151686e+003, 7.166708e+003
1.152168e+003, 7.170485e+003
1.152651e+003, 7.176753e+003
1.153133e+003, 7.181000e+003
1.153615e+003, 7.183235e+003
1.154097e+003, 7.184475e+003
1.154579e+003, 7.184746e+003
1.155061e+003, 7.184866e+003
1.155543e+003, 7.184927e+003
1.156025e+003, 7.185526e+003
1.156507e+003, 7.187681e+003
1.156990e+003, 7.191115e+003
1.157472e+003, 7.193302e+003
1.157954e+003, 7.194229e+003
1.158436e+003, 7.194351e+003
1.158918e+003, 7.193272e+003
1.159400e+003, 7.192957e+003
1.159882e+003, 7.195798e+003
1.160364e+003, 7.200324e+003
1.160847e+003, 7.205140e+003
1.161329e+003, 7.210346e+003
1.161811e+003, 7.214214e+003
1.162293e+003, 7.216766e+003
1.162775e+003, 7.217421e+003
1.163257e+003, 7.214393e+003
1.163739e+003, 7.211050e+003
1.164221e+003, 7.211793e+003
1.164703e+003, 7.215049e+003
1.165186e+003, 7.218360e+003
1.165668e+003, 7.221914e+003
1.166150e+003, 7.223599e+003
1.166632e+003, 7.223122e+003
1.167114e+003, 7.221650e+003
1.167596e+003, 7.218656e+003
1.168078e+003, 7.216074e+003
1.168560e+003, 7.218183e+003
1.169042e+003, 7.223341e+003
1.169525e+003, 7.227119e+003
1.170007e+003, 7.229138e+003
1.170489e+003, 7.227794e+003
1.170971e+003, 7.221347e+003
1.171453e+003, 7.215904e+003
1.171935e+003, 7.219045e+003
1.172417e+003, 7.226602e+003
1.172899e+003, 7.231109e+003
1.173382e+003, 7.232479e+003
1.173864e+003, 7.231741e+003
1.174346e+003, 7.226478e+003
1.174828e+003, 7.223086e+003
1.175310e+003, 7.222568e+003
1.175792e+003, 7.223866e+003
1.176274e+003, 7.225802e+003
1.176756e+003, 7.228398e+003
1.177239e+003, 7.232740e+003
1.177721e+003, 7.238540e+003
1.178203e+003, 7.241817e+003
1.178685e+003, 7.237362e+003
1.179167e+003, 7.234885e+003
1.179649e+003, 7.237403e+003
1.180131e+003, 7.242035e+003
1.180613e+003, 7.243228e+003
1.181095e+003, 7.242295e+003
1.181578e+003, 7.243205e+003
1.182060e+003, 7.246624e+003
1.182542e+003, 7.250589e+003
1.183024e+003, 7.256813e+003
1.183506e+003, 7.260135e+003
1.183988e+003, 7.257471e+003
1.184470e+003, 7.252007e+003
1.184952e+003, 7.252854e+003
1.185434e+003, 7.257974e+003
1.185917e+003, 7.259246e+003
1.186399e+003, 7.253646e+003
1.186881e+003, 7.250491e+003
1.187363e+003, 7.255845e+003
1.187845e+003, 7.263295e+003
1.188327e+003, 7.270634e+003
1.188809e+003, 7.277125e+003
1.189291e+003, 7.279637e+003
1.189774e+003, 7.278740e+003
1.190256e+003, 7.277193e+003
1.190738e+003, 7.275437e+003
1.191220e+003, 7.274196e+003
1.191702e+003, 7.273226e+003
1.192184e+003, 7.273462e+003
1.192666e+003, 7.275580e+003
1.193148e+003, 7.279389e+003
1.193630e+003, 7.284784e+003
1.194113e+003, 7.291111e+003
1.194595e+003, 7.294188e+003
1.195077e+003, 7.289882e+003
1.195559e+003, 7.286532e+003
1.196041e+003, 7.291264e+003
1.196523e+003, 7.296114e+003
1.197005e+003, 7.294109e+003
1.197487e+003, 7.285841e+003
1.197969e+003, 7.281135e+003
1.198452e+003, 7.279721e+003
1.198934e+003, 7.279070e+003
1.199416e+003, 7.276927e+003
1.199898e+003, 7.276503e+003
1.200380e+003, 7.281683e+003
1.200862e+003, 7.287652e+003
1.201344e+003, 7.289266e+003
1.201826e+003, 7.286554e+003
1.202309e+003, 7.285275e+003
1.202791e+003, 7.285432e+003
1.203273e+003, 7.286634e+003
1.203755e+003, 7.289168e+003
1.204237e+003, 7.292077e+003
1.204719e+003, 7.296128e+003
1.205201e+003, 7.299356e+003
1.205683e+003, 7.299087e+003
1.206166e+003, 7.295356e+003
1.206648e+003, 7.290132e+003
1.207130e+003, 7.283786e+003
1.207612e+003, 7.280700e+003
1.208094e+003, 7.285505e+003
1.208576e+003, 7.292376e+003
1.209058e+003, 7.300787e+003
1.209540e+003, 7.307834e+003
1.210022e+003, 7.308343e+003
1.210505e+003, 7.302615e+003
1.210987e+003, 7.298792e+003
1.211469e+003, 7.297487e+003
1.211951e+003, 7.298472e+003
1.212433e+003, 7.305299e+003
1.212915e+003, 7.310513e+003
1.213397e+003, 7.307894e+003
1.213879e+003, 7.302100e+003
1.214361e+003, 7.301451e+003
1.214844e+003, 7.305502e+003
1.215326e+003, 7.306175e+003
1.215808e+003, 7.302538e+003
1.216290e+003, 7.299055e+003
1.216772e+003, 7.297629e+003
1.217254e+003, 7.298456e+003
1.217736e+003, 7.303015e+003
1.218218e+003, 7.309054e+003
1.218701e+003, 7.311224e+003
1.219183e+003, 7.310021e+003
1.219665e+003, 7.312963e+003
1.220147e+003, 7.321403e+003
1.220629e+003, 7.327604e+003
1.221111e+003, 7.324164e+003
1.221593e+003, 7.319506e+003
1.222075e+003, 7.318624e+003
1.222557e+003, 7.319614e+003
1.223040e+003, 7.316350e+003
1.223522e+003, 7.309811e+003
1.224004e+003, 7.308633e+003
1.224486e+003, 7.314985e+003
1.224968e+003, 7.320068e+003
1.225450e+003, 7.317359e+003
1.225932e+003, 7.313103e+003
1.226414e+003, 7.310265e+003
1.226896e+003, 7.308709e+003
1.227379e+003, 7.307677e+003
1.227861e+003, 7.307413e+003
1.228343e+003, 7.309580e+003
1.228825e+003, 7.315091e+003
1.229307e+003, 7.319347e+003
1.229789e+003, 7.319459e+003
1.230271e+003, 7.317686e+003
1.230753e+003, 7.314530e+003
1.231236e+003, 7.310750e+003
1.231718e+003, 7.308612e+003
1.232200e+003, 7.308154e+003
1.232682e+003, 7.310385e+003
1.233164e+003, 7.316339e+003
1.233646e+003, 7.321068e+003
1.234128e+003, 7.322530e+003
1.234610e+003, 7.321563e+003
1.235093e+003, 7.318203e+003
1.235575e+003, 7.313073e+003
1.236057e+003, 7.307080e+003
1.236539e+003, 7.301085e+003
1.237021e+003, 7.297886e+003
1.237503e+003, 7.298420e+003
1.237985e+003, 7.301531e+003
1.238467e+003, 7.310459e+003
1.238949e+003, 7.317256e+003
1.239432e+003, 7.317435e+003
1.239914e+003, 7.313597e+003
1.240396e+003, 7.313645e+003
1.240878e+003, 7.316292e+003
1.241360e+003, 7.317963e+003
1.241842e+003, 7.317139e+003
1.242324e+003, 7.316783e+003
1.242806e+003, 7.317000e+003
1.243288e+003, 7.318792e+003
1.243771e+003, 7.323604e+003
1.244253e+003, 7.329610e+003
1.244735e+003, 7.332682e+003
1.245217e+003, 7.333209e+003
1.245699e+003, 7.331809e+003
1.246181e+003, 7.327393e+003
1.246663e+003, 7.324960e+003
1.247145e+003, 7.325742e+003
1.247628e+003, 7.326688e+003
1.248110e+003, 7.325091e+003
1.248592e+003, 7.323607e+003
1.249074e+003, 7.330283e+003
1.249556e+003, 7.340692e+003
1.250038e+003, 7.346132e+003
1.250520e+003, 7.341851e+003
1.251002e+003, 7.338149e+003
1.251484e+003, 7.334611e+003
1.251967e+003, 7.334486e+003
1.252449e+003, 7.342088e+003
1.252931e+003, 7.351539e+003
1.253413e+003, 7.352990e+003
1.253895e+003, 7.349640e+003
1.254377e+003, 7.346984e+003
1.254859e+003, 7.346116e+003
1.255341e+003, 7.345646e+003
1.255823e+003, 7.345253e+003
1.256306e+003, 7.346716e+003
1.256788e+003, 7.353092e+003
1.257270e+003, 7.359463e+003
1.257752e+003, 7.358205e+003
1.258234e+003, 7.353558e+003
1.258716e+003, 7.352725e+003
1.259198e+003, 7.357816e+003
1.259680e+003, 7.360919e+003
1.260163e+003, 7.362198e+003
1.260645e+003, 7.360785e+003
1.261127e+003, 7.353821e+003
1.261609e+003, 7.347042e+003
1.262091e+003, 7.347524e+003
1.262573e+003, 7.350421e+003
1.263055e+003, 7.348467e+003
1.263537e+003, 7.340387e+003
1.264020e+003, 7.335681e+003
1.264502e+003, 7.334257e+003
1.264984e+003, 7.335556e+003
1.265466e+003, 7.341336e+003
1.265948e+003, 7.346929e+003
1.266430e+003, 7.348289e+003
1.266912e+003, 7.348315e+003
1.267394e+003, 7.350642e+003
1.267876e+003, 7.355254e+003
1.268359e+003, 7.358278e+003
1.268841e+003, 7.359653e+003
1.269323e+003, 7.358756e+003
1.269805e+003, 7.352362e+003
1.270287e+003, 7.347565e+003
1.270769e+003, 7.349300e+003
1.271251e+003, 7.352648e+003
1.271733e+003, 7.354081e+003
1.272215e+003, 7.353783e+003
1.272698e+003, 7.352346e+003
1.273180e+003, 7.350130e+003
1.273662e+003, 7.348650e+003
1.274144e+003, 7.350963e+003
1.274626e+003, 7.350430e+003
1.275108e+003, 7.342927e+003
1.275590e+003, 7.336482e+003
1.276072e+003, 7.339133e+003
1.276555e+003, 7.347567e+003
1.277037e+003, 7.350483e+003
1.277519e+003, 7.349375e+003
1.278001e+003, 7.348737e+003
1.278483e+003, 7.348792e+003
1.278965e+003, 7.352133e+003
1.279447e+003, 7.360144e+003
1.279929e+003, 7.367815e+003
1.280411e+003, 7.371828e+003
1.280894e+003, 7.372497e+003
1.281376e+003, 7.367726e+003
1.281858e+003, 7.360570e+003
1.282340e+003, 7.358044e+003
1.282822e+003, 7.364771e+003
1.283304e+003, 7.370113e+003
1.283786e+003, 7.374275e+003
1.284268e+003, 7.376296e+003
1.284750e+003, 7.373768e+003
1.285233e+003, 7.370363e+003
1.285715e+003, 7.369522e+003
1.286197e+003, 7.371171e+003
1.286679e+003, 7.375565e+003
1.287161e+003, 7.383308e+003
1.287643e+003, 7.390710e+003
1.288125e+003, 7.397789e+003
1.288607e+003, 7.402377e+003
1.289090e+003, 7.402238e+003
1.289572e+003, 7.399882e+003
1.290054e+003, 7.395287e+003
1.290536e+003, 7.390459e+003
1.291018e+003, 7.387958e+003
1.291500e+003, 7.387854e+003
1.291982e+003, 7.387069e+003
1.292464e+003, 7.385774e+003
1.292947e+003, 7.385472e+003
1.293429e+003, 7.389154e+003
1.293911e+003, 7.391159e+003
1.294393e+003, 7.387856e+003
1.294875e+003, 7.383306e+003
1.295357e+003, 7.379956e+003
1.295839e+003, 7.377744e+003
1.296321e+003, 7.377575e+003
1.296803e+003, 7.379185e+003
1.297286e+003, 7.380972e+003
1.297768e+003, 7.381691e+003
1.298250e+003, 7.383947e+003
1.298732e+003, 7.389190e+003
1.299214e+003, 7.394213e+003
1.299696e+003, 7.395962e+003
1.300178e+003, 7.395644e+003
1.300660e+003, 7.398403e+003
##END=



