##NAMES=Hydrotalcite
##RRUFFID=R060527
##IDEAL CHEMISTRY=Mg_6_Al_2_CO_3_(OH)_16_(H_2_O)_4_
##LOCALITY=Jacupiranga Pegmatite, Sao Paulo State, Brazil
##OWNER=RRUFF
##SOURCE=Michael Scott
##DESCRIPTION=Orange hexagonal prisms topped with steep pyramids
##STATUS=The identification of this mineral has been confirmed only by single crystal X-ray diffraction.
##URL=rruff.info/R060527
8.806445e+001, 9.023799e+002
8.854657e+001, 9.005338e+002
8.902869e+001, 8.999368e+002
8.951080e+001, 9.018359e+002
8.999292e+001, 9.044399e+002
9.047504e+001, 9.056579e+002
9.095715e+001, 9.047488e+002
9.143927e+001, 9.032781e+002
9.192139e+001, 9.035656e+002
9.240350e+001, 9.055311e+002
9.288562e+001, 9.076830e+002
9.336774e+001, 9.037140e+002
9.384985e+001, 8.881007e+002
9.433197e+001, 8.614471e+002
9.481409e+001, 8.353627e+002
9.529620e+001, 8.088483e+002
9.577832e+001, 7.856625e+002
9.626044e+001, 7.662919e+002
9.674255e+001, 7.497377e+002
9.722467e+001, 7.348120e+002
9.770679e+001, 7.213892e+002
9.818890e+001, 7.091768e+002
9.867102e+001, 6.984913e+002
9.915314e+001, 6.882780e+002
9.963525e+001, 6.773601e+002
1.001174e+002, 6.651163e+002
1.005995e+002, 6.521819e+002
1.010816e+002, 6.408876e+002
1.015637e+002, 6.314776e+002
1.020458e+002, 6.234164e+002
1.025280e+002, 6.167293e+002
1.030101e+002, 6.111581e+002
1.034922e+002, 6.062740e+002
1.039743e+002, 6.017363e+002
1.044564e+002, 5.975301e+002
1.049385e+002, 5.952137e+002
1.054207e+002, 5.972086e+002
1.059028e+002, 5.985097e+002
1.063849e+002, 5.964296e+002
1.068670e+002, 5.909088e+002
1.073491e+002, 5.834977e+002
1.078312e+002, 5.747858e+002
1.083134e+002, 5.649417e+002
1.087955e+002, 5.569736e+002
1.092776e+002, 5.519311e+002
1.097597e+002, 5.487592e+002
1.102418e+002, 5.461086e+002
1.107239e+002, 5.439589e+002
1.112061e+002, 5.419518e+002
1.116882e+002, 5.395169e+002
1.121703e+002, 5.367940e+002
1.126524e+002, 5.346390e+002
1.131345e+002, 5.340234e+002
1.136166e+002, 5.348129e+002
1.140988e+002, 5.347423e+002
1.145809e+002, 5.329188e+002
1.150630e+002, 5.305897e+002
1.155451e+002, 5.281881e+002
1.160272e+002, 5.258187e+002
1.165093e+002, 5.237068e+002
1.169915e+002, 5.222263e+002
1.174736e+002, 5.217430e+002
1.179557e+002, 5.209201e+002
1.184378e+002, 5.192595e+002
1.189199e+002, 5.175292e+002
1.194020e+002, 5.160735e+002
1.198842e+002, 5.150513e+002
1.203663e+002, 5.146305e+002
1.208484e+002, 5.152054e+002
1.213305e+002, 5.174388e+002
1.218126e+002, 5.200814e+002
1.222947e+002, 5.240265e+002
1.227769e+002, 5.281346e+002
1.232590e+002, 5.308046e+002
1.237411e+002, 5.311193e+002
1.242232e+002, 5.296208e+002
1.247053e+002, 5.288379e+002
1.251874e+002, 5.288506e+002
1.256696e+002, 5.292742e+002
1.261517e+002, 5.297083e+002
1.266338e+002, 5.303300e+002
1.271159e+002, 5.319656e+002
1.275980e+002, 5.355027e+002
1.280801e+002, 5.404456e+002
1.285623e+002, 5.447913e+002
1.290444e+002, 5.479484e+002
1.295265e+002, 5.508536e+002
1.300086e+002, 5.545484e+002
1.304907e+002, 5.591780e+002
1.309728e+002, 5.638303e+002
1.314550e+002, 5.675964e+002
1.319371e+002, 5.710658e+002
1.324192e+002, 5.750301e+002
1.329013e+002, 5.797285e+002
1.333834e+002, 5.851591e+002
1.338655e+002, 5.913479e+002
1.343477e+002, 5.984552e+002
1.348298e+002, 6.062161e+002
1.353119e+002, 6.145692e+002
1.357940e+002, 6.233478e+002
1.362761e+002, 6.322048e+002
1.367582e+002, 6.407755e+002
1.372404e+002, 6.489764e+002
1.377225e+002, 6.581209e+002
1.382046e+002, 6.689109e+002
1.386867e+002, 6.800077e+002
1.391688e+002, 6.910575e+002
1.396509e+002, 7.020375e+002
1.401331e+002, 7.130488e+002
1.406152e+002, 7.242324e+002
1.410973e+002, 7.352347e+002
1.415794e+002, 7.477181e+002
1.420615e+002, 7.620241e+002
1.425436e+002, 7.772336e+002
1.430258e+002, 7.927981e+002
1.435079e+002, 8.086168e+002
1.439900e+002, 8.251530e+002
1.444721e+002, 8.431193e+002
1.449542e+002, 8.632087e+002
1.454363e+002, 8.831490e+002
1.459185e+002, 9.027438e+002
1.464006e+002, 9.222662e+002
1.468827e+002, 9.422656e+002
1.473648e+002, 9.630079e+002
1.478469e+002, 9.837267e+002
1.483290e+002, 1.003281e+003
1.488112e+002, 1.021938e+003
1.492933e+002, 1.039171e+003
1.497754e+002, 1.054757e+003
1.502575e+002, 1.068722e+003
1.507396e+002, 1.081543e+003
1.512217e+002, 1.093785e+003
1.517039e+002, 1.103988e+003
1.521860e+002, 1.111000e+003
1.526681e+002, 1.114766e+003
1.531502e+002, 1.116199e+003
1.536323e+002, 1.116324e+003
1.541144e+002, 1.115204e+003
1.545966e+002, 1.111029e+003
1.550787e+002, 1.101924e+003
1.555608e+002, 1.090105e+003
1.560429e+002, 1.076714e+003
1.565250e+002, 1.061889e+003
1.570071e+002, 1.045974e+003
1.574893e+002, 1.029484e+003
1.579714e+002, 1.012687e+003
1.584535e+002, 9.944515e+002
1.589356e+002, 9.744629e+002
1.594177e+002, 9.532328e+002
1.598998e+002, 9.309431e+002
1.603820e+002, 9.077625e+002
1.608641e+002, 8.839871e+002
1.613462e+002, 8.604387e+002
1.618283e+002, 8.374915e+002
1.623104e+002, 8.142365e+002
1.627925e+002, 7.902012e+002
1.632747e+002, 7.660206e+002
1.637568e+002, 7.421355e+002
1.642389e+002, 7.189040e+002
1.647210e+002, 6.962409e+002
1.652031e+002, 6.740247e+002
1.656852e+002, 6.515721e+002
1.661674e+002, 6.302639e+002
1.666495e+002, 6.101631e+002
1.671316e+002, 5.913345e+002
1.676137e+002, 5.741124e+002
1.680958e+002, 5.586236e+002
1.685779e+002, 5.448371e+002
1.690601e+002, 5.322327e+002
1.695422e+002, 5.205311e+002
1.700243e+002, 5.099808e+002
1.705064e+002, 5.010941e+002
1.709885e+002, 4.935812e+002
1.714706e+002, 4.861699e+002
1.719528e+002, 4.777959e+002
1.724349e+002, 4.690273e+002
1.729170e+002, 4.619273e+002
1.733991e+002, 4.571872e+002
1.738812e+002, 4.535032e+002
1.743633e+002, 4.501115e+002
1.748455e+002, 4.470141e+002
1.753276e+002, 4.438207e+002
1.758097e+002, 4.402540e+002
1.762918e+002, 4.364060e+002
1.767739e+002, 4.324180e+002
1.772560e+002, 4.282292e+002
1.777382e+002, 4.239886e+002
1.782203e+002, 4.200168e+002
1.787024e+002, 4.164711e+002
1.791845e+002, 4.127097e+002
1.796666e+002, 4.083121e+002
1.801487e+002, 4.035591e+002
1.806309e+002, 3.987881e+002
1.811130e+002, 3.941427e+002
1.815951e+002, 3.895551e+002
1.820772e+002, 3.847589e+002
1.825593e+002, 3.796635e+002
1.830414e+002, 3.745184e+002
1.835236e+002, 3.692929e+002
1.840057e+002, 3.641051e+002
1.844878e+002, 3.591352e+002
1.849699e+002, 3.545206e+002
1.854520e+002, 3.502027e+002
1.859341e+002, 3.458100e+002
1.864163e+002, 3.412549e+002
1.868984e+002, 3.367224e+002
1.873805e+002, 3.319723e+002
1.878626e+002, 3.272638e+002
1.883447e+002, 3.230290e+002
1.888268e+002, 3.195618e+002
1.893090e+002, 3.168595e+002
1.897911e+002, 3.143665e+002
1.902732e+002, 3.123245e+002
1.907553e+002, 3.102469e+002
1.912374e+002, 3.078629e+002
1.917195e+002, 3.053212e+002
1.922017e+002, 3.029813e+002
1.926838e+002, 3.011626e+002
1.931659e+002, 2.998864e+002
1.936480e+002, 2.982437e+002
1.941301e+002, 2.958146e+002
1.946122e+002, 2.935040e+002
1.950944e+002, 2.917667e+002
1.955765e+002, 2.905241e+002
1.960586e+002, 2.893694e+002
1.965407e+002, 2.879594e+002
1.970228e+002, 2.862834e+002
1.975049e+002, 2.849253e+002
1.979871e+002, 2.839440e+002
1.984692e+002, 2.831815e+002
1.989513e+002, 2.825840e+002
1.994334e+002, 2.821387e+002
1.999155e+002, 2.818035e+002
2.003976e+002, 2.816075e+002
2.008798e+002, 2.815208e+002
2.013619e+002, 2.812363e+002
2.018440e+002, 2.805525e+002
2.023261e+002, 2.797876e+002
2.028082e+002, 2.792415e+002
2.032903e+002, 2.789391e+002
2.037725e+002, 2.786944e+002
2.042546e+002, 2.784821e+002
2.047367e+002, 2.782229e+002
2.052188e+002, 2.776713e+002
2.057009e+002, 2.765708e+002
2.061830e+002, 2.752397e+002
2.066652e+002, 2.741113e+002
2.071473e+002, 2.732325e+002
2.076294e+002, 2.723973e+002
2.081115e+002, 2.715394e+002
2.085936e+002, 2.706272e+002
2.090757e+002, 2.695685e+002
2.095579e+002, 2.681938e+002
2.100400e+002, 2.667094e+002
2.105221e+002, 2.655847e+002
2.110042e+002, 2.650223e+002
2.114863e+002, 2.643531e+002
2.119685e+002, 2.632704e+002
2.124506e+002, 2.618769e+002
2.129327e+002, 2.602994e+002
2.134148e+002, 2.585767e+002
2.138969e+002, 2.567116e+002
2.143790e+002, 2.546472e+002
2.148612e+002, 2.519556e+002
2.153433e+002, 2.498085e+002
2.158254e+002, 2.489841e+002
2.163075e+002, 2.487874e+002
2.167896e+002, 2.482249e+002
2.172717e+002, 2.466751e+002
2.177539e+002, 2.443988e+002
2.182360e+002, 2.426110e+002
2.187181e+002, 2.417569e+002
2.192002e+002, 2.408372e+002
2.196823e+002, 2.395436e+002
2.201644e+002, 2.380539e+002
2.206466e+002, 2.366114e+002
2.211287e+002, 2.353553e+002
2.216108e+002, 2.342803e+002
2.220929e+002, 2.333793e+002
2.225750e+002, 2.328843e+002
2.230571e+002, 2.323166e+002
2.235393e+002, 2.315988e+002
2.240214e+002, 2.307638e+002
2.245035e+002, 2.298508e+002
2.249856e+002, 2.288808e+002
2.254677e+002, 2.278707e+002
2.259498e+002, 2.269403e+002
2.264320e+002, 2.260650e+002
2.269141e+002, 2.253024e+002
2.273962e+002, 2.247379e+002
2.278783e+002, 2.242813e+002
2.283604e+002, 2.238038e+002
2.288425e+002, 2.232343e+002
2.293247e+002, 2.225755e+002
2.298068e+002, 2.218308e+002
2.302889e+002, 2.209155e+002
2.307710e+002, 2.200172e+002
2.312531e+002, 2.191002e+002
2.317352e+002, 2.182323e+002
2.322174e+002, 2.175573e+002
2.326995e+002, 2.171767e+002
2.331816e+002, 2.169968e+002
2.336637e+002, 2.165955e+002
2.341458e+002, 2.158026e+002
2.346279e+002, 2.150278e+002
2.351101e+002, 2.143294e+002
2.355922e+002, 2.137212e+002
2.360743e+002, 2.132464e+002
2.365564e+002, 2.129475e+002
2.370385e+002, 2.127650e+002
2.375206e+002, 2.125215e+002
2.380028e+002, 2.122519e+002
2.384849e+002, 2.118917e+002
2.389670e+002, 2.113174e+002
2.394491e+002, 2.106368e+002
2.399312e+002, 2.101350e+002
2.404133e+002, 2.100174e+002
2.408955e+002, 2.100233e+002
2.413776e+002, 2.095063e+002
2.418597e+002, 2.082265e+002
2.423418e+002, 2.071178e+002
2.428239e+002, 2.067036e+002
2.433060e+002, 2.067799e+002
2.437882e+002, 2.067852e+002
2.442703e+002, 2.065196e+002
2.447524e+002, 2.061009e+002
2.452345e+002, 2.057859e+002
2.457166e+002, 2.056496e+002
2.461987e+002, 2.052807e+002
2.466809e+002, 2.043244e+002
2.471630e+002, 2.029464e+002
2.476451e+002, 2.016756e+002
2.481272e+002, 2.006529e+002
2.486093e+002, 1.998223e+002
2.490914e+002, 1.991479e+002
2.495736e+002, 1.986394e+002
2.500557e+002, 1.980730e+002
2.505378e+002, 1.972221e+002
2.510199e+002, 1.961852e+002
2.515020e+002, 1.953747e+002
2.519841e+002, 1.949379e+002
2.524663e+002, 1.946614e+002
2.529484e+002, 1.943822e+002
2.534305e+002, 1.940937e+002
2.539126e+002, 1.937168e+002
2.543947e+002, 1.930600e+002
2.548768e+002, 1.922275e+002
2.553590e+002, 1.917588e+002
2.558411e+002, 1.918989e+002
2.563232e+002, 1.921667e+002
2.568053e+002, 1.923254e+002
2.572874e+002, 1.923474e+002
2.577695e+002, 1.921288e+002
2.582516e+002, 1.914005e+002
2.587338e+002, 1.903010e+002
2.592159e+002, 1.896365e+002
2.596980e+002, 1.896772e+002
2.601801e+002, 1.898087e+002
2.606622e+002, 1.897430e+002
2.611443e+002, 1.895081e+002
2.616265e+002, 1.891674e+002
2.621086e+002, 1.887539e+002
2.625907e+002, 1.882643e+002
2.630728e+002, 1.876742e+002
2.635549e+002, 1.868705e+002
2.640370e+002, 1.861387e+002
2.645192e+002, 1.855772e+002
2.650013e+002, 1.851543e+002
2.654834e+002, 1.848416e+002
2.659655e+002, 1.846821e+002
2.664476e+002, 1.845824e+002
2.669297e+002, 1.841684e+002
2.674119e+002, 1.831707e+002
2.678940e+002, 1.822964e+002
2.683761e+002, 1.817891e+002
2.688582e+002, 1.815007e+002
2.693403e+002, 1.812447e+002
2.698224e+002, 1.809298e+002
2.703046e+002, 1.806041e+002
2.707867e+002, 1.804400e+002
2.712688e+002, 1.806879e+002
2.717509e+002, 1.806329e+002
2.722330e+002, 1.799518e+002
2.727151e+002, 1.790298e+002
2.731973e+002, 1.782208e+002
2.736794e+002, 1.776638e+002
2.741615e+002, 1.773087e+002
2.746436e+002, 1.770586e+002
2.751257e+002, 1.769580e+002
2.756078e+002, 1.768807e+002
2.760900e+002, 1.767278e+002
2.765721e+002, 1.766298e+002
2.770542e+002, 1.767394e+002
2.775363e+002, 1.770884e+002
2.780184e+002, 1.775205e+002
2.785005e+002, 1.778063e+002
2.789827e+002, 1.780261e+002
2.794648e+002, 1.778837e+002
2.799469e+002, 1.770236e+002
2.804290e+002, 1.761014e+002
2.809111e+002, 1.755592e+002
2.813932e+002, 1.754709e+002
2.818754e+002, 1.756165e+002
2.823575e+002, 1.757574e+002
2.828396e+002, 1.759892e+002
2.833217e+002, 1.759220e+002
2.838038e+002, 1.752516e+002
2.842859e+002, 1.745748e+002
2.847681e+002, 1.742300e+002
2.852502e+002, 1.742157e+002
2.857323e+002, 1.743128e+002
2.862144e+002, 1.742845e+002
2.866965e+002, 1.740799e+002
2.871786e+002, 1.740493e+002
2.876608e+002, 1.742283e+002
2.881429e+002, 1.745287e+002
2.886250e+002, 1.750644e+002
2.891071e+002, 1.757162e+002
2.895892e+002, 1.761972e+002
2.900714e+002, 1.762513e+002
2.905535e+002, 1.758707e+002
2.910356e+002, 1.755999e+002
2.915177e+002, 1.754482e+002
2.919998e+002, 1.753965e+002
2.924819e+002, 1.754783e+002
2.929641e+002, 1.756565e+002
2.934462e+002, 1.758663e+002
2.939283e+002, 1.760668e+002
2.944104e+002, 1.762652e+002
2.948925e+002, 1.765199e+002
2.953746e+002, 1.769108e+002
2.958568e+002, 1.772702e+002
2.963389e+002, 1.775330e+002
2.968210e+002, 1.777625e+002
2.973031e+002, 1.780601e+002
2.977852e+002, 1.784774e+002
2.982673e+002, 1.789573e+002
2.987495e+002, 1.793209e+002
2.992316e+002, 1.791897e+002
2.997137e+002, 1.794391e+002
3.001958e+002, 1.804602e+002
3.006779e+002, 1.817038e+002
3.011600e+002, 1.826036e+002
3.016422e+002, 1.829806e+002
3.021243e+002, 1.830748e+002
3.026064e+002, 1.833317e+002
3.030885e+002, 1.840252e+002
3.035706e+002, 1.843743e+002
3.040527e+002, 1.843253e+002
3.045349e+002, 1.840041e+002
3.050170e+002, 1.832977e+002
3.054991e+002, 1.822888e+002
3.059812e+002, 1.814558e+002
3.064633e+002, 1.814834e+002
3.069454e+002, 1.828790e+002
3.074276e+002, 1.833180e+002
3.079097e+002, 1.821157e+002
3.083918e+002, 1.807181e+002
3.088739e+002, 1.799678e+002
3.093560e+002, 1.798118e+002
3.098381e+002, 1.796593e+002
3.103203e+002, 1.789671e+002
3.108024e+002, 1.776934e+002
3.112845e+002, 1.766086e+002
3.117666e+002, 1.757697e+002
3.122487e+002, 1.750290e+002
3.127308e+002, 1.744038e+002
3.132130e+002, 1.738334e+002
3.136951e+002, 1.731920e+002
3.141772e+002, 1.723839e+002
3.146593e+002, 1.714533e+002
3.151414e+002, 1.707361e+002
3.156235e+002, 1.704394e+002
3.161057e+002, 1.701111e+002
3.165878e+002, 1.696778e+002
3.170699e+002, 1.691693e+002
3.175520e+002, 1.685816e+002
3.180341e+002, 1.679117e+002
3.185162e+002, 1.672654e+002
3.189984e+002, 1.669268e+002
3.194805e+002, 1.672567e+002
3.199626e+002, 1.674410e+002
3.204447e+002, 1.675194e+002
3.209268e+002, 1.674257e+002
3.214089e+002, 1.669990e+002
3.218911e+002, 1.662322e+002
3.223732e+002, 1.654042e+002
3.228553e+002, 1.649131e+002
3.233374e+002, 1.648423e+002
3.238195e+002, 1.649610e+002
3.243016e+002, 1.654778e+002
3.247838e+002, 1.659943e+002
3.252659e+002, 1.662893e+002
3.257480e+002, 1.663354e+002
3.262301e+002, 1.661868e+002
3.267122e+002, 1.658629e+002
3.271943e+002, 1.653194e+002
3.276765e+002, 1.649835e+002
3.281586e+002, 1.648860e+002
3.286407e+002, 1.649314e+002
3.291228e+002, 1.652617e+002
3.296049e+002, 1.657107e+002
3.300870e+002, 1.659095e+002
3.305692e+002, 1.655744e+002
3.310513e+002, 1.648061e+002
3.315334e+002, 1.643893e+002
3.320155e+002, 1.647834e+002
3.324976e+002, 1.650254e+002
3.329797e+002, 1.648505e+002
3.334619e+002, 1.644880e+002
3.339440e+002, 1.642560e+002
3.344261e+002, 1.642978e+002
3.349082e+002, 1.644835e+002
3.353904e+002, 1.644930e+002
3.358725e+002, 1.641350e+002
3.363546e+002, 1.639013e+002
3.368367e+002, 1.637887e+002
3.373188e+002, 1.638079e+002
3.378009e+002, 1.640757e+002
3.382831e+002, 1.645654e+002
3.387652e+002, 1.650093e+002
3.392473e+002, 1.650281e+002
3.397294e+002, 1.644786e+002
3.402115e+002, 1.639360e+002
3.406936e+002, 1.631350e+002
3.411758e+002, 1.625661e+002
3.416579e+002, 1.626405e+002
3.421400e+002, 1.632129e+002
3.426221e+002, 1.637691e+002
3.431042e+002, 1.638496e+002
3.435863e+002, 1.634547e+002
3.440685e+002, 1.632201e+002
3.445506e+002, 1.632271e+002
3.450327e+002, 1.633299e+002
3.455148e+002, 1.635503e+002
3.459969e+002, 1.638388e+002
3.464790e+002, 1.641667e+002
3.469612e+002, 1.645394e+002
3.474433e+002, 1.648604e+002
3.479254e+002, 1.647874e+002
3.484075e+002, 1.639479e+002
3.488896e+002, 1.633174e+002
3.493717e+002, 1.631136e+002
3.498539e+002, 1.631096e+002
3.503360e+002, 1.631080e+002
3.508181e+002, 1.630498e+002
3.513002e+002, 1.630019e+002
3.517823e+002, 1.630432e+002
3.522644e+002, 1.631460e+002
3.527466e+002, 1.634378e+002
3.532287e+002, 1.643685e+002
3.537108e+002, 1.651263e+002
3.541929e+002, 1.651102e+002
3.546750e+002, 1.644364e+002
3.551571e+002, 1.637691e+002
3.556393e+002, 1.637310e+002
3.561214e+002, 1.643175e+002
3.566035e+002, 1.647890e+002
3.570856e+002, 1.650827e+002
3.575677e+002, 1.653239e+002
3.580498e+002, 1.655566e+002
3.585320e+002, 1.657719e+002
3.590141e+002, 1.659495e+002
3.594962e+002, 1.660727e+002
3.599783e+002, 1.661574e+002
3.604604e+002, 1.662346e+002
3.609425e+002, 1.662805e+002
3.614247e+002, 1.663763e+002
3.619068e+002, 1.666194e+002
3.623889e+002, 1.668792e+002
3.628710e+002, 1.670678e+002
3.633531e+002, 1.671648e+002
3.638352e+002, 1.671073e+002
3.643174e+002, 1.667739e+002
3.647995e+002, 1.661362e+002
3.652816e+002, 1.654960e+002
3.657637e+002, 1.648557e+002
3.662458e+002, 1.642742e+002
3.667279e+002, 1.638361e+002
3.672101e+002, 1.635152e+002
3.676922e+002, 1.631517e+002
3.681743e+002, 1.626331e+002
3.686564e+002, 1.619778e+002
3.691385e+002, 1.612551e+002
3.696206e+002, 1.603998e+002
3.701028e+002, 1.595986e+002
3.705849e+002, 1.590367e+002
3.710670e+002, 1.585933e+002
3.715491e+002, 1.580329e+002
3.720312e+002, 1.570966e+002
3.725133e+002, 1.561756e+002
3.729955e+002, 1.559494e+002
3.734776e+002, 1.565053e+002
3.739597e+002, 1.569172e+002
3.744418e+002, 1.567624e+002
3.749239e+002, 1.562615e+002
3.754060e+002, 1.556403e+002
3.758882e+002, 1.548549e+002
3.763703e+002, 1.542096e+002
3.768524e+002, 1.539557e+002
3.773345e+002, 1.540288e+002
3.778166e+002, 1.541840e+002
3.782987e+002, 1.544171e+002
3.787809e+002, 1.546243e+002
3.792630e+002, 1.545665e+002
3.797451e+002, 1.542908e+002
3.802272e+002, 1.543216e+002
3.807093e+002, 1.552107e+002
3.811914e+002, 1.563252e+002
3.816736e+002, 1.567320e+002
3.821557e+002, 1.563352e+002
3.826378e+002, 1.558602e+002
3.831199e+002, 1.558284e+002
3.836020e+002, 1.561535e+002
3.840841e+002, 1.563599e+002
3.845663e+002, 1.561184e+002
3.850484e+002, 1.560771e+002
3.855305e+002, 1.568578e+002
3.860126e+002, 1.581877e+002
3.864947e+002, 1.592062e+002
3.869768e+002, 1.595415e+002
3.874590e+002, 1.594107e+002
3.879411e+002, 1.591498e+002
3.884232e+002, 1.585420e+002
3.889053e+002, 1.584235e+002
3.893874e+002, 1.594514e+002
3.898695e+002, 1.608202e+002
3.903517e+002, 1.616039e+002
3.908338e+002, 1.616370e+002
3.913159e+002, 1.612972e+002
3.917980e+002, 1.608831e+002
3.922801e+002, 1.603531e+002
3.927622e+002, 1.603078e+002
3.932444e+002, 1.609704e+002
3.937265e+002, 1.618563e+002
3.942086e+002, 1.629353e+002
3.946907e+002, 1.640466e+002
3.951728e+002, 1.648091e+002
3.956549e+002, 1.649560e+002
3.961371e+002, 1.646904e+002
3.966192e+002, 1.648219e+002
3.971013e+002, 1.656441e+002
3.975834e+002, 1.665159e+002
3.980655e+002, 1.679276e+002
3.985476e+002, 1.690956e+002
3.990298e+002, 1.690569e+002
3.995119e+002, 1.676302e+002
3.999940e+002, 1.656137e+002
4.004761e+002, 1.640777e+002
4.009582e+002, 1.632070e+002
4.014403e+002, 1.621821e+002
4.019225e+002, 1.608309e+002
4.024046e+002, 1.595111e+002
4.028867e+002, 1.583915e+002
4.033688e+002, 1.574449e+002
4.038509e+002, 1.565429e+002
4.043330e+002, 1.555826e+002
4.048152e+002, 1.546007e+002
4.052973e+002, 1.538311e+002
4.057794e+002, 1.535396e+002
4.062615e+002, 1.530532e+002
4.067436e+002, 1.521272e+002
4.072257e+002, 1.510262e+002
4.077079e+002, 1.499474e+002
4.081900e+002, 1.489574e+002
4.086721e+002, 1.481779e+002
4.091542e+002, 1.478699e+002
4.096363e+002, 1.481508e+002
4.101184e+002, 1.482241e+002
4.106006e+002, 1.478854e+002
4.110827e+002, 1.474237e+002
4.115648e+002, 1.469097e+002
4.120469e+002, 1.463848e+002
4.125290e+002, 1.459543e+002
4.130111e+002, 1.457682e+002
4.134933e+002, 1.457147e+002
4.139754e+002, 1.453752e+002
4.144575e+002, 1.445988e+002
4.149396e+002, 1.439430e+002
4.154217e+002, 1.438035e+002
4.159038e+002, 1.438881e+002
4.163860e+002, 1.438493e+002
4.168681e+002, 1.435574e+002
4.173502e+002, 1.432989e+002
4.178323e+002, 1.434715e+002
4.183144e+002, 1.440021e+002
4.187965e+002, 1.442410e+002
4.192787e+002, 1.439523e+002
4.197608e+002, 1.434201e+002
4.202429e+002, 1.428545e+002
4.207250e+002, 1.422679e+002
4.212071e+002, 1.419283e+002
4.216892e+002, 1.421757e+002
4.221714e+002, 1.426036e+002
4.226535e+002, 1.426196e+002
4.231356e+002, 1.421795e+002
4.236177e+002, 1.416911e+002
4.240998e+002, 1.413799e+002
4.245819e+002, 1.412529e+002
4.250641e+002, 1.412691e+002
4.255462e+002, 1.415319e+002
4.260283e+002, 1.418045e+002
4.265104e+002, 1.421151e+002
4.269925e+002, 1.423482e+002
4.274746e+002, 1.421684e+002
4.279568e+002, 1.414199e+002
4.284389e+002, 1.405775e+002
4.289210e+002, 1.403969e+002
4.294031e+002, 1.412714e+002
4.298852e+002, 1.417056e+002
4.303673e+002, 1.413572e+002
4.308495e+002, 1.408417e+002
4.313316e+002, 1.405334e+002
4.318137e+002, 1.404543e+002
4.322958e+002, 1.405026e+002
4.327779e+002, 1.406264e+002
4.332600e+002, 1.408002e+002
4.337422e+002, 1.408168e+002
4.342243e+002, 1.403737e+002
4.347064e+002, 1.401324e+002
4.351885e+002, 1.403319e+002
4.356706e+002, 1.406991e+002
4.361527e+002, 1.409568e+002
4.366349e+002, 1.410164e+002
4.371170e+002, 1.409432e+002
4.375991e+002, 1.407939e+002
4.380812e+002, 1.404992e+002
4.385633e+002, 1.403842e+002
4.390454e+002, 1.406981e+002
4.395276e+002, 1.409590e+002
4.400097e+002, 1.409509e+002
4.404918e+002, 1.407362e+002
4.409739e+002, 1.404676e+002
4.414560e+002, 1.402027e+002
4.419381e+002, 1.399954e+002
4.424203e+002, 1.400623e+002
4.429024e+002, 1.405840e+002
4.433845e+002, 1.408979e+002
4.438666e+002, 1.406634e+002
4.443487e+002, 1.402237e+002
4.448308e+002, 1.397847e+002
4.453130e+002, 1.393852e+002
4.457951e+002, 1.391202e+002
4.462772e+002, 1.390939e+002
4.467593e+002, 1.392785e+002
4.472414e+002, 1.395477e+002
4.477235e+002, 1.399200e+002
4.482057e+002, 1.403087e+002
4.486878e+002, 1.406448e+002
4.491699e+002, 1.409477e+002
4.496520e+002, 1.412560e+002
4.501341e+002, 1.416052e+002
4.506162e+002, 1.419409e+002
4.510984e+002, 1.422753e+002
4.515805e+002, 1.425800e+002
4.520626e+002, 1.426211e+002
4.525447e+002, 1.421842e+002
4.530268e+002, 1.416030e+002
4.535089e+002, 1.416076e+002
4.539911e+002, 1.423362e+002
4.544732e+002, 1.428430e+002
4.549553e+002, 1.426986e+002
4.554374e+002, 1.423567e+002
4.559195e+002, 1.423148e+002
4.564016e+002, 1.426079e+002
4.568838e+002, 1.429319e+002
4.573659e+002, 1.430176e+002
4.578480e+002, 1.428916e+002
4.583301e+002, 1.430609e+002
4.588122e+002, 1.438850e+002
4.592943e+002, 1.445311e+002
4.597765e+002, 1.446210e+002
4.602586e+002, 1.444818e+002
4.607407e+002, 1.446049e+002
4.612228e+002, 1.451377e+002
4.617049e+002, 1.457570e+002
4.621870e+002, 1.459246e+002
4.626692e+002, 1.453498e+002
4.631513e+002, 1.452648e+002
4.636334e+002, 1.461474e+002
4.641155e+002, 1.470226e+002
4.645976e+002, 1.474010e+002
4.650797e+002, 1.474455e+002
4.655619e+002, 1.476087e+002
4.660440e+002, 1.481834e+002
4.665261e+002, 1.490033e+002
4.670082e+002, 1.495709e+002
4.674903e+002, 1.497547e+002
4.679724e+002, 1.500501e+002
4.684546e+002, 1.507474e+002
4.689367e+002, 1.514862e+002
4.694188e+002, 1.520122e+002
4.699009e+002, 1.523022e+002
4.703830e+002, 1.524712e+002
4.708651e+002, 1.523619e+002
4.713473e+002, 1.521751e+002
4.718294e+002, 1.527992e+002
4.723115e+002, 1.545664e+002
4.727936e+002, 1.562621e+002
4.732757e+002, 1.568679e+002
4.737578e+002, 1.568841e+002
4.742400e+002, 1.572315e+002
4.747221e+002, 1.581344e+002
4.752042e+002, 1.592401e+002
4.756863e+002, 1.605945e+002
4.761684e+002, 1.619810e+002
4.766505e+002, 1.626785e+002
4.771327e+002, 1.624048e+002
4.776148e+002, 1.617278e+002
4.780969e+002, 1.613311e+002
4.785790e+002, 1.612640e+002
4.790611e+002, 1.611660e+002
4.795432e+002, 1.609472e+002
4.800254e+002, 1.607599e+002
4.805075e+002, 1.607956e+002
4.809896e+002, 1.609564e+002
4.814717e+002, 1.609331e+002
4.819538e+002, 1.605419e+002
4.824359e+002, 1.599184e+002
4.829181e+002, 1.594598e+002
4.834002e+002, 1.595358e+002
4.838823e+002, 1.592161e+002
4.843644e+002, 1.580398e+002
4.848465e+002, 1.568228e+002
4.853286e+002, 1.562175e+002
4.858108e+002, 1.562039e+002
4.862929e+002, 1.563075e+002
4.867750e+002, 1.561461e+002
4.872571e+002, 1.557386e+002
4.877392e+002, 1.552084e+002
4.882213e+002, 1.542765e+002
4.887035e+002, 1.536985e+002
4.891856e+002, 1.540182e+002
4.896677e+002, 1.545605e+002
4.901498e+002, 1.545986e+002
4.906319e+002, 1.539559e+002
4.911140e+002, 1.530943e+002
4.915962e+002, 1.524906e+002
4.920783e+002, 1.520975e+002
4.925604e+002, 1.515210e+002
4.930425e+002, 1.506330e+002
4.935246e+002, 1.497337e+002
4.940067e+002, 1.490815e+002
4.944889e+002, 1.485811e+002
4.949710e+002, 1.480095e+002
4.954531e+002, 1.471657e+002
4.959352e+002, 1.464117e+002
4.964173e+002, 1.461837e+002
4.968994e+002, 1.463190e+002
4.973816e+002, 1.461822e+002
4.978637e+002, 1.455210e+002
4.983458e+002, 1.446475e+002
4.988279e+002, 1.439968e+002
4.993100e+002, 1.436073e+002
4.997921e+002, 1.432613e+002
5.002743e+002, 1.430007e+002
5.007564e+002, 1.427351e+002
5.012385e+002, 1.424420e+002
5.017206e+002, 1.420949e+002
5.022027e+002, 1.415935e+002
5.026848e+002, 1.408562e+002
5.031670e+002, 1.400448e+002
5.036491e+002, 1.396634e+002
5.041312e+002, 1.400875e+002
5.046133e+002, 1.403425e+002
5.050954e+002, 1.403485e+002
5.055775e+002, 1.402348e+002
5.060597e+002, 1.400599e+002
5.065418e+002, 1.398450e+002
5.070239e+002, 1.396088e+002
5.075060e+002, 1.393557e+002
5.079881e+002, 1.390968e+002
5.084702e+002, 1.388735e+002
5.089524e+002, 1.386501e+002
5.094345e+002, 1.385464e+002
5.099166e+002, 1.386753e+002
5.103987e+002, 1.388981e+002
5.108808e+002, 1.391295e+002
5.113629e+002, 1.393565e+002
5.118451e+002, 1.394963e+002
5.123271e+002, 1.393866e+002
5.128093e+002, 1.391439e+002
5.132914e+002, 1.391662e+002
5.137735e+002, 1.395556e+002
5.142556e+002, 1.398549e+002
5.147377e+002, 1.396731e+002
5.152198e+002, 1.391501e+002
5.157020e+002, 1.387928e+002
5.161841e+002, 1.385452e+002
5.166662e+002, 1.385626e+002
5.171483e+002, 1.392254e+002
5.176304e+002, 1.401097e+002
5.181125e+002, 1.404079e+002
5.185947e+002, 1.399358e+002
5.190768e+002, 1.393407e+002
5.195589e+002, 1.393366e+002
5.200410e+002, 1.399974e+002
5.205231e+002, 1.405490e+002
5.210052e+002, 1.409779e+002
5.214874e+002, 1.413327e+002
5.219695e+002, 1.415121e+002
5.224516e+002, 1.416690e+002
5.229337e+002, 1.420478e+002
5.234158e+002, 1.427318e+002
5.238979e+002, 1.435154e+002
5.243801e+002, 1.440905e+002
5.248622e+002, 1.444138e+002
5.253443e+002, 1.447461e+002
5.258264e+002, 1.450764e+002
5.263085e+002, 1.454388e+002
5.267906e+002, 1.458128e+002
5.272728e+002, 1.462322e+002
5.277549e+002, 1.467598e+002
5.282370e+002, 1.474222e+002
5.287191e+002, 1.482010e+002
5.292012e+002, 1.491099e+002
5.296833e+002, 1.501393e+002
5.301655e+002, 1.511287e+002
5.306476e+002, 1.519767e+002
5.311297e+002, 1.528734e+002
5.316118e+002, 1.540732e+002
5.320939e+002, 1.555341e+002
5.325760e+002, 1.570184e+002
5.330582e+002, 1.583540e+002
5.335403e+002, 1.598066e+002
5.340224e+002, 1.616526e+002
5.345045e+002, 1.637910e+002
5.349866e+002, 1.658321e+002
5.354688e+002, 1.675645e+002
5.359509e+002, 1.693215e+002
5.364330e+002, 1.717699e+002
5.369151e+002, 1.754049e+002
5.373972e+002, 1.785327e+002
5.378793e+002, 1.806453e+002
5.383615e+002, 1.827830e+002
5.388436e+002, 1.854831e+002
5.393257e+002, 1.886741e+002
5.398078e+002, 1.920614e+002
5.402899e+002, 1.954791e+002
5.407720e+002, 1.989938e+002
5.412542e+002, 2.028186e+002
5.417363e+002, 2.070285e+002
5.422184e+002, 2.112610e+002
5.427005e+002, 2.154518e+002
5.431826e+002, 2.196518e+002
5.436647e+002, 2.236846e+002
5.441469e+002, 2.276988e+002
5.446290e+002, 2.323239e+002
5.451111e+002, 2.381555e+002
5.455932e+002, 2.445657e+002
5.460753e+002, 2.505511e+002
5.465574e+002, 2.561133e+002
5.470396e+002, 2.619346e+002
5.475217e+002, 2.680943e+002
5.480038e+002, 2.747958e+002
5.484859e+002, 2.826761e+002
5.489680e+002, 2.917486e+002
5.494501e+002, 3.009023e+002
5.499323e+002, 3.095462e+002
5.504144e+002, 3.184988e+002
5.508965e+002, 3.284408e+002
5.513786e+002, 3.392700e+002
5.518607e+002, 3.506249e+002
5.523428e+002, 3.623453e+002
5.528250e+002, 3.742878e+002
5.533071e+002, 3.861337e+002
5.537892e+002, 3.984799e+002
5.542713e+002, 4.096953e+002
5.547534e+002, 4.205443e+002
5.552355e+002, 4.297921e+002
5.557177e+002, 4.370783e+002
5.561998e+002, 4.421713e+002
5.566819e+002, 4.447694e+002
5.571640e+002, 4.447130e+002
5.576461e+002, 4.419826e+002
5.581282e+002, 4.364704e+002
5.586104e+002, 4.281020e+002
5.590925e+002, 4.173295e+002
5.595746e+002, 4.034863e+002
5.600567e+002, 3.878474e+002
5.605388e+002, 3.712206e+002
5.610209e+002, 3.538409e+002
5.615031e+002, 3.367902e+002
5.619852e+002, 3.205095e+002
5.624673e+002, 3.048742e+002
5.629494e+002, 2.896021e+002
5.634315e+002, 2.748062e+002
5.639136e+002, 2.610287e+002
5.643958e+002, 2.484138e+002
5.648779e+002, 2.369553e+002
5.653600e+002, 2.266001e+002
5.658421e+002, 2.175459e+002
5.663242e+002, 2.094253e+002
5.668063e+002, 2.024802e+002
5.672885e+002, 1.961695e+002
5.677706e+002, 1.901552e+002
5.682527e+002, 1.845450e+002
5.687348e+002, 1.797923e+002
5.692169e+002, 1.761175e+002
5.696990e+002, 1.730254e+002
5.701812e+002, 1.694546e+002
5.706633e+002, 1.651336e+002
5.711454e+002, 1.614795e+002
5.716275e+002, 1.588440e+002
5.721096e+002, 1.566665e+002
5.725917e+002, 1.548827e+002
5.730739e+002, 1.533253e+002
5.735560e+002, 1.516253e+002
5.740381e+002, 1.495243e+002
5.745202e+002, 1.474239e+002
5.750023e+002, 1.457565e+002
5.754844e+002, 1.444907e+002
5.759666e+002, 1.435126e+002
5.764487e+002, 1.428475e+002
5.769308e+002, 1.422831e+002
5.774129e+002, 1.416270e+002
5.778950e+002, 1.408713e+002
5.783771e+002, 1.399939e+002
5.788593e+002, 1.387487e+002
5.793414e+002, 1.376423e+002
5.798235e+002, 1.368954e+002
5.803056e+002, 1.364383e+002
5.807877e+002, 1.362825e+002
5.812698e+002, 1.363894e+002
5.817520e+002, 1.363732e+002
5.822341e+002, 1.356513e+002
5.827162e+002, 1.340817e+002
5.831984e+002, 1.331346e+002
5.836805e+002, 1.334276e+002
5.841626e+002, 1.335912e+002
5.846447e+002, 1.331373e+002
5.851268e+002, 1.323964e+002
5.856089e+002, 1.317926e+002
5.860911e+002, 1.314409e+002
5.865732e+002, 1.311029e+002
5.870553e+002, 1.304891e+002
5.875374e+002, 1.296969e+002
5.880195e+002, 1.291190e+002
5.885016e+002, 1.288017e+002
5.889838e+002, 1.286189e+002
5.894659e+002, 1.285138e+002
5.899480e+002, 1.284857e+002
5.904301e+002, 1.285426e+002
5.909122e+002, 1.288554e+002
5.913943e+002, 1.289156e+002
5.918765e+002, 1.282957e+002
5.923586e+002, 1.275103e+002
5.928407e+002, 1.271137e+002
5.933228e+002, 1.271491e+002
5.938049e+002, 1.273762e+002
5.942870e+002, 1.276469e+002
5.947692e+002, 1.279207e+002
5.952513e+002, 1.279994e+002
5.957334e+002, 1.277359e+002
5.962155e+002, 1.275346e+002
5.966976e+002, 1.275047e+002
5.971797e+002, 1.274882e+002
5.976619e+002, 1.273536e+002
5.981440e+002, 1.271236e+002
5.986261e+002, 1.269256e+002
5.991082e+002, 1.268176e+002
5.995903e+002, 1.268054e+002
6.000724e+002, 1.270235e+002
6.005546e+002, 1.274740e+002
6.010367e+002, 1.275275e+002
6.015188e+002, 1.268442e+002
6.020009e+002, 1.258944e+002
6.024830e+002, 1.252370e+002
6.029651e+002, 1.248559e+002
6.034473e+002, 1.245815e+002
6.039294e+002, 1.243996e+002
6.044115e+002, 1.243101e+002
6.048936e+002, 1.243725e+002
6.053757e+002, 1.245180e+002
6.058578e+002, 1.246349e+002
6.063400e+002, 1.246793e+002
6.068221e+002, 1.246282e+002
6.073042e+002, 1.244198e+002
6.077863e+002, 1.240066e+002
6.082684e+002, 1.237556e+002
6.087505e+002, 1.238219e+002
6.092327e+002, 1.238775e+002
6.097148e+002, 1.239176e+002
6.101969e+002, 1.238568e+002
6.106790e+002, 1.235026e+002
6.111611e+002, 1.227918e+002
6.116432e+002, 1.221793e+002
6.121254e+002, 1.221340e+002
6.126075e+002, 1.225053e+002
6.130896e+002, 1.228662e+002
6.135717e+002, 1.232006e+002
6.140538e+002, 1.233948e+002
6.145359e+002, 1.233603e+002
6.150181e+002, 1.231421e+002
6.155002e+002, 1.228449e+002
6.159823e+002, 1.223064e+002
6.164644e+002, 1.220471e+002
6.169465e+002, 1.224754e+002
6.174286e+002, 1.229988e+002
6.179108e+002, 1.230353e+002
6.183929e+002, 1.226676e+002
6.188750e+002, 1.223975e+002
6.193571e+002, 1.225602e+002
6.198392e+002, 1.229226e+002
6.203214e+002, 1.228003e+002
6.208035e+002, 1.219285e+002
6.212856e+002, 1.213901e+002
6.217677e+002, 1.215272e+002
6.222498e+002, 1.218178e+002
6.227319e+002, 1.221061e+002
6.232141e+002, 1.223303e+002
6.236962e+002, 1.223575e+002
6.241783e+002, 1.220730e+002
6.246604e+002, 1.216908e+002
6.251425e+002, 1.213474e+002
6.256246e+002, 1.210729e+002
6.261068e+002, 1.210295e+002
6.265889e+002, 1.212801e+002
6.270710e+002, 1.215138e+002
6.275531e+002, 1.214292e+002
6.280352e+002, 1.210416e+002
6.285173e+002, 1.206875e+002
6.289995e+002, 1.201840e+002
6.294816e+002, 1.199424e+002
6.299637e+002, 1.202377e+002
6.304458e+002, 1.207128e+002
6.309279e+002, 1.210431e+002
6.314100e+002, 1.211775e+002
6.318922e+002, 1.212237e+002
6.323743e+002, 1.212397e+002
6.328564e+002, 1.212579e+002
6.333385e+002, 1.214432e+002
6.338206e+002, 1.218720e+002
6.343027e+002, 1.221477e+002
6.347849e+002, 1.220923e+002
6.352670e+002, 1.218944e+002
6.357491e+002, 1.217280e+002
6.362312e+002, 1.215901e+002
6.367133e+002, 1.214571e+002
6.371954e+002, 1.212832e+002
6.376776e+002, 1.211449e+002
6.381597e+002, 1.211134e+002
6.386418e+002, 1.211656e+002
6.391239e+002, 1.212518e+002
6.396060e+002, 1.213555e+002
6.400881e+002, 1.214743e+002
6.405703e+002, 1.216368e+002
6.410524e+002, 1.218750e+002
6.415345e+002, 1.217935e+002
6.420166e+002, 1.208848e+002
6.424987e+002, 1.202606e+002
6.429808e+002, 1.204625e+002
6.434630e+002, 1.208699e+002
6.439451e+002, 1.207483e+002
6.444272e+002, 1.200130e+002
6.449093e+002, 1.193265e+002
6.453914e+002, 1.193220e+002
6.458735e+002, 1.197237e+002
6.463557e+002, 1.198225e+002
6.468378e+002, 1.195995e+002
6.473199e+002, 1.194417e+002
6.478020e+002, 1.195189e+002
6.482841e+002, 1.197276e+002
6.487662e+002, 1.199219e+002
6.492484e+002, 1.201109e+002
6.497305e+002, 1.202353e+002
6.502126e+002, 1.203443e+002
6.506947e+002, 1.203315e+002
6.511768e+002, 1.199708e+002
6.516589e+002, 1.194911e+002
6.521411e+002, 1.193250e+002
6.526232e+002, 1.196121e+002
6.531053e+002, 1.200621e+002
6.535874e+002, 1.203484e+002
6.540695e+002, 1.204712e+002
6.545516e+002, 1.203474e+002
6.550338e+002, 1.198289e+002
6.555159e+002, 1.193612e+002
6.559980e+002, 1.191537e+002
6.564801e+002, 1.190933e+002
6.569622e+002, 1.190883e+002
6.574443e+002, 1.191367e+002
6.579265e+002, 1.191709e+002
6.584086e+002, 1.190256e+002
6.588907e+002, 1.189435e+002
6.593728e+002, 1.194031e+002
6.598549e+002, 1.202250e+002
6.603370e+002, 1.205376e+002
6.608192e+002, 1.199014e+002
6.613013e+002, 1.189451e+002
6.617834e+002, 1.188478e+002
6.622655e+002, 1.200264e+002
6.627476e+002, 1.204960e+002
6.632297e+002, 1.193989e+002
6.637119e+002, 1.185329e+002
6.641940e+002, 1.186083e+002
6.646761e+002, 1.191662e+002
6.651582e+002, 1.196263e+002
6.656403e+002, 1.198354e+002
6.661224e+002, 1.198682e+002
6.666046e+002, 1.196530e+002
6.670867e+002, 1.193377e+002
6.675688e+002, 1.193302e+002
6.680509e+002, 1.196551e+002
6.685330e+002, 1.199203e+002
6.690151e+002, 1.198964e+002
6.694973e+002, 1.197535e+002
6.699794e+002, 1.198615e+002
6.704615e+002, 1.204314e+002
6.709436e+002, 1.206608e+002
6.714257e+002, 1.202532e+002
6.719078e+002, 1.197908e+002
6.723900e+002, 1.194427e+002
6.728721e+002, 1.192861e+002
6.733542e+002, 1.195160e+002
6.738363e+002, 1.201793e+002
6.743184e+002, 1.208044e+002
6.748005e+002, 1.206543e+002
6.752827e+002, 1.198471e+002
6.757648e+002, 1.196395e+002
6.762469e+002, 1.202181e+002
6.767290e+002, 1.208447e+002
6.772111e+002, 1.212627e+002
6.776932e+002, 1.214569e+002
6.781754e+002, 1.213628e+002
6.786575e+002, 1.208975e+002
6.791396e+002, 1.206051e+002
6.796217e+002, 1.206854e+002
6.801038e+002, 1.209174e+002
6.805859e+002, 1.211852e+002
6.810681e+002, 1.214642e+002
6.815502e+002, 1.217375e+002
6.820323e+002, 1.219970e+002
6.825144e+002, 1.222261e+002
6.829965e+002, 1.224085e+002
6.834786e+002, 1.225482e+002
6.839608e+002, 1.225630e+002
6.844429e+002, 1.223754e+002
6.849250e+002, 1.222012e+002
6.854071e+002, 1.222300e+002
6.858892e+002, 1.222603e+002
6.863713e+002, 1.219884e+002
6.868535e+002, 1.213637e+002
6.873356e+002, 1.209402e+002
6.878177e+002, 1.209892e+002
6.882998e+002, 1.213317e+002
6.887819e+002, 1.219618e+002
6.892640e+002, 1.227393e+002
6.897462e+002, 1.232203e+002
6.902283e+002, 1.232312e+002
6.907104e+002, 1.230559e+002
6.911925e+002, 1.230847e+002
6.916746e+002, 1.233284e+002
6.921567e+002, 1.237045e+002
6.926389e+002, 1.246509e+002
6.931210e+002, 1.251188e+002
6.936031e+002, 1.244364e+002
6.940852e+002, 1.234281e+002
6.945673e+002, 1.229400e+002
6.950494e+002, 1.230646e+002
6.955316e+002, 1.233017e+002
6.960137e+002, 1.234510e+002
6.964958e+002, 1.234900e+002
6.969779e+002, 1.233997e+002
6.974600e+002, 1.231756e+002
6.979421e+002, 1.227199e+002
6.984243e+002, 1.219658e+002
6.989064e+002, 1.212655e+002
6.993885e+002, 1.210937e+002
6.998706e+002, 1.215035e+002
7.003527e+002, 1.217469e+002
7.008348e+002, 1.215824e+002
7.013170e+002, 1.215487e+002
7.017991e+002, 1.219775e+002
7.022812e+002, 1.224195e+002
7.027633e+002, 1.224121e+002
7.032454e+002, 1.219515e+002
7.037275e+002, 1.214147e+002
7.042097e+002, 1.209217e+002
7.046918e+002, 1.205892e+002
7.051739e+002, 1.206261e+002
7.056560e+002, 1.210012e+002
7.061381e+002, 1.215998e+002
7.066202e+002, 1.224541e+002
7.071024e+002, 1.231763e+002
7.075845e+002, 1.233899e+002
7.080666e+002, 1.230974e+002
7.085487e+002, 1.224513e+002
7.090308e+002, 1.211268e+002
7.095129e+002, 1.198957e+002
7.099951e+002, 1.186234e+002
7.104772e+002, 1.176678e+002
7.109593e+002, 1.174904e+002
7.114414e+002, 1.179525e+002
7.119235e+002, 1.184281e+002
7.124056e+002, 1.185360e+002
7.128878e+002, 1.185123e+002
7.133699e+002, 1.187842e+002
7.138520e+002, 1.192910e+002
7.143341e+002, 1.195589e+002
7.148162e+002, 1.194645e+002
7.152983e+002, 1.193189e+002
7.157805e+002, 1.194306e+002
7.162626e+002, 1.197056e+002
7.167447e+002, 1.195938e+002
7.172268e+002, 1.185511e+002
7.177089e+002, 1.179278e+002
7.181910e+002, 1.181581e+002
7.186732e+002, 1.185608e+002
7.191553e+002, 1.186267e+002
7.196374e+002, 1.184528e+002
7.201195e+002, 1.184289e+002
7.206016e+002, 1.187643e+002
7.210837e+002, 1.191613e+002
7.215659e+002, 1.192066e+002
7.220480e+002, 1.189546e+002
7.225301e+002, 1.186583e+002
7.230122e+002, 1.183086e+002
7.234943e+002, 1.181520e+002
7.239764e+002, 1.184364e+002
7.244586e+002, 1.189335e+002
7.249407e+002, 1.190384e+002
7.254228e+002, 1.185356e+002
7.259049e+002, 1.181798e+002
7.263870e+002, 1.179639e+002
7.268691e+002, 1.179507e+002
7.273513e+002, 1.183676e+002
7.278334e+002, 1.189517e+002
7.283155e+002, 1.192469e+002
7.287976e+002, 1.191113e+002
7.292797e+002, 1.188590e+002
7.297618e+002, 1.188240e+002
7.302440e+002, 1.189431e+002
7.307261e+002, 1.189740e+002
7.312082e+002, 1.189039e+002
7.316903e+002, 1.188639e+002
7.321724e+002, 1.189204e+002
7.326545e+002, 1.190089e+002
7.331367e+002, 1.190191e+002
7.336188e+002, 1.189180e+002
7.341009e+002, 1.189428e+002
7.345830e+002, 1.192565e+002
7.350651e+002, 1.195003e+002
7.355472e+002, 1.193757e+002
7.360294e+002, 1.192161e+002
7.365115e+002, 1.194901e+002
7.369936e+002, 1.201995e+002
7.374757e+002, 1.208771e+002
7.379578e+002, 1.212060e+002
7.384399e+002, 1.212461e+002
7.389221e+002, 1.210012e+002
7.394042e+002, 1.205029e+002
7.398863e+002, 1.202776e+002
7.403684e+002, 1.205094e+002
7.408505e+002, 1.208263e+002
7.413326e+002, 1.208642e+002
7.418148e+002, 1.206578e+002
7.422969e+002, 1.206112e+002
7.427790e+002, 1.208332e+002
7.432611e+002, 1.210511e+002
7.437432e+002, 1.212486e+002
7.442253e+002, 1.214195e+002
7.447075e+002, 1.215934e+002
7.451896e+002, 1.217376e+002
7.456717e+002, 1.217556e+002
7.461538e+002, 1.215800e+002
7.466359e+002, 1.213595e+002
7.471180e+002, 1.211796e+002
7.476002e+002, 1.210994e+002
7.480823e+002, 1.214829e+002
7.485644e+002, 1.224015e+002
7.490465e+002, 1.230169e+002
7.495286e+002, 1.227687e+002
7.500107e+002, 1.219980e+002
7.504929e+002, 1.214977e+002
7.509750e+002, 1.213111e+002
7.514571e+002, 1.213003e+002
7.519392e+002, 1.215451e+002
7.524213e+002, 1.218612e+002
7.529034e+002, 1.223132e+002
7.533856e+002, 1.227304e+002
7.538677e+002, 1.228877e+002
7.543498e+002, 1.227373e+002
7.548319e+002, 1.224269e+002
7.553140e+002, 1.218784e+002
7.557961e+002, 1.213365e+002
7.562783e+002, 1.211930e+002
7.567604e+002, 1.214335e+002
7.572425e+002, 1.220466e+002
7.577246e+002, 1.230719e+002
7.582067e+002, 1.239935e+002
7.586888e+002, 1.241528e+002
7.591710e+002, 1.235566e+002
7.596531e+002, 1.231788e+002
7.601352e+002, 1.230631e+002
7.606173e+002, 1.231096e+002
7.610994e+002, 1.233919e+002
7.615815e+002, 1.237445e+002
7.620637e+002, 1.240487e+002
7.625458e+002, 1.243136e+002
7.630279e+002, 1.246390e+002
7.635100e+002, 1.252051e+002
7.639921e+002, 1.255757e+002
7.644742e+002, 1.251329e+002
7.649564e+002, 1.243352e+002
7.654385e+002, 1.240614e+002
7.659206e+002, 1.243776e+002
7.664027e+002, 1.248372e+002
7.668848e+002, 1.251726e+002
7.673669e+002, 1.253945e+002
7.678491e+002, 1.255101e+002
7.683312e+002, 1.254838e+002
7.688133e+002, 1.254974e+002
7.692954e+002, 1.256973e+002
7.697775e+002, 1.257316e+002
7.702596e+002, 1.251102e+002
7.707418e+002, 1.243980e+002
7.712239e+002, 1.244336e+002
7.717060e+002, 1.253766e+002
7.721881e+002, 1.262561e+002
7.726702e+002, 1.267752e+002
7.731523e+002, 1.270240e+002
7.736345e+002, 1.269080e+002
7.741166e+002, 1.266148e+002
7.745987e+002, 1.265112e+002
7.750808e+002, 1.266920e+002
7.755629e+002, 1.269709e+002
7.760450e+002, 1.271681e+002
7.765272e+002, 1.273039e+002
7.770093e+002, 1.274938e+002
7.774914e+002, 1.277688e+002
7.779735e+002, 1.279317e+002
7.784556e+002, 1.279247e+002
7.789377e+002, 1.278117e+002
7.794199e+002, 1.275452e+002
7.799020e+002, 1.271984e+002
7.803841e+002, 1.271276e+002
7.808662e+002, 1.275375e+002
7.813483e+002, 1.279384e+002
7.818304e+002, 1.283017e+002
7.823126e+002, 1.285405e+002
7.827947e+002, 1.284926e+002
7.832768e+002, 1.282664e+002
7.837589e+002, 1.281402e+002
7.842410e+002, 1.282415e+002
7.847231e+002, 1.284077e+002
7.852053e+002, 1.284594e+002
7.856874e+002, 1.284098e+002
7.861695e+002, 1.282482e+002
7.866516e+002, 1.279627e+002
7.871337e+002, 1.279026e+002
7.876158e+002, 1.282964e+002
7.880980e+002, 1.288127e+002
7.885801e+002, 1.289163e+002
7.890622e+002, 1.285050e+002
7.895443e+002, 1.283466e+002
7.900264e+002, 1.285781e+002
7.905085e+002, 1.288792e+002
7.909907e+002, 1.293207e+002
7.914728e+002, 1.297040e+002
7.919549e+002, 1.298563e+002
7.924370e+002, 1.297738e+002
7.929191e+002, 1.295328e+002
7.934012e+002, 1.290871e+002
7.938834e+002, 1.286260e+002
7.943655e+002, 1.282650e+002
7.948476e+002, 1.280436e+002
7.953297e+002, 1.281115e+002
7.958118e+002, 1.284565e+002
7.962939e+002, 1.288336e+002
7.967761e+002, 1.291020e+002
7.972582e+002, 1.292229e+002
7.977403e+002, 1.290183e+002
7.982224e+002, 1.282951e+002
7.987045e+002, 1.281023e+002
7.991866e+002, 1.288866e+002
7.996688e+002, 1.295366e+002
8.001509e+002, 1.293623e+002
8.006330e+002, 1.288707e+002
8.011151e+002, 1.286952e+002
8.015972e+002, 1.289037e+002
8.020793e+002, 1.289996e+002
8.025615e+002, 1.286807e+002
8.030436e+002, 1.283847e+002
8.035257e+002, 1.284359e+002
8.040078e+002, 1.286629e+002
8.044899e+002, 1.288558e+002
8.049720e+002, 1.289420e+002
8.054542e+002, 1.288357e+002
8.059363e+002, 1.283877e+002
8.064184e+002, 1.278498e+002
8.069005e+002, 1.279029e+002
8.073826e+002, 1.285096e+002
8.078647e+002, 1.287541e+002
8.083469e+002, 1.283952e+002
8.088290e+002, 1.281069e+002
8.093111e+002, 1.284800e+002
8.097932e+002, 1.291865e+002
8.102753e+002, 1.291843e+002
8.107574e+002, 1.278006e+002
8.112396e+002, 1.270834e+002
8.117217e+002, 1.275194e+002
8.122038e+002, 1.280577e+002
8.126859e+002, 1.283757e+002
8.131680e+002, 1.284674e+002
8.136501e+002, 1.282712e+002
8.141323e+002, 1.278034e+002
8.146144e+002, 1.274427e+002
8.150965e+002, 1.275458e+002
8.155786e+002, 1.277811e+002
8.160607e+002, 1.277227e+002
8.165428e+002, 1.274873e+002
8.170250e+002, 1.274159e+002
8.175071e+002, 1.275758e+002
8.179892e+002, 1.277500e+002
8.184713e+002, 1.277552e+002
8.189534e+002, 1.276337e+002
8.194355e+002, 1.275429e+002
8.199177e+002, 1.274973e+002
8.203998e+002, 1.274016e+002
8.208819e+002, 1.271782e+002
8.213640e+002, 1.270156e+002
8.218461e+002, 1.270363e+002
8.223282e+002, 1.271947e+002
8.228104e+002, 1.274285e+002
8.232925e+002, 1.277952e+002
8.237746e+002, 1.280124e+002
8.242567e+002, 1.279554e+002
8.247388e+002, 1.278125e+002
8.252209e+002, 1.276786e+002
8.257031e+002, 1.275354e+002
8.261852e+002, 1.273304e+002
8.266673e+002, 1.270646e+002
8.271494e+002, 1.268156e+002
8.276315e+002, 1.266744e+002
8.281136e+002, 1.265516e+002
8.285958e+002, 1.261809e+002
8.290779e+002, 1.256625e+002
8.295600e+002, 1.255152e+002
8.300421e+002, 1.258446e+002
8.305242e+002, 1.263991e+002
8.310063e+002, 1.270812e+002
8.314885e+002, 1.277071e+002
8.319706e+002, 1.276254e+002
8.324527e+002, 1.263303e+002
8.329348e+002, 1.256771e+002
8.334169e+002, 1.261629e+002
8.338990e+002, 1.266837e+002
8.343812e+002, 1.267269e+002
8.348633e+002, 1.266038e+002
8.353454e+002, 1.267499e+002
8.358275e+002, 1.272138e+002
8.363096e+002, 1.275360e+002
8.367917e+002, 1.275157e+002
8.372739e+002, 1.273631e+002
8.377560e+002, 1.271583e+002
8.382381e+002, 1.269288e+002
8.387202e+002, 1.266895e+002
8.392023e+002, 1.264545e+002
8.396844e+002, 1.262642e+002
8.401666e+002, 1.261544e+002
8.406487e+002, 1.260773e+002
8.411308e+002, 1.259106e+002
8.416129e+002, 1.256857e+002
8.420950e+002, 1.256560e+002
8.425771e+002, 1.258641e+002
8.430593e+002, 1.260915e+002
8.435414e+002, 1.262789e+002
8.440235e+002, 1.262817e+002
8.445056e+002, 1.257288e+002
8.449877e+002, 1.243476e+002
8.454698e+002, 1.238107e+002
8.459520e+002, 1.249140e+002
8.464341e+002, 1.258217e+002
8.469162e+002, 1.261712e+002
8.473983e+002, 1.261214e+002
8.478804e+002, 1.256567e+002
8.483625e+002, 1.248836e+002
8.488447e+002, 1.242454e+002
8.493268e+002, 1.237432e+002
8.498089e+002, 1.236230e+002
8.502910e+002, 1.244134e+002
8.507731e+002, 1.253996e+002
8.512552e+002, 1.258013e+002
8.517374e+002, 1.255997e+002
8.522195e+002, 1.249283e+002
8.527016e+002, 1.238471e+002
8.531837e+002, 1.229334e+002
8.536658e+002, 1.231581e+002
8.541479e+002, 1.242283e+002
8.546301e+002, 1.247319e+002
8.551122e+002, 1.246406e+002
8.555943e+002, 1.244054e+002
8.560764e+002, 1.241507e+002
8.565585e+002, 1.238986e+002
8.570406e+002, 1.236840e+002
8.575228e+002, 1.234990e+002
8.580049e+002, 1.232233e+002
8.584870e+002, 1.226834e+002
8.589691e+002, 1.223556e+002
8.594512e+002, 1.224552e+002
8.599333e+002, 1.225925e+002
8.604155e+002, 1.226254e+002
8.608976e+002, 1.225344e+002
8.613797e+002, 1.222430e+002
8.618618e+002, 1.216755e+002
8.623439e+002, 1.212885e+002
8.628260e+002, 1.216115e+002
8.633082e+002, 1.218649e+002
8.637903e+002, 1.211979e+002
8.642724e+002, 1.201084e+002
8.647545e+002, 1.194789e+002
8.652366e+002, 1.194841e+002
8.657188e+002, 1.197423e+002
8.662009e+002, 1.200485e+002
8.666830e+002, 1.202574e+002
8.671651e+002, 1.200155e+002
8.676472e+002, 1.193940e+002
8.681293e+002, 1.187848e+002
8.686115e+002, 1.182361e+002
8.690936e+002, 1.179395e+002
8.695757e+002, 1.180509e+002
8.700578e+002, 1.183814e+002
8.705399e+002, 1.185510e+002
8.710220e+002, 1.185381e+002
8.715042e+002, 1.184733e+002
8.719863e+002, 1.184280e+002
8.724684e+002, 1.182182e+002
8.729505e+002, 1.176671e+002
8.734326e+002, 1.170164e+002
8.739147e+002, 1.163827e+002
8.743969e+002, 1.158089e+002
8.748790e+002, 1.155307e+002
8.753611e+002, 1.159724e+002
8.758432e+002, 1.161793e+002
8.763253e+002, 1.154655e+002
8.768074e+002, 1.146751e+002
8.772896e+002, 1.146826e+002
8.777717e+002, 1.152103e+002
8.782538e+002, 1.154713e+002
8.787359e+002, 1.151795e+002
8.792180e+002, 1.147118e+002
8.797001e+002, 1.142125e+002
8.801823e+002, 1.138721e+002
8.806644e+002, 1.143032e+002
8.811465e+002, 1.152592e+002
8.816286e+002, 1.156230e+002
8.821107e+002, 1.151097e+002
8.825928e+002, 1.142696e+002
8.830750e+002, 1.135360e+002
8.835571e+002, 1.129505e+002
8.840392e+002, 1.127104e+002
8.845213e+002, 1.128895e+002
8.850034e+002, 1.129914e+002
8.854855e+002, 1.129653e+002
8.859677e+002, 1.128890e+002
8.864498e+002, 1.128556e+002
8.869319e+002, 1.127569e+002
8.874140e+002, 1.123405e+002
8.878961e+002, 1.115208e+002
8.883782e+002, 1.109709e+002
8.888604e+002, 1.110087e+002
8.893425e+002, 1.109349e+002
8.898246e+002, 1.104432e+002
8.903067e+002, 1.098535e+002
8.907888e+002, 1.094080e+002
8.912709e+002, 1.091219e+002
8.917531e+002, 1.089577e+002
8.922352e+002, 1.089431e+002
8.927173e+002, 1.089079e+002
8.931994e+002, 1.086230e+002
8.936815e+002, 1.083378e+002
8.941636e+002, 1.084567e+002
8.946458e+002, 1.088177e+002
8.951279e+002, 1.088977e+002
8.956100e+002, 1.085593e+002
8.960921e+002, 1.082397e+002
8.965742e+002, 1.084146e+002
8.970563e+002, 1.088612e+002
8.975385e+002, 1.089000e+002
8.980206e+002, 1.085815e+002
8.985027e+002, 1.086766e+002
8.989848e+002, 1.093761e+002
8.994669e+002, 1.098583e+002
8.999490e+002, 1.095586e+002
9.004312e+002, 1.087504e+002
9.009133e+002, 1.080252e+002
9.013954e+002, 1.073466e+002
9.018775e+002, 1.069268e+002
9.023596e+002, 1.068473e+002
9.028417e+002, 1.068885e+002
9.033239e+002, 1.070415e+002
9.038060e+002, 1.072409e+002
9.042881e+002, 1.074735e+002
9.047702e+002, 1.077146e+002
9.052523e+002, 1.078088e+002
9.057344e+002, 1.076903e+002
9.062166e+002, 1.074938e+002
9.066987e+002, 1.072399e+002
9.071808e+002, 1.069302e+002
9.076629e+002, 1.064596e+002
9.081450e+002, 1.059704e+002
9.086271e+002, 1.057227e+002
9.091093e+002, 1.057794e+002
9.095914e+002, 1.059316e+002
9.100735e+002, 1.062032e+002
9.105556e+002, 1.063560e+002
9.110377e+002, 1.059322e+002
9.115198e+002, 1.052466e+002
9.120020e+002, 1.049807e+002
9.124841e+002, 1.052046e+002
9.129662e+002, 1.055630e+002
9.134483e+002, 1.058495e+002
9.139304e+002, 1.060247e+002
9.144125e+002, 1.060186e+002
9.148947e+002, 1.058392e+002
9.153768e+002, 1.054618e+002
9.158589e+002, 1.048664e+002
9.163410e+002, 1.045823e+002
9.168231e+002, 1.048604e+002
9.173052e+002, 1.052883e+002
9.177874e+002, 1.054010e+002
9.182695e+002, 1.052374e+002
9.187516e+002, 1.051805e+002
9.192337e+002, 1.053357e+002
9.197158e+002, 1.053401e+002
9.201979e+002, 1.050619e+002
9.206801e+002, 1.047524e+002
9.211622e+002, 1.044730e+002
9.216443e+002, 1.042815e+002
9.221264e+002, 1.043150e+002
9.226085e+002, 1.046172e+002
9.230906e+002, 1.048454e+002
9.235728e+002, 1.049085e+002
9.240549e+002, 1.049432e+002
9.245370e+002, 1.049963e+002
9.250191e+002, 1.050446e+002
9.255012e+002, 1.050664e+002
9.259833e+002, 1.050605e+002
9.264655e+002, 1.050208e+002
9.269476e+002, 1.049250e+002
9.274297e+002, 1.048774e+002
9.279118e+002, 1.050243e+002
9.283939e+002, 1.051980e+002
9.288760e+002, 1.051640e+002
9.293582e+002, 1.050121e+002
9.298403e+002, 1.050044e+002
9.303224e+002, 1.051816e+002
9.308045e+002, 1.052873e+002
9.312866e+002, 1.050701e+002
9.317687e+002, 1.047523e+002
9.322509e+002, 1.047652e+002
9.327330e+002, 1.050513e+002
9.332151e+002, 1.054410e+002
9.336972e+002, 1.058958e+002
9.341793e+002, 1.060050e+002
9.346614e+002, 1.055227e+002
9.351436e+002, 1.049107e+002
9.356257e+002, 1.048678e+002
9.361078e+002, 1.053602e+002
9.365899e+002, 1.057316e+002
9.370720e+002, 1.059930e+002
9.375541e+002, 1.060625e+002
9.380363e+002, 1.058625e+002
9.385184e+002, 1.055812e+002
9.390005e+002, 1.052908e+002
9.394826e+002, 1.050483e+002
9.399647e+002, 1.050267e+002
9.404468e+002, 1.053241e+002
9.409290e+002, 1.055732e+002
9.414111e+002, 1.058037e+002
9.418932e+002, 1.059508e+002
9.423753e+002, 1.059446e+002
9.428574e+002, 1.058862e+002
9.433395e+002, 1.058308e+002
9.438217e+002, 1.058022e+002
9.443038e+002, 1.058807e+002
9.447859e+002, 1.061260e+002
9.452680e+002, 1.063998e+002
9.457501e+002, 1.068029e+002
9.462322e+002, 1.070736e+002
9.467144e+002, 1.069102e+002
9.471965e+002, 1.065174e+002
9.476786e+002, 1.062171e+002
9.481607e+002, 1.060882e+002
9.486428e+002, 1.060621e+002
9.491249e+002, 1.060899e+002
9.496071e+002, 1.062085e+002
9.500892e+002, 1.066161e+002
9.505713e+002, 1.070628e+002
9.510534e+002, 1.070183e+002
9.515355e+002, 1.065671e+002
9.520176e+002, 1.062378e+002
9.524998e+002, 1.062680e+002
9.529819e+002, 1.065253e+002
9.534640e+002, 1.069868e+002
9.539461e+002, 1.075066e+002
9.544282e+002, 1.075816e+002
9.549103e+002, 1.072659e+002
9.553925e+002, 1.069679e+002
9.558746e+002, 1.067718e+002
9.563567e+002, 1.066127e+002
9.568388e+002, 1.064266e+002
9.573209e+002, 1.063165e+002
9.578030e+002, 1.066071e+002
9.582852e+002, 1.073768e+002
9.587673e+002, 1.075810e+002
9.592494e+002, 1.070781e+002
9.597315e+002, 1.065447e+002
9.602136e+002, 1.061199e+002
9.606957e+002, 1.058784e+002
9.611779e+002, 1.059514e+002
9.616600e+002, 1.062659e+002
9.621421e+002, 1.064167e+002
9.626242e+002, 1.062162e+002
9.631063e+002, 1.062330e+002
9.635884e+002, 1.068475e+002
9.640706e+002, 1.072040e+002
9.645527e+002, 1.066995e+002
9.650348e+002, 1.059726e+002
9.655169e+002, 1.057940e+002
9.659990e+002, 1.061356e+002
9.664811e+002, 1.062914e+002
9.669633e+002, 1.058822e+002
9.674454e+002, 1.056786e+002
9.679275e+002, 1.060975e+002
9.684096e+002, 1.065324e+002
9.688917e+002, 1.066079e+002
9.693738e+002, 1.064000e+002
9.698560e+002, 1.059686e+002
9.703381e+002, 1.053496e+002
9.708202e+002, 1.050333e+002
9.713023e+002, 1.056581e+002
9.717844e+002, 1.061991e+002
9.722665e+002, 1.057631e+002
9.727487e+002, 1.050125e+002
9.732308e+002, 1.047734e+002
9.737129e+002, 1.049589e+002
9.741950e+002, 1.050311e+002
9.746771e+002, 1.047829e+002
9.751592e+002, 1.044990e+002
9.756414e+002, 1.044522e+002
9.761235e+002, 1.045071e+002
9.766056e+002, 1.044563e+002
9.770877e+002, 1.043545e+002
9.775698e+002, 1.043606e+002
9.780519e+002, 1.044790e+002
9.785341e+002, 1.045669e+002
9.790162e+002, 1.045389e+002
9.794983e+002, 1.044482e+002
9.799804e+002, 1.043692e+002
9.804625e+002, 1.042935e+002
9.809446e+002, 1.041580e+002
9.814268e+002, 1.039774e+002
9.819089e+002, 1.039502e+002
9.823910e+002, 1.041308e+002
9.828731e+002, 1.041989e+002
9.833552e+002, 1.038645e+002
9.838373e+002, 1.033410e+002
9.843195e+002, 1.032089e+002
9.848016e+002, 1.034933e+002
9.852837e+002, 1.035995e+002
9.857658e+002, 1.034845e+002
9.862479e+002, 1.033225e+002
9.867300e+002, 1.031524e+002
9.872122e+002, 1.030180e+002
9.876943e+002, 1.029761e+002
9.881764e+002, 1.030021e+002
9.886585e+002, 1.029544e+002
9.891406e+002, 1.027876e+002
9.896227e+002, 1.026704e+002
9.901049e+002, 1.025634e+002
9.905870e+002, 1.026037e+002
9.910691e+002, 1.030255e+002
9.915512e+002, 1.034494e+002
9.920333e+002, 1.033138e+002
9.925154e+002, 1.026467e+002
9.929976e+002, 1.023549e+002
9.934797e+002, 1.028663e+002
9.939618e+002, 1.030994e+002
9.944439e+002, 1.028830e+002
9.949260e+002, 1.025099e+002
9.954081e+002, 1.019198e+002
9.958903e+002, 1.013652e+002
9.963724e+002, 1.012206e+002
9.968545e+002, 1.015021e+002
9.973366e+002, 1.017849e+002
9.978187e+002, 1.021187e+002
9.983008e+002, 1.022642e+002
9.987830e+002, 1.018687e+002
9.992651e+002, 1.015382e+002
9.997472e+002, 1.018951e+002
1.000229e+003, 1.025560e+002
1.000711e+003, 1.027719e+002
1.001194e+003, 1.024084e+002
1.001676e+003, 1.021021e+002
1.002158e+003, 1.022013e+002
1.002640e+003, 1.023479e+002
1.003122e+003, 1.023562e+002
1.003604e+003, 1.022917e+002
1.004086e+003, 1.021188e+002
1.004568e+003, 1.019564e+002
1.005050e+003, 1.021190e+002
1.005533e+003, 1.026954e+002
1.006015e+003, 1.031807e+002
1.006497e+003, 1.032272e+002
1.006979e+003, 1.030176e+002
1.007461e+003, 1.025292e+002
1.007943e+003, 1.020110e+002
1.008425e+003, 1.018648e+002
1.008907e+003, 1.020706e+002
1.009390e+003, 1.024228e+002
1.009872e+003, 1.028322e+002
1.010354e+003, 1.031574e+002
1.010836e+003, 1.032222e+002
1.011318e+003, 1.031426e+002
1.011800e+003, 1.030318e+002
1.012282e+003, 1.029473e+002
1.012764e+003, 1.030975e+002
1.013246e+003, 1.034530e+002
1.013729e+003, 1.036734e+002
1.014211e+003, 1.035750e+002
1.014693e+003, 1.034121e+002
1.015175e+003, 1.034822e+002
1.015657e+003, 1.037602e+002
1.016139e+003, 1.043108e+002
1.016621e+003, 1.050305e+002
1.017103e+003, 1.053368e+002
1.017586e+003, 1.051416e+002
1.018068e+003, 1.048521e+002
1.018550e+003, 1.047070e+002
1.019032e+003, 1.047221e+002
1.019514e+003, 1.049655e+002
1.019996e+003, 1.054051e+002
1.020478e+003, 1.058599e+002
1.020960e+003, 1.063248e+002
1.021442e+003, 1.065041e+002
1.021925e+003, 1.063147e+002
1.022407e+003, 1.060766e+002
1.022889e+003, 1.059843e+002
1.023371e+003, 1.060818e+002
1.023853e+003, 1.064916e+002
1.024335e+003, 1.072157e+002
1.024817e+003, 1.080159e+002
1.025299e+003, 1.089508e+002
1.025781e+003, 1.094597e+002
1.026264e+003, 1.093305e+002
1.026746e+003, 1.090594e+002
1.027228e+003, 1.089859e+002
1.027710e+003, 1.090771e+002
1.028192e+003, 1.092862e+002
1.028674e+003, 1.096458e+002
1.029156e+003, 1.098132e+002
1.029638e+003, 1.096689e+002
1.030120e+003, 1.097393e+002
1.030603e+003, 1.101929e+002
1.031085e+003, 1.108290e+002
1.031567e+003, 1.115590e+002
1.032049e+003, 1.122978e+002
1.032531e+003, 1.128192e+002
1.033013e+003, 1.130962e+002
1.033495e+003, 1.132755e+002
1.033977e+003, 1.133237e+002
1.034460e+003, 1.133360e+002
1.034942e+003, 1.132415e+002
1.035424e+003, 1.132584e+002
1.035906e+003, 1.136314e+002
1.036388e+003, 1.142201e+002
1.036870e+003, 1.146211e+002
1.037352e+003, 1.147871e+002
1.037834e+003, 1.149209e+002
1.038317e+003, 1.149039e+002
1.038799e+003, 1.150398e+002
1.039281e+003, 1.155170e+002
1.039763e+003, 1.160510e+002
1.040245e+003, 1.164055e+002
1.040727e+003, 1.166542e+002
1.041209e+003, 1.170025e+002
1.041691e+003, 1.174338e+002
1.042173e+003, 1.180134e+002
1.042656e+003, 1.189332e+002
1.043138e+003, 1.197507e+002
1.043620e+003, 1.201153e+002
1.044102e+003, 1.205634e+002
1.044584e+003, 1.216108e+002
1.045066e+003, 1.230387e+002
1.045548e+003, 1.242579e+002
1.046030e+003, 1.251733e+002
1.046512e+003, 1.261047e+002
1.046995e+003, 1.269955e+002
1.047477e+003, 1.280271e+002
1.047959e+003, 1.292379e+002
1.048441e+003, 1.306258e+002
1.048923e+003, 1.321825e+002
1.049405e+003, 1.339104e+002
1.049887e+003, 1.357585e+002
1.050369e+003, 1.376515e+002
1.050852e+003, 1.400590e+002
1.051334e+003, 1.435159e+002
1.051816e+003, 1.469289e+002
1.052298e+003, 1.497938e+002
1.052780e+003, 1.525969e+002
1.053262e+003, 1.557125e+002
1.053744e+003, 1.591068e+002
1.054226e+003, 1.626219e+002
1.054708e+003, 1.662271e+002
1.055191e+003, 1.701125e+002
1.055673e+003, 1.740808e+002
1.056155e+003, 1.786629e+002
1.056637e+003, 1.849953e+002
1.057119e+003, 1.911822e+002
1.057601e+003, 1.954490e+002
1.058083e+003, 1.984185e+002
1.058565e+003, 2.017145e+002
1.059047e+003, 2.056772e+002
1.059530e+003, 2.088448e+002
1.060012e+003, 2.107260e+002
1.060494e+003, 2.116878e+002
1.060976e+003, 2.117533e+002
1.061458e+003, 2.110745e+002
1.061940e+003, 2.100052e+002
1.062422e+003, 2.081964e+002
1.062904e+003, 2.048391e+002
1.063387e+003, 1.997980e+002
1.063869e+003, 1.942660e+002
1.064351e+003, 1.884985e+002
1.064833e+003, 1.825687e+002
1.065315e+003, 1.764859e+002
1.065797e+003, 1.702607e+002
1.066279e+003, 1.637776e+002
1.066761e+003, 1.572337e+002
1.067244e+003, 1.509013e+002
1.067726e+003, 1.448657e+002
1.068208e+003, 1.394908e+002
1.068690e+003, 1.350788e+002
1.069172e+003, 1.311413e+002
1.069654e+003, 1.276429e+002
1.070136e+003, 1.243704e+002
1.070618e+003, 1.210633e+002
1.071100e+003, 1.179174e+002
1.071583e+003, 1.153987e+002
1.072065e+003, 1.135169e+002
1.072547e+003, 1.116706e+002
1.073029e+003, 1.095532e+002
1.073511e+003, 1.075608e+002
1.073993e+003, 1.058122e+002
1.074475e+003, 1.043407e+002
1.074957e+003, 1.033461e+002
1.075439e+003, 1.025510e+002
1.075922e+003, 1.015007e+002
1.076404e+003, 1.002030e+002
1.076886e+003, 9.911622e+001
1.077368e+003, 9.851708e+001
1.077850e+003, 9.790928e+001
1.078332e+003, 9.687503e+001
1.078814e+003, 9.593265e+001
1.079297e+003, 9.559977e+001
1.079779e+003, 9.550197e+001
1.080261e+003, 9.509502e+001
1.080743e+003, 9.440156e+001
1.081225e+003, 9.384881e+001
1.081707e+003, 9.359483e+001
1.082189e+003, 9.344038e+001
1.082671e+003, 9.352257e+001
1.083153e+003, 9.342204e+001
1.083635e+003, 9.258434e+001
1.084118e+003, 9.161668e+001
1.084600e+003, 9.122221e+001
1.085082e+003, 9.135662e+001
1.085564e+003, 9.169062e+001
1.086046e+003, 9.223205e+001
1.086528e+003, 9.239995e+001
1.087010e+003, 9.157172e+001
1.087492e+003, 9.075607e+001
1.087975e+003, 9.058517e+001
1.088457e+003, 9.064552e+001
1.088939e+003, 9.054757e+001
1.089421e+003, 9.029650e+001
1.089903e+003, 9.000790e+001
1.090385e+003, 8.970327e+001
1.090867e+003, 8.942976e+001
1.091349e+003, 8.927949e+001
1.091832e+003, 8.907017e+001
1.092314e+003, 8.850243e+001
1.092796e+003, 8.803883e+001
1.093278e+003, 8.825966e+001
1.093760e+003, 8.881211e+001
1.094242e+003, 8.894979e+001
1.094724e+003, 8.855396e+001
1.095206e+003, 8.826415e+001
1.095688e+003, 8.852256e+001
1.096171e+003, 8.858962e+001
1.096653e+003, 8.798225e+001
1.097135e+003, 8.733025e+001
1.097617e+003, 8.701919e+001
1.098099e+003, 8.697222e+001
1.098581e+003, 8.709097e+001
1.099063e+003, 8.733730e+001
1.099545e+003, 8.752106e+001
1.100027e+003, 8.763693e+001
1.100510e+003, 8.761987e+001
1.100992e+003, 8.728111e+001
1.101474e+003, 8.700259e+001
1.101956e+003, 8.710307e+001
1.102438e+003, 8.729688e+001
1.102920e+003, 8.716798e+001
1.103402e+003, 8.679619e+001
1.103884e+003, 8.672104e+001
1.104367e+003, 8.724442e+001
1.104849e+003, 8.752088e+001
1.105331e+003, 8.711037e+001
1.105813e+003, 8.679980e+001
1.106295e+003, 8.705042e+001
1.106777e+003, 8.739498e+001
1.107259e+003, 8.735035e+001
1.107741e+003, 8.705640e+001
1.108224e+003, 8.698783e+001
1.108706e+003, 8.727957e+001
1.109188e+003, 8.740060e+001
1.109670e+003, 8.725081e+001
1.110152e+003, 8.700118e+001
1.110634e+003, 8.651351e+001
1.111116e+003, 8.611714e+001
1.111598e+003, 8.605834e+001
1.112080e+003, 8.622674e+001
1.112563e+003, 8.645061e+001
1.113045e+003, 8.674827e+001
1.113527e+003, 8.690456e+001
1.114009e+003, 8.684467e+001
1.114491e+003, 8.676527e+001
1.114973e+003, 8.665379e+001
1.115455e+003, 8.657064e+001
1.115937e+003, 8.659509e+001
1.116419e+003, 8.662053e+001
1.116902e+003, 8.650240e+001
1.117384e+003, 8.625192e+001
1.117866e+003, 8.598560e+001
1.118348e+003, 8.561234e+001
1.118830e+003, 8.544666e+001
1.119312e+003, 8.560143e+001
1.119794e+003, 8.576221e+001
1.120276e+003, 8.583025e+001
1.120759e+003, 8.584477e+001
1.121241e+003, 8.584721e+001
1.121723e+003, 8.582228e+001
1.122205e+003, 8.570716e+001
1.122687e+003, 8.546730e+001
1.123169e+003, 8.530024e+001
1.123651e+003, 8.523952e+001
1.124133e+003, 8.512225e+001
1.124615e+003, 8.487054e+001
1.125098e+003, 8.467640e+001
1.125580e+003, 8.470196e+001
1.126062e+003, 8.480997e+001
1.126544e+003, 8.471906e+001
1.127026e+003, 8.443586e+001
1.127508e+003, 8.425952e+001
1.127990e+003, 8.420036e+001
1.128472e+003, 8.416808e+001
1.128954e+003, 8.415250e+001
1.129437e+003, 8.414647e+001
1.129919e+003, 8.415257e+001
1.130401e+003, 8.412527e+001
1.130883e+003, 8.398257e+001
1.131365e+003, 8.378780e+001
1.131847e+003, 8.379721e+001
1.132329e+003, 8.400469e+001
1.132811e+003, 8.440031e+001
1.133294e+003, 8.496725e+001
1.133776e+003, 8.509370e+001
1.134258e+003, 8.457500e+001
1.134740e+003, 8.385786e+001
1.135222e+003, 8.327731e+001
1.135704e+003, 8.289969e+001
1.136186e+003, 8.292424e+001
1.136668e+003, 8.326374e+001
1.137151e+003, 8.363552e+001
1.137633e+003, 8.399789e+001
1.138115e+003, 8.419895e+001
1.138597e+003, 8.421215e+001
1.139079e+003, 8.406699e+001
1.139561e+003, 8.377337e+001
1.140043e+003, 8.354915e+001
1.140525e+003, 8.380978e+001
1.141007e+003, 8.420732e+001
1.141490e+003, 8.391584e+001
1.141972e+003, 8.329688e+001
1.142454e+003, 8.328471e+001
1.142936e+003, 8.376138e+001
1.143418e+003, 8.386455e+001
1.143900e+003, 8.334045e+001
1.144382e+003, 8.281554e+001
1.144864e+003, 8.274378e+001
1.145346e+003, 8.291929e+001
1.145829e+003, 8.325494e+001
1.146311e+003, 8.360216e+001
1.146793e+003, 8.373606e+001
1.147275e+003, 8.374700e+001
1.147757e+003, 8.388253e+001
1.148239e+003, 8.412619e+001
1.148721e+003, 8.415837e+001
1.149203e+003, 8.377556e+001
1.149686e+003, 8.345180e+001
1.150168e+003, 8.356361e+001
1.150650e+003, 8.376684e+001
1.151132e+003, 8.386639e+001
1.151614e+003, 8.387321e+001
1.152096e+003, 8.373779e+001
1.152578e+003, 8.354908e+001
1.153060e+003, 8.353444e+001
1.153542e+003, 8.375180e+001
1.154025e+003, 8.387856e+001
1.154507e+003, 8.359544e+001
1.154989e+003, 8.349373e+001
1.155471e+003, 8.405498e+001
1.155953e+003, 8.456676e+001
1.156435e+003, 8.448585e+001
1.156917e+003, 8.411903e+001
1.157399e+003, 8.389214e+001
1.157881e+003, 8.382220e+001
1.158364e+003, 8.374928e+001
1.158846e+003, 8.360753e+001
1.159328e+003, 8.355827e+001
1.159810e+003, 8.376146e+001
1.160292e+003, 8.385660e+001
1.160774e+003, 8.373546e+001
1.161256e+003, 8.347158e+001
1.161738e+003, 8.299136e+001
1.162221e+003, 8.247524e+001
1.162703e+003, 8.239326e+001
1.163185e+003, 8.281808e+001
1.163667e+003, 8.307751e+001
1.164149e+003, 8.312988e+001
1.164631e+003, 8.312924e+001
1.165113e+003, 8.307589e+001
1.165595e+003, 8.304544e+001
1.166078e+003, 8.310186e+001
1.166560e+003, 8.312108e+001
1.167042e+003, 8.290987e+001
1.167524e+003, 8.256110e+001
1.168006e+003, 8.254969e+001
1.168488e+003, 8.289046e+001
1.168970e+003, 8.315739e+001
1.169452e+003, 8.333123e+001
1.169934e+003, 8.333399e+001
1.170417e+003, 8.313871e+001
1.170899e+003, 8.295313e+001
1.171381e+003, 8.293763e+001
1.171863e+003, 8.296507e+001
1.172345e+003, 8.277563e+001
1.172827e+003, 8.246085e+001
1.173309e+003, 8.232236e+001
1.173791e+003, 8.235298e+001
1.174273e+003, 8.255212e+001
1.174756e+003, 8.289552e+001
1.175238e+003, 8.337368e+001
1.175720e+003, 8.395325e+001
1.176202e+003, 8.420725e+001
1.176684e+003, 8.359566e+001
1.177166e+003, 8.281779e+001
1.177648e+003, 8.284377e+001
1.178130e+003, 8.319729e+001
1.178613e+003, 8.315539e+001
1.179095e+003, 8.288319e+001
1.179577e+003, 8.285971e+001
1.180059e+003, 8.309008e+001
1.180541e+003, 8.312691e+001
1.181023e+003, 8.271290e+001
1.181505e+003, 8.250371e+001
1.181987e+003, 8.317664e+001
1.182469e+003, 8.385593e+001
1.182952e+003, 8.395148e+001
1.183434e+003, 8.377701e+001
1.183916e+003, 8.355665e+001
1.184398e+003, 8.335756e+001
1.184880e+003, 8.324051e+001
1.185362e+003, 8.321413e+001
1.185844e+003, 8.324963e+001
1.186326e+003, 8.344382e+001
1.186808e+003, 8.353868e+001
1.187291e+003, 8.339048e+001
1.187773e+003, 8.325613e+001
1.188255e+003, 8.340125e+001
1.188737e+003, 8.347503e+001
1.189219e+003, 8.299805e+001
1.189701e+003, 8.221413e+001
1.190183e+003, 8.188649e+001
1.190665e+003, 8.210207e+001
1.191148e+003, 8.231654e+001
1.191630e+003, 8.249981e+001
1.192112e+003, 8.281685e+001
1.192594e+003, 8.344798e+001
1.193076e+003, 8.370646e+001
1.193558e+003, 8.310242e+001
1.194040e+003, 8.236458e+001
1.194522e+003, 8.250007e+001
1.195005e+003, 8.320289e+001
1.195487e+003, 8.305797e+001
1.195969e+003, 8.211657e+001
1.196451e+003, 8.187217e+001
1.196933e+003, 8.236004e+001
1.197415e+003, 8.254713e+001
1.197897e+003, 8.218355e+001
1.198379e+003, 8.188098e+001
1.198861e+003, 8.203372e+001
1.199344e+003, 8.236345e+001
1.199826e+003, 8.252165e+001
1.200308e+003, 8.257021e+001
1.200790e+003, 8.260490e+001
1.201272e+003, 8.264571e+001
1.201754e+003, 8.277805e+001
1.202236e+003, 8.295458e+001
1.202718e+003, 8.300808e+001
1.203200e+003, 8.290354e+001
1.203683e+003, 8.276355e+001
1.204165e+003, 8.263692e+001
1.204647e+003, 8.256442e+001
1.205129e+003, 8.260076e+001
1.205611e+003, 8.267906e+001
1.206093e+003, 8.276512e+001
1.206575e+003, 8.284262e+001
1.207057e+003, 8.290454e+001
1.207540e+003, 8.294225e+001
1.208022e+003, 8.293393e+001
1.208504e+003, 8.287154e+001
1.208986e+003, 8.280883e+001
1.209468e+003, 8.270045e+001
1.209950e+003, 8.267861e+001
1.210432e+003, 8.293257e+001
1.210914e+003, 8.308945e+001
1.211396e+003, 8.276511e+001
1.211879e+003, 8.242142e+001
1.212361e+003, 8.264432e+001
1.212843e+003, 8.323440e+001
1.213325e+003, 8.336172e+001
1.213807e+003, 8.289759e+001
1.214289e+003, 8.256870e+001
1.214771e+003, 8.235111e+001
1.215253e+003, 8.241098e+001
1.215735e+003, 8.285037e+001
1.216218e+003, 8.324358e+001
1.216700e+003, 8.337292e+001
1.217182e+003, 8.326597e+001
1.217664e+003, 8.288061e+001
1.218146e+003, 8.240627e+001
1.218628e+003, 8.260074e+001
1.219110e+003, 8.326011e+001
1.219592e+003, 8.322523e+001
1.220075e+003, 8.259245e+001
1.220557e+003, 8.218887e+001
1.221039e+003, 8.220014e+001
1.221521e+003, 8.239399e+001
1.222003e+003, 8.264913e+001
1.222485e+003, 8.290134e+001
1.222967e+003, 8.320549e+001
1.223449e+003, 8.335204e+001
1.223932e+003, 8.286171e+001
1.224414e+003, 8.224928e+001
1.224896e+003, 8.221709e+001
1.225378e+003, 8.259668e+001
1.225860e+003, 8.299717e+001
1.226342e+003, 8.331892e+001
1.226824e+003, 8.352983e+001
1.227306e+003, 8.364906e+001
1.227788e+003, 8.357386e+001
1.228271e+003, 8.308425e+001
1.228753e+003, 8.263545e+001
1.229235e+003, 8.233669e+001
1.229717e+003, 8.223874e+001
1.230199e+003, 8.248547e+001
1.230681e+003, 8.290946e+001
1.231163e+003, 8.323797e+001
1.231645e+003, 8.346921e+001
1.232127e+003, 8.355510e+001
1.232610e+003, 8.343129e+001
1.233092e+003, 8.337010e+001
1.233574e+003, 8.342545e+001
1.234056e+003, 8.338729e+001
1.234538e+003, 8.317873e+001
1.235020e+003, 8.290874e+001
1.235502e+003, 8.263755e+001
1.235984e+003, 8.244453e+001
1.236467e+003, 8.249982e+001
1.236949e+003, 8.273997e+001
1.237431e+003, 8.293586e+001
1.237913e+003, 8.307043e+001
1.238395e+003, 8.300142e+001
1.238877e+003, 8.277825e+001
1.239359e+003, 8.271474e+001
1.239841e+003, 8.287548e+001
1.240323e+003, 8.296756e+001
1.240806e+003, 8.277931e+001
1.241288e+003, 8.258347e+001
1.241770e+003, 8.275320e+001
1.242252e+003, 8.292345e+001
1.242734e+003, 8.255950e+001
1.243216e+003, 8.211823e+001
1.243698e+003, 8.232925e+001
1.244180e+003, 8.287643e+001
1.244662e+003, 8.294017e+001
1.245145e+003, 8.242138e+001
1.245627e+003, 8.202914e+001
1.246109e+003, 8.187037e+001
1.246591e+003, 8.198890e+001
1.247073e+003, 8.275597e+001
1.247555e+003, 8.330778e+001
1.248037e+003, 8.319878e+001
1.248519e+003, 8.297266e+001
1.249002e+003, 8.303732e+001
1.249484e+003, 8.319993e+001
1.249966e+003, 8.305872e+001
1.250448e+003, 8.265151e+001
1.250930e+003, 8.270670e+001
1.251412e+003, 8.329887e+001
1.251894e+003, 8.350685e+001
1.252376e+003, 8.324969e+001
1.252859e+003, 8.289848e+001
1.253341e+003, 8.256820e+001
1.253823e+003, 8.238441e+001
1.254305e+003, 8.243196e+001
1.254787e+003, 8.268582e+001
1.255269e+003, 8.331145e+001
1.255751e+003, 8.396655e+001
1.256233e+003, 8.393904e+001
1.256715e+003, 8.351582e+001
1.257198e+003, 8.315833e+001
1.257680e+003, 8.290708e+001
1.258162e+003, 8.270320e+001
1.258644e+003, 8.253458e+001
1.259126e+003, 8.240953e+001
1.259608e+003, 8.230073e+001
1.260090e+003, 8.236111e+001
1.260572e+003, 8.285825e+001
1.261054e+003, 8.328328e+001
1.261537e+003, 8.342849e+001
1.262019e+003, 8.337267e+001
1.262501e+003, 8.299837e+001
1.262983e+003, 8.257389e+001
1.263465e+003, 8.252082e+001
1.263947e+003, 8.280350e+001
1.264429e+003, 8.315447e+001
1.264911e+003, 8.366463e+001
1.265394e+003, 8.390665e+001
1.265876e+003, 8.382301e+001
1.266358e+003, 8.369945e+001
1.266840e+003, 8.358183e+001
1.267322e+003, 8.358800e+001
1.267804e+003, 8.380428e+001
1.268286e+003, 8.396800e+001
1.268768e+003, 8.372189e+001
1.269250e+003, 8.327599e+001
1.269733e+003, 8.305460e+001
1.270215e+003, 8.303536e+001
1.270697e+003, 8.328806e+001
1.271179e+003, 8.365788e+001
1.271661e+003, 8.369080e+001
1.272143e+003, 8.342323e+001
1.272625e+003, 8.331474e+001
1.273107e+003, 8.353773e+001
1.273589e+003, 8.382015e+001
1.274072e+003, 8.413069e+001
1.274554e+003, 8.427679e+001
1.275036e+003, 8.399096e+001
1.275518e+003, 8.370321e+001
1.276000e+003, 8.369497e+001
1.276482e+003, 8.383900e+001
1.276964e+003, 8.407832e+001
1.277446e+003, 8.433240e+001
1.277929e+003, 8.435738e+001
1.278411e+003, 8.414431e+001
1.278893e+003, 8.375751e+001
1.279375e+003, 8.305375e+001
1.279857e+003, 8.275891e+001
1.280339e+003, 8.302734e+001
1.280821e+003, 8.326015e+001
1.281303e+003, 8.324182e+001
1.281786e+003, 8.323243e+001
1.282268e+003, 8.341579e+001
##END=



