##NAMES=Hydrokenoralstonite
##RRUFFID=R060012
##IDEAL CHEMISTRY=[box]_2_Al_2_F_6_(H_2_O)
##LOCALITY=Ivigtut, Greenland
##OWNER=RRUFF
##SOURCE=University of Arizona Mineral Museum
##DESCRIPTION=Colorless octahedral ralstonite stained with iron oxide, associated with thomsenolite
##STATUS=The identification of this mineral is confirmed by single-crystal X-ray diffraction and chemical analysis.
##URL=rruff.info/R060012
##MEASURED CHEMISTRY=Na_0.70_Mg_0.70_Al_1.30_(F_4.18_(OH)_1.82_)_Σ=6_·H_2_O
164.4170, 788.1188
164.8991, 786.6911
165.3812, 785.1196
165.8633, 783.1325
166.3454, 781.7072
166.8276, 781.7333
167.3097, 783.0214
167.7918, 784.0920
168.2739, 784.1526
168.7560, 783.8837
169.2381, 784.1177
169.7203, 785.0192
170.2024, 786.1485
170.6845, 787.3191
171.1666, 788.6814
171.6487, 789.1629
172.1308, 787.2731
172.6130, 784.8779
173.0951, 783.3510
173.5772, 783.1269
174.0593, 783.7906
174.5414, 784.8268
175.0235, 786.8357
175.5057, 787.8568
175.9878, 786.6854
176.4699, 784.8715
176.9520, 783.9078
177.4341, 784.5028
177.9162, 786.1399
178.3984, 787.2530
178.8805, 787.7731
179.3626, 787.7367
179.8447, 786.7423
180.3268, 785.3443
180.8089, 784.0806
181.2911, 783.2275
181.7732, 782.8653
182.2553, 783.5003
182.7374, 786.8570
183.2195, 789.3277
183.7016, 789.8698
184.1838, 789.0623
184.6659, 787.9047
185.1480, 786.9384
185.6301, 786.1920
186.1122, 785.9764
186.5943, 786.8273
187.0765, 787.5348
187.5586, 787.5260
188.0407, 786.9471
188.5228, 786.3070
189.0049, 785.8907
189.4870, 785.7150
189.9692, 785.7177
190.4513, 786.0281
190.9334, 786.3889
191.4155, 786.5795
191.8976, 786.6127
192.3797, 786.7675
192.8619, 787.3565
193.3440, 788.1906
193.8261, 788.7209
194.3082, 788.5757
194.7903, 788.3185
195.2724, 788.7182
195.7546, 789.9181
196.2367, 790.8584
196.7188, 790.4747
197.2009, 789.4745
197.6830, 788.7601
198.1651, 788.6848
198.6473, 788.9893
199.1294, 789.2714
199.6115, 789.5703
200.0936, 789.7379
200.5757, 789.5130
201.0578, 789.1707
201.5400, 789.1094
202.0221, 789.6545
202.5042, 790.4955
202.9863, 790.6758
203.4684, 789.7225
203.9505, 788.8383
204.4327, 788.0970
204.9148, 787.7078
205.3969, 788.0754
205.8790, 789.6138
206.3611, 791.9485
206.8432, 793.1517
207.3254, 791.8680
207.8075, 791.0108
208.2896, 790.9464
208.7717, 791.7475
209.2538, 793.7064
209.7359, 797.1896
210.2181, 801.8805
210.7002, 804.6805
211.1823, 804.6191
211.6644, 803.5156
212.1465, 800.5093
212.6286, 796.7695
213.1108, 794.2245
213.5929, 794.2493
214.0750, 796.6378
214.5571, 798.3573
215.0392, 799.2488
215.5213, 799.7410
216.0035, 799.6569
216.4856, 799.2410
216.9677, 798.9845
217.4498, 799.2364
217.9319, 799.9475
218.4140, 800.4435
218.8962, 800.4835
219.3783, 800.5992
219.8604, 800.8770
220.3425, 801.3762
220.8246, 802.2877
221.3067, 803.8467
221.7889, 805.9143
222.2710, 807.5117
222.7531, 808.3152
223.2352, 809.0137
223.7173, 810.0715
224.1994, 811.3812
224.6816, 812.3441
225.1637, 812.3430
225.6458, 811.8031
226.1279, 812.3083
226.6100, 814.6995
227.0921, 817.2773
227.5743, 818.9479
228.0564, 819.7599
228.5385, 820.2550
229.0206, 820.5137
229.5027, 820.7274
229.9848, 821.2747
230.4670, 822.2774
230.9491, 823.4885
231.4312, 825.0219
231.9133, 826.8899
232.3954, 827.9135
232.8775, 826.7295
233.3597, 824.7408
233.8418, 823.8013
234.3239, 824.3505
234.8060, 825.5676
235.2881, 826.6209
235.7702, 827.4755
236.2524, 828.5104
236.7345, 830.0348
237.2166, 831.7326
237.6987, 833.4329
238.1808, 835.1741
238.6629, 836.5995
239.1451, 837.0042
239.6272, 836.0984
240.1093, 835.7333
240.5914, 836.6071
241.0735, 838.1674
241.5556, 840.4023
242.0378, 843.3428
242.5199, 846.0977
243.0020, 847.3962
243.4841, 846.8340
243.9662, 846.2379
244.4483, 845.7970
244.9305, 845.5167
245.4126, 845.4974
245.8947, 845.7379
246.3768, 845.9916
246.8589, 845.8111
247.3410, 844.8823
247.8232, 844.5172
248.3053, 845.0872
248.7874, 846.0313
249.2695, 847.3344
249.7516, 848.8596
250.2337, 850.0501
250.7159, 849.9410
251.1980, 847.6927
251.6801, 846.4703
252.1622, 847.0148
252.6443, 847.9441
253.1264, 848.5863
253.6086, 848.8046
254.0907, 848.7590
254.5728, 848.5838
255.0549, 848.1057
255.5370, 848.0533
256.0191, 848.9850
256.5013, 849.8138
256.9834, 849.8437
257.4655, 849.0901
257.9476, 848.0921
258.4297, 847.4456
258.9118, 847.2758
259.3940, 846.9192
259.8761, 846.4319
260.3582, 845.7487
260.8403, 844.8740
261.3224, 843.7828
261.8045, 842.3655
262.2867, 840.4372
262.7688, 837.8444
263.2509, 835.8564
263.7330, 834.6185
264.2151, 833.7136
264.6972, 833.2095
265.1794, 832.9328
265.6615, 832.4181
266.1436, 831.2630
266.6257, 829.4332
267.1078, 827.6806
267.5899, 826.6805
268.0721, 825.0942
268.5542, 821.8856
269.0363, 817.5280
269.5184, 813.3203
270.0005, 810.1553
270.4826, 807.9885
270.9648, 806.2827
271.4469, 805.2808
271.9290, 804.3704
272.4111, 803.5691
272.8932, 802.7017
273.3753, 801.3235
273.8575, 799.1074
274.3396, 796.2411
274.8217, 793.7025
275.3038, 791.9593
275.7859, 789.9420
276.2680, 786.8895
276.7502, 783.3383
277.2323, 780.4221
277.7144, 778.7341
278.1965, 777.8952
278.6786, 776.8421
279.1607, 775.6957
279.6429, 774.2374
280.1250, 772.3885
280.6071, 770.1876
281.0892, 767.4957
281.5713, 764.0702
282.0534, 760.6752
282.5356, 759.1207
283.0177, 759.9423
283.4998, 760.3013
283.9819, 759.3302
284.4640, 757.5191
284.9461, 755.5590
285.4283, 753.6126
285.9104, 751.6550
286.3925, 749.6034
286.8746, 747.4342
287.3567, 745.3746
287.8388, 743.3827
288.3210, 741.5473
288.8031, 740.0532
289.2852, 738.9435
289.7673, 737.9612
290.2494, 736.7265
290.7315, 735.2667
291.2137, 734.3314
291.6958, 734.7970
292.1779, 735.4327
292.6600, 734.5538
293.1421, 731.9594
293.6242, 729.5656
294.1064, 729.3129
294.5885, 730.7301
295.0706, 731.1976
295.5527, 729.4564
296.0348, 727.3646
296.5169, 726.6854
296.9991, 727.3976
297.4812, 728.1270
297.9633, 727.9283
298.4454, 727.1185
298.9275, 726.7717
299.4096, 727.3372
299.8918, 727.8975
300.3739, 727.8488
300.8560, 727.2258
301.3381, 726.1629
301.8202, 724.2310
302.3023, 722.3149
302.7845, 722.1994
303.2666, 724.7216
303.7487, 727.0182
304.2308, 727.1425
304.7129, 725.6407
305.1950, 724.4600
305.6772, 724.3157
306.1593, 724.6335
306.6414, 724.6154
307.1235, 724.2701
307.6056, 723.7298
308.0877, 722.7863
308.5699, 721.7027
309.0520, 721.0514
309.5341, 720.9307
310.0162, 721.3193
310.4983, 722.5953
310.9804, 724.5988
311.4626, 726.0009
311.9447, 726.0187
312.4268, 725.2977
312.9089, 724.8436
313.3910, 724.8057
313.8731, 724.7405
314.3553, 724.1827
314.8374, 723.2742
315.3195, 722.4597
315.8016, 721.7049
316.2837, 721.1492
316.7658, 721.0956
317.2480, 721.5655
317.7301, 721.8731
318.2122, 721.3099
318.6943, 720.3779
319.1764, 720.3215
319.6585, 721.9312
320.1407, 723.5632
320.6228, 723.8219
321.1049, 722.8809
321.5870, 722.0324
322.0691, 722.0378
322.5512, 722.2438
323.0334, 721.3395
323.5155, 718.8553
323.9976, 716.8027
324.4797, 716.4961
324.9618, 717.5045
325.4439, 718.6307
325.9261, 719.7473
326.4082, 720.4935
326.8903, 720.0969
327.3724, 718.5524
327.8545, 717.4766
328.3366, 717.6629
328.8188, 718.6115
329.3009, 719.6355
329.7830, 720.7021
330.2651, 721.4876
330.7472, 721.5883
331.2293, 721.0937
331.7115, 720.4041
332.1936, 719.2813
332.6757, 718.1750
333.1578, 717.6248
333.6399, 717.6553
334.1220, 717.7971
334.6042, 717.8113
335.0863, 717.6823
335.5684, 717.4036
336.0505, 716.5744
336.5326, 716.0093
337.0147, 716.5790
337.4969, 717.9993
337.9790, 718.8743
338.4611, 718.3248
338.9432, 717.1236
339.4253, 717.0840
339.9074, 718.7028
340.3896, 720.0426
340.8717, 720.1156
341.3538, 719.4060
341.8359, 718.8529
342.3180, 718.7074
342.8001, 718.8226
343.2823, 719.0676
343.7644, 719.4645
344.2465, 719.7509
344.7286, 719.5934
345.2107, 719.4454
345.6928, 720.0148
346.1750, 721.3893
346.6571, 722.6425
347.1392, 722.8686
347.6213, 722.0097
348.1034, 721.4318
348.5855, 721.1995
349.0677, 721.1893
349.5498, 721.2853
350.0319, 721.5148
350.5140, 722.0907
350.9961, 723.2869
351.4782, 724.8518
351.9604, 725.5840
352.4425, 724.9125
352.9246, 724.2660
353.4067, 724.2082
353.8888, 724.4534
354.3709, 724.4000
354.8531, 723.7763
355.3352, 723.0233
355.8173, 723.0200
356.2994, 724.1295
356.7815, 725.1570
357.2636, 726.2119
357.7458, 727.0291
358.2279, 727.0905
358.7100, 726.3959
359.1921, 725.8195
359.6742, 726.4030
360.1563, 728.4513
360.6385, 729.8236
361.1206, 730.3072
361.6027, 730.3881
362.0848, 730.1019
362.5669, 729.6033
363.0490, 729.2579
363.5312, 729.3378
364.0133, 729.7759
364.4954, 730.0375
364.9775, 729.3875
365.4596, 729.4268
365.9417, 731.1425
366.4239, 733.5341
366.9060, 735.2194
367.3881, 735.6431
367.8702, 735.2845
368.3523, 735.1202
368.8344, 735.2696
369.3166, 735.4369
369.7987, 735.7627
370.2808, 736.0089
370.7629, 735.8822
371.2450, 735.4150
371.7271, 734.9762
372.2093, 734.9647
372.6914, 735.4257
373.1735, 736.0430
373.6556, 736.8622
374.1377, 737.7845
374.6198, 739.2045
375.1020, 740.6910
375.5841, 741.2919
376.0662, 740.2996
376.5483, 738.1356
377.0304, 736.8646
377.5125, 737.3812
377.9947, 737.5294
378.4768, 736.4332
378.9589, 735.0970
379.4410, 734.5818
379.9231, 735.2233
380.4052, 736.4664
380.8874, 737.7489
381.3695, 739.5588
381.8516, 739.7289
382.3337, 735.8152
382.8158, 732.0952
383.2979, 731.0857
383.7801, 732.5449
384.2622, 734.4102
384.7443, 734.8740
385.2264, 734.0901
385.7085, 734.0416
386.1906, 735.2186
386.6728, 736.4670
387.1549, 737.0827
387.6370, 737.5154
388.1191, 738.5690
388.6012, 740.8250
389.0833, 743.3887
389.5655, 744.5511
390.0476, 744.0370
390.5297, 743.3778
391.0118, 742.8259
391.4939, 742.4647
391.9760, 742.3784
392.4582, 742.5777
392.9403, 743.0004
393.4224, 743.5361
393.9045, 744.2215
394.3866, 745.3923
394.8687, 747.4056
395.3509, 749.3848
395.8330, 750.6559
396.3151, 751.3363
396.7972, 751.7448
397.2793, 751.8359
397.7614, 751.8009
398.2436, 751.7542
398.7257, 751.6599
399.2078, 752.1603
399.6899, 754.0804
400.1720, 756.6705
400.6541, 758.2731
401.1363, 758.4025
401.6184, 758.3300
402.1005, 758.5605
402.5826, 759.1553
403.0647, 760.4840
403.5468, 762.8834
404.0290, 765.4210
404.5111, 766.6029
404.9932, 766.3365
405.4753, 766.2082
405.9574, 766.2047
406.4395, 766.6362
406.9217, 768.0505
407.4038, 770.3984
407.8859, 772.8156
408.3680, 774.7247
408.8501, 776.1013
409.3322, 776.8076
409.8144, 776.3225
410.2965, 775.8631
410.7786, 775.7723
411.2607, 776.0175
411.7428, 776.5204
412.2249, 777.2496
412.7071, 778.2276
413.1892, 779.5636
413.6713, 782.1553
414.1534, 783.3821
414.6355, 781.4426
415.1176, 779.5237
415.5998, 780.5579
416.0819, 784.2838
416.5640, 787.8596
417.0461, 788.5619
417.5282, 786.3358
418.0103, 785.3625
418.4925, 787.4865
418.9746, 788.8770
419.4567, 787.7657
419.9388, 785.6906
420.4209, 785.0092
420.9030, 786.8126
421.3852, 789.7332
421.8673, 790.7552
422.3494, 788.6779
422.8315, 787.7982
423.3136, 789.9611
423.7957, 792.2571
424.2779, 792.6434
424.7600, 791.2435
425.2421, 789.8314
425.7242, 790.1664
426.2063, 791.9971
426.6884, 792.6589
427.1706, 790.9322
427.6527, 790.1205
428.1348, 793.0040
428.6169, 797.2214
429.0990, 799.2072
429.5811, 797.2932
430.0633, 793.8848
430.5454, 792.0016
431.0275, 791.6784
431.5096, 791.1351
431.9917, 789.2248
432.4738, 787.6140
432.9560, 788.4002
433.4381, 791.5469
433.9202, 794.0948
434.4023, 794.2224
434.8844, 792.9534
435.3665, 792.1420
435.8487, 792.0186
436.3308, 791.6819
436.8129, 790.1990
437.2950, 787.9536
437.7771, 786.5862
438.2592, 786.4031
438.7414, 786.8140
439.2235, 787.8743
439.7056, 789.2869
440.1877, 790.3700
440.6698, 790.8928
441.1519, 790.9061
441.6341, 790.3968
442.1162, 789.0521
442.5983, 788.1247
443.0804, 787.8362
443.5625, 787.8679
444.0446, 788.0526
444.5268, 788.3427
445.0089, 788.6957
445.4910, 789.0917
445.9731, 789.5195
446.4552, 789.8713
446.9373, 789.9836
447.4195, 790.2209
447.9016, 790.8445
448.3837, 791.5250
448.8658, 791.8430
449.3479, 791.6932
449.8300, 791.3698
450.3122, 791.2266
450.7943, 791.1804
451.2764, 791.6290
451.7585, 793.5692
452.2406, 795.0668
452.7227, 794.9519
453.2049, 793.7878
453.6870, 792.9285
454.1691, 793.2333
454.6512, 794.2722
455.1333, 794.8468
455.6154, 794.6437
456.0976, 794.9196
456.5797, 796.8270
457.0618, 798.9216
457.5439, 800.0313
458.0260, 799.9877
458.5081, 799.6684
458.9903, 799.6248
459.4724, 799.8278
459.9545, 800.2631
460.4366, 801.0760
460.9187, 801.7192
461.4008, 801.6023
461.8830, 800.9959
462.3651, 800.5333
462.8472, 800.2694
463.3293, 800.2364
463.8114, 800.3015
464.2935, 800.5837
464.7756, 801.6977
465.2578, 804.0878
465.7399, 806.8431
466.2220, 808.3672
466.7041, 808.4675
467.1862, 808.2760
467.6683, 807.5751
468.1505, 806.8669
468.6326, 806.2468
469.1147, 805.9131
469.5968, 806.7431
470.0789, 809.6577
470.5610, 814.0527
471.0432, 815.8369
471.5253, 812.0808
472.0074, 809.2742
472.4895, 808.4616
472.9716, 808.7242
473.4537, 809.1996
473.9359, 809.6557
474.4180, 810.3287
474.9001, 811.6362
475.3822, 813.7294
475.8643, 815.1683
476.3464, 815.8253
476.8286, 815.8864
477.3107, 815.1799
477.7928, 813.9789
478.2749, 812.5892
478.7570, 811.0500
479.2391, 809.7390
479.7213, 809.5727
480.2034, 810.7665
480.6855, 811.2060
481.1676, 809.9995
481.6497, 808.2459
482.1318, 806.6896
482.6140, 805.3610
483.0961, 804.3828
483.5782, 804.0538
484.0603, 804.0038
484.5424, 803.6816
485.0245, 803.0681
485.5067, 802.1949
485.9888, 800.8768
486.4709, 799.4285
486.9530, 798.7499
487.4351, 799.4499
487.9172, 799.5485
488.3994, 797.9753
488.8815, 795.5776
489.3636, 793.4915
489.8457, 791.9279
490.3278, 790.4617
490.8099, 788.6642
491.2921, 786.5283
491.7742, 784.5149
492.2563, 782.6869
492.7384, 780.8984
493.2205, 779.0667
493.7026, 777.2674
494.1848, 775.7537
494.6669, 774.5945
495.1490, 773.3274
495.6311, 771.1018
496.1132, 767.5150
496.5953, 764.2946
497.0775, 761.5875
497.5596, 759.0986
498.0417, 756.7946
498.5238, 754.6151
499.0059, 752.4627
499.4880, 750.2650
499.9702, 748.0742
500.4523, 746.0582
500.9344, 744.2673
501.4165, 742.2895
501.8986, 739.9695
502.3807, 737.4515
502.8629, 734.7852
503.3450, 732.0031
503.8271, 729.4485
504.3092, 727.4536
504.7913, 725.7148
505.2734, 723.6625
505.7556, 721.2733
506.2377, 719.1908
506.7198, 717.8132
507.2019, 716.9974
507.6840, 716.3324
508.1661, 716.1729
508.6483, 715.4971
509.1304, 713.7134
509.6125, 711.4439
510.0946, 709.4713
510.5767, 707.8848
511.0588, 706.1205
511.5410, 703.5401
512.0231, 700.1532
512.5052, 697.8193
512.9873, 697.6083
513.4694, 697.1769
513.9515, 696.1140
514.4337, 694.5857
514.9158, 692.5820
515.3979, 690.1758
515.8800, 687.9696
516.3621, 686.9833
516.8442, 687.4226
517.3264, 686.7819
517.8085, 683.4240
518.2906, 681.1266
518.7727, 682.8041
519.2548, 686.2743
519.7369, 687.8630
520.2191, 686.1676
520.7012, 682.6466
521.1833, 677.8852
521.6654, 672.2559
522.1475, 668.9604
522.6296, 669.4381
523.1118, 671.0654
523.5939, 671.2867
524.0760, 670.2382
524.5581, 668.3425
525.0402, 664.2394
525.5223, 660.5623
526.0045, 659.9247
526.4866, 661.3408
526.9687, 661.6076
527.4508, 659.2182
527.9329, 655.8467
528.4150, 654.7149
528.8972, 657.3505
529.3793, 658.7335
529.8614, 658.7805
530.3435, 657.7512
530.8256, 655.0167
531.3077, 651.3338
531.7899, 648.3234
532.2720, 646.9622
532.7541, 646.7731
533.2362, 646.6410
533.7183, 646.7462
534.2004, 646.3886
534.6826, 645.1065
535.1647, 643.5803
535.6468, 642.0860
536.1289, 640.6750
536.6110, 639.4454
537.0931, 638.4980
537.5753, 637.7502
538.0574, 637.2494
538.5395, 637.0331
539.0216, 636.1302
539.5037, 633.5422
539.9858, 630.6026
540.4680, 629.7694
540.9501, 631.4208
541.4322, 632.5591
541.9143, 632.0226
542.3964, 630.7986
542.8785, 629.8770
543.3607, 629.2624
543.8428, 628.3362
544.3249, 626.6053
544.8070, 624.4584
545.2891, 623.3523
545.7712, 624.9167
546.2534, 625.2732
546.7355, 623.2318
547.2176, 620.7967
547.6997, 619.4238
548.1818, 619.1573
548.6639, 619.2601
549.1461, 619.2786
549.6282, 619.1334
550.1103, 618.4265
550.5924, 616.9036
551.0745, 615.4627
551.5566, 614.1556
552.0388, 613.1713
552.5209, 612.8756
553.0030, 613.2585
553.4851, 613.4690
553.9672, 612.7459
554.4493, 611.6283
554.9315, 611.2581
555.4136, 611.6991
555.8957, 611.7758
556.3778, 610.6840
556.8599, 608.9330
557.3420, 607.9984
557.8242, 608.3871
558.3063, 608.2558
558.7884, 606.6967
559.2705, 604.8513
559.7526, 603.7375
560.2347, 603.3984
560.7169, 603.3452
561.1990, 603.2313
561.6811, 603.1088
562.1632, 603.2904
562.6453, 604.3627
563.1274, 604.6788
563.6096, 603.2492
564.0917, 601.7187
564.5738, 601.7245
565.0559, 602.9808
565.5380, 603.4464
566.0201, 601.0922
566.5023, 597.1931
566.9844, 595.2067
567.4665, 595.3842
567.9486, 595.8846
568.4307, 596.4260
568.9128, 596.5994
569.3950, 595.6649
569.8771, 593.4867
570.3592, 591.8575
570.8413, 591.8720
571.3234, 592.3766
571.8055, 592.0429
572.2877, 591.0010
572.7698, 590.4207
573.2519, 591.0687
573.7340, 592.2003
574.2161, 591.8382
574.6982, 588.1404
575.1804, 586.1683
575.6625, 587.2804
576.1446, 588.8134
576.6267, 589.4307
577.1088, 589.0641
577.5909, 587.9327
578.0731, 586.0338
578.5552, 583.8661
579.0373, 582.6096
579.5194, 582.4278
580.0015, 582.2376
580.4836, 581.7097
580.9658, 581.2538
581.4479, 581.2142
581.9300, 581.5198
582.4121, 581.8456
582.8942, 582.0497
583.3763, 582.2493
583.8585, 582.9257
584.3406, 583.7725
584.8227, 583.3419
585.3048, 580.9257
585.7869, 578.1415
586.2690, 577.3170
586.7512, 579.0220
587.2333, 579.9723
587.7154, 579.6031
588.1975, 579.1511
588.6796, 579.1115
589.1617, 579.3473
589.6439, 579.6993
590.1260, 580.0824
590.6081, 580.2272
591.0902, 579.7207
591.5723, 578.5183
592.0544, 576.9758
592.5366, 574.4161
593.0187, 572.5472
593.5008, 572.3539
593.9829, 573.2150
594.4650, 574.3800
594.9471, 575.8538
595.4293, 576.8852
595.9114, 576.7643
596.3935, 575.7870
596.8756, 574.4537
597.3577, 572.8178
597.8398, 571.5199
598.3220, 571.2032
598.8041, 571.6613
599.2862, 571.4437
599.7683, 569.9543
600.2504, 568.7027
600.7325, 567.8161
601.2147, 567.3412
601.6968, 567.4704
602.1789, 568.1078
602.6610, 568.8141
603.1431, 569.2123
603.6252, 569.4179
604.1074, 570.0026
604.5895, 571.2608
605.0716, 572.1261
605.5537, 572.4413
606.0358, 572.1575
606.5179, 570.9013
607.0001, 568.8230
607.4822, 567.0070
607.9643, 566.1200
608.4464, 565.6744
608.9285, 565.2608
609.4106, 564.8153
609.8928, 563.9698
610.3749, 562.5269
610.8570, 560.8028
611.3391, 559.1478
611.8212, 557.3727
612.3033, 556.6042
612.7855, 557.6656
613.2676, 558.8172
613.7497, 559.5540
614.2318, 559.7797
614.7139, 559.1507
615.1960, 557.6061
615.6782, 556.1801
616.1603, 556.7640
616.6424, 559.5232
617.1245, 560.2278
617.6066, 557.4023
618.0887, 555.0010
618.5709, 555.8154
619.0530, 557.9218
619.5351, 558.6504
620.0172, 557.3718
620.4993, 555.6508
620.9814, 553.8771
621.4636, 552.4318
621.9457, 552.0818
622.4278, 552.8268
622.9099, 553.9408
623.3920, 555.1486
623.8741, 556.1024
624.3563, 555.5287
624.8384, 551.3623
625.3205, 548.6826
625.8026, 548.5262
626.2847, 548.9332
626.7668, 548.7733
627.2490, 548.0671
627.7311, 547.2736
628.2132, 546.6320
628.6953, 546.0729
629.1774, 545.5305
629.6595, 545.0167
630.1417, 544.0970
630.6238, 542.2006
631.1059, 540.6863
631.5880, 541.1984
632.0701, 543.1197
632.5522, 544.5718
633.0344, 545.4980
633.5165, 545.6384
633.9986, 544.1490
634.4807, 542.0554
634.9628, 541.1296
635.4449, 541.6286
635.9271, 542.2426
636.4092, 541.7187
636.8913, 540.2009
637.3734, 539.2434
637.8555, 539.1650
638.3376, 539.1569
638.8198, 539.7291
639.3019, 539.8438
639.7840, 538.1315
640.2661, 534.9432
640.7482, 532.4720
641.2303, 532.4805
641.7125, 533.6508
642.1946, 533.9511
642.6767, 533.4423
643.1588, 532.8011
643.6409, 532.1850
644.1230, 531.6791
644.6052, 531.4752
645.0873, 531.6475
645.5694, 531.3884
646.0515, 530.0717
646.5336, 529.0364
647.0157, 528.8820
647.4979, 529.2933
647.9800, 530.2114
648.4621, 531.4309
648.9442, 531.8713
649.4263, 529.9700
649.9084, 526.1120
650.3906, 524.2087
650.8727, 524.9164
651.3548, 525.8306
651.8369, 526.4329
652.3190, 526.6075
652.8011, 526.0085
653.2833, 524.6168
653.7654, 523.6113
654.2475, 523.7466
654.7296, 524.2094
655.2117, 524.3225
655.6938, 524.0969
656.1760, 523.6559
656.6581, 523.0442
657.1402, 522.2967
657.6223, 521.4186
658.1044, 520.3243
658.5865, 519.6116
659.0687, 519.6038
659.5508, 519.6267
660.0329, 519.4092
660.5150, 519.1954
660.9971, 519.4035
661.4792, 520.0858
661.9614, 520.5867
662.4435, 520.4072
662.9256, 519.6588
663.4077, 518.2836
663.8898, 516.2887
664.3719, 515.1110
664.8541, 515.6882
665.3362, 516.9526
665.8183, 516.9095
666.3004, 514.9017
666.7825, 513.9588
667.2646, 515.4211
667.7468, 516.6280
668.2289, 516.1091
668.7110, 514.4911
669.1931, 512.6539
669.6752, 510.9510
670.1573, 509.7686
670.6395, 509.7834
671.1216, 510.8942
671.6037, 511.7921
672.0858, 512.5208
672.5679, 512.8780
673.0500, 512.5685
673.5322, 511.9403
674.0143, 511.6043
674.4964, 511.6515
674.9785, 511.3222
675.4606, 510.0814
675.9427, 508.6432
676.4249, 507.5018
676.9070, 506.6538
677.3891, 505.9325
677.8712, 505.2713
678.3533, 504.9291
678.8354, 505.4866
679.3176, 507.1544
679.7997, 507.5923
680.2818, 505.8749
680.7639, 504.3193
681.2460, 503.6372
681.7281, 503.5654
682.2103, 504.1249
682.6924, 505.3375
683.1745, 505.8888
683.6566, 504.6253
684.1387, 502.6055
684.6208, 500.8047
685.1030, 499.4013
685.5851, 499.0956
686.0672, 500.3155
686.5493, 501.7563
687.0314, 501.2410
687.5135, 498.1107
687.9957, 496.5975
688.4778, 498.2857
688.9599, 499.7758
689.4420, 500.0638
689.9241, 499.7997
690.4063, 499.7572
690.8884, 500.0708
691.3705, 500.2955
691.8526, 500.1344
692.3347, 499.6453
692.8168, 498.8329
693.2990, 497.7223
693.7811, 496.6595
694.2632, 495.7310
694.7453, 495.0266
695.2274, 494.7146
695.7095, 494.8799
696.1917, 494.9384
696.6738, 495.1279
697.1559, 494.9472
697.6380, 493.6414
698.1201, 492.2142
698.6022, 492.0875
699.0844, 493.3323
699.5665, 494.4369
700.0486, 493.9668
700.5307, 492.5319
701.0128, 491.8978
701.4949, 492.1089
701.9771, 491.6684
702.4592, 489.8170
702.9413, 487.7060
703.4234, 486.6898
703.9055, 486.8356
704.3876, 487.1221
704.8698, 488.0477
705.3519, 488.4983
705.8340, 487.6692
706.3161, 486.3924
706.7982, 485.5087
707.2803, 485.1975
707.7625, 485.3617
708.2446, 486.0718
708.7267, 487.0314
709.2088, 487.2476
709.6909, 486.6131
710.1730, 486.5074
710.6552, 487.5828
711.1373, 488.7245
711.6194, 488.7422
712.1015, 487.8492
712.5836, 487.3016
713.0657, 487.7215
713.5479, 487.8209
714.0300, 486.7924
714.5121, 485.4659
714.9942, 484.7802
715.4763, 484.7321
715.9584, 484.7534
716.4406, 484.5050
716.9227, 483.9295
717.4048, 482.6469
717.8869, 480.4854
718.3690, 479.2807
718.8511, 479.6059
719.3333, 480.3893
719.8154, 481.2464
720.2975, 481.9447
720.7796, 481.8274
721.2617, 480.4394
721.7438, 479.0815
722.2260, 478.2641
722.7081, 477.6241
723.1902, 476.6709
723.6723, 475.5591
724.1544, 474.8589
724.6365, 474.8730
725.1187, 475.3600
725.6008, 476.0751
726.0829, 477.0732
726.5650, 477.4093
727.0471, 476.8048
727.5292, 476.0296
728.0114, 475.3736
728.4935, 474.8313
728.9756, 474.4407
729.4577, 474.2768
729.9398, 473.8993
730.4219, 472.8535
730.9041, 471.8362
731.3862, 471.5136
731.8683, 471.6317
732.3504, 471.5831
732.8325, 471.1555
733.3146, 470.5907
733.7968, 470.1861
734.2789, 469.9303
734.7610, 469.5826
735.2431, 469.0040
735.7252, 468.7954
736.2073, 469.6445
736.6895, 470.5471
737.1716, 470.0384
737.6537, 468.2016
738.1358, 467.2706
738.6179, 468.5568
739.1000, 469.9297
739.5822, 470.2980
740.0643, 470.0041
740.5464, 469.4534
741.0285, 468.7956
741.5106, 468.1931
741.9927, 467.8086
742.4749, 467.1706
742.9570, 467.0081
743.4391, 466.1340
743.9212, 465.4467
744.4033, 465.0228
744.8854, 464.8470
745.3676, 465.2042
745.8497, 465.8242
746.3318, 465.7482
746.8139, 464.2577
747.2960, 463.1220
747.7781, 463.0955
748.2603, 463.5204
748.7424, 464.0254
749.2245, 464.4144
749.7066, 464.2699
750.1887, 463.3382
750.6708, 462.2588
751.1530, 462.3131
751.6351, 463.4433
752.1172, 463.4102
752.5993, 461.6967
753.0814, 460.1315
753.5635, 459.7109
754.0457, 460.0022
754.5278, 460.2180
755.0099, 460.4002
755.4920, 457.4138
755.9741, 460.3413
756.4562, 461.8479
756.9384, 462.0096
757.4205, 456.7991
757.9026, 458.5258
758.3847, 457.4724
758.8668, 456.3050
759.3489, 459.0081
759.8311, 454.5789
760.3132, 457.2206
760.7953, 457.0398
761.2774, 458.1508
761.7595, 456.4644
762.2416, 455.6421
762.7238, 457.6179
763.2059, 458.0444
763.6880, 456.0360
764.1701, 457.2291
764.6522, 452.7023
765.1343, 453.1948
765.6165, 455.8528
766.0986, 453.9851
766.5807, 455.2293
767.0628, 455.2884
767.5449, 449.9612
768.0270, 454.0012
768.5092, 453.9901
768.9913, 449.8196
769.4734, 453.5386
769.9555, 449.9416
770.4376, 448.9559
770.9197, 449.9355
771.4019, 451.1496
771.8840, 451.8812
772.3661, 452.6625
772.8482, 452.3578
773.3303, 449.6323
773.8124, 447.4037
774.2946, 446.8356
774.7767, 447.2093
775.2588, 447.8506
775.7409, 448.5801
776.2230, 448.8618
776.7051, 447.7224
777.1873, 446.4376
777.6694, 446.8932
778.1515, 448.5209
778.6336, 449.5800
779.1157, 449.5899
779.5978, 448.8700
780.0800, 447.5659
780.5621, 445.8912
781.0442, 445.3595
781.5263, 446.7044
782.0084, 447.4479
782.4905, 446.8014
782.9727, 445.8925
783.4548, 445.3685
783.9369, 445.1166
784.4190, 444.7839
784.9011, 444.0930
785.3832, 443.8352
785.8654, 445.0179
786.3475, 446.3644
786.8296, 446.3560
787.3117, 445.2655
787.7938, 444.2465
788.2759, 443.8114
788.7581, 443.0727
789.2402, 443.1437
789.7223, 442.4051
790.2044, 442.1213
790.6865, 442.3569
791.1686, 442.8241
791.6508, 443.6635
792.1329, 444.4077
792.6150, 444.3062
793.0971, 443.3536
793.5792, 442.7956
794.0613, 443.4310
794.5435, 443.5591
795.0256, 442.1748
795.5077, 440.3646
795.9898, 439.0494
796.4719, 438.3550
796.9540, 438.1056
797.4362, 438.2342
797.9183, 438.6535
798.4004, 439.5360
798.8825, 440.6348
799.3646, 440.7296
799.8467, 439.6472
800.3289, 438.9449
800.8110, 439.6978
801.2931, 440.9927
801.7752, 440.7762
802.2573, 438.4091
802.7394, 436.6723
803.2216, 435.6819
803.7037, 435.1967
804.1858, 435.3680
804.6679, 435.8781
805.1500, 436.5236
805.6321, 437.2346
806.1143, 437.6393
806.5964, 437.4160
807.0785, 436.9620
807.5606, 436.3794
808.0427, 435.8860
808.5248, 436.0439
809.0070, 436.8570
809.4891, 437.6313
809.9712, 437.8560
810.4533, 437.6683
810.9354, 437.4033
811.4175, 437.0616
811.8997, 436.6423
812.3818, 436.0787
812.8639, 435.5862
813.3460, 435.3497
813.8281, 435.2320
814.3102, 434.8608
814.7924, 434.0417
815.2745, 433.7496
815.7566, 434.9427
816.2387, 435.7867
816.7208, 434.9044
817.2029, 433.3060
817.6851, 432.2809
818.1672, 432.1076
818.6493, 432.4321
819.1314, 433.1252
819.6135, 434.0121
820.0956, 435.1905
820.5778, 436.3849
821.0599, 435.9276
821.5420, 433.4262
822.0241, 431.2600
822.5062, 431.2522
822.9883, 432.7933
823.4705, 433.9596
823.9526, 434.7976
824.4347, 435.1234
824.9168, 434.7258
825.3989, 434.0528
825.8810, 432.5274
826.3632, 431.2100
826.8453, 432.0894
827.3274, 435.5313
827.8095, 437.5418
828.2916, 435.3455
828.7737, 432.4881
829.2559, 431.6241
829.7380, 431.8246
830.2201, 431.5206
830.7022, 430.4092
831.1843, 428.9186
831.6664, 427.1520
832.1486, 425.7431
832.6307, 426.5126
833.1128, 429.3281
833.5949, 431.3535
834.0770, 432.2017
834.5591, 432.1814
835.0413, 431.2282
835.5233, 429.7889
836.0054, 428.9252
836.4875, 428.6938
836.9697, 428.8742
837.4518, 430.3410
837.9339, 431.1296
838.4160, 429.9960
838.8981, 428.2271
839.3802, 427.2864
839.8624, 427.2510
840.3445, 427.1168
840.8266, 425.9937
841.3087, 425.0593
841.7908, 425.6598
842.2729, 426.9774
842.7551, 427.7816
843.2372, 427.8510
843.7193, 427.1599
844.2014, 425.6100
844.6835, 423.9022
845.1656, 423.5467
845.6478, 424.5560
846.1299, 424.8830
846.6120, 424.3599
847.0941, 423.4310
847.5762, 421.9467
848.0583, 420.5755
848.5405, 420.3437
849.0226, 421.3753
849.5047, 422.4153
849.9868, 424.1496
850.4689, 424.9744
850.9510, 423.6959
851.4332, 422.0437
851.9153, 421.3299
852.3974, 421.5301
852.8795, 422.2491
853.3616, 423.6492
853.8438, 424.4866
854.3259, 423.1224
854.8080, 420.9829
855.2901, 420.2596
855.7722, 420.7476
856.2543, 420.9826
856.7365, 420.3799
857.2186, 419.5156
857.7007, 419.0534
858.1828, 418.9666
858.6649, 419.1877
859.1470, 419.8519
859.6292, 419.8811
860.1113, 418.6737
860.5934, 417.5098
861.0755, 417.6763
861.5576, 418.8385
862.0397, 419.2623
862.5219, 418.7332
863.0040, 417.8491
863.4861, 415.8393
863.9682, 414.3204
864.4503, 414.5518
864.9324, 415.6112
865.4146, 416.0903
865.8967, 415.7016
866.3788, 415.2318
866.8609, 415.2414
867.3430, 415.2716
867.8251, 414.8006
868.3073, 414.0430
868.7894, 413.3984
869.2715, 412.9489
869.7536, 412.6154
870.2357, 412.3280
870.7178, 412.1730
871.2000, 412.4077
871.6821, 413.0172
872.1642, 413.4732
872.6463, 413.7354
873.1284, 413.8721
873.6105, 413.9260
874.0927, 413.8615
874.5748, 413.6504
875.0569, 413.0566
875.5390, 412.6284
876.0211, 411.2835
876.5032, 409.9801
876.9854, 408.4808
877.4675, 407.3450
877.9496, 407.1159
878.4317, 407.6096
878.9138, 408.3072
879.3959, 409.2719
879.8781, 409.8279
880.3602, 409.4297
880.8423, 408.6118
881.3244, 407.7119
881.8065, 406.8555
882.2886, 406.1065
882.7708, 405.5252
883.2529, 405.4063
883.7350, 406.3556
884.2171, 407.6612
884.6992, 407.3532
885.1813, 405.6870
885.6635, 404.7598
886.1456, 404.9916
886.6277, 405.5636
887.1098, 405.9372
887.5919, 406.1925
888.0740, 406.6074
888.5562, 407.4398
889.0383, 407.3872
889.5204, 405.8500
890.0025, 404.4323
890.4846, 403.8995
890.9667, 403.6288
891.4489, 402.8195
891.9310, 401.5432
892.4131, 400.8321
892.8952, 401.5280
893.3773, 401.8922
893.8594, 400.8149
894.3416, 399.7052
894.8237, 399.9962
895.3058, 401.1771
895.7879, 401.8514
896.2700, 401.5310
896.7521, 400.9328
897.2343, 400.6215
897.7164, 400.3822
898.1985, 399.8911
898.6806, 399.2080
899.1627, 398.3877
899.6448, 397.5083
900.1270, 397.1030
900.6091, 397.7466
901.0912, 398.8140
901.5733, 398.4098
902.0554, 396.4967
902.5375, 395.5553
903.0197, 396.0250
903.5018, 396.4179
903.9839, 395.8717
904.4660, 395.0713
904.9481, 395.1736
905.4302, 396.3133
905.9124, 397.0450
906.3945, 397.3826
906.8766, 397.2747
907.3587, 396.4787
907.8408, 395.4599
908.3229, 394.2673
908.8051, 393.1371
909.2872, 392.6224
909.7693, 392.9194
910.2514, 393.5498
910.7335, 394.9246
911.2156, 395.9875
911.6978, 395.8936
912.1799, 394.9931
912.6620, 393.6295
913.1441, 392.0465
913.6262, 390.9255
914.1083, 390.7535
914.5905, 391.2121
915.0726, 392.3021
915.5547, 393.5959
916.0368, 394.0370
916.5189, 393.5555
917.0010, 392.4540
917.4832, 390.8528
917.9653, 389.3556
918.4474, 388.8725
918.9295, 389.3305
919.4116, 390.1836
919.8937, 391.6008
920.3759, 392.0016
920.8580, 390.6118
921.3401, 389.2034
921.8222, 389.3689
922.3043, 390.6055
922.7864, 390.9897
923.2686, 390.1119
923.7507, 389.2784
924.2328, 388.1835
924.7149, 387.5000
925.1970, 387.7104
925.6791, 388.2682
926.1613, 388.3312
926.6434, 387.9928
927.1255, 388.6592
927.6076, 392.7813
928.0897, 395.1834
928.5718, 392.5347
929.0540, 388.5915
929.5361, 386.1505
930.0182, 385.2103
930.5003, 385.2197
930.9824, 385.9745
931.4645, 386.5506
931.9467, 385.8445
932.4288, 384.8652
932.9109, 384.9386
933.3930, 385.7312
933.8751, 386.6439
934.3572, 387.4527
934.8394, 387.6859
935.3215, 386.9928
935.8036, 385.9104
936.2857, 385.3564
936.7678, 385.2610
937.2499, 385.2883
937.7321, 385.4420
938.2142, 384.8376
938.6963, 383.0121
939.1784, 381.1973
939.6605, 380.7451
940.1426, 381.4399
940.6248, 382.0042
941.1069, 382.4654
941.5890, 382.6996
942.0711, 382.5553
942.5532, 382.4458
943.0353, 382.8903
943.5175, 382.0069
943.9996, 382.5151
944.4817, 380.3981
944.9638, 378.8853
945.4459, 377.8477
945.9280, 377.6870
946.4102, 379.5877
946.8923, 381.4033
947.3744, 381.2063
947.8565, 379.7533
948.3386, 378.9361
948.8207, 379.2690
949.3029, 379.7831
949.7850, 380.4264
950.2671, 380.6924
950.7492, 379.7628
951.2313, 378.4631
951.7134, 378.0411
952.1956, 378.5213
952.6777, 379.0195
953.1598, 379.0347
953.6419, 378.9843
954.1240, 379.5099
954.6061, 380.1934
955.0883, 380.0524
955.5704, 379.3346
956.0525, 379.3885
956.5346, 380.5415
957.0167, 381.2201
957.4988, 379.8130
957.9810, 377.2021
958.4631, 375.5069
958.9452, 374.7015
959.4273, 374.4293
959.9094, 374.6662
960.3915, 375.3187
960.8737, 376.4759
961.3558, 377.4677
961.8379, 377.2255
962.3200, 375.8113
962.8021, 375.0195
963.2842, 375.0246
963.7664, 375.0640
964.2485, 374.9296
964.7306, 374.9757
965.2127, 375.6197
965.6948, 376.4940
966.1769, 376.7887
966.6591, 376.4629
967.1412, 375.7051
967.6233, 373.8167
968.1054, 372.4507
968.5875, 372.1391
969.0696, 372.3346
969.5518, 372.8179
970.0339, 373.4339
970.5160, 373.8052
970.9981, 373.7615
971.4802, 373.7996
971.9623, 374.3857
972.4445, 374.7306
972.9266, 374.2198
973.4087, 373.3037
973.8908, 372.4663
974.3729, 371.8072
974.8550, 371.2856
975.3372, 370.8078
975.8193, 370.6701
976.3014, 371.4102
976.7835, 372.3513
977.2656, 372.9086
977.7477, 372.9973
978.2299, 372.4438
978.7120, 371.2998
979.1941, 370.1075
979.6762, 369.2157
980.1583, 368.5821
980.6404, 368.3007
981.1226, 368.1862
981.6047, 367.6669
982.0868, 366.8177
982.5689, 366.2986
983.0510, 366.3725
983.5331, 366.6928
984.0153, 366.8268
984.4974, 366.9550
984.9795, 367.9590
985.4616, 369.7085
985.9437, 370.3168
986.4258, 369.4764
986.9080, 368.4108
987.3901, 367.7358
987.8722, 367.3326
988.3543, 367.0389
988.8364, 366.8481
989.3185, 366.5414
989.8007, 365.9468
990.2828, 366.1361
990.7649, 367.6059
991.2470, 369.1470
991.7291, 370.1196
992.2112, 370.4805
992.6934, 370.0747
993.1755, 368.7729
993.6576, 367.3946
994.1397, 365.3014
994.6218, 364.3301
995.1039, 365.9336
995.5861, 367.6676
996.0682, 367.5030
996.5503, 366.0804
997.0324, 365.0796
997.5145, 364.4637
997.9966, 364.4422
998.4788, 365.7553
998.9609, 366.7329
999.4430, 366.7812
999.9251, 366.3107
1000.407, 365.2147
1000.889, 363.9237
1001.371, 363.8521
1001.854, 365.8227
1002.336, 367.3394
1002.818, 367.6400
1003.300, 367.2786
1003.782, 365.8312
1004.264, 364.3919
1004.746, 364.6303
1005.228, 366.2152
1005.711, 367.0156
1006.193, 366.0255
1006.675, 364.7487
1007.157, 363.8577
1007.639, 363.2943
1008.121, 362.9648
1008.603, 362.9424
1009.085, 363.4862
1009.567, 364.5243
1010.050, 365.5749
1010.532, 366.4698
1011.014, 366.9794
1011.496, 366.7563
1011.978, 366.0949
1012.460, 365.1836
1012.942, 364.2431
1013.424, 363.7037
1013.906, 363.6764
1014.389, 364.1100
1014.871, 365.2041
1015.353, 366.0821
1015.835, 364.9681
1016.317, 362.8385
1016.799, 362.1899
1017.281, 362.8638
1017.763, 363.2489
1018.246, 362.8504
1018.728, 362.5101
1019.210, 363.0693
1019.692, 363.9840
1020.174, 364.0282
1020.656, 363.3739
1021.138, 362.7215
1021.620, 362.1740
1022.102, 362.2849
1022.585, 363.2781
1023.067, 364.3637
1023.549, 364.7319
1024.031, 364.5329
1024.513, 364.1516
1024.995, 363.5980
1025.477, 363.3373
1025.959, 363.4130
1026.442, 363.8309
1026.924, 364.7066
1027.406, 365.2402
1027.888, 364.3365
1028.370, 362.4243
1028.852, 361.9499
1029.334, 363.1501
1029.816, 364.0934
1030.298, 364.6694
1030.781, 364.6342
1031.263, 363.6139
1031.745, 362.6072
1032.227, 362.9535
1032.709, 364.4478
1033.191, 365.3453
1033.673, 365.5750
1034.155, 365.3888
1034.638, 364.6584
1035.120, 363.8504
1035.602, 363.1239
1036.084, 362.4860
1036.566, 361.9367
1037.048, 361.4827
1037.530, 361.2084
1038.012, 361.1667
1038.495, 361.2207
1038.977, 361.6671
1039.459, 361.6987
1039.941, 360.4615
1040.423, 359.0754
1040.905, 359.1650
1041.387, 360.6453
1041.869, 361.4350
1042.351, 360.6270
1042.833, 360.6494
1043.316, 362.7460
1043.798, 364.3226
1044.280, 363.8524
1044.762, 362.5746
1045.244, 361.8336
1045.726, 361.6278
1046.208, 361.6852
1046.690, 362.1662
1047.173, 362.6466
1047.655, 363.6523
1048.137, 364.0037
1048.619, 362.2486
1049.101, 360.1577
1049.583, 360.2669
1050.065, 362.3551
1050.547, 363.1361
1051.030, 361.0421
1051.512, 359.5264
1051.994, 359.3972
1052.476, 359.5866
1052.958, 359.5778
1053.440, 359.5904
1053.922, 360.0057
1054.404, 360.7603
1054.886, 361.2825
1055.369, 361.2254
1055.851, 361.3707
1056.333, 362.4291
1056.815, 363.1230
1057.297, 362.4269
1057.779, 361.2210
1058.261, 360.4500
1058.743, 360.1868
1059.225, 360.2657
1059.708, 361.0468
1060.190, 361.2449
1060.672, 359.6603
1061.154, 358.3213
1061.636, 358.6979
1062.118, 359.7059
1062.600, 360.2015
1063.082, 360.0907
1063.565, 359.5287
1064.047, 358.1706
1064.529, 357.5167
1065.011, 358.9946
1065.493, 360.3106
1065.975, 359.8826
1066.457, 358.7619
1066.939, 358.0139
1067.422, 357.7300
1067.904, 357.6226
1068.386, 357.5049
1068.868, 358.0215
1069.350, 360.7691
1069.832, 362.6740
1070.314, 361.2027
1070.796, 358.5145
1071.278, 356.5611
1071.760, 355.5801
1072.243, 355.4916
1072.725, 356.3950
1073.207, 357.3001
1073.689, 357.6840
1074.171, 358.0607
1074.653, 359.0958
1075.135, 359.9756
1075.617, 359.5796
1076.100, 358.3813
1076.582, 357.6495
1077.064, 357.7145
1077.546, 358.1147
1078.028, 358.9855
1078.510, 359.7185
1078.992, 359.8925
1079.474, 359.8513
1079.957, 359.4671
1080.439, 359.2828
1080.921, 360.7608
1081.403, 364.1400
1081.885, 366.2802
1082.367, 364.2565
1082.849, 362.6844
1083.331, 364.4521
1083.813, 367.1353
1084.296, 368.5813
1084.778, 369.4314
1085.260, 371.3464
1085.742, 374.4688
1086.224, 376.9613
1086.706, 378.2105
1087.188, 378.4834
1087.670, 377.8391
1088.152, 376.3315
1088.635, 373.6081
1089.117, 370.2714
1089.599, 366.9922
1090.081, 363.9357
1090.563, 361.3221
1091.045, 359.3585
1091.527, 357.5820
1092.009, 355.6025
1092.491, 353.9665
1092.974, 352.7515
1093.456, 352.2795
1093.938, 353.4555
1094.420, 355.7715
1094.902, 357.0917
1095.384, 356.5821
1095.866, 355.8702
1096.348, 355.3452
1096.831, 355.0204
1097.313, 355.4998
1097.795, 355.7050
1098.277, 353.6789
1098.759, 350.5421
1099.241, 349.9369
1099.723, 353.2036
1100.205, 355.2960
1100.688, 353.4847
1101.170, 351.7466
1101.652, 351.9402
1102.134, 352.6483
1102.616, 352.8390
1103.098, 352.5820
1103.580, 352.1515
1104.062, 351.5811
1104.544, 351.0540
1105.026, 350.7296
1105.509, 350.2912
1105.991, 349.3083
1106.473, 348.5437
1106.955, 348.7784
1107.437, 349.3759
1107.919, 349.3260
1108.401, 348.5919
1108.883, 347.9930
1109.366, 347.5384
1109.848, 347.3927
1110.330, 347.7078
1110.812, 348.1802
1111.294, 348.9845
1111.776, 349.6483
1112.258, 349.5585
1112.740, 348.8340
1113.223, 348.2005
1113.705, 347.5318
1114.187, 347.3307
1114.669, 348.3833
1115.151, 348.9091
1115.633, 347.9667
1116.115, 346.6977
1116.597, 345.8052
1117.079, 345.3347
1117.562, 345.5027
1118.044, 346.5531
1118.526, 347.1798
1119.008, 346.9391
1119.490, 347.0751
1119.972, 348.4153
1120.454, 349.2978
1120.936, 348.4621
1121.418, 346.7737
1121.901, 345.6440
1122.383, 345.0761
1122.865, 344.6666
1123.347, 344.4466
1123.829, 344.2196
1124.311, 343.5812
1124.793, 343.9273
1125.275, 346.4744
1125.758, 349.1924
1126.240, 349.6058
1126.722, 348.1566
1127.204, 347.2591
1127.686, 347.0377
1128.168, 346.7238
1128.650, 346.1943
1129.132, 346.0153
1129.615, 346.4198
1130.097, 347.0314
1130.579, 347.6168
1131.061, 348.0446
1131.543, 347.8548
1132.025, 348.2281
1132.507, 348.5358
1132.989, 348.3117
1133.471, 348.9972
1133.953, 348.9027
1134.436, 348.4835
1134.918, 347.9897
1135.400, 347.3694
1135.882, 346.4334
1136.364, 345.3869
1136.846, 345.0880
1137.328, 345.5082
1137.810, 346.7974
1138.293, 348.8130
1138.775, 349.5279
1139.257, 348.1907
1139.739, 346.5183
1140.221, 346.1039
1140.703, 346.2616
1141.185, 345.3143
1141.667, 345.7538
1142.150, 344.3390
1142.632, 346.1835
1143.114, 347.3703
1143.596, 347.4826
1144.078, 347.4858
1144.560, 347.9728
1145.042, 348.3487
1145.524, 348.0281
1146.006, 347.0723
1146.489, 344.7837
1146.971, 342.2822
1147.453, 342.2536
1147.935, 344.2113
1148.417, 345.5238
1148.899, 345.2686
1149.381, 344.4615
1149.863, 343.3884
1150.345, 342.7295
1150.828, 343.5736
1151.310, 344.7772
1151.792, 344.9276
1152.274, 344.4625
1152.756, 344.4299
1153.238, 344.9065
1153.720, 345.1192
1154.202, 344.7104
1154.685, 344.0964
1155.167, 343.2311
1155.649, 342.5266
1156.131, 342.0401
1156.613, 342.0125
1157.095, 343.0388
1157.577, 344.6661
1158.059, 345.6973
1158.542, 345.8835
1159.024, 345.8025
1159.506, 345.5924
1159.988, 345.1333
1160.470, 343.4332
1160.952, 342.5118
1161.434, 344.5801
1161.916, 347.6358
1162.398, 348.7710
1162.880, 347.9808
1163.363, 347.0409
1163.845, 345.7896
1164.327, 344.7160
1164.809, 343.7547
1165.291, 343.0985
1165.773, 342.9062
1166.255, 342.9102
1166.737, 342.9934
1167.220, 343.0109
1167.702, 342.4561
1168.184, 343.0059
1168.666, 341.3288
1169.148, 343.4612
1169.630, 344.6512
1170.112, 344.2788
1170.594, 343.6761
1171.077, 343.5699
1171.559, 343.2663
1172.041, 341.7177
1172.523, 341.5208
1173.005, 340.9889
1173.487, 340.1449
1173.969, 340.4806
1174.451, 339.9745
1174.933, 339.9774
1175.416, 340.8317
1175.898, 341.4641
1176.380, 341.1021
1176.862, 340.3488
1177.344, 340.0356
1177.826, 340.0129
1178.308, 339.9926
1178.790, 339.9650
1179.272, 339.8755
1179.755, 339.7607
1180.237, 339.8356
1180.719, 340.1480
1181.201, 340.2811
1181.683, 339.7970
1182.165, 339.2393
1182.647, 339.3581
1183.129, 339.4934
1183.612, 338.7594
1184.094, 337.5670
1184.576, 336.4924
1185.058, 335.7362
1185.540, 335.5747
1186.022, 336.1993
1186.504, 336.9060
1186.986, 337.7173
1187.469, 338.1086
1187.951, 337.7621
1188.433, 336.9505
1188.915, 335.2899
1189.397, 333.6013
1189.879, 333.4687
1190.361, 334.9986
1190.843, 336.1481
1191.325, 336.8622
1191.807, 336.9693
1192.290, 335.9718
1192.772, 335.1119
1193.254, 334.7743
1193.736, 334.7636
1194.218, 335.0623
1194.700, 335.4572
1195.182, 335.3769
1195.664, 334.7848
1196.147, 334.0386
1196.629, 332.9268
1197.111, 333.0974
1197.593, 335.1059
1198.075, 336.3699
1198.557, 335.6256
1199.039, 333.8578
1199.521, 331.9776
1200.004, 330.2841
1200.486, 329.7868
1200.968, 330.2369
1201.450, 330.3791
1201.932, 330.2186
1202.414, 330.0875
1202.896, 330.0781
1203.378, 330.3255
1203.860, 330.9166
1204.343, 331.2241
1204.825, 329.9940
1205.307, 328.6649
1205.789, 329.7846
1206.271, 331.6465
1206.753, 331.7065
1207.235, 330.3275
1207.717, 328.4371
1208.199, 326.5224
1208.682, 325.7935
1209.164, 327.2205
1209.646, 328.5173
1210.128, 328.5898
1210.610, 328.1453
1211.092, 326.7448
1211.574, 325.7813
1212.056, 327.2373
1212.539, 329.8983
1213.021, 331.0121
1213.503, 330.2444
1213.985, 329.2975
1214.467, 327.4121
1214.949, 326.8907
1215.431, 329.0766
1215.913, 330.5343
1216.396, 329.6979
1216.878, 328.2026
1217.360, 327.3903
1217.842, 327.1490
1218.324, 327.2570
1218.806, 327.7227
1219.288, 327.9774
1219.770, 328.0065
1220.252, 328.0298
1220.734, 328.0809
1221.217, 327.9213
1221.699, 327.4394
1222.181, 327.0688
1222.663, 327.2761
1223.145, 327.7368
1223.627, 327.9145
1224.109, 327.8468
1224.591, 327.4662
1225.074, 326.9569
1225.556, 326.9692
1226.038, 327.3690
1226.520, 327.1579
1227.002, 325.9513
1227.484, 324.7198
1227.966, 323.8060
1228.448, 323.5570
1228.931, 324.8300
1229.413, 326.2686
1229.895, 326.7665
1230.377, 326.5890
1230.859, 325.8437
1231.341, 324.8629
1231.823, 324.9701
1232.305, 324.1113
1232.787, 322.9797
1233.270, 323.7753
1233.752, 323.5159
1234.234, 322.6727
1234.716, 324.4315
1235.198, 325.7500
1235.680, 326.2122
1236.162, 324.8727
1236.644, 325.6258
1237.126, 325.6823
1237.609, 325.0680
1238.091, 326.1854
1238.573, 325.5145
1239.055, 325.0097
1239.537, 325.1002
1240.019, 325.3159
1240.501, 325.4215
1240.983, 324.9964
1241.466, 323.2512
1241.948, 321.1533
1242.430, 320.7841
1242.912, 319.8643
1243.394, 320.9226
1243.876, 320.0450
1244.358, 320.4207
1244.840, 322.0140
1245.323, 323.1881
1245.805, 323.2448
1246.287, 323.0858
1246.769, 323.4963
1247.251, 323.5141
1247.733, 321.9776
1248.215, 320.4757
1248.697, 320.2583
1249.179, 320.8458
1249.661, 321.7611
1250.144, 322.8101
1250.626, 323.1528
1251.108, 322.5016
1251.590, 321.8971
1252.072, 321.1249
1252.554, 321.0114
1253.036, 322.1957
1253.518, 322.6440
1254.001, 321.0400
1254.483, 319.0141
1254.965, 318.5106
1255.447, 319.1346
1255.929, 319.8228
1256.411, 320.5219
1256.893, 320.7971
1257.375, 320.6861
1257.858, 320.2619
1258.340, 319.7045
1258.822, 320.0790
1259.304, 321.8022
1259.786, 323.1396
1260.268, 322.5123
1260.750, 321.0808
1261.232, 319.2222
1261.714, 317.8962
1262.197, 318.6992
1262.679, 320.3052
1263.161, 320.7633
1263.643, 320.2235
1264.125, 320.0140
1264.607, 320.4670
1265.089, 320.5749
1265.571, 319.7097
1266.053, 319.1747
1266.536, 319.3100
1267.018, 319.6133
1267.500, 320.1317
1267.982, 320.3165
1268.464, 319.3754
1268.946, 318.1315
1269.428, 318.8542
1269.910, 321.4016
1270.393, 322.1831
1270.875, 321.2664
1271.357, 320.5363
1271.839, 320.2038
1272.321, 319.7672
1272.803, 319.0861
1273.285, 318.7094
1273.767, 319.0686
1274.250, 319.6856
1274.732, 320.0068
1275.214, 320.2749
1275.696, 320.8541
1276.178, 321.5176
1276.660, 322.2737
1277.142, 322.7254
1277.624, 321.7848
1278.106, 319.5561
1278.589, 318.2570
1279.071, 318.7805
1279.553, 319.5170
1280.035, 320.6926
1280.517, 321.2857
1280.999, 320.6506
1281.481, 319.9612
1281.963, 319.9659
1282.445, 320.1487
1282.928, 319.6882
1283.410, 320.3818
1283.892, 319.4606
1284.374, 321.3422
1284.856, 322.3351
1285.338, 322.4234
1285.820, 322.2214
1286.302, 321.8703
1286.785, 321.3293
1287.267, 320.6004
1287.749, 320.1719
1288.231, 320.3847
##END=



