##NAMES=Ilmenite
##RRUFFID=R130214
##IDEAL CHEMISTRY=Fe^2+^Ti^4+^O_3_
##LOCALITY=Mont St-Hilaire, Quebec, Canada
##OWNER=RRUFF
##SOURCE=Don Doell
##DESCRIPTION=Black lustrous tabular crystals
##STATUS=The identification of this mineral has been confirmed only by single crystal X-ray diffraction.
##URL=rruff.info/R130214
8.936163e+001, 0.000000e+000
8.984375e+001, 1.432217e+002
9.032587e+001, 1.436919e+002
9.080798e+001, 1.437886e+002
9.129010e+001, 1.433723e+002
9.177222e+001, 1.427439e+002
9.225433e+001, 1.423697e+002
9.273645e+001, 1.422099e+002
9.321857e+001, 1.418359e+002
9.370068e+001, 1.409719e+002
9.418280e+001, 1.396245e+002
9.466492e+001, 1.377863e+002
9.514703e+001, 1.351319e+002
9.562915e+001, 1.320470e+002
9.611127e+001, 1.295568e+002
9.659338e+001, 1.277225e+002
9.707550e+001, 1.262592e+002
9.755762e+001, 1.247625e+002
9.803973e+001, 1.232207e+002
9.852185e+001, 1.220228e+002
9.900397e+001, 1.215245e+002
9.948608e+001, 1.217478e+002
9.996820e+001, 1.215105e+002
1.004503e+002, 1.207283e+002
1.009324e+002, 1.195712e+002
1.014146e+002, 1.183959e+002
1.018967e+002, 1.172336e+002
1.023788e+002, 1.159350e+002
1.028609e+002, 1.143339e+002
1.033430e+002, 1.122780e+002
1.038251e+002, 1.104471e+002
1.043073e+002, 1.088799e+002
1.047894e+002, 1.075798e+002
1.052715e+002, 1.065995e+002
1.057536e+002, 1.061273e+002
1.062357e+002, 1.057580e+002
1.067178e+002, 1.052015e+002
1.072000e+002, 1.043452e+002
1.076821e+002, 1.034777e+002
1.081642e+002, 1.027645e+002
1.086463e+002, 1.022543e+002
1.091284e+002, 1.012140e+002
1.096105e+002, 9.890380e+001
1.100927e+002, 9.638091e+001
1.105748e+002, 9.465250e+001
1.110569e+002, 9.438559e+001
1.115390e+002, 9.430019e+001
1.120211e+002, 9.423956e+001
1.125032e+002, 9.432059e+001
1.129854e+002, 9.394202e+001
1.134675e+002, 9.265529e+001
1.139496e+002, 9.093320e+001
1.144317e+002, 8.944073e+001
1.149138e+002, 8.835903e+001
1.153959e+002, 8.753349e+001
1.158781e+002, 8.697334e+001
1.163602e+002, 8.691714e+001
1.168423e+002, 8.660912e+001
1.173244e+002, 8.552151e+001
1.178065e+002, 8.394466e+001
1.182886e+002, 8.261733e+001
1.187708e+002, 8.201940e+001
1.192529e+002, 8.170749e+001
1.197350e+002, 8.135294e+001
1.202171e+002, 8.088838e+001
1.206992e+002, 8.033730e+001
1.211813e+002, 7.965098e+001
1.216635e+002, 7.885873e+001
1.221456e+002, 7.813992e+001
1.226277e+002, 7.771508e+001
1.231098e+002, 7.740565e+001
1.235919e+002, 7.697488e+001
1.240740e+002, 7.626944e+001
1.245562e+002, 7.544428e+001
1.250383e+002, 7.465032e+001
1.255204e+002, 7.388398e+001
1.260025e+002, 7.314842e+001
1.264846e+002, 7.241142e+001
1.269667e+002, 7.170285e+001
1.274489e+002, 7.109734e+001
1.279310e+002, 7.078164e+001
1.284131e+002, 7.056599e+001
1.288952e+002, 7.000277e+001
1.293773e+002, 6.901530e+001
1.298594e+002, 6.798498e+001
1.303416e+002, 6.744221e+001
1.308237e+002, 6.732808e+001
1.313058e+002, 6.717726e+001
1.317879e+002, 6.667386e+001
1.322700e+002, 6.590043e+001
1.327521e+002, 6.530103e+001
1.332343e+002, 6.497617e+001
1.337164e+002, 6.471408e+001
1.341985e+002, 6.406886e+001
1.346806e+002, 6.301778e+001
1.351627e+002, 6.187876e+001
1.356448e+002, 6.074378e+001
1.361270e+002, 5.960072e+001
1.366091e+002, 5.891570e+001
1.370912e+002, 5.889854e+001
1.375733e+002, 5.930713e+001
1.380554e+002, 5.930315e+001
1.385375e+002, 5.880305e+001
1.390197e+002, 5.813015e+001
1.395018e+002, 5.741469e+001
1.399839e+002, 5.655243e+001
1.404660e+002, 5.617842e+001
1.409481e+002, 5.663525e+001
1.414302e+002, 5.781165e+001
1.419124e+002, 5.820182e+001
1.423945e+002, 5.750202e+001
1.428766e+002, 5.643881e+001
1.433587e+002, 5.573729e+001
1.438408e+002, 5.560454e+001
1.443229e+002, 5.542616e+001
1.448051e+002, 5.509601e+001
1.452872e+002, 5.460736e+001
1.457693e+002, 5.395255e+001
1.462514e+002, 5.294168e+001
1.467335e+002, 5.187489e+001
1.472156e+002, 5.113343e+001
1.476978e+002, 5.099938e+001
1.481799e+002, 5.085210e+001
1.486620e+002, 5.051004e+001
1.491441e+002, 4.985404e+001
1.496262e+002, 4.933587e+001
1.501083e+002, 4.911892e+001
1.505905e+002, 4.902082e+001
1.510726e+002, 4.871807e+001
1.515547e+002, 4.797010e+001
1.520368e+002, 4.722980e+001
1.525189e+002, 4.663610e+001
1.530010e+002, 4.631438e+001
1.534832e+002, 4.593398e+001
1.539653e+002, 4.532399e+001
1.544474e+002, 4.463232e+001
1.549295e+002, 4.421401e+001
1.554116e+002, 4.455330e+001
1.558937e+002, 4.485683e+001
1.563759e+002, 4.473490e+001
1.568580e+002, 4.358821e+001
1.573401e+002, 4.275007e+001
1.578222e+002, 4.270430e+001
1.583043e+002, 4.323374e+001
1.587864e+002, 4.353759e+001
1.592686e+002, 4.328266e+001
1.597507e+002, 4.280202e+001
1.602328e+002, 4.230680e+001
1.607149e+002, 4.179689e+001
1.611970e+002, 4.132908e+001
1.616791e+002, 4.085390e+001
1.621613e+002, 4.040482e+001
1.626434e+002, 4.015981e+001
1.631255e+002, 4.036648e+001
1.636076e+002, 4.073952e+001
1.640897e+002, 4.102480e+001
1.645718e+002, 4.133511e+001
1.650540e+002, 4.137789e+001
1.655361e+002, 4.076387e+001
1.660182e+002, 3.952867e+001
1.665003e+002, 3.859226e+001
1.669824e+002, 3.876501e+001
1.674645e+002, 3.943030e+001
1.679467e+002, 3.982392e+001
1.684288e+002, 3.929130e+001
1.689109e+002, 3.863646e+001
1.693930e+002, 3.854549e+001
1.698751e+002, 3.906767e+001
1.703572e+002, 3.947441e+001
1.708394e+002, 3.910949e+001
1.713215e+002, 3.830493e+001
1.718036e+002, 3.762840e+001
1.722857e+002, 3.740847e+001
1.727678e+002, 3.738745e+001
1.732499e+002, 3.734179e+001
1.737321e+002, 3.726194e+001
1.742142e+002, 3.711910e+001
1.746963e+002, 3.678241e+001
1.751784e+002, 3.635118e+001
1.756605e+002, 3.605963e+001
1.761426e+002, 3.610430e+001
1.766248e+002, 3.633527e+001
1.771069e+002, 3.658368e+001
1.775890e+002, 3.685503e+001
1.780711e+002, 3.705853e+001
1.785532e+002, 3.696614e+001
1.790353e+002, 3.668124e+001
1.795175e+002, 3.657716e+001
1.799996e+002, 3.704572e+001
1.804817e+002, 3.781225e+001
1.809638e+002, 3.831912e+001
1.814459e+002, 3.844218e+001
1.819280e+002, 3.845665e+001
1.824102e+002, 3.877325e+001
1.828923e+002, 3.934097e+001
1.833744e+002, 3.987472e+001
1.838565e+002, 4.017576e+001
1.843386e+002, 4.029812e+001
1.848207e+002, 4.037685e+001
1.853029e+002, 4.041663e+001
1.857850e+002, 4.044720e+001
1.862671e+002, 4.053567e+001
1.867492e+002, 4.067804e+001
1.872313e+002, 4.079907e+001
1.877134e+002, 4.080903e+001
1.881956e+002, 4.073960e+001
1.886777e+002, 4.073978e+001
1.891598e+002, 4.083425e+001
1.896419e+002, 4.100994e+001
1.901240e+002, 4.128038e+001
1.906061e+002, 4.165525e+001
1.910883e+002, 4.198818e+001
1.915704e+002, 4.213528e+001
1.920525e+002, 4.211855e+001
1.925346e+002, 4.212838e+001
1.930167e+002, 4.216048e+001
1.934988e+002, 4.223652e+001
1.939810e+002, 4.246615e+001
1.944631e+002, 4.286033e+001
1.949452e+002, 4.317085e+001
1.954273e+002, 4.291711e+001
1.959094e+002, 4.211828e+001
1.963915e+002, 4.149395e+001
1.968737e+002, 4.117383e+001
1.973558e+002, 4.111959e+001
1.978379e+002, 4.130613e+001
1.983200e+002, 4.180521e+001
1.988021e+002, 4.221919e+001
1.992842e+002, 4.207317e+001
1.997664e+002, 4.133009e+001
2.002485e+002, 4.082830e+001
2.007306e+002, 4.075056e+001
2.012127e+002, 4.104377e+001
2.016948e+002, 4.149895e+001
2.021769e+002, 4.219355e+001
2.026591e+002, 4.281932e+001
2.031412e+002, 4.306829e+001
2.036233e+002, 4.291882e+001
2.041054e+002, 4.261053e+001
2.045875e+002, 4.212641e+001
2.050696e+002, 4.150358e+001
2.055518e+002, 4.108795e+001
2.060339e+002, 4.088795e+001
2.065160e+002, 4.086104e+001
2.069981e+002, 4.103251e+001
2.074802e+002, 4.147479e+001
2.079623e+002, 4.176025e+001
2.084445e+002, 4.173439e+001
2.089266e+002, 4.141482e+001
2.094087e+002, 4.124421e+001
2.098908e+002, 4.124783e+001
2.103729e+002, 4.134511e+001
2.108550e+002, 4.148247e+001
2.113372e+002, 4.170298e+001
2.118193e+002, 4.180116e+001
2.123014e+002, 4.166248e+001
2.127835e+002, 4.128697e+001
2.132656e+002, 4.114979e+001
2.137477e+002, 4.131135e+001
2.142299e+002, 4.162200e+001
2.147120e+002, 4.193919e+001
2.151941e+002, 4.232255e+001
2.156762e+002, 4.255039e+001
2.161583e+002, 4.252449e+001
2.166404e+002, 4.222728e+001
2.171226e+002, 4.201683e+001
2.176047e+002, 4.188882e+001
2.180868e+002, 4.184999e+001
2.185689e+002, 4.191267e+001
2.190510e+002, 4.209542e+001
2.195331e+002, 4.234522e+001
2.200153e+002, 4.271681e+001
2.204974e+002, 4.325105e+001
2.209795e+002, 4.342297e+001
2.214616e+002, 4.299317e+001
2.219437e+002, 4.245568e+001
2.224258e+002, 4.248231e+001
2.229080e+002, 4.339166e+001
2.233901e+002, 4.417895e+001
2.238722e+002, 4.453360e+001
2.243543e+002, 4.440331e+001
2.248364e+002, 4.436093e+001
2.253185e+002, 4.448292e+001
2.258007e+002, 4.462086e+001
2.262828e+002, 4.455075e+001
2.267649e+002, 4.408944e+001
2.272470e+002, 4.378326e+001
2.277291e+002, 4.383089e+001
2.282112e+002, 4.429696e+001
2.286934e+002, 4.461719e+001
2.291755e+002, 4.478595e+001
2.296576e+002, 4.481562e+001
2.301397e+002, 4.471455e+001
2.306218e+002, 4.445491e+001
2.311039e+002, 4.411317e+001
2.315861e+002, 4.370816e+001
2.320682e+002, 4.323157e+001
2.325503e+002, 4.269581e+001
2.330324e+002, 4.197688e+001
2.335145e+002, 4.130518e+001
2.339966e+002, 4.101394e+001
2.344788e+002, 4.140821e+001
2.349609e+002, 4.164133e+001
2.354430e+002, 4.146064e+001
2.359251e+002, 4.080091e+001
2.364072e+002, 4.017411e+001
2.368893e+002, 3.951006e+001
2.373715e+002, 3.893444e+001
2.378536e+002, 3.863494e+001
2.383357e+002, 3.880181e+001
2.388178e+002, 3.890211e+001
2.392999e+002, 3.877250e+001
2.397820e+002, 3.837182e+001
2.402642e+002, 3.804799e+001
2.407463e+002, 3.775766e+001
2.412284e+002, 3.757825e+001
2.417105e+002, 3.763854e+001
2.421926e+002, 3.812514e+001
2.426747e+002, 3.850514e+001
2.431569e+002, 3.859765e+001
2.436390e+002, 3.834690e+001
2.441211e+002, 3.829442e+001
2.446032e+002, 3.861056e+001
2.450853e+002, 3.897320e+001
2.455674e+002, 3.897680e+001
2.460496e+002, 3.838181e+001
2.465317e+002, 3.787179e+001
2.470138e+002, 3.761470e+001
2.474959e+002, 3.763353e+001
2.479780e+002, 3.764560e+001
2.484601e+002, 3.766652e+001
2.489423e+002, 3.766757e+001
2.494244e+002, 3.761783e+001
2.499065e+002, 3.751400e+001
2.503886e+002, 3.736352e+001
2.508707e+002, 3.712628e+001
2.513528e+002, 3.679301e+001
2.518350e+002, 3.664996e+001
2.523171e+002, 3.681427e+001
2.527992e+002, 3.704253e+001
2.532813e+002, 3.708525e+001
2.537634e+002, 3.688811e+001
2.542455e+002, 3.661793e+001
2.547277e+002, 3.627525e+001
2.552098e+002, 3.585559e+001
2.556919e+002, 3.550911e+001
2.561740e+002, 3.517229e+001
2.566561e+002, 3.498500e+001
2.571382e+002, 3.516114e+001
2.576204e+002, 3.597773e+001
2.581025e+002, 3.647337e+001
2.585846e+002, 3.635832e+001
2.590667e+002, 3.567087e+001
2.595488e+002, 3.525718e+001
2.600309e+002, 3.524656e+001
2.605131e+002, 3.533236e+001
2.609952e+002, 3.522598e+001
2.614773e+002, 3.482240e+001
2.619594e+002, 3.452208e+001
2.624415e+002, 3.440759e+001
2.629236e+002, 3.446320e+001
2.634058e+002, 3.455627e+001
2.638879e+002, 3.474041e+001
2.643700e+002, 3.487377e+001
2.648521e+002, 3.484929e+001
2.653342e+002, 3.465446e+001
2.658163e+002, 3.432720e+001
2.662985e+002, 3.379134e+001
2.667806e+002, 3.312011e+001
2.672627e+002, 3.276052e+001
2.677448e+002, 3.282742e+001
2.682269e+002, 3.296964e+001
2.687090e+002, 3.289816e+001
2.691912e+002, 3.252819e+001
2.696733e+002, 3.232552e+001
2.701554e+002, 3.242963e+001
2.706375e+002, 3.272218e+001
2.711196e+002, 3.267007e+001
2.716017e+002, 3.214762e+001
2.720839e+002, 3.162823e+001
2.725660e+002, 3.149604e+001
2.730481e+002, 3.183358e+001
2.735302e+002, 3.198645e+001
2.740123e+002, 3.182090e+001
2.744944e+002, 3.147865e+001
2.749766e+002, 3.140382e+001
2.754587e+002, 3.165987e+001
2.759408e+002, 3.193654e+001
2.764229e+002, 3.202276e+001
2.769050e+002, 3.190047e+001
2.773871e+002, 3.183920e+001
2.778693e+002, 3.188559e+001
2.783514e+002, 3.197186e+001
2.788335e+002, 3.192235e+001
2.793156e+002, 3.171032e+001
2.797977e+002, 3.151876e+001
2.802798e+002, 3.148768e+001
2.807620e+002, 3.161880e+001
2.812441e+002, 3.162470e+001
2.817262e+002, 3.147123e+001
2.822083e+002, 3.122420e+001
2.826904e+002, 3.092858e+001
2.831725e+002, 3.056755e+001
2.836547e+002, 3.039269e+001
2.841368e+002, 3.067805e+001
2.846189e+002, 3.136085e+001
2.851010e+002, 3.170402e+001
2.855831e+002, 3.166175e+001
2.860652e+002, 3.136381e+001
2.865474e+002, 3.087775e+001
2.870295e+002, 3.021068e+001
2.875116e+002, 2.971500e+001
2.879937e+002, 2.954205e+001
2.884758e+002, 2.967341e+001
2.889579e+002, 3.012131e+001
2.894401e+002, 3.097061e+001
2.899222e+002, 3.172959e+001
2.904043e+002, 3.165185e+001
2.908864e+002, 3.083985e+001
2.913685e+002, 3.011320e+001
2.918506e+002, 2.978897e+001
2.923328e+002, 2.978149e+001
2.928149e+002, 2.990315e+001
2.932970e+002, 3.016462e+001
2.937791e+002, 3.042960e+001
2.942612e+002, 3.055080e+001
2.947433e+002, 3.055306e+001
2.952255e+002, 3.053164e+001
2.957076e+002, 3.052373e+001
2.961897e+002, 3.050824e+001
2.966718e+002, 3.043989e+001
2.971539e+002, 3.031991e+001
2.976360e+002, 3.017531e+001
2.981182e+002, 2.998274e+001
2.986003e+002, 2.978199e+001
2.990824e+002, 2.967310e+001
2.995645e+002, 2.971036e+001
3.000466e+002, 2.982275e+001
3.005287e+002, 2.994170e+001
3.010109e+002, 3.006003e+001
3.014930e+002, 3.012858e+001
3.019751e+002, 3.007048e+001
3.024572e+002, 2.994539e+001
3.029393e+002, 2.983389e+001
3.034214e+002, 2.970003e+001
3.039036e+002, 2.968114e+001
3.043857e+002, 3.009548e+001
3.048678e+002, 3.080463e+001
3.053499e+002, 3.130774e+001
3.058320e+002, 3.109776e+001
3.063141e+002, 3.058290e+001
3.067963e+002, 3.027776e+001
3.072784e+002, 3.032557e+001
3.077605e+002, 3.040613e+001
3.082426e+002, 3.011961e+001
3.087247e+002, 2.964705e+001
3.092068e+002, 2.942285e+001
3.096890e+002, 2.987876e+001
3.101711e+002, 3.055811e+001
3.106532e+002, 3.111108e+001
3.111353e+002, 3.151214e+001
3.116174e+002, 3.170120e+001
3.120995e+002, 3.146752e+001
3.125817e+002, 3.101567e+001
3.130638e+002, 3.067365e+001
3.135459e+002, 3.064258e+001
3.140280e+002, 3.070935e+001
3.145101e+002, 3.073322e+001
3.149922e+002, 3.069854e+001
3.154744e+002, 3.072845e+001
3.159565e+002, 3.090237e+001
3.164386e+002, 3.116741e+001
3.169207e+002, 3.146042e+001
3.174028e+002, 3.188099e+001
3.178849e+002, 3.222017e+001
3.183671e+002, 3.234940e+001
3.188492e+002, 3.227981e+001
3.193313e+002, 3.223305e+001
3.198134e+002, 3.221124e+001
3.202955e+002, 3.227974e+001
3.207776e+002, 3.248967e+001
3.212598e+002, 3.307060e+001
3.217419e+002, 3.356198e+001
3.222240e+002, 3.385658e+001
3.227061e+002, 3.397026e+001
3.231882e+002, 3.399100e+001
3.236703e+002, 3.382304e+001
3.241525e+002, 3.364312e+001
3.246346e+002, 3.354124e+001
3.251167e+002, 3.338433e+001
3.255988e+002, 3.349780e+001
3.260809e+002, 3.432210e+001
3.265630e+002, 3.547656e+001
3.270452e+002, 3.591796e+001
3.275273e+002, 3.463428e+001
3.280094e+002, 3.344515e+001
3.284915e+002, 3.302452e+001
3.289736e+002, 3.380276e+001
3.294557e+002, 3.440374e+001
3.299379e+002, 3.479850e+001
3.304200e+002, 3.502588e+001
3.309021e+002, 3.515061e+001
3.313842e+002, 3.525106e+001
3.318663e+002, 3.514073e+001
3.323484e+002, 3.466954e+001
3.328306e+002, 3.373913e+001
3.333127e+002, 3.316109e+001
3.337948e+002, 3.310503e+001
3.342769e+002, 3.324879e+001
3.347590e+002, 3.323568e+001
3.352411e+002, 3.299049e+001
3.357233e+002, 3.275885e+001
3.362054e+002, 3.260561e+001
3.366875e+002, 3.252182e+001
3.371696e+002, 3.237017e+001
3.376517e+002, 3.212394e+001
3.381339e+002, 3.186325e+001
3.386160e+002, 3.165910e+001
3.390981e+002, 3.152077e+001
3.395802e+002, 3.138671e+001
3.400623e+002, 3.124781e+001
3.405444e+002, 3.110725e+001
3.410266e+002, 3.100290e+001
3.415087e+002, 3.095102e+001
3.419908e+002, 3.084895e+001
3.424729e+002, 3.054998e+001
3.429550e+002, 3.005833e+001
3.434371e+002, 2.983922e+001
3.439193e+002, 2.999804e+001
3.444014e+002, 3.031770e+001
3.448835e+002, 3.041700e+001
3.453656e+002, 3.029714e+001
3.458477e+002, 3.010069e+001
3.463298e+002, 2.983583e+001
3.468120e+002, 2.953847e+001
3.472941e+002, 2.939162e+001
3.477762e+002, 2.941278e+001
3.482583e+002, 2.950696e+001
3.487404e+002, 2.972065e+001
3.492225e+002, 2.996326e+001
3.497047e+002, 2.982690e+001
3.501868e+002, 2.872388e+001
3.506689e+002, 2.734022e+001
3.511510e+002, 2.705553e+001
3.516331e+002, 2.785243e+001
3.521152e+002, 2.874076e+001
3.525974e+002, 2.879035e+001
3.530795e+002, 2.836094e+001
3.535616e+002, 2.813127e+001
3.540437e+002, 2.838513e+001
3.545258e+002, 2.878610e+001
3.550079e+002, 2.906178e+001
3.554901e+002, 2.920973e+001
3.559722e+002, 2.922739e+001
3.564543e+002, 2.902801e+001
3.569364e+002, 2.873813e+001
3.574185e+002, 2.846222e+001
3.579006e+002, 2.818296e+001
3.583828e+002, 2.802090e+001
3.588649e+002, 2.815082e+001
3.593470e+002, 2.844957e+001
3.598291e+002, 2.866836e+001
3.603112e+002, 2.865749e+001
3.607933e+002, 2.856476e+001
3.612755e+002, 2.841114e+001
3.617576e+002, 2.816296e+001
3.622397e+002, 2.812551e+001
3.627218e+002, 2.875412e+001
3.632039e+002, 2.953378e+001
3.636860e+002, 2.988975e+001
3.641682e+002, 2.907929e+001
3.646503e+002, 2.839906e+001
3.651324e+002, 2.838950e+001
3.656145e+002, 2.902345e+001
3.660966e+002, 2.945801e+001
3.665787e+002, 2.948273e+001
3.670609e+002, 2.931036e+001
3.675430e+002, 2.907729e+001
3.680251e+002, 2.864249e+001
3.685072e+002, 2.832657e+001
3.689893e+002, 2.816052e+001
3.694714e+002, 2.813082e+001
3.699536e+002, 2.822332e+001
3.704357e+002, 2.876875e+001
3.709178e+002, 2.908527e+001
3.713999e+002, 2.883197e+001
3.718820e+002, 2.763354e+001
3.723641e+002, 2.683841e+001
3.728463e+002, 2.658219e+001
3.733284e+002, 2.664722e+001
3.738105e+002, 2.671914e+001
3.742926e+002, 2.682685e+001
3.747747e+002, 2.687473e+001
3.752568e+002, 2.682538e+001
3.757390e+002, 2.667722e+001
3.762211e+002, 2.651748e+001
3.767032e+002, 2.632731e+001
3.771853e+002, 2.616087e+001
3.776674e+002, 2.609490e+001
3.781495e+002, 2.614855e+001
3.786317e+002, 2.611745e+001
3.791138e+002, 2.592759e+001
3.795959e+002, 2.564847e+001
3.800780e+002, 2.552615e+001
3.805601e+002, 2.557942e+001
3.810422e+002, 2.558824e+001
3.815244e+002, 2.531880e+001
3.820065e+002, 2.484066e+001
3.824886e+002, 2.458494e+001
3.829707e+002, 2.463966e+001
3.834528e+002, 2.478933e+001
3.839349e+002, 2.467037e+001
3.844171e+002, 2.434227e+001
3.848992e+002, 2.412737e+001
3.853813e+002, 2.433658e+001
3.858634e+002, 2.471090e+001
3.863455e+002, 2.474164e+001
3.868276e+002, 2.439919e+001
3.873098e+002, 2.407106e+001
3.877919e+002, 2.413172e+001
3.882740e+002, 2.443228e+001
3.887561e+002, 2.471307e+001
3.892382e+002, 2.498298e+001
3.897203e+002, 2.510839e+001
3.902025e+002, 2.479621e+001
3.906846e+002, 2.416460e+001
3.911667e+002, 2.376735e+001
3.916488e+002, 2.421286e+001
3.921309e+002, 2.486716e+001
3.926130e+002, 2.518468e+001
3.930952e+002, 2.494729e+001
3.935773e+002, 2.460527e+001
3.940594e+002, 2.424863e+001
3.945415e+002, 2.392677e+001
3.950236e+002, 2.373127e+001
3.955057e+002, 2.387136e+001
3.959879e+002, 2.398456e+001
3.964700e+002, 2.387262e+001
3.969521e+002, 2.346490e+001
3.974342e+002, 2.321060e+001
3.979163e+002, 2.329300e+001
3.983984e+002, 2.350472e+001
3.988806e+002, 2.365646e+001
3.993627e+002, 2.371529e+001
3.998448e+002, 2.373590e+001
4.003269e+002, 2.370380e+001
4.008090e+002, 2.362851e+001
4.012911e+002, 2.357888e+001
4.017733e+002, 2.352081e+001
4.022554e+002, 2.352738e+001
4.027375e+002, 2.365084e+001
4.032196e+002, 2.396105e+001
4.037017e+002, 2.421540e+001
4.041838e+002, 2.440620e+001
4.046660e+002, 2.454203e+001
4.051481e+002, 2.464383e+001
4.056302e+002, 2.472676e+001
4.061123e+002, 2.471952e+001
4.065944e+002, 2.455194e+001
4.070765e+002, 2.423627e+001
4.075587e+002, 2.406577e+001
4.080408e+002, 2.405911e+001
4.085229e+002, 2.412066e+001
4.090050e+002, 2.415378e+001
4.094871e+002, 2.416183e+001
4.099692e+002, 2.420393e+001
4.104514e+002, 2.431515e+001
4.109335e+002, 2.444271e+001
4.114156e+002, 2.442407e+001
4.118977e+002, 2.427779e+001
4.123798e+002, 2.422041e+001
4.128619e+002, 2.457314e+001
4.133441e+002, 2.508384e+001
4.138262e+002, 2.522236e+001
4.143083e+002, 2.488130e+001
4.147904e+002, 2.440991e+001
4.152725e+002, 2.402561e+001
4.157546e+002, 2.376555e+001
4.162368e+002, 2.369797e+001
4.167189e+002, 2.413881e+001
4.172010e+002, 2.458358e+001
4.176831e+002, 2.448580e+001
4.181652e+002, 2.388430e+001
4.186473e+002, 2.350218e+001
4.191295e+002, 2.402759e+001
4.196116e+002, 2.480414e+001
4.200937e+002, 2.522481e+001
4.205758e+002, 2.485596e+001
4.210579e+002, 2.453965e+001
4.215400e+002, 2.471145e+001
4.220222e+002, 2.514289e+001
4.225043e+002, 2.527482e+001
4.229864e+002, 2.461068e+001
4.234685e+002, 2.394613e+001
4.239506e+002, 2.357334e+001
4.244327e+002, 2.356334e+001
4.249149e+002, 2.368443e+001
4.253970e+002, 2.409692e+001
4.258791e+002, 2.454106e+001
4.263612e+002, 2.475648e+001
4.268433e+002, 2.460143e+001
4.273254e+002, 2.443703e+001
4.278076e+002, 2.430466e+001
4.282897e+002, 2.420282e+001
4.287718e+002, 2.413199e+001
4.292539e+002, 2.409802e+001
4.297360e+002, 2.408342e+001
4.302181e+002, 2.406881e+001
4.307003e+002, 2.404420e+001
4.311824e+002, 2.409907e+001
4.316645e+002, 2.426566e+001
4.321466e+002, 2.446375e+001
4.326287e+002, 2.457463e+001
4.331108e+002, 2.459807e+001
4.335930e+002, 2.451223e+001
4.340751e+002, 2.421365e+001
4.345572e+002, 2.381204e+001
4.350393e+002, 2.374461e+001
4.355214e+002, 2.402061e+001
4.360035e+002, 2.428375e+001
4.364857e+002, 2.408632e+001
4.369678e+002, 2.363489e+001
4.374499e+002, 2.346999e+001
4.379320e+002, 2.383666e+001
4.384141e+002, 2.427345e+001
4.388962e+002, 2.416208e+001
4.393784e+002, 2.368319e+001
4.398605e+002, 2.336726e+001
4.403426e+002, 2.366866e+001
4.408247e+002, 2.414712e+001
4.413068e+002, 2.445515e+001
4.417889e+002, 2.455500e+001
4.422711e+002, 2.455149e+001
4.427532e+002, 2.445658e+001
4.432353e+002, 2.430132e+001
4.437174e+002, 2.411801e+001
4.441995e+002, 2.374309e+001
4.446816e+002, 2.352286e+001
4.451638e+002, 2.365484e+001
4.456459e+002, 2.405487e+001
4.461280e+002, 2.433999e+001
4.466101e+002, 2.436972e+001
4.470922e+002, 2.434334e+001
4.475743e+002, 2.434724e+001
4.480565e+002, 2.440947e+001
4.485386e+002, 2.443845e+001
4.490207e+002, 2.446740e+001
4.495028e+002, 2.444190e+001
4.499849e+002, 2.427283e+001
4.504670e+002, 2.386926e+001
4.509492e+002, 2.351927e+001
4.514313e+002, 2.326686e+001
4.519134e+002, 2.311680e+001
4.523955e+002, 2.314014e+001
4.528776e+002, 2.336883e+001
4.533597e+002, 2.365771e+001
4.538419e+002, 2.395697e+001
4.543240e+002, 2.426063e+001
4.548061e+002, 2.438550e+001
4.552882e+002, 2.428387e+001
4.557703e+002, 2.408174e+001
4.562524e+002, 2.393686e+001
4.567346e+002, 2.384993e+001
4.572167e+002, 2.384025e+001
4.576988e+002, 2.404086e+001
4.581809e+002, 2.426767e+001
4.586630e+002, 2.413209e+001
4.591451e+002, 2.365689e+001
4.596273e+002, 2.319090e+001
4.601094e+002, 2.303047e+001
4.605915e+002, 2.303014e+001
4.610736e+002, 2.299356e+001
4.615557e+002, 2.283918e+001
4.620378e+002, 2.272562e+001
4.625200e+002, 2.284139e+001
4.630021e+002, 2.306651e+001
4.634842e+002, 2.316464e+001
4.639663e+002, 2.290044e+001
4.644484e+002, 2.261349e+001
4.649305e+002, 2.247639e+001
4.654127e+002, 2.250621e+001
4.658948e+002, 2.253414e+001
4.663769e+002, 2.255010e+001
4.668590e+002, 2.253808e+001
4.673411e+002, 2.248546e+001
4.678232e+002, 2.225887e+001
4.683054e+002, 2.217103e+001
4.687875e+002, 2.232688e+001
4.692696e+002, 2.261078e+001
4.697517e+002, 2.272867e+001
4.702338e+002, 2.259776e+001
4.707159e+002, 2.244975e+001
4.711981e+002, 2.234955e+001
4.716802e+002, 2.229575e+001
4.721623e+002, 2.236565e+001
4.726444e+002, 2.262243e+001
4.731265e+002, 2.282961e+001
4.736086e+002, 2.266946e+001
4.740908e+002, 2.215029e+001
4.745729e+002, 2.178859e+001
4.750550e+002, 2.169327e+001
4.755371e+002, 2.177544e+001
4.760192e+002, 2.192576e+001
4.765013e+002, 2.213068e+001
4.769835e+002, 2.228115e+001
4.774656e+002, 2.238021e+001
4.779477e+002, 2.236629e+001
4.784298e+002, 2.201648e+001
4.789119e+002, 2.130947e+001
4.793940e+002, 2.075690e+001
4.798762e+002, 2.092764e+001
4.803583e+002, 2.144336e+001
4.808404e+002, 2.180380e+001
4.813225e+002, 2.181582e+001
4.818046e+002, 2.171253e+001
4.822867e+002, 2.150487e+001
4.827689e+002, 2.126671e+001
4.832510e+002, 2.118790e+001
4.837331e+002, 2.153495e+001
4.842152e+002, 2.188099e+001
4.846973e+002, 2.203964e+001
4.851794e+002, 2.197717e+001
4.856616e+002, 2.184435e+001
4.861437e+002, 2.153144e+001
4.866258e+002, 2.122775e+001
4.871079e+002, 2.108586e+001
4.875900e+002, 2.123690e+001
4.880721e+002, 2.131252e+001
4.885543e+002, 2.123634e+001
4.890364e+002, 2.107711e+001
4.895185e+002, 2.106907e+001
4.900006e+002, 2.129136e+001
4.904827e+002, 2.140762e+001
4.909648e+002, 2.117453e+001
4.914470e+002, 2.062206e+001
4.919291e+002, 2.045794e+001
4.924112e+002, 2.074489e+001
4.928933e+002, 2.112389e+001
4.933754e+002, 2.120271e+001
4.938575e+002, 2.104954e+001
4.943397e+002, 2.097376e+001
4.948218e+002, 2.107872e+001
4.953039e+002, 2.122273e+001
4.957860e+002, 2.120190e+001
4.962681e+002, 2.105171e+001
4.967502e+002, 2.089335e+001
4.972324e+002, 2.069483e+001
4.977145e+002, 2.057778e+001
4.981966e+002, 2.071954e+001
4.986787e+002, 2.113000e+001
4.991608e+002, 2.148239e+001
4.996429e+002, 2.164826e+001
5.001251e+002, 2.165696e+001
5.006072e+002, 2.152727e+001
5.010893e+002, 2.107299e+001
5.015714e+002, 2.074625e+001
5.020535e+002, 2.073260e+001
5.025356e+002, 2.090969e+001
5.030178e+002, 2.099743e+001
5.034999e+002, 2.093629e+001
5.039820e+002, 2.082398e+001
5.044641e+002, 2.066113e+001
5.049462e+002, 2.044291e+001
5.054283e+002, 2.030551e+001
5.059105e+002, 2.028786e+001
5.063926e+002, 2.029311e+001
5.068747e+002, 2.023222e+001
5.073568e+002, 2.008437e+001
5.078389e+002, 2.000902e+001
5.083210e+002, 2.001392e+001
5.088032e+002, 2.011065e+001
5.092853e+002, 2.040629e+001
5.097674e+002, 2.088067e+001
5.102495e+002, 2.119452e+001
5.107316e+002, 2.113869e+001
5.112137e+002, 2.086111e+001
5.116959e+002, 2.064208e+001
5.121780e+002, 2.048455e+001
5.126601e+002, 2.040595e+001
5.131422e+002, 2.044345e+001
5.136243e+002, 2.055815e+001
5.141064e+002, 2.072505e+001
5.145886e+002, 2.097197e+001
5.150707e+002, 2.115186e+001
5.155528e+002, 2.110055e+001
5.160349e+002, 2.094321e+001
5.165170e+002, 2.086007e+001
5.169991e+002, 2.111390e+001
5.174813e+002, 2.124320e+001
5.179634e+002, 2.095240e+001
5.184455e+002, 2.031806e+001
5.189276e+002, 1.997686e+001
5.194097e+002, 2.022627e+001
5.198918e+002, 2.059482e+001
5.203740e+002, 2.092834e+001
5.208561e+002, 2.128353e+001
5.213382e+002, 2.141135e+001
5.218203e+002, 2.123176e+001
5.223024e+002, 2.091622e+001
5.227845e+002, 2.061624e+001
5.232667e+002, 2.030180e+001
5.237488e+002, 2.019078e+001
5.242309e+002, 2.039212e+001
5.247130e+002, 2.076275e+001
5.251951e+002, 2.091230e+001
5.256772e+002, 2.084687e+001
5.261594e+002, 2.082680e+001
5.266415e+002, 2.110560e+001
5.271236e+002, 2.151709e+001
5.276057e+002, 2.164139e+001
5.280878e+002, 2.146218e+001
5.285699e+002, 2.126173e+001
5.290521e+002, 2.129563e+001
5.295342e+002, 2.144258e+001
5.300163e+002, 2.154529e+001
5.304984e+002, 2.155711e+001
5.309805e+002, 2.152622e+001
5.314626e+002, 2.153980e+001
5.319448e+002, 2.152348e+001
5.324269e+002, 2.133394e+001
5.329090e+002, 2.053847e+001
5.333911e+002, 1.994195e+001
5.338732e+002, 1.990705e+001
5.343553e+002, 2.046769e+001
5.348375e+002, 2.089803e+001
5.353196e+002, 2.120902e+001
5.358017e+002, 2.135349e+001
5.362838e+002, 2.126509e+001
5.367659e+002, 2.078582e+001
5.372480e+002, 2.052048e+001
5.377302e+002, 2.051416e+001
5.382123e+002, 2.066644e+001
5.386944e+002, 2.088396e+001
5.391765e+002, 2.118240e+001
5.396586e+002, 2.133265e+001
5.401407e+002, 2.121155e+001
5.406229e+002, 2.095648e+001
5.411050e+002, 2.090774e+001
5.415871e+002, 2.104904e+001
5.420692e+002, 2.121449e+001
5.425513e+002, 2.130776e+001
5.430334e+002, 2.135874e+001
5.435156e+002, 2.140461e+001
5.439977e+002, 2.144752e+001
5.444798e+002, 2.150470e+001
5.449619e+002, 2.168920e+001
5.454440e+002, 2.185127e+001
5.459261e+002, 2.181520e+001
5.464083e+002, 2.136798e+001
5.468904e+002, 2.095584e+001
5.473725e+002, 2.070910e+001
5.478546e+002, 2.060574e+001
5.483367e+002, 2.059256e+001
5.488188e+002, 2.071173e+001
5.493010e+002, 2.087098e+001
5.497831e+002, 2.108673e+001
5.502652e+002, 2.135623e+001
5.507473e+002, 2.146745e+001
5.512294e+002, 2.132307e+001
5.517115e+002, 2.118521e+001
5.521937e+002, 2.126838e+001
5.526758e+002, 2.161811e+001
5.531579e+002, 2.173684e+001
5.536400e+002, 2.156707e+001
5.541221e+002, 2.126873e+001
5.546042e+002, 2.099752e+001
5.550864e+002, 2.076655e+001
5.555685e+002, 2.066180e+001
5.560506e+002, 2.073077e+001
5.565327e+002, 2.091113e+001
5.570148e+002, 2.116787e+001
5.574969e+002, 2.147438e+001
5.579791e+002, 2.173205e+001
5.584612e+002, 2.193693e+001
5.589433e+002, 2.203086e+001
5.594254e+002, 2.188019e+001
5.599075e+002, 2.147124e+001
5.603896e+002, 2.120434e+001
5.608718e+002, 2.133916e+001
5.613539e+002, 2.162156e+001
5.618360e+002, 2.187289e+001
5.623181e+002, 2.216718e+001
5.628002e+002, 2.226975e+001
5.632823e+002, 2.199763e+001
5.637645e+002, 2.160633e+001
5.642466e+002, 2.150702e+001
5.647287e+002, 2.185317e+001
5.652108e+002, 2.215170e+001
5.656929e+002, 2.230317e+001
5.661750e+002, 2.231899e+001
5.666572e+002, 2.222109e+001
5.671393e+002, 2.199099e+001
5.676214e+002, 2.178345e+001
5.681035e+002, 2.166745e+001
5.685856e+002, 2.164623e+001
5.690677e+002, 2.174546e+001
5.695499e+002, 2.196874e+001
5.700320e+002, 2.225183e+001
5.705141e+002, 2.269971e+001
5.709962e+002, 2.312427e+001
5.714783e+002, 2.316519e+001
5.719604e+002, 2.252922e+001
5.724426e+002, 2.192364e+001
5.729247e+002, 2.187184e+001
5.734068e+002, 2.215306e+001
5.738889e+002, 2.237089e+001
5.743710e+002, 2.226962e+001
5.748531e+002, 2.221130e+001
5.753353e+002, 2.238663e+001
5.758174e+002, 2.277022e+001
5.762995e+002, 2.296601e+001
5.767816e+002, 2.282370e+001
5.772637e+002, 2.265792e+001
5.777458e+002, 2.259883e+001
5.782280e+002, 2.265824e+001
5.787101e+002, 2.278693e+001
5.791922e+002, 2.302753e+001
5.796743e+002, 2.324369e+001
5.801564e+002, 2.325924e+001
5.806385e+002, 2.308662e+001
5.811207e+002, 2.294577e+001
5.816028e+002, 2.286894e+001
5.820849e+002, 2.285526e+001
5.825670e+002, 2.290565e+001
5.830491e+002, 2.301777e+001
5.835313e+002, 2.318819e+001
5.840134e+002, 2.349335e+001
5.844955e+002, 2.379869e+001
5.849776e+002, 2.393806e+001
5.854597e+002, 2.394607e+001
5.859418e+002, 2.401961e+001
5.864240e+002, 2.440856e+001
5.869061e+002, 2.476861e+001
5.873882e+002, 2.484904e+001
5.878703e+002, 2.450349e+001
5.883524e+002, 2.434825e+001
5.888345e+002, 2.464936e+001
5.893167e+002, 2.504265e+001
5.897988e+002, 2.524907e+001
5.902809e+002, 2.521059e+001
5.907630e+002, 2.510691e+001
5.912451e+002, 2.491802e+001
5.917272e+002, 2.470334e+001
5.922094e+002, 2.461812e+001
5.926915e+002, 2.467915e+001
5.931736e+002, 2.459895e+001
5.936557e+002, 2.417712e+001
5.941378e+002, 2.361993e+001
5.946199e+002, 2.345389e+001
5.951021e+002, 2.364513e+001
5.955842e+002, 2.390457e+001
5.960663e+002, 2.419979e+001
5.965484e+002, 2.437894e+001
5.970305e+002, 2.413177e+001
5.975126e+002, 2.341363e+001
5.979948e+002, 2.291488e+001
5.984769e+002, 2.323524e+001
5.989590e+002, 2.382912e+001
5.994411e+002, 2.423196e+001
5.999232e+002, 2.426512e+001
6.004053e+002, 2.425386e+001
6.008875e+002, 2.428822e+001
6.013696e+002, 2.428787e+001
6.018517e+002, 2.410579e+001
6.023338e+002, 2.352520e+001
6.028159e+002, 2.321252e+001
6.032980e+002, 2.338803e+001
6.037802e+002, 2.388684e+001
6.042623e+002, 2.409083e+001
6.047444e+002, 2.396566e+001
6.052265e+002, 2.382364e+001
6.057086e+002, 2.379907e+001
6.061907e+002, 2.388522e+001
6.066729e+002, 2.413225e+001
6.071550e+002, 2.453389e+001
6.076371e+002, 2.482446e+001
6.081192e+002, 2.466325e+001
6.086013e+002, 2.431237e+001
6.090834e+002, 2.414069e+001
6.095656e+002, 2.425786e+001
6.100477e+002, 2.433926e+001
6.105298e+002, 2.413628e+001
6.110119e+002, 2.383112e+001
6.114940e+002, 2.362594e+001
6.119761e+002, 2.360132e+001
6.124583e+002, 2.364358e+001
6.129404e+002, 2.385972e+001
6.134225e+002, 2.411540e+001
6.139046e+002, 2.407217e+001
6.143867e+002, 2.351292e+001
6.148688e+002, 2.311590e+001
6.153510e+002, 2.310590e+001
6.158331e+002, 2.342541e+001
6.163152e+002, 2.375093e+001
6.167973e+002, 2.409247e+001
6.172794e+002, 2.433006e+001
6.177615e+002, 2.436426e+001
6.182437e+002, 2.422896e+001
6.187258e+002, 2.395707e+001
6.192079e+002, 2.353841e+001
6.196900e+002, 2.321553e+001
6.201721e+002, 2.321467e+001
6.206542e+002, 2.342058e+001
6.211364e+002, 2.373670e+001
6.216185e+002, 2.430244e+001
6.221006e+002, 2.461227e+001
6.225827e+002, 2.406946e+001
6.230648e+002, 2.325543e+001
6.235469e+002, 2.298249e+001
6.240291e+002, 2.414831e+001
6.245112e+002, 2.494676e+001
6.249933e+002, 2.501014e+001
6.254754e+002, 2.453660e+001
6.259575e+002, 2.417901e+001
6.264396e+002, 2.394697e+001
6.269218e+002, 2.379579e+001
6.274039e+002, 2.370713e+001
6.278860e+002, 2.368444e+001
6.283681e+002, 2.379109e+001
6.288502e+002, 2.403338e+001
6.293323e+002, 2.423635e+001
6.298145e+002, 2.417383e+001
6.302966e+002, 2.400335e+001
6.307787e+002, 2.407735e+001
6.312608e+002, 2.444916e+001
6.317429e+002, 2.478655e+001
6.322250e+002, 2.482043e+001
6.327072e+002, 2.469809e+001
6.331893e+002, 2.456876e+001
6.336714e+002, 2.440863e+001
6.341535e+002, 2.434811e+001
6.346356e+002, 2.455111e+001
6.351177e+002, 2.483825e+001
6.355999e+002, 2.491492e+001
6.360820e+002, 2.455970e+001
6.365641e+002, 2.435206e+001
6.370462e+002, 2.443746e+001
6.375283e+002, 2.472064e+001
6.380104e+002, 2.488520e+001
6.384926e+002, 2.491985e+001
6.389747e+002, 2.491588e+001
6.394568e+002, 2.489475e+001
6.399389e+002, 2.487038e+001
6.404210e+002, 2.488160e+001
6.409031e+002, 2.492944e+001
6.413853e+002, 2.502633e+001
6.418674e+002, 2.523852e+001
6.423495e+002, 2.547688e+001
6.428316e+002, 2.561601e+001
6.433137e+002, 2.563358e+001
6.437958e+002, 2.566040e+001
6.442780e+002, 2.573872e+001
6.447601e+002, 2.586964e+001
6.452422e+002, 2.606272e+001
6.457243e+002, 2.649986e+001
6.462064e+002, 2.670817e+001
6.466885e+002, 2.653819e+001
6.471707e+002, 2.621057e+001
6.476528e+002, 2.601141e+001
6.481349e+002, 2.595443e+001
6.486170e+002, 2.597144e+001
6.490991e+002, 2.603715e+001
6.495812e+002, 2.618344e+001
6.500634e+002, 2.655140e+001
6.505455e+002, 2.712466e+001
6.510276e+002, 2.762085e+001
6.515097e+002, 2.791509e+001
6.519918e+002, 2.805638e+001
6.524739e+002, 2.807609e+001
6.529561e+002, 2.799551e+001
6.534382e+002, 2.792704e+001
6.539203e+002, 2.795304e+001
6.544024e+002, 2.800175e+001
6.548845e+002, 2.801871e+001
6.553666e+002, 2.799425e+001
6.558488e+002, 2.799297e+001
6.563309e+002, 2.787595e+001
6.568130e+002, 2.790974e+001
6.572951e+002, 2.829524e+001
6.577772e+002, 2.928494e+001
6.582593e+002, 2.992529e+001
6.587415e+002, 3.011406e+001
6.592236e+002, 3.011864e+001
6.597057e+002, 3.026139e+001
6.601878e+002, 3.053683e+001
6.606699e+002, 3.066596e+001
6.611520e+002, 3.053133e+001
6.616342e+002, 3.040030e+001
6.621163e+002, 3.077311e+001
6.625984e+002, 3.146125e+001
6.630805e+002, 3.195957e+001
6.635626e+002, 3.181347e+001
6.640447e+002, 3.166495e+001
6.645269e+002, 3.204744e+001
6.650090e+002, 3.279836e+001
6.654911e+002, 3.345131e+001
6.659732e+002, 3.386621e+001
6.664553e+002, 3.415521e+001
6.669374e+002, 3.430217e+001
6.674196e+002, 3.432429e+001
6.679017e+002, 3.442143e+001
6.683838e+002, 3.459392e+001
6.688659e+002, 3.484443e+001
6.693480e+002, 3.520854e+001
6.698301e+002, 3.568391e+001
6.703123e+002, 3.606608e+001
6.707944e+002, 3.634848e+001
6.712765e+002, 3.659727e+001
6.717586e+002, 3.686049e+001
6.722407e+002, 3.713943e+001
6.727228e+002, 3.747549e+001
6.732050e+002, 3.790699e+001
6.736871e+002, 3.819602e+001
6.741692e+002, 3.794181e+001
6.746513e+002, 3.754121e+001
6.751334e+002, 3.746952e+001
6.756155e+002, 3.808793e+001
6.760977e+002, 3.867690e+001
6.765798e+002, 3.909559e+001
6.770619e+002, 3.937634e+001
6.775440e+002, 3.955216e+001
6.780261e+002, 3.956088e+001
6.785082e+002, 3.959308e+001
6.789904e+002, 3.968213e+001
6.794725e+002, 3.981441e+001
6.799546e+002, 3.999578e+001
6.804367e+002, 4.022541e+001
6.809188e+002, 4.034639e+001
6.814009e+002, 4.026701e+001
6.818831e+002, 4.005265e+001
6.823652e+002, 3.977372e+001
6.828473e+002, 3.944954e+001
6.833294e+002, 3.918876e+001
6.838115e+002, 3.911444e+001
6.842936e+002, 3.907866e+001
6.847758e+002, 3.904470e+001
6.852579e+002, 3.900487e+001
6.857400e+002, 3.869875e+001
6.862221e+002, 3.762170e+001
6.867042e+002, 3.663637e+001
6.871863e+002, 3.622600e+001
6.876685e+002, 3.657512e+001
6.881506e+002, 3.670346e+001
6.886327e+002, 3.656240e+001
6.891148e+002, 3.630262e+001
6.895969e+002, 3.607824e+001
6.900790e+002, 3.587591e+001
6.905612e+002, 3.546879e+001
6.910433e+002, 3.478646e+001
6.915254e+002, 3.414213e+001
6.920075e+002, 3.397889e+001
6.924896e+002, 3.410910e+001
6.929717e+002, 3.420325e+001
6.934539e+002, 3.420249e+001
6.939360e+002, 3.408159e+001
6.944181e+002, 3.377243e+001
6.949002e+002, 3.334724e+001
6.953823e+002, 3.291641e+001
6.958644e+002, 3.243935e+001
6.963466e+002, 3.204773e+001
6.968287e+002, 3.177869e+001
6.973108e+002, 3.160058e+001
6.977929e+002, 3.142387e+001
6.982750e+002, 3.122055e+001
6.987571e+002, 3.114864e+001
6.992393e+002, 3.136565e+001
6.997214e+002, 3.168914e+001
7.002035e+002, 3.146258e+001
7.006856e+002, 3.074750e+001
7.011677e+002, 3.008377e+001
7.016498e+002, 2.990457e+001
7.021320e+002, 2.987260e+001
7.026141e+002, 2.951921e+001
7.030962e+002, 2.888744e+001
7.035783e+002, 2.845666e+001
7.040604e+002, 2.856045e+001
7.045425e+002, 2.883173e+001
7.050247e+002, 2.912394e+001
7.055068e+002, 2.946819e+001
7.059889e+002, 2.953974e+001
7.064710e+002, 2.917246e+001
7.069531e+002, 2.874569e+001
7.074352e+002, 2.851271e+001
7.079174e+002, 2.849351e+001
7.083995e+002, 2.844731e+001
7.088816e+002, 2.836730e+001
7.093637e+002, 2.827524e+001
7.098458e+002, 2.813037e+001
7.103279e+002, 2.799630e+001
7.108101e+002, 2.809684e+001
7.112922e+002, 2.855109e+001
7.117743e+002, 2.888212e+001
7.122564e+002, 2.861047e+001
7.127385e+002, 2.805850e+001
7.132206e+002, 2.760607e+001
7.137028e+002, 2.734182e+001
7.141849e+002, 2.720605e+001
7.146670e+002, 2.725362e+001
7.151491e+002, 2.740146e+001
7.156312e+002, 2.755813e+001
7.161133e+002, 2.775754e+001
7.165955e+002, 2.785949e+001
7.170776e+002, 2.781459e+001
7.175597e+002, 2.768813e+001
7.180418e+002, 2.760357e+001
7.185239e+002, 2.756034e+001
7.190060e+002, 2.756645e+001
7.194882e+002, 2.766265e+001
7.199703e+002, 2.776739e+001
7.204524e+002, 2.777887e+001
7.209345e+002, 2.771444e+001
7.214166e+002, 2.762658e+001
7.218987e+002, 2.746392e+001
7.223809e+002, 2.735542e+001
7.228630e+002, 2.747404e+001
7.233451e+002, 2.776405e+001
7.238272e+002, 2.772848e+001
7.243093e+002, 2.707159e+001
7.247914e+002, 2.650640e+001
7.252736e+002, 2.631054e+001
7.257557e+002, 2.645644e+001
7.262378e+002, 2.662762e+001
7.267199e+002, 2.683486e+001
7.272020e+002, 2.699396e+001
7.276841e+002, 2.699066e+001
7.281663e+002, 2.691555e+001
7.286484e+002, 2.703699e+001
7.291305e+002, 2.735043e+001
7.296126e+002, 2.752815e+001
7.300947e+002, 2.721753e+001
7.305768e+002, 2.676675e+001
7.310590e+002, 2.643033e+001
7.315411e+002, 2.623516e+001
7.320232e+002, 2.618488e+001
7.325053e+002, 2.638444e+001
7.329874e+002, 2.664506e+001
7.334695e+002, 2.688256e+001
7.339517e+002, 2.714474e+001
7.344338e+002, 2.717953e+001
7.349159e+002, 2.693808e+001
7.353980e+002, 2.660928e+001
7.358801e+002, 2.635094e+001
7.363622e+002, 2.617117e+001
7.368444e+002, 2.611614e+001
7.373265e+002, 2.620463e+001
7.378086e+002, 2.635986e+001
7.382907e+002, 2.657248e+001
7.387728e+002, 2.678410e+001
7.392549e+002, 2.692175e+001
7.397371e+002, 2.699490e+001
7.402192e+002, 2.694335e+001
7.407013e+002, 2.661867e+001
7.411834e+002, 2.621459e+001
7.416655e+002, 2.598958e+001
7.421476e+002, 2.602563e+001
7.426298e+002, 2.605246e+001
7.431119e+002, 2.604271e+001
7.435940e+002, 2.600296e+001
7.440761e+002, 2.592221e+001
7.445582e+002, 2.580886e+001
7.450403e+002, 2.576110e+001
7.455225e+002, 2.586001e+001
7.460046e+002, 2.594563e+001
7.464867e+002, 2.572612e+001
7.469688e+002, 2.534837e+001
7.474509e+002, 2.513134e+001
7.479330e+002, 2.532803e+001
7.484152e+002, 2.558285e+001
7.488973e+002, 2.584482e+001
7.493794e+002, 2.606255e+001
7.498615e+002, 2.606397e+001
7.503436e+002, 2.566934e+001
7.508257e+002, 2.539126e+001
7.513079e+002, 2.539486e+001
7.517900e+002, 2.559289e+001
7.522721e+002, 2.569132e+001
7.527542e+002, 2.569139e+001
7.532363e+002, 2.560777e+001
7.537184e+002, 2.534754e+001
7.542006e+002, 2.507396e+001
7.546827e+002, 2.508540e+001
7.551648e+002, 2.532650e+001
7.556469e+002, 2.556571e+001
7.561290e+002, 2.577179e+001
7.566111e+002, 2.586609e+001
7.570933e+002, 2.571076e+001
7.575754e+002, 2.533180e+001
7.580575e+002, 2.519673e+001
7.585396e+002, 2.552743e+001
7.590217e+002, 2.579922e+001
7.595038e+002, 2.576228e+001
7.599860e+002, 2.545838e+001
7.604681e+002, 2.541284e+001
7.609502e+002, 2.564873e+001
7.614323e+002, 2.587070e+001
7.619144e+002, 2.584466e+001
7.623965e+002, 2.568558e+001
7.628787e+002, 2.559109e+001
7.633608e+002, 2.556594e+001
7.638429e+002, 2.557761e+001
7.643250e+002, 2.561240e+001
7.648071e+002, 2.567376e+001
7.652892e+002, 2.579202e+001
7.657714e+002, 2.599064e+001
7.662535e+002, 2.606561e+001
7.667356e+002, 2.593212e+001
7.672177e+002, 2.577439e+001
7.676998e+002, 2.570606e+001
7.681819e+002, 2.573605e+001
7.686641e+002, 2.567846e+001
7.691462e+002, 2.552364e+001
7.696283e+002, 2.535970e+001
7.701104e+002, 2.525598e+001
7.705925e+002, 2.519709e+001
7.710746e+002, 2.513689e+001
7.715568e+002, 2.506838e+001
7.720389e+002, 2.507885e+001
7.725210e+002, 2.536410e+001
7.730031e+002, 2.565464e+001
7.734852e+002, 2.571392e+001
7.739673e+002, 2.540064e+001
7.744495e+002, 2.521409e+001
7.749316e+002, 2.522983e+001
7.754137e+002, 2.530445e+001
7.758958e+002, 2.533765e+001
7.763779e+002, 2.532710e+001
7.768600e+002, 2.531288e+001
7.773422e+002, 2.530210e+001
7.778243e+002, 2.525374e+001
7.783064e+002, 2.508866e+001
7.787885e+002, 2.486648e+001
7.792706e+002, 2.467010e+001
7.797527e+002, 2.449547e+001
7.802349e+002, 2.447239e+001
7.807170e+002, 2.483952e+001
7.811991e+002, 2.529898e+001
7.816812e+002, 2.558575e+001
7.821633e+002, 2.556894e+001
7.826454e+002, 2.554252e+001
7.831276e+002, 2.549166e+001
7.836097e+002, 2.544918e+001
7.840918e+002, 2.544525e+001
7.845739e+002, 2.547968e+001
7.850560e+002, 2.556768e+001
7.855381e+002, 2.572601e+001
7.860203e+002, 2.585135e+001
7.865024e+002, 2.581741e+001
7.869845e+002, 2.567361e+001
7.874666e+002, 2.548876e+001
7.879487e+002, 2.524846e+001
7.884308e+002, 2.506253e+001
7.889130e+002, 2.501731e+001
7.893951e+002, 2.503228e+001
7.898772e+002, 2.502215e+001
7.903593e+002, 2.492830e+001
7.908414e+002, 2.489534e+001
7.913235e+002, 2.490502e+001
7.918057e+002, 2.500381e+001
7.922878e+002, 2.536910e+001
7.927699e+002, 2.596643e+001
7.932520e+002, 2.609683e+001
7.937341e+002, 2.557840e+001
7.942162e+002, 2.496420e+001
7.946984e+002, 2.486966e+001
7.951805e+002, 2.507136e+001
7.956626e+002, 2.521933e+001
7.961447e+002, 2.521078e+001
7.966268e+002, 2.518348e+001
7.971089e+002, 2.517939e+001
7.975911e+002, 2.518596e+001
7.980732e+002, 2.519311e+001
7.985553e+002, 2.522499e+001
7.990374e+002, 2.517808e+001
7.995195e+002, 2.498514e+001
8.000016e+002, 2.482801e+001
8.004838e+002, 2.502747e+001
8.009659e+002, 2.550429e+001
8.014480e+002, 2.578730e+001
8.019301e+002, 2.576065e+001
8.024122e+002, 2.564787e+001
8.028943e+002, 2.559747e+001
8.033765e+002, 2.561803e+001
8.038586e+002, 2.573564e+001
8.043407e+002, 2.608542e+001
8.048228e+002, 2.629648e+001
8.053049e+002, 2.617989e+001
8.057870e+002, 2.595441e+001
8.062692e+002, 2.583437e+001
8.067513e+002, 2.585040e+001
8.072334e+002, 2.586706e+001
8.077155e+002, 2.589733e+001
8.081976e+002, 2.585542e+001
8.086797e+002, 2.548610e+001
8.091619e+002, 2.495192e+001
8.096440e+002, 2.477712e+001
8.101261e+002, 2.515698e+001
8.106082e+002, 2.558149e+001
8.110903e+002, 2.563698e+001
8.115724e+002, 2.554812e+001
8.120546e+002, 2.556458e+001
8.125367e+002, 2.588225e+001
8.130188e+002, 2.605354e+001
8.135009e+002, 2.594718e+001
8.139830e+002, 2.580202e+001
8.144651e+002, 2.591910e+001
8.149473e+002, 2.632358e+001
8.154294e+002, 2.659844e+001
8.159115e+002, 2.670980e+001
8.163936e+002, 2.665649e+001
8.168757e+002, 2.627432e+001
8.173578e+002, 2.577155e+001
8.178400e+002, 2.553715e+001
8.183221e+002, 2.573046e+001
8.188042e+002, 2.592500e+001
8.192863e+002, 2.588172e+001
8.197684e+002, 2.576173e+001
8.202505e+002, 2.572824e+001
8.207327e+002, 2.589480e+001
8.212148e+002, 2.587504e+001
8.216969e+002, 2.554748e+001
8.221790e+002, 2.525334e+001
8.226611e+002, 2.549661e+001
8.231432e+002, 2.615751e+001
8.236254e+002, 2.641704e+001
8.241075e+002, 2.616089e+001
8.245896e+002, 2.575733e+001
8.250717e+002, 2.533014e+001
8.255538e+002, 2.505318e+001
8.260359e+002, 2.522249e+001
8.265181e+002, 2.609549e+001
8.270002e+002, 2.667179e+001
8.274823e+002, 2.647671e+001
8.279644e+002, 2.610879e+001
8.284465e+002, 2.597090e+001
8.289286e+002, 2.615439e+001
8.294108e+002, 2.606475e+001
8.298929e+002, 2.562325e+001
8.303750e+002, 2.525732e+001
8.308571e+002, 2.554191e+001
8.313392e+002, 2.615503e+001
8.318214e+002, 2.638593e+001
8.323035e+002, 2.615225e+001
8.327856e+002, 2.580333e+001
8.332677e+002, 2.527556e+001
8.337498e+002, 2.491991e+001
8.342319e+002, 2.510911e+001
8.347141e+002, 2.612242e+001
8.351962e+002, 2.662056e+001
8.356783e+002, 2.637547e+001
8.361604e+002, 2.599838e+001
8.366425e+002, 2.588381e+001
8.371246e+002, 2.601371e+001
8.376068e+002, 2.610629e+001
8.380889e+002, 2.615952e+001
8.385710e+002, 2.625809e+001
8.390531e+002, 2.667306e+001
8.395352e+002, 2.704024e+001
8.400173e+002, 2.681303e+001
8.404995e+002, 2.597358e+001
8.409816e+002, 2.541637e+001
8.414637e+002, 2.581178e+001
8.419458e+002, 2.618787e+001
8.424279e+002, 2.603570e+001
8.429100e+002, 2.537074e+001
8.433922e+002, 2.509854e+001
8.438743e+002, 2.526628e+001
8.443564e+002, 2.556713e+001
8.448385e+002, 2.593098e+001
8.453206e+002, 2.626529e+001
8.458027e+002, 2.630351e+001
8.462849e+002, 2.608718e+001
8.467670e+002, 2.584592e+001
8.472491e+002, 2.564581e+001
8.477312e+002, 2.551542e+001
8.482133e+002, 2.551867e+001
8.486954e+002, 2.563355e+001
8.491776e+002, 2.563448e+001
8.496597e+002, 2.538611e+001
8.501418e+002, 2.529993e+001
8.506239e+002, 2.559265e+001
8.511060e+002, 2.610648e+001
8.515881e+002, 2.629098e+001
8.520703e+002, 2.617512e+001
8.525524e+002, 2.599798e+001
8.530345e+002, 2.581230e+001
8.535166e+002, 2.568100e+001
8.539987e+002, 2.574695e+001
8.544808e+002, 2.591174e+001
8.549630e+002, 2.592566e+001
8.554451e+002, 2.548742e+001
8.559272e+002, 2.516973e+001
8.564093e+002, 2.510630e+001
8.568914e+002, 2.522102e+001
8.573735e+002, 2.536121e+001
8.578557e+002, 2.553221e+001
8.583378e+002, 2.568615e+001
8.588199e+002, 2.585900e+001
8.593020e+002, 2.591193e+001
8.597841e+002, 2.542663e+001
8.602662e+002, 2.469239e+001
8.607484e+002, 2.433668e+001
8.612305e+002, 2.493039e+001
8.617126e+002, 2.540364e+001
8.621947e+002, 2.517890e+001
8.626768e+002, 2.467920e+001
8.631589e+002, 2.452258e+001
8.636411e+002, 2.486809e+001
8.641232e+002, 2.511211e+001
8.646053e+002, 2.521079e+001
8.650874e+002, 2.517086e+001
8.655695e+002, 2.487567e+001
8.660516e+002, 2.444506e+001
8.665338e+002, 2.431735e+001
8.670159e+002, 2.464758e+001
8.674980e+002, 2.489612e+001
8.679801e+002, 2.448849e+001
8.684622e+002, 2.392310e+001
8.689443e+002, 2.370054e+001
8.694265e+002, 2.409004e+001
8.699086e+002, 2.436232e+001
8.703907e+002, 2.450897e+001
8.708728e+002, 2.454572e+001
8.713549e+002, 2.442210e+001
8.718370e+002, 2.416258e+001
8.723192e+002, 2.408491e+001
8.728013e+002, 2.420255e+001
8.732834e+002, 2.436072e+001
8.737655e+002, 2.444632e+001
8.742476e+002, 2.449976e+001
8.747297e+002, 2.460366e+001
8.752119e+002, 2.477025e+001
8.756940e+002, 2.475776e+001
8.761761e+002, 2.429182e+001
8.766582e+002, 2.386163e+001
8.771403e+002, 2.367652e+001
8.776224e+002, 2.371581e+001
8.781046e+002, 2.371637e+001
8.785867e+002, 2.368023e+001
8.790688e+002, 2.357157e+001
8.795509e+002, 2.323231e+001
8.800330e+002, 2.289042e+001
8.805151e+002, 2.299871e+001
8.809973e+002, 2.342344e+001
8.814794e+002, 2.364808e+001
8.819615e+002, 2.326102e+001
8.824436e+002, 2.284577e+001
8.829257e+002, 2.258438e+001
8.834078e+002, 2.246293e+001
8.838900e+002, 2.246583e+001
8.843721e+002, 2.262899e+001
8.848542e+002, 2.273172e+001
8.853363e+002, 2.272096e+001
8.858184e+002, 2.259931e+001
8.863005e+002, 2.223736e+001
8.867827e+002, 2.176913e+001
8.872648e+002, 2.155789e+001
8.877469e+002, 2.196548e+001
8.882290e+002, 2.230612e+001
8.887111e+002, 2.214119e+001
8.891932e+002, 2.178409e+001
8.896754e+002, 2.171185e+001
8.901575e+002, 2.210306e+001
8.906396e+002, 2.231899e+001
8.911217e+002, 2.227828e+001
8.916038e+002, 2.212519e+001
8.920859e+002, 2.202102e+001
8.925681e+002, 2.195188e+001
8.930502e+002, 2.187125e+001
8.935323e+002, 2.176934e+001
8.940144e+002, 2.167945e+001
8.944965e+002, 2.163368e+001
8.949786e+002, 2.160541e+001
8.954608e+002, 2.157292e+001
8.959429e+002, 2.153414e+001
8.964250e+002, 2.148834e+001
8.969071e+002, 2.143005e+001
8.973892e+002, 2.137611e+001
8.978713e+002, 2.137501e+001
8.983535e+002, 2.139827e+001
8.988356e+002, 2.122760e+001
8.993177e+002, 2.087781e+001
8.997998e+002, 2.058556e+001
9.002819e+002, 2.049912e+001
9.007640e+002, 2.053843e+001
9.012462e+002, 2.070485e+001
9.017283e+002, 2.097198e+001
9.022104e+002, 2.111718e+001
9.026925e+002, 2.098325e+001
9.031746e+002, 2.097215e+001
9.036567e+002, 2.131588e+001
9.041389e+002, 2.180284e+001
9.046210e+002, 2.163081e+001
9.051031e+002, 2.088287e+001
9.055852e+002, 2.030502e+001
9.060673e+002, 2.028292e+001
9.065494e+002, 2.044370e+001
9.070316e+002, 2.054289e+001
9.075137e+002, 2.056499e+001
9.079958e+002, 2.048296e+001
9.084779e+002, 2.007556e+001
9.089600e+002, 1.987388e+001
9.094421e+002, 2.003234e+001
9.099243e+002, 2.029470e+001
9.104064e+002, 2.027855e+001
9.108885e+002, 2.000363e+001
9.113706e+002, 1.982704e+001
9.118527e+002, 1.980281e+001
9.123348e+002, 1.987373e+001
9.128170e+002, 2.008523e+001
9.132991e+002, 2.030762e+001
9.137812e+002, 2.036795e+001
9.142633e+002, 2.018088e+001
9.147454e+002, 2.008268e+001
9.152275e+002, 2.023670e+001
9.157097e+002, 2.035601e+001
9.161918e+002, 2.022798e+001
9.166739e+002, 1.985931e+001
9.171560e+002, 1.973266e+001
9.176381e+002, 1.985108e+001
9.181202e+002, 1.995340e+001
9.186024e+002, 1.973755e+001
9.190845e+002, 1.949535e+001
9.195666e+002, 1.961091e+001
9.200487e+002, 2.002136e+001
9.205308e+002, 2.032115e+001
9.210129e+002, 2.027448e+001
9.214951e+002, 2.025033e+001
9.219772e+002, 2.039852e+001
9.224593e+002, 2.061073e+001
9.229414e+002, 2.047755e+001
9.234235e+002, 2.000957e+001
9.239056e+002, 1.974184e+001
9.243878e+002, 1.992837e+001
9.248699e+002, 2.022932e+001
9.253520e+002, 2.028191e+001
9.258341e+002, 2.017778e+001
9.263162e+002, 2.006100e+001
9.267983e+002, 1.989800e+001
9.272805e+002, 1.985023e+001
9.277626e+002, 2.006453e+001
9.282447e+002, 2.026471e+001
9.287268e+002, 2.010283e+001
9.292089e+002, 1.957655e+001
9.296910e+002, 1.926996e+001
9.301732e+002, 1.923864e+001
9.306553e+002, 1.928394e+001
9.311374e+002, 1.923446e+001
9.316195e+002, 1.915838e+001
9.321016e+002, 1.914896e+001
9.325837e+002, 1.922100e+001
9.330659e+002, 1.923498e+001
9.335480e+002, 1.903139e+001
9.340301e+002, 1.891918e+001
9.345122e+002, 1.905993e+001
9.349943e+002, 1.940357e+001
9.354764e+002, 1.962613e+001
9.359586e+002, 1.972845e+001
9.364407e+002, 1.969510e+001
9.369228e+002, 1.948228e+001
9.374049e+002, 1.916495e+001
9.378870e+002, 1.868656e+001
9.383691e+002, 1.817170e+001
9.388513e+002, 1.792008e+001
9.393334e+002, 1.824066e+001
9.398155e+002, 1.853756e+001
9.402976e+002, 1.874766e+001
9.407797e+002, 1.887860e+001
9.412618e+002, 1.892164e+001
9.417440e+002, 1.888213e+001
9.422261e+002, 1.882355e+001
9.427082e+002, 1.875304e+001
9.431903e+002, 1.868324e+001
9.436724e+002, 1.859955e+001
9.441545e+002, 1.853884e+001
9.446367e+002, 1.856032e+001
9.451188e+002, 1.871649e+001
9.456009e+002, 1.875471e+001
9.460830e+002, 1.851165e+001
9.465651e+002, 1.837575e+001
9.470472e+002, 1.866864e+001
9.475294e+002, 1.930927e+001
9.480115e+002, 1.957458e+001
9.484936e+002, 1.948638e+001
9.489757e+002, 1.927395e+001
9.494578e+002, 1.891431e+001
9.499399e+002, 1.863451e+001
9.504221e+002, 1.874926e+001
9.509042e+002, 1.911834e+001
9.513863e+002, 1.915709e+001
9.518684e+002, 1.848300e+001
9.523505e+002, 1.813614e+001
9.528326e+002, 1.843607e+001
9.533148e+002, 1.897606e+001
9.537969e+002, 1.887953e+001
9.542790e+002, 1.832069e+001
9.547611e+002, 1.810408e+001
9.552432e+002, 1.853970e+001
9.557253e+002, 1.894873e+001
9.562075e+002, 1.866372e+001
9.566896e+002, 1.821602e+001
9.571717e+002, 1.817386e+001
9.576538e+002, 1.877029e+001
9.581359e+002, 1.917670e+001
9.586180e+002, 1.938553e+001
9.591002e+002, 1.942068e+001
9.595823e+002, 1.917786e+001
9.600644e+002, 1.879100e+001
9.605465e+002, 1.871873e+001
9.610286e+002, 1.893087e+001
9.615107e+002, 1.913342e+001
9.619929e+002, 1.912849e+001
9.624750e+002, 1.910225e+001
9.629571e+002, 1.921438e+001
9.634392e+002, 1.938945e+001
9.639213e+002, 1.936007e+001
9.644034e+002, 1.911456e+001
9.648856e+002, 1.866963e+001
9.653677e+002, 1.792670e+001
9.658498e+002, 1.719843e+001
9.663319e+002, 1.702790e+001
9.668140e+002, 1.723645e+001
9.672961e+002, 1.746634e+001
9.677783e+002, 1.763330e+001
9.682604e+002, 1.778579e+001
9.687425e+002, 1.796487e+001
9.692246e+002, 1.811973e+001
9.697067e+002, 1.821869e+001
9.701888e+002, 1.826193e+001
9.706710e+002, 1.819992e+001
9.711531e+002, 1.801476e+001
9.716352e+002, 1.789889e+001
9.721173e+002, 1.806974e+001
9.725994e+002, 1.835502e+001
9.730815e+002, 1.857515e+001
9.735637e+002, 1.871252e+001
9.740458e+002, 1.872860e+001
9.745279e+002, 1.855444e+001
9.750100e+002, 1.830596e+001
9.754921e+002, 1.790768e+001
9.759742e+002, 1.751737e+001
9.764564e+002, 1.763303e+001
9.769385e+002, 1.821903e+001
9.774206e+002, 1.854618e+001
9.779027e+002, 1.833854e+001
9.783848e+002, 1.808266e+001
9.788669e+002, 1.833605e+001
9.793491e+002, 1.876548e+001
9.798312e+002, 1.895800e+001
9.803133e+002, 1.871566e+001
9.807954e+002, 1.854698e+001
9.812775e+002, 1.848458e+001
9.817596e+002, 1.846894e+001
9.822418e+002, 1.849008e+001
9.827239e+002, 1.852629e+001
9.832060e+002, 1.843453e+001
9.836881e+002, 1.822892e+001
9.841702e+002, 1.804122e+001
9.846523e+002, 1.791523e+001
9.851345e+002, 1.786732e+001
9.856166e+002, 1.797596e+001
9.860987e+002, 1.817391e+001
9.865808e+002, 1.819158e+001
9.870629e+002, 1.789588e+001
9.875450e+002, 1.791085e+001
9.880272e+002, 1.850115e+001
9.885093e+002, 1.910615e+001
9.889914e+002, 1.862729e+001
9.894735e+002, 1.757878e+001
9.899556e+002, 1.705338e+001
9.904377e+002, 1.739511e+001
9.909199e+002, 1.780194e+001
9.914020e+002, 1.801590e+001
9.918841e+002, 1.811426e+001
9.923662e+002, 1.811738e+001
9.928483e+002, 1.801826e+001
9.933304e+002, 1.810569e+001
9.938126e+002, 1.839311e+001
9.942947e+002, 1.863310e+001
9.947768e+002, 1.871292e+001
9.952589e+002, 1.862918e+001
9.957410e+002, 1.820690e+001
9.962231e+002, 1.761301e+001
9.967053e+002, 1.731287e+001
9.971874e+002, 1.771555e+001
9.976695e+002, 1.806586e+001
9.981516e+002, 1.824953e+001
9.986337e+002, 1.835149e+001
9.991158e+002, 1.855657e+001
9.995980e+002, 1.882461e+001
1.000080e+003, 1.883747e+001
1.000562e+003, 1.852915e+001
1.001044e+003, 1.815279e+001
1.001526e+003, 1.775829e+001
1.002009e+003, 1.748048e+001
1.002491e+003, 1.748886e+001
1.002973e+003, 1.783093e+001
1.003455e+003, 1.805682e+001
1.003937e+003, 1.816356e+001
1.004419e+003, 1.815529e+001
1.004901e+003, 1.796935e+001
1.005383e+003, 1.772614e+001
1.005865e+003, 1.771163e+001
1.006348e+003, 1.786057e+001
1.006830e+003, 1.798635e+001
1.007312e+003, 1.800213e+001
1.007794e+003, 1.798939e+001
1.008276e+003, 1.793057e+001
1.008758e+003, 1.788296e+001
1.009240e+003, 1.793090e+001
1.009722e+003, 1.809259e+001
1.010205e+003, 1.815145e+001
1.010687e+003, 1.808935e+001
1.011169e+003, 1.797045e+001
1.011651e+003, 1.783997e+001
1.012133e+003, 1.769150e+001
1.012615e+003, 1.747055e+001
1.013097e+003, 1.718786e+001
1.013579e+003, 1.706079e+001
1.014061e+003, 1.715357e+001
1.014544e+003, 1.736571e+001
1.015026e+003, 1.775234e+001
1.015508e+003, 1.816182e+001
1.015990e+003, 1.814045e+001
1.016472e+003, 1.779882e+001
1.016954e+003, 1.758701e+001
1.017436e+003, 1.764878e+001
1.017918e+003, 1.785198e+001
1.018401e+003, 1.834311e+001
1.018883e+003, 1.878560e+001
1.019365e+003, 1.879786e+001
1.019847e+003, 1.823757e+001
1.020329e+003, 1.797437e+001
1.020811e+003, 1.805993e+001
1.021293e+003, 1.816075e+001
1.021775e+003, 1.795584e+001
1.022257e+003, 1.766082e+001
1.022740e+003, 1.766406e+001
1.023222e+003, 1.788939e+001
1.023704e+003, 1.802760e+001
1.024186e+003, 1.791240e+001
1.024668e+003, 1.775887e+001
1.025150e+003, 1.756207e+001
1.025632e+003, 1.740021e+001
1.026114e+003, 1.739395e+001
1.026596e+003, 1.754092e+001
1.027079e+003, 1.790393e+001
1.027561e+003, 1.854041e+001
1.028043e+003, 1.899142e+001
1.028525e+003, 1.872660e+001
1.029007e+003, 1.822688e+001
1.029489e+003, 1.787061e+001
1.029971e+003, 1.769780e+001
1.030453e+003, 1.765857e+001
1.030936e+003, 1.779091e+001
1.031418e+003, 1.792956e+001
1.031900e+003, 1.799324e+001
1.032382e+003, 1.803406e+001
1.032864e+003, 1.819818e+001
1.033346e+003, 1.841841e+001
1.033828e+003, 1.853402e+001
1.034310e+003, 1.851440e+001
1.034792e+003, 1.833636e+001
1.035275e+003, 1.778504e+001
1.035757e+003, 1.725912e+001
1.036239e+003, 1.716492e+001
1.036721e+003, 1.750298e+001
1.037203e+003, 1.765383e+001
1.037685e+003, 1.759725e+001
1.038167e+003, 1.749730e+001
1.038649e+003, 1.739184e+001
1.039132e+003, 1.736213e+001
1.039614e+003, 1.756691e+001
1.040096e+003, 1.792930e+001
1.040578e+003, 1.804793e+001
1.041060e+003, 1.779233e+001
1.041542e+003, 1.760673e+001
1.042024e+003, 1.759732e+001
1.042506e+003, 1.763809e+001
1.042989e+003, 1.749404e+001
1.043471e+003, 1.726625e+001
1.043953e+003, 1.718991e+001
1.044435e+003, 1.734055e+001
1.044917e+003, 1.744722e+001
1.045399e+003, 1.729779e+001
1.045881e+003, 1.718992e+001
1.046363e+003, 1.729022e+001
1.046845e+003, 1.756922e+001
1.047328e+003, 1.783376e+001
1.047810e+003, 1.807892e+001
1.048292e+003, 1.816866e+001
1.048774e+003, 1.795761e+001
1.049256e+003, 1.768666e+001
1.049738e+003, 1.749784e+001
1.050220e+003, 1.739343e+001
1.050702e+003, 1.739152e+001
1.051184e+003, 1.758335e+001
1.051667e+003, 1.763789e+001
1.052149e+003, 1.752123e+001
1.052631e+003, 1.735609e+001
1.053113e+003, 1.726054e+001
1.053595e+003, 1.718625e+001
1.054077e+003, 1.695465e+001
1.054559e+003, 1.661235e+001
1.055041e+003, 1.649816e+001
1.055523e+003, 1.711852e+001
1.056006e+003, 1.751886e+001
1.056488e+003, 1.734620e+001
1.056970e+003, 1.689054e+001
1.057452e+003, 1.674187e+001
1.057934e+003, 1.686996e+001
1.058416e+003, 1.701939e+001
1.058898e+003, 1.715690e+001
1.059380e+003, 1.720880e+001
1.059863e+003, 1.699827e+001
1.060345e+003, 1.676290e+001
1.060827e+003, 1.674616e+001
1.061309e+003, 1.696727e+001
1.061791e+003, 1.699700e+001
1.062273e+003, 1.677189e+001
1.062755e+003, 1.666663e+001
1.063237e+003, 1.691614e+001
1.063719e+003, 1.728091e+001
1.064202e+003, 1.741524e+001
1.064684e+003, 1.738363e+001
1.065166e+003, 1.730433e+001
1.065648e+003, 1.715281e+001
1.066130e+003, 1.706773e+001
1.066612e+003, 1.709856e+001
1.067094e+003, 1.714159e+001
1.067576e+003, 1.705491e+001
1.068059e+003, 1.689274e+001
1.068541e+003, 1.709145e+001
1.069023e+003, 1.759108e+001
1.069505e+003, 1.786409e+001
1.069987e+003, 1.728748e+001
1.070469e+003, 1.672771e+001
1.070951e+003, 1.672213e+001
1.071433e+003, 1.702093e+001
1.071916e+003, 1.719527e+001
1.072398e+003, 1.724992e+001
1.072880e+003, 1.707269e+001
1.073362e+003, 1.661060e+001
1.073844e+003, 1.617558e+001
1.074326e+003, 1.606993e+001
1.074808e+003, 1.617193e+001
1.075290e+003, 1.642898e+001
1.075772e+003, 1.683001e+001
1.076255e+003, 1.702028e+001
1.076737e+003, 1.684895e+001
1.077219e+003, 1.680132e+001
1.077701e+003, 1.712705e+001
1.078183e+003, 1.752645e+001
1.078665e+003, 1.728470e+001
1.079147e+003, 1.666909e+001
1.079629e+003, 1.630658e+001
1.080111e+003, 1.641407e+001
1.080594e+003, 1.662476e+001
1.081076e+003, 1.688413e+001
1.081558e+003, 1.714743e+001
1.082040e+003, 1.743618e+001
1.082522e+003, 1.772331e+001
1.083004e+003, 1.761675e+001
1.083486e+003, 1.716193e+001
1.083968e+003, 1.680233e+001
1.084450e+003, 1.682448e+001
1.084933e+003, 1.696992e+001
1.085415e+003, 1.717510e+001
1.085897e+003, 1.735575e+001
1.086379e+003, 1.739085e+001
1.086861e+003, 1.726624e+001
1.087343e+003, 1.700077e+001
1.087825e+003, 1.655924e+001
1.088307e+003, 1.621769e+001
1.088790e+003, 1.635455e+001
1.089272e+003, 1.663624e+001
1.089754e+003, 1.665092e+001
1.090236e+003, 1.642458e+001
1.090718e+003, 1.619550e+001
1.091200e+003, 1.583808e+001
1.091682e+003, 1.583130e+001
1.092164e+003, 1.639489e+001
1.092646e+003, 1.708694e+001
1.093129e+003, 1.718248e+001
1.093611e+003, 1.687796e+001
1.094093e+003, 1.667300e+001
1.094575e+003, 1.665456e+001
1.095057e+003, 1.655436e+001
1.095539e+003, 1.612325e+001
1.096021e+003, 1.572619e+001
1.096503e+003, 1.551615e+001
1.096986e+003, 1.546257e+001
1.097468e+003, 1.547550e+001
1.097950e+003, 1.554416e+001
1.098432e+003, 1.555793e+001
1.098914e+003, 1.542719e+001
1.099396e+003, 1.538091e+001
1.099878e+003, 1.571388e+001
1.100360e+003, 1.612722e+001
1.100843e+003, 1.631511e+001
1.101325e+003, 1.625171e+001
1.101807e+003, 1.618389e+001
1.102289e+003, 1.610624e+001
1.102771e+003, 1.608008e+001
1.103253e+003, 1.621412e+001
1.103735e+003, 1.634518e+001
1.104217e+003, 1.622020e+001
1.104699e+003, 1.596383e+001
1.105182e+003, 1.580926e+001
1.105664e+003, 1.577545e+001
1.106146e+003, 1.593970e+001
1.106628e+003, 1.640220e+001
1.107110e+003, 1.680459e+001
1.107592e+003, 1.677066e+001
1.108074e+003, 1.647104e+001
1.108556e+003, 1.620742e+001
1.109038e+003, 1.600210e+001
1.109521e+003, 1.588797e+001
1.110003e+003, 1.591896e+001
1.110485e+003, 1.599195e+001
1.110967e+003, 1.608610e+001
1.111449e+003, 1.620591e+001
1.111931e+003, 1.637763e+001
1.112413e+003, 1.658430e+001
1.112895e+003, 1.678520e+001
1.113377e+003, 1.697923e+001
1.113860e+003, 1.700786e+001
1.114342e+003, 1.664310e+001
1.114824e+003, 1.621430e+001
1.115306e+003, 1.584980e+001
1.115788e+003, 1.557880e+001
1.116270e+003, 1.556825e+001
1.116752e+003, 1.581139e+001
1.117234e+003, 1.591983e+001
1.117717e+003, 1.576703e+001
1.118199e+003, 1.557421e+001
1.118681e+003, 1.549158e+001
1.119163e+003, 1.549438e+001
1.119645e+003, 1.559331e+001
1.120127e+003, 1.579087e+001
1.120609e+003, 1.590584e+001
1.121091e+003, 1.594187e+001
1.121573e+003, 1.585975e+001
1.122056e+003, 1.558773e+001
1.122538e+003, 1.527871e+001
1.123020e+003, 1.508520e+001
1.123502e+003, 1.499956e+001
1.123984e+003, 1.501941e+001
1.124466e+003, 1.522565e+001
1.124948e+003, 1.534930e+001
1.125430e+003, 1.538527e+001
1.125913e+003, 1.534229e+001
1.126395e+003, 1.511314e+001
1.126877e+003, 1.486414e+001
1.127359e+003, 1.514440e+001
1.127841e+003, 1.572392e+001
1.128323e+003, 1.595851e+001
1.128805e+003, 1.515313e+001
1.129287e+003, 1.464579e+001
1.129770e+003, 1.469927e+001
1.130252e+003, 1.494988e+001
1.130734e+003, 1.502430e+001
1.131216e+003, 1.499125e+001
1.131698e+003, 1.520529e+001
1.132180e+003, 1.563231e+001
1.132662e+003, 1.592064e+001
1.133144e+003, 1.570222e+001
1.133626e+003, 1.552864e+001
1.134109e+003, 1.565281e+001
1.134591e+003, 1.589171e+001
1.135073e+003, 1.596090e+001
1.135555e+003, 1.587374e+001
1.136037e+003, 1.578183e+001
1.136519e+003, 1.570054e+001
1.137001e+003, 1.567783e+001
1.137483e+003, 1.582278e+001
1.137965e+003, 1.596637e+001
1.138448e+003, 1.602192e+001
1.138930e+003, 1.598693e+001
1.139412e+003, 1.578864e+001
1.139894e+003, 1.540764e+001
1.140376e+003, 1.527877e+001
1.140858e+003, 1.554329e+001
1.141340e+003, 1.580413e+001
1.141822e+003, 1.559442e+001
1.142304e+003, 1.527935e+001
1.142787e+003, 1.521282e+001
1.143269e+003, 1.541816e+001
1.143751e+003, 1.557825e+001
1.144233e+003, 1.569425e+001
1.144715e+003, 1.574290e+001
1.145197e+003, 1.569491e+001
1.145679e+003, 1.562268e+001
1.146161e+003, 1.567290e+001
1.146644e+003, 1.572984e+001
1.147126e+003, 1.561947e+001
1.147608e+003, 1.524396e+001
1.148090e+003, 1.497194e+001
1.148572e+003, 1.482637e+001
1.149054e+003, 1.472760e+001
1.149536e+003, 1.461684e+001
1.150018e+003, 1.455247e+001
1.150500e+003, 1.470495e+001
1.150983e+003, 1.496657e+001
1.151465e+003, 1.512133e+001
1.151947e+003, 1.505899e+001
1.152429e+003, 1.498702e+001
1.152911e+003, 1.491778e+001
1.153393e+003, 1.484936e+001
1.153875e+003, 1.472091e+001
1.154357e+003, 1.461444e+001
1.154840e+003, 1.491984e+001
1.155322e+003, 1.545712e+001
1.155804e+003, 1.564077e+001
1.156286e+003, 1.472062e+001
1.156768e+003, 1.418519e+001
1.157250e+003, 1.432645e+001
1.157732e+003, 1.475511e+001
1.158214e+003, 1.525652e+001
1.158697e+003, 1.574296e+001
1.159179e+003, 1.572948e+001
1.159661e+003, 1.528822e+001
1.160143e+003, 1.489768e+001
1.160625e+003, 1.479234e+001
1.161107e+003, 1.478578e+001
1.161589e+003, 1.485522e+001
1.162071e+003, 1.495382e+001
1.162553e+003, 1.505545e+001
1.163036e+003, 1.514353e+001
1.163518e+003, 1.505083e+001
1.164000e+003, 1.478076e+001
1.164482e+003, 1.459753e+001
1.164964e+003, 1.476406e+001
1.165446e+003, 1.494380e+001
1.165928e+003, 1.497938e+001
1.166410e+003, 1.492178e+001
1.166892e+003, 1.484431e+001
1.167375e+003, 1.474978e+001
1.167857e+003, 1.468067e+001
1.168339e+003, 1.464114e+001
1.168821e+003, 1.465094e+001
1.169303e+003, 1.478149e+001
1.169785e+003, 1.491173e+001
1.170267e+003, 1.497382e+001
1.170749e+003, 1.497158e+001
1.171231e+003, 1.486842e+001
1.171714e+003, 1.466536e+001
1.172196e+003, 1.463612e+001
1.172678e+003, 1.486491e+001
1.173160e+003, 1.509123e+001
1.173642e+003, 1.509194e+001
1.174124e+003, 1.499961e+001
1.174606e+003, 1.490683e+001
1.175088e+003, 1.481708e+001
1.175571e+003, 1.471788e+001
1.176053e+003, 1.460697e+001
1.176535e+003, 1.449450e+001
1.177017e+003, 1.433997e+001
1.177499e+003, 1.433444e+001
1.177981e+003, 1.488780e+001
1.178463e+003, 1.552055e+001
1.178945e+003, 1.571791e+001
1.179427e+003, 1.545984e+001
1.179910e+003, 1.531074e+001
1.180392e+003, 1.529013e+001
1.180874e+003, 1.513914e+001
1.181356e+003, 1.466281e+001
1.181838e+003, 1.424599e+001
1.182320e+003, 1.440934e+001
1.182802e+003, 1.480092e+001
1.183284e+003, 1.502183e+001
1.183767e+003, 1.502669e+001
1.184249e+003, 1.485790e+001
1.184731e+003, 1.445944e+001
1.185213e+003, 1.429107e+001
1.185695e+003, 1.477295e+001
1.186177e+003, 1.527616e+001
1.186659e+003, 1.481776e+001
1.187141e+003, 1.401620e+001
1.187624e+003, 1.382674e+001
1.188106e+003, 1.459508e+001
1.188588e+003, 1.507859e+001
1.189070e+003, 1.525529e+001
1.189552e+003, 1.525164e+001
1.190034e+003, 1.508659e+001
1.190516e+003, 1.483658e+001
1.190998e+003, 1.450399e+001
1.191480e+003, 1.418546e+001
1.191963e+003, 1.405049e+001
1.192445e+003, 1.415293e+001
1.192927e+003, 1.442272e+001
1.193409e+003, 1.492880e+001
1.193891e+003, 1.528615e+001
1.194373e+003, 1.512292e+001
1.194855e+003, 1.474296e+001
1.195337e+003, 1.443076e+001
1.195819e+003, 1.423277e+001
1.196302e+003, 1.427619e+001
1.196784e+003, 1.476225e+001
1.197266e+003, 1.504410e+001
1.197748e+003, 1.508313e+001
1.198230e+003, 1.503235e+001
1.198712e+003, 1.498766e+001
1.199194e+003, 1.494410e+001
1.199676e+003, 1.485171e+001
1.200158e+003, 1.475808e+001
1.200641e+003, 1.481854e+001
1.201123e+003, 1.527430e+001
1.201605e+003, 1.530508e+001
1.202087e+003, 1.476330e+001
1.202569e+003, 1.422019e+001
1.203051e+003, 1.423870e+001
1.203533e+003, 1.453610e+001
1.204015e+003, 1.484062e+001
1.204498e+003, 1.509928e+001
1.204980e+003, 1.517510e+001
1.205462e+003, 1.502087e+001
1.205944e+003, 1.473360e+001
1.206426e+003, 1.426558e+001
1.206908e+003, 1.387583e+001
1.207390e+003, 1.381172e+001
1.207872e+003, 1.398075e+001
1.208354e+003, 1.440986e+001
1.208837e+003, 1.499385e+001
1.209319e+003, 1.524677e+001
1.209801e+003, 1.495418e+001
1.210283e+003, 1.479363e+001
1.210765e+003, 1.486161e+001
1.211247e+003, 1.500784e+001
1.211729e+003, 1.510075e+001
1.212211e+003, 1.516183e+001
1.212694e+003, 1.521923e+001
1.213176e+003, 1.527075e+001
1.213658e+003, 1.528462e+001
1.214140e+003, 1.523466e+001
1.214622e+003, 1.522904e+001
1.215104e+003, 1.529251e+001
1.215586e+003, 1.536485e+001
1.216068e+003, 1.539707e+001
1.216551e+003, 1.539073e+001
1.217033e+003, 1.537920e+001
1.217515e+003, 1.534188e+001
1.217997e+003, 1.509693e+001
1.218479e+003, 1.447790e+001
1.218961e+003, 1.425500e+001
1.219443e+003, 1.463176e+001
1.219925e+003, 1.511403e+001
1.220407e+003, 1.516547e+001
1.220890e+003, 1.500225e+001
1.221372e+003, 1.480889e+001
1.221854e+003, 1.462232e+001
1.222336e+003, 1.456063e+001
1.222818e+003, 1.464653e+001
1.223300e+003, 1.478752e+001
1.223782e+003, 1.498334e+001
1.224264e+003, 1.514921e+001
1.224746e+003, 1.519078e+001
1.225229e+003, 1.515385e+001
1.225711e+003, 1.505378e+001
1.226193e+003, 1.490715e+001
1.226675e+003, 1.482465e+001
1.227157e+003, 1.478975e+001
1.227639e+003, 1.496287e+001
1.228121e+003, 1.543648e+001
1.228603e+003, 1.584117e+001
1.229085e+003, 1.572374e+001
1.229568e+003, 1.539163e+001
1.230050e+003, 1.508024e+001
1.230532e+003, 1.482358e+001
1.231014e+003, 1.471609e+001
1.231496e+003, 1.477501e+001
1.231978e+003, 1.483510e+001
1.232460e+003, 1.486857e+001
1.232942e+003, 1.484309e+001
1.233425e+003, 1.458567e+001
1.233907e+003, 1.436924e+001
1.234389e+003, 1.451742e+001
1.234871e+003, 1.495657e+001
1.235353e+003, 1.520257e+001
1.235835e+003, 1.525030e+001
1.236317e+003, 1.518156e+001
1.236799e+003, 1.500968e+001
1.237281e+003, 1.475791e+001
1.237764e+003, 1.427921e+001
1.238246e+003, 1.386879e+001
1.238728e+003, 1.378717e+001
1.239210e+003, 1.398093e+001
1.239692e+003, 1.437779e+001
1.240174e+003, 1.495343e+001
1.240656e+003, 1.516982e+001
1.241138e+003, 1.484124e+001
1.241621e+003, 1.447288e+001
1.242103e+003, 1.443457e+001
1.242585e+003, 1.449404e+001
1.243067e+003, 1.448157e+001
1.243549e+003, 1.443872e+001
1.244031e+003, 1.456883e+001
1.244513e+003, 1.484396e+001
1.244995e+003, 1.504118e+001
1.245478e+003, 1.511347e+001
1.245960e+003, 1.508131e+001
1.246442e+003, 1.487747e+001
1.246924e+003, 1.464998e+001
1.247406e+003, 1.444775e+001
1.247888e+003, 1.430381e+001
1.248370e+003, 1.435646e+001
1.248852e+003, 1.456957e+001
1.249334e+003, 1.481095e+001
1.249817e+003, 1.506233e+001
1.250299e+003, 1.525175e+001
1.250781e+003, 1.530669e+001
1.251263e+003, 1.533903e+001
1.251745e+003, 1.542536e+001
1.252227e+003, 1.548971e+001
1.252709e+003, 1.525182e+001
1.253191e+003, 1.484228e+001
1.253673e+003, 1.465509e+001
1.254156e+003, 1.479474e+001
1.254638e+003, 1.495657e+001
1.255120e+003, 1.510714e+001
1.255602e+003, 1.516283e+001
1.256084e+003, 1.506488e+001
1.256566e+003, 1.489624e+001
1.257048e+003, 1.478628e+001
1.257530e+003, 1.474287e+001
1.258012e+003, 1.482231e+001
1.258495e+003, 1.505739e+001
1.258977e+003, 1.513052e+001
1.259459e+003, 1.486339e+001
1.259941e+003, 1.478605e+001
1.260423e+003, 1.518953e+001
1.260905e+003, 1.560117e+001
1.261387e+003, 1.503997e+001
1.261869e+003, 1.410749e+001
1.262352e+003, 1.372728e+001
1.262834e+003, 1.407133e+001
1.263316e+003, 1.431741e+001
1.263798e+003, 1.436723e+001
1.264280e+003, 1.452789e+001
1.264762e+003, 1.494061e+001
1.265244e+003, 1.533386e+001
1.265726e+003, 1.539435e+001
1.266208e+003, 1.524428e+001
1.266691e+003, 1.491565e+001
1.267173e+003, 1.443770e+001
1.267655e+003, 1.436786e+001
1.268137e+003, 1.476272e+001
1.268619e+003, 1.509830e+001
1.269101e+003, 1.523834e+001
1.269583e+003, 1.526950e+001
1.270065e+003, 1.520417e+001
1.270548e+003, 1.512443e+001
1.271030e+003, 1.514116e+001
1.271512e+003, 1.521317e+001
1.271994e+003, 1.510980e+001
1.272476e+003, 1.483746e+001
1.272958e+003, 1.469649e+001
1.273440e+003, 1.477565e+001
1.273922e+003, 1.482731e+001
1.274405e+003, 1.451950e+001
1.274887e+003, 1.430028e+001
1.275369e+003, 1.452802e+001
1.275851e+003, 1.498467e+001
1.276333e+003, 1.502287e+001
1.276815e+003, 1.472285e+001
1.277297e+003, 1.446985e+001
1.277779e+003, 1.433296e+001
1.278261e+003, 1.430539e+001
1.278744e+003, 1.441276e+001
1.279226e+003, 1.462163e+001
1.279708e+003, 1.500624e+001
1.280190e+003, 1.537050e+001
1.280672e+003, 1.521529e+001
1.281154e+003, 1.476845e+001
1.281636e+003, 1.467168e+001
1.282118e+003, 1.501194e+001
1.282600e+003, 1.522195e+001
1.283083e+003, 1.508540e+001
1.283565e+003, 1.487409e+001
1.284047e+003, 1.461695e+001
1.284529e+003, 1.438140e+001
1.285011e+003, 1.416856e+001
1.285493e+003, 1.409108e+001
1.285975e+003, 1.451617e+001
1.286457e+003, 1.539857e+001
1.286939e+003, 1.560824e+001
1.287422e+003, 1.477844e+001
1.287904e+003, 1.433718e+001
1.288386e+003, 1.460806e+001
1.288868e+003, 1.507936e+001
1.289350e+003, 1.530400e+001
1.289832e+003, 1.536586e+001
1.290314e+003, 1.528896e+001
1.290796e+003, 1.511629e+001
1.291279e+003, 1.503789e+001
1.291761e+003, 1.506736e+001
1.292243e+003, 1.501095e+001
1.292725e+003, 1.482953e+001
1.293207e+003, 1.475045e+001
1.293689e+003, 1.516174e+001
1.294171e+003, 1.553006e+001
1.294653e+003, 1.531464e+001
1.295135e+003, 1.489791e+001
1.295618e+003, 1.505281e+001
1.296100e+003, 1.568332e+001
1.296582e+003, 1.572853e+001
1.297064e+003, 1.513125e+001
1.297546e+003, 1.472596e+001
1.298028e+003, 1.536008e+001
1.298510e+003, 1.575889e+001
1.298992e+003, 1.538843e+001
1.299475e+003, 1.482084e+001
1.299957e+003, 1.491021e+001
1.300439e+003, 1.538574e+001
1.300921e+003, 1.543652e+001
1.301403e+003, 1.507618e+001
1.301885e+003, 1.469559e+001
##END=



