##NAMES=Ilmenite
##RRUFFID=R130214
##IDEAL CHEMISTRY=Fe^2+^Ti^4+^O_3_
##LOCALITY=Mont St-Hilaire, Quebec, Canada
##OWNER=RRUFF
##SOURCE=Don Doell
##DESCRIPTION=Black lustrous tabular crystals
##STATUS=The identification of this mineral has been confirmed only by single crystal X-ray diffraction.
##URL=rruff.info/R130214
8.975323e+001, 0.000000e+000
9.023535e+001, 2.249036e+002
9.071747e+001, 2.253632e+002
9.119958e+001, 2.246687e+002
9.168170e+001, 2.263258e+002
9.216382e+001, 2.262788e+002
9.264594e+001, 2.240942e+002
9.312805e+001, 2.206525e+002
9.361017e+001, 2.168159e+002
9.409229e+001, 2.126013e+002
9.457440e+001, 2.076438e+002
9.505651e+001, 2.029051e+002
9.553863e+001, 1.982588e+002
9.602074e+001, 1.940200e+002
9.650286e+001, 1.905563e+002
9.698498e+001, 1.878963e+002
9.746709e+001, 1.854514e+002
9.794921e+001, 1.829368e+002
9.843133e+001, 1.804057e+002
9.891344e+001, 1.778144e+002
9.939556e+001, 1.749309e+002
9.987768e+001, 1.718791e+002
1.003598e+002, 1.690835e+002
1.008419e+002, 1.667703e+002
1.013240e+002, 1.649360e+002
1.018061e+002, 1.633098e+002
1.022883e+002, 1.617811e+002
1.027704e+002, 1.604870e+002
1.032525e+002, 1.596152e+002
1.037346e+002, 1.592010e+002
1.042167e+002, 1.589421e+002
1.046988e+002, 1.587397e+002
1.051810e+002, 1.585040e+002
1.056631e+002, 1.580822e+002
1.061452e+002, 1.574186e+002
1.066273e+002, 1.565137e+002
1.071094e+002, 1.553357e+002
1.075915e+002, 1.535731e+002
1.080737e+002, 1.518996e+002
1.085558e+002, 1.506025e+002
1.090379e+002, 1.496112e+002
1.095200e+002, 1.487445e+002
1.100021e+002, 1.478213e+002
1.104842e+002, 1.467951e+002
1.109664e+002, 1.459824e+002
1.114485e+002, 1.453588e+002
1.119306e+002, 1.449381e+002
1.124127e+002, 1.448171e+002
1.128948e+002, 1.449663e+002
1.133769e+002, 1.452222e+002
1.138591e+002, 1.453719e+002
1.143412e+002, 1.455686e+002
1.148233e+002, 1.452927e+002
1.153054e+002, 1.440930e+002
1.157875e+002, 1.426448e+002
1.162696e+002, 1.416725e+002
1.167517e+002, 1.414513e+002
1.172339e+002, 1.416078e+002
1.177160e+002, 1.412218e+002
1.181981e+002, 1.400206e+002
1.186802e+002, 1.389648e+002
1.191623e+002, 1.382515e+002
1.196444e+002, 1.378804e+002
1.201266e+002, 1.379183e+002
1.206087e+002, 1.386136e+002
1.210908e+002, 1.395743e+002
1.215729e+002, 1.400405e+002
1.220550e+002, 1.399277e+002
1.225371e+002, 1.394692e+002
1.230193e+002, 1.387666e+002
1.235014e+002, 1.377850e+002
1.239835e+002, 1.368418e+002
1.244656e+002, 1.360593e+002
1.249477e+002, 1.354105e+002
1.254298e+002, 1.349117e+002
1.259120e+002, 1.346124e+002
1.263941e+002, 1.344211e+002
1.268762e+002, 1.340894e+002
1.273583e+002, 1.333547e+002
1.278404e+002, 1.329543e+002
1.283225e+002, 1.334369e+002
1.288047e+002, 1.342648e+002
1.292868e+002, 1.347065e+002
1.297689e+002, 1.342563e+002
1.302510e+002, 1.329830e+002
1.307331e+002, 1.318820e+002
1.312152e+002, 1.308707e+002
1.316974e+002, 1.301216e+002
1.321795e+002, 1.298041e+002
1.326616e+002, 1.298124e+002
1.331437e+002, 1.299125e+002
1.336258e+002, 1.299043e+002
1.341079e+002, 1.297684e+002
1.345901e+002, 1.296374e+002
1.350722e+002, 1.294447e+002
1.355543e+002, 1.293060e+002
1.360364e+002, 1.293019e+002
1.365185e+002, 1.294339e+002
1.370006e+002, 1.296425e+002
1.374828e+002, 1.298958e+002
1.379649e+002, 1.302320e+002
1.384470e+002, 1.303515e+002
1.389291e+002, 1.300459e+002
1.394112e+002, 1.295908e+002
1.398933e+002, 1.292978e+002
1.403755e+002, 1.292398e+002
1.408576e+002, 1.293329e+002
1.413397e+002, 1.295337e+002
1.418218e+002, 1.298331e+002
1.423039e+002, 1.300741e+002
1.427860e+002, 1.301742e+002
1.432681e+002, 1.301592e+002
1.437503e+002, 1.300974e+002
1.442324e+002, 1.298831e+002
1.447145e+002, 1.297805e+002
1.451966e+002, 1.300596e+002
1.456787e+002, 1.307179e+002
1.461608e+002, 1.314074e+002
1.466430e+002, 1.318483e+002
1.471251e+002, 1.320270e+002
1.476072e+002, 1.320896e+002
1.480893e+002, 1.317950e+002
1.485714e+002, 1.315613e+002
1.490535e+002, 1.317105e+002
1.495357e+002, 1.322896e+002
1.500178e+002, 1.329795e+002
1.504999e+002, 1.332687e+002
1.509820e+002, 1.329041e+002
1.514641e+002, 1.326871e+002
1.519462e+002, 1.327098e+002
1.524284e+002, 1.328686e+002
1.529105e+002, 1.330871e+002
1.533926e+002, 1.333353e+002
1.538747e+002, 1.336316e+002
1.543568e+002, 1.340276e+002
1.548389e+002, 1.347704e+002
1.553211e+002, 1.353057e+002
1.558032e+002, 1.354187e+002
1.562853e+002, 1.353679e+002
1.567674e+002, 1.354470e+002
1.572495e+002, 1.358014e+002
1.577316e+002, 1.363932e+002
1.582138e+002, 1.370816e+002
1.586959e+002, 1.380848e+002
1.591780e+002, 1.389309e+002
1.596601e+002, 1.394426e+002
1.601422e+002, 1.397038e+002
1.606243e+002, 1.399174e+002
1.611065e+002, 1.402114e+002
1.615886e+002, 1.405303e+002
1.620707e+002, 1.406510e+002
1.625528e+002, 1.404087e+002
1.630349e+002, 1.401442e+002
1.635170e+002, 1.401424e+002
1.639991e+002, 1.403649e+002
1.644813e+002, 1.404273e+002
1.649634e+002, 1.400754e+002
1.654455e+002, 1.393754e+002
1.659276e+002, 1.385273e+002
1.664097e+002, 1.374605e+002
1.668918e+002, 1.363194e+002
1.673740e+002, 1.352684e+002
1.678561e+002, 1.343221e+002
1.683382e+002, 1.334040e+002
1.688203e+002, 1.323094e+002
1.693024e+002, 1.312539e+002
1.697845e+002, 1.305725e+002
1.702667e+002, 1.305914e+002
1.707488e+002, 1.309476e+002
1.712309e+002, 1.307264e+002
1.717130e+002, 1.295005e+002
1.721951e+002, 1.284834e+002
1.726772e+002, 1.281924e+002
1.731594e+002, 1.283559e+002
1.736415e+002, 1.285927e+002
1.741236e+002, 1.286701e+002
1.746057e+002, 1.286394e+002
1.750878e+002, 1.288228e+002
1.755699e+002, 1.294687e+002
1.760521e+002, 1.300646e+002
1.765342e+002, 1.305172e+002
1.770163e+002, 1.308224e+002
1.774984e+002, 1.309542e+002
1.779805e+002, 1.308491e+002
1.784626e+002, 1.305029e+002
1.789448e+002, 1.305342e+002
1.794269e+002, 1.314251e+002
1.799090e+002, 1.322177e+002
1.803911e+002, 1.325087e+002
1.808732e+002, 1.324357e+002
1.813553e+002, 1.324037e+002
1.818375e+002, 1.327736e+002
1.823196e+002, 1.336020e+002
1.828017e+002, 1.342776e+002
1.832838e+002, 1.347343e+002
1.837659e+002, 1.351338e+002
1.842480e+002, 1.355475e+002
1.847301e+002, 1.359773e+002
1.852123e+002, 1.363710e+002
1.856944e+002, 1.366366e+002
1.861765e+002, 1.367388e+002
1.866586e+002, 1.371968e+002
1.871407e+002, 1.382082e+002
1.876228e+002, 1.394115e+002
1.881050e+002, 1.406443e+002
1.885871e+002, 1.418674e+002
1.890692e+002, 1.429174e+002
1.895513e+002, 1.435226e+002
1.900334e+002, 1.437000e+002
1.905155e+002, 1.441339e+002
1.909977e+002, 1.450480e+002
1.914798e+002, 1.461821e+002
1.919619e+002, 1.472187e+002
1.924440e+002, 1.480937e+002
1.929261e+002, 1.490366e+002
1.934082e+002, 1.503414e+002
1.938904e+002, 1.519130e+002
1.943725e+002, 1.535023e+002
1.948546e+002, 1.551787e+002
1.953367e+002, 1.568047e+002
1.958188e+002, 1.580006e+002
1.963009e+002, 1.584746e+002
1.967831e+002, 1.591053e+002
1.972652e+002, 1.607608e+002
1.977473e+002, 1.631056e+002
1.982294e+002, 1.652614e+002
1.987115e+002, 1.664919e+002
1.991936e+002, 1.670975e+002
1.996758e+002, 1.683796e+002
2.001579e+002, 1.706558e+002
2.006400e+002, 1.732797e+002
2.011221e+002, 1.757814e+002
2.016042e+002, 1.782801e+002
2.020863e+002, 1.810631e+002
2.025685e+002, 1.845084e+002
2.030506e+002, 1.885603e+002
2.035327e+002, 1.921329e+002
2.040148e+002, 1.947144e+002
2.044969e+002, 1.972975e+002
2.049790e+002, 2.001677e+002
2.054612e+002, 2.033199e+002
2.059433e+002, 2.067033e+002
2.064254e+002, 2.102951e+002
2.069075e+002, 2.141062e+002
2.073896e+002, 2.179044e+002
2.078717e+002, 2.217187e+002
2.083539e+002, 2.254955e+002
2.088360e+002, 2.290105e+002
2.093181e+002, 2.324270e+002
2.098002e+002, 2.361568e+002
2.102823e+002, 2.406423e+002
2.107644e+002, 2.459808e+002
2.112466e+002, 2.509683e+002
2.117287e+002, 2.555877e+002
2.122108e+002, 2.599079e+002
2.126929e+002, 2.636219e+002
2.131750e+002, 2.669754e+002
2.136571e+002, 2.706855e+002
2.141393e+002, 2.754510e+002
2.146214e+002, 2.814656e+002
2.151035e+002, 2.872827e+002
2.155856e+002, 2.930717e+002
2.160677e+002, 2.985876e+002
2.165498e+002, 3.036383e+002
2.170320e+002, 3.082693e+002
2.175141e+002, 3.127630e+002
2.179962e+002, 3.172936e+002
2.184783e+002, 3.218387e+002
2.189604e+002, 3.268573e+002
2.194425e+002, 3.331090e+002
2.199247e+002, 3.391869e+002
2.204068e+002, 3.443010e+002
2.208889e+002, 3.484111e+002
2.213710e+002, 3.518454e+002
2.218531e+002, 3.548344e+002
2.223352e+002, 3.573142e+002
2.228174e+002, 3.594649e+002
2.232995e+002, 3.618985e+002
2.237816e+002, 3.635814e+002
2.242637e+002, 3.636646e+002
2.247458e+002, 3.621298e+002
2.252279e+002, 3.596287e+002
2.257100e+002, 3.567301e+002
2.261922e+002, 3.532504e+002
2.266743e+002, 3.484493e+002
2.271564e+002, 3.417487e+002
2.276385e+002, 3.340399e+002
2.281206e+002, 3.261777e+002
2.286027e+002, 3.182260e+002
2.290849e+002, 3.098248e+002
2.295670e+002, 3.006848e+002
2.300491e+002, 2.909075e+002
2.305312e+002, 2.807205e+002
2.310133e+002, 2.696763e+002
2.314954e+002, 2.585366e+002
2.319776e+002, 2.481638e+002
2.324597e+002, 2.386098e+002
2.329418e+002, 2.294720e+002
2.334239e+002, 2.203950e+002
2.339060e+002, 2.115710e+002
2.343881e+002, 2.033540e+002
2.348703e+002, 1.958749e+002
2.353524e+002, 1.890094e+002
2.358345e+002, 1.825790e+002
2.363166e+002, 1.765639e+002
2.367987e+002, 1.709229e+002
2.372808e+002, 1.655398e+002
2.377630e+002, 1.605235e+002
2.382451e+002, 1.560639e+002
2.387272e+002, 1.523164e+002
2.392093e+002, 1.490078e+002
2.396914e+002, 1.457137e+002
2.401735e+002, 1.423450e+002
2.406557e+002, 1.392442e+002
2.411378e+002, 1.365167e+002
2.416199e+002, 1.341142e+002
2.421020e+002, 1.320808e+002
2.425841e+002, 1.304883e+002
2.430662e+002, 1.291190e+002
2.435484e+002, 1.275588e+002
2.440305e+002, 1.256590e+002
2.445126e+002, 1.239925e+002
2.449947e+002, 1.229263e+002
2.454768e+002, 1.220370e+002
2.459589e+002, 1.209380e+002
2.464410e+002, 1.194863e+002
2.469232e+002, 1.179156e+002
2.474053e+002, 1.166367e+002
2.478874e+002, 1.158173e+002
2.483695e+002, 1.148978e+002
2.488516e+002, 1.134490e+002
2.493337e+002, 1.120643e+002
2.498159e+002, 1.112939e+002
2.502980e+002, 1.112898e+002
2.507801e+002, 1.116390e+002
2.512622e+002, 1.116644e+002
2.517443e+002, 1.112686e+002
2.522264e+002, 1.107434e+002
2.527086e+002, 1.100249e+002
2.531907e+002, 1.092698e+002
2.536728e+002, 1.086344e+002
2.541549e+002, 1.081408e+002
2.546370e+002, 1.076245e+002
2.551191e+002, 1.067158e+002
2.556013e+002, 1.048157e+002
2.560834e+002, 1.038908e+002
2.565655e+002, 1.048019e+002
2.570476e+002, 1.059137e+002
2.575297e+002, 1.060776e+002
2.580118e+002, 1.051310e+002
2.584940e+002, 1.037821e+002
2.589761e+002, 1.029993e+002
2.594582e+002, 1.030901e+002
2.599403e+002, 1.029866e+002
2.604224e+002, 1.026686e+002
2.609045e+002, 1.022179e+002
2.613867e+002, 1.015791e+002
2.618688e+002, 1.008054e+002
2.623509e+002, 1.001199e+002
2.628330e+002, 9.980336e+001
2.633151e+002, 1.000156e+002
2.637972e+002, 1.000173e+002
2.642794e+002, 9.972847e+001
2.647615e+002, 9.934287e+001
2.652436e+002, 9.894241e+001
2.657257e+002, 9.854472e+001
2.662078e+002, 9.813724e+001
2.666899e+002, 9.769804e+001
2.671721e+002, 9.720741e+001
2.676542e+002, 9.683349e+001
2.681363e+002, 9.668626e+001
2.686184e+002, 9.653106e+001
2.691005e+002, 9.620196e+001
2.695826e+002, 9.574409e+001
2.700648e+002, 9.536683e+001
2.705469e+002, 9.528036e+001
2.710290e+002, 9.550729e+001
2.715111e+002, 9.532231e+001
2.719932e+002, 9.431329e+001
2.724753e+002, 9.338902e+001
2.729575e+002, 9.297163e+001
2.734396e+002, 9.296729e+001
2.739217e+002, 9.307301e+001
2.744038e+002, 9.310041e+001
2.748859e+002, 9.305238e+001
2.753680e+002, 9.295760e+001
2.758501e+002, 9.280937e+001
2.763322e+002, 9.263485e+001
2.768144e+002, 9.239577e+001
2.772965e+002, 9.213518e+001
2.777786e+002, 9.195027e+001
2.782607e+002, 9.189927e+001
2.787428e+002, 9.195500e+001
2.792249e+002, 9.200560e+001
2.797071e+002, 9.209692e+001
2.801892e+002, 9.213301e+001
2.806713e+002, 9.210171e+001
2.811534e+002, 9.199813e+001
2.816355e+002, 9.177036e+001
2.821176e+002, 9.136857e+001
2.825998e+002, 9.091936e+001
2.830819e+002, 9.079330e+001
2.835640e+002, 9.122497e+001
2.840461e+002, 9.148672e+001
2.845282e+002, 9.129920e+001
2.850103e+002, 9.088836e+001
2.854925e+002, 9.059074e+001
2.859746e+002, 9.052209e+001
2.864567e+002, 9.055917e+001
2.869388e+002, 9.048508e+001
2.874209e+002, 9.025120e+001
2.879030e+002, 9.008269e+001
2.883852e+002, 8.997147e+001
2.888673e+002, 8.996223e+001
2.893494e+002, 9.016779e+001
2.898315e+002, 9.062222e+001
2.903136e+002, 9.111337e+001
2.907957e+002, 9.138680e+001
2.912779e+002, 9.141900e+001
2.917600e+002, 9.138041e+001
2.922421e+002, 9.122156e+001
2.927242e+002, 9.103510e+001
2.932063e+002, 9.088862e+001
2.936884e+002, 9.079222e+001
2.941706e+002, 9.078884e+001
2.946527e+002, 9.098415e+001
2.951348e+002, 9.137074e+001
2.956169e+002, 9.150272e+001
2.960990e+002, 9.097119e+001
2.965811e+002, 9.046464e+001
2.970633e+002, 9.067941e+001
2.975454e+002, 9.156970e+001
2.980275e+002, 9.234866e+001
2.985096e+002, 9.240710e+001
2.989917e+002, 9.185650e+001
2.994738e+002, 9.158515e+001
2.999560e+002, 9.164942e+001
3.004381e+002, 9.193306e+001
3.009202e+002, 9.251435e+001
3.014023e+002, 9.331206e+001
3.018844e+002, 9.396630e+001
3.023665e+002, 9.426922e+001
3.028487e+002, 9.430928e+001
3.033308e+002, 9.437035e+001
3.038129e+002, 9.438551e+001
3.042950e+002, 9.451919e+001
3.047771e+002, 9.492419e+001
3.052592e+002, 9.550930e+001
3.057414e+002, 9.603008e+001
3.062235e+002, 9.637830e+001
3.067056e+002, 9.664965e+001
3.071877e+002, 9.708135e+001
3.076698e+002, 9.778345e+001
3.081519e+002, 9.823254e+001
3.086341e+002, 9.795122e+001
3.091162e+002, 9.736924e+001
3.095983e+002, 9.726527e+001
3.100804e+002, 9.787865e+001
3.105625e+002, 9.881702e+001
3.110446e+002, 9.961433e+001
3.115268e+002, 1.002793e+002
3.120089e+002, 1.008608e+002
3.124910e+002, 1.014037e+002
3.129731e+002, 1.018501e+002
3.134552e+002, 1.020537e+002
3.139373e+002, 1.019805e+002
3.144195e+002, 1.019575e+002
3.149016e+002, 1.023401e+002
3.153837e+002, 1.031021e+002
3.158658e+002, 1.037384e+002
3.163479e+002, 1.040563e+002
3.168300e+002, 1.043419e+002
3.173121e+002, 1.048910e+002
3.177943e+002, 1.056903e+002
3.182764e+002, 1.064116e+002
3.187585e+002, 1.067931e+002
3.192406e+002, 1.069176e+002
3.197227e+002, 1.072255e+002
3.202048e+002, 1.077176e+002
3.206870e+002, 1.083845e+002
3.211691e+002, 1.094597e+002
3.216512e+002, 1.107655e+002
3.221333e+002, 1.116405e+002
3.226154e+002, 1.116749e+002
3.230975e+002, 1.112000e+002
3.235797e+002, 1.110709e+002
3.240618e+002, 1.114220e+002
3.245439e+002, 1.117559e+002
3.250260e+002, 1.117401e+002
3.255081e+002, 1.116092e+002
3.259902e+002, 1.119241e+002
3.264724e+002, 1.129584e+002
3.269545e+002, 1.141219e+002
3.274366e+002, 1.143832e+002
3.279187e+002, 1.135950e+002
3.284008e+002, 1.129826e+002
3.288829e+002, 1.128561e+002
3.293651e+002, 1.129810e+002
3.298472e+002, 1.131435e+002
3.303293e+002, 1.133065e+002
3.308114e+002, 1.133892e+002
3.312935e+002, 1.133065e+002
3.317756e+002, 1.130404e+002
3.322578e+002, 1.126954e+002
3.327399e+002, 1.121700e+002
3.332220e+002, 1.116476e+002
3.337041e+002, 1.112382e+002
3.341862e+002, 1.109527e+002
3.346683e+002, 1.108081e+002
3.351505e+002, 1.108940e+002
3.356326e+002, 1.111288e+002
3.361147e+002, 1.109643e+002
3.365968e+002, 1.100659e+002
3.370789e+002, 1.091699e+002
3.375610e+002, 1.085736e+002
3.380432e+002, 1.082140e+002
3.385253e+002, 1.079648e+002
3.390074e+002, 1.077899e+002
3.394895e+002, 1.076386e+002
3.399716e+002, 1.073573e+002
3.404537e+002, 1.068284e+002
3.409359e+002, 1.064028e+002
3.414180e+002, 1.060547e+002
3.419001e+002, 1.058789e+002
3.423822e+002, 1.061130e+002
3.428643e+002, 1.068251e+002
3.433464e+002, 1.076252e+002
3.438286e+002, 1.079549e+002
3.443107e+002, 1.075879e+002
3.447928e+002, 1.073618e+002
3.452749e+002, 1.072732e+002
3.457570e+002, 1.073329e+002
3.462391e+002, 1.075720e+002
3.467213e+002, 1.079798e+002
3.472034e+002, 1.085040e+002
3.476855e+002, 1.091052e+002
3.481676e+002, 1.097904e+002
3.486497e+002, 1.104724e+002
3.491318e+002, 1.112337e+002
3.496140e+002, 1.119124e+002
3.500961e+002, 1.123369e+002
3.505782e+002, 1.126161e+002
3.510603e+002, 1.130178e+002
3.515424e+002, 1.137089e+002
3.520245e+002, 1.146102e+002
3.525067e+002, 1.153883e+002
3.529888e+002, 1.158476e+002
3.534709e+002, 1.164245e+002
3.539530e+002, 1.171767e+002
3.544351e+002, 1.180695e+002
3.549172e+002, 1.191337e+002
3.553994e+002, 1.203681e+002
3.558815e+002, 1.215957e+002
3.563636e+002, 1.224940e+002
3.568457e+002, 1.226783e+002
3.573278e+002, 1.233384e+002
3.578099e+002, 1.247949e+002
3.582920e+002, 1.264400e+002
3.587741e+002, 1.279050e+002
3.592563e+002, 1.291383e+002
3.597384e+002, 1.302226e+002
3.602205e+002, 1.312211e+002
3.607026e+002, 1.321090e+002
3.611847e+002, 1.331577e+002
3.616668e+002, 1.342747e+002
3.621490e+002, 1.356302e+002
3.626311e+002, 1.375912e+002
3.631132e+002, 1.398170e+002
3.635953e+002, 1.416748e+002
3.640774e+002, 1.427847e+002
3.645595e+002, 1.432411e+002
3.650417e+002, 1.434189e+002
3.655238e+002, 1.429359e+002
3.660059e+002, 1.427009e+002
3.664880e+002, 1.432239e+002
3.669701e+002, 1.438298e+002
3.674522e+002, 1.439022e+002
3.679344e+002, 1.432352e+002
3.684165e+002, 1.419799e+002
3.688986e+002, 1.403145e+002
3.693807e+002, 1.381372e+002
3.698628e+002, 1.358144e+002
3.703449e+002, 1.333692e+002
3.708271e+002, 1.307816e+002
3.713092e+002, 1.279298e+002
3.717913e+002, 1.248833e+002
3.722734e+002, 1.218197e+002
3.727555e+002, 1.188778e+002
3.732376e+002, 1.160649e+002
3.737198e+002, 1.134485e+002
3.742019e+002, 1.110380e+002
3.746840e+002, 1.088384e+002
3.751661e+002, 1.069564e+002
3.756482e+002, 1.052432e+002
3.761303e+002, 1.034593e+002
3.766125e+002, 1.014318e+002
3.770946e+002, 9.937324e+001
3.775767e+002, 9.778783e+001
3.780588e+002, 9.682755e+001
3.785409e+002, 9.591438e+001
3.790230e+002, 9.490847e+001
3.795052e+002, 9.387350e+001
3.799873e+002, 9.280653e+001
3.804694e+002, 9.171068e+001
3.809515e+002, 9.073668e+001
3.814336e+002, 9.011327e+001
3.819157e+002, 8.983031e+001
3.823979e+002, 8.944289e+001
3.828800e+002, 8.882124e+001
3.833621e+002, 8.816636e+001
3.838442e+002, 8.760745e+001
3.843263e+002, 8.713198e+001
3.848084e+002, 8.667435e+001
3.852906e+002, 8.615496e+001
3.857727e+002, 8.564156e+001
3.862548e+002, 8.532211e+001
3.867369e+002, 8.525587e+001
3.872190e+002, 8.517325e+001
3.877011e+002, 8.490526e+001
3.881833e+002, 8.452663e+001
3.886654e+002, 8.412489e+001
3.891475e+002, 8.369068e+001
3.896296e+002, 8.328410e+001
3.901117e+002, 8.291921e+001
3.905938e+002, 8.260818e+001
3.910760e+002, 8.248437e+001
3.915581e+002, 8.268638e+001
3.920402e+002, 8.297911e+001
3.925223e+002, 8.306123e+001
3.930044e+002, 8.293941e+001
3.934865e+002, 8.266577e+001
3.939687e+002, 8.208029e+001
3.944508e+002, 8.141325e+001
3.949329e+002, 8.107235e+001
3.954150e+002, 8.113236e+001
3.958971e+002, 8.130245e+001
3.963792e+002, 8.131213e+001
3.968614e+002, 8.118803e+001
3.973435e+002, 8.122411e+001
3.978256e+002, 8.175204e+001
3.983077e+002, 8.216398e+001
3.987898e+002, 8.190962e+001
3.992719e+002, 8.116077e+001
3.997540e+002, 8.054787e+001
4.002361e+002, 8.038318e+001
4.007183e+002, 8.056152e+001
4.012004e+002, 8.081622e+001
4.016825e+002, 8.127652e+001
4.021646e+002, 8.157864e+001
4.026467e+002, 8.152319e+001
4.031288e+002, 8.133945e+001
4.036110e+002, 8.135036e+001
4.040931e+002, 8.161233e+001
4.045752e+002, 8.183160e+001
4.050573e+002, 8.162844e+001
4.055394e+002, 8.086729e+001
4.060215e+002, 8.037328e+001
4.065037e+002, 8.015608e+001
4.069858e+002, 8.015800e+001
4.074679e+002, 8.053098e+001
4.079500e+002, 8.110660e+001
4.084321e+002, 8.148341e+001
4.089142e+002, 8.139031e+001
4.093964e+002, 8.095760e+001
4.098785e+002, 8.078871e+001
4.103606e+002, 8.113481e+001
4.108427e+002, 8.143549e+001
4.113248e+002, 8.172707e+001
4.118069e+002, 8.190913e+001
4.122891e+002, 8.182412e+001
4.127712e+002, 8.145937e+001
4.132533e+002, 8.103159e+001
4.137354e+002, 8.084415e+001
4.142175e+002, 8.097001e+001
4.146996e+002, 8.104044e+001
4.151818e+002, 8.109045e+001
4.156639e+002, 8.104883e+001
4.161460e+002, 8.082247e+001
4.166281e+002, 8.047660e+001
4.171102e+002, 8.014700e+001
4.175923e+002, 7.988552e+001
4.180745e+002, 7.973288e+001
4.185566e+002, 7.987783e+001
4.190387e+002, 8.051273e+001
4.195208e+002, 8.101474e+001
4.200029e+002, 8.112064e+001
4.204850e+002, 8.105379e+001
4.209672e+002, 8.102452e+001
4.214493e+002, 8.108614e+001
4.219314e+002, 8.109610e+001
4.224135e+002, 8.084665e+001
4.228956e+002, 8.035600e+001
4.233777e+002, 7.998450e+001
4.238599e+002, 7.976081e+001
4.243420e+002, 7.971447e+001
4.248241e+002, 7.993887e+001
4.253062e+002, 8.035909e+001
4.257883e+002, 8.070350e+001
4.262704e+002, 8.086682e+001
4.267526e+002, 8.088609e+001
4.272347e+002, 8.076024e+001
4.277168e+002, 8.047702e+001
4.281989e+002, 8.026275e+001
4.286810e+002, 8.025267e+001
4.291631e+002, 8.038860e+001
4.296453e+002, 8.051924e+001
4.301274e+002, 8.064505e+001
4.306095e+002, 8.076350e+001
4.310916e+002, 8.094397e+001
4.315737e+002, 8.110500e+001
4.320558e+002, 8.104862e+001
4.325380e+002, 8.070759e+001
4.330201e+002, 8.027308e+001
4.335022e+002, 7.996435e+001
4.339843e+002, 7.980246e+001
4.344664e+002, 7.960817e+001
4.349485e+002, 7.916651e+001
4.354307e+002, 7.886744e+001
4.359128e+002, 7.909043e+001
4.363949e+002, 7.970860e+001
4.368770e+002, 8.027787e+001
4.373591e+002, 8.054231e+001
4.378412e+002, 8.056033e+001
4.383234e+002, 8.054722e+001
4.388055e+002, 8.050222e+001
4.392876e+002, 8.042619e+001
4.397697e+002, 8.018571e+001
4.402518e+002, 7.999041e+001
4.407339e+002, 8.015215e+001
4.412160e+002, 8.067345e+001
4.416982e+002, 8.115991e+001
4.421803e+002, 8.112817e+001
4.426624e+002, 8.048843e+001
4.431445e+002, 7.998895e+001
4.436266e+002, 7.957109e+001
4.441087e+002, 7.936147e+001
4.445909e+002, 7.955879e+001
4.450730e+002, 7.996427e+001
4.455551e+002, 8.025490e+001
4.460372e+002, 8.025489e+001
4.465193e+002, 8.009645e+001
4.470014e+002, 8.008726e+001
4.474836e+002, 8.030186e+001
4.479657e+002, 8.044277e+001
4.484478e+002, 8.043470e+001
4.489299e+002, 8.035004e+001
4.494120e+002, 8.020211e+001
4.498941e+002, 8.000495e+001
4.503763e+002, 7.981539e+001
4.508584e+002, 7.966262e+001
4.513405e+002, 7.955037e+001
4.518226e+002, 7.949922e+001
4.523047e+002, 7.950977e+001
4.527868e+002, 7.958077e+001
4.532690e+002, 7.987017e+001
4.537511e+002, 8.018077e+001
4.542332e+002, 8.017315e+001
4.547153e+002, 7.962511e+001
4.551974e+002, 7.903981e+001
4.556795e+002, 7.886091e+001
4.561617e+002, 7.901015e+001
4.566438e+002, 7.914565e+001
4.571259e+002, 7.917099e+001
4.576080e+002, 7.915201e+001
4.580901e+002, 7.921644e+001
4.585722e+002, 7.937275e+001
4.590544e+002, 7.934586e+001
4.595365e+002, 7.895322e+001
4.600186e+002, 7.845418e+001
4.605007e+002, 7.800957e+001
4.609828e+002, 7.765158e+001
4.614649e+002, 7.747106e+001
4.619471e+002, 7.756290e+001
4.624292e+002, 7.783480e+001
4.629113e+002, 7.789992e+001
4.633934e+002, 7.766729e+001
4.638755e+002, 7.736398e+001
4.643576e+002, 7.689426e+001
4.648398e+002, 7.642800e+001
4.653219e+002, 7.612032e+001
4.658040e+002, 7.600816e+001
4.662861e+002, 7.607539e+001
4.667682e+002, 7.633146e+001
4.672503e+002, 7.681105e+001
4.677325e+002, 7.715868e+001
4.682146e+002, 7.741450e+001
4.686967e+002, 7.748760e+001
4.691788e+002, 7.723913e+001
4.696609e+002, 7.681913e+001
4.701430e+002, 7.642362e+001
4.706252e+002, 7.613546e+001
4.711073e+002, 7.595092e+001
4.715894e+002, 7.592600e+001
4.720715e+002, 7.615160e+001
4.725536e+002, 7.613235e+001
4.730357e+002, 7.540718e+001
4.735179e+002, 7.475541e+001
4.740000e+002, 7.468958e+001
4.744821e+002, 7.512212e+001
4.749642e+002, 7.559731e+001
4.754463e+002, 7.586404e+001
4.759284e+002, 7.598483e+001
4.764106e+002, 7.615697e+001
4.768927e+002, 7.643040e+001
4.773748e+002, 7.640837e+001
4.778569e+002, 7.558068e+001
4.783390e+002, 7.452448e+001
4.788211e+002, 7.422698e+001
4.793033e+002, 7.496184e+001
4.797854e+002, 7.558970e+001
4.802675e+002, 7.533436e+001
4.807496e+002, 7.463860e+001
4.812317e+002, 7.434240e+001
4.817138e+002, 7.460371e+001
4.821959e+002, 7.499990e+001
4.826780e+002, 7.518552e+001
4.831602e+002, 7.515276e+001
4.836423e+002, 7.504797e+001
4.841244e+002, 7.485240e+001
4.846065e+002, 7.461095e+001
4.850886e+002, 7.421472e+001
4.855707e+002, 7.381079e+001
4.860529e+002, 7.370370e+001
4.865350e+002, 7.400304e+001
4.870171e+002, 7.445418e+001
4.874992e+002, 7.463297e+001
4.879813e+002, 7.443038e+001
4.884634e+002, 7.424849e+001
4.889456e+002, 7.406779e+001
4.894277e+002, 7.392284e+001
4.899098e+002, 7.386828e+001
4.903919e+002, 7.386264e+001
4.908740e+002, 7.380075e+001
4.913561e+002, 7.360406e+001
4.918383e+002, 7.335471e+001
4.923204e+002, 7.328372e+001
4.928025e+002, 7.343340e+001
4.932846e+002, 7.364540e+001
4.937667e+002, 7.404438e+001
4.942488e+002, 7.437929e+001
4.947310e+002, 7.446201e+001
4.952131e+002, 7.429276e+001
4.956952e+002, 7.402261e+001
4.961773e+002, 7.362646e+001
4.966594e+002, 7.321951e+001
4.971415e+002, 7.319707e+001
4.976237e+002, 7.365960e+001
4.981058e+002, 7.406516e+001
4.985879e+002, 7.408840e+001
4.990700e+002, 7.387093e+001
4.995521e+002, 7.367593e+001
5.000342e+002, 7.347353e+001
5.005164e+002, 7.339784e+001
5.009985e+002, 7.370006e+001
5.014806e+002, 7.412492e+001
5.019627e+002, 7.414706e+001
5.024448e+002, 7.365431e+001
5.029269e+002, 7.309512e+001
5.034091e+002, 7.290943e+001
5.038912e+002, 7.311331e+001
5.043733e+002, 7.318645e+001
5.048554e+002, 7.302921e+001
5.053375e+002, 7.286885e+001
5.058196e+002, 7.274911e+001
5.063018e+002, 7.268908e+001
5.067839e+002, 7.273347e+001
5.072660e+002, 7.289346e+001
5.077481e+002, 7.309234e+001
5.082302e+002, 7.318952e+001
5.087123e+002, 7.310387e+001
5.091945e+002, 7.321107e+001
5.096766e+002, 7.381909e+001
5.101587e+002, 7.431116e+001
5.106408e+002, 7.434157e+001
5.111229e+002, 7.409877e+001
5.116050e+002, 7.398134e+001
5.120872e+002, 7.421701e+001
5.125693e+002, 7.457448e+001
5.130514e+002, 7.460930e+001
5.135335e+002, 7.427562e+001
5.140156e+002, 7.396632e+001
5.144977e+002, 7.371542e+001
5.149799e+002, 7.357182e+001
5.154620e+002, 7.366890e+001
5.159441e+002, 7.394882e+001
5.164262e+002, 7.403771e+001
5.169083e+002, 7.350211e+001
5.173904e+002, 7.284864e+001
5.178726e+002, 7.280001e+001
5.183547e+002, 7.332358e+001
5.188368e+002, 7.386244e+001
5.193189e+002, 7.418432e+001
5.198010e+002, 7.432949e+001
5.202831e+002, 7.436693e+001
5.207653e+002, 7.429764e+001
5.212474e+002, 7.415085e+001
5.217295e+002, 7.374954e+001
5.222116e+002, 7.339908e+001
5.226937e+002, 7.343349e+001
5.231758e+002, 7.381541e+001
5.236580e+002, 7.425179e+001
5.241401e+002, 7.454614e+001
5.246222e+002, 7.469856e+001
5.251043e+002, 7.470124e+001
5.255864e+002, 7.436357e+001
5.260685e+002, 7.414883e+001
5.265507e+002, 7.417142e+001
5.270328e+002, 7.427341e+001
5.275149e+002, 7.432756e+001
5.279970e+002, 7.432028e+001
5.284791e+002, 7.431479e+001
5.289612e+002, 7.434789e+001
5.294434e+002, 7.442775e+001
5.299255e+002, 7.465148e+001
5.304076e+002, 7.515506e+001
5.308897e+002, 7.548401e+001
5.313718e+002, 7.523615e+001
5.318539e+002, 7.481145e+001
5.323361e+002, 7.462103e+001
5.328182e+002, 7.474619e+001
5.333003e+002, 7.496250e+001
5.337824e+002, 7.519893e+001
5.342645e+002, 7.540775e+001
5.347466e+002, 7.544550e+001
5.352288e+002, 7.527963e+001
5.357109e+002, 7.513538e+001
5.361930e+002, 7.518574e+001
5.366751e+002, 7.540678e+001
5.371572e+002, 7.562058e+001
5.376393e+002, 7.592798e+001
5.381215e+002, 7.610771e+001
5.386036e+002, 7.602087e+001
5.390857e+002, 7.580749e+001
5.395678e+002, 7.555991e+001
5.400499e+002, 7.533430e+001
5.405320e+002, 7.531595e+001
5.410142e+002, 7.575404e+001
5.414963e+002, 7.667068e+001
5.419784e+002, 7.727547e+001
5.424604e+002, 7.727931e+001
5.429426e+002, 7.729556e+001
5.434247e+002, 7.755241e+001
5.439068e+002, 7.783299e+001
5.443889e+002, 7.782870e+001
5.448710e+002, 7.747292e+001
5.453531e+002, 7.708572e+001
5.458353e+002, 7.707171e+001
5.463174e+002, 7.739055e+001
5.467995e+002, 7.753373e+001
5.472816e+002, 7.736643e+001
5.477637e+002, 7.725192e+001
5.482458e+002, 7.749847e+001
5.487280e+002, 7.793079e+001
5.492101e+002, 7.828275e+001
5.496922e+002, 7.850936e+001
5.501743e+002, 7.865121e+001
5.506564e+002, 7.875076e+001
5.511385e+002, 7.878177e+001
5.516207e+002, 7.864925e+001
5.521028e+002, 7.832944e+001
5.525849e+002, 7.799624e+001
5.530670e+002, 7.779445e+001
5.535491e+002, 7.772539e+001
5.540313e+002, 7.781046e+001
5.545134e+002, 7.810731e+001
5.549955e+002, 7.846424e+001
5.554776e+002, 7.887194e+001
5.559597e+002, 7.930437e+001
5.564418e+002, 7.975631e+001
5.569240e+002, 8.021569e+001
5.574061e+002, 8.061144e+001
5.578882e+002, 8.086681e+001
5.583703e+002, 8.097922e+001
5.588524e+002, 8.095988e+001
5.593345e+002, 8.051212e+001
5.598167e+002, 8.037501e+001
5.602988e+002, 8.112402e+001
5.607809e+002, 8.213485e+001
5.612630e+002, 8.256554e+001
5.617451e+002, 8.215501e+001
5.622272e+002, 8.169372e+001
5.627094e+002, 8.199178e+001
5.631915e+002, 8.280289e+001
5.636736e+002, 8.329212e+001
5.641557e+002, 8.333614e+001
5.646378e+002, 8.318832e+001
5.651199e+002, 8.289549e+001
5.656021e+002, 8.256592e+001
5.660842e+002, 8.262580e+001
5.665663e+002, 8.345412e+001
5.670484e+002, 8.413010e+001
5.675305e+002, 8.421532e+001
5.680126e+002, 8.403549e+001
5.684948e+002, 8.394815e+001
5.689769e+002, 8.403853e+001
5.694590e+002, 8.430333e+001
5.699411e+002, 8.477253e+001
5.704232e+002, 8.542739e+001
5.709053e+002, 8.586937e+001
5.713875e+002, 8.601003e+001
5.718696e+002, 8.604227e+001
5.723517e+002, 8.582906e+001
5.728338e+002, 8.562999e+001
5.733159e+002, 8.571516e+001
5.737980e+002, 8.610802e+001
5.742802e+002, 8.658080e+001
5.747623e+002, 8.697451e+001
5.752444e+002, 8.728856e+001
5.757265e+002, 8.750304e+001
5.762086e+002, 8.759505e+001
5.766907e+002, 8.768066e+001
5.771729e+002, 8.779457e+001
5.776550e+002, 8.794605e+001
5.781371e+002, 8.818308e+001
5.786192e+002, 8.856084e+001
5.791013e+002, 8.877684e+001
5.795834e+002, 8.846801e+001
5.800656e+002, 8.808489e+001
5.805477e+002, 8.815900e+001
5.810298e+002, 8.869821e+001
5.815119e+002, 8.943035e+001
5.819940e+002, 9.020712e+001
5.824761e+002, 9.100634e+001
5.829583e+002, 9.176392e+001
5.834404e+002, 9.265025e+001
5.839225e+002, 9.321706e+001
5.844046e+002, 9.325089e+001
5.848867e+002, 9.315770e+001
5.853688e+002, 9.316520e+001
5.858510e+002, 9.328751e+001
5.863331e+002, 9.344233e+001
5.868152e+002, 9.355264e+001
5.872973e+002, 9.371008e+001
5.877794e+002, 9.423046e+001
5.882615e+002, 9.521597e+001
5.887437e+002, 9.584330e+001
5.892258e+002, 9.571264e+001
5.897079e+002, 9.537705e+001
5.901900e+002, 9.535399e+001
5.906721e+002, 9.560023e+001
5.911542e+002, 9.584304e+001
5.916364e+002, 9.592665e+001
5.921185e+002, 9.603664e+001
5.926006e+002, 9.638267e+001
5.930827e+002, 9.688815e+001
5.935648e+002, 9.733524e+001
5.940469e+002, 9.764700e+001
5.945291e+002, 9.784157e+001
5.950112e+002, 9.791242e+001
5.954933e+002, 9.777534e+001
5.959754e+002, 9.791394e+001
5.964575e+002, 9.867712e+001
5.969396e+002, 9.928817e+001
5.974218e+002, 9.926795e+001
5.979039e+002, 9.900181e+001
5.983860e+002, 9.912415e+001
5.988681e+002, 9.983653e+001
5.993502e+002, 1.006329e+002
5.998323e+002, 1.007611e+002
6.003145e+002, 1.002607e+002
6.007966e+002, 1.002810e+002
6.012787e+002, 1.010474e+002
6.017608e+002, 1.019555e+002
6.022429e+002, 1.027630e+002
6.027250e+002, 1.034606e+002
6.032072e+002, 1.039846e+002
6.036893e+002, 1.042741e+002
6.041714e+002, 1.045548e+002
6.046535e+002, 1.049790e+002
6.051356e+002, 1.054494e+002
6.056177e+002, 1.057873e+002
6.060999e+002, 1.059888e+002
6.065820e+002, 1.062347e+002
6.070641e+002, 1.066565e+002
6.075462e+002, 1.072223e+002
6.080283e+002, 1.077971e+002
6.085104e+002, 1.084869e+002
6.089926e+002, 1.090239e+002
6.094747e+002, 1.092090e+002
6.099568e+002, 1.093977e+002
6.104389e+002, 1.098960e+002
6.109210e+002, 1.106413e+002
6.114031e+002, 1.113253e+002
6.118853e+002, 1.117161e+002
6.123674e+002, 1.119908e+002
6.128495e+002, 1.125496e+002
6.133316e+002, 1.134207e+002
6.138137e+002, 1.142983e+002
6.142958e+002, 1.151789e+002
6.147780e+002, 1.159533e+002
6.152601e+002, 1.164030e+002
6.157422e+002, 1.166031e+002
6.162243e+002, 1.170303e+002
6.167064e+002, 1.180147e+002
6.171885e+002, 1.190221e+002
6.176707e+002, 1.196760e+002
6.181528e+002, 1.201100e+002
6.186349e+002, 1.205542e+002
6.191170e+002, 1.210858e+002
6.195991e+002, 1.217925e+002
6.200812e+002, 1.228028e+002
6.205634e+002, 1.241456e+002
6.210455e+002, 1.254112e+002
6.215276e+002, 1.266596e+002
6.220097e+002, 1.277463e+002
6.224918e+002, 1.285693e+002
6.229739e+002, 1.292558e+002
6.234561e+002, 1.298686e+002
6.239382e+002, 1.304398e+002
6.244203e+002, 1.311261e+002
6.249023e+002, 1.321039e+002
6.253845e+002, 1.332835e+002
6.258666e+002, 1.344391e+002
6.263487e+002, 1.355704e+002
6.268308e+002, 1.366283e+002
6.273129e+002, 1.375252e+002
6.277950e+002, 1.384034e+002
6.282772e+002, 1.396033e+002
6.287593e+002, 1.412075e+002
6.292414e+002, 1.426571e+002
6.297235e+002, 1.437569e+002
6.302056e+002, 1.447827e+002
6.306877e+002, 1.457705e+002
6.311699e+002, 1.468584e+002
6.316520e+002, 1.483605e+002
6.321341e+002, 1.504148e+002
6.326162e+002, 1.527602e+002
6.330983e+002, 1.550224e+002
6.335804e+002, 1.572741e+002
6.340626e+002, 1.590753e+002
6.345447e+002, 1.598705e+002
6.350268e+002, 1.609318e+002
6.355089e+002, 1.630789e+002
6.359910e+002, 1.657272e+002
6.364731e+002, 1.679279e+002
6.369553e+002, 1.693434e+002
6.374374e+002, 1.707873e+002
6.379195e+002, 1.728816e+002
6.384016e+002, 1.753733e+002
6.388837e+002, 1.778269e+002
6.393658e+002, 1.801827e+002
6.398480e+002, 1.825775e+002
6.403301e+002, 1.850957e+002
6.408122e+002, 1.877170e+002
6.412943e+002, 1.903981e+002
6.417764e+002, 1.929695e+002
6.422585e+002, 1.958574e+002
6.427407e+002, 1.994807e+002
6.432228e+002, 2.030383e+002
6.437049e+002, 2.059263e+002
6.441870e+002, 2.083298e+002
6.446691e+002, 2.108019e+002
6.451512e+002, 2.136019e+002
6.456334e+002, 2.166820e+002
6.461155e+002, 2.199158e+002
6.465976e+002, 2.233060e+002
6.470797e+002, 2.271624e+002
6.475618e+002, 2.316385e+002
6.480439e+002, 2.363371e+002
6.485261e+002, 2.410818e+002
6.490082e+002, 2.458117e+002
6.494903e+002, 2.501696e+002
6.499724e+002, 2.537579e+002
6.504545e+002, 2.575448e+002
6.509366e+002, 2.619533e+002
6.514188e+002, 2.667266e+002
6.519009e+002, 2.715102e+002
6.523830e+002, 2.762862e+002
6.528651e+002, 2.812540e+002
6.533472e+002, 2.865445e+002
6.538293e+002, 2.921638e+002
6.543115e+002, 2.982379e+002
6.547936e+002, 3.049213e+002
6.552757e+002, 3.116391e+002
6.557578e+002, 3.185188e+002
6.562399e+002, 3.252364e+002
6.567220e+002, 3.314722e+002
6.572042e+002, 3.373931e+002
6.576863e+002, 3.434398e+002
6.581684e+002, 3.497322e+002
6.586505e+002, 3.563281e+002
6.591326e+002, 3.635111e+002
6.596147e+002, 3.710233e+002
6.600969e+002, 3.781403e+002
6.605790e+002, 3.846739e+002
6.610611e+002, 3.912592e+002
6.615432e+002, 3.984885e+002
6.620253e+002, 4.063218e+002
6.625074e+002, 4.141558e+002
6.629896e+002, 4.225099e+002
6.634717e+002, 4.301607e+002
6.639538e+002, 4.359784e+002
6.644359e+002, 4.418781e+002
6.649180e+002, 4.497471e+002
6.654001e+002, 4.592435e+002
6.658823e+002, 4.684736e+002
6.663644e+002, 4.763135e+002
6.668465e+002, 4.832484e+002
6.673286e+002, 4.902444e+002
6.678107e+002, 4.972903e+002
6.682928e+002, 5.039321e+002
6.687750e+002, 5.099267e+002
6.692571e+002, 5.157556e+002
6.697392e+002, 5.218283e+002
6.702213e+002, 5.281168e+002
6.707034e+002, 5.341051e+002
6.711855e+002, 5.397997e+002
6.716677e+002, 5.451653e+002
6.721498e+002, 5.501777e+002
6.726319e+002, 5.547999e+002
6.731140e+002, 5.592601e+002
6.735961e+002, 5.633922e+002
6.740782e+002, 5.664367e+002
6.745604e+002, 5.676957e+002
6.750425e+002, 5.676687e+002
6.755246e+002, 5.680204e+002
6.760067e+002, 5.689000e+002
6.764888e+002, 5.695525e+002
6.769709e+002, 5.702614e+002
6.774531e+002, 5.701869e+002
6.779352e+002, 5.684605e+002
6.784173e+002, 5.654362e+002
6.788994e+002, 5.623649e+002
6.793815e+002, 5.598591e+002
6.798636e+002, 5.569577e+002
6.803458e+002, 5.528672e+002
6.808279e+002, 5.481094e+002
6.813100e+002, 5.435703e+002
6.817921e+002, 5.393588e+002
6.822742e+002, 5.347774e+002
6.827563e+002, 5.292256e+002
6.832385e+002, 5.228631e+002
6.837206e+002, 5.164094e+002
6.842027e+002, 5.098266e+002
6.846848e+002, 5.032564e+002
6.851669e+002, 4.970742e+002
6.856490e+002, 4.906301e+002
6.861312e+002, 4.834258e+002
6.866133e+002, 4.756444e+002
6.870954e+002, 4.677441e+002
6.875775e+002, 4.596484e+002
6.880596e+002, 4.519778e+002
6.885417e+002, 4.458639e+002
6.890239e+002, 4.405340e+002
6.895060e+002, 4.340915e+002
6.899881e+002, 4.261756e+002
6.904702e+002, 4.179695e+002
6.909523e+002, 4.103007e+002
6.914344e+002, 4.031192e+002
6.919166e+002, 3.960115e+002
6.923987e+002, 3.888292e+002
6.928808e+002, 3.819665e+002
6.933629e+002, 3.756168e+002
6.938450e+002, 3.694471e+002
6.943271e+002, 3.631331e+002
6.948093e+002, 3.568063e+002
6.952914e+002, 3.509584e+002
6.957735e+002, 3.459725e+002
6.962556e+002, 3.409973e+002
6.967377e+002, 3.346678e+002
6.972198e+002, 3.275185e+002
6.977020e+002, 3.214288e+002
6.981841e+002, 3.167607e+002
6.986662e+002, 3.125562e+002
6.991483e+002, 3.082852e+002
6.996304e+002, 3.038827e+002
7.001125e+002, 2.991526e+002
7.005947e+002, 2.936178e+002
7.010768e+002, 2.885252e+002
7.015589e+002, 2.839354e+002
7.020410e+002, 2.797535e+002
7.025231e+002, 2.762213e+002
7.030052e+002, 2.730121e+002
7.034874e+002, 2.694027e+002
7.039695e+002, 2.650783e+002
7.044516e+002, 2.605600e+002
7.049337e+002, 2.564549e+002
7.054158e+002, 2.527501e+002
7.058979e+002, 2.494435e+002
7.063801e+002, 2.466156e+002
7.068622e+002, 2.436607e+002
7.073442e+002, 2.401262e+002
7.078264e+002, 2.362795e+002
7.083085e+002, 2.327660e+002
7.087906e+002, 2.295470e+002
7.092727e+002, 2.267259e+002
7.097548e+002, 2.244527e+002
7.102369e+002, 2.224172e+002
7.107191e+002, 2.207378e+002
7.112012e+002, 2.190868e+002
7.116833e+002, 2.168655e+002
7.121654e+002, 2.138558e+002
7.126475e+002, 2.106454e+002
7.131296e+002, 2.078909e+002
7.136118e+002, 2.055235e+002
7.140939e+002, 2.030412e+002
7.145760e+002, 2.003880e+002
7.150581e+002, 1.979888e+002
7.155402e+002, 1.961274e+002
7.160223e+002, 1.945703e+002
7.165045e+002, 1.930067e+002
7.169866e+002, 1.915233e+002
7.174687e+002, 1.895773e+002
7.179508e+002, 1.863855e+002
7.184329e+002, 1.835151e+002
7.189150e+002, 1.820959e+002
7.193972e+002, 1.813466e+002
7.198793e+002, 1.800435e+002
7.203614e+002, 1.779116e+002
7.208435e+002, 1.756679e+002
7.213256e+002, 1.740562e+002
7.218077e+002, 1.728867e+002
7.222899e+002, 1.713830e+002
7.227720e+002, 1.694790e+002
7.232541e+002, 1.676976e+002
7.237362e+002, 1.661791e+002
7.242183e+002, 1.648985e+002
7.247004e+002, 1.639792e+002
7.251826e+002, 1.634005e+002
7.256647e+002, 1.624452e+002
7.261468e+002, 1.608434e+002
7.266289e+002, 1.591326e+002
7.271110e+002, 1.572915e+002
7.275931e+002, 1.555678e+002
7.280753e+002, 1.543249e+002
7.285574e+002, 1.535422e+002
7.290395e+002, 1.528760e+002
7.295216e+002, 1.521096e+002
7.300037e+002, 1.512350e+002
7.304858e+002, 1.502615e+002
7.309680e+002, 1.491965e+002
7.314501e+002, 1.477769e+002
7.319322e+002, 1.457560e+002
7.324143e+002, 1.438238e+002
7.328964e+002, 1.425565e+002
7.333785e+002, 1.418748e+002
7.338607e+002, 1.412632e+002
7.343428e+002, 1.409418e+002
7.348249e+002, 1.403568e+002
7.353070e+002, 1.391604e+002
7.357891e+002, 1.378431e+002
7.362712e+002, 1.367910e+002
7.367534e+002, 1.359756e+002
7.372355e+002, 1.351706e+002
7.377176e+002, 1.342491e+002
7.381997e+002, 1.333606e+002
7.386818e+002, 1.328829e+002
7.391639e+002, 1.327284e+002
7.396461e+002, 1.318923e+002
7.401282e+002, 1.301121e+002
7.406103e+002, 1.285272e+002
7.410924e+002, 1.278882e+002
7.415745e+002, 1.277709e+002
7.420566e+002, 1.272224e+002
7.425388e+002, 1.261086e+002
7.430209e+002, 1.250716e+002
7.435030e+002, 1.241737e+002
7.439851e+002, 1.233535e+002
7.444672e+002, 1.225411e+002
7.449493e+002, 1.217996e+002
7.454315e+002, 1.212969e+002
7.459136e+002, 1.210524e+002
7.463957e+002, 1.207587e+002
7.468778e+002, 1.200534e+002
7.473599e+002, 1.190811e+002
7.478420e+002, 1.183291e+002
7.483242e+002, 1.178038e+002
7.488063e+002, 1.171178e+002
7.492884e+002, 1.160469e+002
7.497705e+002, 1.150074e+002
7.502526e+002, 1.145572e+002
7.507347e+002, 1.147482e+002
7.512169e+002, 1.145558e+002
7.516990e+002, 1.137339e+002
7.521811e+002, 1.128836e+002
7.526632e+002, 1.120338e+002
7.531453e+002, 1.112824e+002
7.536274e+002, 1.108113e+002
7.541096e+002, 1.105391e+002
7.545917e+002, 1.101105e+002
7.550738e+002, 1.092565e+002
7.555559e+002, 1.082917e+002
7.560380e+002, 1.077400e+002
7.565201e+002, 1.074781e+002
7.570023e+002, 1.068937e+002
7.574844e+002, 1.058590e+002
7.579665e+002, 1.049477e+002
7.584486e+002, 1.045900e+002
7.589307e+002, 1.046369e+002
7.594128e+002, 1.045901e+002
7.598950e+002, 1.044287e+002
7.603771e+002, 1.042053e+002
7.608592e+002, 1.040589e+002
7.613413e+002, 1.037108e+002
7.618234e+002, 1.028316e+002
7.623055e+002, 1.017349e+002
7.627877e+002, 1.009132e+002
7.632698e+002, 1.005090e+002
7.637519e+002, 1.002516e+002
7.642340e+002, 1.000304e+002
7.647161e+002, 9.978269e+001
7.651982e+002, 9.938335e+001
7.656804e+002, 9.885114e+001
7.661625e+002, 9.832735e+001
7.666446e+002, 9.786624e+001
7.671267e+002, 9.739820e+001
7.676088e+002, 9.679742e+001
7.680909e+002, 9.604112e+001
7.685731e+002, 9.567103e+001
7.690552e+002, 9.608726e+001
7.695373e+002, 9.623045e+001
7.700194e+002, 9.567225e+001
7.705015e+002, 9.492290e+001
7.709836e+002, 9.435848e+001
7.714658e+002, 9.396968e+001
7.719479e+002, 9.357222e+001
7.724300e+002, 9.308363e+001
7.729121e+002, 9.259293e+001
7.733942e+002, 9.213737e+001
7.738763e+002, 9.173340e+001
7.743585e+002, 9.142458e+001
7.748406e+002, 9.120361e+001
7.753227e+002, 9.100357e+001
7.758048e+002, 9.077998e+001
7.762869e+002, 9.054664e+001
7.767690e+002, 9.034743e+001
7.772512e+002, 9.019656e+001
7.777333e+002, 8.996776e+001
7.782154e+002, 8.955904e+001
7.786975e+002, 8.925106e+001
7.791796e+002, 8.938383e+001
7.796617e+002, 8.963149e+001
7.801439e+002, 8.935484e+001
7.806260e+002, 8.835457e+001
7.811081e+002, 8.772721e+001
7.815902e+002, 8.820982e+001
7.820723e+002, 8.867252e+001
7.825544e+002, 8.822230e+001
7.830366e+002, 8.730709e+001
7.835187e+002, 8.676027e+001
7.840008e+002, 8.677087e+001
7.844829e+002, 8.685176e+001
7.849650e+002, 8.653566e+001
7.854471e+002, 8.595885e+001
7.859293e+002, 8.544296e+001
7.864114e+002, 8.498496e+001
7.868935e+002, 8.503970e+001
7.873756e+002, 8.593579e+001
7.878577e+002, 8.670267e+001
7.883398e+002, 8.630734e+001
7.888220e+002, 8.493362e+001
7.893040e+002, 8.415709e+001
7.897861e+002, 8.453169e+001
7.902682e+002, 8.467478e+001
7.907504e+002, 8.432089e+001
7.912325e+002, 8.385880e+001
7.917146e+002, 8.341519e+001
7.921967e+002, 8.308684e+001
7.926788e+002, 8.307747e+001
7.931609e+002, 8.350280e+001
7.936431e+002, 8.388121e+001
7.941252e+002, 8.368600e+001
7.946073e+002, 8.319904e+001
7.950894e+002, 8.288655e+001
7.955715e+002, 8.278373e+001
7.960536e+002, 8.299724e+001
7.965358e+002, 8.360833e+001
7.970179e+002, 8.414806e+001
7.975000e+002, 8.389957e+001
7.979821e+002, 8.281135e+001
7.984642e+002, 8.215915e+001
7.989464e+002, 8.211610e+001
7.994285e+002, 8.219068e+001
7.999106e+002, 8.245498e+001
8.003927e+002, 8.264262e+001
8.008748e+002, 8.242076e+001
8.013569e+002, 8.190359e+001
8.018391e+002, 8.168030e+001
8.023212e+002, 8.234047e+001
8.028033e+002, 8.268945e+001
8.032854e+002, 8.166807e+001
8.037675e+002, 8.027304e+001
8.042496e+002, 7.973734e+001
8.047318e+002, 8.000597e+001
8.052139e+002, 8.032048e+001
8.056960e+002, 8.027116e+001
8.061781e+002, 8.009138e+001
8.066602e+002, 8.023467e+001
8.071423e+002, 8.065578e+001
8.076245e+002, 8.065738e+001
8.081066e+002, 8.012729e+001
8.085887e+002, 7.959085e+001
8.090708e+002, 7.921980e+001
8.095529e+002, 7.904839e+001
8.100350e+002, 7.920565e+001
8.105172e+002, 7.978963e+001
8.109993e+002, 8.003518e+001
8.114814e+002, 7.973997e+001
8.119635e+002, 7.936995e+001
8.124456e+002, 7.896982e+001
8.129277e+002, 7.860976e+001
8.134099e+002, 7.837096e+001
8.138920e+002, 7.823908e+001
8.143741e+002, 7.813088e+001
8.148562e+002, 7.802084e+001
8.153383e+002, 7.788554e+001
8.158204e+002, 7.755553e+001
8.163026e+002, 7.722028e+001
8.167847e+002, 7.748830e+001
8.172668e+002, 7.832571e+001
8.177489e+002, 7.882771e+001
8.182310e+002, 7.845158e+001
8.187131e+002, 7.759641e+001
8.191953e+002, 7.696265e+001
8.196774e+002, 7.650636e+001
8.201595e+002, 7.662929e+001
8.206416e+002, 7.783558e+001
8.211237e+002, 7.866678e+001
8.216058e+002, 7.837155e+001
8.220880e+002, 7.756936e+001
8.225701e+002, 7.681756e+001
8.230522e+002, 7.613453e+001
8.235343e+002, 7.576225e+001
8.240164e+002, 7.592618e+001
8.244985e+002, 7.620006e+001
8.249807e+002, 7.645326e+001
8.254628e+002, 7.668425e+001
8.259449e+002, 7.698895e+001
8.264270e+002, 7.728714e+001
8.269091e+002, 7.725583e+001
8.273912e+002, 7.665579e+001
8.278734e+002, 7.592640e+001
8.283555e+002, 7.576829e+001
8.288376e+002, 7.602615e+001
8.293197e+002, 7.600266e+001
8.298018e+002, 7.563543e+001
8.302839e+002, 7.536093e+001
8.307661e+002, 7.542253e+001
8.312482e+002, 7.560647e+001
8.317303e+002, 7.552602e+001
8.322124e+002, 7.509876e+001
8.326945e+002, 7.502419e+001
8.331766e+002, 7.578584e+001
8.336588e+002, 7.619720e+001
8.341409e+002, 7.571484e+001
8.346230e+002, 7.502336e+001
8.351051e+002, 7.471278e+001
8.355872e+002, 7.472260e+001
8.360693e+002, 7.457110e+001
8.365515e+002, 7.391579e+001
8.370336e+002, 7.338703e+001
8.375157e+002, 7.339623e+001
8.379978e+002, 7.366977e+001
8.384799e+002, 7.399676e+001
8.389620e+002, 7.428624e+001
8.394442e+002, 7.438242e+001
8.399263e+002, 7.421111e+001
8.404084e+002, 7.392812e+001
8.408905e+002, 7.374849e+001
8.413726e+002, 7.364822e+001
8.418547e+002, 7.346046e+001
8.423369e+002, 7.317241e+001
8.428190e+002, 7.298060e+001
8.433011e+002, 7.295558e+001
8.437832e+002, 7.306289e+001
8.442653e+002, 7.329731e+001
8.447474e+002, 7.365310e+001
8.452296e+002, 7.387328e+001
8.457117e+002, 7.407348e+001
8.461938e+002, 7.395346e+001
8.466759e+002, 7.303953e+001
8.471580e+002, 7.223031e+001
8.476401e+002, 7.216801e+001
8.481223e+002, 7.262893e+001
8.486044e+002, 7.311490e+001
8.490865e+002, 7.357817e+001
8.495686e+002, 7.370738e+001
8.500507e+002, 7.306595e+001
8.505328e+002, 7.222379e+001
8.510150e+002, 7.165414e+001
8.514971e+002, 7.138258e+001
8.519792e+002, 7.146736e+001
8.524613e+002, 7.187822e+001
8.529434e+002, 7.225861e+001
8.534255e+002, 7.226073e+001
8.539077e+002, 7.195797e+001
8.543898e+002, 7.152187e+001
8.548719e+002, 7.095173e+001
8.553540e+002, 7.044889e+001
8.558361e+002, 7.001527e+001
8.563182e+002, 6.985168e+001
8.568004e+002, 7.020399e+001
8.572825e+002, 7.087232e+001
8.577646e+002, 7.121620e+001
8.582467e+002, 7.113254e+001
8.587288e+002, 7.093942e+001
8.592109e+002, 7.050556e+001
8.596931e+002, 7.011858e+001
8.601752e+002, 6.993213e+001
8.606573e+002, 6.981657e+001
8.611394e+002, 6.956535e+001
8.616215e+002, 6.917196e+001
8.621036e+002, 6.893713e+001
8.625858e+002, 6.914169e+001
8.630679e+002, 6.937012e+001
8.635500e+002, 6.935908e+001
8.640321e+002, 6.918488e+001
8.645142e+002, 6.891528e+001
8.649963e+002, 6.858936e+001
8.654785e+002, 6.824900e+001
8.659606e+002, 6.789823e+001
8.664427e+002, 6.769824e+001
8.669248e+002, 6.806762e+001
8.674069e+002, 6.884627e+001
8.678890e+002, 6.914879e+001
8.683712e+002, 6.891309e+001
8.688533e+002, 6.850657e+001
8.693354e+002, 6.802277e+001
8.698175e+002, 6.764069e+001
8.702996e+002, 6.765414e+001
8.707817e+002, 6.806896e+001
8.712639e+002, 6.816299e+001
8.717459e+002, 6.778269e+001
8.722280e+002, 6.735148e+001
8.727101e+002, 6.666482e+001
8.731923e+002, 6.620607e+001
8.736744e+002, 6.654551e+001
8.741565e+002, 6.730470e+001
8.746386e+002, 6.751389e+001
8.751207e+002, 6.681744e+001
8.756028e+002, 6.618436e+001
8.760850e+002, 6.603647e+001
8.765671e+002, 6.599287e+001
8.770492e+002, 6.571464e+001
8.775313e+002, 6.536324e+001
8.780134e+002, 6.530438e+001
8.784955e+002, 6.557738e+001
8.789777e+002, 6.578393e+001
8.794598e+002, 6.554818e+001
8.799419e+002, 6.514590e+001
8.804240e+002, 6.502729e+001
8.809061e+002, 6.513448e+001
8.813882e+002, 6.530441e+001
8.818704e+002, 6.549881e+001
8.823525e+002, 6.555265e+001
8.828346e+002, 6.533823e+001
8.833167e+002, 6.501955e+001
8.837988e+002, 6.498969e+001
8.842809e+002, 6.532907e+001
8.847631e+002, 6.530536e+001
8.852452e+002, 6.470741e+001
8.857273e+002, 6.428148e+001
8.862094e+002, 6.444263e+001
8.866915e+002, 6.472348e+001
8.871736e+002, 6.453963e+001
8.876558e+002, 6.393080e+001
8.881379e+002, 6.352353e+001
8.886200e+002, 6.347555e+001
8.891021e+002, 6.343144e+001
8.895842e+002, 6.330291e+001
8.900663e+002, 6.318427e+001
8.905485e+002, 6.317114e+001
8.910306e+002, 6.320945e+001
8.915127e+002, 6.319369e+001
8.919948e+002, 6.309521e+001
8.924769e+002, 6.293760e+001
8.929590e+002, 6.262045e+001
8.934412e+002, 6.234855e+001
8.939233e+002, 6.241682e+001
8.944054e+002, 6.268050e+001
8.948875e+002, 6.282397e+001
8.953696e+002, 6.279004e+001
8.958517e+002, 6.275183e+001
8.963339e+002, 6.286414e+001
8.968160e+002, 6.295872e+001
8.972981e+002, 6.260813e+001
8.977802e+002, 6.187240e+001
8.982623e+002, 6.131321e+001
8.987444e+002, 6.097569e+001
8.992266e+002, 6.094143e+001
8.997087e+002, 6.132875e+001
9.001908e+002, 6.181334e+001
9.006729e+002, 6.190415e+001
9.011550e+002, 6.158255e+001
9.016371e+002, 6.127150e+001
9.021193e+002, 6.090257e+001
9.026014e+002, 6.067105e+001
9.030835e+002, 6.074502e+001
9.035656e+002, 6.083848e+001
9.040477e+002, 6.071412e+001
9.045298e+002, 6.046500e+001
9.050120e+002, 6.036144e+001
9.054941e+002, 6.055097e+001
9.059762e+002, 6.054546e+001
9.064583e+002, 5.992646e+001
9.069404e+002, 5.939874e+001
9.074225e+002, 5.948391e+001
9.079047e+002, 5.987366e+001
9.083868e+002, 6.018850e+001
9.088689e+002, 6.033036e+001
9.093510e+002, 6.028080e+001
9.098331e+002, 5.992904e+001
9.103152e+002, 5.954000e+001
9.107974e+002, 5.939808e+001
9.112795e+002, 5.940429e+001
9.117616e+002, 5.942160e+001
9.122437e+002, 5.940904e+001
9.127258e+002, 5.925103e+001
9.132079e+002, 5.889202e+001
9.136901e+002, 5.857762e+001
9.141722e+002, 5.871870e+001
9.146543e+002, 5.920183e+001
9.151364e+002, 5.932913e+001
9.156185e+002, 5.908583e+001
9.161006e+002, 5.891718e+001
9.165828e+002, 5.894837e+001
9.170649e+002, 5.900845e+001
9.175470e+002, 5.894947e+001
9.180291e+002, 5.881307e+001
9.185112e+002, 5.875170e+001
9.189933e+002, 5.878937e+001
9.194755e+002, 5.884666e+001
9.199576e+002, 5.900213e+001
9.204397e+002, 5.906446e+001
9.209218e+002, 5.891730e+001
9.214039e+002, 5.866583e+001
9.218860e+002, 5.842023e+001
9.223682e+002, 5.818078e+001
9.228503e+002, 5.789611e+001
9.233324e+002, 5.741209e+001
9.238145e+002, 5.708125e+001
9.242966e+002, 5.716133e+001
9.247787e+002, 5.729047e+001
9.252609e+002, 5.706347e+001
9.257430e+002, 5.669120e+001
9.262251e+002, 5.670154e+001
9.267072e+002, 5.725958e+001
9.271893e+002, 5.780373e+001
9.276714e+002, 5.792294e+001
9.281536e+002, 5.788382e+001
9.286357e+002, 5.802924e+001
9.291178e+002, 5.819531e+001
9.295999e+002, 5.795296e+001
9.300820e+002, 5.732412e+001
9.305641e+002, 5.684029e+001
9.310463e+002, 5.685893e+001
9.315284e+002, 5.708301e+001
9.320105e+002, 5.704911e+001
9.324926e+002, 5.681744e+001
9.329747e+002, 5.661681e+001
9.334568e+002, 5.646257e+001
9.339390e+002, 5.640041e+001
9.344211e+002, 5.646034e+001
9.349032e+002, 5.648348e+001
9.353853e+002, 5.627380e+001
9.358674e+002, 5.589005e+001
9.363495e+002, 5.569510e+001
9.368317e+002, 5.574495e+001
9.373138e+002, 5.569930e+001
9.377959e+002, 5.535299e+001
9.382780e+002, 5.530755e+001
9.387601e+002, 5.614871e+001
9.392422e+002, 5.728744e+001
9.397244e+002, 5.762560e+001
9.402065e+002, 5.699333e+001
9.406886e+002, 5.655760e+001
9.411707e+002, 5.646614e+001
9.416528e+002, 5.635879e+001
9.421349e+002, 5.616356e+001
9.426171e+002, 5.593330e+001
9.430992e+002, 5.559549e+001
9.435813e+002, 5.526873e+001
9.440634e+002, 5.531059e+001
9.445455e+002, 5.595382e+001
9.450276e+002, 5.633501e+001
9.455098e+002, 5.582113e+001
9.459919e+002, 5.529557e+001
9.464740e+002, 5.543199e+001
9.469561e+002, 5.587070e+001
9.474382e+002, 5.613305e+001
9.479203e+002, 5.614310e+001
9.484025e+002, 5.602916e+001
9.488846e+002, 5.580563e+001
9.493667e+002, 5.562191e+001
9.498488e+002, 5.574785e+001
9.503309e+002, 5.593172e+001
9.508130e+002, 5.565671e+001
9.512952e+002, 5.507353e+001
9.517773e+002, 5.480643e+001
9.522594e+002, 5.504491e+001
9.527415e+002, 5.535223e+001
9.532236e+002, 5.526820e+001
9.537057e+002, 5.500859e+001
9.541878e+002, 5.518986e+001
9.546699e+002, 5.571695e+001
9.551520e+002, 5.597488e+001
9.556342e+002, 5.587704e+001
9.561163e+002, 5.547884e+001
9.565984e+002, 5.476117e+001
9.570805e+002, 5.402887e+001
9.575626e+002, 5.380441e+001
9.580447e+002, 5.407583e+001
9.585269e+002, 5.422319e+001
9.590090e+002, 5.421230e+001
9.594911e+002, 5.422171e+001
9.599732e+002, 5.427367e+001
9.604553e+002, 5.440686e+001
9.609374e+002, 5.474827e+001
9.614196e+002, 5.513014e+001
9.619017e+002, 5.503591e+001
9.623838e+002, 5.418663e+001
9.628659e+002, 5.372221e+001
9.633480e+002, 5.383356e+001
9.638301e+002, 5.407692e+001
9.643123e+002, 5.455101e+001
9.647944e+002, 5.492804e+001
9.652765e+002, 5.486938e+001
9.657586e+002, 5.445228e+001
9.662407e+002, 5.403896e+001
9.667228e+002, 5.351595e+001
9.672050e+002, 5.331805e+001
9.676871e+002, 5.394088e+001
9.681692e+002, 5.447788e+001
9.686513e+002, 5.424450e+001
9.691334e+002, 5.370461e+001
9.696155e+002, 5.349645e+001
9.700977e+002, 5.367971e+001
9.705798e+002, 5.390623e+001
9.710619e+002, 5.403363e+001
9.715440e+002, 5.415055e+001
9.720261e+002, 5.438154e+001
9.725082e+002, 5.457711e+001
9.729904e+002, 5.457146e+001
9.734725e+002, 5.439530e+001
9.739546e+002, 5.411226e+001
9.744367e+002, 5.375824e+001
9.749188e+002, 5.344448e+001
9.754009e+002, 5.323615e+001
9.758831e+002, 5.314323e+001
9.763652e+002, 5.331724e+001
9.768473e+002, 5.357114e+001
9.773294e+002, 5.334937e+001
9.778115e+002, 5.273782e+001
9.782936e+002, 5.254948e+001
9.787758e+002, 5.316685e+001
9.792579e+002, 5.388163e+001
9.797400e+002, 5.369759e+001
9.802221e+002, 5.294381e+001
9.807042e+002, 5.277534e+001
9.811863e+002, 5.311648e+001
9.816685e+002, 5.336025e+001
9.821506e+002, 5.338642e+001
9.826327e+002, 5.331776e+001
9.831148e+002, 5.322161e+001
9.835969e+002, 5.313675e+001
9.840790e+002, 5.315567e+001
9.845612e+002, 5.327979e+001
9.850433e+002, 5.333456e+001
9.855254e+002, 5.333315e+001
9.860075e+002, 5.312441e+001
9.864896e+002, 5.255678e+001
9.869717e+002, 5.214605e+001
9.874539e+002, 5.238786e+001
9.879360e+002, 5.303548e+001
9.884181e+002, 5.329250e+001
9.889002e+002, 5.300217e+001
9.893823e+002, 5.288980e+001
9.898644e+002, 5.313463e+001
9.903466e+002, 5.319947e+001
9.908287e+002, 5.275928e+001
9.913108e+002, 5.224700e+001
9.917929e+002, 5.210708e+001
9.922750e+002, 5.227016e+001
9.927571e+002, 5.231847e+001
9.932393e+002, 5.202901e+001
9.937214e+002, 5.202716e+001
9.942035e+002, 5.271326e+001
9.946856e+002, 5.322050e+001
9.951677e+002, 5.301696e+001
9.956498e+002, 5.260611e+001
9.961320e+002, 5.259346e+001
9.966141e+002, 5.293120e+001
9.970962e+002, 5.304332e+001
9.975783e+002, 5.261283e+001
9.980604e+002, 5.229827e+001
9.985425e+002, 5.232812e+001
9.990247e+002, 5.245695e+001
9.995068e+002, 5.264541e+001
9.999889e+002, 5.277509e+001
1.000471e+003, 5.267091e+001
1.000953e+003, 5.232982e+001
1.001435e+003, 5.194608e+001
1.001917e+003, 5.150149e+001
1.002399e+003, 5.118335e+001
1.002882e+003, 5.111049e+001
1.003364e+003, 5.119558e+001
1.003846e+003, 5.138966e+001
1.004328e+003, 5.166678e+001
1.004810e+003, 5.208280e+001
1.005292e+003, 5.260872e+001
1.005774e+003, 5.289396e+001
1.006256e+003, 5.255929e+001
1.006739e+003, 5.210759e+001
1.007221e+003, 5.206635e+001
1.007703e+003, 5.217043e+001
1.008185e+003, 5.199854e+001
1.008667e+003, 5.162581e+001
1.009149e+003, 5.140999e+001
1.009631e+003, 5.146369e+001
1.010113e+003, 5.151270e+001
1.010595e+003, 5.124182e+001
1.011078e+003, 5.090969e+001
1.011560e+003, 5.094355e+001
1.012042e+003, 5.121154e+001
1.012524e+003, 5.144016e+001
1.013006e+003, 5.158681e+001
1.013488e+003, 5.166832e+001
1.013970e+003, 5.169184e+001
1.014452e+003, 5.163890e+001
1.014935e+003, 5.148280e+001
1.015417e+003, 5.123986e+001
1.015899e+003, 5.079494e+001
1.016381e+003, 5.027656e+001
1.016863e+003, 5.049107e+001
1.017345e+003, 5.146384e+001
1.017827e+003, 5.208612e+001
1.018309e+003, 5.177408e+001
1.018791e+003, 5.109912e+001
1.019274e+003, 5.081318e+001
1.019756e+003, 5.085565e+001
1.020238e+003, 5.096415e+001
1.020720e+003, 5.113402e+001
1.021202e+003, 5.122613e+001
1.021684e+003, 5.121132e+001
1.022166e+003, 5.124438e+001
1.022648e+003, 5.143757e+001
1.023130e+003, 5.161051e+001
1.023613e+003, 5.143443e+001
1.024095e+003, 5.093906e+001
1.024577e+003, 5.062846e+001
1.025059e+003, 5.051154e+001
1.025541e+003, 5.053881e+001
1.026023e+003, 5.074194e+001
1.026505e+003, 5.090656e+001
1.026987e+003, 5.090034e+001
1.027469e+003, 5.076597e+001
1.027952e+003, 5.055045e+001
1.028434e+003, 5.023942e+001
1.028916e+003, 5.021670e+001
1.029398e+003, 5.062786e+001
1.029880e+003, 5.078947e+001
1.030362e+003, 5.046705e+001
1.030844e+003, 5.013033e+001
1.031326e+003, 5.010902e+001
1.031809e+003, 5.024720e+001
1.032291e+003, 5.022171e+001
1.032773e+003, 5.000664e+001
1.033255e+003, 4.985689e+001
1.033737e+003, 4.982188e+001
1.034219e+003, 4.973399e+001
1.034701e+003, 4.945404e+001
1.035183e+003, 4.928343e+001
1.035666e+003, 4.949104e+001
1.036148e+003, 4.990302e+001
1.036630e+003, 5.016935e+001
1.037112e+003, 5.028716e+001
1.037594e+003, 5.026958e+001
1.038076e+003, 5.000175e+001
1.038558e+003, 4.978023e+001
1.039040e+003, 4.961007e+001
1.039522e+003, 4.954982e+001
1.040005e+003, 4.970146e+001
1.040487e+003, 4.997005e+001
1.040969e+003, 5.017503e+001
1.041451e+003, 5.033297e+001
1.041933e+003, 5.034288e+001
1.042415e+003, 5.004954e+001
1.042897e+003, 4.982399e+001
1.043379e+003, 4.976585e+001
1.043861e+003, 4.976503e+001
1.044344e+003, 4.978701e+001
1.044826e+003, 4.980487e+001
1.045308e+003, 4.976650e+001
1.045790e+003, 4.966248e+001
1.046272e+003, 4.955219e+001
1.046754e+003, 4.934910e+001
1.047236e+003, 4.926991e+001
1.047718e+003, 4.950073e+001
1.048201e+003, 4.974323e+001
1.048683e+003, 4.978301e+001
1.049165e+003, 4.969128e+001
1.049647e+003, 4.960695e+001
1.050129e+003, 4.954364e+001
1.050611e+003, 4.950830e+001
1.051093e+003, 4.951039e+001
1.051575e+003, 4.952876e+001
1.052057e+003, 4.963543e+001
1.052540e+003, 4.967939e+001
1.053022e+003, 4.946213e+001
1.053504e+003, 4.913829e+001
1.053986e+003, 4.901235e+001
1.054468e+003, 4.913157e+001
1.054950e+003, 4.922181e+001
1.055432e+003, 4.922073e+001
1.055914e+003, 4.916608e+001
1.056396e+003, 4.892150e+001
1.056879e+003, 4.877287e+001
1.057361e+003, 4.909369e+001
1.057843e+003, 4.959550e+001
1.058325e+003, 4.970060e+001
1.058807e+003, 4.933372e+001
1.059289e+003, 4.915484e+001
1.059771e+003, 4.975368e+001
1.060253e+003, 5.007053e+001
1.060736e+003, 4.940998e+001
1.061218e+003, 4.860543e+001
1.061700e+003, 4.825492e+001
1.062182e+003, 4.822176e+001
1.062664e+003, 4.825223e+001
1.063146e+003, 4.829014e+001
1.063628e+003, 4.826373e+001
1.064110e+003, 4.801411e+001
1.064593e+003, 4.788430e+001
1.065075e+003, 4.805228e+001
1.065557e+003, 4.835663e+001
1.066039e+003, 4.889993e+001
1.066521e+003, 4.938219e+001
1.067003e+003, 4.921938e+001
1.067485e+003, 4.843356e+001
1.067967e+003, 4.791313e+001
1.068449e+003, 4.812453e+001
1.068932e+003, 4.842162e+001
1.069414e+003, 4.850300e+001
1.069896e+003, 4.857444e+001
1.070378e+003, 4.895001e+001
1.070860e+003, 4.932567e+001
1.071342e+003, 4.914660e+001
1.071824e+003, 4.845971e+001
1.072306e+003, 4.798394e+001
1.072788e+003, 4.804055e+001
1.073271e+003, 4.821003e+001
1.073753e+003, 4.841604e+001
1.074235e+003, 4.854062e+001
1.074717e+003, 4.850149e+001
1.075199e+003, 4.832728e+001
1.075681e+003, 4.793058e+001
1.076163e+003, 4.742063e+001
1.076645e+003, 4.726218e+001
1.077127e+003, 4.773850e+001
1.077610e+003, 4.817237e+001
1.078092e+003, 4.822515e+001
1.078574e+003, 4.815660e+001
1.079056e+003, 4.810317e+001
1.079538e+003, 4.805805e+001
1.080020e+003, 4.799077e+001
1.080502e+003, 4.791199e+001
1.080984e+003, 4.787317e+001
1.081467e+003, 4.790456e+001
1.081949e+003, 4.790370e+001
1.082431e+003, 4.784229e+001
1.082913e+003, 4.771398e+001
1.083395e+003, 4.736087e+001
1.083877e+003, 4.705805e+001
1.084359e+003, 4.722974e+001
1.084841e+003, 4.768649e+001
1.085323e+003, 4.781842e+001
1.085806e+003, 4.742099e+001
1.086288e+003, 4.716478e+001
1.086770e+003, 4.747370e+001
1.087252e+003, 4.781974e+001
1.087734e+003, 4.800182e+001
1.088216e+003, 4.803292e+001
1.088698e+003, 4.783534e+001
1.089180e+003, 4.753347e+001
1.089662e+003, 4.736357e+001
1.090145e+003, 4.737339e+001
1.090627e+003, 4.746215e+001
1.091109e+003, 4.775600e+001
1.091591e+003, 4.790332e+001
1.092073e+003, 4.761144e+001
1.092555e+003, 4.725298e+001
1.093037e+003, 4.705198e+001
1.093519e+003, 4.702716e+001
1.094002e+003, 4.726603e+001
1.094484e+003, 4.773886e+001
1.094966e+003, 4.797514e+001
1.095448e+003, 4.764258e+001
1.095930e+003, 4.732351e+001
1.096412e+003, 4.718843e+001
1.096894e+003, 4.714712e+001
1.097376e+003, 4.723022e+001
1.097859e+003, 4.731644e+001
1.098341e+003, 4.716471e+001
1.098823e+003, 4.682869e+001
1.099305e+003, 4.676686e+001
1.099787e+003, 4.719911e+001
1.100269e+003, 4.767072e+001
1.100751e+003, 4.834957e+001
1.101233e+003, 4.870136e+001
1.101715e+003, 4.820018e+001
1.102198e+003, 4.744210e+001
1.102680e+003, 4.701794e+001
1.103162e+003, 4.690739e+001
1.103644e+003, 4.687095e+001
1.104126e+003, 4.693222e+001
1.104608e+003, 4.687836e+001
1.105090e+003, 4.645400e+001
1.105572e+003, 4.619360e+001
1.106054e+003, 4.641681e+001
1.106537e+003, 4.675209e+001
1.107019e+003, 4.686883e+001
1.107501e+003, 4.686884e+001
1.107983e+003, 4.710057e+001
1.108465e+003, 4.770745e+001
1.108947e+003, 4.786024e+001
1.109429e+003, 4.703098e+001
1.109911e+003, 4.639040e+001
1.110394e+003, 4.630819e+001
1.110876e+003, 4.633596e+001
1.111358e+003, 4.613024e+001
1.111840e+003, 4.589331e+001
1.112322e+003, 4.604585e+001
1.112804e+003, 4.662428e+001
1.113286e+003, 4.687687e+001
1.113768e+003, 4.624683e+001
1.114250e+003, 4.623645e+001
1.114733e+003, 4.781574e+001
1.115215e+003, 4.882744e+001
1.115697e+003, 4.793840e+001
1.116179e+003, 4.641327e+001
1.116661e+003, 4.565807e+001
1.117143e+003, 4.558681e+001
1.117625e+003, 4.555973e+001
1.118107e+003, 4.551052e+001
1.118589e+003, 4.568805e+001
1.119072e+003, 4.631016e+001
1.119554e+003, 4.670957e+001
1.120036e+003, 4.655506e+001
1.120518e+003, 4.631165e+001
1.121000e+003, 4.637716e+001
1.121482e+003, 4.666154e+001
1.121964e+003, 4.692815e+001
1.122446e+003, 4.722161e+001
1.122929e+003, 4.716564e+001
1.123411e+003, 4.656758e+001
1.123893e+003, 4.629649e+001
1.124375e+003, 4.660809e+001
1.124857e+003, 4.709356e+001
1.125339e+003, 4.757544e+001
1.125821e+003, 4.789104e+001
1.126303e+003, 4.769311e+001
1.126786e+003, 4.702515e+001
1.127268e+003, 4.671312e+001
1.127750e+003, 4.679603e+001
1.128232e+003, 4.690625e+001
1.128714e+003, 4.700349e+001
1.129196e+003, 4.707805e+001
1.129678e+003, 4.712809e+001
1.130160e+003, 4.713575e+001
1.130642e+003, 4.707502e+001
1.131125e+003, 4.696394e+001
1.131607e+003, 4.683623e+001
1.132089e+003, 4.670060e+001
1.132571e+003, 4.674439e+001
1.133053e+003, 4.697227e+001
1.133535e+003, 4.716811e+001
1.134017e+003, 4.726572e+001
1.134499e+003, 4.720230e+001
1.134981e+003, 4.691286e+001
1.135464e+003, 4.651873e+001
1.135946e+003, 4.617001e+001
1.136428e+003, 4.591274e+001
1.136910e+003, 4.602418e+001
1.137392e+003, 4.640880e+001
1.137874e+003, 4.654895e+001
1.138356e+003, 4.639486e+001
1.138838e+003, 4.640759e+001
1.139321e+003, 4.682551e+001
1.139803e+003, 4.713330e+001
1.140285e+003, 4.654663e+001
1.140767e+003, 4.566171e+001
1.141249e+003, 4.569724e+001
1.141731e+003, 4.623499e+001
1.142213e+003, 4.631488e+001
1.142695e+003, 4.599578e+001
1.143177e+003, 4.583925e+001
1.143660e+003, 4.602353e+001
1.144142e+003, 4.640767e+001
1.144624e+003, 4.703263e+001
1.145106e+003, 4.748007e+001
1.145588e+003, 4.711639e+001
1.146070e+003, 4.648246e+001
1.146552e+003, 4.621838e+001
1.147034e+003, 4.622791e+001
1.147516e+003, 4.629062e+001
1.147999e+003, 4.634963e+001
1.148481e+003, 4.640258e+001
1.148963e+003, 4.645168e+001
1.149445e+003, 4.647475e+001
1.149927e+003, 4.644051e+001
1.150409e+003, 4.639416e+001
1.150891e+003, 4.636927e+001
1.151373e+003, 4.634837e+001
1.151856e+003, 4.630570e+001
1.152338e+003, 4.625160e+001
1.152820e+003, 4.620127e+001
1.153302e+003, 4.615827e+001
1.153784e+003, 4.617795e+001
1.154266e+003, 4.628796e+001
1.154748e+003, 4.645061e+001
1.155230e+003, 4.676253e+001
1.155713e+003, 4.700372e+001
1.156195e+003, 4.700138e+001
1.156677e+003, 4.687269e+001
1.157159e+003, 4.676137e+001
1.157641e+003, 4.667468e+001
1.158123e+003, 4.658051e+001
1.158605e+003, 4.644736e+001
1.159087e+003, 4.636720e+001
1.159569e+003, 4.634074e+001
1.160052e+003, 4.637851e+001
1.160534e+003, 4.662175e+001
1.161016e+003, 4.676924e+001
1.161498e+003, 4.648040e+001
1.161980e+003, 4.600602e+001
1.162462e+003, 4.590757e+001
1.162944e+003, 4.622197e+001
1.163426e+003, 4.652567e+001
1.163908e+003, 4.687037e+001
1.164391e+003, 4.701508e+001
1.164873e+003, 4.681036e+001
1.165355e+003, 4.678492e+001
1.165837e+003, 4.729340e+001
1.166319e+003, 4.780928e+001
1.166801e+003, 4.767743e+001
1.167283e+003, 4.706663e+001
1.167765e+003, 4.662657e+001
1.168247e+003, 4.635474e+001
1.168730e+003, 4.641235e+001
1.169212e+003, 4.681964e+001
1.169694e+003, 4.699977e+001
1.170176e+003, 4.678925e+001
1.170658e+003, 4.663968e+001
1.171140e+003, 4.688757e+001
1.171622e+003, 4.718105e+001
1.172104e+003, 4.681203e+001
1.172587e+003, 4.608033e+001
1.173069e+003, 4.605205e+001
1.173551e+003, 4.655501e+001
1.174033e+003, 4.701945e+001
1.174515e+003, 4.733458e+001
1.174997e+003, 4.741109e+001
1.175479e+003, 4.722780e+001
1.175961e+003, 4.693129e+001
1.176443e+003, 4.655143e+001
1.176926e+003, 4.632397e+001
1.177408e+003, 4.668970e+001
1.177890e+003, 4.728571e+001
1.178372e+003, 4.770044e+001
1.178854e+003, 4.787605e+001
1.179336e+003, 4.771405e+001
1.179818e+003, 4.727362e+001
1.180300e+003, 4.677179e+001
1.180782e+003, 4.626327e+001
1.181265e+003, 4.599108e+001
1.181747e+003, 4.628343e+001
1.182229e+003, 4.664588e+001
1.182711e+003, 4.680643e+001
1.183193e+003, 4.683776e+001
1.183675e+003, 4.670831e+001
1.184157e+003, 4.655611e+001
1.184639e+003, 4.664956e+001
1.185122e+003, 4.701046e+001
1.185604e+003, 4.730461e+001
1.186086e+003, 4.757483e+001
1.186568e+003, 4.758364e+001
1.187050e+003, 4.696568e+001
1.187532e+003, 4.648423e+001
1.188014e+003, 4.654513e+001
1.188496e+003, 4.681495e+001
1.188979e+003, 4.705914e+001
1.189461e+003, 4.724437e+001
1.189943e+003, 4.726535e+001
1.190425e+003, 4.710701e+001
1.190907e+003, 4.681963e+001
1.191389e+003, 4.613552e+001
1.191871e+003, 4.616698e+001
1.192353e+003, 4.739756e+001
1.192835e+003, 4.846135e+001
1.193318e+003, 4.868679e+001
1.193800e+003, 4.836809e+001
1.194282e+003, 4.777930e+001
1.194764e+003, 4.704451e+001
1.195246e+003, 4.663868e+001
1.195728e+003, 4.655779e+001
1.196210e+003, 4.682586e+001
1.196692e+003, 4.741656e+001
1.197174e+003, 4.782173e+001
1.197657e+003, 4.791493e+001
1.198139e+003, 4.782801e+001
1.198621e+003, 4.763058e+001
1.199103e+003, 4.745946e+001
1.199585e+003, 4.750421e+001
1.200067e+003, 4.769652e+001
1.200549e+003, 4.801434e+001
1.201031e+003, 4.832551e+001
1.201514e+003, 4.831292e+001
1.201996e+003, 4.802187e+001
1.202478e+003, 4.757809e+001
1.202960e+003, 4.708607e+001
1.203442e+003, 4.695483e+001
1.203924e+003, 4.757714e+001
1.204406e+003, 4.815431e+001
1.204888e+003, 4.787463e+001
1.205370e+003, 4.752129e+001
1.205853e+003, 4.788590e+001
1.206335e+003, 4.845149e+001
1.206817e+003, 4.853817e+001
1.207299e+003, 4.826031e+001
1.207781e+003, 4.808221e+001
1.208263e+003, 4.809666e+001
1.208745e+003, 4.817284e+001
1.209227e+003, 4.843562e+001
1.209709e+003, 4.852263e+001
1.210192e+003, 4.816536e+001
1.210674e+003, 4.784426e+001
1.211156e+003, 4.774921e+001
1.211638e+003, 4.785461e+001
1.212120e+003, 4.828232e+001
1.212602e+003, 4.886210e+001
1.213084e+003, 4.889470e+001
1.213566e+003, 4.820522e+001
1.214049e+003, 4.784998e+001
1.214531e+003, 4.787861e+001
1.215013e+003, 4.809276e+001
1.215495e+003, 4.852679e+001
1.215977e+003, 4.880401e+001
1.216459e+003, 4.872694e+001
1.216941e+003, 4.835107e+001
1.217423e+003, 4.762602e+001
1.217906e+003, 4.685317e+001
1.218388e+003, 4.722153e+001
1.218870e+003, 4.841129e+001
1.219352e+003, 4.872140e+001
1.219834e+003, 4.823339e+001
1.220316e+003, 4.789161e+001
1.220798e+003, 4.788472e+001
1.221280e+003, 4.778888e+001
1.221762e+003, 4.736550e+001
1.222245e+003, 4.702230e+001
1.222727e+003, 4.721129e+001
1.223209e+003, 4.765353e+001
1.223691e+003, 4.824816e+001
1.224173e+003, 4.873426e+001
1.224655e+003, 4.860793e+001
1.225137e+003, 4.816508e+001
1.225619e+003, 4.808183e+001
1.226101e+003, 4.839089e+001
1.226584e+003, 4.845318e+001
1.227066e+003, 4.784989e+001
1.227548e+003, 4.757929e+001
1.228030e+003, 4.844326e+001
1.228512e+003, 4.910300e+001
1.228994e+003, 4.877497e+001
1.229476e+003, 4.824500e+001
1.229958e+003, 4.812590e+001
1.230441e+003, 4.823677e+001
1.230923e+003, 4.820924e+001
1.231405e+003, 4.805081e+001
1.231887e+003, 4.803219e+001
1.232369e+003, 4.819701e+001
1.232851e+003, 4.835422e+001
1.233333e+003, 4.845527e+001
1.233815e+003, 4.871032e+001
1.234297e+003, 4.921115e+001
1.234780e+003, 4.980033e+001
1.235262e+003, 5.042580e+001
1.235744e+003, 5.081258e+001
1.236226e+003, 5.033667e+001
1.236708e+003, 4.929547e+001
1.237190e+003, 4.897645e+001
1.237672e+003, 4.923171e+001
1.238154e+003, 4.946987e+001
1.238636e+003, 4.960594e+001
1.239119e+003, 4.959011e+001
1.239601e+003, 4.942664e+001
1.240083e+003, 4.921365e+001
1.240565e+003, 4.897708e+001
1.241047e+003, 4.890593e+001
1.241529e+003, 4.944598e+001
1.242011e+003, 4.996267e+001
1.242493e+003, 4.964028e+001
1.242975e+003, 4.908016e+001
1.243458e+003, 4.911641e+001
1.243940e+003, 4.950620e+001
1.244422e+003, 4.952359e+001
1.244904e+003, 4.908867e+001
1.245386e+003, 4.887083e+001
1.245868e+003, 4.910477e+001
1.246350e+003, 4.945343e+001
1.246832e+003, 5.007340e+001
1.247315e+003, 5.050970e+001
1.247797e+003, 5.053677e+001
1.248279e+003, 5.041491e+001
1.248761e+003, 5.027362e+001
1.249243e+003, 5.015153e+001
1.249725e+003, 5.013418e+001
1.250207e+003, 5.021040e+001
1.250689e+003, 5.015629e+001
1.251172e+003, 4.993845e+001
1.251654e+003, 5.001180e+001
1.252136e+003, 5.042668e+001
1.252618e+003, 5.062543e+001
1.253100e+003, 5.044193e+001
1.253582e+003, 5.025073e+001
1.254064e+003, 5.031359e+001
1.254546e+003, 5.045860e+001
1.255028e+003, 5.046059e+001
1.255510e+003, 5.037116e+001
1.255993e+003, 5.027510e+001
1.256475e+003, 5.016650e+001
1.256957e+003, 4.996147e+001
1.257439e+003, 4.975787e+001
1.257921e+003, 4.984628e+001
1.258403e+003, 5.022231e+001
1.258885e+003, 5.048883e+001
1.259367e+003, 5.043048e+001
1.259850e+003, 5.042603e+001
1.260332e+003, 5.075600e+001
1.260814e+003, 5.104338e+001
1.261296e+003, 5.101991e+001
1.261778e+003, 5.097770e+001
1.262260e+003, 5.119514e+001
1.262742e+003, 5.151337e+001
1.263224e+003, 5.168259e+001
1.263707e+003, 5.170873e+001
1.264189e+003, 5.162417e+001
1.264671e+003, 5.132372e+001
1.265153e+003, 5.130071e+001
1.265635e+003, 5.164159e+001
1.266117e+003, 5.188716e+001
1.266599e+003, 5.193573e+001
1.267081e+003, 5.183513e+001
1.267563e+003, 5.158701e+001
1.268046e+003, 5.144133e+001
1.268528e+003, 5.175943e+001
1.269010e+003, 5.227462e+001
1.269492e+003, 5.225838e+001
1.269974e+003, 5.199360e+001
1.270456e+003, 5.231911e+001
1.270938e+003, 5.299983e+001
1.271420e+003, 5.328776e+001
1.271902e+003, 5.313181e+001
1.272385e+003, 5.287772e+001
1.272867e+003, 5.265704e+001
1.273349e+003, 5.262929e+001
1.273831e+003, 5.310479e+001
1.274313e+003, 5.349652e+001
1.274795e+003, 5.341260e+001
1.275277e+003, 5.326101e+001
1.275759e+003, 5.340123e+001
1.276242e+003, 5.355394e+001
1.276724e+003, 5.319855e+001
1.277206e+003, 5.260830e+001
1.277688e+003, 5.277676e+001
1.278170e+003, 5.385453e+001
1.278652e+003, 5.424453e+001
1.279134e+003, 5.365670e+001
1.279616e+003, 5.348661e+001
1.280099e+003, 5.398429e+001
1.280581e+003, 5.430323e+001
1.281063e+003, 5.410978e+001
1.281545e+003, 5.394350e+001
1.282027e+003, 5.426201e+001
1.282509e+003, 5.468484e+001
1.282991e+003, 5.452766e+001
1.283473e+003, 5.400955e+001
1.283955e+003, 5.361044e+001
##END=



