##NAMES=Ilvaite
##RRUFFID=R050040
##IDEAL CHEMISTRY=CaFe^2+^_2_Fe^3+^OSi_2_O_7_(OH)
##LOCALITY=Capo Calamita, Isle of Elba, Italy
##OWNER=RRUFF
##SOURCE=University of Arizona Mineral Museum
##DESCRIPTION=Brown fragment
##STATUS=The identification of this mineral has been confirmed by X-ray diffraction and chemical analysis
##URL=rruff.info/R050040
##MEASURED CHEMISTRY=Ca_1.00_(Fe^2+^_1.89_Mn_0.10_Mg_0.01_)_Î£=2_Fe^3+^_1.00_OSi_2.00_O_7_(OH); trace amounts of Al; OH estimated by charge balance
8.936163e+001, 0.000000e+000
8.984375e+001, 5.034902e+001
9.032587e+001, 5.100607e+001
9.080798e+001, 5.111742e+001
9.129010e+001, 5.041994e+001
9.177222e+001, 4.948383e+001
9.225433e+001, 4.908892e+001
9.273645e+001, 4.918507e+001
9.321857e+001, 4.924937e+001
9.370068e+001, 4.881670e+001
9.418280e+001, 4.799023e+001
9.466492e+001, 4.709044e+001
9.514703e+001, 4.608028e+001
9.562915e+001, 4.509575e+001
9.611127e+001, 4.461139e+001
9.659338e+001, 4.471493e+001
9.707550e+001, 4.489367e+001
9.755762e+001, 4.444313e+001
9.803973e+001, 4.334785e+001
9.852185e+001, 4.230614e+001
9.900397e+001, 4.157085e+001
9.948608e+001, 4.114324e+001
9.996820e+001, 4.096011e+001
1.004503e+002, 4.113920e+001
1.009324e+002, 4.142350e+001
1.014146e+002, 4.123300e+001
1.018967e+002, 4.042821e+001
1.023788e+002, 3.954219e+001
1.028609e+002, 3.883799e+001
1.033430e+002, 3.836229e+001
1.038251e+002, 3.793645e+001
1.043073e+002, 3.753990e+001
1.047894e+002, 3.718479e+001
1.052715e+002, 3.696315e+001
1.057536e+002, 3.704394e+001
1.062357e+002, 3.707039e+001
1.067178e+002, 3.676946e+001
1.072000e+002, 3.580827e+001
1.076821e+002, 3.500652e+001
1.081642e+002, 3.449585e+001
1.086463e+002, 3.429360e+001
1.091284e+002, 3.414288e+001
1.096105e+002, 3.414622e+001
1.100927e+002, 3.415626e+001
1.105748e+002, 3.403616e+001
1.110569e+002, 3.361396e+001
1.115390e+002, 3.322129e+001
1.120211e+002, 3.294753e+001
1.125032e+002, 3.283326e+001
1.129854e+002, 3.270061e+001
1.134675e+002, 3.257660e+001
1.139496e+002, 3.241216e+001
1.144317e+002, 3.213340e+001
1.149138e+002, 3.153604e+001
1.153959e+002, 3.096084e+001
1.158781e+002, 3.058240e+001
1.163602e+002, 3.051712e+001
1.168423e+002, 3.044968e+001
1.173244e+002, 3.023396e+001
1.178065e+002, 2.992656e+001
1.182886e+002, 2.967150e+001
1.187708e+002, 2.971058e+001
1.192529e+002, 2.973455e+001
1.197350e+002, 2.947877e+001
1.202171e+002, 2.864808e+001
1.206992e+002, 2.779334e+001
1.211813e+002, 2.724757e+001
1.216635e+002, 2.698261e+001
1.221456e+002, 2.686333e+001
1.226277e+002, 2.699739e+001
1.231098e+002, 2.718321e+001
1.235919e+002, 2.715021e+001
1.240740e+002, 2.659311e+001
1.245562e+002, 2.589957e+001
1.250383e+002, 2.549959e+001
1.255204e+002, 2.538927e+001
1.260025e+002, 2.535243e+001
1.264846e+002, 2.520847e+001
1.269667e+002, 2.499335e+001
1.274489e+002, 2.479697e+001
1.279310e+002, 2.467000e+001
1.284131e+002, 2.458609e+001
1.288952e+002, 2.452207e+001
1.293773e+002, 2.449303e+001
1.298594e+002, 2.440451e+001
1.303416e+002, 2.403664e+001
1.308237e+002, 2.344117e+001
1.313058e+002, 2.297045e+001
1.317879e+002, 2.289552e+001
1.322700e+002, 2.313401e+001
1.327521e+002, 2.328039e+001
1.332343e+002, 2.328949e+001
1.337164e+002, 2.322183e+001
1.341985e+002, 2.321603e+001
1.346806e+002, 2.328239e+001
1.351627e+002, 2.327371e+001
1.356448e+002, 2.304423e+001
1.361270e+002, 2.258877e+001
1.366091e+002, 2.223264e+001
1.370912e+002, 2.206286e+001
1.375733e+002, 2.199729e+001
1.380554e+002, 2.167326e+001
1.385375e+002, 2.097168e+001
1.390197e+002, 2.035721e+001
1.395018e+002, 2.028000e+001
1.399839e+002, 2.091119e+001
1.404660e+002, 2.132361e+001
1.409481e+002, 2.129897e+001
1.414302e+002, 2.087689e+001
1.419124e+002, 2.058569e+001
1.423945e+002, 2.045869e+001
1.428766e+002, 2.041679e+001
1.433587e+002, 2.040787e+001
1.438408e+002, 2.050842e+001
1.443229e+002, 2.048273e+001
1.448051e+002, 2.025550e+001
1.452872e+002, 1.979268e+001
1.457693e+002, 1.935306e+001
1.462514e+002, 1.889746e+001
1.467335e+002, 1.848334e+001
1.472156e+002, 1.816887e+001
1.476978e+002, 1.788307e+001
1.481799e+002, 1.779141e+001
1.486620e+002, 1.800387e+001
1.491441e+002, 1.873939e+001
1.496262e+002, 1.917728e+001
1.501083e+002, 1.911806e+001
1.505905e+002, 1.878853e+001
1.510726e+002, 1.858377e+001
1.515547e+002, 1.873495e+001
1.520368e+002, 1.881361e+001
1.525189e+002, 1.866656e+001
1.530010e+002, 1.807156e+001
1.534832e+002, 1.763482e+001
1.539653e+002, 1.744456e+001
1.544474e+002, 1.744128e+001
1.549295e+002, 1.748215e+001
1.554116e+002, 1.761430e+001
1.558937e+002, 1.773994e+001
1.563759e+002, 1.777689e+001
1.568580e+002, 1.717769e+001
1.573401e+002, 1.721341e+001
1.578222e+002, 1.877192e+001
1.583043e+002, 2.134362e+001
1.587864e+002, 2.304957e+001
1.592686e+002, 2.265333e+001
1.597507e+002, 2.165574e+001
1.602328e+002, 2.101155e+001
1.607149e+002, 2.100925e+001
1.611970e+002, 2.132574e+001
1.616791e+002, 2.188391e+001
1.621613e+002, 2.267622e+001
1.626434e+002, 2.371156e+001
1.631255e+002, 2.493176e+001
1.636076e+002, 2.641663e+001
1.640897e+002, 2.823727e+001
1.645718e+002, 3.061453e+001
1.650540e+002, 3.316942e+001
1.655361e+002, 3.569091e+001
1.660182e+002, 3.819638e+001
1.665003e+002, 4.085160e+001
1.669824e+002, 4.380615e+001
1.674645e+002, 4.698242e+001
1.679467e+002, 5.024155e+001
1.684288e+002, 5.364115e+001
1.689109e+002, 5.706232e+001
1.693930e+002, 6.045253e+001
1.698751e+002, 6.382681e+001
1.703572e+002, 6.707927e+001
1.708394e+002, 7.005926e+001
1.713215e+002, 7.291828e+001
1.718036e+002, 7.586467e+001
1.722857e+002, 7.930591e+001
1.727678e+002, 8.274522e+001
1.732499e+002, 8.557100e+001
1.737321e+002, 8.769235e+001
1.742142e+002, 8.975889e+001
1.746963e+002, 9.256570e+001
1.751784e+002, 9.580765e+001
1.756605e+002, 9.877393e+001
1.761426e+002, 1.007247e+002
1.766248e+002, 1.022867e+002
1.771069e+002, 1.043256e+002
1.775890e+002, 1.069840e+002
1.780711e+002, 1.098812e+002
1.785532e+002, 1.126892e+002
1.790353e+002, 1.154348e+002
1.795175e+002, 1.181037e+002
1.799996e+002, 1.205795e+002
1.804817e+002, 1.230021e+002
1.809638e+002, 1.256985e+002
1.814459e+002, 1.287342e+002
1.819280e+002, 1.319961e+002
1.824102e+002, 1.354580e+002
1.828923e+002, 1.390495e+002
1.833744e+002, 1.427421e+002
1.838565e+002, 1.465574e+002
1.843386e+002, 1.504480e+002
1.848207e+002, 1.540659e+002
1.853029e+002, 1.572498e+002
1.857850e+002, 1.604241e+002
1.862671e+002, 1.646442e+002
1.867492e+002, 1.698348e+002
1.872313e+002, 1.747903e+002
1.877134e+002, 1.783506e+002
1.881956e+002, 1.808629e+002
1.886777e+002, 1.838695e+002
1.891598e+002, 1.878225e+002
1.896419e+002, 1.922056e+002
1.901240e+002, 1.958907e+002
1.906061e+002, 1.988986e+002
1.910883e+002, 2.017402e+002
1.915704e+002, 2.049201e+002
1.920525e+002, 2.084063e+002
1.925346e+002, 2.116192e+002
1.930167e+002, 2.145014e+002
1.934988e+002, 2.168621e+002
1.939810e+002, 2.176141e+002
1.944631e+002, 2.164680e+002
1.949452e+002, 2.153576e+002
1.954273e+002, 2.151475e+002
1.959094e+002, 2.158047e+002
1.963915e+002, 2.160503e+002
1.968737e+002, 2.155602e+002
1.973558e+002, 2.145391e+002
1.978379e+002, 2.137068e+002
1.983200e+002, 2.131291e+002
1.988021e+002, 2.124799e+002
1.992842e+002, 2.113626e+002
1.997664e+002, 2.097395e+002
2.002485e+002, 2.083968e+002
2.007306e+002, 2.074813e+002
2.012127e+002, 2.069650e+002
2.016948e+002, 2.067868e+002
2.021769e+002, 2.070728e+002
2.026591e+002, 2.073182e+002
2.031412e+002, 2.069657e+002
2.036233e+002, 2.059314e+002
2.041054e+002, 2.049568e+002
2.045875e+002, 2.041161e+002
2.050696e+002, 2.034379e+002
2.055518e+002, 2.034026e+002
2.060339e+002, 2.042862e+002
2.065160e+002, 2.051776e+002
2.069981e+002, 2.049420e+002
2.074802e+002, 2.032611e+002
2.079623e+002, 2.019713e+002
2.084445e+002, 2.016068e+002
2.089266e+002, 2.021173e+002
2.094087e+002, 2.024108e+002
2.098908e+002, 2.024694e+002
2.103729e+002, 2.023518e+002
2.108550e+002, 2.021206e+002
2.113372e+002, 2.017877e+002
2.118193e+002, 2.013025e+002
2.123014e+002, 2.005754e+002
2.127835e+002, 1.996111e+002
2.132656e+002, 1.989041e+002
2.137477e+002, 1.985061e+002
2.142299e+002, 1.982832e+002
2.147120e+002, 1.981400e+002
2.151941e+002, 1.981845e+002
2.156762e+002, 1.979985e+002
2.161583e+002, 1.974474e+002
2.166404e+002, 1.965224e+002
2.171226e+002, 1.954433e+002
2.176047e+002, 1.939960e+002
2.180868e+002, 1.926417e+002
2.185689e+002, 1.920145e+002
2.190510e+002, 1.924858e+002
2.195331e+002, 1.927950e+002
2.200153e+002, 1.925447e+002
2.204974e+002, 1.916544e+002
2.209795e+002, 1.911310e+002
2.214616e+002, 1.911033e+002
2.219437e+002, 1.913044e+002
2.224258e+002, 1.914643e+002
2.229080e+002, 1.917394e+002
2.233901e+002, 1.916277e+002
2.238722e+002, 1.908436e+002
2.243543e+002, 1.892370e+002
2.248364e+002, 1.882349e+002
2.253185e+002, 1.881208e+002
2.258007e+002, 1.883480e+002
2.262828e+002, 1.881756e+002
2.267649e+002, 1.872694e+002
2.272470e+002, 1.866276e+002
2.277291e+002, 1.866861e+002
2.282112e+002, 1.876279e+002
2.286934e+002, 1.877765e+002
2.291755e+002, 1.867174e+002
2.296576e+002, 1.852290e+002
2.301397e+002, 1.843877e+002
2.306218e+002, 1.846349e+002
2.311039e+002, 1.846974e+002
2.315861e+002, 1.841900e+002
2.320682e+002, 1.829977e+002
2.325503e+002, 1.820164e+002
2.330324e+002, 1.812519e+002
2.335145e+002, 1.807005e+002
2.339966e+002, 1.804091e+002
2.344788e+002, 1.806664e+002
2.349609e+002, 1.806732e+002
2.354430e+002, 1.801476e+002
2.359251e+002, 1.789845e+002
2.364072e+002, 1.780304e+002
2.368893e+002, 1.773093e+002
2.373715e+002, 1.767721e+002
2.378536e+002, 1.763761e+002
2.383357e+002, 1.761911e+002
2.388178e+002, 1.760055e+002
2.392999e+002, 1.757253e+002
2.397820e+002, 1.753095e+002
2.402642e+002, 1.751431e+002
2.407463e+002, 1.754805e+002
2.412284e+002, 1.758467e+002
2.417105e+002, 1.755827e+002
2.421926e+002, 1.741682e+002
2.426747e+002, 1.730696e+002
2.431569e+002, 1.727213e+002
2.436390e+002, 1.732257e+002
2.441211e+002, 1.736532e+002
2.446032e+002, 1.741169e+002
2.450853e+002, 1.744094e+002
2.455674e+002, 1.742608e+002
2.460496e+002, 1.734728e+002
2.465317e+002, 1.726061e+002
2.470138e+002, 1.717221e+002
2.474959e+002, 1.707957e+002
2.479780e+002, 1.701586e+002
2.484601e+002, 1.699357e+002
2.489423e+002, 1.698778e+002
2.494244e+002, 1.696979e+002
2.499065e+002, 1.692814e+002
2.503886e+002, 1.689814e+002
2.508707e+002, 1.689061e+002
2.513528e+002, 1.690689e+002
2.518350e+002, 1.691866e+002
2.523171e+002, 1.692366e+002
2.527992e+002, 1.692642e+002
2.532813e+002, 1.693365e+002
2.537634e+002, 1.695415e+002
2.542455e+002, 1.695788e+002
2.547277e+002, 1.692750e+002
2.552098e+002, 1.686152e+002
2.556919e+002, 1.684166e+002
2.561740e+002, 1.689138e+002
2.566561e+002, 1.695713e+002
2.571382e+002, 1.698696e+002
2.576204e+002, 1.696932e+002
2.581025e+002, 1.694325e+002
2.585846e+002, 1.691190e+002
2.590667e+002, 1.687583e+002
2.595488e+002, 1.685253e+002
2.600309e+002, 1.684606e+002
2.605131e+002, 1.684724e+002
2.609952e+002, 1.684777e+002
2.614773e+002, 1.684518e+002
2.619594e+002, 1.684990e+002
2.624415e+002, 1.686595e+002
2.629236e+002, 1.689223e+002
2.634058e+002, 1.691579e+002
2.638879e+002, 1.693997e+002
2.643700e+002, 1.695665e+002
2.648521e+002, 1.695811e+002
2.653342e+002, 1.693999e+002
2.658163e+002, 1.692158e+002
2.662985e+002, 1.690580e+002
2.667806e+002, 1.689205e+002
2.672627e+002, 1.687274e+002
2.677448e+002, 1.683916e+002
2.682269e+002, 1.681826e+002
2.687090e+002, 1.683591e+002
2.691912e+002, 1.690424e+002
2.696733e+002, 1.695866e+002
2.701554e+002, 1.698827e+002
2.706375e+002, 1.699891e+002
2.711196e+002, 1.701589e+002
2.716017e+002, 1.704503e+002
2.720839e+002, 1.706404e+002
2.725660e+002, 1.705042e+002
2.730481e+002, 1.699629e+002
2.735302e+002, 1.696450e+002
2.740123e+002, 1.697103e+002
2.744944e+002, 1.699720e+002
2.749766e+002, 1.698142e+002
2.754587e+002, 1.691251e+002
2.759408e+002, 1.684617e+002
2.764229e+002, 1.682444e+002
2.769050e+002, 1.685219e+002
2.773871e+002, 1.685960e+002
2.778693e+002, 1.683533e+002
2.783514e+002, 1.679581e+002
2.788335e+002, 1.677896e+002
2.793156e+002, 1.678771e+002
2.797977e+002, 1.680090e+002
2.802798e+002, 1.680991e+002
2.807620e+002, 1.681469e+002
2.812441e+002, 1.681050e+002
2.817262e+002, 1.679828e+002
2.822083e+002, 1.677460e+002
2.826904e+002, 1.672644e+002
2.831725e+002, 1.665157e+002
2.836547e+002, 1.658240e+002
2.841368e+002, 1.653712e+002
2.846189e+002, 1.651410e+002
2.851010e+002, 1.649089e+002
2.855831e+002, 1.646768e+002
2.860652e+002, 1.644230e+002
2.865474e+002, 1.640364e+002
2.870295e+002, 1.635235e+002
2.875116e+002, 1.631991e+002
2.879937e+002, 1.633121e+002
2.884758e+002, 1.637740e+002
2.889579e+002, 1.641086e+002
2.894401e+002, 1.643415e+002
2.899222e+002, 1.643555e+002
2.904043e+002, 1.637468e+002
2.908864e+002, 1.626307e+002
2.913685e+002, 1.619559e+002
2.918506e+002, 1.624492e+002
2.923328e+002, 1.636118e+002
2.928149e+002, 1.638375e+002
2.932970e+002, 1.630676e+002
2.937791e+002, 1.621145e+002
2.942612e+002, 1.617957e+002
2.947433e+002, 1.620031e+002
2.952255e+002, 1.623564e+002
2.957076e+002, 1.629847e+002
2.961897e+002, 1.635366e+002
2.966718e+002, 1.630152e+002
2.971539e+002, 1.614544e+002
2.976360e+002, 1.600471e+002
2.981182e+002, 1.601015e+002
2.986003e+002, 1.611100e+002
2.990824e+002, 1.617897e+002
2.995645e+002, 1.616789e+002
3.000466e+002, 1.612036e+002
3.005287e+002, 1.609117e+002
3.010109e+002, 1.607912e+002
3.014930e+002, 1.607505e+002
3.019751e+002, 1.607791e+002
3.024572e+002, 1.608350e+002
3.029393e+002, 1.608424e+002
3.034214e+002, 1.607698e+002
3.039036e+002, 1.606743e+002
3.043857e+002, 1.605912e+002
3.048678e+002, 1.605306e+002
3.053499e+002, 1.605261e+002
3.058320e+002, 1.606516e+002
3.063141e+002, 1.608263e+002
3.067963e+002, 1.609213e+002
3.072784e+002, 1.608650e+002
3.077605e+002, 1.608809e+002
3.082426e+002, 1.612054e+002
3.087247e+002, 1.617487e+002
3.092068e+002, 1.622963e+002
3.096890e+002, 1.629536e+002
3.101711e+002, 1.634405e+002
3.106532e+002, 1.633728e+002
3.111353e+002, 1.625831e+002
3.116174e+002, 1.619036e+002
3.120995e+002, 1.619277e+002
3.125817e+002, 1.624076e+002
3.130638e+002, 1.629411e+002
3.135459e+002, 1.634715e+002
3.140280e+002, 1.639290e+002
3.145101e+002, 1.642199e+002
3.149922e+002, 1.643243e+002
3.154744e+002, 1.645094e+002
3.159565e+002, 1.649055e+002
3.164386e+002, 1.654552e+002
3.169207e+002, 1.660863e+002
3.174028e+002, 1.671864e+002
3.178849e+002, 1.680009e+002
3.183671e+002, 1.680702e+002
3.188492e+002, 1.674311e+002
3.193313e+002, 1.668766e+002
3.198134e+002, 1.664192e+002
3.202955e+002, 1.662830e+002
3.207776e+002, 1.666474e+002
3.212598e+002, 1.681312e+002
3.217419e+002, 1.694971e+002
3.222240e+002, 1.704514e+002
3.227061e+002, 1.710386e+002
3.231882e+002, 1.715101e+002
3.236703e+002, 1.719426e+002
3.241525e+002, 1.722501e+002
3.246346e+002, 1.723763e+002
3.251167e+002, 1.721705e+002
3.255988e+002, 1.719849e+002
3.260809e+002, 1.717880e+002
3.265630e+002, 1.716285e+002
3.270452e+002, 1.716390e+002
3.275273e+002, 1.721226e+002
3.280094e+002, 1.725255e+002
3.284915e+002, 1.726487e+002
3.289736e+002, 1.723883e+002
3.294557e+002, 1.720774e+002
3.299379e+002, 1.716591e+002
3.304200e+002, 1.712064e+002
3.309021e+002, 1.708446e+002
3.313842e+002, 1.706360e+002
3.318663e+002, 1.704288e+002
3.323484e+002, 1.701929e+002
3.328306e+002, 1.699395e+002
3.333127e+002, 1.695915e+002
3.337948e+002, 1.690759e+002
3.342769e+002, 1.685268e+002
3.347590e+002, 1.681524e+002
3.352411e+002, 1.681823e+002
3.357233e+002, 1.678513e+002
3.362054e+002, 1.668848e+002
3.366875e+002, 1.653310e+002
3.371696e+002, 1.640710e+002
3.376517e+002, 1.631032e+002
3.381339e+002, 1.624388e+002
3.386160e+002, 1.621997e+002
3.390981e+002, 1.625090e+002
3.395802e+002, 1.626255e+002
3.400623e+002, 1.624339e+002
3.405444e+002, 1.619778e+002
3.410266e+002, 1.613871e+002
3.415087e+002, 1.606279e+002
3.419908e+002, 1.598486e+002
3.424729e+002, 1.591154e+002
3.429550e+002, 1.584324e+002
3.434371e+002, 1.577811e+002
3.439193e+002, 1.571324e+002
3.444014e+002, 1.565730e+002
3.448835e+002, 1.563991e+002
3.453656e+002, 1.566067e+002
3.458477e+002, 1.566383e+002
3.463298e+002, 1.560471e+002
3.468120e+002, 1.550094e+002
3.472941e+002, 1.543657e+002
3.477762e+002, 1.541831e+002
3.482583e+002, 1.541148e+002
3.487404e+002, 1.537965e+002
3.492225e+002, 1.532502e+002
3.497047e+002, 1.525521e+002
3.501868e+002, 1.515109e+002
3.506689e+002, 1.504381e+002
3.511510e+002, 1.499887e+002
3.516331e+002, 1.501532e+002
3.521152e+002, 1.503640e+002
3.525974e+002, 1.500876e+002
3.530795e+002, 1.495296e+002
3.535616e+002, 1.490822e+002
3.540437e+002, 1.489268e+002
3.545258e+002, 1.488298e+002
3.550079e+002, 1.485250e+002
3.554901e+002, 1.480566e+002
3.559722e+002, 1.476166e+002
3.564543e+002, 1.474648e+002
3.569364e+002, 1.473368e+002
3.574185e+002, 1.468832e+002
3.579006e+002, 1.458682e+002
3.583828e+002, 1.450038e+002
3.588649e+002, 1.448435e+002
3.593470e+002, 1.451502e+002
3.598291e+002, 1.454396e+002
3.603112e+002, 1.457018e+002
3.607933e+002, 1.457317e+002
3.612755e+002, 1.452384e+002
3.617576e+002, 1.440798e+002
3.622397e+002, 1.432657e+002
3.627218e+002, 1.435442e+002
3.632039e+002, 1.442383e+002
3.636860e+002, 1.445926e+002
3.641682e+002, 1.442236e+002
3.646503e+002, 1.436646e+002
3.651324e+002, 1.430009e+002
3.656145e+002, 1.422417e+002
3.660966e+002, 1.416023e+002
3.665787e+002, 1.410384e+002
3.670609e+002, 1.406558e+002
3.675430e+002, 1.405221e+002
3.680251e+002, 1.409644e+002
3.685072e+002, 1.412790e+002
3.689893e+002, 1.414524e+002
3.694714e+002, 1.414707e+002
3.699536e+002, 1.412556e+002
3.704357e+002, 1.405261e+002
3.709178e+002, 1.398584e+002
3.713999e+002, 1.394901e+002
3.718820e+002, 1.395095e+002
3.723641e+002, 1.396209e+002
3.728463e+002, 1.399943e+002
3.733284e+002, 1.403464e+002
3.738105e+002, 1.401822e+002
3.742926e+002, 1.392426e+002
3.747747e+002, 1.383603e+002
3.752568e+002, 1.377517e+002
3.757390e+002, 1.374160e+002
3.762211e+002, 1.372421e+002
3.767032e+002, 1.372678e+002
3.771853e+002, 1.373690e+002
3.776674e+002, 1.374441e+002
3.781495e+002, 1.374953e+002
3.786317e+002, 1.375066e+002
3.791138e+002, 1.375172e+002
3.795959e+002, 1.374616e+002
3.800780e+002, 1.370326e+002
3.805601e+002, 1.361929e+002
3.810422e+002, 1.354277e+002
3.815244e+002, 1.351625e+002
3.820065e+002, 1.352980e+002
3.824886e+002, 1.352734e+002
3.829707e+002, 1.349990e+002
3.834528e+002, 1.346536e+002
3.839349e+002, 1.344908e+002
3.844171e+002, 1.344863e+002
3.848992e+002, 1.345013e+002
3.853813e+002, 1.345123e+002
3.858634e+002, 1.344852e+002
3.863455e+002, 1.343136e+002
3.868276e+002, 1.339865e+002
3.873098e+002, 1.336999e+002
3.877919e+002, 1.335904e+002
3.882740e+002, 1.336392e+002
3.887561e+002, 1.338295e+002
3.892382e+002, 1.344216e+002
3.897203e+002, 1.348888e+002
3.902025e+002, 1.345702e+002
3.906846e+002, 1.336425e+002
3.911667e+002, 1.329374e+002
3.916488e+002, 1.332041e+002
3.921309e+002, 1.337442e+002
3.926130e+002, 1.339488e+002
3.930952e+002, 1.335533e+002
3.935773e+002, 1.331336e+002
3.940594e+002, 1.329037e+002
3.945415e+002, 1.328214e+002
3.950236e+002, 1.328079e+002
3.955057e+002, 1.329820e+002
3.959879e+002, 1.330983e+002
3.964700e+002, 1.330086e+002
3.969521e+002, 1.326537e+002
3.974342e+002, 1.324277e+002
3.979163e+002, 1.325289e+002
3.983984e+002, 1.327214e+002
3.988806e+002, 1.327899e+002
3.993627e+002, 1.325145e+002
3.998448e+002, 1.323524e+002
4.003269e+002, 1.324281e+002
4.008090e+002, 1.326961e+002
4.012911e+002, 1.328088e+002
4.017733e+002, 1.326721e+002
4.022554e+002, 1.324927e+002
4.027375e+002, 1.323764e+002
4.032196e+002, 1.323483e+002
4.037017e+002, 1.323231e+002
4.041838e+002, 1.323042e+002
4.046660e+002, 1.322855e+002
4.051481e+002, 1.322525e+002
4.056302e+002, 1.321985e+002
4.061123e+002, 1.321492e+002
4.065944e+002, 1.320559e+002
4.070765e+002, 1.319340e+002
4.075587e+002, 1.322324e+002
4.080408e+002, 1.330867e+002
4.085229e+002, 1.338492e+002
4.090050e+002, 1.335708e+002
4.094871e+002, 1.323556e+002
4.099692e+002, 1.317907e+002
4.104514e+002, 1.325003e+002
4.109335e+002, 1.337365e+002
4.114156e+002, 1.338096e+002
4.118977e+002, 1.328130e+002
4.123798e+002, 1.318471e+002
4.128619e+002, 1.317276e+002
4.133441e+002, 1.321463e+002
4.138262e+002, 1.325653e+002
4.143083e+002, 1.329581e+002
4.147904e+002, 1.331967e+002
4.152725e+002, 1.330016e+002
4.157546e+002, 1.325677e+002
4.162368e+002, 1.322938e+002
4.167189e+002, 1.325952e+002
4.172010e+002, 1.329638e+002
4.176831e+002, 1.328962e+002
4.181652e+002, 1.324205e+002
4.186473e+002, 1.320984e+002
4.191295e+002, 1.324072e+002
4.196116e+002, 1.329226e+002
4.200937e+002, 1.332513e+002
4.205758e+002, 1.331030e+002
4.210579e+002, 1.330458e+002
4.215400e+002, 1.334520e+002
4.220222e+002, 1.340927e+002
4.225043e+002, 1.344151e+002
4.229864e+002, 1.338795e+002
4.234685e+002, 1.333630e+002
4.239506e+002, 1.332652e+002
4.244327e+002, 1.338214e+002
4.249149e+002, 1.340811e+002
4.253970e+002, 1.338875e+002
4.258791e+002, 1.334558e+002
4.263612e+002, 1.329634e+002
4.268433e+002, 1.321785e+002
4.273254e+002, 1.317203e+002
4.278076e+002, 1.318020e+002
4.282897e+002, 1.323270e+002
4.287718e+002, 1.325928e+002
4.292539e+002, 1.324986e+002
4.297360e+002, 1.323396e+002
4.302181e+002, 1.323445e+002
4.307003e+002, 1.325796e+002
4.311824e+002, 1.324477e+002
4.316645e+002, 1.317612e+002
4.321466e+002, 1.309783e+002
4.326287e+002, 1.310890e+002
4.331108e+002, 1.321173e+002
4.335930e+002, 1.327847e+002
4.340751e+002, 1.324060e+002
4.345572e+002, 1.313218e+002
4.350393e+002, 1.306161e+002
4.355214e+002, 1.302947e+002
4.360035e+002, 1.302201e+002
4.364857e+002, 1.304675e+002
4.369678e+002, 1.308694e+002
4.374499e+002, 1.309944e+002
4.379320e+002, 1.306607e+002
4.384141e+002, 1.301942e+002
4.388962e+002, 1.298496e+002
4.393784e+002, 1.296473e+002
4.398605e+002, 1.296490e+002
4.403426e+002, 1.302033e+002
4.408247e+002, 1.307726e+002
4.413068e+002, 1.308363e+002
4.417889e+002, 1.303095e+002
4.422711e+002, 1.297817e+002
4.427532e+002, 1.295254e+002
4.432353e+002, 1.294303e+002
4.437174e+002, 1.293821e+002
4.441995e+002, 1.294493e+002
4.446816e+002, 1.294525e+002
4.451638e+002, 1.292839e+002
4.456459e+002, 1.289905e+002
4.461280e+002, 1.287827e+002
4.466101e+002, 1.287654e+002
4.470922e+002, 1.287789e+002
4.475743e+002, 1.287441e+002
4.480565e+002, 1.285992e+002
4.485386e+002, 1.285632e+002
4.490207e+002, 1.287026e+002
4.495028e+002, 1.289096e+002
4.499849e+002, 1.290678e+002
4.504670e+002, 1.292507e+002
4.509492e+002, 1.292039e+002
4.514313e+002, 1.287547e+002
4.519134e+002, 1.279994e+002
4.523955e+002, 1.276865e+002
4.528776e+002, 1.279052e+002
4.533597e+002, 1.282796e+002
4.538419e+002, 1.286269e+002
4.543240e+002, 1.289411e+002
4.548061e+002, 1.290253e+002
4.552882e+002, 1.288130e+002
4.557703e+002, 1.284959e+002
4.562524e+002, 1.284053e+002
4.567346e+002, 1.284990e+002
4.572167e+002, 1.285047e+002
4.576988e+002, 1.281589e+002
4.581809e+002, 1.277149e+002
4.586630e+002, 1.276555e+002
4.591451e+002, 1.279603e+002
4.596273e+002, 1.283121e+002
4.601094e+002, 1.285407e+002
4.605915e+002, 1.286442e+002
4.610736e+002, 1.285778e+002
4.615557e+002, 1.282084e+002
4.620378e+002, 1.279426e+002
4.625200e+002, 1.281907e+002
4.630021e+002, 1.287231e+002
4.634842e+002, 1.290867e+002
4.639663e+002, 1.289794e+002
4.644484e+002, 1.287773e+002
4.649305e+002, 1.286589e+002
4.654127e+002, 1.286420e+002
4.658948e+002, 1.285888e+002
4.663769e+002, 1.284109e+002
4.668590e+002, 1.282252e+002
4.673411e+002, 1.281169e+002
4.678232e+002, 1.281313e+002
4.683054e+002, 1.281680e+002
4.687875e+002, 1.282086e+002
4.692696e+002, 1.282702e+002
4.697517e+002, 1.284055e+002
4.702338e+002, 1.286510e+002
4.707159e+002, 1.288978e+002
4.711981e+002, 1.291043e+002
4.716802e+002, 1.292680e+002
4.721623e+002, 1.294639e+002
4.726444e+002, 1.297187e+002
4.731265e+002, 1.299266e+002
4.736086e+002, 1.298892e+002
4.740908e+002, 1.296138e+002
4.745729e+002, 1.296188e+002
4.750550e+002, 1.300961e+002
4.755371e+002, 1.307419e+002
4.760192e+002, 1.308579e+002
4.765013e+002, 1.305283e+002
4.769835e+002, 1.304104e+002
4.774656e+002, 1.311701e+002
4.779477e+002, 1.322675e+002
4.784298e+002, 1.328191e+002
4.789119e+002, 1.327788e+002
4.793940e+002, 1.324736e+002
4.798762e+002, 1.318211e+002
4.803583e+002, 1.311660e+002
4.808404e+002, 1.309909e+002
4.813225e+002, 1.318039e+002
4.818046e+002, 1.326214e+002
4.822867e+002, 1.328825e+002
4.827689e+002, 1.327564e+002
4.832510e+002, 1.326758e+002
4.837331e+002, 1.329661e+002
4.842152e+002, 1.331796e+002
4.846973e+002, 1.329980e+002
4.851794e+002, 1.322347e+002
4.856616e+002, 1.319409e+002
4.861437e+002, 1.326144e+002
4.866258e+002, 1.335459e+002
4.871079e+002, 1.342081e+002
4.875900e+002, 1.345124e+002
4.880721e+002, 1.346790e+002
4.885543e+002, 1.346023e+002
4.890364e+002, 1.344370e+002
4.895185e+002, 1.346912e+002
4.900006e+002, 1.354988e+002
4.904827e+002, 1.362849e+002
4.909648e+002, 1.367644e+002
4.914470e+002, 1.369562e+002
4.919291e+002, 1.372379e+002
4.924112e+002, 1.376294e+002
4.928933e+002, 1.380080e+002
4.933754e+002, 1.382124e+002
4.938575e+002, 1.382872e+002
4.943397e+002, 1.384265e+002
4.948218e+002, 1.386864e+002
4.953039e+002, 1.390054e+002
4.957860e+002, 1.393174e+002
4.962681e+002, 1.396199e+002
4.967502e+002, 1.398994e+002
4.972324e+002, 1.401694e+002
4.977145e+002, 1.404037e+002
4.981966e+002, 1.405559e+002
4.986787e+002, 1.406245e+002
4.991608e+002, 1.407079e+002
4.996429e+002, 1.410233e+002
5.001251e+002, 1.412879e+002
5.006072e+002, 1.412389e+002
5.010893e+002, 1.404358e+002
5.015714e+002, 1.398400e+002
5.020535e+002, 1.398082e+002
5.025356e+002, 1.401187e+002
5.030178e+002, 1.402631e+002
5.034999e+002, 1.399414e+002
5.039820e+002, 1.397448e+002
5.044641e+002, 1.399524e+002
5.049462e+002, 1.406033e+002
5.054283e+002, 1.406601e+002
5.059105e+002, 1.398108e+002
5.063926e+002, 1.388551e+002
5.068747e+002, 1.384615e+002
5.073568e+002, 1.387448e+002
5.078389e+002, 1.387869e+002
5.083210e+002, 1.384287e+002
5.088032e+002, 1.379318e+002
5.092853e+002, 1.378062e+002
5.097674e+002, 1.380257e+002
5.102495e+002, 1.381685e+002
5.107316e+002, 1.380193e+002
5.112137e+002, 1.376931e+002
5.116959e+002, 1.374655e+002
5.121780e+002, 1.373232e+002
5.126601e+002, 1.370867e+002
5.131422e+002, 1.363422e+002
5.136243e+002, 1.355377e+002
5.141064e+002, 1.353600e+002
5.145886e+002, 1.361210e+002
5.150707e+002, 1.368051e+002
5.155528e+002, 1.366629e+002
5.160349e+002, 1.360788e+002
5.165170e+002, 1.356069e+002
5.169991e+002, 1.355242e+002
5.174813e+002, 1.354824e+002
5.179634e+002, 1.354142e+002
5.184455e+002, 1.353094e+002
5.189276e+002, 1.351010e+002
5.194097e+002, 1.346156e+002
5.198918e+002, 1.341741e+002
5.203740e+002, 1.339419e+002
5.208561e+002, 1.340437e+002
5.213382e+002, 1.339017e+002
5.218203e+002, 1.333205e+002
5.223024e+002, 1.327166e+002
5.227845e+002, 1.326440e+002
5.232667e+002, 1.332250e+002
5.237488e+002, 1.336273e+002
5.242309e+002, 1.336449e+002
5.247130e+002, 1.334182e+002
5.251951e+002, 1.333059e+002
5.256772e+002, 1.333045e+002
5.261594e+002, 1.332629e+002
5.266415e+002, 1.330899e+002
5.271236e+002, 1.328168e+002
5.276057e+002, 1.324333e+002
5.280878e+002, 1.319379e+002
5.285699e+002, 1.316211e+002
5.290521e+002, 1.318303e+002
5.295342e+002, 1.323317e+002
5.300163e+002, 1.328616e+002
5.304984e+002, 1.335102e+002
5.309805e+002, 1.338722e+002
5.314626e+002, 1.334680e+002
5.319448e+002, 1.326369e+002
5.324269e+002, 1.320382e+002
5.329090e+002, 1.321136e+002
5.333911e+002, 1.321993e+002
5.338732e+002, 1.320607e+002
5.343553e+002, 1.316803e+002
5.348375e+002, 1.312969e+002
5.353196e+002, 1.308069e+002
5.358017e+002, 1.304227e+002
5.362838e+002, 1.303130e+002
5.367659e+002, 1.306985e+002
5.372480e+002, 1.306878e+002
5.377302e+002, 1.301256e+002
5.382123e+002, 1.293681e+002
5.386944e+002, 1.289735e+002
5.391765e+002, 1.289657e+002
5.396586e+002, 1.289517e+002
5.401407e+002, 1.288554e+002
5.406229e+002, 1.286641e+002
5.411050e+002, 1.282778e+002
5.415871e+002, 1.277228e+002
5.420692e+002, 1.272478e+002
5.425513e+002, 1.271032e+002
5.430334e+002, 1.271004e+002
5.435156e+002, 1.269295e+002
5.439977e+002, 1.265644e+002
5.444798e+002, 1.262116e+002
5.449619e+002, 1.260243e+002
5.454440e+002, 1.259273e+002
5.459261e+002, 1.258417e+002
5.464083e+002, 1.257785e+002
5.468904e+002, 1.256735e+002
5.473725e+002, 1.254372e+002
5.478546e+002, 1.251453e+002
5.483367e+002, 1.249564e+002
5.488188e+002, 1.250580e+002
5.493010e+002, 1.250841e+002
5.497831e+002, 1.249079e+002
5.502652e+002, 1.245324e+002
5.507473e+002, 1.242624e+002
5.512294e+002, 1.241565e+002
5.517115e+002, 1.240571e+002
5.521937e+002, 1.238554e+002
5.526758e+002, 1.235394e+002
5.531579e+002, 1.232528e+002
5.536400e+002, 1.230051e+002
5.541221e+002, 1.227855e+002
5.546042e+002, 1.226468e+002
5.550864e+002, 1.225544e+002
5.555685e+002, 1.222439e+002
5.560506e+002, 1.214616e+002
5.565327e+002, 1.206539e+002
5.570148e+002, 1.206001e+002
5.574969e+002, 1.211166e+002
5.579791e+002, 1.215175e+002
5.584612e+002, 1.211829e+002
5.589433e+002, 1.207229e+002
5.594254e+002, 1.207179e+002
5.599075e+002, 1.212146e+002
5.603896e+002, 1.215667e+002
5.608718e+002, 1.214609e+002
5.613539e+002, 1.211372e+002
5.618360e+002, 1.207570e+002
5.623181e+002, 1.201190e+002
5.628002e+002, 1.197781e+002
5.632823e+002, 1.199357e+002
5.637645e+002, 1.203270e+002
5.642466e+002, 1.205721e+002
5.647287e+002, 1.206962e+002
5.652108e+002, 1.205975e+002
5.656929e+002, 1.201408e+002
5.661750e+002, 1.194586e+002
5.666572e+002, 1.191314e+002
5.671393e+002, 1.191810e+002
5.676214e+002, 1.194408e+002
5.681035e+002, 1.199930e+002
5.685856e+002, 1.206931e+002
5.690677e+002, 1.209751e+002
5.695499e+002, 1.208038e+002
5.700320e+002, 1.204205e+002
5.705141e+002, 1.197390e+002
5.709962e+002, 1.190726e+002
5.714783e+002, 1.190078e+002
5.719604e+002, 1.199802e+002
5.724426e+002, 1.209672e+002
5.729247e+002, 1.212792e+002
5.734068e+002, 1.211595e+002
5.738889e+002, 1.210498e+002
5.743710e+002, 1.210498e+002
5.748531e+002, 1.211290e+002
5.753353e+002, 1.213305e+002
5.758174e+002, 1.216390e+002
5.762995e+002, 1.218549e+002
5.767816e+002, 1.220163e+002
5.772637e+002, 1.220323e+002
5.777458e+002, 1.217810e+002
5.782280e+002, 1.211360e+002
5.787101e+002, 1.209275e+002
5.791922e+002, 1.212293e+002
5.796743e+002, 1.218043e+002
5.801564e+002, 1.224911e+002
5.806385e+002, 1.232742e+002
5.811207e+002, 1.239574e+002
5.816028e+002, 1.245632e+002
5.820849e+002, 1.249093e+002
5.825670e+002, 1.245156e+002
5.830491e+002, 1.235932e+002
5.835313e+002, 1.228066e+002
5.840134e+002, 1.225226e+002
5.844955e+002, 1.224858e+002
5.849776e+002, 1.225419e+002
5.854597e+002, 1.226671e+002
5.859418e+002, 1.227407e+002
5.864240e+002, 1.227494e+002
5.869061e+002, 1.226557e+002
5.873882e+002, 1.224336e+002
5.878703e+002, 1.220716e+002
5.883524e+002, 1.216120e+002
5.888345e+002, 1.207646e+002
5.893167e+002, 1.200149e+002
5.897988e+002, 1.198102e+002
5.902809e+002, 1.205966e+002
5.907630e+002, 1.208655e+002
5.912451e+002, 1.203323e+002
5.917272e+002, 1.194130e+002
5.922094e+002, 1.189041e+002
5.926915e+002, 1.188340e+002
5.931736e+002, 1.187914e+002
5.936557e+002, 1.186460e+002
5.941378e+002, 1.184329e+002
5.946199e+002, 1.181786e+002
5.951021e+002, 1.179038e+002
5.955842e+002, 1.177568e+002
5.960663e+002, 1.180155e+002
5.965484e+002, 1.183609e+002
5.970305e+002, 1.183892e+002
5.975126e+002, 1.180591e+002
5.979948e+002, 1.176956e+002
5.984769e+002, 1.174234e+002
5.989590e+002, 1.172336e+002
5.994411e+002, 1.171372e+002
5.999232e+002, 1.173417e+002
6.004053e+002, 1.173012e+002
6.008875e+002, 1.165659e+002
6.013696e+002, 1.156721e+002
6.018517e+002, 1.154271e+002
6.023338e+002, 1.163191e+002
6.028159e+002, 1.168769e+002
6.032980e+002, 1.166946e+002
6.037802e+002, 1.160296e+002
6.042623e+002, 1.158925e+002
6.047444e+002, 1.163572e+002
6.052265e+002, 1.167244e+002
6.057086e+002, 1.164900e+002
6.061907e+002, 1.158675e+002
6.066729e+002, 1.156734e+002
6.071550e+002, 1.158978e+002
6.076371e+002, 1.160743e+002
6.081192e+002, 1.156465e+002
6.086013e+002, 1.150204e+002
6.090834e+002, 1.147957e+002
6.095656e+002, 1.151780e+002
6.100477e+002, 1.154937e+002
6.105298e+002, 1.153662e+002
6.110119e+002, 1.149785e+002
6.114940e+002, 1.145328e+002
6.119761e+002, 1.138908e+002
6.124583e+002, 1.134248e+002
6.129404e+002, 1.133361e+002
6.134225e+002, 1.134396e+002
6.139046e+002, 1.133059e+002
6.143867e+002, 1.128146e+002
6.148688e+002, 1.123407e+002
6.153510e+002, 1.119538e+002
6.158331e+002, 1.116682e+002
6.163152e+002, 1.116228e+002
6.167973e+002, 1.118427e+002
6.172794e+002, 1.120348e+002
6.177615e+002, 1.119629e+002
6.182437e+002, 1.117080e+002
6.187258e+002, 1.115327e+002
6.192079e+002, 1.114528e+002
6.196900e+002, 1.112805e+002
6.201721e+002, 1.107239e+002
6.206542e+002, 1.100318e+002
6.211364e+002, 1.095480e+002
6.216185e+002, 1.094722e+002
6.221006e+002, 1.093238e+002
6.225827e+002, 1.087473e+002
6.230648e+002, 1.080150e+002
6.235469e+002, 1.075069e+002
6.240291e+002, 1.074874e+002
6.245112e+002, 1.074688e+002
6.249933e+002, 1.074319e+002
6.254754e+002, 1.073482e+002
6.259575e+002, 1.071061e+002
6.264396e+002, 1.066637e+002
6.269218e+002, 1.061840e+002
6.274039e+002, 1.056901e+002
6.278860e+002, 1.052061e+002
6.283681e+002, 1.049447e+002
6.288502e+002, 1.049165e+002
6.293323e+002, 1.048193e+002
6.298145e+002, 1.043103e+002
6.302966e+002, 1.036022e+002
6.307787e+002, 1.030956e+002
6.312608e+002, 1.028343e+002
6.317429e+002, 1.026805e+002
6.322250e+002, 1.026240e+002
6.327072e+002, 1.025772e+002
6.331893e+002, 1.024242e+002
6.336714e+002, 1.019571e+002
6.341535e+002, 1.016884e+002
6.346356e+002, 1.019596e+002
6.351177e+002, 1.024524e+002
6.355999e+002, 1.026651e+002
6.360820e+002, 1.025190e+002
6.365641e+002, 1.021927e+002
6.370462e+002, 1.016236e+002
6.375283e+002, 1.009183e+002
6.380104e+002, 1.004410e+002
6.384926e+002, 1.002153e+002
6.389747e+002, 1.000480e+002
6.394568e+002, 9.987414e+001
6.399389e+002, 9.968749e+001
6.404210e+002, 9.942331e+001
6.409031e+002, 9.909010e+001
6.413853e+002, 9.885697e+001
6.418674e+002, 9.902617e+001
6.423495e+002, 9.927540e+001
6.428316e+002, 9.913904e+001
6.433137e+002, 9.851950e+001
6.437958e+002, 9.801259e+001
6.442780e+002, 9.801835e+001
6.447601e+002, 9.820918e+001
6.452422e+002, 9.829653e+001
6.457243e+002, 9.810798e+001
6.462064e+002, 9.800932e+001
6.466885e+002, 9.812147e+001
6.471707e+002, 9.826818e+001
6.476528e+002, 9.816948e+001
6.481349e+002, 9.768150e+001
6.486170e+002, 9.742664e+001
6.490991e+002, 9.758796e+001
6.495812e+002, 9.797377e+001
6.500634e+002, 9.815499e+001
6.505455e+002, 9.814043e+001
6.510276e+002, 9.803355e+001
6.515097e+002, 9.778835e+001
6.519918e+002, 9.753611e+001
6.524739e+002, 9.757391e+001
6.529561e+002, 9.783203e+001
6.534382e+002, 9.794428e+001
6.539203e+002, 9.743977e+001
6.544024e+002, 9.690768e+001
6.548845e+002, 9.685471e+001
6.553666e+002, 9.739001e+001
6.558488e+002, 9.764553e+001
6.563309e+002, 9.706120e+001
6.568130e+002, 9.641891e+001
6.572951e+002, 9.620763e+001
6.577772e+002, 9.662935e+001
6.582593e+002, 9.695935e+001
6.587415e+002, 9.723074e+001
6.592236e+002, 9.735759e+001
6.597057e+002, 9.714442e+001
6.601878e+002, 9.660286e+001
6.606699e+002, 9.627493e+001
6.611520e+002, 9.631707e+001
6.616342e+002, 9.646994e+001
6.621163e+002, 9.632285e+001
6.625984e+002, 9.598898e+001
6.630805e+002, 9.577287e+001
6.635626e+002, 9.598141e+001
6.640447e+002, 9.615972e+001
6.645269e+002, 9.586233e+001
6.650090e+002, 9.526405e+001
6.654911e+002, 9.486971e+001
6.659732e+002, 9.500610e+001
6.664553e+002, 9.520489e+001
6.669374e+002, 9.533035e+001
6.674196e+002, 9.538208e+001
6.679017e+002, 9.534814e+001
6.683838e+002, 9.520985e+001
6.688659e+002, 9.502221e+001
6.693480e+002, 9.476418e+001
6.698301e+002, 9.443980e+001
6.703123e+002, 9.431022e+001
6.707944e+002, 9.437959e+001
6.712765e+002, 9.461806e+001
6.717586e+002, 9.524966e+001
6.722407e+002, 9.599555e+001
6.727228e+002, 9.611580e+001
6.732050e+002, 9.541701e+001
6.736871e+002, 9.470811e+001
6.741692e+002, 9.474271e+001
6.746513e+002, 9.503822e+001
6.751334e+002, 9.501247e+001
6.756155e+002, 9.412495e+001
6.760977e+002, 9.349679e+001
6.765798e+002, 9.353104e+001
6.770619e+002, 9.393042e+001
6.775440e+002, 9.427615e+001
6.780261e+002, 9.461037e+001
6.785082e+002, 9.478391e+001
6.789904e+002, 9.471553e+001
6.794725e+002, 9.451237e+001
6.799546e+002, 9.445640e+001
6.804367e+002, 9.455058e+001
6.809188e+002, 9.466103e+001
6.814009e+002, 9.469545e+001
6.818831e+002, 9.473577e+001
6.823652e+002, 9.501948e+001
6.828473e+002, 9.548417e+001
6.833294e+002, 9.580259e+001
6.838115e+002, 9.557529e+001
6.842936e+002, 9.529363e+001
6.847758e+002, 9.538668e+001
6.852579e+002, 9.587578e+001
6.857400e+002, 9.620670e+001
6.862221e+002, 9.603023e+001
6.867042e+002, 9.582803e+001
6.871863e+002, 9.585371e+001
6.876685e+002, 9.616441e+001
6.881506e+002, 9.645889e+001
6.886327e+002, 9.673738e+001
6.891148e+002, 9.700615e+001
6.895969e+002, 9.730975e+001
6.900790e+002, 9.763729e+001
6.905612e+002, 9.777235e+001
6.910433e+002, 9.766709e+001
6.915254e+002, 9.749288e+001
6.920075e+002, 9.728073e+001
6.924896e+002, 9.717281e+001
6.929717e+002, 9.749947e+001
6.934539e+002, 9.863021e+001
6.939360e+002, 9.964988e+001
6.944181e+002, 9.992135e+001
6.949002e+002, 9.976291e+001
6.953823e+002, 9.966860e+001
6.958644e+002, 9.976692e+001
6.963466e+002, 9.991063e+001
6.968287e+002, 1.000092e+002
6.973108e+002, 1.001575e+002
6.977929e+002, 1.006966e+002
6.982750e+002, 1.018226e+002
6.987571e+002, 1.025934e+002
6.992393e+002, 1.025854e+002
6.997214e+002, 1.020821e+002
7.002035e+002, 1.019715e+002
7.006856e+002, 1.022077e+002
7.011677e+002, 1.023946e+002
7.016498e+002, 1.022061e+002
7.021320e+002, 1.019015e+002
7.026141e+002, 1.018528e+002
7.030962e+002, 1.020189e+002
7.035783e+002, 1.019896e+002
7.040604e+002, 1.013516e+002
7.045425e+002, 1.006397e+002
7.050247e+002, 1.001566e+002
7.055068e+002, 9.995683e+001
7.059889e+002, 9.983005e+001
7.064710e+002, 9.994105e+001
7.069531e+002, 9.990405e+001
7.074352e+002, 9.937894e+001
7.079174e+002, 9.830016e+001
7.083995e+002, 9.753967e+001
7.088816e+002, 9.715101e+001
7.093637e+002, 9.689682e+001
7.098458e+002, 9.656246e+001
7.103279e+002, 9.617027e+001
7.108101e+002, 9.574532e+001
7.112922e+002, 9.527469e+001
7.117743e+002, 9.487060e+001
7.122564e+002, 9.476514e+001
7.127385e+002, 9.471390e+001
7.132206e+002, 9.441268e+001
7.137028e+002, 9.346273e+001
7.141849e+002, 9.270613e+001
7.146670e+002, 9.245250e+001
7.151491e+002, 9.242113e+001
7.156312e+002, 9.221997e+001
7.161133e+002, 9.173988e+001
7.165955e+002, 9.141476e+001
7.170776e+002, 9.137485e+001
7.175597e+002, 9.146314e+001
7.180418e+002, 9.132034e+001
7.185239e+002, 9.096910e+001
7.190060e+002, 9.065755e+001
7.194882e+002, 9.052963e+001
7.199703e+002, 9.043638e+001
7.204524e+002, 9.015058e+001
7.209345e+002, 8.973893e+001
7.214166e+002, 8.939209e+001
7.218987e+002, 8.922707e+001
7.223809e+002, 8.912267e+001
7.228630e+002, 8.911642e+001
7.233451e+002, 8.916795e+001
7.238272e+002, 8.893574e+001
7.243093e+002, 8.808015e+001
7.247914e+002, 8.744545e+001
7.252736e+002, 8.745180e+001
7.257557e+002, 8.802358e+001
7.262378e+002, 8.819380e+001
7.267199e+002, 8.793725e+001
7.272020e+002, 8.751057e+001
7.276841e+002, 8.693909e+001
7.281663e+002, 8.635328e+001
7.286484e+002, 8.609475e+001
7.291305e+002, 8.616537e+001
7.296126e+002, 8.630581e+001
7.300947e+002, 8.630008e+001
7.305768e+002, 8.631773e+001
7.310590e+002, 8.660328e+001
7.315411e+002, 8.732073e+001
7.320232e+002, 8.757701e+001
7.325053e+002, 8.666427e+001
7.329874e+002, 8.568459e+001
7.334695e+002, 8.535991e+001
7.339517e+002, 8.599596e+001
7.344338e+002, 8.615750e+001
7.349159e+002, 8.572320e+001
7.353980e+002, 8.515971e+001
7.358801e+002, 8.499008e+001
7.363622e+002, 8.512741e+001
7.368444e+002, 8.520320e+001
7.373265e+002, 8.515037e+001
7.378086e+002, 8.508670e+001
7.382907e+002, 8.506202e+001
7.387728e+002, 8.511796e+001
7.392549e+002, 8.535192e+001
7.397371e+002, 8.614891e+001
7.402192e+002, 8.650718e+001
7.407013e+002, 8.569155e+001
7.411834e+002, 8.447252e+001
7.416655e+002, 8.389088e+001
7.421476e+002, 8.426161e+001
7.426298e+002, 8.453905e+001
7.431119e+002, 8.461135e+001
7.435940e+002, 8.451834e+001
7.440761e+002, 8.424860e+001
7.445582e+002, 8.383142e+001
7.450403e+002, 8.356216e+001
7.455225e+002, 8.355483e+001
7.460046e+002, 8.368669e+001
7.464867e+002, 8.396497e+001
7.469688e+002, 8.425591e+001
7.474509e+002, 8.426827e+001
7.479330e+002, 8.349715e+001
7.484152e+002, 8.283020e+001
7.488973e+002, 8.267381e+001
7.493794e+002, 8.290089e+001
7.498615e+002, 8.307455e+001
7.503436e+002, 8.318105e+001
7.508257e+002, 8.324718e+001
7.513079e+002, 8.331650e+001
7.517900e+002, 8.333810e+001
7.522721e+002, 8.303247e+001
7.527542e+002, 8.239973e+001
7.532363e+002, 8.191624e+001
7.537184e+002, 8.195319e+001
7.542006e+002, 8.219312e+001
7.546827e+002, 8.207030e+001
7.551648e+002, 8.168151e+001
7.556469e+002, 8.143406e+001
7.561290e+002, 8.178682e+001
7.566111e+002, 8.210818e+001
7.570933e+002, 8.194934e+001
7.575754e+002, 8.133719e+001
7.580575e+002, 8.103036e+001
7.585396e+002, 8.127103e+001
7.590217e+002, 8.151087e+001
7.595038e+002, 8.151909e+001
7.599860e+002, 8.132294e+001
7.604681e+002, 8.125222e+001
7.609502e+002, 8.131498e+001
7.614323e+002, 8.140831e+001
7.619144e+002, 8.155860e+001
7.623965e+002, 8.165833e+001
7.628787e+002, 8.138027e+001
7.633608e+002, 8.076505e+001
7.638429e+002, 8.035176e+001
7.643250e+002, 8.077894e+001
7.648071e+002, 8.128236e+001
7.652892e+002, 8.126602e+001
7.657714e+002, 8.058949e+001
7.662535e+002, 8.015608e+001
7.667356e+002, 8.003377e+001
7.672177e+002, 8.013871e+001
7.676998e+002, 8.054810e+001
7.681819e+002, 8.131236e+001
7.686641e+002, 8.143658e+001
7.691462e+002, 8.083618e+001
7.696283e+002, 8.023701e+001
7.701104e+002, 8.040506e+001
7.705925e+002, 8.096223e+001
7.710746e+002, 8.114458e+001
7.715568e+002, 8.086719e+001
7.720389e+002, 8.057266e+001
7.725210e+002, 8.047620e+001
7.730031e+002, 8.051371e+001
7.734852e+002, 8.066964e+001
7.739673e+002, 8.103232e+001
7.744495e+002, 8.120449e+001
7.749316e+002, 8.107722e+001
7.754137e+002, 8.087431e+001
7.758958e+002, 8.077729e+001
7.763779e+002, 8.080125e+001
7.768600e+002, 8.069579e+001
7.773422e+002, 8.042953e+001
7.778243e+002, 8.017573e+001
7.783064e+002, 8.017773e+001
7.787885e+002, 8.030022e+001
7.792706e+002, 8.023526e+001
7.797527e+002, 7.988677e+001
7.802349e+002, 7.966579e+001
7.807170e+002, 8.000727e+001
7.811991e+002, 8.047697e+001
7.816812e+002, 8.068545e+001
7.821633e+002, 8.041602e+001
7.826454e+002, 8.017491e+001
7.831276e+002, 7.991261e+001
7.836097e+002, 7.973865e+001
7.840918e+002, 7.981745e+001
7.845739e+002, 8.015468e+001
7.850560e+002, 8.034865e+001
7.855381e+002, 8.033949e+001
7.860203e+002, 8.028936e+001
7.865024e+002, 8.031981e+001
7.869845e+002, 8.044855e+001
7.874666e+002, 8.078604e+001
7.879487e+002, 8.151747e+001
7.884308e+002, 8.192834e+001
7.889130e+002, 8.128210e+001
7.893951e+002, 8.034976e+001
7.898772e+002, 7.993725e+001
7.903593e+002, 8.051358e+001
7.908414e+002, 8.085180e+001
7.913235e+002, 8.083181e+001
7.918057e+002, 8.072172e+001
7.922878e+002, 8.086845e+001
7.927699e+002, 8.125289e+001
7.932520e+002, 8.154330e+001
7.937341e+002, 8.167973e+001
7.942162e+002, 8.177982e+001
7.946984e+002, 8.196616e+001
7.951805e+002, 8.220630e+001
7.956626e+002, 8.245779e+001
7.961447e+002, 8.275327e+001
7.966268e+002, 8.296894e+001
7.971089e+002, 8.306453e+001
7.975911e+002, 8.305611e+001
7.980732e+002, 8.294419e+001
7.985553e+002, 8.257700e+001
7.990374e+002, 8.248702e+001
7.995195e+002, 8.276503e+001
8.000016e+002, 8.320952e+001
8.004838e+002, 8.358358e+001
8.009659e+002, 8.390074e+001
8.014480e+002, 8.426865e+001
8.019301e+002, 8.473507e+001
8.024122e+002, 8.513520e+001
8.028943e+002, 8.526064e+001
8.033765e+002, 8.523599e+001
8.038586e+002, 8.522623e+001
8.043407e+002, 8.529080e+001
8.048228e+002, 8.533788e+001
8.053049e+002, 8.521017e+001
8.057870e+002, 8.514001e+001
8.062692e+002, 8.539424e+001
8.067513e+002, 8.607635e+001
8.072334e+002, 8.667554e+001
8.077155e+002, 8.714163e+001
8.081976e+002, 8.751402e+001
8.086797e+002, 8.785314e+001
8.091619e+002, 8.813692e+001
8.096440e+002, 8.829243e+001
8.101261e+002, 8.828713e+001
8.106082e+002, 8.821587e+001
8.110903e+002, 8.802551e+001
8.115724e+002, 8.786655e+001
8.120546e+002, 8.791301e+001
8.125367e+002, 8.838725e+001
8.130188e+002, 8.876784e+001
8.135009e+002, 8.904716e+001
8.139830e+002, 8.921338e+001
8.144651e+002, 8.920544e+001
8.149473e+002, 8.900728e+001
8.154294e+002, 8.896875e+001
8.159115e+002, 8.916819e+001
8.163936e+002, 8.933260e+001
8.168757e+002, 8.908030e+001
8.173578e+002, 8.859164e+001
8.178400e+002, 8.814111e+001
8.183221e+002, 8.773737e+001
8.188042e+002, 8.754933e+001
8.192863e+002, 8.790830e+001
8.197684e+002, 8.837452e+001
8.202505e+002, 8.851021e+001
8.207327e+002, 8.813479e+001
8.212148e+002, 8.779379e+001
8.216969e+002, 8.748091e+001
8.221790e+002, 8.720727e+001
8.226611e+002, 8.703692e+001
8.231432e+002, 8.693642e+001
8.236254e+002, 8.668236e+001
8.241075e+002, 8.623259e+001
8.245896e+002, 8.577805e+001
8.250717e+002, 8.538301e+001
8.255538e+002, 8.514037e+001
8.260359e+002, 8.527761e+001
8.265181e+002, 8.607940e+001
8.270002e+002, 8.637993e+001
8.274823e+002, 8.533567e+001
8.279644e+002, 8.416890e+001
8.284465e+002, 8.370177e+001
8.289286e+002, 8.411878e+001
8.294108e+002, 8.438180e+001
8.298929e+002, 8.448881e+001
8.303750e+002, 8.444251e+001
8.308571e+002, 8.420599e+001
8.313392e+002, 8.382944e+001
8.318214e+002, 8.332565e+001
8.323035e+002, 8.268906e+001
8.327856e+002, 8.228887e+001
8.332677e+002, 8.261983e+001
8.337498e+002, 8.309470e+001
8.342319e+002, 8.322866e+001
8.347141e+002, 8.282442e+001
8.351962e+002, 8.271148e+001
8.356783e+002, 8.303799e+001
8.361604e+002, 8.340089e+001
8.366425e+002, 8.353429e+001
8.371246e+002, 8.345049e+001
8.376068e+002, 8.330815e+001
8.380889e+002, 8.310715e+001
8.385710e+002, 8.297993e+001
8.390531e+002, 8.310770e+001
8.395352e+002, 8.331456e+001
8.400173e+002, 8.341226e+001
8.404995e+002, 8.338919e+001
8.409816e+002, 8.333741e+001
8.414637e+002, 8.328087e+001
8.419458e+002, 8.320516e+001
8.424279e+002, 8.306149e+001
8.429100e+002, 8.285451e+001
8.433922e+002, 8.289762e+001
8.438743e+002, 8.323293e+001
8.443564e+002, 8.358327e+001
8.448385e+002, 8.382423e+001
8.453206e+002, 8.394914e+001
8.458027e+002, 8.381058e+001
8.462849e+002, 8.348345e+001
8.467670e+002, 8.339636e+001
8.472491e+002, 8.415697e+001
8.477312e+002, 8.488911e+001
8.482133e+002, 8.500819e+001
8.486954e+002, 8.457047e+001
8.491776e+002, 8.432967e+001
8.496597e+002, 8.435115e+001
8.501418e+002, 8.449036e+001
8.506239e+002, 8.475539e+001
8.511060e+002, 8.507630e+001
8.515881e+002, 8.515060e+001
8.520703e+002, 8.501469e+001
8.525524e+002, 8.497400e+001
8.530345e+002, 8.532341e+001
8.535166e+002, 8.570119e+001
8.539987e+002, 8.566328e+001
8.544808e+002, 8.539144e+001
8.549630e+002, 8.534879e+001
8.554451e+002, 8.607425e+001
8.559272e+002, 8.653338e+001
8.564093e+002, 8.639091e+001
8.568914e+002, 8.592019e+001
8.573735e+002, 8.574643e+001
8.578557e+002, 8.589072e+001
8.583378e+002, 8.608476e+001
8.588199e+002, 8.628828e+001
8.593020e+002, 8.644788e+001
8.597841e+002, 8.646381e+001
8.602662e+002, 8.637815e+001
8.607484e+002, 8.627283e+001
8.612305e+002, 8.613512e+001
8.617126e+002, 8.604643e+001
8.621947e+002, 8.599755e+001
8.626768e+002, 8.603964e+001
8.631589e+002, 8.626643e+001
8.636411e+002, 8.683900e+001
8.641232e+002, 8.712988e+001
8.646053e+002, 8.704602e+001
8.650874e+002, 8.675739e+001
8.655695e+002, 8.638708e+001
8.660516e+002, 8.599283e+001
8.665338e+002, 8.575705e+001
8.670159e+002, 8.572069e+001
8.674980e+002, 8.579530e+001
8.679801e+002, 8.601062e+001
8.684622e+002, 8.625235e+001
8.689443e+002, 8.641190e+001
8.694265e+002, 8.645299e+001
8.699086e+002, 8.645692e+001
8.703907e+002, 8.642235e+001
8.708728e+002, 8.635519e+001
8.713549e+002, 8.624905e+001
8.718370e+002, 8.610817e+001
8.723192e+002, 8.595959e+001
8.728013e+002, 8.580001e+001
8.732834e+002, 8.573953e+001
8.737655e+002, 8.590967e+001
8.742476e+002, 8.619539e+001
8.747297e+002, 8.653944e+001
8.752119e+002, 8.694166e+001
8.756940e+002, 8.716689e+001
8.761761e+002, 8.705519e+001
8.766582e+002, 8.685148e+001
8.771403e+002, 8.662768e+001
8.776224e+002, 8.638689e+001
8.781046e+002, 8.610802e+001
8.785867e+002, 8.577802e+001
8.790688e+002, 8.569913e+001
8.795509e+002, 8.645784e+001
8.800330e+002, 8.734120e+001
8.805151e+002, 8.717448e+001
8.809973e+002, 8.619382e+001
8.814794e+002, 8.531434e+001
8.819615e+002, 8.469935e+001
8.824436e+002, 8.449792e+001
8.829257e+002, 8.512109e+001
8.834078e+002, 8.615928e+001
8.838900e+002, 8.639422e+001
8.843721e+002, 8.564765e+001
8.848542e+002, 8.504092e+001
8.853363e+002, 8.492228e+001
8.858184e+002, 8.506703e+001
8.863005e+002, 8.510183e+001
8.867827e+002, 8.508102e+001
8.872648e+002, 8.514745e+001
8.877469e+002, 8.540887e+001
8.882290e+002, 8.568033e+001
8.887111e+002, 8.592935e+001
8.891932e+002, 8.611794e+001
8.896754e+002, 8.618552e+001
8.901575e+002, 8.606747e+001
8.906396e+002, 8.601101e+001
8.911217e+002, 8.606216e+001
8.916038e+002, 8.611611e+001
8.920859e+002, 8.601783e+001
8.925681e+002, 8.581529e+001
8.930502e+002, 8.563023e+001
8.935323e+002, 8.547104e+001
8.940144e+002, 8.542943e+001
8.944965e+002, 8.570524e+001
8.949786e+002, 8.603754e+001
8.954608e+002, 8.619265e+001
8.959429e+002, 8.608342e+001
8.964250e+002, 8.602924e+001
8.969071e+002, 8.607812e+001
8.973892e+002, 8.608486e+001
8.978713e+002, 8.586178e+001
8.983535e+002, 8.548489e+001
8.988356e+002, 8.547598e+001
8.993177e+002, 8.581452e+001
8.997998e+002, 8.614958e+001
9.002819e+002, 8.627848e+001
9.007640e+002, 8.628767e+001
9.012462e+002, 8.621480e+001
9.017283e+002, 8.607209e+001
9.022104e+002, 8.593121e+001
9.026925e+002, 8.579465e+001
9.031746e+002, 8.567295e+001
9.036567e+002, 8.555588e+001
9.041389e+002, 8.546346e+001
9.046210e+002, 8.548425e+001
9.051031e+002, 8.560389e+001
9.055852e+002, 8.569498e+001
9.060673e+002, 8.570835e+001
9.065494e+002, 8.566704e+001
9.070316e+002, 8.548788e+001
9.075137e+002, 8.529088e+001
9.079958e+002, 8.528709e+001
9.084779e+002, 8.590327e+001
9.089600e+002, 8.617700e+001
9.094421e+002, 8.585317e+001
9.099243e+002, 8.534340e+001
9.104064e+002, 8.524964e+001
9.108885e+002, 8.554346e+001
9.113706e+002, 8.567330e+001
9.118527e+002, 8.553713e+001
9.123348e+002, 8.536620e+001
9.128170e+002, 8.537622e+001
9.132991e+002, 8.547979e+001
9.137812e+002, 8.559385e+001
9.142633e+002, 8.572282e+001
9.147454e+002, 8.577933e+001
9.152275e+002, 8.567324e+001
9.157097e+002, 8.558672e+001
9.161918e+002, 8.563615e+001
9.166739e+002, 8.581928e+001
9.171560e+002, 8.598576e+001
9.176381e+002, 8.613424e+001
9.181202e+002, 8.626278e+001
9.186024e+002, 8.619700e+001
9.190845e+002, 8.623073e+001
9.195666e+002, 8.691160e+001
9.200487e+002, 8.807340e+001
9.205308e+002, 8.877470e+001
9.210129e+002, 8.826428e+001
9.214951e+002, 8.783232e+001
9.219772e+002, 8.790161e+001
9.224593e+002, 8.823357e+001
9.229414e+002, 8.802868e+001
9.234235e+002, 8.730019e+001
9.239056e+002, 8.669850e+001
9.243878e+002, 8.644388e+001
9.248699e+002, 8.638650e+001
9.253520e+002, 8.647000e+001
9.258341e+002, 8.659638e+001
9.263162e+002, 8.660470e+001
9.267983e+002, 8.620428e+001
9.272805e+002, 8.607784e+001
9.277626e+002, 8.650454e+001
9.282447e+002, 8.701643e+001
9.287268e+002, 8.709409e+001
9.292089e+002, 8.673611e+001
9.296910e+002, 8.649645e+001
9.301732e+002, 8.642634e+001
9.306553e+002, 8.636345e+001
9.311374e+002, 8.602819e+001
9.316195e+002, 8.569958e+001
9.321016e+002, 8.576060e+001
9.325837e+002, 8.627142e+001
9.330659e+002, 8.665842e+001
9.335480e+002, 8.675411e+001
9.340301e+002, 8.673191e+001
9.345122e+002, 8.660865e+001
9.349943e+002, 8.641176e+001
9.354764e+002, 8.635909e+001
9.359586e+002, 8.644549e+001
9.364407e+002, 8.655486e+001
9.369228e+002, 8.668295e+001
9.374049e+002, 8.675357e+001
9.378870e+002, 8.662752e+001
9.383691e+002, 8.638725e+001
9.388513e+002, 8.622692e+001
9.393334e+002, 8.618517e+001
9.398155e+002, 8.627210e+001
9.402976e+002, 8.659398e+001
9.407797e+002, 8.693606e+001
9.412618e+002, 8.686986e+001
9.417440e+002, 8.643935e+001
9.422261e+002, 8.625789e+001
9.427082e+002, 8.646453e+001
9.431903e+002, 8.672838e+001
9.436724e+002, 8.677564e+001
9.441545e+002, 8.668531e+001
9.446367e+002, 8.646481e+001
9.451188e+002, 8.598805e+001
9.456009e+002, 8.596654e+001
9.460830e+002, 8.677158e+001
9.465651e+002, 8.751127e+001
9.470472e+002, 8.760307e+001
9.475294e+002, 8.713435e+001
9.480115e+002, 8.681873e+001
9.484936e+002, 8.664858e+001
9.489757e+002, 8.656456e+001
9.494578e+002, 8.659436e+001
9.499399e+002, 8.663978e+001
9.504221e+002, 8.660310e+001
9.509042e+002, 8.651549e+001
9.513863e+002, 8.650391e+001
9.518684e+002, 8.661663e+001
9.523505e+002, 8.675648e+001
9.528326e+002, 8.695538e+001
9.533148e+002, 8.711428e+001
9.537969e+002, 8.692746e+001
9.542790e+002, 8.651016e+001
9.547611e+002, 8.639938e+001
9.552432e+002, 8.681543e+001
9.557253e+002, 8.724199e+001
9.562075e+002, 8.721934e+001
9.566896e+002, 8.707387e+001
9.571717e+002, 8.717142e+001
9.576538e+002, 8.771118e+001
9.581359e+002, 8.787973e+001
9.586180e+002, 8.750029e+001
9.591002e+002, 8.718736e+001
9.595823e+002, 8.755976e+001
9.600644e+002, 8.833377e+001
9.605465e+002, 8.856370e+001
9.610286e+002, 8.830433e+001
9.615107e+002, 8.810825e+001
9.619929e+002, 8.834743e+001
9.624750e+002, 8.867387e+001
9.629571e+002, 8.892860e+001
9.634392e+002, 8.911989e+001
9.639213e+002, 8.932227e+001
9.644034e+002, 8.956506e+001
9.648856e+002, 8.967139e+001
9.653677e+002, 8.953777e+001
9.658498e+002, 8.937638e+001
9.663319e+002, 8.955907e+001
9.668140e+002, 8.996436e+001
9.672961e+002, 9.034431e+001
9.677783e+002, 9.065018e+001
9.682604e+002, 9.088685e+001
9.687425e+002, 9.092265e+001
9.692246e+002, 9.099831e+001
9.697067e+002, 9.137537e+001
9.701888e+002, 9.214954e+001
9.706710e+002, 9.238750e+001
9.711531e+002, 9.202631e+001
9.716352e+002, 9.170699e+001
9.721173e+002, 9.208646e+001
9.725994e+002, 9.269634e+001
9.730815e+002, 9.282248e+001
9.735637e+002, 9.255605e+001
9.740458e+002, 9.255399e+001
9.745279e+002, 9.355175e+001
9.750100e+002, 9.417852e+001
9.754921e+002, 9.391234e+001
9.759742e+002, 9.318149e+001
9.764564e+002, 9.308463e+001
9.769385e+002, 9.358829e+001
9.774206e+002, 9.408335e+001
9.779027e+002, 9.443860e+001
9.783848e+002, 9.464542e+001
9.788669e+002, 9.466972e+001
9.793491e+002, 9.455601e+001
9.798312e+002, 9.435593e+001
9.803133e+002, 9.407307e+001
9.807954e+002, 9.369656e+001
9.812775e+002, 9.314145e+001
9.817596e+002, 9.263615e+001
9.822418e+002, 9.232745e+001
9.827239e+002, 9.220045e+001
9.832060e+002, 9.223756e+001
9.836881e+002, 9.241552e+001
9.841702e+002, 9.254810e+001
9.846523e+002, 9.264317e+001
9.851345e+002, 9.253601e+001
9.856166e+002, 9.196989e+001
9.860987e+002, 9.110502e+001
9.865808e+002, 9.053856e+001
9.870629e+002, 9.036050e+001
9.875450e+002, 9.020871e+001
9.880272e+002, 9.002425e+001
9.885093e+002, 8.981310e+001
9.889914e+002, 8.964938e+001
9.894735e+002, 8.945522e+001
9.899556e+002, 8.899661e+001
9.904377e+002, 8.810558e+001
9.909199e+002, 8.746706e+001
9.914020e+002, 8.762101e+001
9.918841e+002, 8.791309e+001
9.923662e+002, 8.789083e+001
9.928483e+002, 8.754317e+001
9.933304e+002, 8.735997e+001
9.938126e+002, 8.735933e+001
9.942947e+002, 8.720732e+001
9.947768e+002, 8.650801e+001
9.952589e+002, 8.567680e+001
9.957410e+002, 8.515260e+001
9.962231e+002, 8.490572e+001
9.967053e+002, 8.482455e+001
9.971874e+002, 8.520513e+001
9.976695e+002, 8.529662e+001
9.981516e+002, 8.494078e+001
9.986337e+002, 8.432227e+001
9.991158e+002, 8.356030e+001
9.995980e+002, 8.272462e+001
1.000080e+003, 8.244386e+001
1.000562e+003, 8.286618e+001
1.001044e+003, 8.327090e+001
1.001526e+003, 8.304893e+001
1.002009e+003, 8.261611e+001
1.002491e+003, 8.231173e+001
1.002973e+003, 8.217778e+001
1.003455e+003, 8.202376e+001
1.003937e+003, 8.185027e+001
1.004419e+003, 8.165343e+001
1.004901e+003, 8.139232e+001
1.005383e+003, 8.113941e+001
1.005865e+003, 8.111568e+001
1.006348e+003, 8.123244e+001
1.006830e+003, 8.123511e+001
1.007312e+003, 8.082679e+001
1.007794e+003, 8.051808e+001
1.008276e+003, 8.049499e+001
1.008758e+003, 8.062925e+001
1.009240e+003, 8.089676e+001
1.009722e+003, 8.135825e+001
1.010205e+003, 8.116283e+001
1.010687e+003, 8.018452e+001
1.011169e+003, 7.921605e+001
1.011651e+003, 7.899672e+001
1.012133e+003, 7.912704e+001
1.012615e+003, 7.922034e+001
1.013097e+003, 7.924721e+001
1.013579e+003, 7.928777e+001
1.014061e+003, 7.944210e+001
1.014544e+003, 7.945493e+001
1.015026e+003, 7.917463e+001
1.015508e+003, 7.878011e+001
1.015990e+003, 7.877011e+001
1.016472e+003, 7.904603e+001
1.016954e+003, 7.919113e+001
1.017436e+003, 7.902444e+001
1.017918e+003, 7.883801e+001
1.018401e+003, 7.883180e+001
1.018883e+003, 7.888499e+001
1.019365e+003, 7.887322e+001
1.019847e+003, 7.877707e+001
1.020329e+003, 7.869013e+001
1.020811e+003, 7.860647e+001
1.021293e+003, 7.856741e+001
1.021775e+003, 7.864074e+001
1.022257e+003, 7.875636e+001
1.022740e+003, 7.879424e+001
1.023222e+003, 7.877383e+001
1.023704e+003, 7.877591e+001
1.024186e+003, 7.891143e+001
1.024668e+003, 7.896099e+001
1.025150e+003, 7.886739e+001
1.025632e+003, 7.868039e+001
1.026114e+003, 7.847121e+001
1.026596e+003, 7.824309e+001
1.027079e+003, 7.793813e+001
1.027561e+003, 7.751224e+001
1.028043e+003, 7.730376e+001
1.028525e+003, 7.782625e+001
1.029007e+003, 7.851462e+001
1.029489e+003, 7.884940e+001
1.029971e+003, 7.876392e+001
1.030453e+003, 7.883055e+001
1.030936e+003, 7.913258e+001
1.031418e+003, 7.930656e+001
1.031900e+003, 7.916518e+001
1.032382e+003, 7.884009e+001
1.032864e+003, 7.849837e+001
1.033346e+003, 7.819006e+001
1.033828e+003, 7.804931e+001
1.034310e+003, 7.829485e+001
1.034792e+003, 7.844727e+001
1.035275e+003, 7.832828e+001
1.035757e+003, 7.812606e+001
1.036239e+003, 7.800233e+001
1.036721e+003, 7.795845e+001
1.037203e+003, 7.787808e+001
1.037685e+003, 7.775967e+001
1.038167e+003, 7.761416e+001
1.038649e+003, 7.734068e+001
1.039132e+003, 7.713823e+001
1.039614e+003, 7.723402e+001
1.040096e+003, 7.756437e+001
1.040578e+003, 7.776981e+001
1.041060e+003, 7.780336e+001
1.041542e+003, 7.780730e+001
1.042024e+003, 7.783607e+001
1.042506e+003, 7.778220e+001
1.042989e+003, 7.730049e+001
1.043471e+003, 7.665500e+001
1.043953e+003, 7.643716e+001
1.044435e+003, 7.681828e+001
1.044917e+003, 7.724963e+001
1.045399e+003, 7.768424e+001
1.045881e+003, 7.793778e+001
1.046363e+003, 7.786604e+001
1.046845e+003, 7.751856e+001
1.047328e+003, 7.727938e+001
1.047810e+003, 7.714362e+001
1.048292e+003, 7.705534e+001
1.048774e+003, 7.693896e+001
1.049256e+003, 7.692717e+001
1.049738e+003, 7.731405e+001
1.050220e+003, 7.781371e+001
1.050702e+003, 7.794151e+001
1.051184e+003, 7.748458e+001
1.051667e+003, 7.711095e+001
1.052149e+003, 7.686147e+001
1.052631e+003, 7.660147e+001
1.053113e+003, 7.606905e+001
1.053595e+003, 7.549120e+001
1.054077e+003, 7.535921e+001
1.054559e+003, 7.563866e+001
1.055041e+003, 7.595937e+001
1.055523e+003, 7.618959e+001
1.056006e+003, 7.642857e+001
1.056488e+003, 7.678149e+001
1.056970e+003, 7.710368e+001
1.057452e+003, 7.704823e+001
1.057934e+003, 7.665601e+001
1.058416e+003, 7.629599e+001
1.058898e+003, 7.604263e+001
1.059380e+003, 7.580563e+001
1.059863e+003, 7.548085e+001
1.060345e+003, 7.517160e+001
1.060827e+003, 7.494167e+001
1.061309e+003, 7.479140e+001
1.061791e+003, 7.490804e+001
1.062273e+003, 7.539066e+001
1.062755e+003, 7.564379e+001
1.063237e+003, 7.526449e+001
1.063719e+003, 7.469839e+001
1.064202e+003, 7.468801e+001
1.064684e+003, 7.499358e+001
1.065166e+003, 7.515736e+001
1.065648e+003, 7.496818e+001
1.066130e+003, 7.474707e+001
1.066612e+003, 7.448842e+001
1.067094e+003, 7.426933e+001
1.067576e+003, 7.417735e+001
1.068059e+003, 7.418497e+001
1.068541e+003, 7.409437e+001
1.069023e+003, 7.392763e+001
1.069505e+003, 7.388706e+001
1.069987e+003, 7.426995e+001
1.070469e+003, 7.462373e+001
1.070951e+003, 7.465876e+001
1.071433e+003, 7.451524e+001
1.071916e+003, 7.444835e+001
1.072398e+003, 7.446748e+001
1.072880e+003, 7.447543e+001
1.073362e+003, 7.445292e+001
1.073844e+003, 7.446044e+001
1.074326e+003, 7.467354e+001
1.074808e+003, 7.487382e+001
1.075290e+003, 7.474242e+001
1.075772e+003, 7.425551e+001
1.076255e+003, 7.407797e+001
1.076737e+003, 7.447236e+001
1.077219e+003, 7.462829e+001
1.077701e+003, 7.417461e+001
1.078183e+003, 7.349690e+001
1.078665e+003, 7.334731e+001
1.079147e+003, 7.357314e+001
1.079629e+003, 7.386164e+001
1.080111e+003, 7.422829e+001
1.080594e+003, 7.435458e+001
1.081076e+003, 7.379332e+001
1.081558e+003, 7.328242e+001
1.082040e+003, 7.332417e+001
1.082522e+003, 7.384056e+001
1.083004e+003, 7.401292e+001
1.083486e+003, 7.386959e+001
1.083968e+003, 7.367233e+001
1.084450e+003, 7.354127e+001
1.084933e+003, 7.342696e+001
1.085415e+003, 7.319688e+001
1.085897e+003, 7.301120e+001
1.086379e+003, 7.314659e+001
1.086861e+003, 7.374043e+001
1.087343e+003, 7.409972e+001
1.087825e+003, 7.417569e+001
1.088307e+003, 7.414474e+001
1.088790e+003, 7.416277e+001
1.089272e+003, 7.416123e+001
1.089754e+003, 7.401437e+001
1.090236e+003, 7.375526e+001
1.090718e+003, 7.358702e+001
1.091200e+003, 7.360688e+001
1.091682e+003, 7.360811e+001
1.092164e+003, 7.355126e+001
1.092646e+003, 7.346957e+001
1.093129e+003, 7.335534e+001
1.093611e+003, 7.326672e+001
1.094093e+003, 7.339964e+001
1.094575e+003, 7.380278e+001
1.095057e+003, 7.410638e+001
1.095539e+003, 7.406078e+001
1.096021e+003, 7.396095e+001
1.096503e+003, 7.393616e+001
1.096986e+003, 7.395827e+001
1.097468e+003, 7.391211e+001
1.097950e+003, 7.380553e+001
1.098432e+003, 7.370358e+001
1.098914e+003, 7.361955e+001
1.099396e+003, 7.356504e+001
1.099878e+003, 7.353731e+001
1.100360e+003, 7.355296e+001
1.100843e+003, 7.365861e+001
1.101325e+003, 7.387991e+001
1.101807e+003, 7.390612e+001
1.102289e+003, 7.372227e+001
1.102771e+003, 7.350748e+001
1.103253e+003, 7.333576e+001
1.103735e+003, 7.321495e+001
1.104217e+003, 7.315715e+001
1.104699e+003, 7.315896e+001
1.105182e+003, 7.322075e+001
1.105664e+003, 7.348212e+001
1.106146e+003, 7.350352e+001
1.106628e+003, 7.317752e+001
1.107110e+003, 7.286877e+001
1.107592e+003, 7.292889e+001
1.108074e+003, 7.322919e+001
1.108556e+003, 7.351237e+001
1.109038e+003, 7.378200e+001
1.109521e+003, 7.411827e+001
1.110003e+003, 7.490796e+001
1.110485e+003, 7.525507e+001
1.110967e+003, 7.480576e+001
1.111449e+003, 7.406094e+001
1.111931e+003, 7.378457e+001
1.112413e+003, 7.388264e+001
1.112895e+003, 7.397115e+001
1.113377e+003, 7.400687e+001
1.113860e+003, 7.390862e+001
1.114342e+003, 7.338801e+001
1.114824e+003, 7.296821e+001
1.115306e+003, 7.302360e+001
1.115788e+003, 7.338694e+001
1.116270e+003, 7.350474e+001
1.116752e+003, 7.338289e+001
1.117234e+003, 7.327955e+001
1.117717e+003, 7.325603e+001
1.118199e+003, 7.328348e+001
1.118681e+003, 7.329311e+001
1.119163e+003, 7.337090e+001
1.119645e+003, 7.369247e+001
1.120127e+003, 7.427970e+001
1.120609e+003, 7.442690e+001
1.121091e+003, 7.406462e+001
1.121573e+003, 7.367625e+001
1.122056e+003, 7.338862e+001
1.122538e+003, 7.330081e+001
1.123020e+003, 7.378639e+001
1.123502e+003, 7.446402e+001
1.123984e+003, 7.471956e+001
1.124466e+003, 7.416310e+001
1.124948e+003, 7.376746e+001
1.125430e+003, 7.355823e+001
1.125913e+003, 7.348063e+001
1.126395e+003, 7.351387e+001
1.126877e+003, 7.364771e+001
1.127359e+003, 7.392986e+001
1.127841e+003, 7.429282e+001
1.128323e+003, 7.454383e+001
1.128805e+003, 7.459603e+001
1.129287e+003, 7.453509e+001
1.129770e+003, 7.431591e+001
1.130252e+003, 7.408636e+001
1.130734e+003, 7.398777e+001
1.131216e+003, 7.399980e+001
1.131698e+003, 7.403793e+001
1.132180e+003, 7.410122e+001
1.132662e+003, 7.421516e+001
1.133144e+003, 7.444305e+001
1.133626e+003, 7.466383e+001
1.134109e+003, 7.485690e+001
1.134591e+003, 7.500301e+001
1.135073e+003, 7.509225e+001
1.135555e+003, 7.511655e+001
1.136037e+003, 7.489993e+001
1.136519e+003, 7.441203e+001
1.137001e+003, 7.411060e+001
1.137483e+003, 7.465508e+001
1.137965e+003, 7.517920e+001
1.138448e+003, 7.493541e+001
1.138930e+003, 7.423900e+001
1.139412e+003, 7.411597e+001
1.139894e+003, 7.459908e+001
1.140376e+003, 7.501347e+001
1.140858e+003, 7.522578e+001
1.141340e+003, 7.530675e+001
1.141822e+003, 7.526820e+001
1.142304e+003, 7.517124e+001
1.142787e+003, 7.503196e+001
1.143269e+003, 7.485978e+001
1.143751e+003, 7.485139e+001
1.144233e+003, 7.502925e+001
1.144715e+003, 7.524261e+001
1.145197e+003, 7.543799e+001
1.145679e+003, 7.563956e+001
1.146161e+003, 7.599964e+001
1.146644e+003, 7.631904e+001
1.147126e+003, 7.627455e+001
1.147608e+003, 7.563494e+001
1.148090e+003, 7.536117e+001
1.148572e+003, 7.553751e+001
1.149054e+003, 7.587629e+001
1.149536e+003, 7.636600e+001
1.150018e+003, 7.678551e+001
1.150500e+003, 7.666708e+001
1.150983e+003, 7.620407e+001
1.151465e+003, 7.576985e+001
1.151947e+003, 7.540574e+001
1.152429e+003, 7.522379e+001
1.152911e+003, 7.524866e+001
1.153393e+003, 7.540132e+001
1.153875e+003, 7.571651e+001
1.154357e+003, 7.608566e+001
1.154840e+003, 7.617802e+001
1.155322e+003, 7.606384e+001
1.155804e+003, 7.596314e+001
1.156286e+003, 7.599031e+001
1.156768e+003, 7.597998e+001
1.157250e+003, 7.576197e+001
1.157732e+003, 7.570613e+001
1.158214e+003, 7.640469e+001
1.158697e+003, 7.756971e+001
1.159179e+003, 7.779742e+001
1.159661e+003, 7.721407e+001
1.160143e+003, 7.675259e+001
1.160625e+003, 7.717161e+001
1.161107e+003, 7.739354e+001
1.161589e+003, 7.691222e+001
1.162071e+003, 7.626094e+001
1.162553e+003, 7.616789e+001
1.163036e+003, 7.654650e+001
1.163518e+003, 7.677799e+001
1.164000e+003, 7.682444e+001
1.164482e+003, 7.683114e+001
1.164964e+003, 7.689994e+001
1.165446e+003, 7.693417e+001
1.165928e+003, 7.686378e+001
1.166410e+003, 7.674483e+001
1.166892e+003, 7.662751e+001
1.167375e+003, 7.652641e+001
1.167857e+003, 7.677500e+001
1.168339e+003, 7.744206e+001
1.168821e+003, 7.786764e+001
1.169303e+003, 7.716759e+001
1.169785e+003, 7.645712e+001
1.170267e+003, 7.657835e+001
1.170749e+003, 7.724341e+001
1.171231e+003, 7.771677e+001
1.171714e+003, 7.799973e+001
1.172196e+003, 7.793309e+001
1.172678e+003, 7.743185e+001
1.173160e+003, 7.691875e+001
1.173642e+003, 7.671369e+001
1.174124e+003, 7.668018e+001
1.174606e+003, 7.666563e+001
1.175088e+003, 7.670625e+001
1.175571e+003, 7.727660e+001
1.176053e+003, 7.843800e+001
1.176535e+003, 7.888366e+001
1.177017e+003, 7.803906e+001
1.177499e+003, 7.710463e+001
1.177981e+003, 7.738643e+001
1.178463e+003, 7.804176e+001
1.178945e+003, 7.824216e+001
1.179427e+003, 7.794384e+001
1.179910e+003, 7.762089e+001
1.180392e+003, 7.724519e+001
1.180874e+003, 7.714632e+001
1.181356e+003, 7.760151e+001
1.181838e+003, 7.802090e+001
1.182320e+003, 7.747907e+001
1.182802e+003, 7.671594e+001
1.183284e+003, 7.670729e+001
1.183767e+003, 7.766982e+001
1.184249e+003, 7.824934e+001
1.184731e+003, 7.842029e+001
1.185213e+003, 7.840182e+001
1.185695e+003, 7.821364e+001
1.186177e+003, 7.801819e+001
1.186659e+003, 7.801038e+001
1.187141e+003, 7.811638e+001
1.187624e+003, 7.825713e+001
1.188106e+003, 7.848598e+001
1.188588e+003, 7.845248e+001
1.189070e+003, 7.810192e+001
1.189552e+003, 7.781015e+001
1.190034e+003, 7.781583e+001
1.190516e+003, 7.797321e+001
1.190998e+003, 7.820438e+001
1.191480e+003, 7.842299e+001
1.191963e+003, 7.846254e+001
1.192445e+003, 7.816830e+001
1.192927e+003, 7.805244e+001
1.193409e+003, 7.815215e+001
1.193891e+003, 7.825359e+001
1.194373e+003, 7.818365e+001
1.194855e+003, 7.804799e+001
1.195337e+003, 7.790688e+001
1.195819e+003, 7.782124e+001
1.196302e+003, 7.793934e+001
1.196784e+003, 7.836348e+001
1.197266e+003, 7.885346e+001
1.197748e+003, 7.948062e+001
1.198230e+003, 7.984910e+001
1.198712e+003, 7.933379e+001
1.199194e+003, 7.858782e+001
1.199676e+003, 7.865038e+001
1.200158e+003, 7.921086e+001
1.200641e+003, 7.937337e+001
1.201123e+003, 7.882182e+001
1.201605e+003, 7.824000e+001
1.202087e+003, 7.759133e+001
1.202569e+003, 7.720995e+001
1.203051e+003, 7.761570e+001
1.203533e+003, 7.832253e+001
1.204015e+003, 7.872206e+001
1.204498e+003, 7.885556e+001
1.204980e+003, 7.895029e+001
1.205462e+003, 7.902531e+001
1.205944e+003, 7.912535e+001
1.206426e+003, 7.928327e+001
1.206908e+003, 7.935269e+001
1.207390e+003, 7.902462e+001
1.207872e+003, 7.863499e+001
1.208354e+003, 7.867908e+001
1.208837e+003, 7.907755e+001
1.209319e+003, 7.937920e+001
1.209801e+003, 7.954628e+001
1.210283e+003, 7.955296e+001
1.210765e+003, 7.934888e+001
1.211247e+003, 7.916669e+001
1.211729e+003, 7.919967e+001
1.212211e+003, 7.942791e+001
1.212694e+003, 8.001061e+001
1.213176e+003, 8.082756e+001
1.213658e+003, 8.112508e+001
1.214140e+003, 8.070094e+001
1.214622e+003, 8.020235e+001
1.215104e+003, 7.966191e+001
1.215586e+003, 7.933095e+001
1.216068e+003, 7.978414e+001
1.216551e+003, 8.039671e+001
1.217033e+003, 8.028822e+001
1.217515e+003, 7.953330e+001
1.217997e+003, 7.915052e+001
1.218479e+003, 7.933458e+001
1.218961e+003, 7.938622e+001
1.219443e+003, 7.913994e+001
1.219925e+003, 7.893470e+001
1.220407e+003, 7.920912e+001
1.220890e+003, 7.969288e+001
1.221372e+003, 8.016944e+001
1.221854e+003, 8.057754e+001
1.222336e+003, 8.067390e+001
1.222818e+003, 8.034045e+001
1.223300e+003, 8.017226e+001
1.223782e+003, 8.031035e+001
1.224264e+003, 8.051904e+001
1.224746e+003, 8.062527e+001
1.225229e+003, 8.060300e+001
1.225711e+003, 8.030937e+001
1.226193e+003, 7.979993e+001
1.226675e+003, 7.968713e+001
1.227157e+003, 8.005711e+001
1.227639e+003, 8.038546e+001
1.228121e+003, 8.056319e+001
1.228603e+003, 8.066052e+001
1.229085e+003, 8.066147e+001
1.229568e+003, 8.068480e+001
1.230050e+003, 8.094909e+001
1.230532e+003, 8.139473e+001
1.231014e+003, 8.138433e+001
1.231496e+003, 8.084240e+001
1.231978e+003, 8.052705e+001
1.232460e+003, 8.064082e+001
1.232942e+003, 8.087141e+001
1.233425e+003, 8.095347e+001
1.233907e+003, 8.098844e+001
1.234389e+003, 8.108690e+001
1.234871e+003, 8.122972e+001
1.235353e+003, 8.125285e+001
1.235835e+003, 8.114986e+001
1.236317e+003, 8.109973e+001
1.236799e+003, 8.116512e+001
1.237281e+003, 8.118547e+001
1.237764e+003, 8.095396e+001
1.238246e+003, 8.068168e+001
1.238728e+003, 8.047477e+001
1.239210e+003, 8.037252e+001
1.239692e+003, 8.068481e+001
1.240174e+003, 8.138107e+001
1.240656e+003, 8.173649e+001
1.241138e+003, 8.152401e+001
1.241621e+003, 8.125985e+001
1.242103e+003, 8.127304e+001
1.242585e+003, 8.142477e+001
1.243067e+003, 8.166407e+001
1.243549e+003, 8.194675e+001
1.244031e+003, 8.211067e+001
1.244513e+003, 8.217105e+001
1.244995e+003, 8.225292e+001
1.245478e+003, 8.239716e+001
1.245960e+003, 8.249218e+001
1.246442e+003, 8.250254e+001
1.246924e+003, 8.239220e+001
1.247406e+003, 8.208395e+001
1.247888e+003, 8.169570e+001
1.248370e+003, 8.163818e+001
1.248852e+003, 8.184203e+001
1.249334e+003, 8.202370e+001
1.249817e+003, 8.212251e+001
1.250299e+003, 8.217278e+001
1.250781e+003, 8.222102e+001
1.251263e+003, 8.216771e+001
1.251745e+003, 8.188974e+001
1.252227e+003, 8.157117e+001
1.252709e+003, 8.178225e+001
1.253191e+003, 8.232166e+001
1.253673e+003, 8.259525e+001
1.254156e+003, 8.245770e+001
1.254638e+003, 8.225691e+001
1.255120e+003, 8.202486e+001
1.255602e+003, 8.185822e+001
1.256084e+003, 8.177332e+001
1.256566e+003, 8.179868e+001
1.257048e+003, 8.211117e+001
1.257530e+003, 8.254158e+001
1.258012e+003, 8.269353e+001
1.258495e+003, 8.246164e+001
1.258977e+003, 8.238689e+001
1.259459e+003, 8.266103e+001
1.259941e+003, 8.281853e+001
1.260423e+003, 8.266264e+001
1.260905e+003, 8.242134e+001
1.261387e+003, 8.252702e+001
1.261869e+003, 8.275124e+001
1.262352e+003, 8.270179e+001
1.262834e+003, 8.229984e+001
1.263316e+003, 8.214148e+001
1.263798e+003, 8.230866e+001
1.264280e+003, 8.254919e+001
1.264762e+003, 8.284412e+001
1.265244e+003, 8.301170e+001
1.265726e+003, 8.260852e+001
1.266208e+003, 8.210537e+001
1.266691e+003, 8.208959e+001
1.267173e+003, 8.260661e+001
1.267655e+003, 8.298841e+001
1.268137e+003, 8.324319e+001
1.268619e+003, 8.327117e+001
1.269101e+003, 8.298701e+001
1.269583e+003, 8.273095e+001
1.270065e+003, 8.296476e+001
1.270548e+003, 8.325713e+001
1.271030e+003, 8.308916e+001
1.271512e+003, 8.262080e+001
1.271994e+003, 8.266006e+001
1.272476e+003, 8.319408e+001
1.272958e+003, 8.361784e+001
1.273440e+003, 8.380650e+001
1.273922e+003, 8.380611e+001
1.274405e+003, 8.354756e+001
1.274887e+003, 8.320296e+001
1.275369e+003, 8.278207e+001
1.275851e+003, 8.240318e+001
1.276333e+003, 8.246886e+001
1.276815e+003, 8.289124e+001
1.277297e+003, 8.322004e+001
1.277779e+003, 8.336352e+001
1.278261e+003, 8.350578e+001
1.278744e+003, 8.383151e+001
1.279226e+003, 8.403580e+001
1.279708e+003, 8.393533e+001
1.280190e+003, 8.374777e+001
1.280672e+003, 8.399186e+001
1.281154e+003, 8.446883e+001
1.281636e+003, 8.460580e+001
1.282118e+003, 8.432505e+001
1.282600e+003, 8.421659e+001
1.283083e+003, 8.465506e+001
1.283565e+003, 8.493111e+001
1.284047e+003, 8.487365e+001
1.284529e+003, 8.462022e+001
1.285011e+003, 8.427963e+001
1.285493e+003, 8.392022e+001
1.285975e+003, 8.355710e+001
1.286457e+003, 8.322942e+001
1.286939e+003, 8.342094e+001
1.287422e+003, 8.436118e+001
1.287904e+003, 8.505865e+001
1.288386e+003, 8.530866e+001
1.288868e+003, 8.534580e+001
1.289350e+003, 8.537804e+001
1.289832e+003, 8.536138e+001
1.290314e+003, 8.520481e+001
1.290796e+003, 8.495006e+001
1.291279e+003, 8.478899e+001
1.291761e+003, 8.471672e+001
1.292243e+003, 8.477754e+001
1.292725e+003, 8.497904e+001
1.293207e+003, 8.527438e+001
1.293689e+003, 8.579450e+001
1.294171e+003, 8.622443e+001
1.294653e+003, 8.636361e+001
1.295135e+003, 8.625073e+001
1.295618e+003, 8.578726e+001
1.296100e+003, 8.504138e+001
1.296582e+003, 8.471294e+001
1.297064e+003, 8.486071e+001
1.297546e+003, 8.514298e+001
1.298028e+003, 8.557231e+001
1.298510e+003, 8.576220e+001
1.298992e+003, 8.547383e+001
1.299475e+003, 8.511552e+001
1.299957e+003, 8.528872e+001
1.300439e+003, 8.581250e+001
1.300921e+003, 8.615156e+001
1.301403e+003, 8.630544e+001
1.301885e+003, 8.648564e+001
##END=



