##NAMES=Ilvaite
##RRUFFID=R050040
##IDEAL CHEMISTRY=CaFe^2+^_2_Fe^3+^OSi_2_O_7_(OH)
##LOCALITY=Capo Calamita, Isle of Elba, Italy
##OWNER=RRUFF
##SOURCE=University of Arizona Mineral Museum
##DESCRIPTION=Brown fragment
##STATUS=The identification of this mineral has been confirmed by X-ray diffraction and chemical analysis
##URL=rruff.info/R050040
##MEASURED CHEMISTRY=Ca_1.00_(Fe^2+^_1.89_Mn_0.10_Mg_0.01_)_Î£=2_Fe^3+^_1.00_OSi_2.00_O_7_(OH); trace amounts of Al; OH estimated by charge balance
8.975323e+001, 0.000000e+000
9.023535e+001, 4.540306e+002
9.071747e+001, 4.481741e+002
9.119958e+001, 4.443505e+002
9.168170e+001, 4.529235e+002
9.216382e+001, 4.601667e+002
9.264594e+001, 4.629674e+002
9.312805e+001, 4.625069e+002
9.361017e+001, 4.609607e+002
9.409229e+001, 4.591209e+002
9.457440e+001, 4.574347e+002
9.505651e+001, 4.545742e+002
9.553863e+001, 4.503937e+002
9.602074e+001, 4.457639e+002
9.650286e+001, 4.415387e+002
9.698498e+001, 4.378058e+002
9.746709e+001, 4.334672e+002
9.794921e+001, 4.285764e+002
9.843133e+001, 4.224203e+002
9.891344e+001, 4.167674e+002
9.939556e+001, 4.117952e+002
9.987768e+001, 4.074704e+002
1.003598e+002, 4.039783e+002
1.008419e+002, 4.015976e+002
1.013240e+002, 4.001157e+002
1.018061e+002, 3.983906e+002
1.022883e+002, 3.957907e+002
1.027704e+002, 3.932830e+002
1.032525e+002, 3.919538e+002
1.037346e+002, 3.919830e+002
1.042167e+002, 3.920879e+002
1.046988e+002, 3.912954e+002
1.051810e+002, 3.899136e+002
1.056631e+002, 3.883440e+002
1.061452e+002, 3.866295e+002
1.066273e+002, 3.848253e+002
1.071094e+002, 3.831684e+002
1.075915e+002, 3.816274e+002
1.080737e+002, 3.802735e+002
1.085558e+002, 3.790338e+002
1.090379e+002, 3.779578e+002
1.095200e+002, 3.771821e+002
1.100021e+002, 3.768906e+002
1.104842e+002, 3.771950e+002
1.109664e+002, 3.774049e+002
1.114485e+002, 3.773983e+002
1.119306e+002, 3.774059e+002
1.124127e+002, 3.776654e+002
1.128948e+002, 3.781408e+002
1.133769e+002, 3.785180e+002
1.138591e+002, 3.783285e+002
1.143412e+002, 3.771421e+002
1.148233e+002, 3.760869e+002
1.153054e+002, 3.752658e+002
1.157875e+002, 3.745135e+002
1.162696e+002, 3.735873e+002
1.167517e+002, 3.723777e+002
1.172339e+002, 3.711279e+002
1.177160e+002, 3.705389e+002
1.181981e+002, 3.710271e+002
1.186802e+002, 3.711609e+002
1.191623e+002, 3.702726e+002
1.196444e+002, 3.686656e+002
1.201266e+002, 3.671605e+002
1.206087e+002, 3.661081e+002
1.210908e+002, 3.654117e+002
1.215729e+002, 3.648426e+002
1.220550e+002, 3.646182e+002
1.225371e+002, 3.641477e+002
1.230193e+002, 3.627370e+002
1.235014e+002, 3.602605e+002
1.239835e+002, 3.578853e+002
1.244656e+002, 3.563257e+002
1.249477e+002, 3.551133e+002
1.254298e+002, 3.538515e+002
1.259120e+002, 3.523968e+002
1.263941e+002, 3.508501e+002
1.268762e+002, 3.494356e+002
1.273583e+002, 3.481091e+002
1.278404e+002, 3.470250e+002
1.283225e+002, 3.463140e+002
1.288047e+002, 3.458069e+002
1.292868e+002, 3.453134e+002
1.297689e+002, 3.447442e+002
1.302510e+002, 3.440863e+002
1.307331e+002, 3.431289e+002
1.312152e+002, 3.415363e+002
1.316974e+002, 3.399417e+002
1.321795e+002, 3.385021e+002
1.326616e+002, 3.371913e+002
1.331437e+002, 3.358912e+002
1.336258e+002, 3.344628e+002
1.341079e+002, 3.328228e+002
1.345901e+002, 3.316578e+002
1.350722e+002, 3.312711e+002
1.355543e+002, 3.310145e+002
1.360364e+002, 3.305425e+002
1.365185e+002, 3.298158e+002
1.370006e+002, 3.289796e+002
1.374828e+002, 3.282091e+002
1.379649e+002, 3.275270e+002
1.384470e+002, 3.267560e+002
1.389291e+002, 3.257159e+002
1.394112e+002, 3.246468e+002
1.398933e+002, 3.238968e+002
1.403755e+002, 3.236063e+002
1.408576e+002, 3.233994e+002
1.413397e+002, 3.226893e+002
1.418218e+002, 3.215211e+002
1.423039e+002, 3.205109e+002
1.427860e+002, 3.201255e+002
1.432681e+002, 3.201519e+002
1.437503e+002, 3.197621e+002
1.442324e+002, 3.184713e+002
1.447145e+002, 3.170521e+002
1.451966e+002, 3.161205e+002
1.456787e+002, 3.156898e+002
1.461608e+002, 3.156015e+002
1.466430e+002, 3.159951e+002
1.471251e+002, 3.169887e+002
1.476072e+002, 3.172952e+002
1.480893e+002, 3.158920e+002
1.485714e+002, 3.141876e+002
1.490535e+002, 3.128682e+002
1.495357e+002, 3.120943e+002
1.500178e+002, 3.116601e+002
1.504999e+002, 3.113061e+002
1.509820e+002, 3.110993e+002
1.514641e+002, 3.108178e+002
1.519462e+002, 3.105956e+002
1.524284e+002, 3.102282e+002
1.529105e+002, 3.094146e+002
1.533926e+002, 3.080688e+002
1.538747e+002, 3.065181e+002
1.543568e+002, 3.055932e+002
1.548389e+002, 3.060582e+002
1.553211e+002, 3.062906e+002
1.558032e+002, 3.061843e+002
1.562853e+002, 3.058152e+002
1.567674e+002, 3.052125e+002
1.572495e+002, 3.043705e+002
1.577316e+002, 3.033983e+002
1.582138e+002, 3.027809e+002
1.586959e+002, 3.030511e+002
1.591780e+002, 3.030310e+002
1.596601e+002, 3.022242e+002
1.601422e+002, 3.008955e+002
1.606243e+002, 2.996577e+002
1.611065e+002, 2.988768e+002
1.615886e+002, 2.984610e+002
1.620707e+002, 2.979525e+002
1.625528e+002, 2.974818e+002
1.630349e+002, 2.968181e+002
1.635170e+002, 2.956404e+002
1.639991e+002, 2.940130e+002
1.644813e+002, 2.926012e+002
1.649634e+002, 2.919010e+002
1.654455e+002, 2.917096e+002
1.659276e+002, 2.915083e+002
1.664097e+002, 2.912834e+002
1.668918e+002, 2.909948e+002
1.673740e+002, 2.906220e+002
1.678561e+002, 2.901820e+002
1.683382e+002, 2.895772e+002
1.688203e+002, 2.885426e+002
1.693024e+002, 2.873583e+002
1.697845e+002, 2.863849e+002
1.702667e+002, 2.858675e+002
1.707488e+002, 2.855830e+002
1.712309e+002, 2.849474e+002
1.717130e+002, 2.836152e+002
1.721951e+002, 2.825877e+002
1.726772e+002, 2.824757e+002
1.731594e+002, 2.828145e+002
1.736415e+002, 2.829454e+002
1.741236e+002, 2.824662e+002
1.746057e+002, 2.814682e+002
1.750878e+002, 2.804815e+002
1.755699e+002, 2.792425e+002
1.760521e+002, 2.783520e+002
1.765342e+002, 2.781642e+002
1.770163e+002, 2.784192e+002
1.774984e+002, 2.786663e+002
1.779805e+002, 2.785671e+002
1.784626e+002, 2.781177e+002
1.789448e+002, 2.777904e+002
1.794269e+002, 2.777246e+002
1.799090e+002, 2.776419e+002
1.803911e+002, 2.774035e+002
1.808732e+002, 2.770669e+002
1.813553e+002, 2.767929e+002
1.818375e+002, 2.767231e+002
1.823196e+002, 2.768785e+002
1.828017e+002, 2.770367e+002
1.832838e+002, 2.772973e+002
1.837659e+002, 2.774723e+002
1.842480e+002, 2.773487e+002
1.847301e+002, 2.769908e+002
1.852123e+002, 2.767539e+002
1.856944e+002, 2.770415e+002
1.861765e+002, 2.779654e+002
1.866586e+002, 2.782939e+002
1.871407e+002, 2.776411e+002
1.876228e+002, 2.766957e+002
1.881050e+002, 2.758752e+002
1.885871e+002, 2.752403e+002
1.890692e+002, 2.747841e+002
1.895513e+002, 2.745634e+002
1.900334e+002, 2.745739e+002
1.905155e+002, 2.745254e+002
1.909977e+002, 2.743776e+002
1.914798e+002, 2.741627e+002
1.919619e+002, 2.739428e+002
1.924440e+002, 2.737433e+002
1.929261e+002, 2.734424e+002
1.934082e+002, 2.728349e+002
1.938904e+002, 2.720085e+002
1.943725e+002, 2.712041e+002
1.948546e+002, 2.705288e+002
1.953367e+002, 2.699174e+002
1.958188e+002, 2.692576e+002
1.963009e+002, 2.685697e+002
1.967831e+002, 2.677601e+002
1.972652e+002, 2.666538e+002
1.977473e+002, 2.653604e+002
1.982294e+002, 2.641889e+002
1.987115e+002, 2.633283e+002
1.991936e+002, 2.627224e+002
1.996758e+002, 2.621426e+002
2.001579e+002, 2.615767e+002
2.006400e+002, 2.610484e+002
2.011221e+002, 2.606030e+002
2.016042e+002, 2.602052e+002
2.020863e+002, 2.597757e+002
2.025685e+002, 2.592574e+002
2.030506e+002, 2.586526e+002
2.035327e+002, 2.580111e+002
2.040148e+002, 2.571584e+002
2.044969e+002, 2.564665e+002
2.049790e+002, 2.561272e+002
2.054612e+002, 2.560669e+002
2.059433e+002, 2.561085e+002
2.064254e+002, 2.561655e+002
2.069075e+002, 2.562535e+002
2.073896e+002, 2.560464e+002
2.078717e+002, 2.552349e+002
2.083539e+002, 2.543914e+002
2.088360e+002, 2.536964e+002
2.093181e+002, 2.531278e+002
2.098002e+002, 2.525425e+002
2.102823e+002, 2.517507e+002
2.107644e+002, 2.506632e+002
2.112466e+002, 2.502370e+002
2.117287e+002, 2.512484e+002
2.122108e+002, 2.521371e+002
2.126929e+002, 2.522517e+002
2.131750e+002, 2.516609e+002
2.136571e+002, 2.507981e+002
2.141393e+002, 2.500357e+002
2.146214e+002, 2.493793e+002
2.151035e+002, 2.488026e+002
2.155856e+002, 2.483590e+002
2.160677e+002, 2.479281e+002
2.165498e+002, 2.473953e+002
2.170320e+002, 2.467955e+002
2.175141e+002, 2.462739e+002
2.179962e+002, 2.459577e+002
2.184783e+002, 2.458661e+002
2.189604e+002, 2.459566e+002
2.194425e+002, 2.466532e+002
2.199247e+002, 2.471716e+002
2.204068e+002, 2.468847e+002
2.208889e+002, 2.458458e+002
2.213710e+002, 2.447122e+002
2.218531e+002, 2.440435e+002
2.223352e+002, 2.438843e+002
2.228174e+002, 2.436587e+002
2.232995e+002, 2.434290e+002
2.237816e+002, 2.430901e+002
2.242637e+002, 2.424849e+002
2.247458e+002, 2.416226e+002
2.252279e+002, 2.408013e+002
2.257100e+002, 2.403508e+002
2.261922e+002, 2.401913e+002
2.266743e+002, 2.396946e+002
2.271564e+002, 2.385261e+002
2.276385e+002, 2.371902e+002
2.281206e+002, 2.360919e+002
2.286027e+002, 2.352500e+002
2.290849e+002, 2.346895e+002
2.295670e+002, 2.346957e+002
2.300491e+002, 2.350064e+002
2.305312e+002, 2.348851e+002
2.310133e+002, 2.339414e+002
2.314954e+002, 2.326623e+002
2.319776e+002, 2.315000e+002
2.324597e+002, 2.304332e+002
2.329418e+002, 2.296383e+002
2.334239e+002, 2.295342e+002
2.339060e+002, 2.297247e+002
2.343881e+002, 2.295885e+002
2.348703e+002, 2.288279e+002
2.353524e+002, 2.277934e+002
2.358345e+002, 2.269670e+002
2.363166e+002, 2.263972e+002
2.367987e+002, 2.258122e+002
2.372808e+002, 2.249495e+002
2.377630e+002, 2.240272e+002
2.382451e+002, 2.232853e+002
2.387272e+002, 2.228057e+002
2.392093e+002, 2.225263e+002
2.396914e+002, 2.224021e+002
2.401735e+002, 2.225060e+002
2.406557e+002, 2.225280e+002
2.411378e+002, 2.223768e+002
2.416199e+002, 2.220790e+002
2.421020e+002, 2.216407e+002
2.425841e+002, 2.210630e+002
2.430662e+002, 2.203530e+002
2.435484e+002, 2.194368e+002
2.440305e+002, 2.181235e+002
2.445126e+002, 2.171478e+002
2.449947e+002, 2.169892e+002
2.454768e+002, 2.170844e+002
2.459589e+002, 2.169692e+002
2.464410e+002, 2.164837e+002
2.469232e+002, 2.157783e+002
2.474053e+002, 2.150538e+002
2.478874e+002, 2.142037e+002
2.483695e+002, 2.136134e+002
2.488516e+002, 2.135295e+002
2.493337e+002, 2.135899e+002
2.498159e+002, 2.135014e+002
2.502980e+002, 2.131774e+002
2.507801e+002, 2.127782e+002
2.512622e+002, 2.126124e+002
2.517443e+002, 2.129035e+002
2.522264e+002, 2.129082e+002
2.527086e+002, 2.122850e+002
2.531907e+002, 2.115772e+002
2.536728e+002, 2.112267e+002
2.541549e+002, 2.113218e+002
2.546370e+002, 2.115543e+002
2.551191e+002, 2.114166e+002
2.556013e+002, 2.106162e+002
2.560834e+002, 2.100824e+002
2.565655e+002, 2.101093e+002
2.570476e+002, 2.101617e+002
2.575297e+002, 2.097509e+002
2.580118e+002, 2.088596e+002
2.584940e+002, 2.079776e+002
2.589761e+002, 2.078336e+002
2.594582e+002, 2.089278e+002
2.599403e+002, 2.094922e+002
2.604224e+002, 2.093718e+002
2.609045e+002, 2.089702e+002
2.613867e+002, 2.083745e+002
2.618688e+002, 2.076828e+002
2.623509e+002, 2.071394e+002
2.628330e+002, 2.070717e+002
2.633151e+002, 2.077210e+002
2.637972e+002, 2.079525e+002
2.642794e+002, 2.074905e+002
2.647615e+002, 2.069301e+002
2.652436e+002, 2.065730e+002
2.657257e+002, 2.064400e+002
2.662078e+002, 2.064058e+002
2.666899e+002, 2.063601e+002
2.671721e+002, 2.063108e+002
2.676542e+002, 2.061877e+002
2.681363e+002, 2.058703e+002
2.686184e+002, 2.056025e+002
2.691005e+002, 2.055550e+002
2.695826e+002, 2.056831e+002
2.700648e+002, 2.058168e+002
2.705469e+002, 2.058342e+002
2.710290e+002, 2.057368e+002
2.715111e+002, 2.054130e+002
2.719932e+002, 2.045530e+002
2.724753e+002, 2.038186e+002
2.729575e+002, 2.036186e+002
2.734396e+002, 2.037983e+002
2.739217e+002, 2.038931e+002
2.744038e+002, 2.035659e+002
2.748859e+002, 2.028662e+002
2.753680e+002, 2.024181e+002
2.758501e+002, 2.026541e+002
2.763322e+002, 2.026189e+002
2.768144e+002, 2.016658e+002
2.772965e+002, 2.001883e+002
2.777786e+002, 1.991018e+002
2.782607e+002, 1.989449e+002
2.787428e+002, 1.994915e+002
2.792249e+002, 1.997828e+002
2.797071e+002, 1.998750e+002
2.801892e+002, 1.997155e+002
2.806713e+002, 1.991581e+002
2.811534e+002, 1.983554e+002
2.816355e+002, 1.975703e+002
2.821176e+002, 1.969160e+002
2.825998e+002, 1.963432e+002
2.830819e+002, 1.957283e+002
2.835640e+002, 1.949442e+002
2.840461e+002, 1.943491e+002
2.845282e+002, 1.940470e+002
2.850103e+002, 1.939701e+002
2.854925e+002, 1.941222e+002
2.859746e+002, 1.945471e+002
2.864567e+002, 1.949360e+002
2.869388e+002, 1.946521e+002
2.874209e+002, 1.933992e+002
2.879030e+002, 1.925432e+002
2.883852e+002, 1.927424e+002
2.888673e+002, 1.932744e+002
2.893494e+002, 1.931909e+002
2.898315e+002, 1.922608e+002
2.903136e+002, 1.910605e+002
2.907957e+002, 1.902235e+002
2.912779e+002, 1.897697e+002
2.917600e+002, 1.896173e+002
2.922421e+002, 1.901814e+002
2.927242e+002, 1.908059e+002
2.932063e+002, 1.907715e+002
2.936884e+002, 1.899940e+002
2.941706e+002, 1.890229e+002
2.946527e+002, 1.883181e+002
2.951348e+002, 1.878977e+002
2.956169e+002, 1.875693e+002
2.960990e+002, 1.873728e+002
2.965811e+002, 1.872332e+002
2.970633e+002, 1.870883e+002
2.975454e+002, 1.869394e+002
2.980275e+002, 1.868488e+002
2.985096e+002, 1.869324e+002
2.989917e+002, 1.871096e+002
2.994738e+002, 1.869572e+002
2.999560e+002, 1.861470e+002
3.004381e+002, 1.853150e+002
3.009202e+002, 1.848445e+002
3.014023e+002, 1.846804e+002
3.018844e+002, 1.845393e+002
3.023665e+002, 1.842497e+002
3.028487e+002, 1.839025e+002
3.033308e+002, 1.837716e+002
3.038129e+002, 1.840098e+002
3.042950e+002, 1.841931e+002
3.047771e+002, 1.840168e+002
3.052592e+002, 1.836326e+002
3.057414e+002, 1.834802e+002
3.062235e+002, 1.837975e+002
3.067056e+002, 1.842879e+002
3.071877e+002, 1.843294e+002
3.076698e+002, 1.838271e+002
3.081519e+002, 1.833791e+002
3.086341e+002, 1.831850e+002
3.091162e+002, 1.831686e+002
3.095983e+002, 1.832763e+002
3.100804e+002, 1.835432e+002
3.105625e+002, 1.837158e+002
3.110446e+002, 1.832901e+002
3.115268e+002, 1.822278e+002
3.120089e+002, 1.815520e+002
3.124910e+002, 1.817651e+002
3.129731e+002, 1.823294e+002
3.134552e+002, 1.826111e+002
3.139373e+002, 1.825137e+002
3.144195e+002, 1.822927e+002
3.149016e+002, 1.821686e+002
3.153837e+002, 1.821332e+002
3.158658e+002, 1.820544e+002
3.163479e+002, 1.817884e+002
3.168300e+002, 1.815693e+002
3.173121e+002, 1.816908e+002
3.177943e+002, 1.821266e+002
3.182764e+002, 1.824599e+002
3.187585e+002, 1.824116e+002
3.192406e+002, 1.820164e+002
3.197227e+002, 1.815716e+002
3.202048e+002, 1.808264e+002
3.206870e+002, 1.802772e+002
3.211691e+002, 1.803517e+002
3.216512e+002, 1.808895e+002
3.221333e+002, 1.813065e+002
3.226154e+002, 1.812927e+002
3.230975e+002, 1.810382e+002
3.235797e+002, 1.810489e+002
3.240618e+002, 1.814745e+002
3.245439e+002, 1.817965e+002
3.250260e+002, 1.818209e+002
3.255081e+002, 1.816201e+002
3.259902e+002, 1.812769e+002
3.264724e+002, 1.807766e+002
3.269545e+002, 1.802905e+002
3.274366e+002, 1.801618e+002
3.279187e+002, 1.804790e+002
3.284008e+002, 1.805803e+002
3.288829e+002, 1.801108e+002
3.293651e+002, 1.794692e+002
3.298472e+002, 1.792318e+002
3.303293e+002, 1.794980e+002
3.308114e+002, 1.796737e+002
3.312935e+002, 1.790378e+002
3.317756e+002, 1.775124e+002
3.322578e+002, 1.765331e+002
3.327399e+002, 1.765826e+002
3.332220e+002, 1.768636e+002
3.337041e+002, 1.767748e+002
3.341862e+002, 1.763311e+002
3.346683e+002, 1.759319e+002
3.351505e+002, 1.759114e+002
3.356326e+002, 1.761726e+002
3.361147e+002, 1.760275e+002
3.365968e+002, 1.751689e+002
3.370789e+002, 1.742790e+002
3.375610e+002, 1.735694e+002
3.380432e+002, 1.730431e+002
3.385253e+002, 1.727466e+002
3.390074e+002, 1.727401e+002
3.394895e+002, 1.728864e+002
3.399716e+002, 1.728053e+002
3.404537e+002, 1.724188e+002
3.409359e+002, 1.719926e+002
3.414180e+002, 1.714839e+002
3.419001e+002, 1.709958e+002
3.423822e+002, 1.706880e+002
3.428643e+002, 1.706071e+002
3.433464e+002, 1.706371e+002
3.438286e+002, 1.706438e+002
3.443107e+002, 1.706788e+002
3.447928e+002, 1.704803e+002
3.452749e+002, 1.697324e+002
3.457570e+002, 1.689693e+002
3.462391e+002, 1.687327e+002
3.467213e+002, 1.689925e+002
3.472034e+002, 1.691711e+002
3.476855e+002, 1.687107e+002
3.481676e+002, 1.675640e+002
3.486497e+002, 1.667633e+002
3.491318e+002, 1.665863e+002
3.496140e+002, 1.664145e+002
3.500961e+002, 1.659409e+002
3.505782e+002, 1.652667e+002
3.510603e+002, 1.646536e+002
3.515424e+002, 1.642583e+002
3.520245e+002, 1.640380e+002
3.525067e+002, 1.638080e+002
3.529888e+002, 1.635094e+002
3.534709e+002, 1.632744e+002
3.539530e+002, 1.631878e+002
3.544351e+002, 1.631459e+002
3.549172e+002, 1.629838e+002
3.553994e+002, 1.626509e+002
3.558815e+002, 1.623115e+002
3.563636e+002, 1.622733e+002
3.568457e+002, 1.629016e+002
3.573278e+002, 1.630589e+002
3.578099e+002, 1.623788e+002
3.582920e+002, 1.615470e+002
3.587741e+002, 1.609326e+002
3.592563e+002, 1.606203e+002
3.597384e+002, 1.606311e+002
3.602205e+002, 1.610573e+002
3.607026e+002, 1.619940e+002
3.611847e+002, 1.624076e+002
3.616668e+002, 1.620621e+002
3.621490e+002, 1.614802e+002
3.626311e+002, 1.605444e+002
3.631132e+002, 1.595185e+002
3.635953e+002, 1.589420e+002
3.640774e+002, 1.591952e+002
3.645595e+002, 1.599805e+002
3.650417e+002, 1.599872e+002
3.655238e+002, 1.582128e+002
3.660059e+002, 1.570332e+002
3.664880e+002, 1.571451e+002
3.669701e+002, 1.577382e+002
3.674522e+002, 1.580324e+002
3.679344e+002, 1.577756e+002
3.684165e+002, 1.572371e+002
3.688986e+002, 1.568035e+002
3.693807e+002, 1.564668e+002
3.698628e+002, 1.562704e+002
3.703449e+002, 1.564839e+002
3.708271e+002, 1.566059e+002
3.713092e+002, 1.562604e+002
3.717913e+002, 1.555257e+002
3.722734e+002, 1.548144e+002
3.727555e+002, 1.545206e+002
3.732376e+002, 1.546296e+002
3.737198e+002, 1.546248e+002
3.742019e+002, 1.544540e+002
3.746840e+002, 1.542229e+002
3.751661e+002, 1.539055e+002
3.756482e+002, 1.535687e+002
3.761303e+002, 1.533236e+002
3.766125e+002, 1.532379e+002
3.770946e+002, 1.532369e+002
3.775767e+002, 1.531112e+002
3.780588e+002, 1.527401e+002
3.785409e+002, 1.525905e+002
3.790230e+002, 1.532230e+002
3.795052e+002, 1.538626e+002
3.799873e+002, 1.537534e+002
3.804694e+002, 1.527568e+002
3.809515e+002, 1.516837e+002
3.814336e+002, 1.515073e+002
3.819157e+002, 1.522017e+002
3.823979e+002, 1.524488e+002
3.828800e+002, 1.517816e+002
3.833621e+002, 1.509696e+002
3.838442e+002, 1.504872e+002
3.843263e+002, 1.502999e+002
3.848084e+002, 1.502516e+002
3.852906e+002, 1.503942e+002
3.857727e+002, 1.505966e+002
3.862548e+002, 1.505008e+002
3.867369e+002, 1.500083e+002
3.872190e+002, 1.495751e+002
3.877011e+002, 1.495547e+002
3.881833e+002, 1.497327e+002
3.886654e+002, 1.498056e+002
3.891475e+002, 1.496721e+002
3.896296e+002, 1.495058e+002
3.901117e+002, 1.495077e+002
3.905938e+002, 1.496452e+002
3.910760e+002, 1.496573e+002
3.915581e+002, 1.494436e+002
3.920402e+002, 1.490828e+002
3.925223e+002, 1.486479e+002
3.930044e+002, 1.481247e+002
3.934865e+002, 1.477000e+002
3.939687e+002, 1.474619e+002
3.944508e+002, 1.473641e+002
3.949329e+002, 1.473548e+002
3.954150e+002, 1.474320e+002
3.958971e+002, 1.475463e+002
3.963792e+002, 1.476932e+002
3.968614e+002, 1.478534e+002
3.973435e+002, 1.478736e+002
3.978256e+002, 1.476554e+002
3.983077e+002, 1.473743e+002
3.987898e+002, 1.471325e+002
3.992719e+002, 1.469227e+002
3.997540e+002, 1.467087e+002
4.002361e+002, 1.464727e+002
4.007183e+002, 1.462194e+002
4.012004e+002, 1.459631e+002
4.016825e+002, 1.456726e+002
4.021646e+002, 1.454309e+002
4.026467e+002, 1.452094e+002
4.031288e+002, 1.450637e+002
4.036110e+002, 1.450852e+002
4.040931e+002, 1.452875e+002
4.045752e+002, 1.455748e+002
4.050573e+002, 1.458532e+002
4.055394e+002, 1.461444e+002
4.060215e+002, 1.462885e+002
4.065037e+002, 1.462915e+002
4.069858e+002, 1.461652e+002
4.074679e+002, 1.457637e+002
4.079500e+002, 1.452315e+002
4.084321e+002, 1.449330e+002
4.089142e+002, 1.451235e+002
4.093964e+002, 1.456533e+002
4.098785e+002, 1.458307e+002
4.103606e+002, 1.453065e+002
4.108427e+002, 1.448601e+002
4.113248e+002, 1.445446e+002
4.118069e+002, 1.443384e+002
4.122891e+002, 1.442192e+002
4.127712e+002, 1.441798e+002
4.132533e+002, 1.442253e+002
4.137354e+002, 1.444295e+002
4.142175e+002, 1.449276e+002
4.146996e+002, 1.450380e+002
4.151818e+002, 1.442947e+002
4.156639e+002, 1.435885e+002
4.161460e+002, 1.433057e+002
4.166281e+002, 1.433433e+002
4.171102e+002, 1.433960e+002
4.175923e+002, 1.432615e+002
4.180745e+002, 1.430058e+002
4.185566e+002, 1.428610e+002
4.190387e+002, 1.428843e+002
4.195208e+002, 1.428953e+002
4.200029e+002, 1.428555e+002
4.204850e+002, 1.427713e+002
4.209672e+002, 1.426479e+002
4.214493e+002, 1.424871e+002
4.219314e+002, 1.422818e+002
4.224135e+002, 1.420007e+002
4.228956e+002, 1.416496e+002
4.233777e+002, 1.413222e+002
4.238599e+002, 1.409697e+002
4.243420e+002, 1.407412e+002
4.248241e+002, 1.408860e+002
4.253062e+002, 1.412722e+002
4.257883e+002, 1.414113e+002
4.262704e+002, 1.408711e+002
4.267526e+002, 1.400696e+002
4.272347e+002, 1.395897e+002
4.277168e+002, 1.394356e+002
4.281989e+002, 1.395695e+002
4.286810e+002, 1.402028e+002
4.291631e+002, 1.409954e+002
4.296453e+002, 1.411989e+002
4.301274e+002, 1.405719e+002
4.306095e+002, 1.398988e+002
4.310916e+002, 1.396094e+002
4.315737e+002, 1.395419e+002
4.320558e+002, 1.393178e+002
4.325380e+002, 1.388159e+002
4.330201e+002, 1.383563e+002
4.335022e+002, 1.383795e+002
4.339843e+002, 1.389776e+002
4.344664e+002, 1.392858e+002
4.349485e+002, 1.389983e+002
4.354307e+002, 1.386472e+002
4.359128e+002, 1.386519e+002
4.363949e+002, 1.389174e+002
4.368770e+002, 1.390476e+002
4.373591e+002, 1.387957e+002
4.378412e+002, 1.382700e+002
4.383234e+002, 1.378872e+002
4.388055e+002, 1.378799e+002
4.392876e+002, 1.377176e+002
4.397697e+002, 1.371097e+002
4.402518e+002, 1.364783e+002
4.407339e+002, 1.363036e+002
4.412160e+002, 1.366389e+002
4.416982e+002, 1.370890e+002
4.421803e+002, 1.371876e+002
4.426624e+002, 1.368708e+002
4.431445e+002, 1.366760e+002
4.436266e+002, 1.368109e+002
4.441087e+002, 1.368542e+002
4.445909e+002, 1.365401e+002
4.450730e+002, 1.360735e+002
4.455551e+002, 1.358378e+002
4.460372e+002, 1.360600e+002
4.465193e+002, 1.364687e+002
4.470014e+002, 1.364142e+002
4.474836e+002, 1.356994e+002
4.479657e+002, 1.351095e+002
4.484478e+002, 1.349022e+002
4.489299e+002, 1.347800e+002
4.494120e+002, 1.345056e+002
4.498941e+002, 1.340944e+002
4.503763e+002, 1.338103e+002
4.508584e+002, 1.339610e+002
4.513405e+002, 1.344268e+002
4.518226e+002, 1.346974e+002
4.523047e+002, 1.347344e+002
4.527868e+002, 1.346445e+002
4.532690e+002, 1.343542e+002
4.537511e+002, 1.340077e+002
4.542332e+002, 1.338467e+002
4.547153e+002, 1.340319e+002
4.551974e+002, 1.341969e+002
4.556795e+002, 1.339848e+002
4.561617e+002, 1.334769e+002
4.566438e+002, 1.330059e+002
4.571259e+002, 1.326387e+002
4.576080e+002, 1.323974e+002
4.580901e+002, 1.323588e+002
4.585722e+002, 1.325180e+002
4.590544e+002, 1.326708e+002
4.595365e+002, 1.328586e+002
4.600186e+002, 1.329704e+002
4.605007e+002, 1.328756e+002
4.609828e+002, 1.325973e+002
4.614649e+002, 1.322844e+002
4.619471e+002, 1.320258e+002
4.624292e+002, 1.318030e+002
4.629113e+002, 1.315290e+002
4.633934e+002, 1.310125e+002
4.638755e+002, 1.306970e+002
4.643576e+002, 1.307490e+002
4.648398e+002, 1.309596e+002
4.653219e+002, 1.311090e+002
4.658040e+002, 1.311587e+002
4.662861e+002, 1.312319e+002
4.667682e+002, 1.314933e+002
4.672503e+002, 1.319908e+002
4.677325e+002, 1.322205e+002
4.682146e+002, 1.319904e+002
4.686967e+002, 1.316892e+002
4.691788e+002, 1.313842e+002
4.696609e+002, 1.310811e+002
4.701430e+002, 1.307968e+002
4.706252e+002, 1.305429e+002
4.711073e+002, 1.302510e+002
4.715894e+002, 1.297273e+002
4.720715e+002, 1.288532e+002
4.725536e+002, 1.282761e+002
4.730357e+002, 1.282807e+002
4.735179e+002, 1.284625e+002
4.740000e+002, 1.286531e+002
4.744821e+002, 1.288298e+002
4.749642e+002, 1.289788e+002
4.754463e+002, 1.291649e+002
4.759284e+002, 1.292913e+002
4.764106e+002, 1.290574e+002
4.768927e+002, 1.283858e+002
4.773748e+002, 1.278537e+002
4.778569e+002, 1.278264e+002
4.783390e+002, 1.280525e+002
4.788211e+002, 1.281233e+002
4.793033e+002, 1.279865e+002
4.797854e+002, 1.278273e+002
4.802675e+002, 1.277523e+002
4.807496e+002, 1.277131e+002
4.812317e+002, 1.276002e+002
4.817138e+002, 1.273900e+002
4.821959e+002, 1.271951e+002
4.826780e+002, 1.270977e+002
4.831602e+002, 1.271072e+002
4.836423e+002, 1.272494e+002
4.841244e+002, 1.278566e+002
4.846065e+002, 1.282299e+002
4.850886e+002, 1.278456e+002
4.855707e+002, 1.270851e+002
4.860529e+002, 1.266327e+002
4.865350e+002, 1.267412e+002
4.870171e+002, 1.271475e+002
4.874992e+002, 1.274454e+002
4.879813e+002, 1.276961e+002
4.884634e+002, 1.276539e+002
4.889456e+002, 1.270327e+002
4.894277e+002, 1.264433e+002
4.899098e+002, 1.262858e+002
4.903919e+002, 1.263995e+002
4.908740e+002, 1.263613e+002
4.913561e+002, 1.258951e+002
4.918383e+002, 1.251751e+002
4.923204e+002, 1.246637e+002
4.928025e+002, 1.243748e+002
4.932846e+002, 1.242605e+002
4.937667e+002, 1.243483e+002
4.942488e+002, 1.245859e+002
4.947310e+002, 1.250754e+002
4.952131e+002, 1.257605e+002
4.956952e+002, 1.262626e+002
4.961773e+002, 1.262205e+002
4.966594e+002, 1.258017e+002
4.971415e+002, 1.254572e+002
4.976237e+002, 1.252104e+002
4.981058e+002, 1.249715e+002
4.985879e+002, 1.247327e+002
4.990700e+002, 1.244474e+002
4.995521e+002, 1.240175e+002
5.000342e+002, 1.233609e+002
5.005164e+002, 1.227462e+002
5.009985e+002, 1.222484e+002
5.014806e+002, 1.218936e+002
5.019627e+002, 1.217504e+002
5.024448e+002, 1.218354e+002
5.029269e+002, 1.220350e+002
5.034091e+002, 1.222754e+002
5.038912e+002, 1.225608e+002
5.043733e+002, 1.226730e+002
5.048554e+002, 1.226560e+002
5.053375e+002, 1.224410e+002
5.058196e+002, 1.218209e+002
5.063018e+002, 1.210413e+002
5.067839e+002, 1.204774e+002
5.072660e+002, 1.202610e+002
5.077481e+002, 1.202335e+002
5.082302e+002, 1.201638e+002
5.087123e+002, 1.200459e+002
5.091945e+002, 1.199061e+002
5.096766e+002, 1.195579e+002
5.101587e+002, 1.193755e+002
5.106408e+002, 1.197122e+002
5.111229e+002, 1.202918e+002
5.116050e+002, 1.205696e+002
5.120872e+002, 1.202366e+002
5.125693e+002, 1.195987e+002
5.130514e+002, 1.191962e+002
5.135335e+002, 1.190536e+002
5.140156e+002, 1.189583e+002
5.144977e+002, 1.189598e+002
5.149799e+002, 1.188928e+002
5.154620e+002, 1.185540e+002
5.159441e+002, 1.179941e+002
5.164262e+002, 1.175515e+002
5.169083e+002, 1.174452e+002
5.173904e+002, 1.174870e+002
5.178726e+002, 1.174601e+002
5.183547e+002, 1.173611e+002
5.188368e+002, 1.172045e+002
5.193189e+002, 1.169880e+002
5.198010e+002, 1.167283e+002
5.202831e+002, 1.164533e+002
5.207653e+002, 1.161258e+002
5.212474e+002, 1.158848e+002
5.217295e+002, 1.158659e+002
5.222116e+002, 1.158651e+002
5.226937e+002, 1.156619e+002
5.231758e+002, 1.152815e+002
5.236580e+002, 1.149143e+002
5.241401e+002, 1.146862e+002
5.246222e+002, 1.146027e+002
5.251043e+002, 1.147095e+002
5.255864e+002, 1.153396e+002
5.260685e+002, 1.156735e+002
5.265507e+002, 1.153804e+002
5.270328e+002, 1.149618e+002
5.275149e+002, 1.149079e+002
5.279970e+002, 1.152162e+002
5.284791e+002, 1.154338e+002
5.289612e+002, 1.150741e+002
5.294434e+002, 1.142643e+002
5.299255e+002, 1.138052e+002
5.304076e+002, 1.138405e+002
5.308897e+002, 1.138978e+002
5.313718e+002, 1.138642e+002
5.318539e+002, 1.137059e+002
5.323361e+002, 1.132800e+002
5.328182e+002, 1.125009e+002
5.333003e+002, 1.119159e+002
5.337824e+002, 1.120586e+002
5.342645e+002, 1.126150e+002
5.347466e+002, 1.129100e+002
5.352288e+002, 1.128484e+002
5.357109e+002, 1.126562e+002
5.361930e+002, 1.124835e+002
5.366751e+002, 1.123219e+002
5.371572e+002, 1.121260e+002
5.376393e+002, 1.118868e+002
5.381215e+002, 1.116269e+002
5.386036e+002, 1.112822e+002
5.390857e+002, 1.109512e+002
5.395678e+002, 1.108336e+002
5.400499e+002, 1.109336e+002
5.405320e+002, 1.109363e+002
5.410142e+002, 1.104340e+002
5.414963e+002, 1.093930e+002
5.419784e+002, 1.090038e+002
5.424604e+002, 1.101381e+002
5.429426e+002, 1.108992e+002
5.434247e+002, 1.107670e+002
5.439068e+002, 1.101345e+002
5.443889e+002, 1.093525e+002
5.448710e+002, 1.085397e+002
5.453531e+002, 1.078585e+002
5.458353e+002, 1.075197e+002
5.463174e+002, 1.075019e+002
5.467995e+002, 1.075913e+002
5.472816e+002, 1.078413e+002
5.477637e+002, 1.080601e+002
5.482458e+002, 1.081494e+002
5.487280e+002, 1.081228e+002
5.492101e+002, 1.079578e+002
5.496922e+002, 1.075539e+002
5.501743e+002, 1.072202e+002
5.506564e+002, 1.073218e+002
5.511385e+002, 1.076029e+002
5.516207e+002, 1.073923e+002
5.521028e+002, 1.065356e+002
5.525849e+002, 1.057860e+002
5.530670e+002, 1.059362e+002
5.535491e+002, 1.069920e+002
5.540313e+002, 1.075121e+002
5.545134e+002, 1.071699e+002
5.549955e+002, 1.067718e+002
5.554776e+002, 1.064486e+002
5.559597e+002, 1.062319e+002
5.564418e+002, 1.061910e+002
5.569240e+002, 1.063236e+002
5.574061e+002, 1.064976e+002
5.578882e+002, 1.065820e+002
5.583703e+002, 1.065783e+002
5.588524e+002, 1.064191e+002
5.593345e+002, 1.060139e+002
5.598167e+002, 1.055754e+002
5.602988e+002, 1.049875e+002
5.607809e+002, 1.044903e+002
5.612630e+002, 1.044734e+002
5.617451e+002, 1.050791e+002
5.622272e+002, 1.056715e+002
5.627094e+002, 1.056245e+002
5.631915e+002, 1.051117e+002
5.636736e+002, 1.046978e+002
5.641557e+002, 1.044445e+002
5.646378e+002, 1.043066e+002
5.651199e+002, 1.043065e+002
5.656021e+002, 1.043974e+002
5.660842e+002, 1.043732e+002
5.665663e+002, 1.042041e+002
5.670484e+002, 1.039661e+002
5.675305e+002, 1.035769e+002
5.680126e+002, 1.031856e+002
5.684948e+002, 1.029942e+002
5.689769e+002, 1.030283e+002
5.694590e+002, 1.031569e+002
5.699411e+002, 1.032609e+002
5.704232e+002, 1.033445e+002
5.709053e+002, 1.034860e+002
5.713875e+002, 1.040180e+002
5.718696e+002, 1.041393e+002
5.723517e+002, 1.032742e+002
5.728338e+002, 1.022456e+002
5.733159e+002, 1.018878e+002
5.737980e+002, 1.022851e+002
5.742802e+002, 1.028073e+002
5.747623e+002, 1.029174e+002
5.752444e+002, 1.026977e+002
5.757265e+002, 1.024736e+002
5.762086e+002, 1.022377e+002
5.766907e+002, 1.020223e+002
5.771729e+002, 1.017804e+002
5.776550e+002, 1.016134e+002
5.781371e+002, 1.017141e+002
5.786192e+002, 1.021676e+002
5.791013e+002, 1.025174e+002
5.795834e+002, 1.025856e+002
5.800656e+002, 1.024632e+002
5.805477e+002, 1.021920e+002
5.810298e+002, 1.018099e+002
5.815119e+002, 1.014544e+002
5.819940e+002, 1.012109e+002
5.824761e+002, 1.010612e+002
5.829583e+002, 1.009411e+002
5.834404e+002, 1.008283e+002
5.839225e+002, 1.007832e+002
5.844046e+002, 1.008944e+002
5.848867e+002, 1.009946e+002
5.853688e+002, 1.009526e+002
5.858510e+002, 1.007959e+002
5.863331e+002, 1.006545e+002
5.868152e+002, 1.006328e+002
5.872973e+002, 1.006336e+002
5.877794e+002, 1.003673e+002
5.882615e+002, 9.976334e+001
5.887437e+002, 9.938853e+001
5.892258e+002, 9.951981e+001
5.897079e+002, 9.977158e+001
5.901900e+002, 9.981524e+001
5.906721e+002, 9.966673e+001
5.911542e+002, 9.941187e+001
5.916364e+002, 9.896082e+001
5.921185e+002, 9.851308e+001
5.926006e+002, 9.824266e+001
5.930827e+002, 9.812052e+001
5.935648e+002, 9.804605e+001
5.940469e+002, 9.798193e+001
5.945291e+002, 9.798058e+001
5.950112e+002, 9.813850e+001
5.954933e+002, 9.853105e+001
5.959754e+002, 9.873972e+001
5.964575e+002, 9.882607e+001
5.969396e+002, 9.869341e+001
5.974218e+002, 9.814628e+001
5.979039e+002, 9.741738e+001
5.983860e+002, 9.681037e+001
5.988681e+002, 9.643002e+001
5.993502e+002, 9.620249e+001
5.998323e+002, 9.599746e+001
6.003145e+002, 9.582278e+001
6.007966e+002, 9.600364e+001
6.012787e+002, 9.679475e+001
6.017608e+002, 9.742459e+001
6.022429e+002, 9.724534e+001
6.027250e+002, 9.668122e+001
6.032072e+002, 9.638711e+001
6.036893e+002, 9.653512e+001
6.041714e+002, 9.666433e+001
6.046535e+002, 9.653101e+001
6.051356e+002, 9.623972e+001
6.056177e+002, 9.590670e+001
6.060999e+002, 9.556007e+001
6.065820e+002, 9.525671e+001
6.070641e+002, 9.503795e+001
6.075462e+002, 9.489795e+001
6.080283e+002, 9.481133e+001
6.085104e+002, 9.488963e+001
6.089926e+002, 9.485995e+001
6.094747e+002, 9.466096e+001
6.099568e+002, 9.439746e+001
6.104389e+002, 9.409785e+001
6.109210e+002, 9.379745e+001
6.114031e+002, 9.356848e+001
6.118853e+002, 9.346543e+001
6.123674e+002, 9.344703e+001
6.128495e+002, 9.345158e+001
6.133316e+002, 9.348774e+001
6.138137e+002, 9.344363e+001
6.142958e+002, 9.328500e+001
6.147780e+002, 9.304526e+001
6.152601e+002, 9.263097e+001
6.157422e+002, 9.210387e+001
6.162243e+002, 9.191125e+001
6.167064e+002, 9.260636e+001
6.171885e+002, 9.320454e+001
6.176707e+002, 9.289961e+001
6.181528e+002, 9.207112e+001
6.186349e+002, 9.152356e+001
6.191170e+002, 9.149102e+001
6.195991e+002, 9.159755e+001
6.200812e+002, 9.137897e+001
6.205634e+002, 9.079750e+001
6.210455e+002, 9.045370e+001
6.215276e+002, 9.061984e+001
6.220097e+002, 9.069418e+001
6.224918e+002, 9.051873e+001
6.229739e+002, 9.021296e+001
6.234561e+002, 8.982352e+001
6.239382e+002, 8.938982e+001
6.244203e+002, 8.912759e+001
6.249023e+002, 8.938766e+001
6.253845e+002, 8.992981e+001
6.258666e+002, 9.006364e+001
6.263487e+002, 8.974436e+001
6.268308e+002, 8.938996e+001
6.273129e+002, 8.918564e+001
6.277950e+002, 8.906011e+001
6.282772e+002, 8.886012e+001
6.287593e+002, 8.855156e+001
6.292414e+002, 8.833871e+001
6.297235e+002, 8.842135e+001
6.302056e+002, 8.845678e+001
6.306877e+002, 8.815295e+001
6.311699e+002, 8.761060e+001
6.316520e+002, 8.704695e+001
6.321341e+002, 8.656318e+001
6.326162e+002, 8.624651e+001
6.330983e+002, 8.633663e+001
6.335804e+002, 8.697976e+001
6.340626e+002, 8.726635e+001
6.345447e+002, 8.693587e+001
6.350268e+002, 8.656460e+001
6.355089e+002, 8.637164e+001
6.359910e+002, 8.631365e+001
6.364731e+002, 8.635590e+001
6.369553e+002, 8.652552e+001
6.374374e+002, 8.663236e+001
6.379195e+002, 8.642607e+001
6.384016e+002, 8.609846e+001
6.388837e+002, 8.610194e+001
6.393658e+002, 8.646887e+001
6.398480e+002, 8.668592e+001
6.403301e+002, 8.638670e+001
6.408122e+002, 8.572803e+001
6.412943e+002, 8.523120e+001
6.417764e+002, 8.497314e+001
6.422585e+002, 8.477851e+001
6.427407e+002, 8.461452e+001
6.432228e+002, 8.454185e+001
6.437049e+002, 8.466891e+001
6.441870e+002, 8.491692e+001
6.446691e+002, 8.508641e+001
6.451512e+002, 8.506088e+001
6.456334e+002, 8.496478e+001
6.461155e+002, 8.505161e+001
6.465976e+002, 8.531858e+001
6.470797e+002, 8.535800e+001
6.475618e+002, 8.502200e+001
6.480439e+002, 8.463714e+001
6.485261e+002, 8.446384e+001
6.490082e+002, 8.444141e+001
6.494903e+002, 8.438522e+001
6.499724e+002, 8.426189e+001
6.504545e+002, 8.413399e+001
6.509366e+002, 8.404913e+001
6.514188e+002, 8.396031e+001
6.519009e+002, 8.379910e+001
6.523830e+002, 8.356757e+001
6.528651e+002, 8.332044e+001
6.533472e+002, 8.308941e+001
6.538293e+002, 8.289279e+001
6.543115e+002, 8.280244e+001
6.547936e+002, 8.284240e+001
6.552757e+002, 8.292995e+001
6.557578e+002, 8.321429e+001
6.562399e+002, 8.340195e+001
6.567220e+002, 8.320087e+001
6.572042e+002, 8.275534e+001
6.576863e+002, 8.254258e+001
6.581684e+002, 8.294167e+001
6.586505e+002, 8.331725e+001
6.591326e+002, 8.288198e+001
6.596147e+002, 8.194921e+001
6.600969e+002, 8.145134e+001
6.605790e+002, 8.159975e+001
6.610611e+002, 8.185616e+001
6.615432e+002, 8.175536e+001
6.620253e+002, 8.132951e+001
6.625074e+002, 8.092911e+001
6.629896e+002, 8.044192e+001
6.634717e+002, 8.013474e+001
6.639538e+002, 8.007833e+001
6.644359e+002, 8.017314e+001
6.649180e+002, 8.041920e+001
6.654001e+002, 8.075314e+001
6.658823e+002, 8.101667e+001
6.663644e+002, 8.112174e+001
6.668465e+002, 8.108675e+001
6.673286e+002, 8.087875e+001
6.678107e+002, 8.050644e+001
6.682928e+002, 8.030457e+001
6.687750e+002, 8.041633e+001
6.692571e+002, 8.054965e+001
6.697392e+002, 8.040240e+001
6.702213e+002, 8.000527e+001
6.707034e+002, 7.971815e+001
6.711855e+002, 7.959557e+001
6.716677e+002, 7.952217e+001
6.721498e+002, 7.944181e+001
6.726319e+002, 7.940495e+001
6.731140e+002, 7.956734e+001
6.735961e+002, 7.987068e+001
6.740782e+002, 7.997636e+001
6.745604e+002, 7.958392e+001
6.750425e+002, 7.887344e+001
6.755246e+002, 7.840578e+001
6.760067e+002, 7.818295e+001
6.764888e+002, 7.821774e+001
6.769709e+002, 7.874398e+001
6.774531e+002, 7.927116e+001
6.779352e+002, 7.940638e+001
6.784173e+002, 7.922377e+001
6.788994e+002, 7.897060e+001
6.793815e+002, 7.858794e+001
6.798636e+002, 7.829648e+001
6.803458e+002, 7.826231e+001
6.808279e+002, 7.838956e+001
6.813100e+002, 7.855191e+001
6.817921e+002, 7.871601e+001
6.822742e+002, 7.888246e+001
6.827563e+002, 7.907505e+001
6.832385e+002, 7.924111e+001
6.837206e+002, 7.909526e+001
6.842027e+002, 7.844908e+001
6.846848e+002, 7.790307e+001
6.851669e+002, 7.749841e+001
6.856490e+002, 7.725326e+001
6.861312e+002, 7.724702e+001
6.866133e+002, 7.741573e+001
6.870954e+002, 7.759045e+001
6.875775e+002, 7.775106e+001
6.880596e+002, 7.782055e+001
6.885417e+002, 7.758009e+001
6.890239e+002, 7.721981e+001
6.895060e+002, 7.729042e+001
6.899881e+002, 7.787757e+001
6.904702e+002, 7.839088e+001
6.909523e+002, 7.835561e+001
6.914344e+002, 7.787405e+001
6.919166e+002, 7.745154e+001
6.923987e+002, 7.700793e+001
6.928808e+002, 7.676248e+001
6.933629e+002, 7.681162e+001
6.938450e+002, 7.696873e+001
6.943271e+002, 7.719315e+001
6.948093e+002, 7.742760e+001
6.952914e+002, 7.753996e+001
6.957735e+002, 7.742266e+001
6.962556e+002, 7.731924e+001
6.967377e+002, 7.764345e+001
6.972198e+002, 7.821818e+001
6.977020e+002, 7.834734e+001
6.981841e+002, 7.789841e+001
6.986662e+002, 7.740933e+001
6.991483e+002, 7.725004e+001
6.996304e+002, 7.734536e+001
7.001125e+002, 7.741382e+001
7.005947e+002, 7.745946e+001
7.010768e+002, 7.747048e+001
7.015589e+002, 7.743086e+001
7.020410e+002, 7.737247e+001
7.025231e+002, 7.741818e+001
7.030052e+002, 7.744495e+001
7.034874e+002, 7.713132e+001
7.039695e+002, 7.630544e+001
7.044516e+002, 7.543834e+001
7.049337e+002, 7.519151e+001
7.054158e+002, 7.543481e+001
7.058979e+002, 7.551328e+001
7.063801e+002, 7.534291e+001
7.068622e+002, 7.517644e+001
7.073442e+002, 7.517387e+001
7.078264e+002, 7.526254e+001
7.083085e+002, 7.525560e+001
7.087906e+002, 7.511695e+001
7.092727e+002, 7.497868e+001
7.097548e+002, 7.493043e+001
7.102369e+002, 7.480366e+001
7.107191e+002, 7.439025e+001
7.112012e+002, 7.385680e+001
7.116833e+002, 7.351363e+001
7.121654e+002, 7.346935e+001
7.126475e+002, 7.354504e+001
7.131296e+002, 7.355260e+001
7.136118e+002, 7.350169e+001
7.140939e+002, 7.344215e+001
7.145760e+002, 7.337514e+001
7.150581e+002, 7.331106e+001
7.155402e+002, 7.327665e+001
7.160223e+002, 7.322720e+001
7.165045e+002, 7.307378e+001
7.169866e+002, 7.280137e+001
7.174687e+002, 7.253505e+001
7.179508e+002, 7.226780e+001
7.184329e+002, 7.202824e+001
7.189150e+002, 7.180358e+001
7.193972e+002, 7.162674e+001
7.198793e+002, 7.158096e+001
7.203614e+002, 7.166752e+001
7.208435e+002, 7.172849e+001
7.213256e+002, 7.156509e+001
7.218077e+002, 7.126012e+001
7.222899e+002, 7.119187e+001
7.227720e+002, 7.140400e+001
7.232541e+002, 7.146616e+001
7.237362e+002, 7.116246e+001
7.242183e+002, 7.077528e+001
7.247004e+002, 7.068430e+001
7.251826e+002, 7.087981e+001
7.256647e+002, 7.088152e+001
7.261468e+002, 7.049557e+001
7.266289e+002, 7.011456e+001
7.271110e+002, 6.984173e+001
7.275931e+002, 6.967071e+001
7.280753e+002, 6.966050e+001
7.285574e+002, 6.976620e+001
7.290395e+002, 6.977844e+001
7.295216e+002, 6.950705e+001
7.300037e+002, 6.911074e+001
7.304858e+002, 6.897940e+001
7.309680e+002, 6.912370e+001
7.314501e+002, 6.922807e+001
7.319322e+002, 6.921382e+001
7.324143e+002, 6.919357e+001
7.328964e+002, 6.929861e+001
7.333785e+002, 6.948019e+001
7.338607e+002, 6.949157e+001
7.343428e+002, 6.920661e+001
7.348249e+002, 6.894792e+001
7.353070e+002, 6.882545e+001
7.357891e+002, 6.871674e+001
7.362712e+002, 6.844004e+001
7.367534e+002, 6.808745e+001
7.372355e+002, 6.793877e+001
7.377176e+002, 6.814201e+001
7.381997e+002, 6.850526e+001
7.386818e+002, 6.883462e+001
7.391639e+002, 6.910506e+001
7.396461e+002, 6.899814e+001
7.401282e+002, 6.839158e+001
7.406103e+002, 6.785253e+001
7.410924e+002, 6.769739e+001
7.415745e+002, 6.781142e+001
7.420566e+002, 6.798324e+001
7.425388e+002, 6.828603e+001
7.430209e+002, 6.839719e+001
7.435030e+002, 6.810320e+001
7.439851e+002, 6.780656e+001
7.444672e+002, 6.774120e+001
7.449493e+002, 6.780507e+001
7.454315e+002, 6.784139e+001
7.459136e+002, 6.779976e+001
7.463957e+002, 6.769215e+001
7.468778e+002, 6.746814e+001
7.473599e+002, 6.719769e+001
7.478420e+002, 6.715508e+001
7.483242e+002, 6.734856e+001
7.488063e+002, 6.739738e+001
7.492884e+002, 6.713652e+001
7.497705e+002, 6.677646e+001
7.502526e+002, 6.655710e+001
7.507347e+002, 6.648830e+001
7.512169e+002, 6.640382e+001
7.516990e+002, 6.622585e+001
7.521811e+002, 6.613408e+001
7.526632e+002, 6.631324e+001
7.531453e+002, 6.648985e+001
7.536274e+002, 6.635143e+001
7.541096e+002, 6.595302e+001
7.545917e+002, 6.561650e+001
7.550738e+002, 6.550921e+001
7.555559e+002, 6.557899e+001
7.560380e+002, 6.590817e+001
7.565201e+002, 6.637894e+001
7.570023e+002, 6.638167e+001
7.574844e+002, 6.578898e+001
7.579665e+002, 6.519402e+001
7.584486e+002, 6.502474e+001
7.589307e+002, 6.515991e+001
7.594128e+002, 6.519077e+001
7.598950e+002, 6.503702e+001
7.603771e+002, 6.492296e+001
7.608592e+002, 6.484220e+001
7.613413e+002, 6.480466e+001
7.618234e+002, 6.487088e+001
7.623055e+002, 6.496323e+001
7.627877e+002, 6.493055e+001
7.632698e+002, 6.472414e+001
7.637519e+002, 6.456963e+001
7.642340e+002, 6.467513e+001
7.647161e+002, 6.491670e+001
7.651982e+002, 6.518593e+001
7.656804e+002, 6.543231e+001
7.661625e+002, 6.538810e+001
7.666446e+002, 6.493401e+001
7.671267e+002, 6.436215e+001
7.676088e+002, 6.404697e+001
7.680909e+002, 6.399215e+001
7.685731e+002, 6.406646e+001
7.690552e+002, 6.443938e+001
7.695373e+002, 6.466256e+001
7.700194e+002, 6.451273e+001
7.705015e+002, 6.428267e+001
7.709836e+002, 6.421132e+001
7.714658e+002, 6.427627e+001
7.719479e+002, 6.429415e+001
7.724300e+002, 6.419705e+001
7.729121e+002, 6.404019e+001
7.733942e+002, 6.377260e+001
7.738763e+002, 6.350972e+001
7.743585e+002, 6.347489e+001
7.748406e+002, 6.366150e+001
7.753227e+002, 6.386306e+001
7.758048e+002, 6.395245e+001
7.762869e+002, 6.393055e+001
7.767690e+002, 6.374630e+001
7.772512e+002, 6.334115e+001
7.777333e+002, 6.319704e+001
7.782154e+002, 6.352542e+001
7.786975e+002, 6.378269e+001
7.791796e+002, 6.361808e+001
7.796617e+002, 6.321980e+001
7.801439e+002, 6.284145e+001
7.806260e+002, 6.242228e+001
7.811081e+002, 6.234779e+001
7.815902e+002, 6.314110e+001
7.820723e+002, 6.387621e+001
7.825544e+002, 6.388681e+001
7.830366e+002, 6.345281e+001
7.835187e+002, 6.304016e+001
7.840008e+002, 6.279016e+001
7.844829e+002, 6.263559e+001
7.849650e+002, 6.253233e+001
7.854471e+002, 6.246604e+001
7.859293e+002, 6.237307e+001
7.864114e+002, 6.225178e+001
7.868935e+002, 6.224881e+001
7.873756e+002, 6.242520e+001
7.878577e+002, 6.265443e+001
7.883398e+002, 6.281588e+001
7.888220e+002, 6.292376e+001
7.893040e+002, 6.309214e+001
7.897861e+002, 6.359371e+001
7.902682e+002, 6.376281e+001
7.907504e+002, 6.335826e+001
7.912325e+002, 6.278501e+001
7.917146e+002, 6.212903e+001
7.921967e+002, 6.154569e+001
7.926788e+002, 6.131540e+001
7.931609e+002, 6.156551e+001
7.936431e+002, 6.195643e+001
7.941252e+002, 6.226850e+001
7.946073e+002, 6.248676e+001
7.950894e+002, 6.251820e+001
7.955715e+002, 6.239745e+001
7.960536e+002, 6.242421e+001
7.965358e+002, 6.274588e+001
7.970179e+002, 6.300481e+001
7.975000e+002, 6.264014e+001
7.979821e+002, 6.160552e+001
7.984642e+002, 6.103285e+001
7.989464e+002, 6.102210e+001
7.994285e+002, 6.128796e+001
7.999106e+002, 6.160943e+001
8.003927e+002, 6.231327e+001
8.008748e+002, 6.415269e+001
8.013569e+002, 6.674179e+001
8.018391e+002, 6.822631e+001
8.023212e+002, 6.782432e+001
8.028033e+002, 6.666606e+001
8.032854e+002, 6.428193e+001
8.037675e+002, 6.212401e+001
8.042496e+002, 6.245180e+001
8.047318e+002, 6.477219e+001
8.052139e+002, 6.668330e+001
8.056960e+002, 6.687101e+001
8.061781e+002, 6.614627e+001
8.066602e+002, 6.567426e+001
8.071423e+002, 6.544531e+001
8.076245e+002, 6.538048e+001
8.081066e+002, 6.551547e+001
8.085887e+002, 6.558251e+001
8.090708e+002, 6.534917e+001
8.095529e+002, 6.514619e+001
8.100350e+002, 6.556493e+001
8.105172e+002, 6.677171e+001
8.109993e+002, 6.748687e+001
8.114814e+002, 6.763976e+001
8.119635e+002, 6.740038e+001
8.124456e+002, 6.626569e+001
8.129277e+002, 6.515182e+001
8.134099e+002, 6.515614e+001
8.138920e+002, 6.608087e+001
8.143741e+002, 6.672156e+001
8.148562e+002, 6.649155e+001
8.153383e+002, 6.572378e+001
8.158204e+002, 6.453223e+001
8.163026e+002, 6.312346e+001
8.167847e+002, 6.165761e+001
8.172668e+002, 6.029595e+001
8.177489e+002, 6.024819e+001
8.182310e+002, 6.237335e+001
8.187131e+002, 6.520177e+001
8.191953e+002, 6.571221e+001
8.196774e+002, 6.342290e+001
8.201595e+002, 6.185449e+001
8.206416e+002, 6.125990e+001
8.211237e+002, 6.088792e+001
8.216058e+002, 6.048186e+001
8.220880e+002, 6.015362e+001
8.225701e+002, 6.006074e+001
8.230522e+002, 6.019557e+001
8.235343e+002, 6.031715e+001
8.240164e+002, 6.045295e+001
8.244985e+002, 6.047662e+001
8.249807e+002, 6.022814e+001
8.254628e+002, 5.990733e+001
8.259449e+002, 5.968650e+001
8.264270e+002, 5.961206e+001
8.269091e+002, 5.975838e+001
8.273912e+002, 6.022069e+001
8.278734e+002, 6.066845e+001
8.283555e+002, 6.055947e+001
8.288376e+002, 6.002455e+001
8.293197e+002, 5.954871e+001
8.298018e+002, 5.917561e+001
8.302839e+002, 5.908750e+001
8.307661e+002, 5.944022e+001
8.312482e+002, 5.993352e+001
8.317303e+002, 6.004054e+001
8.322124e+002, 5.966730e+001
8.326945e+002, 5.960540e+001
8.331766e+002, 6.035983e+001
8.336588e+002, 6.068859e+001
8.341409e+002, 5.991783e+001
8.346230e+002, 5.895707e+001
8.351051e+002, 5.854108e+001
8.355872e+002, 5.862617e+001
8.360693e+002, 5.876159e+001
8.365515e+002, 5.888315e+001
8.370336e+002, 5.891568e+001
8.375157e+002, 5.872927e+001
8.379978e+002, 5.849116e+001
8.384799e+002, 5.836672e+001
8.389620e+002, 5.837614e+001
8.394442e+002, 5.852448e+001
8.399263e+002, 5.881493e+001
8.404084e+002, 5.913851e+001
8.408905e+002, 5.942474e+001
8.413726e+002, 5.962956e+001
8.418547e+002, 5.938374e+001
8.423369e+002, 5.864533e+001
8.428190e+002, 5.809693e+001
8.433011e+002, 5.801214e+001
8.437832e+002, 5.813552e+001
8.442653e+002, 5.817822e+001
8.447474e+002, 5.814412e+001
8.452296e+002, 5.821041e+001
8.457117e+002, 5.851705e+001
8.461938e+002, 5.871658e+001
8.466759e+002, 5.873731e+001
8.471580e+002, 5.868490e+001
8.476401e+002, 5.854140e+001
8.481223e+002, 5.839123e+001
8.486044e+002, 5.845103e+001
8.490865e+002, 5.885273e+001
8.495686e+002, 5.911854e+001
8.500507e+002, 5.887838e+001
8.505328e+002, 5.846717e+001
8.510150e+002, 5.816471e+001
8.514971e+002, 5.798539e+001
8.519792e+002, 5.793958e+001
8.524613e+002, 5.801302e+001
8.529434e+002, 5.807477e+001
8.534255e+002, 5.799169e+001
8.539077e+002, 5.780232e+001
8.543898e+002, 5.758921e+001
8.548719e+002, 5.735189e+001
8.553540e+002, 5.728467e+001
8.558361e+002, 5.746009e+001
8.563182e+002, 5.766042e+001
8.568004e+002, 5.771551e+001
8.572825e+002, 5.767740e+001
8.577646e+002, 5.772498e+001
8.582467e+002, 5.798893e+001
8.587288e+002, 5.805099e+001
8.592109e+002, 5.761291e+001
8.596931e+002, 5.732644e+001
8.601752e+002, 5.760114e+001
8.606573e+002, 5.804950e+001
8.611394e+002, 5.814849e+001
8.616215e+002, 5.786167e+001
8.621036e+002, 5.768805e+001
8.625858e+002, 5.795847e+001
8.630679e+002, 5.826709e+001
8.635500e+002, 5.835376e+001
8.640321e+002, 5.829736e+001
8.645142e+002, 5.819753e+001
8.649963e+002, 5.807166e+001
8.654785e+002, 5.790313e+001
8.659606e+002, 5.768046e+001
8.664427e+002, 5.742544e+001
8.669248e+002, 5.709108e+001
8.674069e+002, 5.673801e+001
8.678890e+002, 5.675343e+001
8.683712e+002, 5.717096e+001
8.688533e+002, 5.758205e+001
8.693354e+002, 5.784127e+001
8.698175e+002, 5.793578e+001
8.702996e+002, 5.781091e+001
8.707817e+002, 5.746308e+001
8.712639e+002, 5.729287e+001
8.717459e+002, 5.743318e+001
8.722280e+002, 5.751690e+001
8.727101e+002, 5.742760e+001
8.731923e+002, 5.731780e+001
8.736744e+002, 5.730024e+001
8.741565e+002, 5.732975e+001
8.746386e+002, 5.728938e+001
8.751207e+002, 5.714823e+001
8.756028e+002, 5.697536e+001
8.760850e+002, 5.674279e+001
8.765671e+002, 5.653792e+001
8.770492e+002, 5.642825e+001
8.775313e+002, 5.639155e+001
8.780134e+002, 5.637413e+001
8.784955e+002, 5.636924e+001
8.789777e+002, 5.643669e+001
8.794598e+002, 5.667483e+001
8.799419e+002, 5.695089e+001
8.804240e+002, 5.707051e+001
8.809061e+002, 5.704068e+001
8.813882e+002, 5.681409e+001
8.818704e+002, 5.640346e+001
8.823525e+002, 5.612425e+001
8.828346e+002, 5.618760e+001
8.833167e+002, 5.645869e+001
8.837988e+002, 5.668153e+001
8.842809e+002, 5.686817e+001
8.847631e+002, 5.691090e+001
8.852452e+002, 5.677003e+001
8.857273e+002, 5.657421e+001
8.862094e+002, 5.629773e+001
8.866915e+002, 5.605665e+001
8.871736e+002, 5.597704e+001
8.876558e+002, 5.605542e+001
8.881379e+002, 5.622507e+001
8.886200e+002, 5.671576e+001
8.891021e+002, 5.697039e+001
8.895842e+002, 5.670031e+001
8.900663e+002, 5.634712e+001
8.905485e+002, 5.619163e+001
8.910306e+002, 5.619111e+001
8.915127e+002, 5.626234e+001
8.919948e+002, 5.639240e+001
8.924769e+002, 5.636086e+001
8.929590e+002, 5.576317e+001
8.934412e+002, 5.515527e+001
8.939233e+002, 5.528246e+001
8.944054e+002, 5.582146e+001
8.948875e+002, 5.604561e+001
8.953696e+002, 5.583185e+001
8.958517e+002, 5.556351e+001
8.963339e+002, 5.552041e+001
8.968160e+002, 5.561431e+001
8.972981e+002, 5.569953e+001
8.977802e+002, 5.576971e+001
8.982623e+002, 5.574841e+001
8.987444e+002, 5.562114e+001
8.992266e+002, 5.548308e+001
8.997087e+002, 5.536102e+001
9.001908e+002, 5.530462e+001
9.006729e+002, 5.541393e+001
9.011550e+002, 5.570337e+001
9.016371e+002, 5.581580e+001
9.021193e+002, 5.559868e+001
9.026014e+002, 5.549067e+001
9.030835e+002, 5.573473e+001
9.035656e+002, 5.595244e+001
9.040477e+002, 5.578270e+001
9.045298e+002, 5.540142e+001
9.050120e+002, 5.530692e+001
9.054941e+002, 5.574080e+001
9.059762e+002, 5.591908e+001
9.064583e+002, 5.535632e+001
9.069404e+002, 5.479898e+001
9.074225e+002, 5.477414e+001
9.079047e+002, 5.499282e+001
9.083868e+002, 5.503123e+001
9.088689e+002, 5.483102e+001
9.093510e+002, 5.460722e+001
9.098331e+002, 5.447724e+001
9.103152e+002, 5.439212e+001
9.107974e+002, 5.428333e+001
9.112795e+002, 5.419049e+001
9.117616e+002, 5.420933e+001
9.122437e+002, 5.432557e+001
9.127258e+002, 5.444398e+001
9.132079e+002, 5.451937e+001
9.136901e+002, 5.453826e+001
9.141722e+002, 5.446523e+001
9.146543e+002, 5.431815e+001
9.151364e+002, 5.418635e+001
9.156185e+002, 5.406782e+001
9.161006e+002, 5.403897e+001
9.165828e+002, 5.414701e+001
9.170649e+002, 5.420492e+001
9.175470e+002, 5.401984e+001
9.180291e+002, 5.369564e+001
9.185112e+002, 5.362519e+001
9.189933e+002, 5.394759e+001
9.194755e+002, 5.416701e+001
9.199576e+002, 5.421248e+001
9.204397e+002, 5.425657e+001
9.209218e+002, 5.454799e+001
9.214039e+002, 5.475366e+001
9.218860e+002, 5.438762e+001
9.223682e+002, 5.347957e+001
9.228503e+002, 5.281977e+001
9.233324e+002, 5.246038e+001
9.238145e+002, 5.243718e+001
9.242966e+002, 5.316172e+001
9.247787e+002, 5.387084e+001
9.252609e+002, 5.383878e+001
9.257430e+002, 5.334895e+001
9.262251e+002, 5.308173e+001
9.267072e+002, 5.324063e+001
9.271893e+002, 5.345098e+001
9.276714e+002, 5.354900e+001
9.281536e+002, 5.350561e+001
9.286357e+002, 5.313240e+001
9.291178e+002, 5.265106e+001
9.295999e+002, 5.251867e+001
9.300820e+002, 5.276464e+001
9.305641e+002, 5.307590e+001
9.310463e+002, 5.326704e+001
9.315284e+002, 5.334039e+001
9.320105e+002, 5.324833e+001
9.324926e+002, 5.303826e+001
9.329747e+002, 5.290645e+001
9.334568e+002, 5.286113e+001
9.339390e+002, 5.286018e+001
9.344211e+002, 5.289639e+001
9.349032e+002, 5.287690e+001
9.353853e+002, 5.266447e+001
9.358674e+002, 5.232995e+001
9.363495e+002, 5.234391e+001
9.368317e+002, 5.283922e+001
9.373138e+002, 5.306755e+001
9.377959e+002, 5.278315e+001
9.382780e+002, 5.260209e+001
9.387601e+002, 5.301671e+001
9.392422e+002, 5.361539e+001
9.397244e+002, 5.362356e+001
9.402065e+002, 5.291320e+001
9.406886e+002, 5.236593e+001
9.411707e+002, 5.200423e+001
9.416528e+002, 5.176486e+001
9.421349e+002, 5.161817e+001
9.426171e+002, 5.160511e+001
9.430992e+002, 5.191886e+001
9.435813e+002, 5.236994e+001
9.440634e+002, 5.244734e+001
9.445455e+002, 5.194028e+001
9.450276e+002, 5.149219e+001
9.455098e+002, 5.130862e+001
9.459919e+002, 5.127964e+001
9.464740e+002, 5.141470e+001
9.469561e+002, 5.161599e+001
9.474382e+002, 5.178669e+001
9.479203e+002, 5.189815e+001
9.484025e+002, 5.191916e+001
9.488846e+002, 5.178326e+001
9.493667e+002, 5.168101e+001
9.498488e+002, 5.189587e+001
9.503309e+002, 5.220322e+001
9.508130e+002, 5.227545e+001
9.512952e+002, 5.211364e+001
9.517773e+002, 5.174532e+001
9.522594e+002, 5.121180e+001
9.527415e+002, 5.082036e+001
9.532236e+002, 5.093215e+001
9.537057e+002, 5.130925e+001
9.541878e+002, 5.130958e+001
9.546699e+002, 5.101330e+001
9.551520e+002, 5.101952e+001
9.556342e+002, 5.141084e+001
9.561163e+002, 5.166378e+001
9.565984e+002, 5.148114e+001
9.570805e+002, 5.110187e+001
9.575626e+002, 5.089125e+001
9.580447e+002, 5.084713e+001
9.585269e+002, 5.095151e+001
9.590090e+002, 5.128902e+001
9.594911e+002, 5.138416e+001
9.599732e+002, 5.102569e+001
9.604553e+002, 5.066163e+001
9.609374e+002, 5.067779e+001
9.614196e+002, 5.090452e+001
9.619017e+002, 5.082427e+001
9.623838e+002, 5.017830e+001
9.628659e+002, 5.002687e+001
9.633480e+002, 5.072895e+001
9.638301e+002, 5.144262e+001
9.643123e+002, 5.208518e+001
9.647944e+002, 5.253204e+001
9.652765e+002, 5.266026e+001
9.657586e+002, 5.249478e+001
9.662407e+002, 5.213929e+001
9.667228e+002, 5.137575e+001
9.672050e+002, 5.089208e+001
9.676871e+002, 5.107402e+001
9.681692e+002, 5.131551e+001
9.686513e+002, 5.127656e+001
9.691334e+002, 5.108396e+001
9.696155e+002, 5.089614e+001
9.700977e+002, 5.075020e+001
9.705798e+002, 5.067273e+001
9.710619e+002, 5.065954e+001
9.715440e+002, 5.074553e+001
9.720261e+002, 5.116261e+001
9.725082e+002, 5.152634e+001
9.729904e+002, 5.117505e+001
9.734725e+002, 5.047982e+001
9.739546e+002, 5.050616e+001
9.744367e+002, 5.147723e+001
9.749188e+002, 5.217692e+001
9.754009e+002, 5.136749e+001
9.758831e+002, 5.006365e+001
9.763652e+002, 4.959741e+001
9.768473e+002, 4.968336e+001
9.773294e+002, 4.975383e+001
9.778115e+002, 4.973404e+001
9.782936e+002, 4.967561e+001
9.787758e+002, 4.960415e+001
9.792579e+002, 4.971389e+001
9.797400e+002, 5.049329e+001
9.802221e+002, 5.156237e+001
9.807042e+002, 5.138913e+001
9.811863e+002, 5.016365e+001
9.816685e+002, 4.945967e+001
9.821506e+002, 4.958943e+001
9.826327e+002, 4.993524e+001
9.831148e+002, 5.012000e+001
9.835969e+002, 5.017310e+001
9.840790e+002, 5.015114e+001
9.845612e+002, 5.005490e+001
9.850433e+002, 4.979569e+001
9.855254e+002, 4.931514e+001
9.860075e+002, 4.904117e+001
9.864896e+002, 4.913036e+001
9.869717e+002, 4.931446e+001
9.874539e+002, 4.940627e+001
9.879360e+002, 4.939774e+001
9.884181e+002, 4.924780e+001
9.889002e+002, 4.889223e+001
9.893823e+002, 4.861893e+001
9.898644e+002, 4.840865e+001
9.903466e+002, 4.832566e+001
9.908287e+002, 4.849353e+001
9.913108e+002, 4.868192e+001
9.917929e+002, 4.864337e+001
9.922750e+002, 4.842322e+001
9.927571e+002, 4.829259e+001
9.932393e+002, 4.834074e+001
9.937214e+002, 4.831874e+001
9.942035e+002, 4.805949e+001
9.946856e+002, 4.792605e+001
9.951677e+002, 4.821320e+001
9.956498e+002, 4.858846e+001
9.961320e+002, 4.869606e+001
9.966141e+002, 4.854297e+001
9.970962e+002, 4.833097e+001
9.975783e+002, 4.804460e+001
9.980604e+002, 4.779017e+001
9.985425e+002, 4.752531e+001
9.990247e+002, 4.737320e+001
9.995068e+002, 4.757536e+001
9.999889e+002, 4.785448e+001
1.000471e+003, 4.776035e+001
1.000953e+003, 4.727845e+001
1.001435e+003, 4.688398e+001
1.001917e+003, 4.684601e+001
1.002399e+003, 4.682914e+001
1.002882e+003, 4.650639e+001
1.003364e+003, 4.624718e+001
1.003846e+003, 4.655642e+001
1.004328e+003, 4.714722e+001
1.004810e+003, 4.738987e+001
1.005292e+003, 4.715858e+001
1.005774e+003, 4.690647e+001
1.006256e+003, 4.689501e+001
1.006739e+003, 4.701382e+001
1.007221e+003, 4.731289e+001
1.007703e+003, 4.758143e+001
1.008185e+003, 4.743264e+001
1.008667e+003, 4.698137e+001
1.009149e+003, 4.663428e+001
1.009631e+003, 4.653206e+001
1.010113e+003, 4.649493e+001
1.010595e+003, 4.633664e+001
1.011078e+003, 4.618488e+001
1.011560e+003, 4.633303e+001
1.012042e+003, 4.660936e+001
1.012524e+003, 4.655550e+001
1.013006e+003, 4.619447e+001
1.013488e+003, 4.590057e+001
1.013970e+003, 4.583714e+001
1.014452e+003, 4.588564e+001
1.014935e+003, 4.592541e+001
1.015417e+003, 4.596798e+001
1.015899e+003, 4.607652e+001
1.016381e+003, 4.621973e+001
1.016863e+003, 4.620882e+001
1.017345e+003, 4.603566e+001
1.017827e+003, 4.595411e+001
1.018309e+003, 4.610186e+001
1.018791e+003, 4.627210e+001
1.019274e+003, 4.614425e+001
1.019756e+003, 4.580315e+001
1.020238e+003, 4.568494e+001
1.020720e+003, 4.578042e+001
1.021202e+003, 4.581215e+001
1.021684e+003, 4.572735e+001
1.022166e+003, 4.568329e+001
1.022648e+003, 4.577973e+001
1.023130e+003, 4.592438e+001
1.023613e+003, 4.598540e+001
1.024095e+003, 4.595890e+001
1.024577e+003, 4.564455e+001
1.025059e+003, 4.492277e+001
1.025541e+003, 4.513313e+001
1.026023e+003, 4.683491e+001
1.026505e+003, 4.803142e+001
1.026987e+003, 4.733010e+001
1.027469e+003, 4.568388e+001
1.027952e+003, 4.484900e+001
1.028434e+003, 4.485309e+001
1.028916e+003, 4.487325e+001
1.029398e+003, 4.493047e+001
1.029880e+003, 4.492032e+001
1.030362e+003, 4.478584e+001
1.030844e+003, 4.467809e+001
1.031326e+003, 4.473906e+001
1.031809e+003, 4.484040e+001
1.032291e+003, 4.468596e+001
1.032773e+003, 4.421384e+001
1.033255e+003, 4.402544e+001
1.033737e+003, 4.425033e+001
1.034219e+003, 4.448070e+001
1.034701e+003, 4.465924e+001
1.035183e+003, 4.480017e+001
1.035666e+003, 4.491730e+001
1.036148e+003, 4.499842e+001
1.036630e+003, 4.500621e+001
1.037112e+003, 4.491865e+001
1.037594e+003, 4.488173e+001
1.038076e+003, 4.496619e+001
1.038558e+003, 4.498671e+001
1.039040e+003, 4.490301e+001
1.039522e+003, 4.475465e+001
1.040005e+003, 4.451768e+001
1.040487e+003, 4.424776e+001
1.040969e+003, 4.406768e+001
1.041451e+003, 4.399164e+001
1.041933e+003, 4.392519e+001
1.042415e+003, 4.375707e+001
1.042897e+003, 4.375187e+001
1.043379e+003, 4.414931e+001
1.043861e+003, 4.453420e+001
1.044344e+003, 4.457356e+001
1.044826e+003, 4.443276e+001
1.045308e+003, 4.450786e+001
1.045790e+003, 4.490751e+001
1.046272e+003, 4.491615e+001
1.046754e+003, 4.402397e+001
1.047236e+003, 4.333425e+001
1.047718e+003, 4.314290e+001
1.048201e+003, 4.321627e+001
1.048683e+003, 4.354171e+001
1.049165e+003, 4.395604e+001
1.049647e+003, 4.418716e+001
1.050129e+003, 4.419548e+001
1.050611e+003, 4.411425e+001
1.051093e+003, 4.392810e+001
1.051575e+003, 4.371038e+001
1.052057e+003, 4.339024e+001
1.052540e+003, 4.313437e+001
1.053022e+003, 4.310756e+001
1.053504e+003, 4.321305e+001
1.053986e+003, 4.326758e+001
1.054468e+003, 4.324385e+001
1.054950e+003, 4.323375e+001
1.055432e+003, 4.328493e+001
1.055914e+003, 4.332196e+001
1.056396e+003, 4.333713e+001
1.056879e+003, 4.331178e+001
1.057361e+003, 4.321932e+001
1.057843e+003, 4.308246e+001
1.058325e+003, 4.289227e+001
1.058807e+003, 4.265548e+001
1.059289e+003, 4.260126e+001
1.059771e+003, 4.306018e+001
1.060253e+003, 4.336900e+001
1.060736e+003, 4.312458e+001
1.061218e+003, 4.278558e+001
1.061700e+003, 4.268050e+001
1.062182e+003, 4.273613e+001
1.062664e+003, 4.281909e+001
1.063146e+003, 4.289791e+001
1.063628e+003, 4.291578e+001
1.064110e+003, 4.284127e+001
1.064593e+003, 4.271761e+001
1.065075e+003, 4.252500e+001
1.065557e+003, 4.232720e+001
1.066039e+003, 4.209496e+001
1.066521e+003, 4.192978e+001
1.067003e+003, 4.203862e+001
1.067485e+003, 4.240931e+001
1.067967e+003, 4.270905e+001
1.068449e+003, 4.286729e+001
1.068932e+003, 4.283914e+001
1.069414e+003, 4.241597e+001
1.069896e+003, 4.198967e+001
1.070378e+003, 4.184743e+001
1.070860e+003, 4.189439e+001
1.071342e+003, 4.203820e+001
1.071824e+003, 4.221873e+001
1.072306e+003, 4.224186e+001
1.072788e+003, 4.194205e+001
1.073271e+003, 4.169283e+001
1.073753e+003, 4.171061e+001
1.074235e+003, 4.179696e+001
1.074717e+003, 4.184869e+001
1.075199e+003, 4.185535e+001
1.075681e+003, 4.178463e+001
1.076163e+003, 4.166316e+001
1.076645e+003, 4.161200e+001
1.077127e+003, 4.170378e+001
1.077610e+003, 4.176757e+001
1.078092e+003, 4.172408e+001
1.078574e+003, 4.162569e+001
1.079056e+003, 4.140621e+001
1.079538e+003, 4.122303e+001
1.080020e+003, 4.136968e+001
1.080502e+003, 4.172534e+001
1.080984e+003, 4.176022e+001
1.081467e+003, 4.119553e+001
1.081949e+003, 4.089672e+001
1.082431e+003, 4.162552e+001
1.082913e+003, 4.230335e+001
1.083395e+003, 4.216531e+001
1.083877e+003, 4.171401e+001
1.084359e+003, 4.143135e+001
1.084841e+003, 4.134567e+001
1.085323e+003, 4.137579e+001
1.085806e+003, 4.151879e+001
1.086288e+003, 4.159256e+001
1.086770e+003, 4.143013e+001
1.087252e+003, 4.129077e+001
1.087734e+003, 4.138632e+001
1.088216e+003, 4.149916e+001
1.088698e+003, 4.135394e+001
1.089180e+003, 4.108335e+001
1.089662e+003, 4.101864e+001
1.090145e+003, 4.122828e+001
1.090627e+003, 4.140578e+001
1.091109e+003, 4.155138e+001
1.091591e+003, 4.148946e+001
1.092073e+003, 4.089071e+001
1.092555e+003, 4.030158e+001
1.093037e+003, 4.026429e+001
1.093519e+003, 4.049384e+001
1.094002e+003, 4.042705e+001
1.094484e+003, 4.001242e+001
1.094966e+003, 3.975682e+001
1.095448e+003, 3.983591e+001
1.095930e+003, 4.007438e+001
1.096412e+003, 4.064112e+001
1.096894e+003, 4.110605e+001
1.097376e+003, 4.110465e+001
1.097859e+003, 4.089400e+001
1.098341e+003, 4.084572e+001
1.098823e+003, 4.096074e+001
1.099305e+003, 4.095778e+001
1.099787e+003, 4.065960e+001
1.100269e+003, 4.047707e+001
1.100751e+003, 4.069200e+001
1.101233e+003, 4.083739e+001
1.101715e+003, 4.053676e+001
1.102198e+003, 4.016319e+001
1.102680e+003, 4.024153e+001
1.103162e+003, 4.061311e+001
1.103644e+003, 4.055777e+001
1.104126e+003, 3.977467e+001
1.104608e+003, 3.919727e+001
1.105090e+003, 3.904933e+001
1.105572e+003, 3.905620e+001
1.106054e+003, 3.916980e+001
1.106537e+003, 3.935632e+001
1.107019e+003, 3.972024e+001
1.107501e+003, 4.010997e+001
1.107983e+003, 4.010929e+001
1.108465e+003, 3.957882e+001
1.108947e+003, 3.929607e+001
1.109429e+003, 3.950127e+001
1.109911e+003, 3.971330e+001
1.110394e+003, 3.994995e+001
1.110876e+003, 4.004693e+001
1.111358e+003, 3.975817e+001
1.111840e+003, 3.933619e+001
1.112322e+003, 3.924621e+001
1.112804e+003, 3.951811e+001
1.113286e+003, 3.958371e+001
1.113768e+003, 3.928871e+001
1.114250e+003, 3.904174e+001
1.114733e+003, 3.884641e+001
1.115215e+003, 3.873637e+001
1.115697e+003, 3.875394e+001
1.116179e+003, 3.883929e+001
1.116661e+003, 3.893292e+001
1.117143e+003, 3.903402e+001
1.117625e+003, 3.914003e+001
1.118107e+003, 3.929569e+001
1.118589e+003, 3.933998e+001
1.119072e+003, 3.918179e+001
1.119554e+003, 3.910313e+001
1.120036e+003, 3.926477e+001
1.120518e+003, 3.940947e+001
1.121000e+003, 3.927301e+001
1.121482e+003, 3.898336e+001
1.121964e+003, 3.894858e+001
1.122446e+003, 3.925463e+001
1.122929e+003, 3.924962e+001
1.123411e+003, 3.877802e+001
1.123893e+003, 3.854967e+001
1.124375e+003, 3.879359e+001
1.124857e+003, 3.906888e+001
1.125339e+003, 3.909712e+001
1.125821e+003, 3.898425e+001
1.126303e+003, 3.889278e+001
1.126786e+003, 3.882746e+001
1.127268e+003, 3.890156e+001
1.127750e+003, 3.913753e+001
1.128232e+003, 3.930542e+001
1.128714e+003, 3.937140e+001
1.129196e+003, 3.940079e+001
1.129678e+003, 3.942880e+001
1.130160e+003, 3.939427e+001
1.130642e+003, 3.921663e+001
1.131125e+003, 3.893655e+001
1.131607e+003, 3.864788e+001
1.132089e+003, 3.836437e+001
1.132571e+003, 3.838993e+001
1.133053e+003, 3.873098e+001
1.133535e+003, 3.895115e+001
1.134017e+003, 3.891759e+001
1.134499e+003, 3.891942e+001
1.134981e+003, 3.920010e+001
1.135464e+003, 3.954842e+001
1.135946e+003, 3.959024e+001
1.136428e+003, 3.937055e+001
1.136910e+003, 3.893743e+001
1.137392e+003, 3.838934e+001
1.137874e+003, 3.825969e+001
1.138356e+003, 3.858071e+001
1.138838e+003, 3.882249e+001
1.139321e+003, 3.871352e+001
1.139803e+003, 3.849882e+001
1.140285e+003, 3.845252e+001
1.140767e+003, 3.848299e+001
1.141249e+003, 3.843464e+001
1.141731e+003, 3.832641e+001
1.142213e+003, 3.816961e+001
1.142695e+003, 3.799467e+001
1.143177e+003, 3.785992e+001
1.143660e+003, 3.779428e+001
1.144142e+003, 3.787258e+001
1.144624e+003, 3.823359e+001
1.145106e+003, 3.855394e+001
1.145588e+003, 3.843605e+001
1.146070e+003, 3.813078e+001
1.146552e+003, 3.788156e+001
1.147034e+003, 3.772168e+001
1.147516e+003, 3.767662e+001
1.147999e+003, 3.773847e+001
1.148481e+003, 3.789164e+001
1.148963e+003, 3.816237e+001
1.149445e+003, 3.831835e+001
1.149927e+003, 3.810330e+001
1.150409e+003, 3.784504e+001
1.150891e+003, 3.773353e+001
1.151373e+003, 3.774168e+001
1.151856e+003, 3.797349e+001
1.152338e+003, 3.825222e+001
1.152820e+003, 3.812986e+001
1.153302e+003, 3.751625e+001
1.153784e+003, 3.710217e+001
1.154266e+003, 3.710697e+001
1.154748e+003, 3.736324e+001
1.155230e+003, 3.817485e+001
1.155713e+003, 3.882621e+001
1.156195e+003, 3.875958e+001
1.156677e+003, 3.834731e+001
1.157159e+003, 3.806137e+001
1.157641e+003, 3.791431e+001
1.158123e+003, 3.773527e+001
1.158605e+003, 3.739272e+001
1.159087e+003, 3.726320e+001
1.159569e+003, 3.753025e+001
1.160052e+003, 3.779547e+001
1.160534e+003, 3.803886e+001
1.161016e+003, 3.814616e+001
1.161498e+003, 3.792574e+001
1.161980e+003, 3.756980e+001
1.162462e+003, 3.751396e+001
1.162944e+003, 3.779176e+001
1.163426e+003, 3.801906e+001
1.163908e+003, 3.823909e+001
1.164391e+003, 3.825614e+001
1.164873e+003, 3.796641e+001
1.165355e+003, 3.770141e+001
1.165837e+003, 3.762178e+001
1.166319e+003, 3.762130e+001
1.166801e+003, 3.757245e+001
1.167283e+003, 3.749900e+001
1.167765e+003, 3.752326e+001
1.168247e+003, 3.765228e+001
1.168730e+003, 3.762334e+001
1.169212e+003, 3.741857e+001
1.169694e+003, 3.734856e+001
1.170176e+003, 3.750195e+001
1.170658e+003, 3.761856e+001
1.171140e+003, 3.751111e+001
1.171622e+003, 3.732649e+001
1.172104e+003, 3.733118e+001
1.172587e+003, 3.744017e+001
1.173069e+003, 3.734162e+001
1.173551e+003, 3.709340e+001
1.174033e+003, 3.685049e+001
1.174515e+003, 3.667664e+001
1.174997e+003, 3.678664e+001
1.175479e+003, 3.723863e+001
1.175961e+003, 3.770362e+001
1.176443e+003, 3.794291e+001
1.176926e+003, 3.799127e+001
1.177408e+003, 3.782909e+001
1.177890e+003, 3.754989e+001
1.178372e+003, 3.718247e+001
1.178854e+003, 3.685202e+001
1.179336e+003, 3.686888e+001
1.179818e+003, 3.716739e+001
1.180300e+003, 3.727538e+001
1.180782e+003, 3.697411e+001
1.181265e+003, 3.666803e+001
1.181747e+003, 3.651772e+001
1.182229e+003, 3.654725e+001
1.182711e+003, 3.695221e+001
1.183193e+003, 3.738494e+001
1.183675e+003, 3.745590e+001
1.184157e+003, 3.732991e+001
1.184639e+003, 3.738360e+001
1.185122e+003, 3.765658e+001
1.185604e+003, 3.781777e+001
1.186086e+003, 3.774247e+001
1.186568e+003, 3.763224e+001
1.187050e+003, 3.748760e+001
1.187532e+003, 3.735497e+001
1.188014e+003, 3.726890e+001
1.188496e+003, 3.719006e+001
1.188979e+003, 3.706005e+001
1.189461e+003, 3.691428e+001
1.189943e+003, 3.686405e+001
1.190425e+003, 3.692873e+001
1.190907e+003, 3.697786e+001
1.191389e+003, 3.702343e+001
1.191871e+003, 3.701257e+001
1.192353e+003, 3.691488e+001
1.192835e+003, 3.682679e+001
1.193318e+003, 3.680186e+001
1.193800e+003, 3.678853e+001
1.194282e+003, 3.670950e+001
1.194764e+003, 3.660744e+001
1.195246e+003, 3.669793e+001
1.195728e+003, 3.696731e+001
1.196210e+003, 3.697883e+001
1.196692e+003, 3.673342e+001
1.197174e+003, 3.670679e+001
1.197657e+003, 3.700391e+001
1.198139e+003, 3.725416e+001
1.198621e+003, 3.722186e+001
1.199103e+003, 3.711840e+001
1.199585e+003, 3.727871e+001
1.200067e+003, 3.752256e+001
1.200549e+003, 3.747686e+001
1.201031e+003, 3.723624e+001
1.201514e+003, 3.694161e+001
1.201996e+003, 3.666156e+001
1.202478e+003, 3.654853e+001
1.202960e+003, 3.661620e+001
1.203442e+003, 3.664717e+001
1.203924e+003, 3.647851e+001
1.204406e+003, 3.634845e+001
1.204888e+003, 3.656215e+001
1.205370e+003, 3.675598e+001
1.205853e+003, 3.658512e+001
1.206335e+003, 3.624932e+001
1.206817e+003, 3.588661e+001
1.207299e+003, 3.560802e+001
1.207781e+003, 3.564596e+001
1.208263e+003, 3.606501e+001
1.208745e+003, 3.645336e+001
1.209227e+003, 3.691608e+001
1.209709e+003, 3.703152e+001
1.210192e+003, 3.632558e+001
1.210674e+003, 3.571210e+001
1.211156e+003, 3.567746e+001
1.211638e+003, 3.593280e+001
1.212120e+003, 3.632584e+001
1.212602e+003, 3.674314e+001
1.213084e+003, 3.670893e+001
1.213566e+003, 3.608197e+001
1.214049e+003, 3.571763e+001
1.214531e+003, 3.566209e+001
1.215013e+003, 3.568299e+001
1.215495e+003, 3.572993e+001
1.215977e+003, 3.592838e+001
1.216459e+003, 3.639124e+001
1.216941e+003, 3.677077e+001
1.217423e+003, 3.658183e+001
1.217906e+003, 3.606949e+001
1.218388e+003, 3.605421e+001
1.218870e+003, 3.641230e+001
1.219352e+003, 3.647865e+001
1.219834e+003, 3.628992e+001
1.220316e+003, 3.628179e+001
1.220798e+003, 3.651023e+001
1.221280e+003, 3.661625e+001
1.221762e+003, 3.640271e+001
1.222245e+003, 3.609791e+001
1.222727e+003, 3.589986e+001
1.223209e+003, 3.576360e+001
1.223691e+003, 3.562605e+001
1.224173e+003, 3.552763e+001
1.224655e+003, 3.556893e+001
1.225137e+003, 3.567312e+001
1.225619e+003, 3.564428e+001
1.226101e+003, 3.549302e+001
1.226584e+003, 3.550082e+001
1.227066e+003, 3.585283e+001
1.227548e+003, 3.610836e+001
1.228030e+003, 3.604893e+001
1.228512e+003, 3.595216e+001
1.228994e+003, 3.590628e+001
1.229476e+003, 3.589571e+001
1.229958e+003, 3.596074e+001
1.230441e+003, 3.602238e+001
1.230923e+003, 3.592636e+001
1.231405e+003, 3.567836e+001
1.231887e+003, 3.549011e+001
1.232369e+003, 3.537905e+001
1.232851e+003, 3.526979e+001
1.233333e+003, 3.514510e+001
1.233815e+003, 3.507365e+001
1.234297e+003, 3.508308e+001
1.234780e+003, 3.510957e+001
1.235262e+003, 3.509614e+001
1.235744e+003, 3.511895e+001
1.236226e+003, 3.534038e+001
1.236708e+003, 3.569386e+001
1.237190e+003, 3.593391e+001
1.237672e+003, 3.605385e+001
1.238154e+003, 3.598164e+001
1.238636e+003, 3.575520e+001
1.239119e+003, 3.553408e+001
1.239601e+003, 3.538606e+001
1.240083e+003, 3.541577e+001
1.240565e+003, 3.572622e+001
1.241047e+003, 3.604337e+001
1.241529e+003, 3.613991e+001
1.242011e+003, 3.607915e+001
1.242493e+003, 3.582862e+001
1.242975e+003, 3.553386e+001
1.243458e+003, 3.532258e+001
1.243940e+003, 3.522598e+001
1.244422e+003, 3.531074e+001
1.244904e+003, 3.556638e+001
1.245386e+003, 3.574979e+001
1.245868e+003, 3.593504e+001
1.246350e+003, 3.579005e+001
1.246832e+003, 3.470790e+001
1.247315e+003, 3.404103e+001
1.247797e+003, 3.458040e+001
1.248279e+003, 3.527666e+001
1.248761e+003, 3.541989e+001
1.249243e+003, 3.521795e+001
1.249725e+003, 3.501081e+001
1.250207e+003, 3.480631e+001
1.250689e+003, 3.476603e+001
1.251172e+003, 3.491302e+001
1.251654e+003, 3.493222e+001
1.252136e+003, 3.479032e+001
1.252618e+003, 3.484097e+001
1.253100e+003, 3.518863e+001
1.253582e+003, 3.546191e+001
1.254064e+003, 3.540160e+001
1.254546e+003, 3.517476e+001
1.255028e+003, 3.494376e+001
1.255510e+003, 3.475879e+001
1.255993e+003, 3.476656e+001
1.256475e+003, 3.486338e+001
1.256957e+003, 3.482326e+001
1.257439e+003, 3.470976e+001
1.257921e+003, 3.476334e+001
1.258403e+003, 3.499082e+001
1.258885e+003, 3.511374e+001
1.259367e+003, 3.498711e+001
1.259850e+003, 3.484770e+001
1.260332e+003, 3.473534e+001
1.260814e+003, 3.472845e+001
1.261296e+003, 3.501434e+001
1.261778e+003, 3.526695e+001
1.262260e+003, 3.517152e+001
1.262742e+003, 3.491666e+001
1.263224e+003, 3.481098e+001
1.263707e+003, 3.483984e+001
1.264189e+003, 3.486890e+001
1.264671e+003, 3.489575e+001
1.265153e+003, 3.491162e+001
1.265635e+003, 3.487554e+001
1.266117e+003, 3.506701e+001
1.266599e+003, 3.560545e+001
1.267081e+003, 3.596384e+001
1.267563e+003, 3.583655e+001
1.268046e+003, 3.549292e+001
1.268528e+003, 3.520710e+001
1.269010e+003, 3.502355e+001
1.269492e+003, 3.510114e+001
1.269974e+003, 3.533561e+001
1.270456e+003, 3.549001e+001
1.270938e+003, 3.556069e+001
1.271420e+003, 3.560549e+001
1.271902e+003, 3.561029e+001
1.272385e+003, 3.542849e+001
1.272867e+003, 3.500347e+001
1.273349e+003, 3.473819e+001
1.273831e+003, 3.509663e+001
1.274313e+003, 3.536236e+001
1.274795e+003, 3.497593e+001
1.275277e+003, 3.460569e+001
1.275759e+003, 3.478948e+001
1.276242e+003, 3.515825e+001
1.276724e+003, 3.530925e+001
1.277206e+003, 3.526536e+001
1.277688e+003, 3.515374e+001
1.278170e+003, 3.495763e+001
1.278652e+003, 3.484127e+001
1.279134e+003, 3.476686e+001
1.279616e+003, 3.493770e+001
1.280099e+003, 3.542219e+001
1.280581e+003, 3.595938e+001
1.281063e+003, 3.649435e+001
1.281545e+003, 3.663441e+001
1.282027e+003, 3.600136e+001
1.282509e+003, 3.518221e+001
1.282991e+003, 3.450179e+001
1.283473e+003, 3.473893e+001
1.283955e+003, 3.757846e+001
##END=



