##NAMES=Ilvaite
##RRUFFID=R060474
##IDEAL CHEMISTRY=CaFe^2+^_2_Fe^3+^OSi_2_O_7_(OH)
##LOCALITY=Dal 'Negorsk, Primorskiy, Kray, Russia
##OWNER=RRUFF
##SOURCE=Michael Scott
##DESCRIPTION=Steel gray prismatic crystal
##STATUS=The identification of this mineral has been confirmed by X-ray diffraction and chemical analysis
##URL=rruff.info/R060474
##MEASURED CHEMISTRY=Ca_1.00_(Fe^2+^_1.29_Mn_0.71_)_Σ=2_(Fe^3+^_0.93_Al_0.07_)_Σ=1_OSi_2.00_O_7_(OH); trace amounts of Mg; OH estimated by charge balance
9.001007e+001, 0.000000e+000
9.049219e+001, 7.829112e+001
9.097430e+001, 7.944880e+001
9.145642e+001, 7.913537e+001
9.193854e+001, 7.747971e+001
9.242065e+001, 7.555641e+001
9.290277e+001, 7.409277e+001
9.338489e+001, 7.299987e+001
9.386700e+001, 7.208984e+001
9.434912e+001, 7.135668e+001
9.483124e+001, 7.075521e+001
9.531335e+001, 7.027744e+001
9.579547e+001, 6.995072e+001
9.627759e+001, 6.953276e+001
9.675970e+001, 6.852946e+001
9.724182e+001, 6.700597e+001
9.772394e+001, 6.579758e+001
9.820605e+001, 6.554221e+001
9.868817e+001, 6.612119e+001
9.917029e+001, 6.598897e+001
9.965240e+001, 6.493919e+001
1.001345e+002, 6.347919e+001
1.006166e+002, 6.262169e+001
1.010988e+002, 6.246379e+001
1.015809e+002, 6.244960e+001
1.020630e+002, 6.234328e+001
1.025451e+002, 6.217327e+001
1.030272e+002, 6.174218e+001
1.035093e+002, 6.095011e+001
1.039915e+002, 5.989718e+001
1.044736e+002, 5.897669e+001
1.049557e+002, 5.826288e+001
1.054378e+002, 5.758430e+001
1.059199e+002, 5.679475e+001
1.064020e+002, 5.567578e+001
1.068842e+002, 5.484911e+001
1.073663e+002, 5.451606e+001
1.078484e+002, 5.468951e+001
1.083305e+002, 5.456394e+001
1.088126e+002, 5.391463e+001
1.092947e+002, 5.309374e+001
1.097769e+002, 5.242157e+001
1.102590e+002, 5.174162e+001
1.107411e+002, 5.137144e+001
1.112232e+002, 5.158971e+001
1.117053e+002, 5.269519e+001
1.121874e+002, 5.308112e+001
1.126696e+002, 5.200638e+001
1.131517e+002, 5.031133e+001
1.136338e+002, 4.908498e+001
1.141159e+002, 4.916333e+001
1.145980e+002, 4.918681e+001
1.150801e+002, 4.855178e+001
1.155623e+002, 4.676657e+001
1.160444e+002, 4.536038e+001
1.165265e+002, 4.504438e+001
1.170086e+002, 4.539242e+001
1.174907e+002, 4.553392e+001
1.179728e+002, 4.482017e+001
1.184550e+002, 4.400915e+001
1.189371e+002, 4.363094e+001
1.194192e+002, 4.415315e+001
1.199013e+002, 4.457334e+001
1.203834e+002, 4.430756e+001
1.208655e+002, 4.347929e+001
1.213477e+002, 4.256770e+001
1.218298e+002, 4.183242e+001
1.223119e+002, 4.116074e+001
1.227940e+002, 4.041376e+001
1.232761e+002, 3.923071e+001
1.237582e+002, 3.824300e+001
1.242404e+002, 3.827167e+001
1.247225e+002, 3.922714e+001
1.252046e+002, 4.000562e+001
1.256867e+002, 3.930987e+001
1.261688e+002, 3.786366e+001
1.266509e+002, 3.698688e+001
1.271331e+002, 3.787982e+001
1.276152e+002, 3.940051e+001
1.280973e+002, 3.974867e+001
1.285794e+002, 3.885822e+001
1.290615e+002, 3.759588e+001
1.295436e+002, 3.673872e+001
1.300258e+002, 3.624421e+001
1.305079e+002, 3.594091e+001
1.309900e+002, 3.585747e+001
1.314721e+002, 3.591153e+001
1.319542e+002, 3.585364e+001
1.324363e+002, 3.567448e+001
1.329185e+002, 3.538619e+001
1.334006e+002, 3.490163e+001
1.338827e+002, 3.421875e+001
1.343648e+002, 3.370757e+001
1.348469e+002, 3.369496e+001
1.353290e+002, 3.413248e+001
1.358112e+002, 3.429751e+001
1.362933e+002, 3.409196e+001
1.367754e+002, 3.364424e+001
1.372575e+002, 3.319664e+001
1.377396e+002, 3.272335e+001
1.382217e+002, 3.235881e+001
1.387039e+002, 3.223612e+001
1.391860e+002, 3.240468e+001
1.396681e+002, 3.248482e+001
1.401502e+002, 3.249815e+001
1.406323e+002, 3.238405e+001
1.411144e+002, 3.180169e+001
1.415966e+002, 3.055384e+001
1.420787e+002, 2.920676e+001
1.425608e+002, 2.811787e+001
1.430429e+002, 2.720078e+001
1.435250e+002, 2.682629e+001
1.440071e+002, 2.729217e+001
1.444893e+002, 2.854022e+001
1.449714e+002, 2.913054e+001
1.454535e+002, 2.869904e+001
1.459356e+002, 2.795779e+001
1.464177e+002, 2.760724e+001
1.468998e+002, 2.802126e+001
1.473820e+002, 2.822075e+001
1.478641e+002, 2.790452e+001
1.483462e+002, 2.694131e+001
1.488283e+002, 2.640826e+001
1.493104e+002, 2.666816e+001
1.497925e+002, 2.718526e+001
1.502747e+002, 2.733615e+001
1.507568e+002, 2.669166e+001
1.512389e+002, 2.612119e+001
1.517210e+002, 2.582095e+001
1.522031e+002, 2.586998e+001
1.526852e+002, 2.594013e+001
1.531674e+002, 2.625992e+001
1.536495e+002, 2.654885e+001
1.541316e+002, 2.640528e+001
1.546137e+002, 2.503105e+001
1.550958e+002, 2.387977e+001
1.555779e+002, 2.348728e+001
1.560601e+002, 2.428573e+001
1.565422e+002, 2.491862e+001
1.570243e+002, 2.514383e+001
1.575064e+002, 2.507743e+001
1.579885e+002, 2.494419e+001
1.584706e+002, 2.449652e+001
1.589528e+002, 2.420931e+001
1.594349e+002, 2.430578e+001
1.599170e+002, 2.489078e+001
1.603991e+002, 2.573565e+001
1.608812e+002, 2.696583e+001
1.613633e+002, 2.843405e+001
1.618455e+002, 2.975367e+001
1.623276e+002, 3.041074e+001
1.628097e+002, 3.110076e+001
1.632918e+002, 3.233369e+001
1.637739e+002, 3.474449e+001
1.642560e+002, 3.698436e+001
1.647382e+002, 3.795586e+001
1.652203e+002, 3.809792e+001
1.657024e+002, 3.908989e+001
1.661845e+002, 4.266813e+001
1.666666e+002, 4.705133e+001
1.671487e+002, 5.058394e+001
1.676309e+002, 5.214736e+001
1.681130e+002, 5.348531e+001
1.685951e+002, 5.547927e+001
1.690772e+002, 5.811184e+001
1.695593e+002, 6.124992e+001
1.700414e+002, 6.534970e+001
1.705236e+002, 6.977148e+001
1.710057e+002, 7.368768e+001
1.714878e+002, 7.651184e+001
1.719699e+002, 7.902715e+001
1.724520e+002, 8.188642e+001
1.729341e+002, 8.506908e+001
1.734163e+002, 8.816001e+001
1.738984e+002, 9.076778e+001
1.743805e+002, 9.311452e+001
1.748626e+002, 9.549071e+001
1.753447e+002, 9.830074e+001
1.758268e+002, 1.010883e+002
1.763090e+002, 1.032880e+002
1.767911e+002, 1.048770e+002
1.772732e+002, 1.062769e+002
1.777553e+002, 1.073431e+002
1.782374e+002, 1.079928e+002
1.787195e+002, 1.085428e+002
1.792017e+002, 1.088420e+002
1.796838e+002, 1.092416e+002
1.801659e+002, 1.103551e+002
1.806480e+002, 1.122199e+002
1.811301e+002, 1.143453e+002
1.816122e+002, 1.163379e+002
1.820944e+002, 1.182386e+002
1.825765e+002, 1.201282e+002
1.830586e+002, 1.218949e+002
1.835407e+002, 1.236971e+002
1.840228e+002, 1.260351e+002
1.845049e+002, 1.289419e+002
1.849871e+002, 1.320901e+002
1.854692e+002, 1.351445e+002
1.859513e+002, 1.381197e+002
1.864334e+002, 1.409145e+002
1.869155e+002, 1.435848e+002
1.873976e+002, 1.460695e+002
1.878798e+002, 1.480959e+002
1.883619e+002, 1.495598e+002
1.888440e+002, 1.509151e+002
1.893261e+002, 1.528474e+002
1.898082e+002, 1.553250e+002
1.902903e+002, 1.577251e+002
1.907725e+002, 1.598083e+002
1.912546e+002, 1.615952e+002
1.917367e+002, 1.629397e+002
1.922188e+002, 1.637504e+002
1.927009e+002, 1.643703e+002
1.931830e+002, 1.654333e+002
1.936652e+002, 1.669382e+002
1.941473e+002, 1.683039e+002
1.946294e+002, 1.690367e+002
1.951115e+002, 1.692084e+002
1.955936e+002, 1.697888e+002
1.960757e+002, 1.709092e+002
1.965579e+002, 1.723204e+002
1.970400e+002, 1.737632e+002
1.975221e+002, 1.753029e+002
1.980042e+002, 1.762376e+002
1.984863e+002, 1.757879e+002
1.989684e+002, 1.739313e+002
1.994506e+002, 1.729172e+002
1.999327e+002, 1.729922e+002
2.004148e+002, 1.738596e+002
2.008969e+002, 1.751139e+002
2.013790e+002, 1.769065e+002
2.018611e+002, 1.783558e+002
2.023433e+002, 1.788139e+002
2.028254e+002, 1.781906e+002
2.033075e+002, 1.777045e+002
2.037896e+002, 1.774796e+002
2.042717e+002, 1.774146e+002
2.047538e+002, 1.771666e+002
2.052360e+002, 1.766078e+002
2.057181e+002, 1.763193e+002
2.062002e+002, 1.767942e+002
2.066823e+002, 1.781965e+002
2.071644e+002, 1.792725e+002
2.076465e+002, 1.799124e+002
2.081287e+002, 1.801668e+002
2.086108e+002, 1.801116e+002
2.090929e+002, 1.796061e+002
2.095750e+002, 1.791736e+002
2.100571e+002, 1.792480e+002
2.105392e+002, 1.800195e+002
2.110214e+002, 1.803727e+002
2.115035e+002, 1.800844e+002
2.119856e+002, 1.793607e+002
2.124677e+002, 1.789924e+002
2.129498e+002, 1.792377e+002
2.134319e+002, 1.792717e+002
2.139140e+002, 1.783639e+002
2.143962e+002, 1.759904e+002
2.148783e+002, 1.746474e+002
2.153604e+002, 1.749622e+002
2.158425e+002, 1.764093e+002
2.163246e+002, 1.768013e+002
2.168067e+002, 1.757553e+002
2.172889e+002, 1.744033e+002
2.177710e+002, 1.734068e+002
2.182531e+002, 1.728450e+002
2.187352e+002, 1.723591e+002
2.192173e+002, 1.717832e+002
2.196994e+002, 1.712486e+002
2.201816e+002, 1.714606e+002
2.206637e+002, 1.727281e+002
2.211458e+002, 1.741975e+002
2.216279e+002, 1.753710e+002
2.221100e+002, 1.762879e+002
2.225921e+002, 1.768028e+002
2.230743e+002, 1.767566e+002
2.235564e+002, 1.762956e+002
2.240385e+002, 1.762336e+002
2.245206e+002, 1.771389e+002
2.250027e+002, 1.775678e+002
2.254848e+002, 1.763864e+002
2.259670e+002, 1.724955e+002
2.264491e+002, 1.697146e+002
2.269312e+002, 1.685781e+002
2.274133e+002, 1.687908e+002
2.278954e+002, 1.689389e+002
2.283775e+002, 1.690954e+002
2.288597e+002, 1.690813e+002
2.293418e+002, 1.687510e+002
2.298239e+002, 1.679346e+002
2.303060e+002, 1.672113e+002
2.307881e+002, 1.667347e+002
2.312702e+002, 1.663928e+002
2.317524e+002, 1.656033e+002
2.322345e+002, 1.639502e+002
2.327166e+002, 1.624426e+002
2.331987e+002, 1.617583e+002
2.336808e+002, 1.624009e+002
2.341629e+002, 1.627554e+002
2.346451e+002, 1.627604e+002
2.351272e+002, 1.624036e+002
2.356093e+002, 1.615883e+002
2.360914e+002, 1.600315e+002
2.365735e+002, 1.584067e+002
2.370556e+002, 1.570579e+002
2.375378e+002, 1.559533e+002
2.380199e+002, 1.552392e+002
2.385020e+002, 1.551977e+002
2.389841e+002, 1.555640e+002
2.394662e+002, 1.551579e+002
2.399483e+002, 1.532606e+002
2.404305e+002, 1.515817e+002
2.409126e+002, 1.510396e+002
2.413947e+002, 1.520412e+002
2.418768e+002, 1.533604e+002
2.423589e+002, 1.553931e+002
2.428410e+002, 1.576828e+002
2.433232e+002, 1.585285e+002
2.438053e+002, 1.571966e+002
2.442874e+002, 1.554151e+002
2.447695e+002, 1.539578e+002
2.452516e+002, 1.525674e+002
2.457337e+002, 1.521324e+002
2.462159e+002, 1.533374e+002
2.466980e+002, 1.554275e+002
2.471801e+002, 1.559100e+002
2.476622e+002, 1.541207e+002
2.481443e+002, 1.517328e+002
2.486264e+002, 1.494419e+002
2.491086e+002, 1.469802e+002
2.495907e+002, 1.452478e+002
2.500728e+002, 1.444903e+002
2.505549e+002, 1.444054e+002
2.510370e+002, 1.441921e+002
2.515191e+002, 1.437663e+002
2.520013e+002, 1.433512e+002
2.524834e+002, 1.430399e+002
2.529655e+002, 1.428566e+002
2.534476e+002, 1.427209e+002
2.539297e+002, 1.425964e+002
2.544118e+002, 1.425380e+002
2.548940e+002, 1.427178e+002
2.553761e+002, 1.433627e+002
2.558582e+002, 1.438431e+002
2.563403e+002, 1.438040e+002
2.568224e+002, 1.429525e+002
2.573046e+002, 1.425685e+002
2.577867e+002, 1.428190e+002
2.582688e+002, 1.434278e+002
2.587509e+002, 1.438625e+002
2.592330e+002, 1.440428e+002
2.597151e+002, 1.442012e+002
2.601973e+002, 1.444812e+002
2.606794e+002, 1.449850e+002
2.611615e+002, 1.450779e+002
2.616436e+002, 1.445359e+002
2.621257e+002, 1.437785e+002
2.626078e+002, 1.435123e+002
2.630900e+002, 1.438316e+002
2.635721e+002, 1.444393e+002
2.640542e+002, 1.453521e+002
2.645363e+002, 1.466995e+002
2.650184e+002, 1.475266e+002
2.655005e+002, 1.476588e+002
2.659827e+002, 1.475022e+002
2.664648e+002, 1.476546e+002
2.669469e+002, 1.482152e+002
2.674290e+002, 1.488017e+002
2.679111e+002, 1.493374e+002
2.683932e+002, 1.498257e+002
2.688754e+002, 1.501225e+002
2.693575e+002, 1.501804e+002
2.698396e+002, 1.501142e+002
2.703217e+002, 1.500115e+002
2.708038e+002, 1.498045e+002
2.712859e+002, 1.498144e+002
2.717681e+002, 1.501767e+002
2.722502e+002, 1.508745e+002
2.727323e+002, 1.515860e+002
2.732144e+002, 1.523840e+002
2.736965e+002, 1.530196e+002
2.741786e+002, 1.531498e+002
2.746608e+002, 1.526797e+002
2.751429e+002, 1.522182e+002
2.756250e+002, 1.518775e+002
2.761071e+002, 1.516637e+002
2.765892e+002, 1.516837e+002
2.770714e+002, 1.520316e+002
2.775535e+002, 1.523449e+002
2.780356e+002, 1.522424e+002
2.785177e+002, 1.516848e+002
2.789998e+002, 1.511085e+002
2.794819e+002, 1.505891e+002
2.799641e+002, 1.501182e+002
2.804462e+002, 1.497155e+002
2.809283e+002, 1.494069e+002
2.814104e+002, 1.490472e+002
2.818925e+002, 1.484687e+002
2.823746e+002, 1.476683e+002
2.828568e+002, 1.469416e+002
2.833389e+002, 1.463353e+002
2.838210e+002, 1.458397e+002
2.843031e+002, 1.454703e+002
2.847852e+002, 1.452483e+002
2.852673e+002, 1.449940e+002
2.857495e+002, 1.446099e+002
2.862316e+002, 1.440962e+002
2.867137e+002, 1.433715e+002
2.871958e+002, 1.423364e+002
2.876779e+002, 1.412215e+002
2.881600e+002, 1.405313e+002
2.886422e+002, 1.402699e+002
2.891243e+002, 1.401114e+002
2.896064e+002, 1.397708e+002
2.900885e+002, 1.393241e+002
2.905706e+002, 1.392700e+002
2.910527e+002, 1.397529e+002
2.915349e+002, 1.403861e+002
2.920170e+002, 1.405347e+002
2.924991e+002, 1.402276e+002
2.929812e+002, 1.398259e+002
2.934633e+002, 1.394070e+002
2.939454e+002, 1.390371e+002
2.944276e+002, 1.390023e+002
2.949097e+002, 1.393719e+002
2.953918e+002, 1.398363e+002
2.958739e+002, 1.399373e+002
2.963560e+002, 1.397590e+002
2.968381e+002, 1.397029e+002
2.973203e+002, 1.402575e+002
2.978024e+002, 1.410118e+002
2.982845e+002, 1.409328e+002
2.987666e+002, 1.399196e+002
2.992487e+002, 1.389018e+002
2.997308e+002, 1.390911e+002
3.002130e+002, 1.400712e+002
3.006951e+002, 1.406323e+002
3.011772e+002, 1.397508e+002
3.016593e+002, 1.384397e+002
3.021414e+002, 1.383519e+002
3.026235e+002, 1.394599e+002
3.031057e+002, 1.405782e+002
3.035878e+002, 1.404715e+002
3.040699e+002, 1.396978e+002
3.045520e+002, 1.393050e+002
3.050341e+002, 1.399054e+002
3.055162e+002, 1.407821e+002
3.059984e+002, 1.411790e+002
3.064805e+002, 1.411486e+002
3.069626e+002, 1.410746e+002
3.074447e+002, 1.413371e+002
3.079268e+002, 1.416742e+002
3.084089e+002, 1.417042e+002
3.088911e+002, 1.411282e+002
3.093732e+002, 1.405321e+002
3.098553e+002, 1.404947e+002
3.103374e+002, 1.408608e+002
3.108195e+002, 1.411046e+002
3.113016e+002, 1.405118e+002
3.117838e+002, 1.398757e+002
3.122659e+002, 1.398780e+002
3.127480e+002, 1.406621e+002
3.132301e+002, 1.420826e+002
3.137122e+002, 1.447703e+002
3.141943e+002, 1.480534e+002
3.146765e+002, 1.504566e+002
3.151586e+002, 1.503728e+002
3.156407e+002, 1.498660e+002
3.161228e+002, 1.503905e+002
3.166049e+002, 1.524298e+002
3.170870e+002, 1.541933e+002
3.175692e+002, 1.553482e+002
3.180513e+002, 1.556407e+002
3.185334e+002, 1.546967e+002
3.190155e+002, 1.512173e+002
3.194976e+002, 1.474922e+002
3.199797e+002, 1.443013e+002
3.204619e+002, 1.416720e+002
3.209440e+002, 1.399594e+002
3.214261e+002, 1.398375e+002
3.219082e+002, 1.404492e+002
3.223903e+002, 1.409867e+002
3.228724e+002, 1.414591e+002
3.233546e+002, 1.416545e+002
3.238367e+002, 1.413857e+002
3.243188e+002, 1.406736e+002
3.248009e+002, 1.400873e+002
3.252830e+002, 1.397460e+002
3.257651e+002, 1.395483e+002
3.262473e+002, 1.394312e+002
3.267294e+002, 1.393521e+002
3.272115e+002, 1.394013e+002
3.276936e+002, 1.399025e+002
3.281757e+002, 1.406569e+002
3.286578e+002, 1.406838e+002
3.291400e+002, 1.392118e+002
3.296221e+002, 1.376552e+002
3.301042e+002, 1.365923e+002
3.305863e+002, 1.361836e+002
3.310684e+002, 1.360233e+002
3.315505e+002, 1.363880e+002
3.320327e+002, 1.369486e+002
3.325148e+002, 1.369500e+002
3.329969e+002, 1.360359e+002
3.334790e+002, 1.350226e+002
3.339611e+002, 1.341397e+002
3.344432e+002, 1.333767e+002
3.349254e+002, 1.327647e+002
3.354075e+002, 1.323003e+002
3.358896e+002, 1.319890e+002
3.363717e+002, 1.319173e+002
3.368538e+002, 1.323085e+002
3.373359e+002, 1.323814e+002
3.378180e+002, 1.318045e+002
3.383001e+002, 1.305966e+002
3.387823e+002, 1.297231e+002
3.392644e+002, 1.292245e+002
3.397465e+002, 1.290017e+002
3.402286e+002, 1.290506e+002
3.407107e+002, 1.294452e+002
3.411928e+002, 1.296891e+002
3.416750e+002, 1.296902e+002
3.421571e+002, 1.294730e+002
3.426392e+002, 1.290525e+002
3.431213e+002, 1.283751e+002
3.436034e+002, 1.277675e+002
3.440855e+002, 1.276017e+002
3.445677e+002, 1.278486e+002
3.450498e+002, 1.276517e+002
3.455319e+002, 1.267648e+002
3.460140e+002, 1.256313e+002
3.464961e+002, 1.250804e+002
3.469782e+002, 1.250997e+002
3.474604e+002, 1.253791e+002
3.479425e+002, 1.260582e+002
3.484246e+002, 1.269055e+002
3.489067e+002, 1.269312e+002
3.493888e+002, 1.259784e+002
3.498709e+002, 1.247290e+002
3.503531e+002, 1.238140e+002
3.508352e+002, 1.232504e+002
3.513173e+002, 1.231033e+002
3.517994e+002, 1.238615e+002
3.522815e+002, 1.248971e+002
3.527636e+002, 1.250514e+002
3.532458e+002, 1.243235e+002
3.537279e+002, 1.234513e+002
3.542100e+002, 1.231709e+002
3.546921e+002, 1.231534e+002
3.551742e+002, 1.227993e+002
3.556563e+002, 1.215873e+002
3.561385e+002, 1.203161e+002
3.566206e+002, 1.198921e+002
3.571027e+002, 1.201498e+002
3.575848e+002, 1.202771e+002
3.580669e+002, 1.195986e+002
3.585490e+002, 1.186541e+002
3.590312e+002, 1.179648e+002
3.595133e+002, 1.176924e+002
3.599954e+002, 1.175397e+002
3.604775e+002, 1.174328e+002
3.609596e+002, 1.173209e+002
3.614417e+002, 1.170985e+002
3.619239e+002, 1.164435e+002
3.624060e+002, 1.158808e+002
3.628881e+002, 1.157940e+002
3.633702e+002, 1.163401e+002
3.638523e+002, 1.167265e+002
3.643344e+002, 1.166585e+002
3.648166e+002, 1.163087e+002
3.652987e+002, 1.158705e+002
3.657808e+002, 1.152008e+002
3.662629e+002, 1.146469e+002
3.667450e+002, 1.143244e+002
3.672271e+002, 1.142339e+002
3.677093e+002, 1.141965e+002
3.681914e+002, 1.142337e+002
3.686735e+002, 1.142895e+002
3.691556e+002, 1.143286e+002
3.696377e+002, 1.145011e+002
3.701198e+002, 1.144596e+002
3.706020e+002, 1.140800e+002
3.710841e+002, 1.134594e+002
3.715662e+002, 1.129365e+002
3.720483e+002, 1.124218e+002
3.725304e+002, 1.121184e+002
3.730125e+002, 1.121570e+002
3.734947e+002, 1.127145e+002
3.739768e+002, 1.131257e+002
3.744589e+002, 1.134666e+002
3.749410e+002, 1.136049e+002
3.754231e+002, 1.132307e+002
3.759052e+002, 1.120821e+002
3.763874e+002, 1.111643e+002
3.768695e+002, 1.108815e+002
3.773516e+002, 1.112115e+002
3.778337e+002, 1.112108e+002
3.783158e+002, 1.108020e+002
3.787979e+002, 1.102886e+002
3.792801e+002, 1.099735e+002
3.797622e+002, 1.098631e+002
3.802443e+002, 1.097850e+002
3.807264e+002, 1.097319e+002
3.812085e+002, 1.096668e+002
3.816906e+002, 1.094597e+002
3.821728e+002, 1.091077e+002
3.826549e+002, 1.087557e+002
3.831370e+002, 1.085356e+002
3.836191e+002, 1.084027e+002
3.841012e+002, 1.081698e+002
3.845833e+002, 1.077844e+002
3.850655e+002, 1.073922e+002
3.855476e+002, 1.071624e+002
3.860297e+002, 1.070824e+002
3.865118e+002, 1.071236e+002
3.869939e+002, 1.074148e+002
3.874760e+002, 1.077618e+002
3.879582e+002, 1.078497e+002
3.884403e+002, 1.076720e+002
3.889224e+002, 1.074564e+002
3.894045e+002, 1.072812e+002
3.898866e+002, 1.072135e+002
3.903687e+002, 1.073648e+002
3.908509e+002, 1.079732e+002
3.913330e+002, 1.085947e+002
3.918151e+002, 1.089265e+002
3.922972e+002, 1.090078e+002
3.927793e+002, 1.090052e+002
3.932614e+002, 1.089964e+002
3.937436e+002, 1.089380e+002
3.942257e+002, 1.088074e+002
3.947078e+002, 1.086225e+002
3.951899e+002, 1.083084e+002
3.956720e+002, 1.075188e+002
3.961541e+002, 1.066366e+002
3.966363e+002, 1.062780e+002
3.971184e+002, 1.071583e+002
3.976005e+002, 1.080575e+002
3.980826e+002, 1.086080e+002
3.985647e+002, 1.087773e+002
3.990468e+002, 1.086956e+002
3.995290e+002, 1.079845e+002
4.000111e+002, 1.072453e+002
4.004932e+002, 1.069649e+002
4.009753e+002, 1.075697e+002
4.014574e+002, 1.080704e+002
4.019395e+002, 1.084233e+002
4.024217e+002, 1.086156e+002
4.029038e+002, 1.085286e+002
4.033859e+002, 1.078973e+002
4.038680e+002, 1.073767e+002
4.043501e+002, 1.073532e+002
4.048322e+002, 1.080601e+002
4.053144e+002, 1.084290e+002
4.057965e+002, 1.083664e+002
4.062786e+002, 1.080732e+002
4.067607e+002, 1.078251e+002
4.072428e+002, 1.076045e+002
4.077249e+002, 1.075363e+002
4.082071e+002, 1.077558e+002
4.086892e+002, 1.081833e+002
4.091713e+002, 1.082597e+002
4.096534e+002, 1.079398e+002
4.101355e+002, 1.075248e+002
4.106176e+002, 1.072572e+002
4.110998e+002, 1.071253e+002
4.115819e+002, 1.070647e+002
4.120640e+002, 1.070417e+002
4.125461e+002, 1.071197e+002
4.130282e+002, 1.075566e+002
4.135103e+002, 1.082660e+002
4.139925e+002, 1.087512e+002
4.144746e+002, 1.084537e+002
4.149567e+002, 1.078392e+002
4.154388e+002, 1.077005e+002
4.159209e+002, 1.081442e+002
4.164030e+002, 1.086394e+002
4.168852e+002, 1.086560e+002
4.173673e+002, 1.084434e+002
4.178494e+002, 1.084075e+002
4.183315e+002, 1.090725e+002
4.188136e+002, 1.096636e+002
4.192957e+002, 1.095170e+002
4.197779e+002, 1.087589e+002
4.202600e+002, 1.082148e+002
4.207421e+002, 1.083855e+002
4.212242e+002, 1.088431e+002
4.217063e+002, 1.093263e+002
4.221884e+002, 1.100269e+002
4.226706e+002, 1.103155e+002
4.231527e+002, 1.096956e+002
4.236348e+002, 1.086024e+002
4.241169e+002, 1.078540e+002
4.245990e+002, 1.077902e+002
4.250811e+002, 1.078653e+002
4.255633e+002, 1.079427e+002
4.260454e+002, 1.080198e+002
4.265275e+002, 1.080838e+002
4.270096e+002, 1.081235e+002
4.274917e+002, 1.081559e+002
4.279738e+002, 1.082307e+002
4.284560e+002, 1.085390e+002
4.289381e+002, 1.084494e+002
4.294202e+002, 1.076756e+002
4.299023e+002, 1.065025e+002
4.303844e+002, 1.059109e+002
4.308665e+002, 1.060465e+002
4.313487e+002, 1.063632e+002
4.318308e+002, 1.066717e+002
4.323129e+002, 1.069848e+002
4.327950e+002, 1.069913e+002
4.332771e+002, 1.066238e+002
4.337592e+002, 1.061215e+002
4.342414e+002, 1.057955e+002
4.347235e+002, 1.056307e+002
4.352056e+002, 1.054133e+002
4.356877e+002, 1.049453e+002
4.361698e+002, 1.044746e+002
4.366519e+002, 1.046727e+002
4.371341e+002, 1.055036e+002
4.376162e+002, 1.062931e+002
4.380983e+002, 1.065500e+002
4.385804e+002, 1.064355e+002
4.390625e+002, 1.062036e+002
4.395446e+002, 1.058748e+002
4.400268e+002, 1.055069e+002
4.405089e+002, 1.050106e+002
4.409910e+002, 1.045154e+002
4.414731e+002, 1.042920e+002
4.419552e+002, 1.049131e+002
4.424373e+002, 1.054843e+002
4.429195e+002, 1.051470e+002
4.434016e+002, 1.039199e+002
4.438837e+002, 1.032663e+002
4.443658e+002, 1.045851e+002
4.448479e+002, 1.062757e+002
4.453300e+002, 1.070544e+002
4.458122e+002, 1.057914e+002
4.462943e+002, 1.047611e+002
4.467764e+002, 1.044524e+002
4.472585e+002, 1.046499e+002
4.477406e+002, 1.048033e+002
4.482227e+002, 1.048923e+002
4.487049e+002, 1.049156e+002
4.491870e+002, 1.048523e+002
4.496691e+002, 1.046798e+002
4.501512e+002, 1.045542e+002
4.506333e+002, 1.044255e+002
4.511154e+002, 1.044014e+002
4.515976e+002, 1.046727e+002
4.520797e+002, 1.054406e+002
4.525618e+002, 1.057866e+002
4.530439e+002, 1.053932e+002
4.535260e+002, 1.045817e+002
4.540081e+002, 1.044085e+002
4.544903e+002, 1.049734e+002
4.549724e+002, 1.055291e+002
4.554545e+002, 1.056002e+002
4.559366e+002, 1.052633e+002
4.564187e+002, 1.050489e+002
4.569008e+002, 1.049689e+002
4.573830e+002, 1.050376e+002
4.578651e+002, 1.054456e+002
4.583472e+002, 1.060473e+002
4.588293e+002, 1.063433e+002
4.593114e+002, 1.060664e+002
4.597935e+002, 1.055141e+002
4.602757e+002, 1.047824e+002
4.607578e+002, 1.039936e+002
4.612399e+002, 1.037451e+002
4.617220e+002, 1.051636e+002
4.622041e+002, 1.068822e+002
4.626862e+002, 1.074349e+002
4.631684e+002, 1.063523e+002
4.636505e+002, 1.052905e+002
4.641326e+002, 1.050906e+002
4.646147e+002, 1.054200e+002
4.650968e+002, 1.058505e+002
4.655789e+002, 1.064076e+002
4.660611e+002, 1.068885e+002
4.665432e+002, 1.073243e+002
4.670253e+002, 1.076863e+002
4.675074e+002, 1.077052e+002
4.679895e+002, 1.067552e+002
4.684716e+002, 1.059376e+002
4.689538e+002, 1.058227e+002
4.694359e+002, 1.068714e+002
4.699180e+002, 1.076215e+002
4.704001e+002, 1.080848e+002
4.708822e+002, 1.082453e+002
4.713643e+002, 1.079864e+002
4.718465e+002, 1.070685e+002
4.723286e+002, 1.064158e+002
4.728107e+002, 1.062442e+002
4.732928e+002, 1.065300e+002
4.737749e+002, 1.073621e+002
4.742570e+002, 1.088994e+002
4.747392e+002, 1.101163e+002
4.752213e+002, 1.098790e+002
4.757034e+002, 1.084660e+002
4.761855e+002, 1.078576e+002
4.766676e+002, 1.083709e+002
4.771497e+002, 1.093430e+002
4.776319e+002, 1.100042e+002
4.781140e+002, 1.104009e+002
4.785961e+002, 1.106672e+002
4.790782e+002, 1.107484e+002
4.795603e+002, 1.108005e+002
4.800424e+002, 1.110510e+002
4.805246e+002, 1.114726e+002
4.810067e+002, 1.118368e+002
4.814888e+002, 1.118156e+002
4.819709e+002, 1.117735e+002
4.824530e+002, 1.120988e+002
4.829352e+002, 1.130872e+002
4.834173e+002, 1.138869e+002
4.838994e+002, 1.138330e+002
4.843815e+002, 1.134503e+002
4.848636e+002, 1.135382e+002
4.853457e+002, 1.148084e+002
4.858279e+002, 1.160182e+002
4.863100e+002, 1.168414e+002
4.867921e+002, 1.172686e+002
4.872742e+002, 1.176058e+002
4.877563e+002, 1.176957e+002
4.882384e+002, 1.178626e+002
4.887206e+002, 1.183143e+002
4.892027e+002, 1.192068e+002
4.896848e+002, 1.198822e+002
4.901669e+002, 1.200344e+002
4.906490e+002, 1.202941e+002
4.911311e+002, 1.221634e+002
4.916133e+002, 1.260504e+002
4.920954e+002, 1.285545e+002
4.925775e+002, 1.281908e+002
4.930596e+002, 1.257539e+002
4.935417e+002, 1.240273e+002
4.940238e+002, 1.230144e+002
4.945060e+002, 1.226009e+002
4.949881e+002, 1.230238e+002
4.954702e+002, 1.239672e+002
4.959523e+002, 1.246960e+002
4.964344e+002, 1.251254e+002
4.969165e+002, 1.252568e+002
4.973987e+002, 1.247359e+002
4.978808e+002, 1.239489e+002
4.983629e+002, 1.236352e+002
4.988450e+002, 1.246125e+002
4.993271e+002, 1.257316e+002
4.998092e+002, 1.263657e+002
5.002914e+002, 1.265293e+002
5.007735e+002, 1.262860e+002
5.012556e+002, 1.250762e+002
5.017377e+002, 1.239048e+002
5.022198e+002, 1.234594e+002
5.027019e+002, 1.242431e+002
5.031841e+002, 1.246308e+002
5.036662e+002, 1.241297e+002
5.041483e+002, 1.232511e+002
5.046304e+002, 1.225820e+002
5.051125e+002, 1.221738e+002
5.055946e+002, 1.219221e+002
5.060768e+002, 1.219481e+002
5.065589e+002, 1.221304e+002
5.070410e+002, 1.217643e+002
5.075231e+002, 1.206138e+002
5.080052e+002, 1.195770e+002
5.084873e+002, 1.192013e+002
5.089695e+002, 1.194979e+002
5.094516e+002, 1.196596e+002
5.099337e+002, 1.196989e+002
5.104158e+002, 1.195241e+002
5.108979e+002, 1.188443e+002
5.113800e+002, 1.177970e+002
5.118622e+002, 1.170591e+002
5.123443e+002, 1.169350e+002
5.128264e+002, 1.170157e+002
5.133085e+002, 1.166688e+002
5.137906e+002, 1.160291e+002
5.142728e+002, 1.155791e+002
5.147549e+002, 1.158359e+002
5.152370e+002, 1.162418e+002
5.157191e+002, 1.162811e+002
5.162012e+002, 1.158975e+002
5.166833e+002, 1.155274e+002
5.171655e+002, 1.154247e+002
5.176476e+002, 1.153975e+002
5.181297e+002, 1.152813e+002
5.186118e+002, 1.149522e+002
5.190939e+002, 1.146457e+002
5.195760e+002, 1.143608e+002
5.200582e+002, 1.141272e+002
5.205403e+002, 1.140122e+002
5.210224e+002, 1.141814e+002
5.215045e+002, 1.142358e+002
5.219866e+002, 1.140314e+002
5.224688e+002, 1.135666e+002
5.229509e+002, 1.131681e+002
5.234330e+002, 1.128133e+002
5.239151e+002, 1.125673e+002
5.243972e+002, 1.124577e+002
5.248793e+002, 1.124836e+002
5.253615e+002, 1.128055e+002
5.258436e+002, 1.135438e+002
5.263257e+002, 1.142891e+002
5.268078e+002, 1.143542e+002
5.272899e+002, 1.138527e+002
5.277720e+002, 1.133175e+002
5.282542e+002, 1.129822e+002
5.287363e+002, 1.127124e+002
5.292184e+002, 1.123337e+002
5.297005e+002, 1.118581e+002
5.301826e+002, 1.113335e+002
5.306647e+002, 1.106006e+002
5.311469e+002, 1.099494e+002
5.316290e+002, 1.097137e+002
5.321111e+002, 1.100600e+002
5.325932e+002, 1.102354e+002
5.330753e+002, 1.097206e+002
5.335574e+002, 1.089840e+002
5.340396e+002, 1.085198e+002
5.345217e+002, 1.086297e+002
5.350038e+002, 1.087621e+002
5.354859e+002, 1.089379e+002
5.359680e+002, 1.090883e+002
5.364501e+002, 1.089784e+002
5.369323e+002, 1.084939e+002
5.374144e+002, 1.079453e+002
5.378965e+002, 1.074534e+002
5.383786e+002, 1.070230e+002
5.388607e+002, 1.064645e+002
5.393428e+002, 1.057252e+002
5.398250e+002, 1.050298e+002
5.403071e+002, 1.045556e+002
5.407892e+002, 1.043070e+002
5.412713e+002, 1.043971e+002
5.417534e+002, 1.049873e+002
5.422355e+002, 1.055201e+002
5.427177e+002, 1.050112e+002
5.431998e+002, 1.037523e+002
5.436819e+002, 1.026850e+002
5.441640e+002, 1.024118e+002
5.446461e+002, 1.024211e+002
5.451282e+002, 1.023130e+002
5.456104e+002, 1.020858e+002
5.460925e+002, 1.017380e+002
5.465746e+002, 1.010596e+002
5.470567e+002, 1.004100e+002
5.475388e+002, 1.000500e+002
5.480209e+002, 1.000998e+002
5.485031e+002, 1.001635e+002
5.489852e+002, 1.002921e+002
5.494673e+002, 1.003313e+002
5.499494e+002, 1.001074e+002
5.504315e+002, 9.935868e+001
5.509136e+002, 9.875455e+001
5.513958e+002, 9.839525e+001
5.518779e+002, 9.821412e+001
5.523600e+002, 9.804703e+001
5.528421e+002, 9.792538e+001
5.533242e+002, 9.770158e+001
5.538063e+002, 9.727356e+001
5.542885e+002, 9.667390e+001
5.547706e+002, 9.614373e+001
5.552527e+002, 9.568123e+001
5.557348e+002, 9.531002e+001
5.562169e+002, 9.511890e+001
5.566990e+002, 9.503475e+001
5.571812e+002, 9.484519e+001
5.576633e+002, 9.449280e+001
5.581454e+002, 9.412922e+001
5.586275e+002, 9.395799e+001
5.591096e+002, 9.387130e+001
5.595917e+002, 9.367428e+001
5.600739e+002, 9.320684e+001
5.605560e+002, 9.269156e+001
5.610381e+002, 9.214553e+001
5.615202e+002, 9.161994e+001
5.620023e+002, 9.130935e+001
5.624844e+002, 9.151839e+001
5.629666e+002, 9.173245e+001
5.634487e+002, 9.172692e+001
5.639308e+002, 9.147633e+001
5.644129e+002, 9.110200e+001
5.648950e+002, 9.040205e+001
5.653771e+002, 8.979766e+001
5.658593e+002, 8.971145e+001
5.663414e+002, 9.032413e+001
5.668235e+002, 9.068839e+001
5.673056e+002, 9.071994e+001
5.677877e+002, 9.045707e+001
5.682698e+002, 8.974316e+001
5.687520e+002, 8.862416e+001
5.692341e+002, 8.800584e+001
5.697162e+002, 8.856221e+001
5.701983e+002, 8.960474e+001
5.706804e+002, 8.978667e+001
5.711625e+002, 8.921975e+001
5.716447e+002, 8.868629e+001
5.721268e+002, 8.875735e+001
5.726089e+002, 8.907528e+001
5.730910e+002, 8.933908e+001
5.735731e+002, 8.952904e+001
5.740552e+002, 8.956507e+001
5.745374e+002, 8.932732e+001
5.750195e+002, 8.896064e+001
5.755016e+002, 8.859969e+001
5.759837e+002, 8.808727e+001
5.764658e+002, 8.781005e+001
5.769479e+002, 8.801558e+001
5.774301e+002, 8.842320e+001
5.779122e+002, 8.843191e+001
5.783943e+002, 8.768840e+001
5.788764e+002, 8.726679e+001
5.793585e+002, 8.760513e+001
5.798406e+002, 8.854414e+001
5.803228e+002, 8.889274e+001
5.808049e+002, 8.856606e+001
5.812870e+002, 8.819552e+001
5.817691e+002, 8.826303e+001
5.822512e+002, 8.865080e+001
5.827333e+002, 8.894326e+001
5.832155e+002, 8.913654e+001
5.836975e+002, 8.905308e+001
5.841796e+002, 8.823360e+001
5.846617e+002, 8.709359e+001
5.851439e+002, 8.633154e+001
5.856260e+002, 8.626089e+001
5.861081e+002, 8.639021e+001
5.865902e+002, 8.663533e+001
5.870723e+002, 8.684608e+001
5.875544e+002, 8.673232e+001
5.880366e+002, 8.591959e+001
5.885187e+002, 8.506290e+001
5.890008e+002, 8.427054e+001
5.894829e+002, 8.356562e+001
5.899650e+002, 8.320076e+001
5.904471e+002, 8.340446e+001
5.909293e+002, 8.364908e+001
5.914114e+002, 8.370815e+001
5.918935e+002, 8.357818e+001
5.923756e+002, 8.323714e+001
5.928577e+002, 8.260410e+001
5.933398e+002, 8.197482e+001
5.938220e+002, 8.164369e+001
5.943041e+002, 8.159178e+001
5.947862e+002, 8.172920e+001
5.952683e+002, 8.213405e+001
5.957504e+002, 8.247465e+001
5.962325e+002, 8.227250e+001
5.967147e+002, 8.165964e+001
5.971968e+002, 8.098511e+001
5.976789e+002, 8.025085e+001
5.981610e+002, 7.963398e+001
5.986431e+002, 7.927029e+001
5.991252e+002, 7.914085e+001
5.996074e+002, 7.914145e+001
6.000895e+002, 7.952023e+001
6.005716e+002, 7.977650e+001
6.010537e+002, 7.959533e+001
6.015358e+002, 7.881979e+001
6.020179e+002, 7.827466e+001
6.025001e+002, 7.817655e+001
6.029822e+002, 7.810345e+001
6.034643e+002, 7.770786e+001
6.039464e+002, 7.686180e+001
6.044285e+002, 7.616870e+001
6.049106e+002, 7.563876e+001
6.053928e+002, 7.530724e+001
6.058749e+002, 7.535204e+001
6.063570e+002, 7.573132e+001
6.068391e+002, 7.586873e+001
6.073212e+002, 7.544421e+001
6.078033e+002, 7.487169e+001
6.082855e+002, 7.495007e+001
6.087676e+002, 7.547427e+001
6.092497e+002, 7.569210e+001
6.097318e+002, 7.480507e+001
6.102139e+002, 7.372393e+001
6.106960e+002, 7.314342e+001
6.111782e+002, 7.309026e+001
6.116603e+002, 7.322331e+001
6.121424e+002, 7.378251e+001
6.126245e+002, 7.422944e+001
6.131066e+002, 7.416555e+001
6.135887e+002, 7.313658e+001
6.140709e+002, 7.262313e+001
6.145530e+002, 7.302859e+001
6.150351e+002, 7.358416e+001
6.155172e+002, 7.335878e+001
6.159993e+002, 7.206255e+001
6.164814e+002, 7.135564e+001
6.169636e+002, 7.163960e+001
6.174457e+002, 7.237487e+001
6.179278e+002, 7.247549e+001
6.184099e+002, 7.200394e+001
6.188920e+002, 7.162424e+001
6.193741e+002, 7.172437e+001
6.198563e+002, 7.198771e+001
6.203384e+002, 7.186764e+001
6.208205e+002, 7.145181e+001
6.213026e+002, 7.118212e+001
6.217847e+002, 7.149145e+001
6.222668e+002, 7.191593e+001
6.227490e+002, 7.211729e+001
6.232311e+002, 7.205451e+001
6.237132e+002, 7.190481e+001
6.241953e+002, 7.165459e+001
6.246774e+002, 7.137637e+001
6.251595e+002, 7.112872e+001
6.256417e+002, 7.100644e+001
6.261238e+002, 7.072375e+001
6.266059e+002, 7.021426e+001
6.270880e+002, 6.962399e+001
6.275701e+002, 6.908546e+001
6.280522e+002, 6.857304e+001
6.285344e+002, 6.839864e+001
6.290165e+002, 6.872027e+001
6.294986e+002, 6.927592e+001
6.299807e+002, 6.961411e+001
6.304628e+002, 6.974459e+001
6.309449e+002, 6.971835e+001
6.314271e+002, 6.947256e+001
6.319092e+002, 6.913984e+001
6.323913e+002, 6.884504e+001
6.328734e+002, 6.858582e+001
6.333555e+002, 6.835416e+001
6.338376e+002, 6.802335e+001
6.343198e+002, 6.780998e+001
6.348019e+002, 6.793812e+001
6.352840e+002, 6.855415e+001
6.357661e+002, 6.883251e+001
6.362482e+002, 6.835604e+001
6.367303e+002, 6.779688e+001
6.372125e+002, 6.764174e+001
6.376946e+002, 6.809927e+001
6.381767e+002, 6.834618e+001
6.386588e+002, 6.830659e+001
6.391409e+002, 6.813087e+001
6.396230e+002, 6.804341e+001
6.401052e+002, 6.803427e+001
6.405873e+002, 6.793176e+001
6.410694e+002, 6.765012e+001
6.415515e+002, 6.733130e+001
6.420336e+002, 6.724564e+001
6.425157e+002, 6.731128e+001
6.429979e+002, 6.728648e+001
6.434800e+002, 6.689401e+001
6.439621e+002, 6.650020e+001
6.444442e+002, 6.641724e+001
6.449263e+002, 6.659129e+001
6.454084e+002, 6.668922e+001
6.458906e+002, 6.645720e+001
6.463727e+002, 6.625368e+001
6.468548e+002, 6.629131e+001
6.473369e+002, 6.662096e+001
6.478190e+002, 6.679944e+001
6.483011e+002, 6.679902e+001
6.487833e+002, 6.668663e+001
6.492654e+002, 6.651402e+001
6.497475e+002, 6.628156e+001
6.502296e+002, 6.587447e+001
6.507117e+002, 6.521187e+001
6.511938e+002, 6.465653e+001
6.516760e+002, 6.482083e+001
6.521581e+002, 6.548403e+001
6.526402e+002, 6.594949e+001
6.531223e+002, 6.598251e+001
6.536044e+002, 6.587444e+001
6.540865e+002, 6.583031e+001
6.545687e+002, 6.584252e+001
6.550508e+002, 6.589553e+001
6.555329e+002, 6.607589e+001
6.560150e+002, 6.620149e+001
6.564971e+002, 6.622660e+001
6.569792e+002, 6.614510e+001
6.574614e+002, 6.592216e+001
6.579435e+002, 6.533463e+001
6.584256e+002, 6.492191e+001
6.589077e+002, 6.490038e+001
6.593898e+002, 6.525253e+001
6.598719e+002, 6.557370e+001
6.603541e+002, 6.587725e+001
6.608362e+002, 6.608613e+001
6.613183e+002, 6.605663e+001
6.618004e+002, 6.587657e+001
6.622825e+002, 6.596014e+001
6.627646e+002, 6.634814e+001
6.632468e+002, 6.667763e+001
6.637289e+002, 6.657236e+001
6.642110e+002, 6.623837e+001
6.646931e+002, 6.596497e+001
6.651752e+002, 6.589216e+001
6.656573e+002, 6.567857e+001
6.661395e+002, 6.495377e+001
6.666216e+002, 6.408796e+001
6.671037e+002, 6.353659e+001
6.675858e+002, 6.361689e+001
6.680679e+002, 6.370127e+001
6.685500e+002, 6.373374e+001
6.690322e+002, 6.374790e+001
6.695143e+002, 6.382496e+001
6.699964e+002, 6.398133e+001
6.704785e+002, 6.410957e+001
6.709606e+002, 6.412939e+001
6.714427e+002, 6.413219e+001
6.719249e+002, 6.446199e+001
6.724070e+002, 6.506985e+001
6.728891e+002, 6.555239e+001
6.733712e+002, 6.567150e+001
6.738533e+002, 6.553278e+001
6.743354e+002, 6.517003e+001
6.748176e+002, 6.461150e+001
6.752997e+002, 6.410568e+001
6.757818e+002, 6.360451e+001
6.762639e+002, 6.333242e+001
6.767460e+002, 6.349159e+001
6.772281e+002, 6.423524e+001
6.777103e+002, 6.489961e+001
6.781924e+002, 6.558652e+001
6.786745e+002, 6.605856e+001
6.791566e+002, 6.606809e+001
6.796387e+002, 6.546577e+001
6.801208e+002, 6.510835e+001
6.806030e+002, 6.504507e+001
6.810851e+002, 6.520846e+001
6.815672e+002, 6.565862e+001
6.820493e+002, 6.629399e+001
6.825314e+002, 6.666030e+001
6.830135e+002, 6.654877e+001
6.834957e+002, 6.635980e+001
6.839778e+002, 6.646782e+001
6.844599e+002, 6.680794e+001
6.849420e+002, 6.725105e+001
6.854241e+002, 6.806454e+001
6.859063e+002, 6.864531e+001
6.863884e+002, 6.852563e+001
6.868705e+002, 6.796135e+001
6.873526e+002, 6.785527e+001
6.878347e+002, 6.853069e+001
6.883168e+002, 6.926880e+001
6.887990e+002, 6.993519e+001
6.892811e+002, 7.051627e+001
6.897632e+002, 7.074258e+001
6.902453e+002, 7.052886e+001
6.907274e+002, 7.054121e+001
6.912095e+002, 7.153098e+001
6.916917e+002, 7.301672e+001
6.921738e+002, 7.339137e+001
6.926559e+002, 7.267872e+001
6.931380e+002, 7.194798e+001
6.936201e+002, 7.194092e+001
6.941022e+002, 7.231818e+001
6.945844e+002, 7.280565e+001
6.950665e+002, 7.338579e+001
6.955486e+002, 7.391933e+001
6.960307e+002, 7.436514e+001
6.965128e+002, 7.473782e+001
6.969949e+002, 7.506796e+001
6.974771e+002, 7.548072e+001
6.979592e+002, 7.555741e+001
6.984413e+002, 7.510640e+001
6.989234e+002, 7.456694e+001
6.994055e+002, 7.453372e+001
6.998876e+002, 7.501878e+001
7.003698e+002, 7.544961e+001
7.008519e+002, 7.579879e+001
7.013340e+002, 7.586469e+001
7.018161e+002, 7.518567e+001
7.022982e+002, 7.399409e+001
7.027803e+002, 7.286540e+001
7.032625e+002, 7.198604e+001
7.037446e+002, 7.127054e+001
7.042267e+002, 7.086718e+001
7.047088e+002, 7.058041e+001
7.051909e+002, 6.997932e+001
7.056730e+002, 6.849487e+001
7.061552e+002, 6.720267e+001
7.066373e+002, 6.637271e+001
7.071194e+002, 6.593796e+001
7.076015e+002, 6.561281e+001
7.080836e+002, 6.542572e+001
7.085657e+002, 6.526716e+001
7.090479e+002, 6.511132e+001
7.095300e+002, 6.494346e+001
7.100121e+002, 6.468643e+001
7.104942e+002, 6.434171e+001
7.109763e+002, 6.398967e+001
7.114584e+002, 6.365191e+001
7.119406e+002, 6.335104e+001
7.124227e+002, 6.310247e+001
7.129048e+002, 6.290762e+001
7.133869e+002, 6.280254e+001
7.138690e+002, 6.308350e+001
7.143511e+002, 6.325632e+001
7.148333e+002, 6.288614e+001
7.153154e+002, 6.158014e+001
7.157975e+002, 6.094040e+001
7.162796e+002, 6.137704e+001
7.167617e+002, 6.198369e+001
7.172438e+002, 6.200917e+001
7.177260e+002, 6.138788e+001
7.182081e+002, 6.092019e+001
7.186902e+002, 6.068086e+001
7.191723e+002, 6.049898e+001
7.196544e+002, 6.005433e+001
7.201365e+002, 5.951929e+001
7.206187e+002, 5.938686e+001
7.211008e+002, 5.989100e+001
7.215829e+002, 6.042624e+001
7.220650e+002, 6.042410e+001
7.225471e+002, 6.021496e+001
7.230292e+002, 6.024311e+001
7.235114e+002, 6.107080e+001
7.239935e+002, 6.160502e+001
7.244756e+002, 6.168654e+001
7.249577e+002, 6.137826e+001
7.254398e+002, 6.066374e+001
7.259219e+002, 5.928859e+001
7.264041e+002, 5.829389e+001
7.268862e+002, 5.790586e+001
7.273683e+002, 5.802952e+001
7.278504e+002, 5.874371e+001
7.283325e+002, 5.991325e+001
7.288146e+002, 6.059301e+001
7.292968e+002, 5.998639e+001
7.297789e+002, 5.898231e+001
7.302610e+002, 5.857489e+001
7.307431e+002, 5.862284e+001
7.312252e+002, 5.865712e+001
7.317073e+002, 5.829706e+001
7.321895e+002, 5.805372e+001
7.326716e+002, 5.828173e+001
7.331537e+002, 5.893440e+001
7.336358e+002, 5.920491e+001
7.341179e+002, 5.878603e+001
7.346000e+002, 5.852907e+001
7.350822e+002, 5.894404e+001
7.355643e+002, 5.991012e+001
7.360464e+002, 6.004128e+001
7.365285e+002, 5.929298e+001
7.370106e+002, 5.860456e+001
7.374927e+002, 5.889505e+001
7.379749e+002, 5.959620e+001
7.384570e+002, 5.964667e+001
7.389391e+002, 5.901274e+001
7.394212e+002, 5.843773e+001
7.399033e+002, 5.834811e+001
7.403854e+002, 5.849024e+001
7.408676e+002, 5.877006e+001
7.413497e+002, 5.930721e+001
7.418318e+002, 5.940460e+001
7.423139e+002, 5.869969e+001
7.427960e+002, 5.792221e+001
7.432781e+002, 5.756415e+001
7.437603e+002, 5.767768e+001
7.442424e+002, 5.787209e+001
7.447245e+002, 5.816396e+001
7.452066e+002, 5.843214e+001
7.456887e+002, 5.854516e+001
7.461708e+002, 5.853886e+001
7.466530e+002, 5.849385e+001
7.471351e+002, 5.841655e+001
7.476172e+002, 5.834443e+001
7.480993e+002, 5.824360e+001
7.485814e+002, 5.819163e+001
7.490635e+002, 5.829608e+001
7.495457e+002, 5.891912e+001
7.500278e+002, 5.914412e+001
7.505099e+002, 5.847285e+001
7.509920e+002, 5.760002e+001
7.514741e+002, 5.739106e+001
7.519562e+002, 5.805378e+001
7.524384e+002, 5.849281e+001
7.529205e+002, 5.852140e+001
7.534026e+002, 5.834910e+001
7.538847e+002, 5.830258e+001
7.543668e+002, 5.834261e+001
7.548489e+002, 5.828404e+001
7.553311e+002, 5.794767e+001
7.558132e+002, 5.772514e+001
7.562953e+002, 5.823371e+001
7.567774e+002, 5.905032e+001
7.572595e+002, 5.942195e+001
7.577416e+002, 5.854052e+001
7.582238e+002, 5.786856e+001
7.587059e+002, 5.787595e+001
7.591880e+002, 5.827657e+001
7.596701e+002, 5.848296e+001
7.601522e+002, 5.844130e+001
7.606343e+002, 5.837993e+001
7.611165e+002, 5.833050e+001
7.615986e+002, 5.832452e+001
7.620807e+002, 5.850862e+001
7.625628e+002, 5.883758e+001
7.630449e+002, 5.904509e+001
7.635270e+002, 5.897898e+001
7.640092e+002, 5.876207e+001
7.644913e+002, 5.845052e+001
7.649734e+002, 5.807488e+001
7.654555e+002, 5.772580e+001
7.659376e+002, 5.724992e+001
7.664197e+002, 5.700639e+001
7.669019e+002, 5.722482e+001
7.673840e+002, 5.780220e+001
7.678661e+002, 5.835236e+001
7.683482e+002, 5.899507e+001
7.688303e+002, 5.922347e+001
7.693124e+002, 5.858447e+001
7.697946e+002, 5.745977e+001
7.702767e+002, 5.738563e+001
7.707588e+002, 5.823796e+001
7.712409e+002, 5.885711e+001
7.717230e+002, 5.808156e+001
7.722051e+002, 5.705493e+001
7.726873e+002, 5.709050e+001
7.731694e+002, 5.804893e+001
7.736515e+002, 5.868022e+001
7.741336e+002, 5.815382e+001
7.746157e+002, 5.758846e+001
7.750978e+002, 5.750100e+001
7.755800e+002, 5.787278e+001
7.760621e+002, 5.809706e+001
7.765442e+002, 5.810917e+001
7.770263e+002, 5.816236e+001
7.775084e+002, 5.852059e+001
7.779905e+002, 5.904905e+001
7.784727e+002, 5.894173e+001
7.789548e+002, 5.824074e+001
7.794369e+002, 5.770457e+001
7.799190e+002, 5.809496e+001
7.804011e+002, 5.876857e+001
7.808832e+002, 5.905689e+001
7.813654e+002, 5.891657e+001
7.818475e+002, 5.887873e+001
7.823296e+002, 5.938439e+001
7.828117e+002, 5.978126e+001
7.832938e+002, 5.971426e+001
7.837759e+002, 5.913329e+001
7.842581e+002, 5.864041e+001
7.847402e+002, 5.821951e+001
7.852223e+002, 5.795131e+001
7.857044e+002, 5.792383e+001
7.861865e+002, 5.809781e+001
7.866686e+002, 5.832316e+001
7.871508e+002, 5.859715e+001
7.876329e+002, 5.892604e+001
7.881150e+002, 5.936909e+001
7.885971e+002, 5.984204e+001
7.890792e+002, 6.031955e+001
7.895613e+002, 6.083583e+001
7.900435e+002, 6.104555e+001
7.905256e+002, 6.068280e+001
7.910077e+002, 6.014271e+001
7.914898e+002, 5.955544e+001
7.919719e+002, 5.886628e+001
7.924540e+002, 5.857479e+001
7.929362e+002, 5.873577e+001
7.934183e+002, 5.908369e+001
7.939004e+002, 5.948319e+001
7.943825e+002, 5.988889e+001
7.948646e+002, 6.017407e+001
7.953467e+002, 6.033239e+001
7.958289e+002, 6.035663e+001
7.963110e+002, 6.025994e+001
7.967931e+002, 6.001766e+001
7.972752e+002, 5.951480e+001
7.977573e+002, 5.858705e+001
7.982394e+002, 5.809066e+001
7.987216e+002, 5.824801e+001
7.992037e+002, 5.870317e+001
7.996858e+002, 5.935487e+001
8.001679e+002, 6.029580e+001
8.006500e+002, 6.061148e+001
8.011321e+002, 6.021224e+001
8.016143e+002, 5.978220e+001
8.020964e+002, 5.996989e+001
8.025785e+002, 6.055970e+001
8.030606e+002, 6.122145e+001
8.035427e+002, 6.193098e+001
8.040248e+002, 6.245711e+001
8.045070e+002, 6.250591e+001
8.049891e+002, 6.243180e+001
8.054712e+002, 6.251444e+001
8.059533e+002, 6.286216e+001
8.064354e+002, 6.310575e+001
8.069175e+002, 6.314320e+001
8.073997e+002, 6.322138e+001
8.078818e+002, 6.363108e+001
8.083639e+002, 6.435365e+001
8.088460e+002, 6.460521e+001
8.093281e+002, 6.433119e+001
8.098102e+002, 6.393652e+001
8.102924e+002, 6.358376e+001
8.107745e+002, 6.342664e+001
8.112566e+002, 6.385220e+001
8.117387e+002, 6.499875e+001
8.122208e+002, 6.576720e+001
8.127029e+002, 6.520806e+001
8.131851e+002, 6.448399e+001
8.136672e+002, 6.445144e+001
8.141493e+002, 6.532905e+001
8.146314e+002, 6.599100e+001
8.151135e+002, 6.641237e+001
8.155956e+002, 6.666648e+001
8.160778e+002, 6.680056e+001
8.165599e+002, 6.681293e+001
8.170420e+002, 6.662267e+001
8.175241e+002, 6.621882e+001
8.180062e+002, 6.589824e+001
8.184883e+002, 6.614183e+001
8.189705e+002, 6.642235e+001
8.194526e+002, 6.610744e+001
8.199347e+002, 6.500610e+001
8.204168e+002, 6.422237e+001
8.208989e+002, 6.423277e+001
8.213810e+002, 6.439968e+001
8.218632e+002, 6.446313e+001
8.223453e+002, 6.444364e+001
8.228274e+002, 6.396057e+001
8.233095e+002, 6.290046e+001
8.237916e+002, 6.212308e+001
8.242737e+002, 6.285236e+001
8.247559e+002, 6.420780e+001
8.252380e+002, 6.413313e+001
8.257201e+002, 6.255946e+001
8.262022e+002, 6.123784e+001
8.266843e+002, 6.154376e+001
8.271664e+002, 6.222648e+001
8.276486e+002, 6.246224e+001
8.281307e+002, 6.211277e+001
8.286128e+002, 6.174213e+001
8.290949e+002, 6.133274e+001
8.295770e+002, 6.092963e+001
8.300591e+002, 6.047233e+001
8.305413e+002, 5.999953e+001
8.310234e+002, 6.006807e+001
8.315055e+002, 6.066870e+001
8.319876e+002, 6.112783e+001
8.324697e+002, 6.074706e+001
8.329518e+002, 6.011144e+001
8.334340e+002, 5.986212e+001
8.339161e+002, 6.001704e+001
8.343982e+002, 6.021581e+001
8.348803e+002, 6.044183e+001
8.353624e+002, 6.057444e+001
8.358445e+002, 6.054236e+001
8.363267e+002, 6.035447e+001
8.368088e+002, 6.021459e+001
8.372909e+002, 6.013847e+001
8.377730e+002, 6.004055e+001
8.382551e+002, 5.978218e+001
8.387372e+002, 5.949584e+001
8.392194e+002, 5.964233e+001
8.397015e+002, 6.013161e+001
8.401836e+002, 6.044103e+001
8.406657e+002, 5.993190e+001
8.411478e+002, 5.945041e+001
8.416299e+002, 5.969806e+001
8.421121e+002, 6.057119e+001
8.425942e+002, 6.095058e+001
8.430763e+002, 6.051212e+001
8.435584e+002, 6.003570e+001
8.440405e+002, 5.967326e+001
8.445226e+002, 5.948709e+001
8.450048e+002, 5.989638e+001
8.454869e+002, 6.085144e+001
8.459690e+002, 6.159265e+001
8.464511e+002, 6.159647e+001
8.469332e+002, 6.130769e+001
8.474153e+002, 6.115273e+001
8.478975e+002, 6.109683e+001
8.483796e+002, 6.104100e+001
8.488617e+002, 6.092109e+001
8.493438e+002, 6.083185e+001
8.498259e+002, 6.077235e+001
8.503080e+002, 6.076815e+001
8.507902e+002, 6.093171e+001
8.512723e+002, 6.130836e+001
8.517544e+002, 6.155797e+001
8.522365e+002, 6.153200e+001
8.527186e+002, 6.140976e+001
8.532007e+002, 6.157072e+001
8.536829e+002, 6.189957e+001
8.541650e+002, 6.207613e+001
8.546471e+002, 6.179249e+001
8.551292e+002, 6.156337e+001
8.556113e+002, 6.171389e+001
8.560934e+002, 6.206482e+001
8.565756e+002, 6.228696e+001
8.570577e+002, 6.231469e+001
8.575398e+002, 6.230656e+001
8.580219e+002, 6.224696e+001
8.585040e+002, 6.220940e+001
8.589861e+002, 6.241223e+001
8.594683e+002, 6.277822e+001
8.599504e+002, 6.281177e+001
8.604325e+002, 6.227010e+001
8.609146e+002, 6.179051e+001
8.613967e+002, 6.218538e+001
8.618788e+002, 6.288734e+001
8.623610e+002, 6.317273e+001
8.628431e+002, 6.243427e+001
8.633252e+002, 6.207054e+001
8.638073e+002, 6.237923e+001
8.642894e+002, 6.290540e+001
8.647715e+002, 6.322533e+001
8.652537e+002, 6.333318e+001
8.657358e+002, 6.337815e+001
8.662179e+002, 6.337746e+001
8.667000e+002, 6.328264e+001
8.671821e+002, 6.294962e+001
8.676642e+002, 6.253222e+001
8.681464e+002, 6.215321e+001
8.686285e+002, 6.175877e+001
8.691106e+002, 6.191947e+001
8.695927e+002, 6.371707e+001
8.700748e+002, 6.542796e+001
8.705569e+002, 6.579859e+001
8.710391e+002, 6.454539e+001
8.715212e+002, 6.392625e+001
8.720033e+002, 6.404417e+001
8.724854e+002, 6.439796e+001
8.729675e+002, 6.468293e+001
8.734496e+002, 6.490204e+001
8.739318e+002, 6.505000e+001
8.744139e+002, 6.512700e+001
8.748960e+002, 6.514906e+001
8.753781e+002, 6.511693e+001
8.758602e+002, 6.504012e+001
8.763423e+002, 6.485381e+001
8.768245e+002, 6.457108e+001
8.773066e+002, 6.456156e+001
8.777887e+002, 6.493155e+001
8.782708e+002, 6.535871e+001
8.787529e+002, 6.582653e+001
8.792350e+002, 6.620908e+001
8.797172e+002, 6.587897e+001
8.801993e+002, 6.496587e+001
8.806814e+002, 6.427643e+001
8.811635e+002, 6.450835e+001
8.816456e+002, 6.489494e+001
8.821277e+002, 6.480351e+001
8.826099e+002, 6.439907e+001
8.830920e+002, 6.418690e+001
8.835741e+002, 6.433631e+001
8.840562e+002, 6.460271e+001
8.845383e+002, 6.505226e+001
8.850204e+002, 6.550932e+001
8.855026e+002, 6.548069e+001
8.859847e+002, 6.500840e+001
8.864668e+002, 6.475219e+001
8.869489e+002, 6.494527e+001
8.874310e+002, 6.532201e+001
8.879131e+002, 6.576390e+001
8.883953e+002, 6.613871e+001
8.888774e+002, 6.624255e+001
8.893595e+002, 6.577983e+001
8.898416e+002, 6.540372e+001
8.903237e+002, 6.520212e+001
8.908058e+002, 6.512694e+001
8.912880e+002, 6.517904e+001
8.917701e+002, 6.538130e+001
8.922522e+002, 6.538235e+001
8.927343e+002, 6.512557e+001
8.932164e+002, 6.483872e+001
8.936985e+002, 6.484106e+001
8.941807e+002, 6.493064e+001
8.946628e+002, 6.473524e+001
8.951449e+002, 6.413052e+001
8.956270e+002, 6.376009e+001
8.961091e+002, 6.403371e+001
8.965912e+002, 6.446230e+001
8.970734e+002, 6.475834e+001
8.975555e+002, 6.490813e+001
8.980376e+002, 6.508580e+001
8.985197e+002, 6.530389e+001
8.990018e+002, 6.547223e+001
8.994839e+002, 6.553871e+001
8.999661e+002, 6.550711e+001
9.004482e+002, 6.531664e+001
9.009303e+002, 6.500279e+001
9.014124e+002, 6.479217e+001
9.018945e+002, 6.504970e+001
9.023766e+002, 6.518430e+001
9.028588e+002, 6.472675e+001
9.033409e+002, 6.386466e+001
9.038230e+002, 6.348236e+001
9.043051e+002, 6.369330e+001
9.047872e+002, 6.394151e+001
9.052693e+002, 6.410583e+001
9.057515e+002, 6.412244e+001
9.062336e+002, 6.371193e+001
9.067157e+002, 6.303720e+001
9.071978e+002, 6.257412e+001
9.076799e+002, 6.264180e+001
9.081620e+002, 6.280893e+001
9.086442e+002, 6.291323e+001
9.091263e+002, 6.298437e+001
9.096084e+002, 6.308384e+001
9.100905e+002, 6.326792e+001
9.105726e+002, 6.333396e+001
9.110547e+002, 6.325750e+001
9.115369e+002, 6.307868e+001
9.120190e+002, 6.272649e+001
9.125011e+002, 6.232062e+001
9.129832e+002, 6.225762e+001
9.134653e+002, 6.265651e+001
9.139474e+002, 6.305186e+001
9.144296e+002, 6.307826e+001
9.149117e+002, 6.301969e+001
9.153938e+002, 6.314278e+001
9.158759e+002, 6.353967e+001
9.163580e+002, 6.377742e+001
9.168401e+002, 6.382354e+001
9.173223e+002, 6.378798e+001
9.178044e+002, 6.372021e+001
9.182865e+002, 6.363268e+001
9.187686e+002, 6.360127e+001
9.192507e+002, 6.361294e+001
9.197328e+002, 6.354357e+001
9.202150e+002, 6.319776e+001
9.206971e+002, 6.285434e+001
9.211792e+002, 6.266325e+001
9.216613e+002, 6.263367e+001
9.221434e+002, 6.274864e+001
9.226255e+002, 6.312571e+001
9.231077e+002, 6.335754e+001
9.235898e+002, 6.328085e+001
9.240719e+002, 6.303691e+001
9.245540e+002, 6.293578e+001
9.250361e+002, 6.295602e+001
9.255182e+002, 6.302698e+001
9.260004e+002, 6.321949e+001
9.264825e+002, 6.329126e+001
9.269646e+002, 6.287854e+001
9.274467e+002, 6.232009e+001
9.279288e+002, 6.216005e+001
9.284109e+002, 6.270668e+001
9.288931e+002, 6.306607e+001
9.293752e+002, 6.317653e+001
9.298573e+002, 6.312951e+001
9.303394e+002, 6.294436e+001
9.308215e+002, 6.268538e+001
9.313036e+002, 6.261064e+001
9.317858e+002, 6.276295e+001
9.322679e+002, 6.290928e+001
9.327500e+002, 6.298436e+001
9.332321e+002, 6.291853e+001
9.337142e+002, 6.258572e+001
9.341964e+002, 6.192183e+001
9.346785e+002, 6.151847e+001
9.351606e+002, 6.143975e+001
9.356427e+002, 6.147779e+001
9.361248e+002, 6.156404e+001
9.366069e+002, 6.167393e+001
9.370891e+002, 6.180115e+001
9.375712e+002, 6.190185e+001
9.380533e+002, 6.174309e+001
9.385354e+002, 6.086049e+001
9.390175e+002, 6.001880e+001
9.394996e+002, 5.959809e+001
9.399818e+002, 5.956909e+001
9.404639e+002, 5.985728e+001
9.409460e+002, 6.067686e+001
9.414281e+002, 6.118347e+001
9.419102e+002, 6.114912e+001
9.423923e+002, 6.088353e+001
9.428745e+002, 6.080642e+001
9.433566e+002, 6.091306e+001
9.438387e+002, 6.127256e+001
9.443208e+002, 6.203280e+001
9.448029e+002, 6.254202e+001
9.452850e+002, 6.227955e+001
9.457672e+002, 6.168892e+001
9.462493e+002, 6.115279e+001
9.467314e+002, 6.066160e+001
9.472135e+002, 6.034473e+001
9.476956e+002, 6.021342e+001
9.481777e+002, 6.022068e+001
9.486599e+002, 6.042355e+001
9.491420e+002, 6.071610e+001
9.496241e+002, 6.082559e+001
9.501062e+002, 6.076238e+001
9.505883e+002, 6.067091e+001
9.510704e+002, 6.037077e+001
9.515526e+002, 6.031337e+001
9.520347e+002, 6.108665e+001
9.525168e+002, 6.232927e+001
9.529989e+002, 6.255255e+001
9.534810e+002, 6.149309e+001
9.539631e+002, 6.066174e+001
9.544453e+002, 6.052071e+001
9.549274e+002, 6.077129e+001
9.554095e+002, 6.111678e+001
9.558916e+002, 6.144613e+001
9.563737e+002, 6.150207e+001
9.568558e+002, 6.100611e+001
9.573380e+002, 6.060211e+001
9.578201e+002, 6.049785e+001
9.583022e+002, 6.059804e+001
9.587843e+002, 6.088475e+001
9.592664e+002, 6.145830e+001
9.597485e+002, 6.160391e+001
9.602307e+002, 6.126054e+001
9.607128e+002, 6.079382e+001
9.611949e+002, 6.037299e+001
9.616770e+002, 6.010978e+001
9.621591e+002, 6.028708e+001
9.626412e+002, 6.088666e+001
9.631234e+002, 6.131305e+001
9.636055e+002, 6.127928e+001
9.640876e+002, 6.110030e+001
9.645697e+002, 6.073100e+001
9.650518e+002, 6.032549e+001
9.655339e+002, 6.079543e+001
9.660161e+002, 6.214088e+001
9.664982e+002, 6.294559e+001
9.669803e+002, 6.237118e+001
9.674624e+002, 6.150425e+001
9.679445e+002, 6.167832e+001
9.684266e+002, 6.237950e+001
9.689088e+002, 6.275543e+001
9.693909e+002, 6.206778e+001
9.698730e+002, 6.179427e+001
9.703551e+002, 6.219717e+001
9.708372e+002, 6.281579e+001
9.713193e+002, 6.333233e+001
9.718015e+002, 6.369972e+001
9.722836e+002, 6.329221e+001
9.727657e+002, 6.203722e+001
9.732478e+002, 6.095446e+001
9.737299e+002, 6.100353e+001
9.742120e+002, 6.143295e+001
9.746942e+002, 6.156566e+001
9.751763e+002, 6.135184e+001
9.756584e+002, 6.153181e+001
9.761405e+002, 6.235352e+001
9.766226e+002, 6.309855e+001
9.771047e+002, 6.350222e+001
9.775869e+002, 6.365385e+001
9.780690e+002, 6.375463e+001
9.785511e+002, 6.380460e+001
9.790332e+002, 6.380547e+001
9.795153e+002, 6.371405e+001
9.799974e+002, 6.363636e+001
9.804796e+002, 6.365580e+001
9.809617e+002, 6.371092e+001
9.814438e+002, 6.370782e+001
9.819259e+002, 6.360176e+001
9.824080e+002, 6.358130e+001
9.828901e+002, 6.367244e+001
9.833723e+002, 6.378566e+001
9.838544e+002, 6.391191e+001
9.843365e+002, 6.396867e+001
9.848186e+002, 6.367125e+001
9.853007e+002, 6.301626e+001
9.857828e+002, 6.264394e+001
9.862650e+002, 6.304938e+001
9.867471e+002, 6.358885e+001
9.872292e+002, 6.410027e+001
9.877113e+002, 6.450793e+001
9.881934e+002, 6.420879e+001
9.886755e+002, 6.315230e+001
9.891577e+002, 6.261817e+001
9.896398e+002, 6.335618e+001
9.901219e+002, 6.441197e+001
9.906040e+002, 6.481467e+001
9.910861e+002, 6.468123e+001
9.915682e+002, 6.419583e+001
9.920504e+002, 6.274592e+001
9.925325e+002, 6.201883e+001
9.930146e+002, 6.249890e+001
9.934967e+002, 6.322796e+001
9.939788e+002, 6.327807e+001
9.944609e+002, 6.273027e+001
9.949431e+002, 6.225713e+001
9.954252e+002, 6.189363e+001
9.959073e+002, 6.163466e+001
9.963894e+002, 6.149883e+001
9.968715e+002, 6.144270e+001
9.973536e+002, 6.148202e+001
9.978358e+002, 6.159656e+001
9.983179e+002, 6.156634e+001
9.988000e+002, 6.128282e+001
9.992821e+002, 6.114916e+001
9.997642e+002, 6.134844e+001
1.000246e+003, 6.166732e+001
1.000728e+003, 6.176699e+001
1.001211e+003, 6.162901e+001
1.001693e+003, 6.115776e+001
1.002175e+003, 6.012667e+001
1.002657e+003, 5.919248e+001
1.003139e+003, 5.861771e+001
1.003621e+003, 5.829999e+001
1.004103e+003, 5.812610e+001
1.004585e+003, 5.807180e+001
1.005068e+003, 5.840467e+001
1.005550e+003, 5.917909e+001
1.006032e+003, 5.983056e+001
1.006514e+003, 5.999537e+001
1.006996e+003, 5.975394e+001
1.007478e+003, 5.898122e+001
1.007960e+003, 5.781255e+001
1.008442e+003, 5.697697e+001
1.008924e+003, 5.677750e+001
1.009407e+003, 5.682032e+001
1.009889e+003, 5.711696e+001
1.010371e+003, 5.752984e+001
1.010853e+003, 5.773893e+001
1.011335e+003, 5.778827e+001
1.011817e+003, 5.804625e+001
1.012299e+003, 5.873787e+001
1.012781e+003, 5.905602e+001
1.013263e+003, 5.790454e+001
1.013746e+003, 5.639913e+001
1.014228e+003, 5.565469e+001
1.014710e+003, 5.588599e+001
1.015192e+003, 5.617987e+001
1.015674e+003, 5.660852e+001
1.016156e+003, 5.685960e+001
1.016638e+003, 5.672860e+001
1.017120e+003, 5.629797e+001
1.017603e+003, 5.546656e+001
1.018085e+003, 5.444226e+001
1.018567e+003, 5.398864e+001
1.019049e+003, 5.513976e+001
1.019531e+003, 5.606206e+001
1.020013e+003, 5.600962e+001
1.020495e+003, 5.556388e+001
1.020977e+003, 5.559784e+001
1.021459e+003, 5.612548e+001
1.021942e+003, 5.654132e+001
1.022424e+003, 5.679607e+001
1.022906e+003, 5.671672e+001
1.023388e+003, 5.570379e+001
1.023870e+003, 5.457038e+001
1.024352e+003, 5.429613e+001
1.024834e+003, 5.506733e+001
1.025316e+003, 5.526366e+001
1.025799e+003, 5.448014e+001
1.026281e+003, 5.375578e+001
1.026763e+003, 5.350841e+001
1.027245e+003, 5.359330e+001
1.027727e+003, 5.365560e+001
1.028209e+003, 5.371270e+001
1.028691e+003, 5.382482e+001
1.029173e+003, 5.405810e+001
1.029656e+003, 5.428339e+001
1.030138e+003, 5.444523e+001
1.030620e+003, 5.456174e+001
1.031102e+003, 5.469431e+001
1.031584e+003, 5.490261e+001
1.032066e+003, 5.448321e+001
1.032548e+003, 5.327008e+001
1.033030e+003, 5.285276e+001
1.033512e+003, 5.603088e+001
1.033995e+003, 5.976103e+001
1.034477e+003, 5.985283e+001
1.034959e+003, 5.676506e+001
1.035441e+003, 5.451912e+001
1.035923e+003, 5.469343e+001
1.036405e+003, 5.471892e+001
1.036887e+003, 5.392402e+001
1.037369e+003, 5.291056e+001
1.037851e+003, 5.307794e+001
1.038334e+003, 5.407634e+001
1.038816e+003, 5.453180e+001
1.039298e+003, 5.404860e+001
1.039780e+003, 5.340120e+001
1.040262e+003, 5.290274e+001
1.040744e+003, 5.256046e+001
1.041226e+003, 5.240734e+001
1.041708e+003, 5.244893e+001
1.042191e+003, 5.244330e+001
1.042673e+003, 5.238468e+001
1.043155e+003, 5.232864e+001
1.043637e+003, 5.226917e+001
1.044119e+003, 5.226070e+001
1.044601e+003, 5.245273e+001
1.045083e+003, 5.274868e+001
1.045565e+003, 5.292039e+001
1.046047e+003, 5.291178e+001
1.046530e+003, 5.272605e+001
1.047012e+003, 5.224762e+001
1.047494e+003, 5.177277e+001
1.047976e+003, 5.164147e+001
1.048458e+003, 5.180622e+001
1.048940e+003, 5.210179e+001
1.049422e+003, 5.250892e+001
1.049904e+003, 5.282743e+001
1.050386e+003, 5.298264e+001
1.050869e+003, 5.296595e+001
1.051351e+003, 5.258446e+001
1.051833e+003, 5.200602e+001
1.052315e+003, 5.201489e+001
1.052797e+003, 5.273271e+001
1.053279e+003, 5.306886e+001
1.053761e+003, 5.263012e+001
1.054243e+003, 5.197430e+001
1.054726e+003, 5.175050e+001
1.055208e+003, 5.178476e+001
1.055690e+003, 5.185201e+001
1.056172e+003, 5.193780e+001
1.056654e+003, 5.193657e+001
1.057136e+003, 5.174601e+001
1.057618e+003, 5.165464e+001
1.058100e+003, 5.205256e+001
1.058583e+003, 5.265153e+001
1.059065e+003, 5.193828e+001
1.059547e+003, 5.026054e+001
1.060029e+003, 4.922264e+001
1.060511e+003, 5.032324e+001
1.060993e+003, 5.148426e+001
1.061475e+003, 5.194668e+001
1.061957e+003, 5.190211e+001
1.062439e+003, 5.151768e+001
1.062922e+003, 5.072666e+001
1.063404e+003, 5.013027e+001
1.063886e+003, 4.975528e+001
1.064368e+003, 4.981354e+001
1.064850e+003, 5.104764e+001
1.065332e+003, 5.241140e+001
1.065814e+003, 5.276276e+001
1.066296e+003, 5.209523e+001
1.066778e+003, 5.145755e+001
1.067261e+003, 5.086219e+001
1.067743e+003, 5.051694e+001
1.068225e+003, 5.056084e+001
1.068707e+003, 5.073462e+001
1.069189e+003, 5.049570e+001
1.069671e+003, 5.001872e+001
1.070153e+003, 4.969529e+001
1.070635e+003, 4.960750e+001
1.071118e+003, 4.973911e+001
1.071600e+003, 5.058385e+001
1.072082e+003, 5.114146e+001
1.072564e+003, 5.060366e+001
1.073046e+003, 4.913236e+001
1.073528e+003, 4.895853e+001
1.074010e+003, 4.997925e+001
1.074492e+003, 5.067671e+001
1.074974e+003, 4.980761e+001
1.075457e+003, 4.881333e+001
1.075939e+003, 4.883492e+001
1.076421e+003, 4.943085e+001
1.076903e+003, 4.985890e+001
1.077385e+003, 5.005559e+001
1.077867e+003, 5.015071e+001
1.078349e+003, 5.015511e+001
1.078831e+003, 5.002710e+001
1.079313e+003, 4.958799e+001
1.079796e+003, 4.906689e+001
1.080278e+003, 4.882943e+001
1.080760e+003, 4.885838e+001
1.081242e+003, 4.891613e+001
1.081724e+003, 4.892051e+001
1.082206e+003, 4.896037e+001
1.082688e+003, 4.905042e+001
1.083170e+003, 4.918755e+001
1.083652e+003, 4.944184e+001
1.084135e+003, 4.974665e+001
1.084617e+003, 4.979374e+001
1.085099e+003, 4.948828e+001
1.085581e+003, 4.921726e+001
1.086063e+003, 4.936988e+001
1.086545e+003, 4.947370e+001
1.087027e+003, 4.914528e+001
1.087509e+003, 4.845736e+001
1.087992e+003, 4.818570e+001
1.088474e+003, 4.833441e+001
1.088956e+003, 4.857569e+001
1.089438e+003, 4.890356e+001
1.089920e+003, 4.904666e+001
1.090402e+003, 4.843657e+001
1.090884e+003, 4.760966e+001
1.091366e+003, 4.734993e+001
1.091849e+003, 4.807304e+001
1.092331e+003, 4.849864e+001
1.092813e+003, 4.858411e+001
1.093295e+003, 4.851588e+001
1.093777e+003, 4.830445e+001
1.094259e+003, 4.809328e+001
1.094741e+003, 4.825183e+001
1.095223e+003, 4.866124e+001
1.095705e+003, 4.889988e+001
1.096188e+003, 4.871006e+001
1.096670e+003, 4.844427e+001
1.097152e+003, 4.806627e+001
1.097634e+003, 4.776471e+001
1.098116e+003, 4.793671e+001
1.098598e+003, 4.842201e+001
1.099080e+003, 4.833326e+001
1.099562e+003, 4.760117e+001
1.100044e+003, 4.707576e+001
1.100527e+003, 4.760824e+001
1.101009e+003, 4.815548e+001
1.101491e+003, 4.800547e+001
1.101973e+003, 4.744739e+001
1.102455e+003, 4.755473e+001
1.102937e+003, 4.834107e+001
1.103419e+003, 4.848325e+001
1.103901e+003, 4.749506e+001
1.104384e+003, 4.642694e+001
1.104866e+003, 4.619413e+001
1.105348e+003, 4.646858e+001
1.105830e+003, 4.708231e+001
1.106312e+003, 4.810035e+001
1.106794e+003, 4.845083e+001
1.107276e+003, 4.796902e+001
1.107758e+003, 4.746529e+001
1.108240e+003, 4.729066e+001
1.108723e+003, 4.732465e+001
1.109205e+003, 4.731459e+001
1.109687e+003, 4.737544e+001
1.110169e+003, 4.776658e+001
1.110651e+003, 4.923511e+001
1.111133e+003, 4.966933e+001
1.111615e+003, 4.841417e+001
1.112097e+003, 4.708325e+001
1.112579e+003, 4.714854e+001
1.113062e+003, 4.812674e+001
1.113544e+003, 4.823109e+001
1.114026e+003, 4.762266e+001
1.114508e+003, 4.714844e+001
1.114990e+003, 4.737250e+001
1.115472e+003, 4.760705e+001
1.115954e+003, 4.759338e+001
1.116436e+003, 4.751282e+001
1.116919e+003, 4.768616e+001
1.117401e+003, 4.807337e+001
1.117883e+003, 4.802457e+001
1.118365e+003, 4.748323e+001
1.118847e+003, 4.686816e+001
1.119329e+003, 4.622457e+001
1.119811e+003, 4.584616e+001
1.120293e+003, 4.608384e+001
1.120776e+003, 4.675248e+001
1.121258e+003, 4.726303e+001
1.121740e+003, 4.761323e+001
1.122222e+003, 4.781905e+001
1.122704e+003, 4.787859e+001
1.123186e+003, 4.781377e+001
1.123668e+003, 4.753395e+001
1.124150e+003, 4.721418e+001
1.124632e+003, 4.705795e+001
1.125115e+003, 4.710817e+001
1.125597e+003, 4.710555e+001
1.126079e+003, 4.706161e+001
1.126561e+003, 4.689657e+001
1.127043e+003, 4.650025e+001
1.127525e+003, 4.609591e+001
1.128007e+003, 4.607790e+001
1.128489e+003, 4.630426e+001
1.128971e+003, 4.654319e+001
1.129454e+003, 4.676118e+001
1.129936e+003, 4.694339e+001
1.130418e+003, 4.717187e+001
1.130900e+003, 4.721740e+001
1.131382e+003, 4.683474e+001
1.131864e+003, 4.620758e+001
1.132346e+003, 4.582189e+001
1.132828e+003, 4.566881e+001
1.133311e+003, 4.571956e+001
1.133793e+003, 4.611839e+001
1.134275e+003, 4.652557e+001
1.134757e+003, 4.705658e+001
1.135239e+003, 4.736370e+001
1.135721e+003, 4.693236e+001
1.136203e+003, 4.589354e+001
1.136685e+003, 4.536740e+001
1.137167e+003, 4.535494e+001
1.137650e+003, 4.552041e+001
1.138132e+003, 4.582560e+001
1.138614e+003, 4.607722e+001
1.139096e+003, 4.605705e+001
1.139578e+003, 4.598336e+001
1.140060e+003, 4.634679e+001
1.140542e+003, 4.717225e+001
1.141024e+003, 4.721085e+001
1.141506e+003, 4.629206e+001
1.141989e+003, 4.538131e+001
1.142471e+003, 4.528297e+001
1.142953e+003, 4.545391e+001
1.143435e+003, 4.549141e+001
1.143917e+003, 4.542837e+001
1.144399e+003, 4.557820e+001
1.144881e+003, 4.601620e+001
1.145363e+003, 4.606355e+001
1.145846e+003, 4.546029e+001
1.146328e+003, 4.490821e+001
1.146810e+003, 4.546321e+001
1.147292e+003, 4.629976e+001
1.147774e+003, 4.649703e+001
1.148256e+003, 4.588306e+001
1.148738e+003, 4.540624e+001
1.149220e+003, 4.510488e+001
1.149703e+003, 4.486113e+001
1.150185e+003, 4.464223e+001
1.150667e+003, 4.444466e+001
1.151149e+003, 4.397165e+001
1.151631e+003, 4.362610e+001
1.152113e+003, 4.422727e+001
1.152595e+003, 4.650097e+001
1.153077e+003, 4.761563e+001
1.153559e+003, 4.701986e+001
1.154042e+003, 4.619916e+001
1.154524e+003, 4.594558e+001
1.155006e+003, 4.597880e+001
1.155488e+003, 4.557620e+001
1.155970e+003, 4.495784e+001
1.156452e+003, 4.469015e+001
1.156934e+003, 4.531398e+001
1.157416e+003, 4.562324e+001
1.157898e+003, 4.536148e+001
1.158381e+003, 4.496264e+001
1.158863e+003, 4.469287e+001
1.159345e+003, 4.455856e+001
1.159827e+003, 4.468141e+001
1.160309e+003, 4.498523e+001
1.160791e+003, 4.515969e+001
1.161273e+003, 4.476762e+001
1.161755e+003, 4.463734e+001
1.162238e+003, 4.519244e+001
1.162720e+003, 4.584104e+001
1.163202e+003, 4.587286e+001
1.163684e+003, 4.540406e+001
1.164166e+003, 4.526228e+001
1.164648e+003, 4.543713e+001
1.165130e+003, 4.547105e+001
1.165612e+003, 4.486367e+001
1.166094e+003, 4.433764e+001
1.166577e+003, 4.428712e+001
1.167059e+003, 4.444363e+001
1.167541e+003, 4.432771e+001
1.168023e+003, 4.398392e+001
1.168505e+003, 4.406903e+001
1.168987e+003, 4.465351e+001
1.169469e+003, 4.518884e+001
1.169951e+003, 4.524016e+001
1.170433e+003, 4.517889e+001
1.170916e+003, 4.524926e+001
1.171398e+003, 4.537370e+001
1.171880e+003, 4.534135e+001
1.172362e+003, 4.515362e+001
1.172844e+003, 4.488318e+001
1.173326e+003, 4.452471e+001
1.173808e+003, 4.424266e+001
1.174290e+003, 4.423203e+001
1.174773e+003, 4.430750e+001
1.175255e+003, 4.424026e+001
1.175737e+003, 4.410710e+001
1.176219e+003, 4.451054e+001
1.176701e+003, 4.550090e+001
1.177183e+003, 4.596535e+001
1.177665e+003, 4.548331e+001
1.178147e+003, 4.483025e+001
1.178630e+003, 4.468559e+001
1.179112e+003, 4.477974e+001
1.179594e+003, 4.487043e+001
1.180076e+003, 4.493970e+001
1.180558e+003, 4.505035e+001
1.181040e+003, 4.520456e+001
1.181522e+003, 4.542807e+001
1.182004e+003, 4.585838e+001
1.182486e+003, 4.608565e+001
1.182969e+003, 4.536316e+001
1.183451e+003, 4.435064e+001
1.183933e+003, 4.385534e+001
1.184415e+003, 4.400988e+001
1.184897e+003, 4.439374e+001
1.185379e+003, 4.507937e+001
1.185861e+003, 4.553073e+001
1.186343e+003, 4.529078e+001
1.186825e+003, 4.492128e+001
1.187308e+003, 4.526099e+001
1.187790e+003, 4.585799e+001
1.188272e+003, 4.595984e+001
1.188754e+003, 4.523864e+001
1.189236e+003, 4.466923e+001
1.189718e+003, 4.422111e+001
1.190200e+003, 4.410962e+001
1.190682e+003, 4.484362e+001
1.191165e+003, 4.568995e+001
1.191647e+003, 4.546926e+001
1.192129e+003, 4.469306e+001
1.192611e+003, 4.442894e+001
1.193093e+003, 4.531443e+001
1.193575e+003, 4.566630e+001
1.194057e+003, 4.538284e+001
1.194539e+003, 4.488877e+001
1.195021e+003, 4.421395e+001
1.195504e+003, 4.373581e+001
1.195986e+003, 4.442177e+001
1.196468e+003, 4.573296e+001
1.196950e+003, 4.600782e+001
1.197432e+003, 4.415678e+001
1.197914e+003, 4.315547e+001
1.198396e+003, 4.331160e+001
1.198878e+003, 4.385955e+001
1.199360e+003, 4.417220e+001
1.199843e+003, 4.436044e+001
1.200325e+003, 4.455456e+001
1.200807e+003, 4.476184e+001
1.201289e+003, 4.499343e+001
1.201771e+003, 4.537537e+001
1.202253e+003, 4.548639e+001
1.202735e+003, 4.523824e+001
1.203217e+003, 4.484672e+001
1.203700e+003, 4.444177e+001
1.204182e+003, 4.411226e+001
1.204664e+003, 4.402271e+001
1.205146e+003, 4.414999e+001
1.205628e+003, 4.426683e+001
1.206110e+003, 4.427397e+001
1.206592e+003, 4.445330e+001
1.207074e+003, 4.494653e+001
1.207557e+003, 4.533916e+001
1.208039e+003, 4.489621e+001
1.208521e+003, 4.414133e+001
1.209003e+003, 4.385582e+001
1.209485e+003, 4.408061e+001
1.209967e+003, 4.429253e+001
1.210449e+003, 4.443722e+001
1.210931e+003, 4.452112e+001
1.211413e+003, 4.454448e+001
1.211896e+003, 4.451368e+001
1.212378e+003, 4.431026e+001
1.212860e+003, 4.412609e+001
1.213342e+003, 4.435749e+001
1.213824e+003, 4.504619e+001
1.214306e+003, 4.535501e+001
1.214788e+003, 4.508852e+001
1.215270e+003, 4.478209e+001
1.215752e+003, 4.455875e+001
1.216235e+003, 4.440285e+001
1.216717e+003, 4.429627e+001
1.217199e+003, 4.423853e+001
1.217681e+003, 4.426374e+001
1.218163e+003, 4.438827e+001
1.218645e+003, 4.435276e+001
1.219127e+003, 4.408293e+001
1.219609e+003, 4.382243e+001
1.220092e+003, 4.360591e+001
1.220574e+003, 4.352641e+001
1.221056e+003, 4.375019e+001
1.221538e+003, 4.418457e+001
1.222020e+003, 4.483587e+001
1.222502e+003, 4.578719e+001
1.222984e+003, 4.593325e+001
1.223466e+003, 4.497270e+001
1.223948e+003, 4.409503e+001
1.224431e+003, 4.369851e+001
1.224913e+003, 4.366551e+001
1.225395e+003, 4.420464e+001
1.225877e+003, 4.481145e+001
1.226359e+003, 4.464268e+001
1.226841e+003, 4.326853e+001
1.227323e+003, 4.278725e+001
1.227805e+003, 4.339945e+001
1.228287e+003, 4.416527e+001
1.228770e+003, 4.479322e+001
1.229252e+003, 4.519710e+001
1.229734e+003, 4.515594e+001
1.230216e+003, 4.486357e+001
1.230698e+003, 4.453885e+001
1.231180e+003, 4.416895e+001
1.231662e+003, 4.409243e+001
1.232144e+003, 4.438153e+001
1.232627e+003, 4.453441e+001
1.233109e+003, 4.423429e+001
1.233591e+003, 4.383831e+001
1.234073e+003, 4.388470e+001
1.234555e+003, 4.404374e+001
1.235037e+003, 4.377843e+001
1.235519e+003, 4.290134e+001
1.236001e+003, 4.256256e+001
1.236484e+003, 4.281207e+001
1.236966e+003, 4.319110e+001
1.237448e+003, 4.354523e+001
1.237930e+003, 4.381067e+001
1.238412e+003, 4.394476e+001
1.238894e+003, 4.394031e+001
1.239376e+003, 4.373772e+001
1.239858e+003, 4.329295e+001
1.240340e+003, 4.303529e+001
1.240823e+003, 4.297074e+001
1.241305e+003, 4.302047e+001
1.241787e+003, 4.310204e+001
1.242269e+003, 4.333989e+001
1.242751e+003, 4.406679e+001
1.243233e+003, 4.487369e+001
1.243715e+003, 4.521655e+001
1.244197e+003, 4.503837e+001
1.244679e+003, 4.494468e+001
1.245162e+003, 4.493358e+001
1.245644e+003, 4.494509e+001
1.246126e+003, 4.509256e+001
1.246608e+003, 4.506037e+001
1.247090e+003, 4.433546e+001
1.247572e+003, 4.352221e+001
1.248054e+003, 4.336028e+001
1.248536e+003, 4.388133e+001
1.249019e+003, 4.405996e+001
1.249501e+003, 4.392698e+001
1.249983e+003, 4.381316e+001
1.250465e+003, 4.398750e+001
1.250947e+003, 4.411863e+001
1.251429e+003, 4.399157e+001
1.251911e+003, 4.377126e+001
1.252393e+003, 4.354407e+001
1.252875e+003, 4.332539e+001
1.253358e+003, 4.358588e+001
1.253840e+003, 4.422592e+001
1.254322e+003, 4.459349e+001
1.254804e+003, 4.398297e+001
1.255286e+003, 4.352112e+001
1.255768e+003, 4.386517e+001
1.256250e+003, 4.422655e+001
1.256732e+003, 4.379197e+001
1.257214e+003, 4.275716e+001
1.257697e+003, 4.224915e+001
1.258179e+003, 4.224776e+001
1.258661e+003, 4.263031e+001
1.259143e+003, 4.391892e+001
1.259625e+003, 4.472219e+001
1.260107e+003, 4.455013e+001
1.260589e+003, 4.424279e+001
1.261071e+003, 4.483446e+001
1.261554e+003, 4.579070e+001
1.262036e+003, 4.496639e+001
1.262518e+003, 4.294452e+001
1.263000e+003, 4.172034e+001
1.263482e+003, 4.144389e+001
1.263964e+003, 4.333186e+001
1.264446e+003, 4.833305e+001
1.264928e+003, 5.335100e+001
1.265411e+003, 5.616959e+001
1.265893e+003, 5.698433e+001
1.266375e+003, 5.554271e+001
1.266857e+003, 5.246865e+001
1.267339e+003, 4.938950e+001
1.267821e+003, 4.600858e+001
1.268303e+003, 4.413853e+001
1.268785e+003, 4.409847e+001
1.269267e+003, 4.446202e+001
1.269750e+003, 4.412208e+001
1.270232e+003, 4.352128e+001
1.270714e+003, 4.314581e+001
1.271196e+003, 4.297547e+001
1.271678e+003, 4.298672e+001
1.272160e+003, 4.327402e+001
1.272642e+003, 4.328920e+001
1.273124e+003, 4.295486e+001
1.273606e+003, 4.290441e+001
1.274089e+003, 4.409913e+001
1.274571e+003, 4.529348e+001
1.275053e+003, 4.518905e+001
1.275535e+003, 4.435905e+001
1.276017e+003, 4.383446e+001
1.276499e+003, 4.366308e+001
1.276981e+003, 4.375694e+001
1.277463e+003, 4.410791e+001
1.277946e+003, 4.429568e+001
1.278428e+003, 4.380672e+001
1.278910e+003, 4.333481e+001
1.279392e+003, 4.346466e+001
1.279874e+003, 4.374912e+001
1.280356e+003, 4.359061e+001
1.280838e+003, 4.300949e+001
1.281320e+003, 4.291259e+001
1.281802e+003, 4.324622e+001
1.282285e+003, 4.343184e+001
1.282767e+003, 4.288246e+001
1.283249e+003, 4.248181e+001
1.283731e+003, 4.258250e+001
1.284213e+003, 4.292115e+001
1.284695e+003, 4.330885e+001
1.285177e+003, 4.374660e+001
1.285659e+003, 4.431248e+001
1.286141e+003, 4.495007e+001
1.286624e+003, 4.541382e+001
1.287106e+003, 4.577181e+001
1.287588e+003, 4.557233e+001
1.288070e+003, 4.442058e+001
1.288552e+003, 4.347914e+001
1.289034e+003, 4.409649e+001
1.289516e+003, 4.545203e+001
1.289998e+003, 4.570500e+001
1.290481e+003, 4.514061e+001
1.290963e+003, 4.450588e+001
1.291445e+003, 4.368471e+001
1.291927e+003, 4.349070e+001
1.292409e+003, 4.407679e+001
1.292891e+003, 4.469929e+001
1.293373e+003, 4.501423e+001
1.293855e+003, 4.490850e+001
1.294338e+003, 4.365131e+001
1.294820e+003, 4.204548e+001
1.295302e+003, 4.181868e+001
1.295784e+003, 4.361546e+001
1.296266e+003, 4.428027e+001
1.296748e+003, 4.375362e+001
1.297230e+003, 4.315864e+001
1.297712e+003, 4.318768e+001
1.298194e+003, 4.340532e+001
1.298677e+003, 4.357574e+001
1.299159e+003, 4.366628e+001
1.299641e+003, 4.363058e+001
1.300123e+003, 4.346397e+001
1.300605e+003, 4.328665e+001
1.301087e+003, 4.312181e+001
1.301569e+003, 4.320127e+001
1.302051e+003, 4.395930e+001
1.302533e+003, 4.446758e+001
1.303016e+003, 4.440273e+001
##END=



