##NAMES=Ilvaite
##RRUFFID=R060474
##IDEAL CHEMISTRY=CaFe^2+^_2_Fe^3+^OSi_2_O_7_(OH)
##LOCALITY=Dal 'Negorsk, Primorskiy, Kray, Russia
##OWNER=RRUFF
##SOURCE=Michael Scott
##DESCRIPTION=Steel gray prismatic crystal
##STATUS=The identification of this mineral has been confirmed by X-ray diffraction and chemical analysis
##URL=rruff.info/R060474
##MEASURED CHEMISTRY=Ca_1.00_(Fe^2+^_1.29_Mn_0.71_)_Σ=2_(Fe^3+^_0.93_Al_0.07_)_Σ=1_OSi_2.00_O_7_(OH); trace amounts of Mg; OH estimated by charge balance
9.112140e+001, 0.000000e+000
9.160352e+001, 2.496667e+002
9.208563e+001, 2.427941e+002
9.256775e+001, 2.419305e+002
9.304987e+001, 2.500291e+002
9.353198e+001, 2.604135e+002
9.401410e+001, 2.682838e+002
9.449622e+001, 2.733544e+002
9.497833e+001, 2.765547e+002
9.546045e+001, 2.787829e+002
9.594257e+001, 2.800771e+002
9.642468e+001, 2.803175e+002
9.690680e+001, 2.796317e+002
9.738892e+001, 2.784335e+002
9.787103e+001, 2.764131e+002
9.835315e+001, 2.735569e+002
9.883527e+001, 2.706133e+002
9.931738e+001, 2.692568e+002
9.979950e+001, 2.703197e+002
1.002816e+002, 2.703647e+002
1.007637e+002, 2.687512e+002
1.012458e+002, 2.664941e+002
1.017280e+002, 2.642810e+002
1.022101e+002, 2.621937e+002
1.026922e+002, 2.605797e+002
1.031743e+002, 2.603189e+002
1.036564e+002, 2.614018e+002
1.041385e+002, 2.623575e+002
1.046207e+002, 2.625689e+002
1.051028e+002, 2.622086e+002
1.055849e+002, 2.618420e+002
1.060670e+002, 2.614498e+002
1.065491e+002, 2.612232e+002
1.070313e+002, 2.613543e+002
1.075134e+002, 2.618719e+002
1.079955e+002, 2.625705e+002
1.084776e+002, 2.633341e+002
1.089597e+002, 2.642370e+002
1.094418e+002, 2.648281e+002
1.099240e+002, 2.645458e+002
1.104061e+002, 2.641280e+002
1.108882e+002, 2.641312e+002
1.113703e+002, 2.647757e+002
1.118524e+002, 2.658899e+002
1.123345e+002, 2.670471e+002
1.128167e+002, 2.684608e+002
1.132988e+002, 2.696092e+002
1.137809e+002, 2.702672e+002
1.142630e+002, 2.706634e+002
1.147451e+002, 2.710899e+002
1.152272e+002, 2.717269e+002
1.157094e+002, 2.725662e+002
1.161915e+002, 2.733719e+002
1.166736e+002, 2.746654e+002
1.171557e+002, 2.754396e+002
1.176378e+002, 2.751516e+002
1.181199e+002, 2.739670e+002
1.186021e+002, 2.725136e+002
1.190842e+002, 2.713440e+002
1.195663e+002, 2.704650e+002
1.200484e+002, 2.690952e+002
1.205305e+002, 2.671150e+002
1.210126e+002, 2.647252e+002
1.214948e+002, 2.620431e+002
1.219769e+002, 2.590638e+002
1.224590e+002, 2.559248e+002
1.229411e+002, 2.527315e+002
1.234232e+002, 2.494947e+002
1.239053e+002, 2.462336e+002
1.243875e+002, 2.428013e+002
1.248696e+002, 2.393405e+002
1.253517e+002, 2.362388e+002
1.258338e+002, 2.334251e+002
1.263159e+002, 2.312180e+002
1.267980e+002, 2.298171e+002
1.272802e+002, 2.291298e+002
1.277623e+002, 2.287367e+002
1.282444e+002, 2.283414e+002
1.287265e+002, 2.279404e+002
1.292086e+002, 2.275977e+002
1.296907e+002, 2.274749e+002
1.301729e+002, 2.272978e+002
1.306550e+002, 2.269399e+002
1.311371e+002, 2.263851e+002
1.316192e+002, 2.256968e+002
1.321013e+002, 2.248888e+002
1.325834e+002, 2.235837e+002
1.330656e+002, 2.229627e+002
1.335477e+002, 2.233568e+002
1.340298e+002, 2.241227e+002
1.345119e+002, 2.248931e+002
1.349940e+002, 2.255168e+002
1.354761e+002, 2.259251e+002
1.359583e+002, 2.259411e+002
1.364404e+002, 2.249830e+002
1.369225e+002, 2.243428e+002
1.374046e+002, 2.243652e+002
1.378867e+002, 2.246899e+002
1.383688e+002, 2.247579e+002
1.388510e+002, 2.242627e+002
1.393331e+002, 2.234518e+002
1.398152e+002, 2.231494e+002
1.402973e+002, 2.235880e+002
1.407794e+002, 2.240663e+002
1.412615e+002, 2.243516e+002
1.417437e+002, 2.244496e+002
1.422258e+002, 2.243598e+002
1.427079e+002, 2.239262e+002
1.431900e+002, 2.233848e+002
1.436721e+002, 2.231933e+002
1.441542e+002, 2.234247e+002
1.446364e+002, 2.239481e+002
1.451185e+002, 2.247908e+002
1.456006e+002, 2.260466e+002
1.460827e+002, 2.270457e+002
1.465648e+002, 2.271152e+002
1.470469e+002, 2.268442e+002
1.475291e+002, 2.268538e+002
1.480112e+002, 2.274704e+002
1.484933e+002, 2.283814e+002
1.489754e+002, 2.288259e+002
1.494575e+002, 2.284183e+002
1.499396e+002, 2.282134e+002
1.504218e+002, 2.287666e+002
1.509039e+002, 2.296475e+002
1.513860e+002, 2.302487e+002
1.518681e+002, 2.301516e+002
1.523502e+002, 2.294713e+002
1.528323e+002, 2.292199e+002
1.533145e+002, 2.300463e+002
1.537966e+002, 2.306976e+002
1.542787e+002, 2.311475e+002
1.547608e+002, 2.312314e+002
1.552429e+002, 2.306348e+002
1.557250e+002, 2.289952e+002
1.562072e+002, 2.261844e+002
1.566893e+002, 2.243215e+002
1.571714e+002, 2.241961e+002
1.576535e+002, 2.240829e+002
1.581356e+002, 2.232032e+002
1.586177e+002, 2.216082e+002
1.590999e+002, 2.198336e+002
1.595820e+002, 2.183507e+002
1.600641e+002, 2.172052e+002
1.605462e+002, 2.161653e+002
1.610283e+002, 2.150544e+002
1.615104e+002, 2.141607e+002
1.619926e+002, 2.139626e+002
1.624747e+002, 2.145034e+002
1.629568e+002, 2.149010e+002
1.634389e+002, 2.140324e+002
1.639210e+002, 2.119684e+002
1.644031e+002, 2.101382e+002
1.648853e+002, 2.091454e+002
1.653674e+002, 2.084179e+002
1.658495e+002, 2.069998e+002
1.663316e+002, 2.045145e+002
1.668137e+002, 2.019915e+002
1.672958e+002, 2.005410e+002
1.677780e+002, 1.999149e+002
1.682601e+002, 1.992695e+002
1.687422e+002, 1.981876e+002
1.692243e+002, 1.967567e+002
1.697064e+002, 1.953178e+002
1.701885e+002, 1.937805e+002
1.706707e+002, 1.924268e+002
1.711528e+002, 1.914832e+002
1.716349e+002, 1.908793e+002
1.721170e+002, 1.903092e+002
1.725991e+002, 1.894940e+002
1.730812e+002, 1.884159e+002
1.735634e+002, 1.874757e+002
1.740455e+002, 1.867176e+002
1.745276e+002, 1.860946e+002
1.750097e+002, 1.856727e+002
1.754918e+002, 1.854077e+002
1.759739e+002, 1.851452e+002
1.764561e+002, 1.846645e+002
1.769382e+002, 1.838010e+002
1.774203e+002, 1.832798e+002
1.779024e+002, 1.834297e+002
1.783845e+002, 1.836254e+002
1.788666e+002, 1.835393e+002
1.793488e+002, 1.831320e+002
1.798309e+002, 1.825621e+002
1.803130e+002, 1.820283e+002
1.807951e+002, 1.814661e+002
1.812772e+002, 1.811226e+002
1.817593e+002, 1.810735e+002
1.822415e+002, 1.811618e+002
1.827236e+002, 1.813432e+002
1.832057e+002, 1.815854e+002
1.836878e+002, 1.817699e+002
1.841699e+002, 1.816880e+002
1.846520e+002, 1.810152e+002
1.851342e+002, 1.807558e+002
1.856163e+002, 1.813878e+002
1.860984e+002, 1.822498e+002
1.865805e+002, 1.824915e+002
1.870626e+002, 1.818238e+002
1.875447e+002, 1.809401e+002
1.880269e+002, 1.812018e+002
1.885090e+002, 1.829999e+002
1.889911e+002, 1.841776e+002
1.894732e+002, 1.837986e+002
1.899553e+002, 1.825565e+002
1.904374e+002, 1.816845e+002
1.909196e+002, 1.816062e+002
1.914017e+002, 1.818315e+002
1.918838e+002, 1.816059e+002
1.923659e+002, 1.809043e+002
1.928480e+002, 1.802597e+002
1.933301e+002, 1.798774e+002
1.938123e+002, 1.797397e+002
1.942944e+002, 1.798478e+002
1.947765e+002, 1.804672e+002
1.952586e+002, 1.809876e+002
1.957407e+002, 1.807261e+002
1.962228e+002, 1.796702e+002
1.967050e+002, 1.785558e+002
1.971871e+002, 1.778831e+002
1.976692e+002, 1.776399e+002
1.981513e+002, 1.775662e+002
1.986334e+002, 1.779712e+002
1.991155e+002, 1.782124e+002
1.995977e+002, 1.776674e+002
2.000798e+002, 1.763540e+002
2.005619e+002, 1.750818e+002
2.010440e+002, 1.747581e+002
2.015261e+002, 1.755613e+002
2.020082e+002, 1.761198e+002
2.024904e+002, 1.763065e+002
2.029725e+002, 1.761626e+002
2.034546e+002, 1.754943e+002
2.039367e+002, 1.743638e+002
2.044188e+002, 1.732104e+002
2.049009e+002, 1.726418e+002
2.053831e+002, 1.729178e+002
2.058652e+002, 1.729874e+002
2.063473e+002, 1.725567e+002
2.068294e+002, 1.721170e+002
2.073115e+002, 1.719556e+002
2.077936e+002, 1.721150e+002
2.082758e+002, 1.724485e+002
2.087579e+002, 1.727888e+002
2.092400e+002, 1.732764e+002
2.097221e+002, 1.734232e+002
2.102042e+002, 1.729624e+002
2.106863e+002, 1.724082e+002
2.111685e+002, 1.720728e+002
2.116506e+002, 1.720319e+002
2.121327e+002, 1.722038e+002
2.126148e+002, 1.724967e+002
2.130969e+002, 1.730827e+002
2.135790e+002, 1.733955e+002
2.140612e+002, 1.732544e+002
2.145433e+002, 1.729737e+002
2.150254e+002, 1.727243e+002
2.155075e+002, 1.725680e+002
2.159896e+002, 1.725976e+002
2.164717e+002, 1.729980e+002
2.169539e+002, 1.741200e+002
2.174360e+002, 1.747299e+002
2.179181e+002, 1.745670e+002
2.184002e+002, 1.740041e+002
2.188823e+002, 1.732057e+002
2.193644e+002, 1.722080e+002
2.198466e+002, 1.714635e+002
2.203287e+002, 1.717758e+002
2.208108e+002, 1.734118e+002
2.212929e+002, 1.745615e+002
2.217750e+002, 1.746620e+002
2.222571e+002, 1.742719e+002
2.227393e+002, 1.740910e+002
2.232214e+002, 1.742847e+002
2.237035e+002, 1.745697e+002
2.241856e+002, 1.745432e+002
2.246677e+002, 1.742311e+002
2.251498e+002, 1.740333e+002
2.256320e+002, 1.742084e+002
2.261141e+002, 1.745235e+002
2.265962e+002, 1.746249e+002
2.270783e+002, 1.744722e+002
2.275604e+002, 1.740485e+002
2.280425e+002, 1.730566e+002
2.285247e+002, 1.716698e+002
2.290068e+002, 1.706731e+002
2.294889e+002, 1.707143e+002
2.299710e+002, 1.713346e+002
2.304531e+002, 1.714744e+002
2.309352e+002, 1.708877e+002
2.314174e+002, 1.701079e+002
2.318995e+002, 1.695125e+002
2.323816e+002, 1.690570e+002
2.328637e+002, 1.686329e+002
2.333458e+002, 1.681904e+002
2.338279e+002, 1.677388e+002
2.343101e+002, 1.673065e+002
2.347922e+002, 1.669174e+002
2.352743e+002, 1.665125e+002
2.357564e+002, 1.661630e+002
2.362385e+002, 1.657817e+002
2.367206e+002, 1.651649e+002
2.372028e+002, 1.640668e+002
2.376849e+002, 1.626356e+002
2.381670e+002, 1.614723e+002
2.386491e+002, 1.605662e+002
2.391312e+002, 1.599982e+002
2.396133e+002, 1.599877e+002
2.400955e+002, 1.602571e+002
2.405776e+002, 1.603278e+002
2.410597e+002, 1.598637e+002
2.415418e+002, 1.589905e+002
2.420239e+002, 1.583260e+002
2.425060e+002, 1.579688e+002
2.429882e+002, 1.577063e+002
2.434703e+002, 1.575287e+002
2.439524e+002, 1.573825e+002
2.444345e+002, 1.571835e+002
2.449166e+002, 1.568699e+002
2.453987e+002, 1.564818e+002
2.458809e+002, 1.562127e+002
2.463630e+002, 1.560830e+002
2.468451e+002, 1.560677e+002
2.473272e+002, 1.562696e+002
2.478093e+002, 1.565452e+002
2.482914e+002, 1.567299e+002
2.487736e+002, 1.567390e+002
2.492557e+002, 1.565761e+002
2.497378e+002, 1.562371e+002
2.502199e+002, 1.552328e+002
2.507020e+002, 1.546853e+002
2.511841e+002, 1.550221e+002
2.516663e+002, 1.557905e+002
2.521484e+002, 1.565327e+002
2.526305e+002, 1.570376e+002
2.531126e+002, 1.572597e+002
2.535947e+002, 1.570423e+002
2.540768e+002, 1.555023e+002
2.545590e+002, 1.546017e+002
2.550411e+002, 1.547282e+002
2.555232e+002, 1.554401e+002
2.560053e+002, 1.563500e+002
2.564874e+002, 1.572882e+002
2.569695e+002, 1.581597e+002
2.574517e+002, 1.587339e+002
2.579338e+002, 1.589097e+002
2.584159e+002, 1.588581e+002
2.588980e+002, 1.582785e+002
2.593801e+002, 1.576012e+002
2.598622e+002, 1.573008e+002
2.603444e+002, 1.575379e+002
2.608265e+002, 1.580865e+002
2.613086e+002, 1.585261e+002
2.617907e+002, 1.588000e+002
2.622728e+002, 1.590406e+002
2.627549e+002, 1.592729e+002
2.632371e+002, 1.594617e+002
2.637192e+002, 1.595757e+002
2.642013e+002, 1.596064e+002
2.646834e+002, 1.595510e+002
2.651655e+002, 1.593848e+002
2.656476e+002, 1.589987e+002
2.661298e+002, 1.587853e+002
2.666119e+002, 1.587475e+002
2.670940e+002, 1.588880e+002
2.675761e+002, 1.593183e+002
2.680582e+002, 1.600426e+002
2.685403e+002, 1.607457e+002
2.690225e+002, 1.610434e+002
2.695046e+002, 1.608228e+002
2.699867e+002, 1.606356e+002
2.704688e+002, 1.607950e+002
2.709509e+002, 1.608055e+002
2.714330e+002, 1.599972e+002
2.719152e+002, 1.583509e+002
2.723973e+002, 1.568090e+002
2.728794e+002, 1.563580e+002
2.733615e+002, 1.571052e+002
2.738436e+002, 1.575137e+002
2.743257e+002, 1.574549e+002
2.748079e+002, 1.571237e+002
2.752900e+002, 1.566301e+002
2.757721e+002, 1.559876e+002
2.762542e+002, 1.552423e+002
2.767363e+002, 1.543982e+002
2.772184e+002, 1.534670e+002
2.777006e+002, 1.525526e+002
2.781827e+002, 1.516365e+002
2.786648e+002, 1.507581e+002
2.791469e+002, 1.499951e+002
2.796290e+002, 1.493290e+002
2.801111e+002, 1.485899e+002
2.805933e+002, 1.476193e+002
2.810754e+002, 1.465191e+002
2.815575e+002, 1.456307e+002
2.820396e+002, 1.451111e+002
2.825217e+002, 1.446129e+002
2.830038e+002, 1.439213e+002
2.834860e+002, 1.430624e+002
2.839681e+002, 1.421368e+002
2.844502e+002, 1.410943e+002
2.849323e+002, 1.401051e+002
2.854144e+002, 1.395314e+002
2.858965e+002, 1.395775e+002
2.863787e+002, 1.395291e+002
2.868608e+002, 1.388471e+002
2.873429e+002, 1.377137e+002
2.878250e+002, 1.367927e+002
2.883071e+002, 1.363476e+002
2.887892e+002, 1.361518e+002
2.892714e+002, 1.358931e+002
2.897535e+002, 1.355796e+002
2.902356e+002, 1.351825e+002
2.907177e+002, 1.345814e+002
2.911998e+002, 1.338818e+002
2.916819e+002, 1.333694e+002
2.921641e+002, 1.331416e+002
2.926462e+002, 1.330517e+002
2.931283e+002, 1.329320e+002
2.936104e+002, 1.327889e+002
2.940925e+002, 1.327145e+002
2.945746e+002, 1.329230e+002
2.950568e+002, 1.331961e+002
2.955389e+002, 1.330192e+002
2.960210e+002, 1.322043e+002
2.965031e+002, 1.313243e+002
2.969852e+002, 1.309896e+002
2.974673e+002, 1.310055e+002
2.979495e+002, 1.308326e+002
2.984316e+002, 1.300692e+002
2.989137e+002, 1.291057e+002
2.993958e+002, 1.285338e+002
2.998779e+002, 1.284096e+002
3.003600e+002, 1.284760e+002
3.008422e+002, 1.288100e+002
3.013243e+002, 1.291856e+002
3.018064e+002, 1.291505e+002
3.022885e+002, 1.283031e+002
3.027706e+002, 1.272965e+002
3.032527e+002, 1.270062e+002
3.037349e+002, 1.274947e+002
3.042170e+002, 1.277789e+002
3.046991e+002, 1.271340e+002
3.051812e+002, 1.261390e+002
3.056633e+002, 1.255752e+002
3.061454e+002, 1.255987e+002
3.066276e+002, 1.259143e+002
3.071097e+002, 1.264689e+002
3.075918e+002, 1.272281e+002
3.080739e+002, 1.275583e+002
3.085560e+002, 1.270129e+002
3.090381e+002, 1.261318e+002
3.095203e+002, 1.255397e+002
3.100024e+002, 1.252680e+002
3.104845e+002, 1.250907e+002
3.109666e+002, 1.248765e+002
3.114487e+002, 1.246328e+002
3.119308e+002, 1.243673e+002
3.124130e+002, 1.239750e+002
3.128951e+002, 1.237317e+002
3.133772e+002, 1.240444e+002
3.138593e+002, 1.248097e+002
3.143414e+002, 1.253143e+002
3.148235e+002, 1.248825e+002
3.153057e+002, 1.239400e+002
3.157878e+002, 1.236845e+002
3.162699e+002, 1.244750e+002
3.167520e+002, 1.253278e+002
3.172341e+002, 1.254882e+002
3.177162e+002, 1.251670e+002
3.181984e+002, 1.247688e+002
3.186805e+002, 1.242733e+002
3.191626e+002, 1.238602e+002
3.196447e+002, 1.239461e+002
3.201268e+002, 1.246659e+002
3.206089e+002, 1.252094e+002
3.210911e+002, 1.249036e+002
3.215732e+002, 1.241889e+002
3.220553e+002, 1.236402e+002
3.225374e+002, 1.233524e+002
3.230195e+002, 1.232900e+002
3.235016e+002, 1.236068e+002
3.239838e+002, 1.243114e+002
3.244659e+002, 1.246045e+002
3.249480e+002, 1.238949e+002
3.254301e+002, 1.228022e+002
3.259122e+002, 1.220573e+002
3.263943e+002, 1.217029e+002
3.268765e+002, 1.216421e+002
3.273586e+002, 1.218988e+002
3.278407e+002, 1.224258e+002
3.283228e+002, 1.229976e+002
3.288049e+002, 1.237043e+002
3.292870e+002, 1.242267e+002
3.297692e+002, 1.242306e+002
3.302513e+002, 1.237538e+002
3.307334e+002, 1.231262e+002
3.312155e+002, 1.222620e+002
3.316976e+002, 1.213827e+002
3.321797e+002, 1.211202e+002
3.326619e+002, 1.217401e+002
3.331440e+002, 1.224159e+002
3.336261e+002, 1.224391e+002
3.341082e+002, 1.219982e+002
3.345903e+002, 1.214700e+002
3.350724e+002, 1.206627e+002
3.355546e+002, 1.199814e+002
3.360367e+002, 1.201535e+002
3.365188e+002, 1.212752e+002
3.370009e+002, 1.222418e+002
3.374830e+002, 1.223682e+002
3.379651e+002, 1.219162e+002
3.384473e+002, 1.213579e+002
3.389294e+002, 1.205794e+002
3.394115e+002, 1.199612e+002
3.398936e+002, 1.199275e+002
3.403757e+002, 1.204010e+002
3.408578e+002, 1.207879e+002
3.413400e+002, 1.208191e+002
3.418221e+002, 1.207102e+002
3.423042e+002, 1.208459e+002
3.427863e+002, 1.212978e+002
3.432684e+002, 1.215994e+002
3.437505e+002, 1.213970e+002
3.442327e+002, 1.208793e+002
3.447148e+002, 1.205256e+002
3.451969e+002, 1.204822e+002
3.456790e+002, 1.204974e+002
3.461611e+002, 1.202246e+002
3.466432e+002, 1.197146e+002
3.471254e+002, 1.193026e+002
3.476075e+002, 1.191379e+002
3.480896e+002, 1.190881e+002
3.485717e+002, 1.189995e+002
3.490538e+002, 1.188580e+002
3.495359e+002, 1.187097e+002
3.500181e+002, 1.185803e+002
3.505002e+002, 1.184728e+002
3.509823e+002, 1.183897e+002
3.514644e+002, 1.183501e+002
3.519465e+002, 1.183196e+002
3.524286e+002, 1.182978e+002
3.529108e+002, 1.182738e+002
3.533929e+002, 1.181738e+002
3.538750e+002, 1.179154e+002
3.543571e+002, 1.176081e+002
3.548392e+002, 1.175389e+002
3.553214e+002, 1.178123e+002
3.558035e+002, 1.180501e+002
3.562856e+002, 1.181493e+002
3.567677e+002, 1.181161e+002
3.572498e+002, 1.179248e+002
3.577319e+002, 1.175474e+002
3.582141e+002, 1.171216e+002
3.586962e+002, 1.168389e+002
3.591783e+002, 1.167222e+002
3.596604e+002, 1.166009e+002
3.601425e+002, 1.163963e+002
3.606246e+002, 1.162157e+002
3.611068e+002, 1.161740e+002
3.615889e+002, 1.162765e+002
3.620710e+002, 1.164280e+002
3.625531e+002, 1.165382e+002
3.630352e+002, 1.166150e+002
3.635173e+002, 1.168242e+002
3.639995e+002, 1.174627e+002
3.644816e+002, 1.179315e+002
3.649637e+002, 1.178184e+002
3.654458e+002, 1.172971e+002
3.659279e+002, 1.168368e+002
3.664100e+002, 1.166942e+002
3.668922e+002, 1.167477e+002
3.673743e+002, 1.165941e+002
3.678564e+002, 1.158220e+002
3.683385e+002, 1.154325e+002
3.688206e+002, 1.158249e+002
3.693027e+002, 1.165512e+002
3.697849e+002, 1.171406e+002
3.702670e+002, 1.174513e+002
3.707491e+002, 1.175564e+002
3.712312e+002, 1.175479e+002
3.717133e+002, 1.174055e+002
3.721954e+002, 1.171850e+002
3.726776e+002, 1.167936e+002
3.731597e+002, 1.164084e+002
3.736418e+002, 1.161667e+002
3.741239e+002, 1.160445e+002
3.746060e+002, 1.158832e+002
3.750881e+002, 1.155210e+002
3.755703e+002, 1.149762e+002
3.760524e+002, 1.148232e+002
3.765345e+002, 1.155173e+002
3.770166e+002, 1.160742e+002
3.774987e+002, 1.161711e+002
3.779808e+002, 1.160204e+002
3.784630e+002, 1.159479e+002
3.789451e+002, 1.161044e+002
3.794272e+002, 1.163940e+002
3.799093e+002, 1.166152e+002
3.803914e+002, 1.169675e+002
3.808735e+002, 1.168738e+002
3.813557e+002, 1.158519e+002
3.818378e+002, 1.147516e+002
3.823199e+002, 1.142818e+002
3.828020e+002, 1.144857e+002
3.832841e+002, 1.148285e+002
3.837662e+002, 1.146695e+002
3.842484e+002, 1.138924e+002
3.847305e+002, 1.134211e+002
3.852126e+002, 1.133302e+002
3.856947e+002, 1.134948e+002
3.861768e+002, 1.141106e+002
3.866589e+002, 1.149455e+002
3.871411e+002, 1.155675e+002
3.876232e+002, 1.156963e+002
3.881053e+002, 1.154593e+002
3.885874e+002, 1.153171e+002
3.890695e+002, 1.153526e+002
3.895516e+002, 1.153254e+002
3.900338e+002, 1.150309e+002
3.905159e+002, 1.147371e+002
3.909980e+002, 1.147157e+002
3.914801e+002, 1.150407e+002
3.919622e+002, 1.155188e+002
3.924443e+002, 1.160155e+002
3.929265e+002, 1.165722e+002
3.934086e+002, 1.167385e+002
3.938907e+002, 1.161488e+002
3.943728e+002, 1.154265e+002
3.948549e+002, 1.148763e+002
3.953370e+002, 1.145018e+002
3.958192e+002, 1.142409e+002
3.963013e+002, 1.140526e+002
3.967834e+002, 1.139480e+002
3.972655e+002, 1.139781e+002
3.977476e+002, 1.141778e+002
3.982297e+002, 1.144225e+002
3.987119e+002, 1.147738e+002
3.991940e+002, 1.150932e+002
3.996761e+002, 1.151301e+002
4.001582e+002, 1.146876e+002
4.006403e+002, 1.142462e+002
4.011224e+002, 1.143796e+002
4.016046e+002, 1.150519e+002
4.020867e+002, 1.156599e+002
4.025688e+002, 1.161508e+002
4.030509e+002, 1.163369e+002
4.035330e+002, 1.158744e+002
4.040151e+002, 1.147430e+002
4.044973e+002, 1.138691e+002
4.049794e+002, 1.138540e+002
4.054615e+002, 1.143044e+002
4.059436e+002, 1.145479e+002
4.064257e+002, 1.144950e+002
4.069078e+002, 1.143279e+002
4.073900e+002, 1.141475e+002
4.078721e+002, 1.139692e+002
4.083542e+002, 1.138578e+002
4.088363e+002, 1.137778e+002
4.093184e+002, 1.138036e+002
4.098005e+002, 1.141097e+002
4.102827e+002, 1.145910e+002
4.107648e+002, 1.148629e+002
4.112469e+002, 1.147277e+002
4.117290e+002, 1.143441e+002
4.122111e+002, 1.140397e+002
4.126932e+002, 1.137544e+002
4.131754e+002, 1.136698e+002
4.136575e+002, 1.141158e+002
4.141396e+002, 1.146188e+002
4.146217e+002, 1.145318e+002
4.151038e+002, 1.138007e+002
4.155859e+002, 1.131013e+002
4.160681e+002, 1.131411e+002
4.165502e+002, 1.140123e+002
4.170323e+002, 1.146405e+002
4.175144e+002, 1.150060e+002
4.179965e+002, 1.151944e+002
4.184786e+002, 1.151863e+002
4.189608e+002, 1.150318e+002
4.194429e+002, 1.147659e+002
4.199250e+002, 1.143947e+002
4.204071e+002, 1.140307e+002
4.208892e+002, 1.140010e+002
4.213713e+002, 1.146544e+002
4.218535e+002, 1.151251e+002
4.223356e+002, 1.155285e+002
4.228177e+002, 1.156628e+002
4.232998e+002, 1.151579e+002
4.237819e+002, 1.140984e+002
4.242640e+002, 1.131196e+002
4.247462e+002, 1.129600e+002
4.252283e+002, 1.137017e+002
4.257104e+002, 1.140275e+002
4.261925e+002, 1.134265e+002
4.266746e+002, 1.129455e+002
4.271567e+002, 1.129292e+002
4.276389e+002, 1.132168e+002
4.281210e+002, 1.135961e+002
4.286031e+002, 1.140040e+002
4.290852e+002, 1.142979e+002
4.295673e+002, 1.140817e+002
4.300494e+002, 1.131333e+002
4.305316e+002, 1.124753e+002
4.310137e+002, 1.125171e+002
4.314958e+002, 1.128290e+002
4.319779e+002, 1.133082e+002
4.324600e+002, 1.138909e+002
4.329421e+002, 1.142508e+002
4.334243e+002, 1.139082e+002
4.339064e+002, 1.130868e+002
4.343885e+002, 1.128737e+002
4.348706e+002, 1.136410e+002
4.353527e+002, 1.142640e+002
4.358348e+002, 1.136502e+002
4.363170e+002, 1.124607e+002
4.367991e+002, 1.118336e+002
4.372812e+002, 1.123081e+002
4.377633e+002, 1.130630e+002
4.382454e+002, 1.133723e+002
4.387275e+002, 1.132809e+002
4.392097e+002, 1.130897e+002
4.396918e+002, 1.128918e+002
4.401739e+002, 1.126513e+002
4.406560e+002, 1.121973e+002
4.411381e+002, 1.114628e+002
4.416202e+002, 1.111440e+002
4.421024e+002, 1.119433e+002
4.425845e+002, 1.129816e+002
4.430666e+002, 1.130535e+002
4.435487e+002, 1.121191e+002
4.440308e+002, 1.113364e+002
4.445129e+002, 1.116898e+002
4.449951e+002, 1.130031e+002
4.454772e+002, 1.135646e+002
4.459593e+002, 1.128677e+002
4.464414e+002, 1.121266e+002
4.469235e+002, 1.115546e+002
4.474056e+002, 1.112130e+002
4.478878e+002, 1.113198e+002
4.483699e+002, 1.119331e+002
4.488520e+002, 1.125879e+002
4.493341e+002, 1.125232e+002
4.498162e+002, 1.113218e+002
4.502983e+002, 1.105799e+002
4.507805e+002, 1.104558e+002
4.512626e+002, 1.105705e+002
4.517447e+002, 1.107925e+002
4.522268e+002, 1.110871e+002
4.527089e+002, 1.114620e+002
4.531910e+002, 1.119401e+002
4.536732e+002, 1.124622e+002
4.541553e+002, 1.127719e+002
4.546374e+002, 1.128115e+002
4.551195e+002, 1.127162e+002
4.556016e+002, 1.123872e+002
4.560837e+002, 1.120300e+002
4.565659e+002, 1.118449e+002
4.570480e+002, 1.118557e+002
4.575301e+002, 1.118980e+002
4.580122e+002, 1.118105e+002
4.584943e+002, 1.115942e+002
4.589764e+002, 1.113221e+002
4.594586e+002, 1.109415e+002
4.599407e+002, 1.105889e+002
4.604228e+002, 1.101724e+002
4.609049e+002, 1.098524e+002
4.613870e+002, 1.099912e+002
4.618691e+002, 1.109532e+002
4.623513e+002, 1.120303e+002
4.628334e+002, 1.122885e+002
4.633155e+002, 1.117568e+002
4.637976e+002, 1.111884e+002
4.642797e+002, 1.107591e+002
4.647618e+002, 1.104606e+002
4.652440e+002, 1.103213e+002
4.657261e+002, 1.103458e+002
4.662082e+002, 1.102959e+002
4.666903e+002, 1.099787e+002
4.671724e+002, 1.096041e+002
4.676545e+002, 1.094445e+002
4.681367e+002, 1.095135e+002
4.686188e+002, 1.096425e+002
4.691009e+002, 1.097349e+002
4.695830e+002, 1.097921e+002
4.700651e+002, 1.098242e+002
4.705472e+002, 1.098708e+002
4.710294e+002, 1.098473e+002
4.715115e+002, 1.096428e+002
4.719936e+002, 1.093930e+002
4.724757e+002, 1.092432e+002
4.729578e+002, 1.092382e+002
4.734399e+002, 1.094193e+002
4.739221e+002, 1.099350e+002
4.744042e+002, 1.110040e+002
4.748863e+002, 1.110935e+002
4.753684e+002, 1.090102e+002
4.758505e+002, 1.073259e+002
4.763326e+002, 1.072629e+002
4.768148e+002, 1.081996e+002
4.772969e+002, 1.090530e+002
4.777790e+002, 1.092983e+002
4.782611e+002, 1.091308e+002
4.787432e+002, 1.089355e+002
4.792253e+002, 1.087087e+002
4.797075e+002, 1.084672e+002
4.801896e+002, 1.081879e+002
4.806717e+002, 1.079169e+002
4.811538e+002, 1.075889e+002
4.816359e+002, 1.072690e+002
4.821180e+002, 1.071934e+002
4.826002e+002, 1.077144e+002
4.830823e+002, 1.085353e+002
4.835644e+002, 1.087120e+002
4.840465e+002, 1.080312e+002
4.845286e+002, 1.074896e+002
4.850107e+002, 1.077301e+002
4.854929e+002, 1.082436e+002
4.859750e+002, 1.083818e+002
4.864571e+002, 1.079999e+002
4.869392e+002, 1.076583e+002
4.874213e+002, 1.078265e+002
4.879034e+002, 1.082612e+002
4.883856e+002, 1.084304e+002
4.888677e+002, 1.082451e+002
4.893498e+002, 1.078080e+002
4.898319e+002, 1.069812e+002
4.903140e+002, 1.058873e+002
4.907961e+002, 1.056891e+002
4.912783e+002, 1.072112e+002
4.917604e+002, 1.087479e+002
4.922425e+002, 1.097792e+002
4.927246e+002, 1.102366e+002
4.932067e+002, 1.098666e+002
4.936888e+002, 1.085824e+002
4.941710e+002, 1.069403e+002
4.946531e+002, 1.057960e+002
4.951352e+002, 1.052512e+002
4.956173e+002, 1.049365e+002
4.960994e+002, 1.048660e+002
4.965815e+002, 1.049748e+002
4.970637e+002, 1.054220e+002
4.975458e+002, 1.060105e+002
4.980279e+002, 1.063180e+002
4.985100e+002, 1.060806e+002
4.989921e+002, 1.055511e+002
4.994742e+002, 1.053910e+002
4.999564e+002, 1.057711e+002
5.004385e+002, 1.060910e+002
5.009206e+002, 1.063481e+002
5.014027e+002, 1.064556e+002
5.018848e+002, 1.062401e+002
5.023669e+002, 1.057711e+002
5.028491e+002, 1.053930e+002
5.033312e+002, 1.053748e+002
5.038133e+002, 1.056108e+002
5.042954e+002, 1.058497e+002
5.047775e+002, 1.061125e+002
5.052596e+002, 1.062740e+002
5.057418e+002, 1.062352e+002
5.062239e+002, 1.060776e+002
5.067060e+002, 1.059283e+002
5.071881e+002, 1.058070e+002
5.076702e+002, 1.056381e+002
5.081523e+002, 1.051759e+002
5.086345e+002, 1.047083e+002
5.091166e+002, 1.049413e+002
5.095987e+002, 1.059831e+002
5.100808e+002, 1.067374e+002
5.105629e+002, 1.061505e+002
5.110450e+002, 1.043872e+002
5.115272e+002, 1.034260e+002
5.120093e+002, 1.037775e+002
5.124914e+002, 1.042037e+002
5.129735e+002, 1.044295e+002
5.134556e+002, 1.044875e+002
5.139377e+002, 1.043724e+002
5.144199e+002, 1.041065e+002
5.149020e+002, 1.038516e+002
5.153841e+002, 1.038284e+002
5.158662e+002, 1.040811e+002
5.163483e+002, 1.042622e+002
5.168304e+002, 1.043892e+002
5.173126e+002, 1.044202e+002
5.177947e+002, 1.042671e+002
5.182768e+002, 1.040317e+002
5.187589e+002, 1.038737e+002
5.192410e+002, 1.038607e+002
5.197231e+002, 1.038766e+002
5.202053e+002, 1.037278e+002
5.206874e+002, 1.033981e+002
5.211695e+002, 1.031525e+002
5.216516e+002, 1.030996e+002
5.221337e+002, 1.030423e+002
5.226158e+002, 1.028279e+002
5.230980e+002, 1.025021e+002
5.235801e+002, 1.021875e+002
5.240622e+002, 1.018256e+002
5.245443e+002, 1.015948e+002
5.250264e+002, 1.018383e+002
5.255085e+002, 1.024532e+002
5.259907e+002, 1.028181e+002
5.264728e+002, 1.027119e+002
5.269549e+002, 1.022747e+002
5.274370e+002, 1.016128e+002
5.279191e+002, 1.006365e+002
5.284012e+002, 9.998254e+001
5.288834e+002, 9.983770e+001
5.293655e+002, 9.992932e+001
5.298476e+002, 1.002335e+002
5.303297e+002, 1.006231e+002
5.308118e+002, 1.007643e+002
5.312939e+002, 1.004576e+002
5.317761e+002, 9.991946e+001
5.322582e+002, 9.972263e+001
5.327403e+002, 1.001889e+002
5.332224e+002, 1.004024e+002
5.337045e+002, 1.000903e+002
5.341866e+002, 9.977734e+001
5.346688e+002, 9.983855e+001
5.351509e+002, 1.001871e+002
5.356330e+002, 1.004851e+002
5.361151e+002, 1.005191e+002
5.365972e+002, 1.003441e+002
5.370793e+002, 1.000883e+002
5.375615e+002, 9.973617e+001
5.380436e+002, 9.937636e+001
5.385257e+002, 9.905872e+001
5.390078e+002, 9.872727e+001
5.394899e+002, 9.825918e+001
5.399720e+002, 9.767119e+001
5.404542e+002, 9.728143e+001
5.409363e+002, 9.730692e+001
5.414184e+002, 9.759358e+001
5.419005e+002, 9.808421e+001
5.423826e+002, 9.874155e+001
5.428647e+002, 9.899202e+001
5.433469e+002, 9.840232e+001
5.438290e+002, 9.735085e+001
5.443111e+002, 9.685283e+001
5.447932e+002, 9.720103e+001
5.452753e+002, 9.733057e+001
5.457574e+002, 9.679018e+001
5.462396e+002, 9.618647e+001
5.467217e+002, 9.617007e+001
5.472038e+002, 9.664709e+001
5.476859e+002, 9.697461e+001
5.481680e+002, 9.667672e+001
5.486501e+002, 9.591542e+001
5.491323e+002, 9.538844e+001
5.496144e+002, 9.500358e+001
5.500965e+002, 9.505228e+001
5.505786e+002, 9.604771e+001
5.510607e+002, 9.705912e+001
5.515428e+002, 9.737414e+001
5.520250e+002, 9.699529e+001
5.525071e+002, 9.641451e+001
5.529892e+002, 9.594064e+001
5.534713e+002, 9.554549e+001
5.539534e+002, 9.506535e+001
5.544355e+002, 9.441805e+001
5.549177e+002, 9.414038e+001
5.553998e+002, 9.476369e+001
5.558819e+002, 9.564010e+001
5.563640e+002, 9.580064e+001
5.568461e+002, 9.511971e+001
5.573282e+002, 9.465328e+001
5.578104e+002, 9.504108e+001
5.582925e+002, 9.572442e+001
5.587746e+002, 9.615568e+001
5.592567e+002, 9.626785e+001
5.597388e+002, 9.593920e+001
5.602209e+002, 9.500919e+001
5.607031e+002, 9.372024e+001
5.611852e+002, 9.284415e+001
5.616673e+002, 9.257104e+001
5.621494e+002, 9.246484e+001
5.626315e+002, 9.268223e+001
5.631136e+002, 9.293900e+001
5.635958e+002, 9.293220e+001
5.640779e+002, 9.274798e+001
5.645600e+002, 9.279094e+001
5.650421e+002, 9.341453e+001
5.655242e+002, 9.435719e+001
5.660063e+002, 9.468549e+001
5.664885e+002, 9.416442e+001
5.669706e+002, 9.370785e+001
5.674527e+002, 9.344544e+001
5.679348e+002, 9.339008e+001
5.684169e+002, 9.379687e+001
5.688990e+002, 9.454492e+001
5.693812e+002, 9.486070e+001
5.698633e+002, 9.384187e+001
5.703454e+002, 9.241378e+001
5.708275e+002, 9.206288e+001
5.713096e+002, 9.272163e+001
5.717917e+002, 9.322498e+001
5.722739e+002, 9.304719e+001
5.727560e+002, 9.251820e+001
5.732381e+002, 9.225327e+001
5.737202e+002, 9.237772e+001
5.742023e+002, 9.225617e+001
5.746844e+002, 9.152494e+001
5.751666e+002, 9.079321e+001
5.756487e+002, 9.045844e+001
5.761308e+002, 9.047710e+001
5.766129e+002, 9.069880e+001
5.770950e+002, 9.105856e+001
5.775771e+002, 9.142693e+001
5.780593e+002, 9.146477e+001
5.785414e+002, 9.093623e+001
5.790235e+002, 9.072128e+001
5.795056e+002, 9.115024e+001
5.799877e+002, 9.163655e+001
5.804698e+002, 9.200062e+001
5.809520e+002, 9.221046e+001
5.814341e+002, 9.224397e+001
5.819162e+002, 9.207739e+001
5.823983e+002, 9.175698e+001
5.828804e+002, 9.126903e+001
5.833625e+002, 9.063778e+001
5.838447e+002, 9.018171e+001
5.843268e+002, 9.005740e+001
5.848089e+002, 8.993578e+001
5.852910e+002, 8.934025e+001
5.857731e+002, 8.834978e+001
5.862552e+002, 8.781589e+001
5.867374e+002, 8.819938e+001
5.872195e+002, 8.865288e+001
5.877016e+002, 8.868613e+001
5.881837e+002, 8.850396e+001
5.886658e+002, 8.857124e+001
5.891479e+002, 8.900374e+001
5.896301e+002, 8.933434e+001
5.901122e+002, 8.890096e+001
5.905943e+002, 8.756446e+001
5.910764e+002, 8.679884e+001
5.915585e+002, 8.697498e+001
5.920406e+002, 8.732047e+001
5.925228e+002, 8.778334e+001
5.930049e+002, 8.825549e+001
5.934870e+002, 8.862894e+001
5.939691e+002, 8.887658e+001
5.944512e+002, 8.902226e+001
5.949333e+002, 8.908918e+001
5.954155e+002, 8.907422e+001
5.958976e+002, 8.896032e+001
5.963797e+002, 8.874145e+001
5.968618e+002, 8.842797e+001
5.973439e+002, 8.784995e+001
5.978260e+002, 8.726038e+001
5.983082e+002, 8.729970e+001
5.987903e+002, 8.833777e+001
5.992724e+002, 8.907110e+001
5.997545e+002, 8.871638e+001
6.002366e+002, 8.807503e+001
6.007188e+002, 8.820821e+001
6.012009e+002, 8.902779e+001
6.016830e+002, 8.945198e+001
6.021651e+002, 8.868773e+001
6.026472e+002, 8.712438e+001
6.031293e+002, 8.621061e+001
6.036115e+002, 8.624216e+001
6.040936e+002, 8.640527e+001
6.045757e+002, 8.691295e+001
6.050578e+002, 8.728649e+001
6.055399e+002, 8.711649e+001
6.060220e+002, 8.653609e+001
6.065042e+002, 8.602737e+001
6.069863e+002, 8.590051e+001
6.074684e+002, 8.592769e+001
6.079505e+002, 8.566215e+001
6.084326e+002, 8.511682e+001
6.089147e+002, 8.485117e+001
6.093969e+002, 8.508724e+001
6.098790e+002, 8.551042e+001
6.103611e+002, 8.586073e+001
6.108432e+002, 8.613339e+001
6.113253e+002, 8.617298e+001
6.118074e+002, 8.567131e+001
6.122896e+002, 8.523698e+001
6.127717e+002, 8.535979e+001
6.132538e+002, 8.571945e+001
6.137359e+002, 8.570460e+001
6.142180e+002, 8.515450e+001
6.147001e+002, 8.448682e+001
6.151823e+002, 8.421537e+001
6.156644e+002, 8.436828e+001
6.161465e+002, 8.431631e+001
6.166286e+002, 8.372582e+001
6.171107e+002, 8.339867e+001
6.175928e+002, 8.385938e+001
6.180750e+002, 8.448325e+001
6.185571e+002, 8.449677e+001
6.190392e+002, 8.378542e+001
6.195213e+002, 8.318606e+001
6.200034e+002, 8.343002e+001
6.204855e+002, 8.421387e+001
6.209677e+002, 8.495939e+001
6.214498e+002, 8.564867e+001
6.219319e+002, 8.602511e+001
6.224140e+002, 8.588052e+001
6.228961e+002, 8.543398e+001
6.233782e+002, 8.516225e+001
6.238604e+002, 8.516785e+001
6.243425e+002, 8.500578e+001
6.248246e+002, 8.437688e+001
6.253067e+002, 8.378689e+001
6.257888e+002, 8.359476e+001
6.262709e+002, 8.372508e+001
6.267531e+002, 8.397662e+001
6.272352e+002, 8.425529e+001
6.277173e+002, 8.445682e+001
6.281994e+002, 8.434705e+001
6.286815e+002, 8.385277e+001
6.291636e+002, 8.344318e+001
6.296458e+002, 8.313066e+001
6.301279e+002, 8.292895e+001
6.306100e+002, 8.294978e+001
6.310921e+002, 8.304707e+001
6.315742e+002, 8.289352e+001
6.320563e+002, 8.225467e+001
6.325385e+002, 8.182216e+001
6.330206e+002, 8.241934e+001
6.335027e+002, 8.349430e+001
6.339848e+002, 8.381906e+001
6.344669e+002, 8.323322e+001
6.349490e+002, 8.269431e+001
6.354312e+002, 8.296624e+001
6.359133e+002, 8.381110e+001
6.363954e+002, 8.409538e+001
6.368775e+002, 8.294265e+001
6.373596e+002, 8.240501e+001
6.378417e+002, 8.312955e+001
6.383239e+002, 8.401537e+001
6.388060e+002, 8.428194e+001
6.392881e+002, 8.398361e+001
6.397702e+002, 8.359946e+001
6.402523e+002, 8.343513e+001
6.407344e+002, 8.329756e+001
6.412166e+002, 8.266142e+001
6.416987e+002, 8.148018e+001
6.421808e+002, 8.087587e+001
6.426629e+002, 8.134758e+001
6.431450e+002, 8.199062e+001
6.436271e+002, 8.189210e+001
6.441093e+002, 8.126447e+001
6.445914e+002, 8.087868e+001
6.450735e+002, 8.098910e+001
6.455556e+002, 8.119205e+001
6.460377e+002, 8.129698e+001
6.465198e+002, 8.138113e+001
6.470020e+002, 8.162699e+001
6.474841e+002, 8.202917e+001
6.479662e+002, 8.229182e+001
6.484483e+002, 8.211086e+001
6.489304e+002, 8.157630e+001
6.494125e+002, 8.136482e+001
6.498947e+002, 8.183642e+001
6.503768e+002, 8.195024e+001
6.508589e+002, 8.111433e+001
6.513410e+002, 8.020578e+001
6.518231e+002, 7.986614e+001
6.523052e+002, 8.005293e+001
6.527874e+002, 8.029257e+001
6.532695e+002, 8.035097e+001
6.537516e+002, 8.034196e+001
6.542337e+002, 8.058545e+001
6.547158e+002, 8.093555e+001
6.551979e+002, 8.052258e+001
6.556801e+002, 7.896216e+001
6.561622e+002, 7.739819e+001
6.566443e+002, 7.716996e+001
6.571264e+002, 7.837105e+001
6.576085e+002, 7.914693e+001
6.580906e+002, 7.901684e+001
6.585728e+002, 7.912237e+001
6.590549e+002, 8.010618e+001
6.595370e+002, 8.123795e+001
6.600191e+002, 8.169903e+001
6.605012e+002, 8.142225e+001
6.609833e+002, 8.098376e+001
6.614655e+002, 8.082921e+001
6.619476e+002, 8.088693e+001
6.624297e+002, 8.104440e+001
6.629118e+002, 8.136858e+001
6.633939e+002, 8.120959e+001
6.638760e+002, 8.005282e+001
6.643582e+002, 7.870683e+001
6.648403e+002, 7.822022e+001
6.653224e+002, 7.851718e+001
6.658045e+002, 7.872520e+001
6.662866e+002, 7.866609e+001
6.667687e+002, 7.852699e+001
6.672509e+002, 7.828664e+001
6.677330e+002, 7.807708e+001
6.682151e+002, 7.817508e+001
6.686972e+002, 7.862066e+001
6.691793e+002, 7.909719e+001
6.696614e+002, 7.928606e+001
6.701436e+002, 7.919847e+001
6.706257e+002, 7.898717e+001
6.711078e+002, 7.854400e+001
6.715899e+002, 7.819942e+001
6.720720e+002, 7.823125e+001
6.725541e+002, 7.826341e+001
6.730363e+002, 7.786632e+001
6.735184e+002, 7.708712e+001
6.740005e+002, 7.658047e+001
6.744826e+002, 7.674551e+001
6.749647e+002, 7.721003e+001
6.754468e+002, 7.783396e+001
6.759290e+002, 7.845502e+001
6.764111e+002, 7.846148e+001
6.768932e+002, 7.764976e+001
6.773753e+002, 7.676902e+001
6.778574e+002, 7.677012e+001
6.783395e+002, 7.770883e+001
6.788217e+002, 7.809435e+001
6.793038e+002, 7.717941e+001
6.797859e+002, 7.666244e+001
6.802680e+002, 7.715726e+001
6.807501e+002, 7.794712e+001
6.812322e+002, 7.834779e+001
6.817144e+002, 7.832713e+001
6.821965e+002, 7.837588e+001
6.826786e+002, 7.911001e+001
6.831607e+002, 7.989814e+001
6.836428e+002, 7.942066e+001
6.841249e+002, 7.785471e+001
6.846071e+002, 7.679588e+001
6.850892e+002, 7.679394e+001
6.855713e+002, 7.718843e+001
6.860534e+002, 7.721954e+001
6.865355e+002, 7.685033e+001
6.870176e+002, 7.677723e+001
6.874998e+002, 7.704939e+001
6.879819e+002, 7.752239e+001
6.884640e+002, 7.856776e+001
6.889461e+002, 7.954073e+001
6.894282e+002, 7.960210e+001
6.899103e+002, 7.880330e+001
6.903925e+002, 7.809447e+001
6.908746e+002, 7.829397e+001
6.913567e+002, 7.898901e+001
6.918388e+002, 7.918218e+001
6.923209e+002, 7.885711e+001
6.928030e+002, 7.842159e+001
6.932852e+002, 7.788052e+001
6.937673e+002, 7.745625e+001
6.942494e+002, 7.747048e+001
6.947315e+002, 7.788513e+001
6.952136e+002, 7.806631e+001
6.956957e+002, 7.757543e+001
6.961779e+002, 7.735196e+001
6.966600e+002, 7.798168e+001
6.971421e+002, 7.889118e+001
6.976242e+002, 7.949632e+001
6.981063e+002, 7.969382e+001
6.985884e+002, 7.964012e+001
6.990706e+002, 7.944625e+001
6.995527e+002, 7.910063e+001
7.000348e+002, 7.843911e+001
7.005169e+002, 7.733654e+001
7.009990e+002, 7.679465e+001
7.014811e+002, 7.738193e+001
7.019633e+002, 7.805465e+001
7.024454e+002, 7.775504e+001
7.029275e+002, 7.678687e+001
7.034096e+002, 7.616296e+001
7.038917e+002, 7.630453e+001
7.043738e+002, 7.641376e+001
7.048560e+002, 7.598930e+001
7.053381e+002, 7.544633e+001
7.058202e+002, 7.536497e+001
7.063023e+002, 7.572506e+001
7.067844e+002, 7.599834e+001
7.072665e+002, 7.579335e+001
7.077487e+002, 7.535554e+001
7.082308e+002, 7.546511e+001
7.087129e+002, 7.634622e+001
7.091950e+002, 7.667495e+001
7.096771e+002, 7.578352e+001
7.101592e+002, 7.499178e+001
7.106414e+002, 7.547192e+001
7.111235e+002, 7.660963e+001
7.116056e+002, 7.704703e+001
7.120877e+002, 7.628625e+001
7.125698e+002, 7.546040e+001
7.130519e+002, 7.506369e+001
7.135341e+002, 7.493698e+001
7.140162e+002, 7.497091e+001
7.144983e+002, 7.510631e+001
7.149804e+002, 7.519563e+001
7.154625e+002, 7.514757e+001
7.159446e+002, 7.506087e+001
7.164268e+002, 7.519875e+001
7.169089e+002, 7.568148e+001
7.173910e+002, 7.583483e+001
7.178731e+002, 7.540389e+001
7.183552e+002, 7.496317e+001
7.188373e+002, 7.471832e+001
7.193195e+002, 7.465280e+001
7.198016e+002, 7.477364e+001
7.202837e+002, 7.510705e+001
7.207658e+002, 7.547738e+001
7.212479e+002, 7.606210e+001
7.217300e+002, 7.645693e+001
7.222122e+002, 7.600986e+001
7.226943e+002, 7.494609e+001
7.231764e+002, 7.407940e+001
7.236585e+002, 7.376353e+001
7.241406e+002, 7.383072e+001
7.246227e+002, 7.413258e+001
7.251049e+002, 7.476224e+001
7.255870e+002, 7.468123e+001
7.260691e+002, 7.315730e+001
7.265512e+002, 7.211483e+001
7.270333e+002, 7.268035e+001
7.275154e+002, 7.373679e+001
7.279976e+002, 7.407326e+001
7.284797e+002, 7.360638e+001
7.289618e+002, 7.341988e+001
7.294439e+002, 7.444219e+001
7.299260e+002, 7.553174e+001
7.304081e+002, 7.542128e+001
7.308903e+002, 7.458020e+001
7.313724e+002, 7.424424e+001
7.318545e+002, 7.475018e+001
7.323366e+002, 7.540852e+001
7.328187e+002, 7.547335e+001
7.333008e+002, 7.500420e+001
7.337830e+002, 7.475168e+001
7.342651e+002, 7.489384e+001
7.347472e+002, 7.486763e+001
7.352293e+002, 7.431924e+001
7.357114e+002, 7.374947e+001
7.361935e+002, 7.351363e+001
7.366757e+002, 7.357510e+001
7.371578e+002, 7.371493e+001
7.376399e+002, 7.405866e+001
7.381220e+002, 7.421101e+001
7.386041e+002, 7.363503e+001
7.390862e+002, 7.280466e+001
7.395684e+002, 7.253195e+001
7.400505e+002, 7.288685e+001
7.405326e+002, 7.339125e+001
7.410147e+002, 7.372042e+001
7.414968e+002, 7.388806e+001
7.419789e+002, 7.396047e+001
7.424611e+002, 7.399043e+001
7.429432e+002, 7.369878e+001
7.434253e+002, 7.266380e+001
7.439074e+002, 7.180630e+001
7.443895e+002, 7.173792e+001
7.448716e+002, 7.217039e+001
7.453538e+002, 7.263637e+001
7.458359e+002, 7.316374e+001
7.463180e+002, 7.339342e+001
7.468001e+002, 7.290197e+001
7.472822e+002, 7.222327e+001
7.477643e+002, 7.185385e+001
7.482465e+002, 7.180239e+001
7.487286e+002, 7.193885e+001
7.492107e+002, 7.220483e+001
7.496928e+002, 7.255770e+001
7.501749e+002, 7.300101e+001
7.506570e+002, 7.355557e+001
7.511392e+002, 7.373251e+001
7.516213e+002, 7.338463e+001
7.521034e+002, 7.299267e+001
7.525855e+002, 7.267904e+001
7.530676e+002, 7.246453e+001
7.535497e+002, 7.244055e+001
7.540319e+002, 7.261675e+001
7.545140e+002, 7.260213e+001
7.549961e+002, 7.210283e+001
7.554782e+002, 7.159480e+001
7.559603e+002, 7.128967e+001
7.564424e+002, 7.119580e+001
7.569246e+002, 7.137282e+001
7.574067e+002, 7.179221e+001
7.578888e+002, 7.225277e+001
7.583709e+002, 7.262556e+001
7.588530e+002, 7.286247e+001
7.593351e+002, 7.275959e+001
7.598173e+002, 7.227980e+001
7.602994e+002, 7.176292e+001
7.607815e+002, 7.120591e+001
7.612636e+002, 7.076478e+001
7.617457e+002, 7.055436e+001
7.622278e+002, 7.057983e+001
7.627100e+002, 7.082638e+001
7.631921e+002, 7.147220e+001
7.636742e+002, 7.206350e+001
7.641563e+002, 7.264245e+001
7.646384e+002, 7.300566e+001
7.651205e+002, 7.279300e+001
7.656027e+002, 7.222958e+001
7.660848e+002, 7.197437e+001
7.665669e+002, 7.235362e+001
7.670490e+002, 7.280495e+001
7.675311e+002, 7.235275e+001
7.680132e+002, 7.124943e+001
7.684954e+002, 7.109298e+001
7.689775e+002, 7.211803e+001
7.694596e+002, 7.285076e+001
7.699417e+002, 7.249734e+001
7.704238e+002, 7.157575e+001
7.709059e+002, 7.095781e+001
7.713881e+002, 7.070012e+001
7.718702e+002, 7.055619e+001
7.723523e+002, 7.046227e+001
7.728344e+002, 7.055106e+001
7.733165e+002, 7.105185e+001
7.737986e+002, 7.165097e+001
7.742808e+002, 7.203536e+001
7.747629e+002, 7.214616e+001
7.752450e+002, 7.205702e+001
7.757271e+002, 7.168391e+001
7.762092e+002, 7.126599e+001
7.766913e+002, 7.112911e+001
7.771735e+002, 7.125583e+001
7.776556e+002, 7.171145e+001
7.781377e+002, 7.253460e+001
7.786198e+002, 7.306150e+001
7.791019e+002, 7.259873e+001
7.795840e+002, 7.144944e+001
7.800662e+002, 7.124314e+001
7.805483e+002, 7.291371e+001
7.810304e+002, 7.375018e+001
7.815125e+002, 7.288264e+001
7.819946e+002, 7.187368e+001
7.824767e+002, 7.143812e+001
7.829589e+002, 7.141354e+001
7.834410e+002, 7.143626e+001
7.839231e+002, 7.141366e+001
7.844052e+002, 7.145258e+001
7.848873e+002, 7.174520e+001
7.853694e+002, 7.204984e+001
7.858516e+002, 7.207875e+001
7.863337e+002, 7.184599e+001
7.868158e+002, 7.144395e+001
7.872979e+002, 7.091186e+001
7.877800e+002, 7.032125e+001
7.882621e+002, 6.970338e+001
7.887443e+002, 6.907541e+001
7.892264e+002, 6.886817e+001
7.897085e+002, 6.912070e+001
7.901906e+002, 6.973023e+001
7.906727e+002, 7.117884e+001
7.911548e+002, 7.248422e+001
7.916370e+002, 7.251421e+001
7.921191e+002, 7.144527e+001
7.926012e+002, 7.049175e+001
7.930833e+002, 6.966713e+001
7.935654e+002, 6.918517e+001
7.940475e+002, 6.933928e+001
7.945297e+002, 6.973130e+001
7.950118e+002, 7.008476e+001
7.954939e+002, 7.028733e+001
7.959760e+002, 7.010095e+001
7.964581e+002, 6.932729e+001
7.969402e+002, 6.854861e+001
7.974224e+002, 6.887132e+001
7.979045e+002, 7.007331e+001
7.983866e+002, 7.060764e+001
7.988687e+002, 7.029641e+001
7.993508e+002, 6.972215e+001
7.998329e+002, 6.904185e+001
8.003151e+002, 6.849109e+001
8.007972e+002, 6.856870e+001
8.012793e+002, 6.951304e+001
8.017614e+002, 7.014977e+001
8.022435e+002, 7.047383e+001
8.027256e+002, 7.053141e+001
8.032078e+002, 6.998247e+001
8.036899e+002, 6.940213e+001
8.041720e+002, 6.954775e+001
8.046541e+002, 7.036198e+001
8.051362e+002, 7.090050e+001
8.056183e+002, 7.031551e+001
8.061005e+002, 6.963127e+001
8.065826e+002, 7.028495e+001
8.070647e+002, 7.157766e+001
8.075468e+002, 7.169583e+001
8.080289e+002, 7.045765e+001
8.085110e+002, 6.934933e+001
8.089932e+002, 6.943530e+001
8.094753e+002, 7.033076e+001
8.099574e+002, 7.109153e+001
8.104395e+002, 7.178158e+001
8.109216e+002, 7.204393e+001
8.114037e+002, 7.173063e+001
8.118859e+002, 7.120088e+001
8.123680e+002, 7.042098e+001
8.128501e+002, 6.962955e+001
8.133322e+002, 6.924636e+001
8.138143e+002, 6.937155e+001
8.142964e+002, 6.929760e+001
8.147786e+002, 6.856326e+001
8.152607e+002, 6.790269e+001
8.157428e+002, 6.767283e+001
8.162249e+002, 6.782024e+001
8.167070e+002, 6.848196e+001
8.171891e+002, 6.951318e+001
8.176713e+002, 7.013018e+001
8.181534e+002, 6.953271e+001
8.186355e+002, 6.845790e+001
8.191176e+002, 6.852406e+001
8.195997e+002, 6.954420e+001
8.200818e+002, 6.989256e+001
8.205640e+002, 6.918997e+001
8.210461e+002, 6.870791e+001
8.215282e+002, 6.949723e+001
8.220103e+002, 7.099050e+001
8.224924e+002, 7.141710e+001
8.229745e+002, 7.009998e+001
8.234567e+002, 6.922665e+001
8.239388e+002, 6.924229e+001
8.244209e+002, 6.918570e+001
8.249030e+002, 6.838831e+001
8.253851e+002, 6.749334e+001
8.258672e+002, 6.751527e+001
8.263494e+002, 6.856960e+001
8.268315e+002, 6.932506e+001
8.273136e+002, 6.885729e+001
8.277957e+002, 6.812632e+001
8.282778e+002, 6.778788e+001
8.287599e+002, 6.782547e+001
8.292421e+002, 6.840496e+001
8.297242e+002, 6.940908e+001
8.302063e+002, 7.003379e+001
8.306884e+002, 6.959917e+001
8.311705e+002, 6.855782e+001
8.316526e+002, 6.804707e+001
8.321348e+002, 6.808725e+001
8.326169e+002, 6.809941e+001
8.330990e+002, 6.803047e+001
8.335811e+002, 6.787224e+001
8.340632e+002, 6.754792e+001
8.345453e+002, 6.718162e+001
8.350275e+002, 6.703744e+001
8.355096e+002, 6.713800e+001
8.359917e+002, 6.741602e+001
8.364738e+002, 6.836926e+001
8.369559e+002, 6.891336e+001
8.374380e+002, 6.815240e+001
8.379202e+002, 6.707994e+001
8.384023e+002, 6.694518e+001
8.388844e+002, 6.777603e+001
8.393665e+002, 6.846342e+001
8.398486e+002, 6.836051e+001
8.403307e+002, 6.792020e+001
8.408129e+002, 6.733844e+001
8.412950e+002, 6.683959e+001
8.417771e+002, 6.713781e+001
8.422592e+002, 6.815803e+001
8.427413e+002, 6.871538e+001
8.432234e+002, 6.800779e+001
8.437056e+002, 6.673635e+001
8.441877e+002, 6.636967e+001
8.446698e+002, 6.698967e+001
8.451519e+002, 6.756344e+001
8.456340e+002, 6.817069e+001
8.461161e+002, 6.838209e+001
8.465983e+002, 6.771157e+001
8.470804e+002, 6.683929e+001
8.475625e+002, 6.684951e+001
8.480446e+002, 6.781850e+001
8.485267e+002, 6.833511e+001
8.490089e+002, 6.799406e+001
8.494910e+002, 6.764278e+001
8.499731e+002, 6.742374e+001
8.504552e+002, 6.736671e+001
8.509373e+002, 6.765536e+001
8.514194e+002, 6.812702e+001
8.519016e+002, 6.824330e+001
8.523837e+002, 6.764305e+001
8.528658e+002, 6.709677e+001
8.533479e+002, 6.767093e+001
8.538300e+002, 6.861091e+001
8.543121e+002, 6.833822e+001
8.547943e+002, 6.704243e+001
8.552764e+002, 6.625912e+001
8.557585e+002, 6.666030e+001
8.562406e+002, 6.723357e+001
8.567227e+002, 6.644199e+001
8.572048e+002, 6.448504e+001
8.576870e+002, 6.416829e+001
8.581691e+002, 6.599390e+001
8.586512e+002, 6.751002e+001
8.591333e+002, 6.816081e+001
8.596154e+002, 6.824261e+001
8.600975e+002, 6.784350e+001
8.605797e+002, 6.705950e+001
8.610618e+002, 6.644154e+001
8.615439e+002, 6.592952e+001
8.620260e+002, 6.567887e+001
8.625081e+002, 6.564054e+001
8.629902e+002, 6.593354e+001
8.634724e+002, 6.708830e+001
8.639545e+002, 6.844424e+001
8.644366e+002, 6.880693e+001
8.649187e+002, 6.791650e+001
8.654008e+002, 6.708222e+001
8.658829e+002, 6.734978e+001
8.663651e+002, 6.798260e+001
8.668472e+002, 6.819917e+001
8.673293e+002, 6.808578e+001
8.678114e+002, 6.776169e+001
8.682935e+002, 6.731851e+001
8.687756e+002, 6.718460e+001
8.692578e+002, 6.774477e+001
8.697399e+002, 6.864431e+001
8.702220e+002, 6.894622e+001
8.707041e+002, 6.861491e+001
8.711862e+002, 6.844343e+001
8.716683e+002, 6.856795e+001
8.721505e+002, 6.858443e+001
8.726326e+002, 6.823148e+001
8.731147e+002, 6.770802e+001
8.735968e+002, 6.728591e+001
8.740789e+002, 6.689248e+001
8.745610e+002, 6.701038e+001
8.750432e+002, 6.863435e+001
8.755253e+002, 6.943929e+001
8.760074e+002, 6.803139e+001
8.764895e+002, 6.629065e+001
8.769716e+002, 6.583692e+001
8.774537e+002, 6.651273e+001
8.779359e+002, 6.724499e+001
8.784180e+002, 6.779173e+001
8.789001e+002, 6.804824e+001
8.793822e+002, 6.774037e+001
8.798643e+002, 6.726290e+001
8.803464e+002, 6.704669e+001
8.808286e+002, 6.706277e+001
8.813107e+002, 6.710927e+001
8.817928e+002, 6.711531e+001
8.822749e+002, 6.718839e+001
8.827570e+002, 6.750713e+001
8.832391e+002, 6.795510e+001
8.837213e+002, 6.816216e+001
8.842034e+002, 6.813676e+001
8.846855e+002, 6.799321e+001
8.851676e+002, 6.774771e+001
8.856497e+002, 6.743934e+001
8.861318e+002, 6.705943e+001
8.866140e+002, 6.668222e+001
8.870961e+002, 6.661814e+001
8.875782e+002, 6.722220e+001
8.880603e+002, 6.718250e+001
8.885424e+002, 6.568769e+001
8.890245e+002, 6.466049e+001
8.895067e+002, 6.532478e+001
8.899888e+002, 6.658419e+001
8.904709e+002, 6.712094e+001
8.909530e+002, 6.689035e+001
8.914351e+002, 6.691080e+001
8.919172e+002, 6.777243e+001
8.923994e+002, 6.845058e+001
8.928815e+002, 6.844312e+001
8.933636e+002, 6.812234e+001
8.938457e+002, 6.778137e+001
8.943278e+002, 6.747409e+001
8.948099e+002, 6.722807e+001
8.952921e+002, 6.707542e+001
8.957742e+002, 6.681231e+001
8.962563e+002, 6.600558e+001
8.967384e+002, 6.508590e+001
8.972205e+002, 6.488161e+001
8.977026e+002, 6.527871e+001
8.981848e+002, 6.576476e+001
8.986669e+002, 6.616535e+001
8.991490e+002, 6.638168e+001
8.996311e+002, 6.630173e+001
9.001132e+002, 6.598454e+001
9.005953e+002, 6.559609e+001
9.010775e+002, 6.510892e+001
9.015596e+002, 6.489153e+001
9.020417e+002, 6.505186e+001
9.025238e+002, 6.531112e+001
9.030059e+002, 6.555400e+001
9.034880e+002, 6.573867e+001
9.039702e+002, 6.576942e+001
9.044523e+002, 6.560484e+001
9.049344e+002, 6.544892e+001
9.054165e+002, 6.538721e+001
9.058986e+002, 6.522203e+001
9.063807e+002, 6.473986e+001
9.068629e+002, 6.426817e+001
9.073450e+002, 6.402488e+001
9.078271e+002, 6.404089e+001
9.083092e+002, 6.436832e+001
9.087913e+002, 6.514232e+001
9.092734e+002, 6.598077e+001
9.097556e+002, 6.715275e+001
9.102377e+002, 6.793975e+001
9.107198e+002, 6.727119e+001
9.112019e+002, 6.584006e+001
9.116840e+002, 6.512528e+001
9.121661e+002, 6.551920e+001
9.126483e+002, 6.609618e+001
9.131304e+002, 6.623840e+001
9.136125e+002, 6.595996e+001
9.140946e+002, 6.478767e+001
9.145767e+002, 6.322660e+001
9.150588e+002, 6.326655e+001
9.155410e+002, 6.506308e+001
9.160231e+002, 6.649423e+001
9.165052e+002, 6.616921e+001
9.169873e+002, 6.500768e+001
9.174694e+002, 6.488284e+001
9.179515e+002, 6.585032e+001
9.184337e+002, 6.630770e+001
9.189158e+002, 6.619444e+001
9.193979e+002, 6.574234e+001
9.198800e+002, 6.479544e+001
9.203621e+002, 6.402792e+001
9.208442e+002, 6.432957e+001
9.213264e+002, 6.554472e+001
9.218085e+002, 6.599440e+001
9.222906e+002, 6.490533e+001
9.227727e+002, 6.431670e+001
9.232548e+002, 6.464692e+001
9.237369e+002, 6.511465e+001
9.242191e+002, 6.545843e+001
9.247012e+002, 6.566303e+001
9.251833e+002, 6.573587e+001
9.256654e+002, 6.568094e+001
9.261475e+002, 6.543516e+001
9.266296e+002, 6.478024e+001
9.271118e+002, 6.416492e+001
9.275939e+002, 6.375793e+001
9.280760e+002, 6.354747e+001
9.285581e+002, 6.360596e+001
9.290402e+002, 6.384274e+001
9.295223e+002, 6.400410e+001
9.300045e+002, 6.397481e+001
9.304866e+002, 6.387212e+001
9.309687e+002, 6.379411e+001
9.314508e+002, 6.371564e+001
9.319329e+002, 6.354931e+001
9.324150e+002, 6.334904e+001
9.328972e+002, 6.334545e+001
9.333793e+002, 6.357264e+001
9.338614e+002, 6.369385e+001
9.343435e+002, 6.336451e+001
9.348256e+002, 6.284303e+001
9.353077e+002, 6.272345e+001
9.357899e+002, 6.300035e+001
9.362720e+002, 6.379279e+001
9.367541e+002, 6.519512e+001
9.372362e+002, 6.607478e+001
9.377183e+002, 6.582491e+001
9.382004e+002, 6.489276e+001
9.386826e+002, 6.383717e+001
9.391647e+002, 6.264069e+001
9.396468e+002, 6.214012e+001
9.401289e+002, 6.257985e+001
9.406110e+002, 6.314802e+001
9.410931e+002, 6.395787e+001
9.415753e+002, 6.450769e+001
9.420574e+002, 6.419064e+001
9.425395e+002, 6.339099e+001
9.430216e+002, 6.319495e+001
9.435037e+002, 6.387474e+001
9.439858e+002, 6.433086e+001
9.444680e+002, 6.453442e+001
9.449501e+002, 6.443099e+001
9.454322e+002, 6.378263e+001
9.459143e+002, 6.297274e+001
9.463964e+002, 6.223198e+001
9.468785e+002, 6.167574e+001
9.473607e+002, 6.164474e+001
9.478428e+002, 6.257814e+001
9.483249e+002, 6.334246e+001
9.488070e+002, 6.306026e+001
9.492891e+002, 6.255665e+001
9.497712e+002, 6.260300e+001
9.502534e+002, 6.304357e+001
9.507355e+002, 6.354144e+001
9.512176e+002, 6.396069e+001
9.516997e+002, 6.412869e+001
9.521818e+002, 6.381185e+001
9.526639e+002, 6.330384e+001
9.531461e+002, 6.294166e+001
9.536282e+002, 6.271864e+001
9.541103e+002, 6.260268e+001
9.545924e+002, 6.260562e+001
9.550745e+002, 6.288609e+001
9.555566e+002, 6.353247e+001
9.560388e+002, 6.413858e+001
9.565209e+002, 6.406908e+001
9.570030e+002, 6.348625e+001
9.574851e+002, 6.324436e+001
9.579672e+002, 6.334045e+001
9.584493e+002, 6.335986e+001
9.589315e+002, 6.318801e+001
9.594136e+002, 6.314141e+001
9.598957e+002, 6.353394e+001
9.603778e+002, 6.405350e+001
9.608599e+002, 6.377543e+001
9.613420e+002, 6.239415e+001
9.618242e+002, 6.181393e+001
9.623063e+002, 6.227455e+001
9.627884e+002, 6.301345e+001
9.632705e+002, 6.420686e+001
9.637526e+002, 6.501609e+001
9.642347e+002, 6.433463e+001
9.647169e+002, 6.242406e+001
9.651990e+002, 6.120629e+001
9.656811e+002, 6.098395e+001
9.661632e+002, 6.101135e+001
9.666453e+002, 6.153839e+001
9.671274e+002, 6.202723e+001
9.676096e+002, 6.227364e+001
9.680917e+002, 6.234431e+001
9.685738e+002, 6.230904e+001
9.690559e+002, 6.217908e+001
9.695380e+002, 6.200892e+001
9.700201e+002, 6.163417e+001
9.705023e+002, 6.145608e+001
9.709844e+002, 6.195241e+001
9.714665e+002, 6.239673e+001
9.719486e+002, 6.194614e+001
9.724307e+002, 6.106189e+001
9.729128e+002, 6.082710e+001
9.733950e+002, 6.150868e+001
9.738771e+002, 6.207887e+001
9.743592e+002, 6.169554e+001
9.748413e+002, 6.117668e+001
9.753234e+002, 6.152691e+001
9.758055e+002, 6.204823e+001
9.762877e+002, 6.137205e+001
9.767698e+002, 5.978458e+001
9.772519e+002, 5.888377e+001
9.777340e+002, 5.943068e+001
9.782161e+002, 6.043761e+001
9.786982e+002, 6.102973e+001
9.791804e+002, 6.124848e+001
9.796625e+002, 6.090422e+001
9.801446e+002, 6.025027e+001
9.806267e+002, 6.022325e+001
9.811088e+002, 6.095808e+001
9.815909e+002, 6.175686e+001
9.820731e+002, 6.216371e+001
9.825552e+002, 6.222338e+001
9.830373e+002, 6.180510e+001
9.835194e+002, 6.104693e+001
9.840015e+002, 6.112800e+001
9.844836e+002, 6.207676e+001
9.849658e+002, 6.260393e+001
9.854479e+002, 6.227038e+001
9.859300e+002, 6.171317e+001
9.864121e+002, 6.150590e+001
9.868942e+002, 6.156273e+001
9.873763e+002, 6.155153e+001
9.878585e+002, 6.142454e+001
9.883406e+002, 6.162471e+001
9.888227e+002, 6.236572e+001
9.893048e+002, 6.272482e+001
9.897869e+002, 6.211589e+001
9.902690e+002, 6.135238e+001
9.907512e+002, 6.150791e+001
9.912333e+002, 6.246608e+001
9.917154e+002, 6.272285e+001
9.921975e+002, 6.179566e+001
9.926796e+002, 6.120613e+001
9.931617e+002, 6.148754e+001
9.936439e+002, 6.151638e+001
9.941260e+002, 6.036778e+001
9.946081e+002, 5.888737e+001
9.950902e+002, 5.828754e+001
9.955723e+002, 5.859031e+001
9.960544e+002, 5.906794e+001
9.965366e+002, 6.016001e+001
9.970187e+002, 6.075892e+001
9.975008e+002, 6.037672e+001
9.979829e+002, 5.976831e+001
9.984650e+002, 5.925920e+001
9.989471e+002, 5.889318e+001
9.994293e+002, 5.865255e+001
9.999114e+002, 5.852176e+001
1.000393e+003, 5.879768e+001
1.000876e+003, 6.010338e+001
1.001358e+003, 6.114170e+001
1.001840e+003, 6.118166e+001
1.002322e+003, 6.087336e+001
1.002804e+003, 6.084463e+001
1.003286e+003, 6.094652e+001
1.003768e+003, 6.057691e+001
1.004250e+003, 5.952761e+001
1.004733e+003, 5.887222e+001
1.005215e+003, 5.971893e+001
1.005697e+003, 6.060340e+001
1.006179e+003, 6.012259e+001
1.006661e+003, 5.921819e+001
1.007143e+003, 5.941238e+001
1.007625e+003, 6.039711e+001
1.008107e+003, 6.048977e+001
1.008589e+003, 5.890755e+001
1.009072e+003, 5.744143e+001
1.009554e+003, 5.800493e+001
1.010036e+003, 5.917104e+001
1.010518e+003, 5.914842e+001
1.011000e+003, 5.843792e+001
1.011482e+003, 5.807806e+001
1.011964e+003, 5.822260e+001
1.012446e+003, 5.856900e+001
1.012929e+003, 5.897912e+001
1.013411e+003, 5.928410e+001
1.013893e+003, 5.917035e+001
1.014375e+003, 5.886213e+001
1.014857e+003, 5.900447e+001
1.015339e+003, 5.936367e+001
1.015821e+003, 5.887158e+001
1.016303e+003, 5.743291e+001
1.016785e+003, 5.633586e+001
1.017268e+003, 5.649097e+001
1.017750e+003, 5.725057e+001
1.018232e+003, 5.758703e+001
1.018714e+003, 5.761027e+001
1.019196e+003, 5.777507e+001
1.019678e+003, 5.808277e+001
1.020160e+003, 5.847002e+001
1.020642e+003, 5.891700e+001
1.021125e+003, 5.912736e+001
1.021607e+003, 5.883748e+001
1.022089e+003, 5.825281e+001
1.022571e+003, 5.778706e+001
1.023053e+003, 5.744213e+001
1.023535e+003, 5.730872e+001
1.024017e+003, 5.738905e+001
1.024499e+003, 5.778452e+001
1.024981e+003, 5.858493e+001
1.025464e+003, 5.930225e+001
1.025946e+003, 5.950333e+001
1.026428e+003, 5.925946e+001
1.026910e+003, 5.863091e+001
1.027392e+003, 5.749256e+001
1.027874e+003, 5.734014e+001
1.028356e+003, 5.850725e+001
1.028838e+003, 5.923878e+001
1.029321e+003, 5.881999e+001
1.029803e+003, 5.806727e+001
1.030285e+003, 5.774225e+001
1.030767e+003, 5.777492e+001
1.031249e+003, 5.788469e+001
1.031731e+003, 5.815590e+001
1.032213e+003, 5.815696e+001
1.032695e+003, 5.776543e+001
1.033177e+003, 5.734849e+001
1.033660e+003, 5.685662e+001
1.034142e+003, 5.672034e+001
1.034624e+003, 5.758132e+001
1.035106e+003, 5.919842e+001
1.035588e+003, 6.003396e+001
1.036070e+003, 5.991146e+001
1.036552e+003, 5.938803e+001
1.037034e+003, 5.807183e+001
1.037516e+003, 5.704536e+001
1.037999e+003, 5.672892e+001
1.038481e+003, 5.688161e+001
1.038963e+003, 5.744928e+001
1.039445e+003, 5.832265e+001
1.039927e+003, 5.863823e+001
1.040409e+003, 5.783370e+001
1.040891e+003, 5.746646e+001
1.041373e+003, 5.784380e+001
1.041855e+003, 5.827650e+001
1.042338e+003, 5.868461e+001
1.042820e+003, 5.890281e+001
1.043302e+003, 5.864400e+001
1.043784e+003, 5.798749e+001
1.044266e+003, 5.753970e+001
1.044748e+003, 5.742753e+001
1.045230e+003, 5.734286e+001
1.045712e+003, 5.729471e+001
1.046195e+003, 5.724348e+001
1.046677e+003, 5.695750e+001
1.047159e+003, 5.681345e+001
1.047641e+003, 5.763778e+001
1.048123e+003, 5.914076e+001
1.048605e+003, 5.929255e+001
1.049087e+003, 5.644507e+001
1.049569e+003, 5.484916e+001
1.050052e+003, 5.619417e+001
1.050534e+003, 5.763735e+001
1.051016e+003, 5.814553e+001
1.051498e+003, 5.789288e+001
1.051980e+003, 5.670773e+001
1.052462e+003, 5.488477e+001
1.052944e+003, 5.389593e+001
1.053426e+003, 5.410538e+001
1.053908e+003, 5.494055e+001
1.054391e+003, 5.737098e+001
1.054873e+003, 5.912995e+001
1.055355e+003, 5.842014e+001
1.055837e+003, 5.687807e+001
1.056319e+003, 5.640765e+001
1.056801e+003, 5.696051e+001
1.057283e+003, 5.735798e+001
1.057765e+003, 5.736594e+001
1.058248e+003, 5.710550e+001
1.058730e+003, 5.629504e+001
1.059212e+003, 5.558511e+001
1.059694e+003, 5.532635e+001
1.060176e+003, 5.537360e+001
1.060658e+003, 5.573938e+001
1.061140e+003, 5.625315e+001
1.061622e+003, 5.623598e+001
1.062104e+003, 5.508355e+001
1.062587e+003, 5.460236e+001
1.063069e+003, 5.639943e+001
1.063551e+003, 5.796444e+001
1.064033e+003, 5.741284e+001
1.064515e+003, 5.612464e+001
1.064997e+003, 5.577201e+001
1.065479e+003, 5.626582e+001
1.065961e+003, 5.650821e+001
1.066443e+003, 5.607353e+001
1.066926e+003, 5.577440e+001
1.067408e+003, 5.616640e+001
1.067890e+003, 5.653315e+001
1.068372e+003, 5.629734e+001
1.068854e+003, 5.591128e+001
1.069336e+003, 5.592986e+001
1.069818e+003, 5.629287e+001
1.070300e+003, 5.662274e+001
1.070782e+003, 5.683451e+001
1.071265e+003, 5.689623e+001
1.071747e+003, 5.658603e+001
1.072229e+003, 5.636345e+001
1.072711e+003, 5.665456e+001
1.073193e+003, 5.706654e+001
1.073675e+003, 5.724686e+001
1.074157e+003, 5.714528e+001
1.074639e+003, 5.666828e+001
1.075122e+003, 5.569334e+001
1.075604e+003, 5.511110e+001
1.076086e+003, 5.586495e+001
1.076568e+003, 5.649266e+001
1.077050e+003, 5.584194e+001
1.077532e+003, 5.486840e+001
1.078014e+003, 5.460045e+001
1.078496e+003, 5.487796e+001
1.078979e+003, 5.503536e+001
1.079461e+003, 5.489357e+001
1.079943e+003, 5.479129e+001
1.080425e+003, 5.512997e+001
1.080907e+003, 5.524594e+001
1.081389e+003, 5.417490e+001
1.081871e+003, 5.321989e+001
1.082353e+003, 5.401936e+001
1.082835e+003, 5.581715e+001
1.083318e+003, 5.683280e+001
1.083800e+003, 5.666656e+001
1.084282e+003, 5.625957e+001
1.084764e+003, 5.600184e+001
1.085246e+003, 5.561796e+001
1.085728e+003, 5.457206e+001
1.086210e+003, 5.370730e+001
1.086692e+003, 5.417235e+001
1.087175e+003, 5.518711e+001
1.087657e+003, 5.509594e+001
1.088139e+003, 5.370473e+001
1.088621e+003, 5.281003e+001
1.089103e+003, 5.365307e+001
1.089585e+003, 5.439283e+001
1.090067e+003, 5.381864e+001
1.090549e+003, 5.325353e+001
1.091031e+003, 5.410289e+001
1.091514e+003, 5.543622e+001
1.091996e+003, 5.566087e+001
1.092478e+003, 5.469751e+001
1.092960e+003, 5.386724e+001
1.093442e+003, 5.355573e+001
1.093924e+003, 5.354095e+001
1.094406e+003, 5.397368e+001
1.094888e+003, 5.442252e+001
1.095370e+003, 5.461082e+001
1.095853e+003, 5.464543e+001
1.096335e+003, 5.466465e+001
1.096817e+003, 5.468363e+001
1.097299e+003, 5.466493e+001
1.097781e+003, 5.455708e+001
1.098263e+003, 5.452033e+001
1.098745e+003, 5.478857e+001
1.099227e+003, 5.492551e+001
1.099709e+003, 5.438900e+001
1.100192e+003, 5.384397e+001
1.100674e+003, 5.430970e+001
1.101156e+003, 5.539566e+001
1.101638e+003, 5.551610e+001
1.102120e+003, 5.395063e+001
1.102602e+003, 5.303359e+001
1.103084e+003, 5.396037e+001
1.103566e+003, 5.482851e+001
1.104049e+003, 5.489980e+001
1.104531e+003, 5.458914e+001
1.105013e+003, 5.410755e+001
1.105495e+003, 5.358088e+001
1.105977e+003, 5.323009e+001
1.106459e+003, 5.309285e+001
1.106941e+003, 5.304302e+001
1.107423e+003, 5.303325e+001
1.107906e+003, 5.314581e+001
1.108388e+003, 5.349343e+001
1.108870e+003, 5.387730e+001
1.109352e+003, 5.420118e+001
1.109834e+003, 5.445799e+001
1.110316e+003, 5.471117e+001
1.110798e+003, 5.498301e+001
1.111280e+003, 5.483622e+001
1.111762e+003, 5.358948e+001
1.112245e+003, 5.290059e+001
1.112727e+003, 5.344967e+001
1.113209e+003, 5.404848e+001
1.113691e+003, 5.422632e+001
1.114173e+003, 5.406875e+001
1.114655e+003, 5.348725e+001
1.115137e+003, 5.255328e+001
1.115619e+003, 5.222229e+001
1.116102e+003, 5.296033e+001
1.116584e+003, 5.347982e+001
1.117066e+003, 5.369168e+001
1.117548e+003, 5.378656e+001
1.118030e+003, 5.375055e+001
1.118512e+003, 5.371313e+001
1.118994e+003, 5.386125e+001
1.119476e+003, 5.410215e+001
1.119958e+003, 5.403497e+001
1.120441e+003, 5.348222e+001
1.120923e+003, 5.320172e+001
1.121405e+003, 5.334043e+001
1.121887e+003, 5.346109e+001
1.122369e+003, 5.361830e+001
1.122851e+003, 5.337004e+001
1.123333e+003, 5.206734e+001
1.123815e+003, 5.047223e+001
1.124297e+003, 5.040739e+001
1.124780e+003, 5.205455e+001
1.125262e+003, 5.282910e+001
1.125744e+003, 5.245709e+001
1.126226e+003, 5.220628e+001
1.126708e+003, 5.230185e+001
1.127190e+003, 5.254688e+001
1.127672e+003, 5.293190e+001
1.128154e+003, 5.313964e+001
1.128636e+003, 5.261151e+001
1.129119e+003, 5.148669e+001
1.129601e+003, 5.094783e+001
1.130083e+003, 5.102281e+001
1.130565e+003, 5.143356e+001
1.131047e+003, 5.221102e+001
1.131529e+003, 5.283286e+001
1.132011e+003, 5.312780e+001
1.132493e+003, 5.280323e+001
1.132976e+003, 5.133977e+001
1.133458e+003, 4.949832e+001
1.133940e+003, 4.983593e+001
1.134422e+003, 5.210846e+001
1.134904e+003, 5.314794e+001
1.135386e+003, 5.285994e+001
1.135868e+003, 5.232524e+001
1.136350e+003, 5.184369e+001
1.136833e+003, 5.139212e+001
1.137315e+003, 5.096358e+001
1.137797e+003, 5.047664e+001
1.138279e+003, 4.939269e+001
1.138761e+003, 4.821690e+001
1.139243e+003, 4.924748e+001
1.139725e+003, 5.183965e+001
1.140207e+003, 5.313630e+001
1.140689e+003, 5.281573e+001
1.141172e+003, 5.228014e+001
1.141654e+003, 5.219930e+001
1.142136e+003, 5.216037e+001
1.142618e+003, 5.155244e+001
1.143100e+003, 5.089992e+001
1.143582e+003, 5.144743e+001
1.144064e+003, 5.247150e+001
1.144546e+003, 5.223110e+001
1.145029e+003, 5.104189e+001
1.145511e+003, 5.038483e+001
1.145993e+003, 5.066669e+001
1.146475e+003, 5.124933e+001
1.146957e+003, 5.179917e+001
1.147439e+003, 5.221702e+001
1.147921e+003, 5.246411e+001
1.148403e+003, 5.247479e+001
1.148885e+003, 5.189223e+001
1.149368e+003, 5.114784e+001
1.149850e+003, 5.115092e+001
1.150332e+003, 5.179716e+001
1.150814e+003, 5.203449e+001
1.151296e+003, 5.135073e+001
1.151778e+003, 5.071415e+001
1.152260e+003, 5.063002e+001
1.152742e+003, 5.088012e+001
1.153224e+003, 5.187742e+001
1.153707e+003, 5.267582e+001
1.154189e+003, 5.178342e+001
1.154671e+003, 5.001843e+001
1.155153e+003, 4.953369e+001
1.155635e+003, 5.077672e+001
1.156117e+003, 5.162596e+001
1.156599e+003, 5.080460e+001
1.157081e+003, 5.036024e+001
1.157563e+003, 5.135935e+001
1.158046e+003, 5.245510e+001
1.158528e+003, 5.294023e+001
1.159010e+003, 5.293854e+001
1.159492e+003, 5.246712e+001
1.159974e+003, 5.163999e+001
1.160456e+003, 5.125407e+001
1.160938e+003, 5.171819e+001
1.161420e+003, 5.195421e+001
1.161903e+003, 5.172766e+001
1.162385e+003, 5.155219e+001
1.162867e+003, 5.181060e+001
1.163349e+003, 5.186473e+001
1.163831e+003, 5.096733e+001
1.164313e+003, 4.964335e+001
1.164795e+003, 4.921449e+001
1.165277e+003, 4.979113e+001
1.165760e+003, 5.034801e+001
1.166242e+003, 5.091474e+001
1.166724e+003, 5.135124e+001
1.167206e+003, 5.158700e+001
1.167688e+003, 5.189753e+001
1.168170e+003, 5.254604e+001
1.168652e+003, 5.295554e+001
1.169134e+003, 5.226416e+001
1.169616e+003, 5.080003e+001
1.170099e+003, 5.018486e+001
1.170581e+003, 5.043046e+001
1.171063e+003, 5.045192e+001
1.171545e+003, 5.017982e+001
1.172027e+003, 5.011100e+001
1.172509e+003, 5.039772e+001
1.172991e+003, 5.091827e+001
1.173473e+003, 5.162722e+001
1.173956e+003, 5.224132e+001
1.174438e+003, 5.216101e+001
1.174920e+003, 5.161448e+001
1.175402e+003, 5.126007e+001
1.175884e+003, 5.111224e+001
1.176366e+003, 5.132608e+001
1.176848e+003, 5.180449e+001
1.177330e+003, 5.191497e+001
1.177813e+003, 5.141182e+001
1.178295e+003, 5.103689e+001
1.178777e+003, 5.171473e+001
1.179259e+003, 5.247048e+001
1.179741e+003, 5.182471e+001
1.180223e+003, 5.067061e+001
1.180705e+003, 5.015543e+001
1.181187e+003, 5.024074e+001
1.181669e+003, 5.093171e+001
1.182151e+003, 5.195704e+001
1.182634e+003, 5.213900e+001
1.183116e+003, 5.064877e+001
1.183598e+003, 4.936208e+001
1.184080e+003, 4.960926e+001
1.184562e+003, 5.016292e+001
1.185044e+003, 5.026778e+001
1.185526e+003, 5.020449e+001
1.186008e+003, 5.021829e+001
1.186490e+003, 5.035777e+001
1.186973e+003, 5.071188e+001
1.187455e+003, 5.131514e+001
1.187937e+003, 5.172588e+001
1.188419e+003, 5.186216e+001
1.188901e+003, 5.179380e+001
1.189383e+003, 5.132362e+001
1.189865e+003, 5.089865e+001
1.190347e+003, 5.084614e+001
1.190830e+003, 5.086844e+001
1.191312e+003, 5.052205e+001
1.191794e+003, 4.996518e+001
1.192276e+003, 5.002654e+001
1.192758e+003, 5.101832e+001
1.193240e+003, 5.155421e+001
1.193722e+003, 5.150893e+001
1.194204e+003, 5.136027e+001
1.194687e+003, 5.118416e+001
1.195169e+003, 5.103112e+001
1.195651e+003, 5.093287e+001
1.196133e+003, 5.087703e+001
1.196615e+003, 5.085360e+001
1.197097e+003, 5.085058e+001
1.197579e+003, 5.071540e+001
1.198061e+003, 5.047322e+001
1.198543e+003, 5.077487e+001
1.199026e+003, 5.161847e+001
1.199508e+003, 5.194713e+001
1.199990e+003, 5.143159e+001
1.200472e+003, 5.094090e+001
1.200954e+003, 5.120603e+001
1.201436e+003, 5.166762e+001
1.201918e+003, 5.138819e+001
1.202400e+003, 5.074665e+001
1.202883e+003, 5.046911e+001
1.203365e+003, 5.047288e+001
1.203847e+003, 5.063004e+001
1.204329e+003, 5.081610e+001
1.204811e+003, 5.066432e+001
1.205293e+003, 5.006191e+001
1.205775e+003, 4.964553e+001
1.206257e+003, 4.988887e+001
1.206740e+003, 5.042001e+001
1.207222e+003, 5.127332e+001
1.207704e+003, 5.199816e+001
1.208186e+003, 5.221613e+001
1.208668e+003, 5.201084e+001
1.209150e+003, 5.133443e+001
1.209632e+003, 5.037090e+001
1.210114e+003, 4.991063e+001
1.210596e+003, 5.042235e+001
1.211078e+003, 5.046538e+001
1.211561e+003, 4.900797e+001
1.212043e+003, 4.807421e+001
1.212525e+003, 4.857698e+001
1.213007e+003, 4.947540e+001
1.213489e+003, 5.025834e+001
1.213971e+003, 5.090461e+001
1.214453e+003, 5.145891e+001
1.214935e+003, 5.188888e+001
1.215417e+003, 5.150670e+001
1.215900e+003, 4.993317e+001
1.216382e+003, 4.901853e+001
1.216864e+003, 4.897657e+001
1.217346e+003, 4.911505e+001
1.217828e+003, 4.923978e+001
1.218310e+003, 4.942548e+001
1.218792e+003, 4.978778e+001
1.219274e+003, 5.001546e+001
1.219757e+003, 4.937030e+001
1.220239e+003, 4.811776e+001
1.220721e+003, 4.745504e+001
1.221203e+003, 4.735287e+001
1.221685e+003, 4.783121e+001
1.222167e+003, 4.876049e+001
1.222649e+003, 4.960149e+001
1.223131e+003, 5.013607e+001
1.223614e+003, 5.020980e+001
1.224096e+003, 4.956329e+001
1.224578e+003, 4.885053e+001
1.225060e+003, 4.874568e+001
1.225542e+003, 4.901958e+001
1.226024e+003, 4.957562e+001
1.226506e+003, 5.021247e+001
1.226988e+003, 5.068299e+001
1.227470e+003, 5.096328e+001
1.227953e+003, 5.110807e+001
1.228435e+003, 5.112997e+001
1.228917e+003, 5.103077e+001
1.229399e+003, 5.058855e+001
1.229881e+003, 5.034623e+001
1.230363e+003, 5.087460e+001
1.230845e+003, 5.120240e+001
1.231327e+003, 5.055558e+001
1.231810e+003, 4.955011e+001
1.232292e+003, 4.888839e+001
1.232774e+003, 4.851147e+001
1.233256e+003, 4.811988e+001
1.233738e+003, 4.756948e+001
1.234220e+003, 4.770227e+001
1.234702e+003, 4.884662e+001
1.235184e+003, 4.956782e+001
1.235667e+003, 4.950364e+001
1.236149e+003, 4.937104e+001
1.236631e+003, 4.951674e+001
1.237113e+003, 4.990496e+001
1.237595e+003, 5.062281e+001
1.238077e+003, 5.131962e+001
1.238559e+003, 5.071825e+001
1.239041e+003, 4.913363e+001
1.239523e+003, 4.821469e+001
1.240005e+003, 4.789127e+001
1.240488e+003, 4.731020e+001
1.240970e+003, 4.641859e+001
1.241452e+003, 4.607090e+001
1.241934e+003, 4.669001e+001
1.242416e+003, 4.773597e+001
1.242898e+003, 4.926262e+001
1.243380e+003, 5.034265e+001
1.243862e+003, 4.945351e+001
1.244344e+003, 4.812291e+001
1.244827e+003, 4.842256e+001
1.245309e+003, 4.937884e+001
1.245791e+003, 4.882846e+001
1.246273e+003, 4.694076e+001
1.246755e+003, 4.611132e+001
1.247237e+003, 4.726337e+001
1.247719e+003, 4.838823e+001
1.248201e+003, 4.926235e+001
1.248684e+003, 4.973283e+001
1.249166e+003, 4.922581e+001
1.249648e+003, 4.892646e+001
1.250130e+003, 4.983219e+001
1.250612e+003, 5.096540e+001
1.251094e+003, 5.085859e+001
1.251576e+003, 4.980724e+001
1.252058e+003, 4.992598e+001
1.252541e+003, 5.156283e+001
1.253023e+003, 5.163753e+001
1.253505e+003, 4.990974e+001
1.253987e+003, 4.847664e+001
1.254469e+003, 4.781842e+001
1.254951e+003, 4.783815e+001
1.255433e+003, 4.851717e+001
1.255915e+003, 4.917651e+001
1.256397e+003, 4.884838e+001
1.256880e+003, 4.814210e+001
1.257362e+003, 4.837915e+001
1.257844e+003, 4.906008e+001
1.258326e+003, 4.911505e+001
1.258808e+003, 4.877847e+001
1.259290e+003, 4.889015e+001
1.259772e+003, 4.945325e+001
1.260254e+003, 4.969958e+001
1.260737e+003, 4.929140e+001
1.261219e+003, 4.876294e+001
1.261701e+003, 4.831726e+001
1.262183e+003, 4.792663e+001
1.262665e+003, 4.745424e+001
1.263147e+003, 4.716015e+001
1.263629e+003, 4.740478e+001
1.264111e+003, 4.783398e+001
1.264594e+003, 4.800826e+001
1.265076e+003, 4.790935e+001
1.265558e+003, 4.749004e+001
1.266040e+003, 4.649964e+001
1.266522e+003, 4.612388e+001
1.267004e+003, 4.649968e+001
1.267486e+003, 4.698801e+001
1.267968e+003, 4.743682e+001
1.268450e+003, 4.824711e+001
1.268932e+003, 4.971450e+001
1.269415e+003, 5.104610e+001
1.269897e+003, 5.138755e+001
1.270379e+003, 5.087372e+001
1.270861e+003, 4.923251e+001
1.271343e+003, 4.720203e+001
1.271825e+003, 4.751616e+001
1.272307e+003, 4.935566e+001
1.272789e+003, 5.001725e+001
1.273271e+003, 4.927148e+001
1.273754e+003, 4.822144e+001
1.274236e+003, 4.731586e+001
1.274718e+003, 4.713717e+001
1.275200e+003, 4.872822e+001
1.275682e+003, 5.015749e+001
1.276164e+003, 5.051940e+001
1.276646e+003, 5.004240e+001
1.277128e+003, 4.798195e+001
1.277611e+003, 4.588233e+001
1.278093e+003, 4.573109e+001
1.278575e+003, 4.700979e+001
1.279057e+003, 4.778746e+001
1.279539e+003, 4.795824e+001
1.280021e+003, 4.796657e+001
1.280503e+003, 4.770609e+001
1.280985e+003, 4.757316e+001
1.281468e+003, 4.766752e+001
1.281950e+003, 4.771765e+001
1.282432e+003, 4.762038e+001
1.282914e+003, 4.743571e+001
1.283396e+003, 4.718026e+001
1.283878e+003, 4.701573e+001
1.284360e+003, 4.734693e+001
1.284842e+003, 4.794569e+001
1.285324e+003, 4.817524e+001
##END=



