##NAMES=Inderborite
##RRUFFID=R060871
##IDEAL CHEMISTRY=CaMg[B_3_O_3_(OH)_5_]_2_&#183;6H_2_O
##LOCALITY=TL, Inder, Kazakhstan
##OWNER=RRUFF
##SOURCE=Michael Scott
##DESCRIPTION=Colorless well-formed prismatic crystals
##STATUS=The identification of this mineral has been confirmed by single-crystal X-ray diffraction.
##URL=rruff.info/R060871
157.6862, 5117.045
158.1683, 5122.212
158.6504, 5127.237
159.1325, 5123.593
159.6146, 5113.876
160.0968, 5112.079
160.5789, 5118.359
161.0610, 5131.972
161.5431, 5155.366
162.0252, 5187.625
162.5073, 5220.553
162.9895, 5250.515
163.4716, 5276.344
163.9537, 5296.107
164.4358, 5301.177
164.9179, 5306.211
165.4000, 5328.352
165.8822, 5367.324
166.3643, 5398.368
166.8464, 5402.199
167.3285, 5384.657
167.8106, 5367.972
168.2927, 5357.834
168.7749, 5347.247
169.2570, 5329.228
169.7391, 5303.578
170.2212, 5275.078
170.7033, 5245.710
171.1854, 5215.800
171.6676, 5185.896
172.1497, 5152.411
172.6318, 5121.277
173.1139, 5100.651
173.5960, 5091.555
174.0781, 5083.980
174.5603, 5069.920
175.0424, 5052.827
175.5245, 5040.098
176.0066, 5034.091
176.4887, 5032.766
176.9708, 5035.813
177.4530, 5044.555
177.9351, 5049.928
178.4172, 5042.018
178.8993, 5026.848
179.3814, 5015.071
179.8635, 5011.478
180.3457, 5011.420
180.8278, 5007.579
181.3099, 4998.519
181.7920, 4992.102
182.2741, 4994.305
182.7562, 5002.422
183.2384, 5013.539
183.7205, 5029.894
184.2026, 5046.969
184.6847, 5057.243
185.1668, 5058.896
185.6489, 5060.668
186.1311, 5070.103
186.6132, 5082.730
187.0953, 5091.698
187.5774, 5090.124
188.0595, 5086.910
188.5416, 5097.267
189.0238, 5124.460
189.5059, 5152.721
189.9880, 5177.165
190.4701, 5196.506
190.9522, 5206.543
191.4343, 5199.187
191.9165, 5187.143
192.3986, 5191.953
192.8807, 5218.154
193.3628, 5243.742
193.8449, 5254.573
194.3270, 5258.205
194.8092, 5263.417
195.2913, 5273.047
195.7734, 5285.490
196.2555, 5298.841
196.7376, 5313.534
197.2197, 5327.601
197.7019, 5336.622
198.1840, 5345.413
198.6661, 5360.077
199.1482, 5383.405
199.6303, 5412.289
200.1124, 5443.174
200.5946, 5476.665
201.0767, 5509.609
201.5588, 5543.805
202.0409, 5575.417
202.5230, 5598.769
203.0051, 5608.813
203.4873, 5614.990
203.9694, 5631.291
204.4515, 5660.070
204.9336, 5685.269
205.4157, 5700.402
205.8978, 5707.514
206.3800, 5707.301
206.8621, 5698.932
207.3442, 5685.015
207.8263, 5669.420
208.3084, 5652.688
208.7905, 5629.586
209.2727, 5595.838
209.7548, 5555.140
210.2369, 5508.525
210.7190, 5452.573
211.2011, 5400.502
211.6832, 5372.184
212.1654, 5369.755
212.6475, 5358.531
213.1296, 5315.742
213.6117, 5263.995
214.0938, 5226.625
214.5760, 5208.001
215.0581, 5199.231
215.5402, 5195.345
216.0223, 5196.372
216.5044, 5193.580
216.9865, 5178.641
217.4687, 5162.953
217.9508, 5159.133
218.4329, 5169.860
218.9150, 5184.100
219.3971, 5194.065
219.8792, 5200.018
220.3614, 5203.964
220.8435, 5203.953
221.3256, 5204.599
221.8077, 5211.477
222.2898, 5225.481
222.7719, 5239.254
223.2541, 5248.215
223.7362, 5252.716
224.2183, 5253.555
224.7004, 5246.621
225.1825, 5241.461
225.6646, 5249.509
226.1468, 5271.058
226.6289, 5291.982
227.1110, 5304.008
227.5931, 5309.097
228.0752, 5313.355
228.5573, 5317.248
229.0395, 5321.548
229.5216, 5326.537
230.0037, 5332.161
230.4858, 5339.692
230.9679, 5352.002
231.4500, 5366.386
231.9322, 5374.284
232.4143, 5370.351
232.8964, 5370.523
233.3785, 5395.624
233.8606, 5440.947
234.3427, 5483.419
234.8249, 5515.795
235.3070, 5541.077
235.7891, 5561.252
236.2712, 5575.067
236.7533, 5591.790
237.2354, 5622.890
237.7176, 5665.154
238.1997, 5703.523
238.6818, 5731.235
239.1639, 5756.005
239.6460, 5787.627
240.1281, 5827.109
240.6103, 5866.262
241.0924, 5897.419
241.5745, 5922.839
242.0566, 5953.582
242.5387, 5994.249
243.0208, 6037.894
243.5030, 6080.928
243.9851, 6122.883
244.4672, 6161.093
244.9493, 6193.881
245.4314, 6220.927
245.9135, 6243.823
246.3957, 6258.729
246.8778, 6273.316
247.3599, 6292.538
247.8420, 6315.237
248.3241, 6337.946
248.8062, 6361.327
249.2884, 6381.382
249.7705, 6384.548
250.2526, 6360.439
250.7347, 6335.646
251.2168, 6322.412
251.6989, 6314.951
252.1811, 6302.518
252.6632, 6281.287
253.1453, 6250.831
253.6274, 6207.389
254.1095, 6137.801
254.5916, 6080.063
255.0738, 6052.966
255.5559, 6038.080
256.0380, 6006.392
256.5201, 5948.083
257.0022, 5884.800
257.4843, 5853.444
257.9665, 5879.419
258.4486, 5887.926
258.9307, 5867.088
259.4128, 5833.671
259.8949, 5801.104
260.3770, 5772.472
260.8592, 5745.473
261.3413, 5716.841
261.8234, 5684.828
262.3055, 5657.685
262.7876, 5636.810
263.2697, 5619.003
263.7519, 5605.277
264.2340, 5593.899
264.7161, 5578.279
265.1982, 5550.625
265.6803, 5507.879
266.1624, 5482.388
266.6446, 5483.874
267.1267, 5490.301
267.6088, 5499.355
268.0909, 5506.941
268.5730, 5504.800
269.0551, 5485.316
269.5373, 5451.310
270.0194, 5432.616
270.5015, 5442.233
270.9836, 5454.909
271.4657, 5470.928
271.9478, 5486.501
272.4300, 5496.375
272.9121, 5497.651
273.3942, 5493.050
273.8763, 5490.843
274.3584, 5493.683
274.8405, 5494.563
275.3227, 5494.084
275.8048, 5490.628
276.2869, 5480.839
276.7690, 5463.749
277.2511, 5445.213
277.7332, 5434.308
278.2154, 5431.735
278.6975, 5434.836
279.1796, 5448.651
279.6617, 5464.030
280.1438, 5475.579
280.6259, 5482.504
281.1081, 5487.214
281.5902, 5494.315
282.0723, 5504.527
282.5544, 5503.638
283.0365, 5476.126
283.5186, 5451.671
284.0008, 5446.895
284.4829, 5459.683
284.9650, 5478.590
285.4471, 5502.316
285.9292, 5527.357
286.4113, 5536.280
286.8935, 5521.337
287.3756, 5504.454
287.8577, 5497.551
288.3398, 5498.188
288.8219, 5502.114
289.3040, 5509.813
289.7862, 5518.697
290.2683, 5525.870
290.7504, 5531.767
291.2325, 5533.013
291.7146, 5523.000
292.1967, 5508.697
292.6789, 5501.647
293.1610, 5504.745
293.6431, 5513.491
294.1252, 5527.116
294.6073, 5544.574
295.0894, 5558.835
295.5716, 5566.101
296.0537, 5569.662
296.5358, 5575.085
297.0179, 5581.327
297.5000, 5591.608
297.9821, 5607.275
298.4643, 5627.660
298.9464, 5653.624
299.4285, 5686.348
299.9106, 5718.821
300.3927, 5741.209
300.8748, 5751.411
301.3570, 5761.014
301.8391, 5765.983
302.3212, 5773.963
302.8033, 5795.721
303.2854, 5831.014
303.7675, 5864.485
304.2497, 5880.385
304.7318, 5876.177
305.2139, 5889.725
305.6960, 5934.087
306.1781, 5980.868
306.6602, 6017.636
307.1424, 6046.180
307.6245, 6073.202
308.1066, 6102.517
308.5887, 6134.160
309.0708, 6168.361
309.5529, 6214.262
310.0351, 6251.861
310.5172, 6267.944
310.9993, 6278.545
311.4814, 6304.575
311.9635, 6353.846
312.4456, 6413.262
312.9278, 6456.084
313.4099, 6466.004
313.8920, 6494.039
314.3741, 6556.753
314.8562, 6625.530
315.3383, 6681.227
315.8205, 6721.977
316.3026, 6758.863
316.7847, 6804.833
317.2668, 6861.380
317.7489, 6911.085
318.2310, 6945.438
318.7132, 6982.085
319.1953, 7041.811
319.6774, 7110.958
320.1595, 7155.912
320.6416, 7148.850
321.1237, 7105.353
321.6059, 7069.127
322.0880, 7040.364
322.5701, 7017.454
323.0522, 7006.874
323.5343, 6999.110
324.0164, 6981.580
324.4986, 6949.175
324.9807, 6909.463
325.4628, 6872.165
325.9449, 6836.648
326.4270, 6790.238
326.9091, 6722.448
327.3913, 6647.271
327.8734, 6586.353
328.3555, 6542.013
328.8376, 6499.452
329.3197, 6452.067
329.8018, 6402.287
330.2840, 6354.008
330.7661, 6308.320
331.2482, 6263.111
331.7303, 6214.541
332.2124, 6161.915
332.6945, 6116.354
333.1767, 6080.584
333.6588, 6050.744
334.1409, 6024.713
334.6230, 6002.075
335.1051, 5982.306
335.5872, 5965.318
336.0694, 5950.849
336.5515, 5934.746
337.0336, 5904.795
337.5157, 5887.529
337.9979, 5899.547
338.4800, 5925.400
338.9621, 5941.097
339.4442, 5936.576
339.9263, 5922.765
340.4084, 5923.205
340.8906, 5949.385
341.3727, 5969.636
341.8548, 5975.327
342.3369, 5981.216
342.8190, 5999.522
343.3011, 6030.316
343.7833, 6062.839
344.2654, 6086.467
344.7475, 6100.724
345.2296, 6112.989
345.7117, 6115.360
346.1938, 6125.108
346.6760, 6155.521
347.1581, 6197.336
347.6402, 6232.572
348.1223, 6253.097
348.6044, 6260.450
349.0865, 6253.165
349.5687, 6224.859
350.0508, 6207.053
350.5329, 6221.568
351.0150, 6249.045
351.4971, 6270.957
351.9792, 6285.209
352.4614, 6291.265
352.9435, 6279.598
353.4256, 6257.116
353.9077, 6256.615
354.3898, 6295.712
354.8719, 6339.338
355.3541, 6338.077
355.8362, 6294.732
356.3183, 6254.974
356.8004, 6232.685
357.2825, 6216.797
357.7646, 6194.537
358.2468, 6165.740
358.7289, 6141.535
359.2110, 6130.914
359.6931, 6132.852
360.1752, 6131.532
360.6573, 6134.248
361.1395, 6126.442
361.6216, 6093.418
362.1037, 6049.014
362.5858, 6015.315
363.0679, 6001.608
363.5500, 6001.171
364.0322, 6000.892
364.5143, 6003.174
364.9964, 6001.102
365.4785, 5995.180
365.9606, 5985.124
366.4427, 5965.650
366.9249, 5939.703
367.4070, 5919.933
367.8891, 5920.041
368.3712, 5939.669
368.8533, 5956.054
369.3354, 5966.959
369.8176, 5977.401
370.2997, 5988.631
370.7818, 6000.708
371.2639, 6014.284
371.7460, 6030.977
372.2281, 6046.450
372.7103, 6051.137
373.1924, 6043.225
373.6745, 6043.416
374.1566, 6063.025
374.6387, 6090.288
375.1208, 6112.849
375.6030, 6130.422
376.0851, 6142.664
376.5672, 6144.628
377.0493, 6142.211
377.5314, 6148.949
378.0135, 6168.091
378.4957, 6186.424
378.9778, 6191.331
379.4599, 6182.316
379.9420, 6175.548
380.4241, 6182.882
380.9063, 6181.665
381.3884, 6150.036
381.8705, 6099.115
382.3526, 6059.827
382.8347, 6049.612
383.3168, 6054.968
383.7990, 6038.165
384.2811, 5972.784
384.7632, 5919.309
385.2453, 5877.210
385.7274, 5847.949
386.2095, 5842.973
386.6917, 5858.198
387.1738, 5866.505
387.6559, 5834.321
388.1380, 5757.368
388.6201, 5701.962
389.1022, 5676.792
389.5844, 5665.339
390.0665, 5670.263
390.5486, 5682.759
391.0307, 5687.306
391.5128, 5673.583
391.9949, 5655.197
392.4771, 5657.293
392.9592, 5682.533
393.4413, 5704.666
393.9234, 5716.150
394.4055, 5720.133
394.8876, 5718.320
395.3698, 5709.862
395.8519, 5705.938
396.3340, 5716.958
396.8161, 5734.881
397.2982, 5747.433
397.7803, 5753.269
398.2625, 5749.034
398.7446, 5729.118
399.2267, 5693.957
399.7088, 5664.260
400.1909, 5637.822
400.6730, 5618.700
401.1552, 5614.081
401.6373, 5617.364
402.1194, 5615.839
402.6015, 5604.065
403.0836, 5585.746
403.5657, 5568.652
404.0479, 5555.804
404.5300, 5538.350
405.0121, 5511.240
405.4942, 5484.306
405.9763, 5464.381
406.4584, 5450.843
406.9406, 5438.418
407.4227, 5421.244
407.9048, 5401.354
408.3869, 5394.455
408.8690, 5410.829
409.3511, 5421.384
409.8333, 5404.083
410.3154, 5380.685
410.7975, 5379.984
411.2796, 5413.853
411.7617, 5451.208
412.2438, 5456.896
412.7260, 5436.959
413.2081, 5430.586
413.6902, 5450.169
414.1723, 5477.264
414.6544, 5491.774
415.1365, 5495.108
415.6187, 5497.599
416.1008, 5498.438
416.5829, 5501.226
417.0650, 5510.732
417.5471, 5525.560
418.0292, 5539.762
418.5114, 5550.654
418.9935, 5557.432
419.4756, 5557.243
419.9577, 5537.125
420.4398, 5526.858
420.9219, 5529.917
421.4041, 5542.191
421.8862, 5565.723
422.3683, 5597.672
422.8504, 5624.130
423.3325, 5626.645
423.8146, 5604.069
424.2968, 5603.174
424.7789, 5651.513
425.2610, 5685.626
425.7431, 5667.039
426.2252, 5626.589
426.7073, 5614.023
427.1895, 5654.476
427.6716, 5705.403
428.1537, 5708.692
428.6358, 5666.634
429.1179, 5632.389
429.6000, 5620.319
430.0822, 5618.445
430.5643, 5614.823
431.0464, 5609.567
431.5285, 5603.304
432.0106, 5596.093
432.4927, 5588.029
432.9749, 5578.736
433.4570, 5568.527
433.9391, 5559.301
434.4212, 5552.869
434.9033, 5547.521
435.3854, 5536.306
435.8676, 5506.625
436.3497, 5487.691
436.8318, 5489.546
437.3139, 5498.223
437.7960, 5498.425
438.2781, 5489.345
438.7603, 5485.522
439.2424, 5508.247
439.7245, 5557.886
440.2066, 5569.928
440.6887, 5508.600
441.1708, 5458.174
441.6530, 5457.141
442.1351, 5480.645
442.6172, 5493.081
443.0993, 5480.488
443.5814, 5462.687
444.0635, 5462.984
444.5457, 5478.951
445.0278, 5490.938
445.5099, 5493.570
445.9920, 5492.850
446.4741, 5497.682
446.9562, 5507.359
447.4384, 5507.230
447.9205, 5487.605
448.4026, 5463.375
448.8847, 5442.720
449.3668, 5426.880
449.8489, 5419.238
450.3311, 5422.457
450.8132, 5431.347
451.2953, 5432.252
451.7774, 5416.381
452.2595, 5405.951
452.7416, 5404.583
453.2238, 5405.692
453.7059, 5407.325
454.1880, 5407.677
454.6701, 5402.549
455.1522, 5386.272
455.6343, 5362.319
456.1165, 5346.904
456.5986, 5339.691
457.0807, 5341.661
457.5628, 5362.881
458.0449, 5388.771
458.5270, 5407.050
459.0092, 5416.765
459.4913, 5412.994
459.9734, 5377.683
460.4555, 5328.831
460.9376, 5310.967
461.4197, 5332.854
461.9019, 5359.109
462.3840, 5359.154
462.8661, 5334.608
463.3482, 5320.407
463.8303, 5325.331
464.3124, 5329.875
464.7946, 5328.416
465.2767, 5322.250
465.7588, 5310.521
466.2409, 5293.736
466.7230, 5280.403
467.2051, 5284.857
467.6873, 5313.139
468.1694, 5330.239
468.6515, 5327.245
469.1336, 5321.633
469.6157, 5318.607
470.0978, 5317.549
470.5800, 5315.780
471.0621, 5310.485
471.5442, 5307.947
472.0263, 5320.919
472.5084, 5348.166
472.9905, 5365.997
473.4727, 5367.033
473.9548, 5358.415
474.4369, 5344.440
474.9190, 5325.271
475.4011, 5313.719
475.8832, 5316.384
476.3654, 5323.840
476.8475, 5328.437
477.3296, 5331.575
477.8117, 5339.967
478.2938, 5357.626
478.7759, 5379.479
479.2581, 5392.784
479.7402, 5390.425
480.2223, 5392.314
480.7044, 5401.176
481.1865, 5411.743
481.6686, 5418.610
482.1508, 5423.939
482.6329, 5436.198
483.1150, 5465.039
483.5971, 5501.130
484.0792, 5518.140
484.5613, 5511.887
485.0435, 5509.501
485.5256, 5521.143
486.0077, 5540.806
486.4898, 5559.001
486.9719, 5574.754
487.4540, 5597.338
487.9362, 5639.137
488.4183, 5684.247
488.9004, 5712.544
489.3825, 5724.380
489.8646, 5733.501
490.3467, 5748.057
490.8289, 5767.557
491.3110, 5790.302
491.7931, 5835.149
492.2752, 5857.104
492.7573, 5831.169
493.2394, 5798.656
493.7216, 5793.403
494.2037, 5816.851
494.6858, 5848.530
495.1679, 5873.630
495.6500, 5893.062
496.1321, 5910.642
496.6143, 5926.204
497.0964, 5940.322
497.5785, 5952.564
498.0606, 5963.749
498.5427, 5974.537
499.0248, 5984.788
499.5070, 5995.616
499.9891, 6008.227
500.4712, 6021.379
500.9533, 6034.379
501.4355, 6046.774
501.9176, 6054.959
502.3997, 6055.351
502.8818, 6049.872
503.3639, 6049.589
503.8460, 6071.626
504.3282, 6076.731
504.8103, 6044.438
505.2924, 6005.418
505.7745, 5988.943
506.2566, 5996.392
506.7387, 6005.769
507.2209, 5997.562
507.7030, 5975.024
508.1851, 5955.314
508.6672, 5940.654
509.1493, 5921.745
509.6314, 5885.476
510.1136, 5847.748
510.5957, 5832.922
511.0778, 5848.619
511.5599, 5857.659
512.0420, 5832.998
512.5241, 5796.794
513.0062, 5779.199
513.4883, 5782.166
513.9705, 5791.342
514.4526, 5797.966
514.9347, 5801.290
515.4168, 5797.149
515.8989, 5771.808
516.3810, 5757.635
516.8632, 5766.136
517.3453, 5779.754
517.8274, 5787.688
518.3095, 5787.040
518.7916, 5776.092
519.2737, 5747.923
519.7559, 5709.937
520.2380, 5685.703
520.7201, 5675.522
521.2022, 5679.359
521.6843, 5708.847
522.1664, 5744.480
522.6486, 5754.128
523.1307, 5731.727
523.6128, 5715.879
524.0949, 5724.455
524.5770, 5741.737
525.0591, 5756.328
525.5413, 5765.467
526.0234, 5763.137
526.5055, 5744.020
526.9876, 5715.170
527.4697, 5699.921
527.9518, 5710.050
528.4340, 5712.253
528.9161, 5693.684
529.3982, 5676.679
529.8803, 5678.482
530.3624, 5695.695
530.8445, 5711.315
531.3267, 5715.154
531.8088, 5711.902
532.2909, 5710.186
532.7730, 5709.946
533.2551, 5706.359
533.7372, 5697.931
534.2194, 5685.132
534.7015, 5663.732
535.1836, 5629.590
535.6657, 5617.565
536.1478, 5656.901
536.6299, 5695.521
537.1121, 5699.671
537.5942, 5677.304
538.0763, 5648.093
538.5584, 5620.754
539.0405, 5597.405
539.5226, 5583.743
540.0048, 5583.307
540.4869, 5576.830
540.9690, 5560.313
541.4511, 5540.806
541.9332, 5518.125
542.4153, 5495.592
542.8975, 5480.725
543.3796, 5478.298
543.8617, 5480.096
544.3438, 5486.496
544.8259, 5491.582
545.3080, 5472.615
545.7902, 5422.591
546.2723, 5373.391
546.7544, 5359.971
547.2365, 5384.385
547.7186, 5388.165
548.2007, 5354.911
548.6829, 5323.014
549.1650, 5303.691
549.6471, 5289.204
550.1292, 5266.917
550.6113, 5235.466
551.0934, 5210.702
551.5756, 5212.461
552.0577, 5236.036
552.5398, 5254.877
553.0219, 5269.820
553.5040, 5275.022
553.9861, 5257.821
554.4683, 5233.956
554.9504, 5234.726
555.4325, 5269.506
555.9146, 5300.307
556.3967, 5319.170
556.8788, 5326.224
557.3610, 5311.429
557.8431, 5282.260
558.3252, 5269.397
558.8073, 5294.600
559.2894, 5341.722
559.7715, 5358.791
560.2537, 5326.872
560.7358, 5311.392
561.2179, 5338.875
561.7000, 5368.510
562.1821, 5374.893
562.6642, 5363.421
563.1464, 5357.069
563.6285, 5369.146
564.1106, 5387.059
564.5927, 5400.191
565.0748, 5407.963
565.5569, 5404.838
566.0391, 5387.359
566.5212, 5370.587
567.0033, 5373.433
567.4854, 5399.073
567.9675, 5419.563
568.4496, 5439.083
568.9318, 5449.450
569.4139, 5434.127
569.8960, 5414.846
570.3781, 5424.128
570.8602, 5468.619
571.3423, 5514.284
571.8245, 5515.057
572.3066, 5484.520
572.7887, 5496.996
573.2708, 5565.125
573.7529, 5629.580
574.2350, 5662.112
574.7172, 5669.565
575.1993, 5665.203
575.6814, 5637.155
576.1635, 5629.656
576.6456, 5667.843
577.1277, 5718.585
577.6099, 5758.073
578.0920, 5784.761
578.5741, 5805.609
579.0562, 5824.792
579.5383, 5833.412
580.0204, 5845.110
580.5026, 5837.069
580.9847, 5829.952
581.4668, 5819.301
581.9489, 5817.482
582.4310, 5840.375
582.9132, 5878.497
583.3953, 5902.255
583.8774, 5897.735
584.3596, 5884.631
584.8417, 5875.766
585.3238, 5867.811
585.8059, 5851.919
586.2880, 5826.846
586.7701, 5804.483
587.2523, 5798.611
587.7344, 5807.696
588.2165, 5799.227
588.6986, 5753.471
589.1807, 5719.586
589.6628, 5715.862
590.1450, 5720.191
590.6271, 5714.102
591.1092, 5695.821
591.5913, 5674.556
592.0734, 5656.453
592.5555, 5638.453
593.0377, 5614.860
593.5198, 5586.310
594.0019, 5557.012
594.4840, 5527.178
594.9661, 5503.068
595.4482, 5496.699
595.9304, 5516.811
596.4125, 5521.386
596.8946, 5499.177
597.3767, 5475.723
597.8588, 5457.948
598.3409, 5445.952
598.8231, 5442.152
599.3052, 5447.219
599.7873, 5448.897
600.2694, 5429.313
600.7515, 5395.501
601.2336, 5375.987
601.7158, 5374.375
602.1979, 5373.847
602.6800, 5364.998
603.1621, 5350.864
603.6442, 5338.387
604.1263, 5322.411
604.6085, 5318.834
605.0906, 5341.922
605.5727, 5366.894
606.0548, 5376.670
606.5369, 5373.969
607.0190, 5369.630
607.5012, 5369.126
607.9833, 5369.763
608.4654, 5366.622
608.9475, 5359.724
609.4296, 5353.231
609.9117, 5345.221
610.3939, 5343.477
610.8760, 5356.894
611.3581, 5381.693
611.8402, 5401.655
612.3223, 5411.688
612.8044, 5423.668
613.2866, 5444.533
613.7687, 5466.750
614.2508, 5482.357
614.7329, 5491.310
615.2150, 5497.961
615.6971, 5504.554
616.1793, 5512.829
616.6614, 5527.996
617.1435, 5550.776
617.6256, 5576.968
618.1077, 5610.882
618.5898, 5641.315
619.0720, 5650.910
619.5541, 5646.290
620.0362, 5657.575
620.5183, 5700.512
621.0004, 5748.137
621.4825, 5790.396
621.9647, 5827.886
622.4468, 5861.942
622.9289, 5892.563
623.4110, 5916.844
623.8931, 5929.320
624.3752, 5935.167
624.8574, 5966.004
625.3395, 6034.600
625.8216, 6087.280
626.3037, 6094.917
626.7858, 6095.962
627.2679, 6130.810
627.7501, 6195.243
628.2322, 6246.433
628.7143, 6259.481
629.1964, 6270.068
629.6785, 6300.472
630.1606, 6345.317
630.6428, 6395.365
631.1249, 6447.875
631.6070, 6502.913
632.0891, 6561.181
632.5712, 6622.091
633.0533, 6677.163
633.5355, 6721.073
634.0176, 6772.056
634.4997, 6835.839
634.9818, 6908.933
635.4639, 6994.102
635.9460, 7089.904
636.4282, 7172.292
636.9103, 7220.702
637.3924, 7264.210
637.8745, 7332.268
638.3566, 7410.592
638.8387, 7462.619
639.3209, 7479.012
639.8030, 7495.472
640.2851, 7559.938
640.7672, 7670.126
641.2493, 7738.680
641.7314, 7751.291
642.2136, 7753.553
642.6957, 7757.376
643.1778, 7759.529
643.6599, 7761.445
644.1420, 7763.238
644.6241, 7744.695
645.1063, 7693.616
645.5884, 7624.925
646.0705, 7539.857
646.5526, 7447.877
647.0347, 7374.500
647.5168, 7326.596
647.9990, 7273.289
648.4811, 7171.909
648.9632, 7023.498
649.4453, 6905.688
649.9274, 6831.289
650.4095, 6757.071
650.8917, 6665.012
651.3738, 6568.207
651.8559, 6482.799
652.3380, 6409.750
652.8201, 6335.831
653.3022, 6249.877
653.7844, 6168.798
654.2665, 6111.155
654.7486, 6066.366
655.2307, 6012.005
655.7128, 5941.579
656.1949, 5869.458
656.6771, 5814.514
657.1592, 5774.676
657.6413, 5716.771
658.1234, 5631.879
658.6055, 5554.633
659.0876, 5493.541
659.5698, 5448.353
660.0519, 5422.057
660.5340, 5415.494
661.0161, 5403.044
661.4982, 5377.000
661.9803, 5346.190
662.4625, 5316.814
662.9446, 5286.016
663.4267, 5245.330
663.9088, 5194.213
664.3909, 5147.584
664.8730, 5123.501
665.3552, 5117.415
665.8373, 5104.176
666.3194, 5082.463
666.8015, 5060.916
667.2836, 5042.323
667.7657, 5025.315
668.2479, 5007.696
668.7300, 4989.327
669.2121, 4974.245
669.6942, 4962.780
670.1763, 4954.699
670.6584, 4951.055
671.1406, 4950.169
671.6227, 4955.532
672.1048, 4964.435
672.5869, 4958.845
673.0690, 4912.510
673.5511, 4847.356
674.0333, 4827.860
674.5154, 4854.535
674.9975, 4877.628
675.4796, 4882.387
675.9617, 4879.700
676.4438, 4882.354
676.9260, 4890.889
677.4081, 4888.052
677.8902, 4863.040
678.3723, 4841.534
678.8544, 4833.765
679.3365, 4828.918
679.8187, 4813.461
680.3008, 4789.233
680.7829, 4772.870
681.2650, 4780.012
681.7471, 4794.149
682.2292, 4787.257
682.7114, 4764.679
683.1935, 4755.237
683.6756, 4766.887
684.1577, 4774.669
684.6398, 4753.302
685.1219, 4707.571
685.6041, 4681.270
686.0862, 4685.696
686.5683, 4692.335
687.0504, 4706.525
687.5325, 4715.114
688.0146, 4704.393
688.4968, 4680.316
688.9789, 4662.459
689.4610, 4660.661
689.9431, 4662.509
690.4252, 4655.523
690.9073, 4645.774
691.3895, 4647.271
691.8716, 4660.250
692.3537, 4671.173
692.8358, 4671.164
693.3179, 4661.333
693.8000, 4641.569
694.2822, 4603.761
694.7643, 4585.430
695.2464, 4603.452
695.7285, 4623.636
696.2106, 4626.715
696.6927, 4618.185
697.1749, 4606.837
697.6570, 4589.646
698.1391, 4580.937
698.6212, 4601.430
699.1033, 4621.222
699.5854, 4601.438
700.0676, 4555.936
700.5497, 4531.117
701.0318, 4548.657
701.5139, 4579.774
701.9960, 4579.952
702.4781, 4551.750
702.9603, 4536.997
703.4424, 4540.142
703.9245, 4544.216
704.4066, 4541.525
704.8887, 4534.979
705.3708, 4530.392
705.8530, 4529.910
706.3351, 4523.131
706.8172, 4499.190
707.2993, 4480.397
707.7814, 4480.848
708.2635, 4490.417
708.7457, 4495.800
709.2278, 4493.906
709.7099, 4489.323
710.1920, 4484.875
710.6741, 4480.502
711.1563, 4476.269
711.6384, 4472.074
712.1205, 4466.257
712.6026, 4457.832
713.0847, 4452.205
713.5668, 4456.298
714.0490, 4469.783
714.5311, 4479.476
715.0132, 4484.266
715.4953, 4486.843
715.9774, 4488.255
716.4595, 4487.226
716.9417, 4478.354
717.4238, 4465.015
717.9059, 4462.535
718.3880, 4485.156
718.8701, 4507.567
719.3522, 4517.468
719.8344, 4515.708
720.3165, 4494.607
720.7986, 4459.982
721.2807, 4441.117
721.7628, 4459.648
722.2449, 4496.755
722.7271, 4509.300
723.2092, 4495.894
723.6913, 4484.153
724.1734, 4476.850
724.6555, 4472.374
725.1376, 4472.945
725.6198, 4474.646
726.1019, 4463.942
726.5840, 4428.119
727.0661, 4411.240
727.5482, 4436.387
728.0303, 4462.413
728.5125, 4464.127
728.9946, 4451.507
729.4767, 4443.058
729.9588, 4444.464
730.4409, 4447.732
730.9230, 4443.153
731.4052, 4450.936
731.8873, 4444.582
732.3694, 4463.009
732.8515, 4478.199
733.3336, 4484.841
733.8157, 4486.819
734.2979, 4488.445
734.7800, 4489.650
735.2621, 4492.958
735.7442, 4498.505
736.2263, 4505.750
736.7084, 4514.423
737.1906, 4524.970
737.6727, 4538.889
738.1548, 4555.445
738.6369, 4570.189
739.1190, 4579.799
739.6011, 4590.231
740.0833, 4607.771
740.5654, 4625.462
741.0475, 4629.224
741.5296, 4623.900
742.0117, 4633.386
742.4938, 4674.367
742.9760, 4727.466
743.4581, 4762.494
743.9402, 4781.158
744.4223, 4794.241
744.9044, 4802.427
745.3865, 4807.270
745.8687, 4805.092
746.3508, 4806.699
746.8329, 4839.578
747.3150, 4919.955
747.7971, 4987.413
748.2792, 5019.407
748.7614, 5064.173
749.2435, 5151.756
749.7256, 5253.651
750.2077, 5329.902
750.6898, 5374.306
751.1719, 5429.925
751.6541, 5511.350
752.1362, 5617.568
752.6183, 5763.904
753.1004, 5929.590
753.5825, 6073.082
754.0646, 6185.934
754.5468, 6294.709
755.0289, 6427.196
755.5110, 6566.758
755.9931, 6660.207
756.4752, 6706.527
756.9573, 6729.141
757.4395, 6734.751
757.9216, 6710.776
758.4037, 6645.129
758.8858, 6542.040
759.3679, 6421.484
759.8500, 6270.891
760.3322, 6121.156
760.8143, 5966.485
761.2964, 5819.690
761.7785, 5691.785
762.2606, 5574.287
762.7427, 5446.497
763.2249, 5299.908
763.7070, 5169.192
764.1891, 5082.504
764.6712, 5017.705
765.1533, 4953.156
765.6354, 4887.415
766.1176, 4818.783
766.5997, 4747.769
767.0818, 4683.239
767.5639, 4635.716
768.0460, 4603.883
768.5281, 4581.535
769.0103, 4570.060
769.4924, 4557.464
769.9745, 4540.586
770.4566, 4522.283
770.9387, 4506.526
771.4208, 4492.475
771.9030, 4470.899
772.3851, 4430.392
772.8672, 4399.070
773.3493, 4382.674
773.8314, 4372.783
774.3135, 4367.632
774.7957, 4364.145
775.2778, 4355.588
775.7599, 4338.076
776.2420, 4324.494
776.7241, 4333.316
777.2062, 4343.772
777.6884, 4320.373
778.1705, 4276.240
778.6526, 4257.711
779.1347, 4281.078
779.6168, 4313.210
780.0989, 4313.608
780.5811, 4288.135
781.0632, 4269.423
781.5453, 4257.938
782.0274, 4245.756
782.5095, 4228.378
782.9916, 4215.740
783.4738, 4219.117
783.9559, 4237.165
784.4380, 4251.665
784.9201, 4266.208
785.4022, 4271.461
785.8843, 4253.710
786.3665, 4239.090
786.8486, 4251.742
787.3307, 4278.124
787.8128, 4284.979
788.2949, 4258.221
788.7770, 4234.723
789.2592, 4240.474
789.7413, 4253.042
790.2234, 4247.477
790.7055, 4231.112
791.1876, 4226.057
791.6697, 4238.870
792.1519, 4252.413
792.6340, 4246.458
793.1161, 4228.401
793.5982, 4222.399
794.0803, 4227.616
794.5624, 4227.195
795.0446, 4215.810
795.5267, 4204.075
796.0088, 4201.343
796.4909, 4206.729
796.9730, 4216.568
797.4551, 4240.543
797.9373, 4246.610
798.4194, 4214.809
798.9015, 4184.271
799.3836, 4178.952
799.8657, 4188.319
800.3478, 4194.054
800.8300, 4195.509
801.3121, 4188.624
801.7942, 4161.020
802.2763, 4136.224
802.7584, 4135.243
803.2405, 4144.148
803.7227, 4138.478
804.2048, 4114.974
804.6869, 4095.615
805.1690, 4098.332
805.6511, 4112.405
806.1332, 4126.104
806.6154, 4138.309
807.0975, 4145.439
807.5796, 4146.905
808.0617, 4144.305
808.5438, 4138.752
809.0259, 4129.969
809.5081, 4115.822
809.9902, 4095.168
810.4723, 4079.109
810.9544, 4067.327
811.4365, 4063.148
811.9186, 4070.486
812.4008, 4084.445
812.8829, 4099.349
813.3650, 4118.906
813.8471, 4120.557
814.3292, 4088.053
814.8113, 4058.957
815.2935, 4044.534
815.7756, 4036.639
816.2577, 4026.131
816.7398, 4014.295
817.2219, 4010.939
817.7040, 4024.589
818.1862, 4039.294
818.6683, 4049.526
819.1504, 4052.833
819.6325, 4040.549
820.1146, 4018.743
820.5967, 4007.194
821.0789, 4015.072
821.5610, 4024.000
822.0431, 4006.217
822.5252, 3973.259
823.0073, 3959.531
823.4894, 3964.635
823.9716, 3979.458
824.4537, 4002.176
824.9358, 4018.814
825.4179, 4012.212
825.9000, 3987.172
826.3821, 3979.983
826.8643, 3995.773
827.3464, 4012.793
827.8285, 4033.267
828.3106, 4045.283
828.7927, 4033.091
829.2748, 4008.044
829.7570, 4003.973
830.2391, 4033.978
830.7212, 4049.706
831.2033, 4037.449
831.6854, 4021.822
832.1675, 4008.987
832.6497, 4001.490
833.1318, 4006.744
833.6139, 4023.225
834.0960, 4028.964
834.5781, 3998.499
835.0602, 3969.948
835.5424, 3973.734
836.0245, 3994.640
836.5066, 4017.034
836.9887, 4035.528
837.4708, 4042.881
837.9529, 4034.524
838.4351, 4019.190
838.9172, 4006.191
839.3993, 3996.077
839.8814, 3990.498
840.3635, 3989.558
840.8456, 3993.350
841.3278, 4002.112
841.8099, 4014.030
842.2920, 4027.335
842.7741, 4041.829
843.2562, 4057.314
843.7383, 4075.968
844.2205, 4085.468
844.7026, 4078.809
845.1847, 4071.611
845.6668, 4077.893
846.1489, 4091.806
846.6310, 4092.774
847.1132, 4066.105
847.5953, 4056.418
848.0774, 4071.411
848.5595, 4094.222
849.0416, 4126.719
849.5237, 4158.380
850.0059, 4176.189
850.4880, 4179.256
850.9701, 4178.797
851.4522, 4171.294
851.9343, 4169.936
852.4164, 4182.173
852.8986, 4204.026
853.3807, 4236.817
853.8628, 4274.975
854.3449, 4302.597
854.8270, 4311.107
855.3091, 4317.402
855.7913, 4335.715
856.2734, 4364.404
856.7555, 4405.989
857.2376, 4455.860
857.7197, 4497.066
858.2018, 4524.446
858.6840, 4544.874
859.1661, 4564.318
859.6482, 4583.300
860.1303, 4606.863
860.6124, 4634.842
861.0945, 4648.204
861.5767, 4641.982
862.0588, 4633.846
862.5409, 4635.783
863.0230, 4641.584
863.5051, 4636.794
863.9872, 4618.774
864.4694, 4602.753
864.9515, 4589.647
865.4336, 4577.033
865.9157, 4566.932
866.3978, 4554.650
866.8799, 4537.536
867.3621, 4514.998
867.8442, 4479.285
868.3263, 4409.653
868.8084, 4356.290
869.2905, 4340.189
869.7726, 4329.143
870.2548, 4297.763
870.7369, 4258.546
871.2190, 4240.594
871.7011, 4252.606
872.1832, 4254.313
872.6653, 4214.328
873.1475, 4171.236
873.6296, 4155.142
874.1117, 4152.494
874.5938, 4146.320
875.0759, 4132.445
875.5580, 4109.752
876.0402, 4074.808
876.5223, 4039.496
877.0044, 4013.101
877.4865, 3997.012
877.9686, 4000.653
878.4507, 4018.176
878.9329, 4023.189
879.4150, 4005.868
879.8971, 3983.978
880.3792, 3979.639
880.8613, 3965.005
881.3434, 3952.183
881.8256, 3949.032
882.3077, 3930.534
882.7898, 3924.960
883.2719, 3919.075
883.7540, 3902.101
884.2361, 3882.520
884.7183, 3884.433
885.2004, 3915.865
885.6825, 3919.669
886.1646, 3881.812
886.6467, 3856.286
887.1288, 3870.161
887.6110, 3892.430
888.0931, 3883.784
888.5752, 3895.211
889.0573, 3904.826
889.5394, 3885.284
890.0215, 3908.281
890.5037, 3877.820
890.9858, 3844.852
891.4679, 3836.688
891.9500, 3842.623
892.4321, 3844.512
892.9142, 3840.104
893.3964, 3836.108
893.8785, 3834.863
894.3606, 3833.161
894.8427, 3826.520
895.3248, 3821.153
895.8069, 3827.970
896.2891, 3842.111
896.7712, 3844.234
897.2533, 3823.264
897.7354, 3802.283
898.2175, 3794.914
898.6996, 3794.487
899.1818, 3798.045
899.6639, 3802.344
900.1460, 3801.472
900.6281, 3794.690
901.1102, 3788.046
901.5923, 3785.763
902.0745, 3786.207
902.5566, 3790.594
903.0387, 3794.981
903.5208, 3786.508
904.0029, 3768.049
904.4850, 3761.431
904.9672, 3777.244
905.4493, 3796.630
905.9314, 3791.462
906.4135, 3770.250
906.8956, 3765.401
907.3777, 3775.027
907.8599, 3781.760
908.3420, 3781.539
908.8241, 3778.278
909.3062, 3774.771
909.7883, 3770.719
910.2704, 3766.618
910.7526, 3762.878
911.2347, 3746.352
911.7168, 3710.946
912.1990, 3696.583
912.6811, 3725.597
913.1632, 3761.930
913.6453, 3763.514
914.1274, 3734.206
914.6096, 3713.760
915.0917, 3702.129
915.5738, 3699.884
916.0559, 3711.215
916.5380, 3725.503
917.0201, 3741.970
917.5023, 3754.666
917.9844, 3750.935
918.4665, 3726.728
918.9486, 3709.578
919.4307, 3708.190
919.9128, 3701.859
920.3950, 3679.431
920.8771, 3657.854
921.3592, 3651.030
921.8413, 3654.543
922.3234, 3655.050
922.8055, 3648.336
923.2877, 3647.091
923.7698, 3657.777
924.2519, 3669.800
924.7340, 3678.344
925.2161, 3685.603
925.6982, 3695.958
926.1804, 3708.180
926.6625, 3714.452
927.1446, 3709.378
927.6267, 3703.271
928.1088, 3694.711
928.5909, 3692.669
929.0731, 3713.092
929.5552, 3742.168
930.0373, 3751.142
930.5194, 3736.342
931.0015, 3730.219
931.4836, 3764.129
931.9658, 3800.117
932.4479, 3805.934
932.9300, 3794.755
933.4121, 3778.195
933.8942, 3761.729
934.3763, 3756.211
934.8585, 3765.608
935.3406, 3772.608
935.8227, 3751.612
936.3048, 3765.735
936.7869, 3736.859
937.2690, 3767.859
937.7512, 3780.611
938.2333, 3770.412
938.7154, 3751.490
939.1975, 3730.853
939.6796, 3716.765
940.1617, 3725.090
940.6439, 3747.378
941.1260, 3763.504
941.6081, 3772.428
942.0902, 3770.211
942.5723, 3756.729
943.0544, 3744.322
943.5366, 3741.428
944.0187, 3750.418
944.5008, 3788.438
944.9829, 3847.064
945.4650, 3860.857
945.9471, 3826.770
946.4293, 3783.820
946.9114, 3745.505
947.3935, 3713.485
947.8756, 3689.518
948.3577, 3673.585
948.8398, 3667.387
949.3220, 3671.235
949.8041, 3677.747
950.2862, 3687.780
950.7683, 3685.353
951.2504, 3659.190
951.7325, 3628.954
952.2147, 3622.999
952.6968, 3639.968
953.1789, 3657.713
953.6610, 3678.449
954.1431, 3688.856
954.6252, 3685.682
955.1074, 3674.579
955.5895, 3656.459
956.0716, 3636.069
956.5537, 3621.860
957.0358, 3613.528
957.5179, 3614.742
958.0001, 3630.246
958.4822, 3643.624
958.9643, 3654.311
959.4464, 3656.492
959.9285, 3641.785
960.4106, 3617.545
960.8928, 3604.255
961.3749, 3605.417
961.8570, 3605.267
962.3391, 3603.694
962.8212, 3600.818
963.3033, 3594.602
963.7855, 3589.292
964.2676, 3588.823
964.7497, 3592.345
965.2318, 3596.356
965.7139, 3602.193
966.1960, 3605.708
966.6782, 3608.763
967.1603, 3607.110
967.6424, 3593.765
968.1245, 3579.333
968.6066, 3575.130
969.0887, 3579.824
969.5709, 3583.174
970.0530, 3587.254
970.5351, 3585.839
971.0172, 3566.759
971.4993, 3555.821
971.9814, 3572.441
972.4636, 3598.198
972.9457, 3613.039
973.4278, 3615.883
973.9099, 3610.484
974.3920, 3580.570
974.8741, 3567.050
975.3563, 3592.958
975.8384, 3619.402
976.3205, 3628.140
976.8026, 3622.039
977.2847, 3599.827
977.7668, 3562.710
978.2490, 3543.818
978.7311, 3564.425
979.2132, 3583.763
979.6953, 3589.163
980.1774, 3591.138
980.6595, 3599.484
981.1417, 3608.288
981.6238, 3605.518
982.1059, 3589.364
982.5880, 3574.829
983.0701, 3566.097
983.5522, 3559.744
984.0344, 3550.321
984.5165, 3546.642
984.9986, 3562.503
985.4807, 3587.114
985.9628, 3599.899
986.4449, 3596.862
986.9271, 3585.433
987.4092, 3558.900
987.8913, 3536.218
988.3734, 3524.709
988.8555, 3521.913
989.3376, 3529.204
989.8198, 3542.285
990.3019, 3554.593
990.7840, 3565.191
991.2661, 3566.934
991.7482, 3544.952
992.2303, 3528.124
992.7125, 3537.897
993.1946, 3554.600
993.6767, 3556.470
994.1588, 3549.127
994.6409, 3552.934
995.1230, 3574.830
995.6052, 3591.769
996.0873, 3584.614
996.5694, 3580.392
997.0515, 3595.995
997.5336, 3620.980
998.0157, 3648.366
998.4979, 3674.520
998.9800, 3693.367
999.4621, 3702.236
999.9442, 3710.475
1000.426, 3728.249
1000.908, 3739.606
1001.391, 3724.859
1001.873, 3706.313
1002.355, 3710.547
1002.837, 3732.686
1003.319, 3753.462
1003.801, 3769.394
1004.283, 3769.677
1004.765, 3733.052
1005.247, 3698.113
1005.730, 3693.338
1006.212, 3699.178
1006.694, 3693.103
1007.176, 3677.152
1007.658, 3665.114
1008.140, 3661.160
1008.622, 3660.938
1009.104, 3670.731
1009.587, 3674.217
1010.069, 3654.933
1010.551, 3629.081
1011.033, 3611.773
1011.515, 3604.591
1011.997, 3607.476
1012.479, 3623.725
1012.961, 3632.632
1013.443, 3619.551
1013.926, 3603.597
1014.408, 3594.946
1014.890, 3589.580
1015.372, 3581.761
1015.854, 3573.023
1016.336, 3570.661
1016.818, 3578.874
1017.300, 3581.574
1017.783, 3566.819
1018.265, 3551.991
1018.747, 3548.091
1019.229, 3547.160
1019.711, 3536.972
1020.193, 3522.930
1020.675, 3524.637
1021.157, 3551.367
1021.639, 3569.116
1022.122, 3564.701
1022.604, 3551.276
1023.086, 3524.472
1023.568, 3500.139
1024.050, 3492.653
1024.532, 3499.995
1025.014, 3516.525
1025.496, 3545.285
1025.979, 3561.055
1026.461, 3542.192
1026.943, 3528.379
1027.425, 3536.523
1027.907, 3554.756
1028.389, 3577.670
1028.871, 3601.379
1029.353, 3618.737
1029.835, 3628.135
1030.318, 3634.585
1030.800, 3632.970
1031.282, 3636.589
1031.764, 3658.176
1032.246, 3678.218
1032.728, 3677.226
1033.210, 3665.021
1033.692, 3666.272
1034.174, 3687.041
1034.657, 3696.014
1035.139, 3678.730
1035.621, 3665.456
1036.103, 3660.636
1036.585, 3663.942
1037.067, 3682.208
1037.549, 3705.872
1038.031, 3716.336
1038.514, 3711.041
1038.996, 3706.827
1039.478, 3703.760
1039.960, 3701.897
1040.442, 3704.496
1040.924, 3704.029
1041.406, 3689.235
1041.888, 3673.548
1042.370, 3682.343
1042.853, 3717.765
1043.335, 3735.634
1043.817, 3727.405
1044.299, 3718.755
1044.781, 3708.314
1045.263, 3705.563
1045.745, 3720.892
1046.227, 3739.448
1046.709, 3737.375
1047.192, 3716.803
1047.674, 3720.553
1048.156, 3764.180
1048.638, 3779.495
1049.120, 3749.256
1049.602, 3722.022
1050.084, 3718.322
1050.566, 3728.444
1051.049, 3743.811
1051.531, 3761.744
1052.013, 3764.210
1052.495, 3747.259
1052.977, 3741.877
1053.459, 3751.849
1053.941, 3762.505
1054.423, 3768.709
1054.906, 3772.922
1055.388, 3777.923
1055.870, 3782.141
1056.352, 3777.670
1056.834, 3784.185
1057.316, 3792.435
1057.798, 3792.016
1058.280, 3810.750
1058.762, 3818.470
1059.245, 3819.323
1059.727, 3815.796
1060.209, 3810.808
1060.691, 3813.314
1061.173, 3820.018
1061.655, 3809.331
1062.137, 3784.136
1062.619, 3769.958
1063.101, 3771.460
1063.584, 3770.529
1064.066, 3755.365
1064.548, 3736.813
1065.030, 3731.226
1065.512, 3733.224
1065.994, 3732.089
1066.476, 3726.911
1066.958, 3712.586
1067.441, 3690.981
1067.923, 3674.653
1068.405, 3669.393
1068.887, 3666.010
1069.369, 3654.681
1069.851, 3640.092
1070.333, 3627.873
1070.815, 3617.329
1071.297, 3608.351
1071.780, 3599.873
1072.262, 3588.114
1072.744, 3572.335
1073.226, 3560.428
1073.708, 3564.217
1074.190, 3565.729
1074.672, 3545.062
1075.154, 3518.963
1075.636, 3509.308
1076.119, 3506.563
1076.601, 3485.480
1077.083, 3444.687
1077.565, 3415.554
1078.047, 3414.065
1078.529, 3421.279
1079.011, 3436.085
1079.494, 3448.496
1079.976, 3453.733
1080.458, 3451.201
1080.940, 3438.256
1081.422, 3416.801
1081.904, 3395.325
1082.386, 3371.583
1082.868, 3357.889
1083.350, 3363.121
1083.833, 3370.590
1084.315, 3378.675
1084.797, 3382.386
1085.279, 3371.961
1085.761, 3354.397
1086.243, 3353.237
1086.725, 3376.754
1087.207, 3383.053
1087.689, 3359.740
1088.172, 3342.319
1088.654, 3341.791
1089.136, 3340.687
1089.618, 3327.060
1090.100, 3307.864
1090.582, 3295.047
1091.064, 3288.495
1091.546, 3281.869
1092.029, 3274.682
1092.511, 3268.748
1092.993, 3263.027
1093.475, 3266.375
1093.957, 3284.864
1094.439, 3303.893
1094.921, 3305.738
1095.403, 3313.787
1095.885, 3314.833
1096.368, 3310.086
1096.850, 3310.081
1097.332, 3298.199
1097.814, 3295.495
1098.296, 3307.889
1098.778, 3322.833
1099.260, 3331.920
1099.742, 3332.552
1100.224, 3312.131
1100.707, 3283.620
1101.189, 3282.629
1101.671, 3300.162
1102.153, 3307.605
1102.635, 3302.270
1103.117, 3300.380
1103.599, 3309.806
1104.081, 3318.101
1104.564, 3314.299
1105.046, 3303.424
1105.528, 3285.739
1106.010, 3267.883
1106.492, 3258.338
1106.974, 3256.369
1107.456, 3258.913
1107.938, 3264.781
1108.421, 3270.046
1108.903, 3270.805
1109.385, 3273.438
1109.867, 3284.788
1110.349, 3294.790
1110.831, 3295.722
1111.313, 3291.412
1111.795, 3288.396
1112.277, 3286.018
1112.760, 3275.794
1113.242, 3243.246
1113.724, 3232.156
1114.206, 3272.436
1114.688, 3299.968
1115.170, 3288.403
1115.652, 3267.332
1116.134, 3254.949
1116.616, 3251.348
1117.099, 3259.012
1117.581, 3280.518
1118.063, 3285.742
1118.545, 3269.548
1119.027, 3256.308
1119.509, 3250.382
1119.991, 3244.636
1120.473, 3234.660
1120.956, 3226.378
1121.438, 3227.666
1121.920, 3236.442
1122.402, 3248.458
1122.884, 3261.905
1123.366, 3253.109
1123.848, 3223.437
1124.330, 3200.319
1124.813, 3192.622
1125.295, 3203.349
1125.777, 3238.762
1126.259, 3272.170
1126.741, 3256.873
1127.223, 3220.037
1127.705, 3207.952
1128.187, 3214.024
1128.669, 3225.439
1129.151, 3236.805
1129.634, 3239.991
1130.116, 3231.796
1130.598, 3221.617
1131.080, 3216.976
1131.562, 3210.994
1132.044, 3192.206
1132.526, 3176.299
1133.008, 3181.675
1133.491, 3198.474
1133.973, 3209.352
1134.455, 3212.442
1134.937, 3215.400
1135.419, 3222.635
1135.901, 3224.816
1136.383, 3216.091
1136.865, 3207.690
1137.348, 3206.451
1137.830, 3204.007
1138.312, 3182.434
1138.794, 3160.025
1139.276, 3193.868
1139.758, 3299.905
1140.240, 3327.826
1140.722, 3251.881
1141.204, 3208.908
1141.687, 3229.592
1142.169, 3240.266
1142.651, 3200.236
1143.133, 3154.410
1143.615, 3159.913
1144.097, 3197.960
1144.579, 3209.798
1145.061, 3199.539
1145.543, 3184.588
1146.026, 3168.534
1146.508, 3163.330
1146.990, 3171.348
1147.472, 3186.178
1147.954, 3205.008
1148.436, 3220.695
1148.918, 3225.193
1149.400, 3222.514
1149.883, 3212.247
1150.365, 3201.595
1150.847, 3202.732
1151.329, 3212.368
1151.811, 3219.774
1152.293, 3222.154
1152.775, 3221.207
1153.257, 3221.026
1153.740, 3212.786
1154.222, 3174.480
1154.704, 3148.872
1155.186, 3176.977
1155.668, 3219.728
1156.150, 3229.136
1156.632, 3210.628
1157.114, 3197.593
1157.596, 3186.983
1158.078, 3194.844
1158.561, 3236.125
1159.043, 3254.051
1159.525, 3229.674
1160.007, 3203.483
1160.489, 3198.864
1160.971, 3204.467
1161.453, 3205.304
1161.935, 3201.672
1162.418, 3191.457
1162.900, 3176.860
1163.382, 3177.841
1163.864, 3193.066
1164.346, 3203.398
1164.828, 3203.387
1165.310, 3195.627
1165.792, 3180.333
1166.275, 3168.123
1166.757, 3173.322
1167.239, 3186.044
1167.721, 3193.935
1168.203, 3201.152
1168.685, 3221.989
1169.167, 3246.164
1169.649, 3242.881
1170.131, 3206.047
1170.614, 3173.911
1171.096, 3163.275
1171.578, 3156.015
1172.060, 3143.674
1172.542, 3137.292
1173.024, 3149.018
1173.506, 3164.130
1173.988, 3164.798
1174.470, 3157.252
1174.953, 3162.812
1175.435, 3157.203
1175.917, 3154.260
1176.399, 3160.242
1176.881, 3150.419
1177.363, 3171.810
1177.845, 3179.986
1178.327, 3151.296
1178.810, 3118.406
1179.292, 3120.293
1179.774, 3140.354
1180.256, 3135.618
1180.738, 3116.262
1181.220, 3114.629
1181.702, 3127.905
1182.184, 3147.172
1182.667, 3165.724
1183.149, 3162.829
1183.631, 3127.356
1184.113, 3095.259
1184.595, 3095.247
1185.077, 3105.642
1185.559, 3114.093
1186.041, 3122.587
1186.523, 3138.205
1187.005, 3152.495
1187.488, 3149.236
1187.970, 3129.312
1188.452, 3114.660
1188.934, 3109.707
1189.416, 3105.655
1189.898, 3096.401
1190.380, 3100.836
1190.862, 3133.424
1191.345, 3157.782
1191.827, 3147.051
1192.309, 3163.245
1192.791, 3129.059
1193.273, 3152.633
1193.755, 3149.542
1194.237, 3123.721
1194.719, 3110.619
1195.202, 3110.961
1195.684, 3108.604
1196.166, 3099.639
1196.648, 3091.146
1197.130, 3087.310
1197.612, 3086.984
1198.094, 3089.726
1198.576, 3094.625
1199.058, 3104.739
1199.541, 3113.200
1200.023, 3109.519
1200.505, 3098.529
1200.987, 3092.804
1201.469, 3093.124
1201.951, 3083.850
1202.433, 3041.038
1202.915, 3027.328
1203.397, 3083.155
1203.880, 3120.868
1204.362, 3107.446
1204.844, 3088.523
1205.326, 3100.354
1205.808, 3116.788
1206.290, 3086.188
1206.772, 3019.913
1207.254, 3010.338
1207.737, 3053.449
1208.219, 3074.953
1208.701, 3071.952
1209.183, 3082.434
1209.665, 3114.629
1210.147, 3134.827
1210.629, 3120.784
1211.111, 3095.848
1211.594, 3080.305
1212.076, 3071.080
1212.558, 3068.496
1213.040, 3067.448
1213.522, 3056.422
1214.004, 3044.540
1214.486, 3054.631
1214.968, 3086.659
1215.450, 3106.950
1215.932, 3102.775
1216.415, 3097.939
1216.897, 3090.003
1217.379, 3090.075
1217.861, 3108.579
1218.343, 3120.835
1218.825, 3109.462
1219.307, 3086.629
1219.789, 3067.575
1220.272, 3055.104
1220.754, 3069.500
1221.236, 3104.980
1221.718, 3114.131
1222.200, 3098.424
1222.682, 3081.271
1223.164, 3069.794
1223.646, 3068.628
1224.129, 3080.950
1224.611, 3090.639
1225.093, 3080.958
1225.575, 3066.545
1226.057, 3053.974
1226.539, 3047.283
1227.021, 3049.539
1227.503, 3060.641
1227.985, 3090.348
1228.468, 3084.181
1228.950, 3079.999
1229.432, 3086.207
1229.914, 3056.613
1230.396, 3052.991
1230.878, 3058.789
1231.360, 3076.967
1231.842, 3081.553
1232.324, 3057.476
1232.807, 3028.702
1233.289, 3021.191
1233.771, 3026.274
1234.253, 3030.601
1234.735, 3029.342
1235.217, 2999.589
1235.699, 2955.791
1236.181, 2938.728
1236.664, 2946.645
1237.146, 2949.529
1237.628, 2938.089
1238.110, 2930.653
1238.592, 2941.565
1239.074, 2950.221
1239.556, 2945.862
1240.038, 2940.069
1240.521, 2933.731
1241.003, 2933.971
1241.485, 2951.106
1241.967, 2975.845
1242.449, 2990.368
1242.931, 2994.669
1243.413, 2982.810
1243.895, 2952.966
1244.377, 2941.237
1244.859, 2950.003
1245.342, 2959.800
1245.824, 2964.574
1246.306, 2963.213
1246.788, 2954.584
1247.270, 2945.165
1247.752, 2941.238
1248.234, 2941.043
1248.716, 2945.941
1249.199, 2950.554
1249.681, 2947.782
1250.163, 2940.906
1250.645, 2934.918
1251.127, 2930.845
1251.609, 2929.594
1252.091, 2931.245
1252.573, 2936.659
1253.056, 2951.355
1253.538, 2956.724
1254.020, 2948.742
1254.502, 2934.436
1254.984, 2915.934
1255.466, 2897.533
1255.948, 2882.509
1256.430, 2873.714
1256.912, 2881.456
1257.395, 2897.494
1257.877, 2901.664
1258.359, 2896.787
1258.841, 2885.079
1259.323, 2872.446
1259.805, 2875.193
1260.287, 2895.054
1260.769, 2908.147
1261.251, 2901.086
1261.734, 2894.890
1262.216, 2890.682
1262.698, 2895.934
1263.180, 2926.093
1263.662, 2949.037
1264.144, 2941.240
1264.626, 2922.519
1265.108, 2920.094
1265.591, 2930.583
1266.073, 2943.512
1266.555, 2956.996
1267.037, 2948.169
1267.519, 2922.369
1268.001, 2913.301
1268.483, 2922.532
1268.965, 2922.513
1269.448, 2903.197
1269.930, 2887.431
1270.412, 2894.294
1270.894, 2901.566
1271.376, 2895.119
1271.858, 2885.219
1272.340, 2876.401
1272.822, 2869.520
##END=



