##NAMES=Indialite
##RRUFFID=R140777
##IDEAL CHEMISTRY=Mg_2_Al_3_(AlSi_5_)O_18_
##LOCALITY=Caspar quarry, Bellerberg volcano, Ettringen, Mayen, Eifel, Rhineland-Palatinate, Germany
##OWNER=RRUFF
##SOURCE=Ch. and H. Sch√§fer
##DESCRIPTION=Violet isolated crystals, associated with quartz, albite (R180031) and tridymite (R140778).
##STATUS=The identification of this mineral has been confirmed by single-crystal X-ray diffraction.
##URL=rruff.info/R140777
9.059570e+001, 2.659510e+003
9.107782e+001, 2.587833e+003
9.155994e+001, 2.562474e+003
9.204205e+001, 2.615117e+003
9.252417e+001, 2.692715e+003
9.300629e+001, 2.779145e+003
9.348840e+001, 2.853323e+003
9.397052e+001, 2.894316e+003
9.445264e+001, 2.891189e+003
9.493475e+001, 2.879026e+003
9.541687e+001, 2.866328e+003
9.589898e+001, 2.857574e+003
9.638110e+001, 2.849633e+003
9.686321e+001, 2.839382e+003
9.734533e+001, 2.823601e+003
9.782745e+001, 2.798442e+003
9.830956e+001, 2.776688e+003
9.879168e+001, 2.757824e+003
9.927380e+001, 2.742774e+003
9.975591e+001, 2.732681e+003
1.002380e+002, 2.725972e+003
1.007201e+002, 2.719091e+003
1.012023e+002, 2.709187e+003
1.016844e+002, 2.697596e+003
1.021665e+002, 2.689381e+003
1.026486e+002, 2.686348e+003
1.031307e+002, 2.684959e+003
1.036128e+002, 2.681333e+003
1.040950e+002, 2.674599e+003
1.045771e+002, 2.669282e+003
1.050592e+002, 2.668507e+003
1.055413e+002, 2.670255e+003
1.060234e+002, 2.671998e+003
1.065055e+002, 2.672019e+003
1.069877e+002, 2.670931e+003
1.074698e+002, 2.671746e+003
1.079519e+002, 2.676378e+003
1.084340e+002, 2.680273e+003
1.089161e+002, 2.681331e+003
1.093982e+002, 2.680054e+003
1.098804e+002, 2.677851e+003
1.103625e+002, 2.675737e+003
1.108446e+002, 2.673542e+003
1.113267e+002, 2.672178e+003
1.118088e+002, 2.670983e+003
1.122909e+002, 2.670971e+003
1.127731e+002, 2.673250e+003
1.132552e+002, 2.677642e+003
1.137373e+002, 2.682681e+003
1.142194e+002, 2.686089e+003
1.147015e+002, 2.685372e+003
1.151836e+002, 2.687785e+003
1.156658e+002, 2.694344e+003
1.161479e+002, 2.703354e+003
1.166300e+002, 2.713694e+003
1.171121e+002, 2.725086e+003
1.175942e+002, 2.736757e+003
1.180763e+002, 2.746862e+003
1.185584e+002, 2.756134e+003
1.190406e+002, 2.763102e+003
1.195227e+002, 2.768274e+003
1.200048e+002, 2.770964e+003
1.204869e+002, 2.768951e+003
1.209690e+002, 2.760137e+003
1.214511e+002, 2.746295e+003
1.219333e+002, 2.732068e+003
1.224154e+002, 2.716685e+003
1.228975e+002, 2.702162e+003
1.233796e+002, 2.690898e+003
1.238617e+002, 2.683213e+003
1.243438e+002, 2.675674e+003
1.248260e+002, 2.666029e+003
1.253081e+002, 2.655938e+003
1.257902e+002, 2.646948e+003
1.262723e+002, 2.639894e+003
1.267544e+002, 2.633970e+003
1.272365e+002, 2.627388e+003
1.277187e+002, 2.619405e+003
1.282008e+002, 2.612012e+003
1.286829e+002, 2.606334e+003
1.291650e+002, 2.601391e+003
1.296471e+002, 2.595793e+003
1.301292e+002, 2.588479e+003
1.306114e+002, 2.579660e+003
1.310935e+002, 2.572326e+003
1.315756e+002, 2.567204e+003
1.320577e+002, 2.562977e+003
1.325398e+002, 2.560324e+003
1.330219e+002, 2.558489e+003
1.335041e+002, 2.555801e+003
1.339862e+002, 2.550543e+003
1.344683e+002, 2.541927e+003
1.349504e+002, 2.536090e+003
1.354325e+002, 2.533458e+003
1.359146e+002, 2.532598e+003
1.363968e+002, 2.532958e+003
1.368789e+002, 2.534374e+003
1.373610e+002, 2.536770e+003
1.378431e+002, 2.540402e+003
1.383252e+002, 2.545778e+003
1.388073e+002, 2.549429e+003
1.392895e+002, 2.550772e+003
1.397716e+002, 2.550454e+003
1.402537e+002, 2.548914e+003
1.407358e+002, 2.546042e+003
1.412179e+002, 2.542750e+003
1.417000e+002, 2.540122e+003
1.421821e+002, 2.538074e+003
1.426643e+002, 2.536444e+003
1.431464e+002, 2.535271e+003
1.436285e+002, 2.534492e+003
1.441106e+002, 2.533833e+003
1.445927e+002, 2.533073e+003
1.450748e+002, 2.532663e+003
1.455570e+002, 2.533011e+003
1.460391e+002, 2.534113e+003
1.465212e+002, 2.535413e+003
1.470033e+002, 2.536573e+003
1.474854e+002, 2.537623e+003
1.479675e+002, 2.538239e+003
1.484497e+002, 2.538126e+003
1.489318e+002, 2.537680e+003
1.494139e+002, 2.536917e+003
1.498960e+002, 2.535879e+003
1.503781e+002, 2.534894e+003
1.508602e+002, 2.534354e+003
1.513424e+002, 2.534003e+003
1.518245e+002, 2.534804e+003
1.523066e+002, 2.537832e+003
1.527887e+002, 2.541260e+003
1.532708e+002, 2.543396e+003
1.537529e+002, 2.543647e+003
1.542351e+002, 2.543037e+003
1.547172e+002, 2.544135e+003
1.551993e+002, 2.548830e+003
1.556814e+002, 2.553146e+003
1.561635e+002, 2.557829e+003
1.566456e+002, 2.561778e+003
1.571278e+002, 2.563329e+003
1.576099e+002, 2.561538e+003
1.580920e+002, 2.557317e+003
1.585741e+002, 2.554536e+003
1.590562e+002, 2.555493e+003
1.595383e+002, 2.555110e+003
1.600205e+002, 2.551553e+003
1.605026e+002, 2.545677e+003
1.609847e+002, 2.539260e+003
1.614668e+002, 2.533032e+003
1.619489e+002, 2.527290e+003
1.624310e+002, 2.523088e+003
1.629131e+002, 2.521054e+003
1.633953e+002, 2.519795e+003
1.638774e+002, 2.518827e+003
1.643595e+002, 2.518109e+003
1.648416e+002, 2.517192e+003
1.653237e+002, 2.515569e+003
1.658058e+002, 2.513614e+003
1.662880e+002, 2.512225e+003
1.667701e+002, 2.512091e+003
1.672522e+002, 2.512083e+003
1.677343e+002, 2.510704e+003
1.682164e+002, 2.507644e+003
1.686985e+002, 2.504690e+003
1.691807e+002, 2.503039e+003
1.696628e+002, 2.502086e+003
1.701449e+002, 2.501113e+003
1.706270e+002, 2.499661e+003
1.711091e+002, 2.498140e+003
1.715912e+002, 2.497596e+003
1.720734e+002, 2.498579e+003
1.725555e+002, 2.499577e+003
1.730376e+002, 2.500332e+003
1.735197e+002, 2.500687e+003
1.740018e+002, 2.500257e+003
1.744839e+002, 2.498480e+003
1.749661e+002, 2.495783e+003
1.754482e+002, 2.494848e+003
1.759303e+002, 2.497723e+003
1.764124e+002, 2.500193e+003
1.768945e+002, 2.500660e+003
1.773766e+002, 2.499955e+003
1.778588e+002, 2.499613e+003
1.783409e+002, 2.500798e+003
1.788230e+002, 2.503528e+003
1.793051e+002, 2.506083e+003
1.797872e+002, 2.508442e+003
1.802693e+002, 2.510646e+003
1.807515e+002, 2.512699e+003
1.812336e+002, 2.514591e+003
1.817157e+002, 2.516421e+003
1.821978e+002, 2.518452e+003
1.826799e+002, 2.520929e+003
1.831620e+002, 2.520653e+003
1.836441e+002, 2.514957e+003
1.841263e+002, 2.509488e+003
1.846084e+002, 2.507427e+003
1.850905e+002, 2.508535e+003
1.855726e+002, 2.510219e+003
1.860547e+002, 2.509985e+003
1.865368e+002, 2.507451e+003
1.870190e+002, 2.506424e+003
1.875011e+002, 2.508681e+003
1.879832e+002, 2.511155e+003
1.884653e+002, 2.511470e+003
1.889474e+002, 2.509413e+003
1.894296e+002, 2.506486e+003
1.899117e+002, 2.503912e+003
1.903938e+002, 2.501722e+003
1.908759e+002, 2.499842e+003
1.913580e+002, 2.497912e+003
1.918401e+002, 2.496471e+003
1.923223e+002, 2.496457e+003
1.928044e+002, 2.498212e+003
1.932865e+002, 2.500137e+003
1.937686e+002, 2.500202e+003
1.942507e+002, 2.499024e+003
1.947328e+002, 2.498599e+003
1.952150e+002, 2.500716e+003
1.956971e+002, 2.503796e+003
1.961792e+002, 2.504461e+003
1.966613e+002, 2.501622e+003
1.971434e+002, 2.498097e+003
1.976255e+002, 2.495956e+003
1.981077e+002, 2.494792e+003
1.985898e+002, 2.493688e+003
1.990719e+002, 2.491577e+003
1.995540e+002, 2.488970e+003
2.000361e+002, 2.488419e+003
2.005182e+002, 2.491904e+003
2.010004e+002, 2.494739e+003
2.014825e+002, 2.493983e+003
2.019646e+002, 2.490645e+003
2.024467e+002, 2.487258e+003
2.029288e+002, 2.485630e+003
2.034109e+002, 2.485655e+003
2.038930e+002, 2.485440e+003
2.043752e+002, 2.483803e+003
2.048573e+002, 2.483292e+003
2.053394e+002, 2.485767e+003
2.058215e+002, 2.490240e+003
2.063036e+002, 2.494412e+003
2.067857e+002, 2.496542e+003
2.072679e+002, 2.496601e+003
2.077500e+002, 2.495176e+003
2.082321e+002, 2.490343e+003
2.087142e+002, 2.485690e+003
2.091963e+002, 2.481884e+003
2.096784e+002, 2.479174e+003
2.101606e+002, 2.477865e+003
2.106427e+002, 2.478508e+003
2.111248e+002, 2.481485e+003
2.116069e+002, 2.482887e+003
2.120890e+002, 2.482206e+003
2.125711e+002, 2.480606e+003
2.130533e+002, 2.477866e+003
2.135354e+002, 2.474450e+003
2.140175e+002, 2.471382e+003
2.144996e+002, 2.469608e+003
2.149817e+002, 2.469270e+003
2.154638e+002, 2.469399e+003
2.159460e+002, 2.469955e+003
2.164281e+002, 2.470896e+003
2.169102e+002, 2.472722e+003
2.173923e+002, 2.475118e+003
2.178744e+002, 2.476928e+003
2.183565e+002, 2.477000e+003
2.188387e+002, 2.475070e+003
2.193208e+002, 2.473418e+003
2.198029e+002, 2.471946e+003
2.202850e+002, 2.470775e+003
2.207671e+002, 2.469955e+003
2.212492e+002, 2.469492e+003
2.217314e+002, 2.469423e+003
2.222135e+002, 2.469905e+003
2.226956e+002, 2.470963e+003
2.231777e+002, 2.471531e+003
2.236598e+002, 2.471027e+003
2.241419e+002, 2.470461e+003
2.246240e+002, 2.470805e+003
2.251062e+002, 2.472060e+003
2.255883e+002, 2.473125e+003
2.260704e+002, 2.472906e+003
2.265525e+002, 2.471602e+003
2.270346e+002, 2.470952e+003
2.275167e+002, 2.471548e+003
2.279989e+002, 2.472546e+003
2.284810e+002, 2.472997e+003
2.289631e+002, 2.472832e+003
2.294452e+002, 2.473128e+003
2.299273e+002, 2.475519e+003
2.304094e+002, 2.478964e+003
2.308916e+002, 2.480556e+003
2.313737e+002, 2.478138e+003
2.318558e+002, 2.474574e+003
2.323379e+002, 2.473093e+003
2.328200e+002, 2.473877e+003
2.333021e+002, 2.475438e+003
2.337843e+002, 2.477305e+003
2.342664e+002, 2.479270e+003
2.347485e+002, 2.480996e+003
2.352306e+002, 2.482270e+003
2.357127e+002, 2.483371e+003
2.361948e+002, 2.484695e+003
2.366770e+002, 2.486299e+003
2.371591e+002, 2.487929e+003
2.376412e+002, 2.489672e+003
2.381233e+002, 2.491313e+003
2.386054e+002, 2.492611e+003
2.390875e+002, 2.493535e+003
2.395697e+002, 2.494024e+003
2.400518e+002, 2.493784e+003
2.405339e+002, 2.492489e+003
2.410160e+002, 2.491527e+003
2.414981e+002, 2.491931e+003
2.419802e+002, 2.492708e+003
2.424624e+002, 2.492831e+003
2.429445e+002, 2.491833e+003
2.434266e+002, 2.490394e+003
2.439087e+002, 2.489653e+003
2.443908e+002, 2.489715e+003
2.448729e+002, 2.490204e+003
2.453550e+002, 2.491635e+003
2.458372e+002, 2.493086e+003
2.463193e+002, 2.493594e+003
2.468014e+002, 2.492785e+003
2.472835e+002, 2.491460e+003
2.477656e+002, 2.490884e+003
2.482477e+002, 2.490993e+003
2.487299e+002, 2.492109e+003
2.492120e+002, 2.495357e+003
2.496941e+002, 2.498867e+003
2.501762e+002, 2.500883e+003
2.506583e+002, 2.500929e+003
2.511404e+002, 2.500409e+003
2.516226e+002, 2.501793e+003
2.521047e+002, 2.506066e+003
2.525868e+002, 2.510089e+003
2.530689e+002, 2.513521e+003
2.535510e+002, 2.516700e+003
2.540331e+002, 2.519687e+003
2.545153e+002, 2.522568e+003
2.549974e+002, 2.525705e+003
2.554795e+002, 2.529601e+003
2.559616e+002, 2.534078e+003
2.564437e+002, 2.539869e+003
2.569258e+002, 2.547285e+003
2.574080e+002, 2.555511e+003
2.578901e+002, 2.564781e+003
2.583722e+002, 2.574760e+003
2.588543e+002, 2.584129e+003
2.593364e+002, 2.591417e+003
2.598185e+002, 2.597672e+003
2.603007e+002, 2.598541e+003
2.607828e+002, 2.595135e+003
2.612649e+002, 2.586834e+003
2.617470e+002, 2.571273e+003
2.622291e+002, 2.549313e+003
2.627112e+002, 2.525677e+003
2.631934e+002, 2.505573e+003
2.636755e+002, 2.489766e+003
2.641576e+002, 2.475054e+003
2.646397e+002, 2.461618e+003
2.651218e+002, 2.448912e+003
2.656039e+002, 2.436027e+003
2.660861e+002, 2.423379e+003
2.665682e+002, 2.412600e+003
2.670503e+002, 2.405441e+003
2.675324e+002, 2.402441e+003
2.680145e+002, 2.400110e+003
2.684966e+002, 2.400064e+003
2.689788e+002, 2.399112e+003
2.694609e+002, 2.395032e+003
2.699430e+002, 2.388412e+003
2.704251e+002, 2.381509e+003
2.709072e+002, 2.375975e+003
2.713893e+002, 2.371835e+003
2.718715e+002, 2.369815e+003
2.723536e+002, 2.371253e+003
2.728357e+002, 2.372999e+003
2.733178e+002, 2.374079e+003
2.737999e+002, 2.374402e+003
2.742820e+002, 2.373920e+003
2.747642e+002, 2.372454e+003
2.752463e+002, 2.370139e+003
2.757284e+002, 2.368711e+003
2.762105e+002, 2.368351e+003
2.766926e+002, 2.368418e+003
2.771747e+002, 2.368872e+003
2.776568e+002, 2.369589e+003
2.781389e+002, 2.370398e+003
2.786211e+002, 2.371263e+003
2.791032e+002, 2.372071e+003
2.795853e+002, 2.372282e+003
2.800674e+002, 2.371125e+003
2.805495e+002, 2.370401e+003
2.810316e+002, 2.371305e+003
2.815138e+002, 2.372869e+003
2.819959e+002, 2.373186e+003
2.824780e+002, 2.371300e+003
2.829601e+002, 2.368180e+003
2.834422e+002, 2.366355e+003
2.839243e+002, 2.366160e+003
2.844065e+002, 2.366360e+003
2.848886e+002, 2.367122e+003
2.853707e+002, 2.368035e+003
2.858528e+002, 2.368214e+003
2.863349e+002, 2.367243e+003
2.868170e+002, 2.366250e+003
2.872992e+002, 2.367406e+003
2.877813e+002, 2.371448e+003
2.882634e+002, 2.374906e+003
2.887455e+002, 2.376898e+003
2.892276e+002, 2.378148e+003
2.897097e+002, 2.379442e+003
2.901919e+002, 2.380953e+003
2.906740e+002, 2.382602e+003
2.911561e+002, 2.384486e+003
2.916382e+002, 2.386719e+003
2.921203e+002, 2.388075e+003
2.926024e+002, 2.388083e+003
2.930846e+002, 2.387347e+003
2.935667e+002, 2.386134e+003
2.940488e+002, 2.384503e+003
2.945309e+002, 2.383270e+003
2.950130e+002, 2.383505e+003
2.954951e+002, 2.385195e+003
2.959773e+002, 2.385651e+003
2.964594e+002, 2.383724e+003
2.969415e+002, 2.381280e+003
2.974236e+002, 2.379814e+003
2.979057e+002, 2.379322e+003
2.983878e+002, 2.378828e+003
2.988700e+002, 2.377589e+003
2.993521e+002, 2.375737e+003
2.998342e+002, 2.374290e+003
3.003163e+002, 2.374082e+003
3.007984e+002, 2.373520e+003
3.012805e+002, 2.371211e+003
3.017627e+002, 2.367553e+003
3.022448e+002, 2.364389e+003
3.027269e+002, 2.362791e+003
3.032090e+002, 2.362278e+003
3.036911e+002, 2.361322e+003
3.041732e+002, 2.359883e+003
3.046554e+002, 2.358164e+003
3.051375e+002, 2.356554e+003
3.056196e+002, 2.354772e+003
3.061017e+002, 2.351799e+003
3.065838e+002, 2.346854e+003
3.070659e+002, 2.341317e+003
3.075481e+002, 2.338250e+003
3.080302e+002, 2.338332e+003
3.085123e+002, 2.337662e+003
3.089944e+002, 2.334930e+003
3.094765e+002, 2.330654e+003
3.099586e+002, 2.325008e+003
3.104408e+002, 2.317558e+003
3.109229e+002, 2.310908e+003
3.114050e+002, 2.309806e+003
3.118871e+002, 2.314465e+003
3.123692e+002, 2.316929e+003
3.128513e+002, 2.313312e+003
3.133335e+002, 2.307754e+003
3.138156e+002, 2.305342e+003
3.142977e+002, 2.306870e+003
3.147798e+002, 2.309667e+003
3.152619e+002, 2.311933e+003
3.157440e+002, 2.313503e+003
3.162262e+002, 2.313122e+003
3.167083e+002, 2.309079e+003
3.171904e+002, 2.304170e+003
3.176725e+002, 2.300239e+003
3.181546e+002, 2.297414e+003
3.186367e+002, 2.296092e+003
3.191188e+002, 2.297083e+003
3.196010e+002, 2.299814e+003
3.200831e+002, 2.301298e+003
3.205652e+002, 2.300686e+003
3.210473e+002, 2.299732e+003
3.215294e+002, 2.299373e+003
3.220115e+002, 2.299473e+003
3.224937e+002, 2.299622e+003
3.229758e+002, 2.299782e+003
3.234579e+002, 2.299692e+003
3.239400e+002, 2.298552e+003
3.244221e+002, 2.295651e+003
3.249042e+002, 2.293415e+003
3.253864e+002, 2.293276e+003
3.258685e+002, 2.294310e+003
3.263506e+002, 2.294638e+003
3.268327e+002, 2.293548e+003
3.273148e+002, 2.292089e+003
3.277969e+002, 2.292182e+003
3.282791e+002, 2.294235e+003
3.287612e+002, 2.295273e+003
3.292433e+002, 2.294367e+003
3.297254e+002, 2.292344e+003
3.302075e+002, 2.289816e+003
3.306896e+002, 2.286890e+003
3.311718e+002, 2.284364e+003
3.316539e+002, 2.283278e+003
3.321360e+002, 2.283772e+003
3.326181e+002, 2.283336e+003
3.331002e+002, 2.280695e+003
3.335823e+002, 2.278009e+003
3.340645e+002, 2.276932e+003
3.345466e+002, 2.277415e+003
3.350287e+002, 2.278413e+003
3.355108e+002, 2.279364e+003
3.359929e+002, 2.280191e+003
3.364750e+002, 2.280483e+003
3.369572e+002, 2.279604e+003
3.374393e+002, 2.278897e+003
3.379214e+002, 2.279722e+003
3.384035e+002, 2.281170e+003
3.388856e+002, 2.280742e+003
3.393677e+002, 2.276956e+003
3.398499e+002, 2.271344e+003
3.403320e+002, 2.268215e+003
3.408141e+002, 2.268944e+003
3.412962e+002, 2.269226e+003
3.417783e+002, 2.267894e+003
3.422604e+002, 2.265792e+003
3.427426e+002, 2.263910e+003
3.432247e+002, 2.262536e+003
3.437068e+002, 2.261605e+003
3.441889e+002, 2.261078e+003
3.446710e+002, 2.261160e+003
3.451531e+002, 2.261117e+003
3.456353e+002, 2.260755e+003
3.461174e+002, 2.260413e+003
3.465995e+002, 2.260687e+003
3.470816e+002, 2.261453e+003
3.475637e+002, 2.261654e+003
3.480458e+002, 2.260208e+003
3.485280e+002, 2.256999e+003
3.490101e+002, 2.254581e+003
3.494922e+002, 2.253641e+003
3.499743e+002, 2.252674e+003
3.504564e+002, 2.250966e+003
3.509385e+002, 2.248742e+003
3.514207e+002, 2.246577e+003
3.519028e+002, 2.244819e+003
3.523849e+002, 2.243380e+003
3.528670e+002, 2.241866e+003
3.533491e+002, 2.239588e+003
3.538312e+002, 2.238097e+003
3.543134e+002, 2.237995e+003
3.547955e+002, 2.238622e+003
3.552776e+002, 2.239362e+003
3.557597e+002, 2.239977e+003
3.562418e+002, 2.240323e+003
3.567239e+002, 2.240111e+003
3.572061e+002, 2.238879e+003
3.576882e+002, 2.238020e+003
3.581703e+002, 2.236980e+003
3.586524e+002, 2.236662e+003
3.591345e+002, 2.238280e+003
3.596166e+002, 2.241542e+003
3.600987e+002, 2.244673e+003
3.605808e+002, 2.245914e+003
3.610630e+002, 2.245069e+003
3.615451e+002, 2.244097e+003
3.620272e+002, 2.242230e+003
3.625093e+002, 2.241020e+003
3.629914e+002, 2.241439e+003
3.634735e+002, 2.242868e+003
3.639557e+002, 2.244080e+003
3.644378e+002, 2.244300e+003
3.649199e+002, 2.243832e+003
3.654020e+002, 2.243965e+003
3.658841e+002, 2.245113e+003
3.663662e+002, 2.246368e+003
3.668484e+002, 2.248257e+003
3.673305e+002, 2.249890e+003
3.678126e+002, 2.250521e+003
3.682947e+002, 2.249885e+003
3.687768e+002, 2.248045e+003
3.692589e+002, 2.244985e+003
3.697411e+002, 2.240436e+003
3.702232e+002, 2.235344e+003
3.707053e+002, 2.229406e+003
3.711874e+002, 2.223238e+003
3.716695e+002, 2.216425e+003
3.721516e+002, 2.209449e+003
3.726338e+002, 2.203698e+003
3.731159e+002, 2.200823e+003
3.735980e+002, 2.200714e+003
3.740801e+002, 2.199462e+003
3.745622e+002, 2.195526e+003
3.750443e+002, 2.192338e+003
3.755265e+002, 2.191561e+003
3.760086e+002, 2.192095e+003
3.764907e+002, 2.192327e+003
3.769728e+002, 2.191532e+003
3.774549e+002, 2.189838e+003
3.779370e+002, 2.187291e+003
3.784192e+002, 2.183383e+003
3.789013e+002, 2.180082e+003
3.793834e+002, 2.178190e+003
3.798655e+002, 2.176949e+003
3.803476e+002, 2.175742e+003
3.808297e+002, 2.174455e+003
3.813119e+002, 2.173601e+003
3.817940e+002, 2.173919e+003
3.822761e+002, 2.175385e+003
3.827582e+002, 2.176740e+003
3.832403e+002, 2.178479e+003
3.837224e+002, 2.179199e+003
3.842046e+002, 2.177475e+003
3.846867e+002, 2.173938e+003
3.851688e+002, 2.170827e+003
3.856509e+002, 2.169427e+003
3.861330e+002, 2.169287e+003
3.866151e+002, 2.169799e+003
3.870973e+002, 2.171427e+003
3.875794e+002, 2.171959e+003
3.880615e+002, 2.168442e+003
3.885436e+002, 2.163450e+003
3.890257e+002, 2.160879e+003
3.895078e+002, 2.162465e+003
3.899900e+002, 2.164747e+003
3.904721e+002, 2.164534e+003
3.909542e+002, 2.162118e+003
3.914363e+002, 2.159791e+003
3.919184e+002, 2.158075e+003
3.924005e+002, 2.157063e+003
3.928827e+002, 2.157466e+003
3.933648e+002, 2.159568e+003
3.938469e+002, 2.159886e+003
3.943290e+002, 2.155168e+003
3.948111e+002, 2.148445e+003
3.952932e+002, 2.145032e+003
3.957754e+002, 2.145917e+003
3.962575e+002, 2.147356e+003
3.967396e+002, 2.145697e+003
3.972217e+002, 2.141324e+003
3.977038e+002, 2.138877e+003
3.981859e+002, 2.140693e+003
3.986681e+002, 2.142604e+003
3.991501e+002, 2.141384e+003
3.996323e+002, 2.137793e+003
4.001144e+002, 2.134768e+003
4.005965e+002, 2.133805e+003
4.010786e+002, 2.134294e+003
4.015607e+002, 2.134592e+003
4.020428e+002, 2.134951e+003
4.025250e+002, 2.134705e+003
4.030071e+002, 2.133028e+003
4.034892e+002, 2.130991e+003
4.039713e+002, 2.129897e+003
4.044534e+002, 2.130019e+003
4.049355e+002, 2.130717e+003
4.054177e+002, 2.131405e+003
4.058998e+002, 2.132318e+003
4.063819e+002, 2.131770e+003
4.068640e+002, 2.128199e+003
4.073461e+002, 2.124852e+003
4.078282e+002, 2.123647e+003
4.083104e+002, 2.124010e+003
4.087925e+002, 2.124194e+003
4.092746e+002, 2.123070e+003
4.097567e+002, 2.120994e+003
4.102388e+002, 2.119599e+003
4.107209e+002, 2.119788e+003
4.112031e+002, 2.119511e+003
4.116852e+002, 2.117591e+003
4.121673e+002, 2.115684e+003
4.126494e+002, 2.115860e+003
4.131315e+002, 2.118438e+003
4.136136e+002, 2.121417e+003
4.140958e+002, 2.122033e+003
4.145779e+002, 2.119691e+003
4.150600e+002, 2.117388e+003
4.155421e+002, 2.114177e+003
4.160242e+002, 2.111932e+003
4.165063e+002, 2.111746e+003
4.169885e+002, 2.113166e+003
4.174706e+002, 2.115092e+003
4.179527e+002, 2.116972e+003
4.184348e+002, 2.118722e+003
4.189169e+002, 2.119863e+003
4.193990e+002, 2.119652e+003
4.198812e+002, 2.120513e+003
4.203633e+002, 2.124415e+003
4.208454e+002, 2.128991e+003
4.213275e+002, 2.132174e+003
4.218096e+002, 2.133469e+003
4.222917e+002, 2.133406e+003
4.227739e+002, 2.131789e+003
4.232560e+002, 2.128745e+003
4.237381e+002, 2.127096e+003
4.242202e+002, 2.127719e+003
4.247023e+002, 2.129231e+003
4.251844e+002, 2.131423e+003
4.256666e+002, 2.133760e+003
4.261487e+002, 2.134226e+003
4.266308e+002, 2.129850e+003
4.271129e+002, 2.124072e+003
4.275950e+002, 2.122798e+003
4.280771e+002, 2.126345e+003
4.285593e+002, 2.129183e+003
4.290414e+002, 2.128344e+003
4.295235e+002, 2.124844e+003
4.300056e+002, 2.121340e+003
4.304877e+002, 2.117777e+003
4.309698e+002, 2.114376e+003
4.314520e+002, 2.111528e+003
4.319341e+002, 2.108904e+003
4.324162e+002, 2.105590e+003
4.328983e+002, 2.101265e+003
4.333804e+002, 2.097050e+003
4.338625e+002, 2.094297e+003
4.343447e+002, 2.093215e+003
4.348268e+002, 2.092308e+003
4.353089e+002, 2.091937e+003
4.357910e+002, 2.091369e+003
4.362731e+002, 2.090337e+003
4.367552e+002, 2.088721e+003
4.372374e+002, 2.085847e+003
4.377195e+002, 2.080966e+003
4.382016e+002, 2.075250e+003
4.386837e+002, 2.073319e+003
4.391658e+002, 2.080437e+003
4.396479e+002, 2.084616e+003
4.401301e+002, 2.082577e+003
4.406122e+002, 2.078669e+003
4.410943e+002, 2.077277e+003
4.415764e+002, 2.079114e+003
4.420585e+002, 2.081525e+003
4.425406e+002, 2.081332e+003
4.430227e+002, 2.078029e+003
4.435049e+002, 2.075884e+003
4.439870e+002, 2.076108e+003
4.444691e+002, 2.076274e+003
4.449512e+002, 2.075877e+003
4.454333e+002, 2.074882e+003
4.459154e+002, 2.073101e+003
4.463976e+002, 2.070324e+003
4.468797e+002, 2.067336e+003
4.473618e+002, 2.066065e+003
4.478439e+002, 2.067188e+003
4.483260e+002, 2.067991e+003
4.488081e+002, 2.066926e+003
4.492903e+002, 2.066146e+003
4.497724e+002, 2.067631e+003
4.502545e+002, 2.071173e+003
4.507366e+002, 2.074206e+003
4.512187e+002, 2.074398e+003
4.517008e+002, 2.072374e+003
4.521830e+002, 2.070721e+003
4.526651e+002, 2.069447e+003
4.531472e+002, 2.068640e+003
4.536293e+002, 2.068522e+003
4.541114e+002, 2.068862e+003
4.545935e+002, 2.069430e+003
4.550757e+002, 2.070302e+003
4.555578e+002, 2.071140e+003
4.560399e+002, 2.071498e+003
4.565220e+002, 2.071533e+003
4.570041e+002, 2.072299e+003
4.574862e+002, 2.074713e+003
4.579684e+002, 2.076616e+003
4.584505e+002, 2.074239e+003
4.589326e+002, 2.067618e+003
4.594147e+002, 2.062566e+003
4.598968e+002, 2.060898e+003
4.603789e+002, 2.060686e+003
4.608611e+002, 2.060493e+003
4.613432e+002, 2.060232e+003
4.618253e+002, 2.060179e+003
4.623074e+002, 2.060542e+003
4.627895e+002, 2.061211e+003
4.632716e+002, 2.061719e+003
4.637538e+002, 2.062954e+003
4.642359e+002, 2.062903e+003
4.647180e+002, 2.059769e+003
4.652001e+002, 2.056076e+003
4.656822e+002, 2.054640e+003
4.661643e+002, 2.055863e+003
4.666465e+002, 2.057935e+003
4.671286e+002, 2.058875e+003
4.676107e+002, 2.058537e+003
4.680928e+002, 2.058455e+003
4.685749e+002, 2.058773e+003
4.690570e+002, 2.059172e+003
4.695392e+002, 2.059328e+003
4.700213e+002, 2.059568e+003
4.705034e+002, 2.060474e+003
4.709855e+002, 2.062328e+003
4.714676e+002, 2.064579e+003
4.719497e+002, 2.066652e+003
4.724319e+002, 2.069017e+003
4.729140e+002, 2.069111e+003
4.733961e+002, 2.063438e+003
4.738782e+002, 2.058074e+003
4.743603e+002, 2.057310e+003
4.748424e+002, 2.060260e+003
4.753246e+002, 2.062554e+003
4.758067e+002, 2.060679e+003
4.762888e+002, 2.056745e+003
4.767709e+002, 2.055736e+003
4.772530e+002, 2.058184e+003
4.777351e+002, 2.060257e+003
4.782173e+002, 2.059974e+003
4.786994e+002, 2.058332e+003
4.791815e+002, 2.056931e+003
4.796636e+002, 2.055853e+003
4.801457e+002, 2.054929e+003
4.806278e+002, 2.053981e+003
4.811100e+002, 2.053144e+003
4.815920e+002, 2.052735e+003
4.820742e+002, 2.052818e+003
4.825563e+002, 2.053036e+003
4.830384e+002, 2.053152e+003
4.835205e+002, 2.053132e+003
4.840026e+002, 2.052657e+003
4.844847e+002, 2.051589e+003
4.849669e+002, 2.050238e+003
4.854490e+002, 2.048435e+003
4.859311e+002, 2.046486e+003
4.864132e+002, 2.044849e+003
4.868953e+002, 2.043692e+003
4.873774e+002, 2.043021e+003
4.878596e+002, 2.042895e+003
4.883417e+002, 2.043542e+003
4.888238e+002, 2.044130e+003
4.893059e+002, 2.046581e+003
4.897880e+002, 2.047191e+003
4.902701e+002, 2.043405e+003
4.907523e+002, 2.036349e+003
4.912344e+002, 2.028454e+003
4.917165e+002, 2.020960e+003
4.921986e+002, 2.014302e+003
4.926807e+002, 2.009916e+003
4.931628e+002, 2.008637e+003
4.936450e+002, 2.007362e+003
4.941271e+002, 2.005779e+003
4.946092e+002, 2.003760e+003
4.950913e+002, 2.000728e+003
4.955734e+002, 1.996883e+003
4.960555e+002, 1.993712e+003
4.965377e+002, 1.993155e+003
4.970198e+002, 1.994000e+003
4.975019e+002, 1.992492e+003
4.979840e+002, 1.987950e+003
4.984661e+002, 1.983952e+003
4.989482e+002, 1.982996e+003
4.994304e+002, 1.983621e+003
4.999125e+002, 1.982971e+003
5.003946e+002, 1.980526e+003
5.008767e+002, 1.977727e+003
5.013588e+002, 1.975158e+003
5.018409e+002, 1.972741e+003
5.023231e+002, 1.970249e+003
5.028052e+002, 1.967641e+003
5.032873e+002, 1.965221e+003
5.037694e+002, 1.963393e+003
5.042515e+002, 1.962174e+003
5.047336e+002, 1.960307e+003
5.052158e+002, 1.956082e+003
5.056979e+002, 1.953183e+003
5.061800e+002, 1.954177e+003
5.066621e+002, 1.956962e+003
5.071442e+002, 1.958216e+003
5.076263e+002, 1.956776e+003
5.081085e+002, 1.954153e+003
5.085906e+002, 1.952712e+003
5.090727e+002, 1.952907e+003
5.095548e+002, 1.952611e+003
5.100369e+002, 1.951240e+003
5.105190e+002, 1.949947e+003
5.110012e+002, 1.949230e+003
5.114833e+002, 1.948895e+003
5.119654e+002, 1.948518e+003
5.124475e+002, 1.947868e+003
5.129296e+002, 1.947135e+003
5.134117e+002, 1.946822e+003
5.138939e+002, 1.947064e+003
5.143760e+002, 1.946659e+003
5.148581e+002, 1.944884e+003
5.153402e+002, 1.942829e+003
5.158223e+002, 1.941505e+003
5.163044e+002, 1.940801e+003
5.167866e+002, 1.939895e+003
5.172687e+002, 1.938340e+003
5.177508e+002, 1.936458e+003
5.182329e+002, 1.934472e+003
5.187150e+002, 1.932431e+003
5.191971e+002, 1.930870e+003
5.196793e+002, 1.930176e+003
5.201614e+002, 1.929950e+003
5.206435e+002, 1.929323e+003
5.211256e+002, 1.928254e+003
5.216077e+002, 1.926992e+003
5.220898e+002, 1.926333e+003
5.225720e+002, 1.924969e+003
5.230541e+002, 1.920517e+003
5.235362e+002, 1.913780e+003
5.240183e+002, 1.908888e+003
5.245004e+002, 1.909152e+003
5.249825e+002, 1.913311e+003
5.254647e+002, 1.914768e+003
5.259468e+002, 1.910734e+003
5.264289e+002, 1.907901e+003
5.269110e+002, 1.907004e+003
5.273931e+002, 1.907352e+003
5.278752e+002, 1.909364e+003
5.283574e+002, 1.912464e+003
5.288395e+002, 1.914157e+003
5.293216e+002, 1.911347e+003
5.298037e+002, 1.905083e+003
5.302858e+002, 1.902045e+003
5.307679e+002, 1.903557e+003
5.312501e+002, 1.905253e+003
5.317322e+002, 1.905158e+003
5.322143e+002, 1.904337e+003
5.326964e+002, 1.903642e+003
5.331785e+002, 1.903102e+003
5.336606e+002, 1.903373e+003
5.341428e+002, 1.905232e+003
5.346249e+002, 1.908136e+003
5.351070e+002, 1.911036e+003
5.355891e+002, 1.913808e+003
5.360712e+002, 1.916379e+003
5.365533e+002, 1.918536e+003
5.370355e+002, 1.920430e+003
5.375176e+002, 1.922909e+003
5.379997e+002, 1.926693e+003
5.384818e+002, 1.930135e+003
5.389639e+002, 1.932368e+003
5.394460e+002, 1.934204e+003
5.399282e+002, 1.936941e+003
5.404103e+002, 1.940706e+003
5.408924e+002, 1.944148e+003
5.413745e+002, 1.945600e+003
5.418566e+002, 1.944951e+003
5.423387e+002, 1.946112e+003
5.428209e+002, 1.950193e+003
5.433029e+002, 1.954874e+003
5.437850e+002, 1.959510e+003
5.442672e+002, 1.964582e+003
5.447493e+002, 1.970798e+003
5.452314e+002, 1.978305e+003
5.457135e+002, 1.986278e+003
5.461956e+002, 1.994062e+003
5.466777e+002, 2.001619e+003
5.471599e+002, 2.007774e+003
5.476420e+002, 2.011425e+003
5.481241e+002, 2.015863e+003
5.486062e+002, 2.023689e+003
5.490883e+002, 2.033547e+003
5.495704e+002, 2.043461e+003
5.500526e+002, 2.052819e+003
5.505347e+002, 2.062746e+003
5.510168e+002, 2.075524e+003
5.514989e+002, 2.089135e+003
5.519810e+002, 2.099443e+003
5.524631e+002, 2.105572e+003
5.529453e+002, 2.108761e+003
5.534274e+002, 2.109684e+003
5.539095e+002, 2.108325e+003
5.543916e+002, 2.107898e+003
5.548737e+002, 2.110833e+003
5.553558e+002, 2.111659e+003
5.558380e+002, 2.108332e+003
5.563201e+002, 2.102304e+003
5.568022e+002, 2.095160e+003
5.572843e+002, 2.087402e+003
5.577664e+002, 2.079075e+003
5.582485e+002, 2.069871e+003
5.587307e+002, 2.059754e+003
5.592128e+002, 2.051182e+003
5.596949e+002, 2.045461e+003
5.601770e+002, 2.039538e+003
5.606591e+002, 2.031871e+003
5.611412e+002, 2.023679e+003
5.616234e+002, 2.016058e+003
5.621055e+002, 2.009211e+003
5.625876e+002, 2.004035e+003
5.630697e+002, 2.002699e+003
5.635518e+002, 2.003758e+003
5.640339e+002, 2.002105e+003
5.645161e+002, 1.996787e+003
5.649982e+002, 1.990517e+003
5.654803e+002, 1.984719e+003
5.659624e+002, 1.979591e+003
5.664445e+002, 1.975585e+003
5.669266e+002, 1.972330e+003
5.674088e+002, 1.970694e+003
5.678909e+002, 1.971876e+003
5.683730e+002, 1.974418e+003
5.688551e+002, 1.976882e+003
5.693372e+002, 1.978827e+003
5.698193e+002, 1.979783e+003
5.703015e+002, 1.979060e+003
5.707836e+002, 1.976813e+003
5.712657e+002, 1.976133e+003
5.717478e+002, 1.977768e+003
5.722299e+002, 1.980070e+003
5.727120e+002, 1.983775e+003
5.731942e+002, 1.987386e+003
5.736763e+002, 1.989235e+003
5.741584e+002, 1.989229e+003
5.746405e+002, 1.989015e+003
5.751226e+002, 1.990144e+003
5.756047e+002, 1.992268e+003
5.760869e+002, 1.994165e+003
5.765690e+002, 1.996043e+003
5.770511e+002, 1.996783e+003
5.775332e+002, 1.995667e+003
5.780153e+002, 1.993109e+003
5.784974e+002, 1.990215e+003
5.789796e+002, 1.987394e+003
5.794617e+002, 1.982475e+003
5.799438e+002, 1.973902e+003
5.804259e+002, 1.963257e+003
5.809080e+002, 1.951626e+003
5.813901e+002, 1.939468e+003
5.818723e+002, 1.927826e+003
5.823544e+002, 1.917276e+003
5.828365e+002, 1.907903e+003
5.833186e+002, 1.899996e+003
5.838007e+002, 1.895736e+003
5.842828e+002, 1.889568e+003
5.847650e+002, 1.879672e+003
5.852471e+002, 1.869398e+003
5.857292e+002, 1.861010e+003
5.862113e+002, 1.854269e+003
5.866934e+002, 1.847546e+003
5.871755e+002, 1.839617e+003
5.876577e+002, 1.831469e+003
5.881398e+002, 1.825706e+003
5.886219e+002, 1.822673e+003
5.891040e+002, 1.819537e+003
5.895861e+002, 1.815086e+003
5.900682e+002, 1.810903e+003
5.905504e+002, 1.808875e+003
5.910325e+002, 1.808620e+003
5.915146e+002, 1.807670e+003
5.919967e+002, 1.805041e+003
5.924788e+002, 1.801624e+003
5.929609e+002, 1.797798e+003
5.934431e+002, 1.793804e+003
5.939252e+002, 1.790154e+003
5.944073e+002, 1.787004e+003
5.948894e+002, 1.784688e+003
5.953715e+002, 1.783806e+003
5.958536e+002, 1.784825e+003
5.963358e+002, 1.785179e+003
5.968179e+002, 1.785648e+003
5.973000e+002, 1.784713e+003
5.977821e+002, 1.780638e+003
5.982642e+002, 1.775254e+003
5.987463e+002, 1.770932e+003
5.992285e+002, 1.768500e+003
5.997106e+002, 1.767541e+003
6.001927e+002, 1.768236e+003
6.006748e+002, 1.770469e+003
6.011569e+002, 1.770885e+003
6.016390e+002, 1.768852e+003
6.021212e+002, 1.766024e+003
6.026033e+002, 1.762742e+003
6.030854e+002, 1.759433e+003
6.035675e+002, 1.756857e+003
6.040496e+002, 1.755186e+003
6.045317e+002, 1.753953e+003
6.050139e+002, 1.752843e+003
6.054960e+002, 1.752051e+003
6.059781e+002, 1.752555e+003
6.064602e+002, 1.754169e+003
6.069423e+002, 1.754223e+003
6.074244e+002, 1.750441e+003
6.079066e+002, 1.743962e+003
6.083887e+002, 1.739921e+003
6.088708e+002, 1.740528e+003
6.093529e+002, 1.740555e+003
6.098350e+002, 1.739520e+003
6.103171e+002, 1.738109e+003
6.107993e+002, 1.736869e+003
6.112814e+002, 1.735723e+003
6.117635e+002, 1.734123e+003
6.122456e+002, 1.731475e+003
6.127277e+002, 1.728568e+003
6.132098e+002, 1.727359e+003
6.136920e+002, 1.728045e+003
6.141741e+002, 1.727975e+003
6.146562e+002, 1.726348e+003
6.151383e+002, 1.723939e+003
6.156204e+002, 1.721234e+003
6.161025e+002, 1.718312e+003
6.165847e+002, 1.715781e+003
6.170668e+002, 1.713383e+003
6.175489e+002, 1.711779e+003
6.180310e+002, 1.711969e+003
6.185131e+002, 1.713161e+003
6.189952e+002, 1.714040e+003
6.194774e+002, 1.714170e+003
6.199595e+002, 1.713036e+003
6.204416e+002, 1.709620e+003
6.209237e+002, 1.703568e+003
6.214058e+002, 1.700509e+003
6.218879e+002, 1.703550e+003
6.223701e+002, 1.705872e+003
6.228522e+002, 1.705803e+003
6.233343e+002, 1.704512e+003
6.238164e+002, 1.703286e+003
6.242985e+002, 1.702349e+003
6.247806e+002, 1.700891e+003
6.252628e+002, 1.697578e+003
6.257448e+002, 1.693343e+003
6.262269e+002, 1.690831e+003
6.267090e+002, 1.690193e+003
6.271912e+002, 1.690140e+003
6.276733e+002, 1.690382e+003
6.281554e+002, 1.690579e+003
6.286375e+002, 1.690197e+003
6.291196e+002, 1.689460e+003
6.296017e+002, 1.687434e+003
6.300839e+002, 1.681852e+003
6.305660e+002, 1.676816e+003
6.310481e+002, 1.676207e+003
6.315302e+002, 1.678378e+003
6.320123e+002, 1.678727e+003
6.324944e+002, 1.675137e+003
6.329766e+002, 1.670390e+003
6.334587e+002, 1.669778e+003
6.339408e+002, 1.674609e+003
6.344229e+002, 1.676753e+003
6.349050e+002, 1.674482e+003
6.353871e+002, 1.671544e+003
6.358693e+002, 1.669430e+003
6.363514e+002, 1.667820e+003
6.368335e+002, 1.666172e+003
6.373156e+002, 1.664301e+003
6.377977e+002, 1.662699e+003
6.382798e+002, 1.661713e+003
6.387620e+002, 1.661253e+003
6.392441e+002, 1.661554e+003
6.397262e+002, 1.662569e+003
6.402083e+002, 1.662678e+003
6.406904e+002, 1.660674e+003
6.411725e+002, 1.657167e+003
6.416547e+002, 1.654149e+003
6.421368e+002, 1.650599e+003
6.426189e+002, 1.649208e+003
6.431010e+002, 1.652466e+003
6.435831e+002, 1.655654e+003
6.440652e+002, 1.655199e+003
6.445474e+002, 1.652152e+003
6.450295e+002, 1.649931e+003
6.455116e+002, 1.650498e+003
6.459937e+002, 1.651902e+003
6.464758e+002, 1.650600e+003
6.469579e+002, 1.646625e+003
6.474401e+002, 1.643712e+003
6.479222e+002, 1.642541e+003
6.484043e+002, 1.642286e+003
6.488864e+002, 1.642980e+003
6.493685e+002, 1.644117e+003
6.498506e+002, 1.644040e+003
6.503328e+002, 1.641962e+003
6.508149e+002, 1.639709e+003
6.512970e+002, 1.637487e+003
6.517791e+002, 1.635770e+003
6.522612e+002, 1.635415e+003
6.527433e+002, 1.636318e+003
6.532255e+002, 1.637348e+003
6.537076e+002, 1.637617e+003
6.541897e+002, 1.637465e+003
6.546718e+002, 1.638358e+003
6.551539e+002, 1.641192e+003
6.556360e+002, 1.642853e+003
6.561182e+002, 1.641359e+003
6.566003e+002, 1.639886e+003
6.570824e+002, 1.640257e+003
6.575645e+002, 1.642109e+003
6.580466e+002, 1.644151e+003
6.585287e+002, 1.646180e+003
6.590109e+002, 1.647755e+003
6.594930e+002, 1.648373e+003
6.599751e+002, 1.648198e+003
6.604572e+002, 1.647368e+003
6.609393e+002, 1.645874e+003
6.614214e+002, 1.644993e+003
6.619036e+002, 1.645915e+003
6.623857e+002, 1.648504e+003
6.628678e+002, 1.651225e+003
6.633499e+002, 1.654520e+003
6.638320e+002, 1.657380e+003
6.643141e+002, 1.659732e+003
6.647963e+002, 1.661646e+003
6.652784e+002, 1.662900e+003
6.657605e+002, 1.663737e+003
6.662426e+002, 1.665029e+003
6.667247e+002, 1.667711e+003
6.672068e+002, 1.670509e+003
6.676890e+002, 1.670611e+003
6.681711e+002, 1.668123e+003
6.686532e+002, 1.666874e+003
6.691353e+002, 1.668292e+003
6.696174e+002, 1.669785e+003
6.700995e+002, 1.669200e+003
6.705817e+002, 1.666481e+003
6.710638e+002, 1.662252e+003
6.715459e+002, 1.654786e+003
6.720280e+002, 1.647938e+003
6.725101e+002, 1.643659e+003
6.729922e+002, 1.640225e+003
6.734744e+002, 1.635757e+003
6.739565e+002, 1.630064e+003
6.744386e+002, 1.623946e+003
6.749207e+002, 1.617874e+003
6.754028e+002, 1.612006e+003
6.758849e+002, 1.606860e+003
6.763671e+002, 1.602533e+003
6.768492e+002, 1.598504e+003
6.773313e+002, 1.594597e+003
6.778134e+002, 1.591034e+003
6.782955e+002, 1.588051e+003
6.787776e+002, 1.585541e+003
6.792598e+002, 1.583157e+003
6.797419e+002, 1.580892e+003
6.802240e+002, 1.578646e+003
6.807061e+002, 1.576184e+003
6.811882e+002, 1.573774e+003
6.816703e+002, 1.571932e+003
6.821525e+002, 1.570692e+003
6.826346e+002, 1.569530e+003
6.831167e+002, 1.568074e+003
6.835988e+002, 1.566284e+003
6.840809e+002, 1.563738e+003
6.845630e+002, 1.559242e+003
6.850452e+002, 1.556618e+003
6.855273e+002, 1.558548e+003
6.860094e+002, 1.560591e+003
6.864915e+002, 1.559875e+003
6.869736e+002, 1.557106e+003
6.874557e+002, 1.554852e+003
6.879379e+002, 1.554727e+003
6.884200e+002, 1.554239e+003
6.889021e+002, 1.549937e+003
6.893842e+002, 1.543777e+003
6.898663e+002, 1.540807e+003
6.903484e+002, 1.541857e+003
6.908306e+002, 1.543477e+003
6.913127e+002, 1.542947e+003
6.917948e+002, 1.540751e+003
6.922769e+002, 1.539316e+003
6.927590e+002, 1.539038e+003
6.932411e+002, 1.538947e+003
6.937233e+002, 1.539917e+003
6.942054e+002, 1.540240e+003
6.946875e+002, 1.538339e+003
6.951696e+002, 1.534976e+003
6.956517e+002, 1.532222e+003
6.961339e+002, 1.531122e+003
6.966160e+002, 1.530522e+003
6.970981e+002, 1.528797e+003
6.975802e+002, 1.526471e+003
6.980623e+002, 1.525555e+003
6.985444e+002, 1.526421e+003
6.990266e+002, 1.527734e+003
6.995087e+002, 1.528754e+003
6.999908e+002, 1.529370e+003
7.004729e+002, 1.529141e+003
7.009550e+002, 1.527253e+003
7.014371e+002, 1.525726e+003
7.019193e+002, 1.524844e+003
7.024014e+002, 1.524076e+003
7.028835e+002, 1.522968e+003
7.033656e+002, 1.521739e+003
7.038477e+002, 1.520902e+003
7.043298e+002, 1.520702e+003
7.048120e+002, 1.520817e+003
7.052941e+002, 1.521093e+003
7.057762e+002, 1.521406e+003
7.062583e+002, 1.520942e+003
7.067404e+002, 1.519498e+003
7.072225e+002, 1.518252e+003
7.077046e+002, 1.517940e+003
7.081867e+002, 1.518246e+003
7.086688e+002, 1.518386e+003
7.091509e+002, 1.518348e+003
7.096331e+002, 1.518170e+003
7.101152e+002, 1.517588e+003
7.105973e+002, 1.517102e+003
7.110794e+002, 1.517115e+003
7.115615e+002, 1.517394e+003
7.120436e+002, 1.517676e+003
7.125258e+002, 1.517839e+003
7.130079e+002, 1.517416e+003
7.134900e+002, 1.515472e+003
7.139721e+002, 1.512364e+003
7.144542e+002, 1.510249e+003
7.149363e+002, 1.509417e+003
7.154185e+002, 1.508086e+003
7.159006e+002, 1.505012e+003
7.163827e+002, 1.501474e+003
7.168648e+002, 1.499874e+003
7.173469e+002, 1.500641e+003
7.178290e+002, 1.500595e+003
7.183112e+002, 1.499072e+003
7.187933e+002, 1.497116e+003
7.192754e+002, 1.494615e+003
7.197575e+002, 1.492274e+003
7.202396e+002, 1.491511e+003
7.207217e+002, 1.492434e+003
7.212039e+002, 1.492889e+003
7.216860e+002, 1.490283e+003
7.221681e+002, 1.485609e+003
7.226502e+002, 1.482968e+003
7.231323e+002, 1.482582e+003
7.236144e+002, 1.482205e+003
7.240966e+002, 1.480924e+003
7.245787e+002, 1.479705e+003
7.250608e+002, 1.480296e+003
7.255429e+002, 1.482629e+003
7.260250e+002, 1.482620e+003
7.265071e+002, 1.478352e+003
7.269893e+002, 1.473768e+003
7.274714e+002, 1.468882e+003
7.279535e+002, 1.465257e+003
7.284356e+002, 1.465641e+003
7.289177e+002, 1.469546e+003
7.293998e+002, 1.473130e+003
7.298820e+002, 1.473546e+003
7.303641e+002, 1.471869e+003
7.308462e+002, 1.470465e+003
7.313283e+002, 1.469349e+003
7.318104e+002, 1.467819e+003
7.322925e+002, 1.465338e+003
7.327747e+002, 1.463356e+003
7.332568e+002, 1.463531e+003
7.337389e+002, 1.465292e+003
7.342210e+002, 1.465563e+003
7.347031e+002, 1.462752e+003
7.351852e+002, 1.460900e+003
7.356674e+002, 1.461654e+003
7.361495e+002, 1.462991e+003
7.366316e+002, 1.463336e+003
7.371137e+002, 1.462763e+003
7.375958e+002, 1.462088e+003
7.380779e+002, 1.461738e+003
7.385601e+002, 1.461207e+003
7.390422e+002, 1.459615e+003
7.395243e+002, 1.457077e+003
7.400064e+002, 1.454502e+003
7.404885e+002, 1.451857e+003
7.409706e+002, 1.449771e+003
7.414528e+002, 1.448886e+003
7.419349e+002, 1.448598e+003
7.424170e+002, 1.447414e+003
7.428991e+002, 1.444810e+003
7.433812e+002, 1.443214e+003
7.438633e+002, 1.443839e+003
7.443455e+002, 1.444474e+003
7.448276e+002, 1.444011e+003
7.453097e+002, 1.442775e+003
7.457918e+002, 1.441221e+003
7.462739e+002, 1.439547e+003
7.467560e+002, 1.438043e+003
7.472382e+002, 1.437120e+003
7.477203e+002, 1.436578e+003
7.482024e+002, 1.435671e+003
7.486845e+002, 1.434380e+003
7.491666e+002, 1.433629e+003
7.496487e+002, 1.433890e+003
7.501309e+002, 1.434417e+003
7.506130e+002, 1.434418e+003
7.510951e+002, 1.433879e+003
7.515772e+002, 1.432776e+003
7.520593e+002, 1.430619e+003
7.525414e+002, 1.428550e+003
7.530236e+002, 1.426645e+003
7.535057e+002, 1.425018e+003
7.539878e+002, 1.423743e+003
7.544699e+002, 1.422823e+003
7.549520e+002, 1.422294e+003
7.554341e+002, 1.422327e+003
7.559163e+002, 1.422406e+003
7.563984e+002, 1.421440e+003
7.568805e+002, 1.419817e+003
7.573626e+002, 1.419853e+003
7.578447e+002, 1.422107e+003
7.583268e+002, 1.422882e+003
7.588090e+002, 1.418919e+003
7.592911e+002, 1.412161e+003
7.597732e+002, 1.409198e+003
7.602553e+002, 1.413445e+003
7.607374e+002, 1.415337e+003
7.612195e+002, 1.413711e+003
7.617017e+002, 1.411185e+003
7.621838e+002, 1.408224e+003
7.626659e+002, 1.405485e+003
7.631480e+002, 1.403961e+003
7.636301e+002, 1.403975e+003
7.641122e+002, 1.404264e+003
7.645944e+002, 1.403821e+003
7.650765e+002, 1.403100e+003
7.655586e+002, 1.403086e+003
7.660407e+002, 1.403567e+003
7.665228e+002, 1.402970e+003
7.670049e+002, 1.400584e+003
7.674871e+002, 1.398199e+003
7.679692e+002, 1.398431e+003
7.684513e+002, 1.401442e+003
7.689334e+002, 1.402456e+003
7.694155e+002, 1.399952e+003
7.698976e+002, 1.397884e+003
7.703798e+002, 1.397051e+003
7.708619e+002, 1.396983e+003
7.713440e+002, 1.397944e+003
7.718261e+002, 1.399525e+003
7.723082e+002, 1.399945e+003
7.727903e+002, 1.398020e+003
7.732725e+002, 1.395521e+003
7.737546e+002, 1.393365e+003
7.742367e+002, 1.391580e+003
7.747188e+002, 1.390311e+003
7.752009e+002, 1.389506e+003
7.756830e+002, 1.388873e+003
7.761652e+002, 1.388246e+003
7.766473e+002, 1.387511e+003
7.771294e+002, 1.386284e+003
7.776115e+002, 1.384437e+003
7.780936e+002, 1.382968e+003
7.785757e+002, 1.381910e+003
7.790579e+002, 1.381310e+003
7.795400e+002, 1.381693e+003
7.800221e+002, 1.382345e+003
7.805042e+002, 1.382093e+003
7.809863e+002, 1.380828e+003
7.814684e+002, 1.379038e+003
7.819506e+002, 1.376150e+003
7.824327e+002, 1.373464e+003
7.829148e+002, 1.371626e+003
7.833969e+002, 1.370622e+003
7.838790e+002, 1.370707e+003
7.843611e+002, 1.371750e+003
7.848433e+002, 1.372556e+003
7.853254e+002, 1.372004e+003
7.858075e+002, 1.370388e+003
7.862896e+002, 1.368406e+003
7.867717e+002, 1.366051e+003
7.872538e+002, 1.363951e+003
7.877360e+002, 1.362135e+003
7.882181e+002, 1.361039e+003
7.887002e+002, 1.361347e+003
7.891823e+002, 1.362829e+003
7.896644e+002, 1.363486e+003
7.901465e+002, 1.362814e+003
7.906286e+002, 1.362092e+003
7.911107e+002, 1.362274e+003
7.915928e+002, 1.361638e+003
7.920750e+002, 1.357804e+003
7.925571e+002, 1.352531e+003
7.930392e+002, 1.349659e+003
7.935213e+002, 1.350741e+003
7.940034e+002, 1.352940e+003
7.944855e+002, 1.354192e+003
7.949677e+002, 1.354696e+003
7.954498e+002, 1.354996e+003
7.959319e+002, 1.354989e+003
7.964140e+002, 1.353412e+003
7.968961e+002, 1.349572e+003
7.973782e+002, 1.345772e+003
7.978604e+002, 1.345611e+003
7.983425e+002, 1.349358e+003
7.988246e+002, 1.349753e+003
7.993067e+002, 1.344308e+003
7.997888e+002, 1.339998e+003
8.002709e+002, 1.339666e+003
8.007531e+002, 1.340201e+003
8.012352e+002, 1.339091e+003
8.017173e+002, 1.336717e+003
8.021994e+002, 1.335338e+003
8.026815e+002, 1.336017e+003
8.031636e+002, 1.337121e+003
8.036458e+002, 1.338246e+003
8.041279e+002, 1.339065e+003
8.046100e+002, 1.339020e+003
8.050921e+002, 1.338275e+003
8.055742e+002, 1.337673e+003
8.060563e+002, 1.337713e+003
8.065385e+002, 1.337555e+003
8.070206e+002, 1.335414e+003
8.075027e+002, 1.331515e+003
8.079848e+002, 1.329158e+003
8.084669e+002, 1.328781e+003
8.089490e+002, 1.328322e+003
8.094312e+002, 1.326797e+003
8.099133e+002, 1.324843e+003
8.103954e+002, 1.323552e+003
8.108775e+002, 1.323172e+003
8.113596e+002, 1.321738e+003
8.118417e+002, 1.317426e+003
8.123239e+002, 1.314402e+003
8.128060e+002, 1.314666e+003
8.132881e+002, 1.316109e+003
8.137702e+002, 1.317018e+003
8.142523e+002, 1.317175e+003
8.147344e+002, 1.316962e+003
8.152166e+002, 1.316674e+003
8.156987e+002, 1.315875e+003
8.161808e+002, 1.313425e+003
8.166629e+002, 1.310299e+003
8.171450e+002, 1.309029e+003
8.176271e+002, 1.309677e+003
8.181093e+002, 1.309846e+003
8.185914e+002, 1.308044e+003
8.190735e+002, 1.305724e+003
8.195556e+002, 1.306201e+003
8.200377e+002, 1.310395e+003
8.205198e+002, 1.311197e+003
8.210020e+002, 1.306473e+003
8.214841e+002, 1.302367e+003
8.219662e+002, 1.301547e+003
8.224483e+002, 1.302218e+003
8.229304e+002, 1.302690e+003
8.234125e+002, 1.302924e+003
8.238947e+002, 1.302653e+003
8.243768e+002, 1.301258e+003
8.248589e+002, 1.300051e+003
8.253410e+002, 1.299990e+003
8.258231e+002, 1.300185e+003
8.263052e+002, 1.299755e+003
8.267874e+002, 1.298597e+003
8.272695e+002, 1.296811e+003
8.277516e+002, 1.294323e+003
8.282337e+002, 1.291845e+003
8.287158e+002, 1.290651e+003
8.291979e+002, 1.290362e+003
8.296801e+002, 1.289291e+003
8.301622e+002, 1.287291e+003
8.306443e+002, 1.285122e+003
8.311264e+002, 1.282977e+003
8.316085e+002, 1.281446e+003
8.320906e+002, 1.281757e+003
8.325728e+002, 1.284384e+003
8.330549e+002, 1.285290e+003
8.335370e+002, 1.283314e+003
8.340191e+002, 1.281228e+003
8.345012e+002, 1.279443e+003
8.349833e+002, 1.277969e+003
8.354655e+002, 1.276853e+003
8.359476e+002, 1.276063e+003
8.364297e+002, 1.275406e+003
8.369118e+002, 1.274579e+003
8.373939e+002, 1.274282e+003
8.378760e+002, 1.275469e+003
8.383582e+002, 1.277026e+003
8.388403e+002, 1.277948e+003
8.393224e+002, 1.278015e+003
8.398045e+002, 1.276821e+003
8.402866e+002, 1.274169e+003
8.407687e+002, 1.271361e+003
8.412509e+002, 1.270387e+003
8.417330e+002, 1.270911e+003
8.422151e+002, 1.271039e+003
8.426972e+002, 1.270730e+003
8.431793e+002, 1.270179e+003
8.436614e+002, 1.269410e+003
8.441436e+002, 1.268529e+003
8.446257e+002, 1.267592e+003
8.451078e+002, 1.266600e+003
8.455899e+002, 1.266093e+003
8.460720e+002, 1.267181e+003
8.465541e+002, 1.267071e+003
8.470363e+002, 1.264137e+003
8.475184e+002, 1.261261e+003
8.480005e+002, 1.260359e+003
8.484826e+002, 1.260882e+003
8.489647e+002, 1.261488e+003
8.494468e+002, 1.261956e+003
8.499290e+002, 1.261965e+003
8.504111e+002, 1.261109e+003
8.508932e+002, 1.259904e+003
8.513753e+002, 1.258764e+003
8.518574e+002, 1.257740e+003
8.523395e+002, 1.256825e+003
8.528217e+002, 1.256036e+003
8.533038e+002, 1.255488e+003
8.537859e+002, 1.255510e+003
8.542680e+002, 1.255694e+003
8.547501e+002, 1.254486e+003
8.552322e+002, 1.251892e+003
8.557144e+002, 1.249803e+003
8.561965e+002, 1.248612e+003
8.566786e+002, 1.247986e+003
8.571607e+002, 1.247875e+003
8.576428e+002, 1.248002e+003
8.581249e+002, 1.247415e+003
8.586071e+002, 1.245303e+003
8.590892e+002, 1.244239e+003
8.595713e+002, 1.244813e+003
8.600534e+002, 1.245693e+003
8.605355e+002, 1.246576e+003
8.610176e+002, 1.247406e+003
8.614998e+002, 1.248492e+003
8.619819e+002, 1.249755e+003
8.624640e+002, 1.249681e+003
8.629461e+002, 1.246573e+003
8.634282e+002, 1.243098e+003
8.639103e+002, 1.240710e+003
8.643925e+002, 1.239296e+003
8.648746e+002, 1.239178e+003
8.653567e+002, 1.239964e+003
8.658388e+002, 1.240243e+003
8.663209e+002, 1.239188e+003
8.668030e+002, 1.237318e+003
8.672852e+002, 1.235063e+003
8.677673e+002, 1.232634e+003
8.682494e+002, 1.231168e+003
8.687315e+002, 1.230753e+003
8.692136e+002, 1.230887e+003
8.696957e+002, 1.231457e+003
8.701779e+002, 1.232212e+003
8.706600e+002, 1.232961e+003
8.711421e+002, 1.233713e+003
8.716242e+002, 1.233175e+003
8.721063e+002, 1.230544e+003
8.725884e+002, 1.228028e+003
8.730705e+002, 1.225428e+003
8.735526e+002, 1.223580e+003
8.740347e+002, 1.223805e+003
8.745168e+002, 1.225078e+003
8.749990e+002, 1.224595e+003
8.754811e+002, 1.220828e+003
8.759632e+002, 1.218644e+003
8.764453e+002, 1.221689e+003
8.769274e+002, 1.225055e+003
8.774095e+002, 1.225005e+003
8.778917e+002, 1.222736e+003
8.783738e+002, 1.220401e+003
8.788559e+002, 1.218636e+003
8.793380e+002, 1.217263e+003
8.798201e+002, 1.216188e+003
8.803022e+002, 1.215382e+003
8.807844e+002, 1.214667e+003
8.812665e+002, 1.214172e+003
8.817486e+002, 1.214696e+003
8.822307e+002, 1.216274e+003
8.827128e+002, 1.217166e+003
8.831949e+002, 1.216139e+003
8.836771e+002, 1.214326e+003
8.841592e+002, 1.214458e+003
8.846413e+002, 1.217109e+003
8.851234e+002, 1.217061e+003
8.856055e+002, 1.212919e+003
8.860876e+002, 1.209498e+003
8.865698e+002, 1.208582e+003
8.870519e+002, 1.208964e+003
8.875340e+002, 1.209694e+003
8.880161e+002, 1.210697e+003
8.884982e+002, 1.210856e+003
8.889803e+002, 1.209045e+003
8.894625e+002, 1.207934e+003
8.899446e+002, 1.208804e+003
8.904267e+002, 1.209745e+003
8.909088e+002, 1.209355e+003
8.913909e+002, 1.208070e+003
8.918730e+002, 1.206800e+003
8.923552e+002, 1.205769e+003
8.928373e+002, 1.205250e+003
8.933194e+002, 1.206241e+003
8.938015e+002, 1.207146e+003
8.942836e+002, 1.205756e+003
8.947657e+002, 1.203097e+003
8.952479e+002, 1.201416e+003
8.957300e+002, 1.201129e+003
8.962121e+002, 1.201153e+003
8.966942e+002, 1.200654e+003
8.971763e+002, 1.200089e+003
8.976584e+002, 1.200522e+003
8.981406e+002, 1.201831e+003
8.986227e+002, 1.202882e+003
8.991048e+002, 1.203559e+003
8.995869e+002, 1.204217e+003
9.000690e+002, 1.205311e+003
9.005511e+002, 1.205548e+003
9.010333e+002, 1.202500e+003
9.015154e+002, 1.195867e+003
9.019975e+002, 1.192788e+003
9.024796e+002, 1.195165e+003
9.029617e+002, 1.197583e+003
9.034438e+002, 1.199851e+003
9.039260e+002, 1.201066e+003
9.044081e+002, 1.200015e+003
9.048902e+002, 1.197532e+003
9.053723e+002, 1.195826e+003
9.058544e+002, 1.195564e+003
9.063365e+002, 1.194852e+003
9.068187e+002, 1.192768e+003
9.073008e+002, 1.190602e+003
9.077829e+002, 1.189210e+003
9.082650e+002, 1.188181e+003
9.087471e+002, 1.186963e+003
9.092292e+002, 1.185428e+003
9.097114e+002, 1.183536e+003
9.101935e+002, 1.180744e+003
9.106756e+002, 1.178422e+003
9.111577e+002, 1.178340e+003
9.116398e+002, 1.179564e+003
9.121219e+002, 1.180638e+003
9.126041e+002, 1.181300e+003
9.130862e+002, 1.181493e+003
9.135683e+002, 1.181195e+003
9.140504e+002, 1.180406e+003
9.145325e+002, 1.178870e+003
9.150146e+002, 1.176838e+003
9.154968e+002, 1.175834e+003
9.159789e+002, 1.175912e+003
9.164610e+002, 1.175674e+003
9.169431e+002, 1.174705e+003
9.174252e+002, 1.173659e+003
9.179073e+002, 1.173043e+003
9.183895e+002, 1.172799e+003
9.188716e+002, 1.172758e+003
9.193537e+002, 1.173138e+003
9.198358e+002, 1.173139e+003
9.203179e+002, 1.172711e+003
9.208000e+002, 1.171943e+003
9.212822e+002, 1.170695e+003
9.217643e+002, 1.169208e+003
9.222464e+002, 1.167559e+003
9.227285e+002, 1.165781e+003
9.232106e+002, 1.164640e+003
9.236927e+002, 1.165014e+003
9.241749e+002, 1.164976e+003
9.246570e+002, 1.164006e+003
9.251391e+002, 1.162413e+003
9.256212e+002, 1.159302e+003
9.261033e+002, 1.156075e+003
9.265854e+002, 1.156051e+003
9.270676e+002, 1.160313e+003
9.275497e+002, 1.163863e+003
9.280318e+002, 1.163061e+003
9.285139e+002, 1.160284e+003
9.289960e+002, 1.156997e+003
9.294781e+002, 1.153880e+003
9.299603e+002, 1.152096e+003
9.304424e+002, 1.151746e+003
9.309245e+002, 1.152263e+003
9.314066e+002, 1.153397e+003
9.318887e+002, 1.154545e+003
9.323708e+002, 1.154971e+003
9.328530e+002, 1.154594e+003
9.333351e+002, 1.152365e+003
9.338172e+002, 1.148443e+003
9.342993e+002, 1.146572e+003
9.347814e+002, 1.148286e+003
9.352635e+002, 1.151101e+003
9.357457e+002, 1.152451e+003
9.362278e+002, 1.152439e+003
9.367099e+002, 1.151411e+003
9.371920e+002, 1.148803e+003
9.376741e+002, 1.147791e+003
9.381563e+002, 1.149523e+003
9.386384e+002, 1.151143e+003
9.391205e+002, 1.151262e+003
9.396026e+002, 1.150156e+003
9.400847e+002, 1.147961e+003
9.405668e+002, 1.144176e+003
9.410490e+002, 1.142312e+003
9.415311e+002, 1.143798e+003
9.420132e+002, 1.145176e+003
9.424953e+002, 1.146138e+003
9.429774e+002, 1.146486e+003
9.434595e+002, 1.145795e+003
9.439417e+002, 1.144427e+003
9.444238e+002, 1.143207e+003
9.449059e+002, 1.142184e+003
9.453880e+002, 1.141746e+003
9.458701e+002, 1.142049e+003
9.463522e+002, 1.142957e+003
9.468344e+002, 1.144782e+003
9.473165e+002, 1.146928e+003
9.477986e+002, 1.148964e+003
9.482807e+002, 1.150573e+003
9.487628e+002, 1.150816e+003
9.492449e+002, 1.148450e+003
9.497271e+002, 1.146478e+003
9.502092e+002, 1.148955e+003
9.506913e+002, 1.152992e+003
9.511734e+002, 1.153618e+003
9.516555e+002, 1.151607e+003
9.521376e+002, 1.150690e+003
9.526198e+002, 1.152110e+003
9.531019e+002, 1.154419e+003
9.535840e+002, 1.156515e+003
9.540661e+002, 1.158169e+003
9.545482e+002, 1.158600e+003
9.550303e+002, 1.157999e+003
9.555124e+002, 1.157508e+003
9.559945e+002, 1.157288e+003
9.564766e+002, 1.157656e+003
9.569587e+002, 1.158822e+003
9.574409e+002, 1.160428e+003
9.579230e+002, 1.161902e+003
9.584051e+002, 1.163257e+003
9.588872e+002, 1.164698e+003
9.593693e+002, 1.166238e+003
9.598514e+002, 1.167757e+003
9.603336e+002, 1.169033e+003
9.608157e+002, 1.170779e+003
9.612978e+002, 1.173862e+003
9.617799e+002, 1.177592e+003
9.622620e+002, 1.180026e+003
9.627441e+002, 1.180915e+003
9.632263e+002, 1.181239e+003
9.637084e+002, 1.179031e+003
9.641905e+002, 1.178968e+003
9.646726e+002, 1.184489e+003
9.651547e+002, 1.190801e+003
9.656368e+002, 1.193604e+003
9.661190e+002, 1.193517e+003
9.666011e+002, 1.193771e+003
9.670832e+002, 1.194449e+003
9.675653e+002, 1.196130e+003
9.680474e+002, 1.199850e+003
9.685295e+002, 1.203621e+003
9.690117e+002, 1.206244e+003
9.694938e+002, 1.208255e+003
9.699759e+002, 1.210944e+003
9.704580e+002, 1.214113e+003
9.709401e+002, 1.215341e+003
9.714222e+002, 1.213497e+003
9.719044e+002, 1.209550e+003
9.723865e+002, 1.203367e+003
9.728686e+002, 1.195973e+003
9.733507e+002, 1.188029e+003
9.738328e+002, 1.179938e+003
9.743149e+002, 1.172144e+003
9.747971e+002, 1.164841e+003
9.752792e+002, 1.158256e+003
9.757613e+002, 1.153035e+003
9.762434e+002, 1.148179e+003
9.767255e+002, 1.141992e+003
9.772076e+002, 1.135271e+003
9.776898e+002, 1.129759e+003
9.781719e+002, 1.125479e+003
9.786540e+002, 1.121313e+003
9.791361e+002, 1.116708e+003
9.796182e+002, 1.112745e+003
9.801003e+002, 1.111195e+003
9.805825e+002, 1.111201e+003
9.810646e+002, 1.110045e+003
9.815467e+002, 1.107799e+003
9.820288e+002, 1.104664e+003
9.825109e+002, 1.100700e+003
9.829930e+002, 1.097444e+003
9.834752e+002, 1.095975e+003
9.839573e+002, 1.095501e+003
9.844394e+002, 1.094517e+003
9.849215e+002, 1.093021e+003
9.854036e+002, 1.091836e+003
9.858857e+002, 1.091018e+003
9.863679e+002, 1.090192e+003
9.868500e+002, 1.089269e+003
9.873321e+002, 1.088262e+003
9.878142e+002, 1.087127e+003
9.882963e+002, 1.085965e+003
9.887784e+002, 1.085106e+003
9.892606e+002, 1.084578e+003
9.897427e+002, 1.084307e+003
9.902248e+002, 1.084805e+003
9.907069e+002, 1.084499e+003
9.911890e+002, 1.082090e+003
9.916711e+002, 1.079565e+003
9.921533e+002, 1.078914e+003
9.926354e+002, 1.079856e+003
9.931175e+002, 1.080768e+003
9.935996e+002, 1.082120e+003
9.940817e+002, 1.082599e+003
9.945638e+002, 1.081474e+003
9.950460e+002, 1.080334e+003
9.955281e+002, 1.079841e+003
9.960102e+002, 1.079603e+003
9.964923e+002, 1.079108e+003
9.969744e+002, 1.078411e+003
9.974565e+002, 1.078105e+003
9.979387e+002, 1.078614e+003
9.984208e+002, 1.078999e+003
9.989029e+002, 1.079302e+003
9.993850e+002, 1.079120e+003
9.998671e+002, 1.077562e+003
1.000349e+003, 1.075693e+003
1.000831e+003, 1.075205e+003
1.001313e+003, 1.076167e+003
1.001796e+003, 1.076918e+003
1.002278e+003, 1.076790e+003
1.002760e+003, 1.076268e+003
1.003242e+003, 1.074754e+003
1.003724e+003, 1.073711e+003
1.004206e+003, 1.074791e+003
1.004688e+003, 1.077320e+003
1.005170e+003, 1.080159e+003
1.005653e+003, 1.082865e+003
1.006135e+003, 1.084628e+003
1.006617e+003, 1.084628e+003
1.007099e+003, 1.083896e+003
1.007581e+003, 1.082580e+003
1.008063e+003, 1.081645e+003
1.008545e+003, 1.083217e+003
1.009027e+003, 1.086385e+003
1.009509e+003, 1.088147e+003
1.009992e+003, 1.087513e+003
1.010474e+003, 1.086245e+003
1.010956e+003, 1.085567e+003
1.011438e+003, 1.085507e+003
1.011920e+003, 1.086865e+003
1.012402e+003, 1.088653e+003
1.012884e+003, 1.088373e+003
1.013366e+003, 1.086052e+003
1.013849e+003, 1.083246e+003
1.014331e+003, 1.080645e+003
1.014813e+003, 1.078256e+003
1.015295e+003, 1.076027e+003
1.015777e+003, 1.074056e+003
1.016259e+003, 1.072898e+003
1.016741e+003, 1.072261e+003
1.017223e+003, 1.070721e+003
1.017705e+003, 1.068127e+003
1.018188e+003, 1.065147e+003
1.018670e+003, 1.062087e+003
1.019152e+003, 1.059499e+003
1.019634e+003, 1.058396e+003
1.020116e+003, 1.058352e+003
1.020598e+003, 1.057313e+003
1.021080e+003, 1.055296e+003
1.021562e+003, 1.052106e+003
1.022044e+003, 1.047555e+003
1.022527e+003, 1.045015e+003
1.023009e+003, 1.046726e+003
1.023491e+003, 1.050026e+003
1.023973e+003, 1.050610e+003
1.024455e+003, 1.048641e+003
1.024937e+003, 1.046837e+003
1.025419e+003, 1.045274e+003
1.025901e+003, 1.043119e+003
1.026384e+003, 1.039896e+003
1.026866e+003, 1.037576e+003
1.027348e+003, 1.037552e+003
1.027830e+003, 1.038820e+003
1.028312e+003, 1.039515e+003
1.028794e+003, 1.039601e+003
1.029276e+003, 1.040400e+003
1.029758e+003, 1.042584e+003
1.030240e+003, 1.042923e+003
1.030723e+003, 1.039965e+003
1.031205e+003, 1.037113e+003
1.031687e+003, 1.036848e+003
1.032169e+003, 1.037834e+003
1.032651e+003, 1.037233e+003
1.033133e+003, 1.034721e+003
1.033615e+003, 1.033318e+003
1.034097e+003, 1.033382e+003
1.034579e+003, 1.033757e+003
1.035062e+003, 1.034262e+003
1.035544e+003, 1.034990e+003
1.036026e+003, 1.036380e+003
1.036508e+003, 1.037789e+003
1.036990e+003, 1.037714e+003
1.037472e+003, 1.035763e+003
1.037954e+003, 1.034495e+003
1.038436e+003, 1.034460e+003
1.038919e+003, 1.034232e+003
1.039401e+003, 1.033392e+003
1.039883e+003, 1.032498e+003
1.040365e+003, 1.032204e+003
1.040847e+003, 1.032020e+003
1.041329e+003, 1.030669e+003
1.041811e+003, 1.027677e+003
1.042293e+003, 1.026044e+003
1.042776e+003, 1.026424e+003
1.043258e+003, 1.027333e+003
1.043740e+003, 1.029817e+003
1.044222e+003, 1.031448e+003
1.044704e+003, 1.030332e+003
1.045186e+003, 1.027365e+003
1.045668e+003, 1.023883e+003
1.046150e+003, 1.019626e+003
1.046632e+003, 1.017437e+003
1.047115e+003, 1.019454e+003
1.047597e+003, 1.021030e+003
1.048079e+003, 1.020706e+003
1.048561e+003, 1.019888e+003
1.049043e+003, 1.019544e+003
1.049525e+003, 1.019413e+003
1.050007e+003, 1.018830e+003
1.050489e+003, 1.017665e+003
1.050971e+003, 1.016766e+003
1.051454e+003, 1.016442e+003
1.051936e+003, 1.016210e+003
1.052418e+003, 1.015798e+003
1.052900e+003, 1.015551e+003
1.053382e+003, 1.016074e+003
1.053864e+003, 1.016806e+003
1.054346e+003, 1.016542e+003
1.054828e+003, 1.015081e+003
1.055311e+003, 1.014138e+003
1.055793e+003, 1.015282e+003
1.056275e+003, 1.015510e+003
1.056757e+003, 1.012642e+003
1.057239e+003, 1.009610e+003
1.057721e+003, 1.008491e+003
1.058203e+003, 1.008844e+003
1.058685e+003, 1.009944e+003
1.059167e+003, 1.011628e+003
1.059650e+003, 1.012701e+003
1.060132e+003, 1.012441e+003
1.060614e+003, 1.011955e+003
1.061096e+003, 1.011685e+003
1.061578e+003, 1.011323e+003
1.062060e+003, 1.010634e+003
1.062542e+003, 1.009679e+003
1.063024e+003, 1.008337e+003
1.063506e+003, 1.006688e+003
1.063989e+003, 1.005839e+003
1.064471e+003, 1.006907e+003
1.064953e+003, 1.007806e+003
1.065435e+003, 1.007705e+003
1.065917e+003, 1.007073e+003
1.066399e+003, 1.005956e+003
1.066881e+003, 1.004706e+003
1.067363e+003, 1.003898e+003
1.067846e+003, 1.003547e+003
1.068328e+003, 1.002985e+003
1.068810e+003, 1.001732e+003
1.069292e+003, 1.000644e+003
1.069774e+003, 1.000199e+003
1.070256e+003, 9.999766e+002
1.070738e+003, 9.993023e+002
1.071220e+003, 9.988508e+002
1.071703e+003, 1.000249e+003
1.072185e+003, 1.003129e+003
1.072667e+003, 1.004335e+003
1.073149e+003, 1.002174e+003
1.073631e+003, 9.994255e+002
1.074113e+003, 9.961484e+002
1.074595e+003, 9.940320e+002
1.075077e+003, 9.955225e+002
1.075559e+003, 9.981495e+002
1.076042e+003, 9.983962e+002
1.076524e+003, 9.963897e+002
1.077006e+003, 9.949835e+002
1.077488e+003, 9.953533e+002
1.077970e+003, 9.957474e+002
1.078452e+003, 9.955043e+002
1.078934e+003, 9.948434e+002
1.079416e+003, 9.936201e+002
1.079898e+003, 9.922740e+002
1.080380e+003, 9.911757e+002
1.080863e+003, 9.904333e+002
1.081345e+003, 9.901910e+002
1.081827e+003, 9.905624e+002
1.082309e+003, 9.910901e+002
1.082791e+003, 9.918660e+002
1.083273e+003, 9.923847e+002
1.083755e+003, 9.917826e+002
1.084237e+003, 9.911793e+002
1.084720e+003, 9.922716e+002
1.085202e+003, 9.943326e+002
1.085684e+003, 9.950167e+002
1.086166e+003, 9.935419e+002
1.086648e+003, 9.923812e+002
1.087130e+003, 9.932021e+002
1.087612e+003, 9.938173e+002
1.088094e+003, 9.931398e+002
1.088577e+003, 9.916878e+002
1.089059e+003, 9.893082e+002
1.089541e+003, 9.867794e+002
1.090023e+003, 9.856413e+002
1.090505e+003, 9.862077e+002
1.090987e+003, 9.871104e+002
1.091469e+003, 9.882813e+002
1.091951e+003, 9.891163e+002
1.092433e+003, 9.895243e+002
1.092916e+003, 9.893560e+002
1.093398e+003, 9.882224e+002
1.093880e+003, 9.865604e+002
1.094362e+003, 9.849018e+002
1.094844e+003, 9.833884e+002
1.095326e+003, 9.824601e+002
1.095808e+003, 9.825817e+002
1.096290e+003, 9.828404e+002
1.096772e+003, 9.833723e+002
1.097255e+003, 9.834821e+002
1.097737e+003, 9.816251e+002
1.098219e+003, 9.797464e+002
1.098701e+003, 9.812803e+002
1.099183e+003, 9.857245e+002
1.099665e+003, 9.878732e+002
1.100147e+003, 9.849335e+002
1.100629e+003, 9.829670e+002
1.101112e+003, 9.845184e+002
1.101594e+003, 9.862136e+002
1.102076e+003, 9.861716e+002
1.102558e+003, 9.856017e+002
1.103040e+003, 9.856852e+002
1.103522e+003, 9.864457e+002
1.104004e+003, 9.877073e+002
1.104486e+003, 9.899117e+002
1.104969e+003, 9.911132e+002
1.105451e+003, 9.896837e+002
1.105933e+003, 9.888672e+002
1.106415e+003, 9.904661e+002
1.106897e+003, 9.924965e+002
1.107379e+003, 9.936307e+002
1.107861e+003, 9.938716e+002
1.108343e+003, 9.932699e+002
1.108825e+003, 9.916302e+002
1.109307e+003, 9.903175e+002
1.109790e+003, 9.895902e+002
1.110272e+003, 9.889952e+002
1.110754e+003, 9.887248e+002
1.111236e+003, 9.882716e+002
1.111718e+003, 9.872107e+002
1.112200e+003, 9.858327e+002
1.112682e+003, 9.845939e+002
1.113164e+003, 9.835110e+002
1.113647e+003, 9.824968e+002
1.114129e+003, 9.817192e+002
1.114611e+003, 9.807384e+002
1.115093e+003, 9.790501e+002
1.115575e+003, 9.778241e+002
1.116057e+003, 9.777835e+002
1.116539e+003, 9.782596e+002
1.117021e+003, 9.787309e+002
1.117504e+003, 9.790811e+002
1.117986e+003, 9.783786e+002
1.118468e+003, 9.758671e+002
1.118950e+003, 9.740980e+002
1.119432e+003, 9.732001e+002
1.119914e+003, 9.728585e+002
1.120396e+003, 9.732139e+002
1.120878e+003, 9.736815e+002
1.121360e+003, 9.736935e+002
1.121843e+003, 9.734911e+002
1.122325e+003, 9.739276e+002
1.122807e+003, 9.753430e+002
1.123289e+003, 9.751797e+002
1.123771e+003, 9.728353e+002
1.124253e+003, 9.710137e+002
1.124735e+003, 9.704359e+002
1.125217e+003, 9.700306e+002
1.125699e+003, 9.691003e+002
1.126182e+003, 9.679870e+002
1.126664e+003, 9.672823e+002
1.127146e+003, 9.669690e+002
1.127628e+003, 9.667244e+002
1.128110e+003, 9.665388e+002
1.128592e+003, 9.665099e+002
1.129074e+003, 9.666625e+002
1.129556e+003, 9.669615e+002
1.130039e+003, 9.674862e+002
1.130521e+003, 9.675050e+002
1.131003e+003, 9.659935e+002
1.131485e+003, 9.635878e+002
1.131967e+003, 9.625646e+002
1.132449e+003, 9.628647e+002
1.132931e+003, 9.636163e+002
1.133413e+003, 9.647487e+002
1.133896e+003, 9.655855e+002
1.134378e+003, 9.659218e+002
1.134860e+003, 9.660240e+002
1.135342e+003, 9.661030e+002
1.135824e+003, 9.660547e+002
1.136306e+003, 9.656171e+002
1.136788e+003, 9.649006e+002
1.137270e+003, 9.639918e+002
1.137752e+003, 9.631575e+002
1.138234e+003, 9.640695e+002
1.138717e+003, 9.667113e+002
1.139199e+003, 9.686600e+002
1.139681e+003, 9.686801e+002
1.140163e+003, 9.679693e+002
1.140645e+003, 9.679626e+002
1.141127e+003, 9.680333e+002
1.141609e+003, 9.666578e+002
1.142091e+003, 9.646138e+002
1.142574e+003, 9.634950e+002
1.143056e+003, 9.633982e+002
1.143538e+003, 9.640842e+002
1.144020e+003, 9.653737e+002
1.144502e+003, 9.666165e+002
1.144984e+003, 9.673153e+002
1.145466e+003, 9.678798e+002
1.145948e+003, 9.693145e+002
1.146431e+003, 9.703977e+002
1.146913e+003, 9.688576e+002
1.147395e+003, 9.661135e+002
1.147877e+003, 9.650845e+002
1.148359e+003, 9.658073e+002
1.148841e+003, 9.659871e+002
1.149323e+003, 9.645400e+002
1.149805e+003, 9.631673e+002
1.150287e+003, 9.627365e+002
1.150770e+003, 9.629949e+002
1.151252e+003, 9.641245e+002
1.151734e+003, 9.655458e+002
1.152216e+003, 9.669269e+002
1.152698e+003, 9.680074e+002
1.153180e+003, 9.682867e+002
1.153662e+003, 9.676677e+002
1.154144e+003, 9.670519e+002
1.154626e+003, 9.667504e+002
1.155109e+003, 9.664941e+002
1.155591e+003, 9.659216e+002
1.156073e+003, 9.656738e+002
1.156555e+003, 9.668010e+002
1.157037e+003, 9.680664e+002
1.157519e+003, 9.674922e+002
1.158001e+003, 9.653571e+002
1.158483e+003, 9.643058e+002
1.158966e+003, 9.650947e+002
1.159448e+003, 9.658590e+002
1.159930e+003, 9.670349e+002
1.160412e+003, 9.673961e+002
1.160894e+003, 9.659010e+002
1.161376e+003, 9.642980e+002
1.161858e+003, 9.640457e+002
1.162340e+003, 9.644910e+002
1.162822e+003, 9.641352e+002
1.163305e+003, 9.628430e+002
1.163787e+003, 9.621379e+002
1.164269e+003, 9.618666e+002
1.164751e+003, 9.628671e+002
1.165233e+003, 9.659836e+002
1.165715e+003, 9.681292e+002
1.166197e+003, 9.675865e+002
1.166679e+003, 9.660712e+002
1.167161e+003, 9.654769e+002
1.167644e+003, 9.657462e+002
1.168126e+003, 9.668212e+002
1.168608e+003, 9.687408e+002
1.169090e+003, 9.701462e+002
1.169572e+003, 9.709596e+002
1.170054e+003, 9.717541e+002
1.170536e+003, 9.726703e+002
1.171018e+003, 9.740925e+002
1.171500e+003, 9.763351e+002
1.171983e+003, 9.789089e+002
1.172465e+003, 9.814261e+002
1.172947e+003, 9.834927e+002
1.173429e+003, 9.830042e+002
1.173911e+003, 9.809202e+002
1.174393e+003, 9.808962e+002
1.174875e+003, 9.831708e+002
1.175357e+003, 9.865553e+002
1.175840e+003, 9.904620e+002
1.176322e+003, 9.934374e+002
1.176804e+003, 9.938263e+002
1.177286e+003, 9.937888e+002
1.177768e+003, 9.960822e+002
1.178250e+003, 9.996060e+002
1.178732e+003, 1.003262e+003
1.179214e+003, 1.006661e+003
1.179697e+003, 1.008994e+003
1.180179e+003, 1.010514e+003
1.180661e+003, 1.012654e+003
1.181143e+003, 1.016077e+003
1.181625e+003, 1.019553e+003
1.182107e+003, 1.022061e+003
1.182589e+003, 1.024674e+003
1.183071e+003, 1.029270e+003
1.183553e+003, 1.033230e+003
1.184036e+003, 1.033945e+003
1.184518e+003, 1.032166e+003
1.185000e+003, 1.029174e+003
1.185482e+003, 1.025287e+003
1.185964e+003, 1.022082e+003
1.186446e+003, 1.020886e+003
1.186928e+003, 1.018818e+003
1.187410e+003, 1.015084e+003
1.187892e+003, 1.010793e+003
1.188375e+003, 1.006389e+003
1.188857e+003, 1.001654e+003
1.189339e+003, 9.956978e+002
1.189821e+003, 9.894500e+002
1.190303e+003, 9.859596e+002
1.190785e+003, 9.859124e+002
1.191267e+003, 9.845538e+002
1.191749e+003, 9.813582e+002
1.192232e+003, 9.782429e+002
1.192714e+003, 9.752548e+002
1.193196e+003, 9.732317e+002
1.193678e+003, 9.728339e+002
1.194160e+003, 9.728693e+002
1.194642e+003, 9.718364e+002
1.195124e+003, 9.700811e+002
1.195606e+003, 9.691067e+002
1.196089e+003, 9.688621e+002
1.196571e+003, 9.680007e+002
1.197053e+003, 9.665001e+002
1.197535e+003, 9.652174e+002
1.198017e+003, 9.643541e+002
1.198499e+003, 9.633203e+002
1.198981e+003, 9.617258e+002
1.199463e+003, 9.601830e+002
1.199945e+003, 9.596155e+002
1.200427e+003, 9.595989e+002
1.200910e+003, 9.593024e+002
1.201392e+003, 9.588735e+002
1.201874e+003, 9.586971e+002
1.202356e+003, 9.586855e+002
1.202838e+003, 9.585609e+002
1.203320e+003, 9.581902e+002
1.203802e+003, 9.572527e+002
1.204284e+003, 9.552408e+002
1.204767e+003, 9.535850e+002
1.205249e+003, 9.537037e+002
1.205731e+003, 9.542728e+002
1.206213e+003, 9.544401e+002
1.206695e+003, 9.542330e+002
1.207177e+003, 9.536848e+002
1.207659e+003, 9.528738e+002
1.208141e+003, 9.517472e+002
1.208624e+003, 9.502284e+002
1.209106e+003, 9.496716e+002
1.209588e+003, 9.515670e+002
1.210070e+003, 9.527090e+002
1.210552e+003, 9.518101e+002
1.211034e+003, 9.507480e+002
1.211516e+003, 9.503278e+002
1.211998e+003, 9.502949e+002
1.212480e+003, 9.503830e+002
1.212963e+003, 9.506406e+002
1.213445e+003, 9.513875e+002
1.213927e+003, 9.529460e+002
1.214409e+003, 9.530555e+002
1.214891e+003, 9.509683e+002
1.215373e+003, 9.508311e+002
1.215855e+003, 9.541623e+002
1.216337e+003, 9.555798e+002
1.216819e+003, 9.518746e+002
1.217302e+003, 9.469084e+002
1.217784e+003, 9.454641e+002
1.218266e+003, 9.464158e+002
1.218748e+003, 9.463508e+002
1.219230e+003, 9.455148e+002
1.219712e+003, 9.449008e+002
1.220194e+003, 9.446686e+002
1.220676e+003, 9.454886e+002
1.221159e+003, 9.472975e+002
1.221641e+003, 9.487208e+002
1.222123e+003, 9.490186e+002
1.222605e+003, 9.487807e+002
1.223087e+003, 9.484608e+002
1.223569e+003, 9.480476e+002
1.224051e+003, 9.472686e+002
1.224533e+003, 9.465690e+002
1.225016e+003, 9.468279e+002
1.225498e+003, 9.475026e+002
1.225980e+003, 9.472664e+002
1.226462e+003, 9.461154e+002
1.226944e+003, 9.455718e+002
1.227426e+003, 9.464376e+002
1.227908e+003, 9.470955e+002
1.228390e+003, 9.464483e+002
1.228872e+003, 9.461779e+002
1.229354e+003, 9.474706e+002
1.229837e+003, 9.489410e+002
1.230319e+003, 9.495994e+002
1.230801e+003, 9.496404e+002
1.231283e+003, 9.495156e+002
1.231765e+003, 9.492198e+002
1.232247e+003, 9.483955e+002
1.232729e+003, 9.470348e+002
1.233211e+003, 9.449348e+002
1.233694e+003, 9.413172e+002
1.234176e+003, 9.400003e+002
1.234658e+003, 9.426312e+002
1.235140e+003, 9.456555e+002
1.235622e+003, 9.465737e+002
1.236104e+003, 9.460983e+002
1.236586e+003, 9.452787e+002
1.237068e+003, 9.441951e+002
1.237551e+003, 9.431960e+002
1.238033e+003, 9.422326e+002
1.238515e+003, 9.406922e+002
1.238997e+003, 9.388777e+002
1.239479e+003, 9.385995e+002
1.239961e+003, 9.401859e+002
1.240443e+003, 9.419739e+002
1.240925e+003, 9.430137e+002
1.241407e+003, 9.433675e+002
1.241890e+003, 9.425480e+002
1.242372e+003, 9.416522e+002
1.242854e+003, 9.419822e+002
1.243336e+003, 9.426996e+002
1.243818e+003, 9.428456e+002
1.244300e+003, 9.424700e+002
1.244782e+003, 9.418945e+002
1.245264e+003, 9.411830e+002
1.245746e+003, 9.403019e+002
1.246229e+003, 9.384583e+002
1.246711e+003, 9.379057e+002
1.247193e+003, 9.402228e+002
1.247675e+003, 9.422623e+002
1.248157e+003, 9.430707e+002
1.248639e+003, 9.430995e+002
1.249121e+003, 9.423915e+002
1.249603e+003, 9.413594e+002
1.250085e+003, 9.407322e+002
1.250568e+003, 9.404919e+002
1.251050e+003, 9.403787e+002
1.251532e+003, 9.403871e+002
1.252014e+003, 9.405575e+002
1.252496e+003, 9.408981e+002
1.252978e+003, 9.410897e+002
1.253460e+003, 9.410392e+002
1.253942e+003, 9.414521e+002
1.254425e+003, 9.428810e+002
1.254907e+003, 9.442721e+002
1.255389e+003, 9.438654e+002
1.255871e+003, 9.426238e+002
1.256353e+003, 9.420674e+002
1.256835e+003, 9.421876e+002
1.257317e+003, 9.438469e+002
1.257799e+003, 9.459196e+002
1.258281e+003, 9.450477e+002
1.258764e+003, 9.413183e+002
1.259246e+003, 9.394604e+002
1.259728e+003, 9.420107e+002
1.260210e+003, 9.446260e+002
1.260692e+003, 9.452233e+002
1.261174e+003, 9.455003e+002
1.261656e+003, 9.465928e+002
1.262138e+003, 9.473405e+002
1.262620e+003, 9.462751e+002
1.263103e+003, 9.445892e+002
1.263585e+003, 9.442296e+002
1.264067e+003, 9.450654e+002
1.264549e+003, 9.459542e+002
1.265031e+003, 9.467100e+002
1.265513e+003, 9.484182e+002
1.265995e+003, 9.517339e+002
1.266477e+003, 9.527455e+002
1.266960e+003, 9.502739e+002
1.267442e+003, 9.473635e+002
1.267924e+003, 9.456229e+002
1.268406e+003, 9.450826e+002
1.268888e+003, 9.461146e+002
1.269370e+003, 9.477238e+002
1.269852e+003, 9.471523e+002
1.270334e+003, 9.455197e+002
1.270817e+003, 9.459116e+002
1.271299e+003, 9.476801e+002
1.271781e+003, 9.488268e+002
1.272263e+003, 9.489969e+002
1.272745e+003, 9.484479e+002
1.273227e+003, 9.472762e+002
1.273709e+003, 9.461969e+002
1.274191e+003, 9.455969e+002
1.274673e+003, 9.452570e+002
1.275156e+003, 9.446258e+002
1.275638e+003, 9.447059e+002
1.276120e+003, 9.466523e+002
1.276602e+003, 9.492796e+002
1.277084e+003, 9.515562e+002
1.277566e+003, 9.533008e+002
1.278048e+003, 9.541256e+002
1.278530e+003, 9.539492e+002
1.279012e+003, 9.535646e+002
1.279495e+003, 9.526370e+002
1.279977e+003, 9.526477e+002
1.280459e+003, 9.539782e+002
1.280941e+003, 9.553291e+002
1.281423e+003, 9.562431e+002
1.281905e+003, 9.568561e+002
1.282387e+003, 9.572496e+002
1.282869e+003, 9.576266e+002
1.283352e+003, 9.586410e+002
1.283834e+003, 9.596296e+002
1.284316e+003, 9.590967e+002
1.284798e+003, 9.570879e+002
##END=



