##NAMES=Iodargyrite
##RRUFFID=R061056
##IDEAL CHEMISTRY=Ag^1+^I^1-^
##LOCALITY=Capitana, Chile
##OWNER=RRUFF
##SOURCE=Bob Jenkins
##DESCRIPTION=Transparent colorless prismatic crystals
##STATUS=The identification of this mineral has been confirmed by single-crystal X-ray diffraction.
##URL=rruff.info/R061056
8.806445e+001, 5.221706e+002
8.854657e+001, 4.966696e+002
8.902869e+001, 4.878323e+002
8.951080e+001, 5.035205e+002
8.999292e+001, 5.322944e+002
9.047504e+001, 5.636110e+002
9.095715e+001, 5.952901e+002
9.143927e+001, 6.273959e+002
9.192139e+001, 6.605569e+002
9.240350e+001, 6.946188e+002
9.288562e+001, 7.285671e+002
9.336774e+001, 7.568679e+002
9.384985e+001, 7.743512e+002
9.433197e+001, 7.808580e+002
9.481409e+001, 7.866475e+002
9.529620e+001, 7.896511e+002
9.577832e+001, 7.928680e+002
9.626044e+001, 7.968373e+002
9.674255e+001, 8.018018e+002
9.722467e+001, 8.081702e+002
9.770679e+001, 8.164449e+002
9.818890e+001, 8.240118e+002
9.867102e+001, 8.297383e+002
9.915314e+001, 8.350731e+002
9.963525e+001, 8.412518e+002
1.001174e+002, 8.488285e+002
1.005995e+002, 8.573382e+002
1.010816e+002, 8.653021e+002
1.015637e+002, 8.718430e+002
1.020458e+002, 8.786946e+002
1.025280e+002, 8.856751e+002
1.030101e+002, 8.928607e+002
1.034922e+002, 9.005731e+002
1.039743e+002, 9.090924e+002
1.044564e+002, 9.184061e+002
1.049385e+002, 9.264786e+002
1.054207e+002, 9.326827e+002
1.059028e+002, 9.384473e+002
1.063849e+002, 9.446661e+002
1.068670e+002, 9.512906e+002
1.073491e+002, 9.574952e+002
1.078312e+002, 9.623508e+002
1.083134e+002, 9.658741e+002
1.087955e+002, 9.690979e+002
1.092776e+002, 9.726442e+002
1.097597e+002, 9.758109e+002
1.102418e+002, 9.775092e+002
1.107239e+002, 9.773909e+002
1.112061e+002, 9.761583e+002
1.116882e+002, 9.746498e+002
1.121703e+002, 9.727936e+002
1.126524e+002, 9.700199e+002
1.131345e+002, 9.659892e+002
1.136166e+002, 9.607045e+002
1.140988e+002, 9.543950e+002
1.145809e+002, 9.464114e+002
1.150630e+002, 9.378349e+002
1.155451e+002, 9.293805e+002
1.160272e+002, 9.210235e+002
1.165093e+002, 9.123414e+002
1.169915e+002, 9.027186e+002
1.174736e+002, 8.918273e+002
1.179557e+002, 8.808184e+002
1.184378e+002, 8.693798e+002
1.189199e+002, 8.581248e+002
1.194020e+002, 8.476004e+002
1.198842e+002, 8.379514e+002
1.203663e+002, 8.287975e+002
1.208484e+002, 8.191947e+002
1.213305e+002, 8.080862e+002
1.218126e+002, 7.977440e+002
1.222947e+002, 7.886028e+002
1.227769e+002, 7.802008e+002
1.232590e+002, 7.720558e+002
1.237411e+002, 7.638943e+002
1.242232e+002, 7.557469e+002
1.247053e+002, 7.474808e+002
1.251874e+002, 7.387672e+002
1.256696e+002, 7.303265e+002
1.261517e+002, 7.224452e+002
1.266338e+002, 7.150752e+002
1.271159e+002, 7.077512e+002
1.275980e+002, 7.001251e+002
1.280801e+002, 6.924263e+002
1.285623e+002, 6.852756e+002
1.290444e+002, 6.791646e+002
1.295265e+002, 6.732905e+002
1.300086e+002, 6.667385e+002
1.304907e+002, 6.593953e+002
1.309728e+002, 6.520295e+002
1.314550e+002, 6.452938e+002
1.319371e+002, 6.388112e+002
1.324192e+002, 6.321035e+002
1.329013e+002, 6.248188e+002
1.333834e+002, 6.171936e+002
1.338655e+002, 6.099471e+002
1.343477e+002, 6.033008e+002
1.348298e+002, 5.967379e+002
1.353119e+002, 5.901925e+002
1.357940e+002, 5.836025e+002
1.362761e+002, 5.768948e+002
1.367582e+002, 5.700255e+002
1.372404e+002, 5.630409e+002
1.377225e+002, 5.557653e+002
1.382046e+002, 5.475625e+002
1.386867e+002, 5.396921e+002
1.391688e+002, 5.326887e+002
1.396509e+002, 5.264567e+002
1.401331e+002, 5.205410e+002
1.406152e+002, 5.144315e+002
1.410973e+002, 5.081637e+002
1.415794e+002, 5.016532e+002
1.420615e+002, 4.947248e+002
1.425436e+002, 4.877260e+002
1.430258e+002, 4.807748e+002
1.435079e+002, 4.739279e+002
1.439900e+002, 4.671987e+002
1.444721e+002, 4.606024e+002
1.449542e+002, 4.541202e+002
1.454363e+002, 4.478715e+002
1.459185e+002, 4.420581e+002
1.464006e+002, 4.363786e+002
1.468827e+002, 4.303694e+002
1.473648e+002, 4.238315e+002
1.478469e+002, 4.172299e+002
1.483290e+002, 4.114166e+002
1.488112e+002, 4.063828e+002
1.492933e+002, 4.015096e+002
1.497754e+002, 3.966317e+002
1.502575e+002, 3.917621e+002
1.507396e+002, 3.868874e+002
1.512217e+002, 3.821190e+002
1.517039e+002, 3.772254e+002
1.521860e+002, 3.719597e+002
1.526681e+002, 3.662506e+002
1.531502e+002, 3.605990e+002
1.536323e+002, 3.553811e+002
1.541144e+002, 3.506314e+002
1.545966e+002, 3.459402e+002
1.550787e+002, 3.412179e+002
1.555608e+002, 3.365256e+002
1.560429e+002, 3.318865e+002
1.565250e+002, 3.272774e+002
1.570071e+002, 3.228553e+002
1.574893e+002, 3.189319e+002
1.579714e+002, 3.158116e+002
1.584535e+002, 3.123611e+002
1.589356e+002, 3.082124e+002
1.594177e+002, 3.037881e+002
1.598998e+002, 2.993636e+002
1.603820e+002, 2.950628e+002
1.608641e+002, 2.908839e+002
1.613462e+002, 2.868572e+002
1.618283e+002, 2.831489e+002
1.623104e+002, 2.793665e+002
1.627925e+002, 2.754685e+002
1.632747e+002, 2.714934e+002
1.637568e+002, 2.674124e+002
1.642389e+002, 2.632304e+002
1.647210e+002, 2.590056e+002
1.652031e+002, 2.550237e+002
1.656852e+002, 2.515280e+002
1.661674e+002, 2.479897e+002
1.666495e+002, 2.442595e+002
1.671316e+002, 2.404283e+002
1.676137e+002, 2.366941e+002
1.680958e+002, 2.331477e+002
1.685779e+002, 2.297816e+002
1.690601e+002, 2.264825e+002
1.695422e+002, 2.232442e+002
1.700243e+002, 2.200684e+002
1.705064e+002, 2.169394e+002
1.709885e+002, 2.138640e+002
1.714706e+002, 2.108458e+002
1.719528e+002, 2.078903e+002
1.724349e+002, 2.050020e+002
1.729170e+002, 2.021577e+002
1.733991e+002, 1.993826e+002
1.738812e+002, 1.966182e+002
1.743633e+002, 1.938397e+002
1.748455e+002, 1.910435e+002
1.753276e+002, 1.881223e+002
1.758097e+002, 1.847746e+002
1.762918e+002, 1.812917e+002
1.767739e+002, 1.782147e+002
1.772560e+002, 1.758741e+002
1.777382e+002, 1.738454e+002
1.782203e+002, 1.715690e+002
1.787024e+002, 1.690101e+002
1.791845e+002, 1.663383e+002
1.796666e+002, 1.635808e+002
1.801487e+002, 1.608035e+002
1.806309e+002, 1.580893e+002
1.811130e+002, 1.554361e+002
1.815951e+002, 1.528809e+002
1.820772e+002, 1.505094e+002
1.825593e+002, 1.484504e+002
1.830414e+002, 1.463838e+002
1.835236e+002, 1.440031e+002
1.840057e+002, 1.415767e+002
1.844878e+002, 1.395267e+002
1.849699e+002, 1.381883e+002
1.854520e+002, 1.374101e+002
1.859341e+002, 1.362118e+002
1.864163e+002, 1.340912e+002
1.868984e+002, 1.320843e+002
1.873805e+002, 1.304151e+002
1.878626e+002, 1.290157e+002
1.883447e+002, 1.277541e+002
1.888268e+002, 1.265352e+002
1.893090e+002, 1.253642e+002
1.897911e+002, 1.242523e+002
1.902732e+002, 1.231957e+002
1.907553e+002, 1.222010e+002
1.912374e+002, 1.212525e+002
1.917195e+002, 1.203653e+002
1.922017e+002, 1.195868e+002
1.926838e+002, 1.189785e+002
1.931659e+002, 1.185517e+002
1.936480e+002, 1.178810e+002
1.941301e+002, 1.167393e+002
1.946122e+002, 1.156292e+002
1.950944e+002, 1.147825e+002
1.955765e+002, 1.141699e+002
1.960586e+002, 1.136037e+002
1.965407e+002, 1.129091e+002
1.970228e+002, 1.120858e+002
1.975049e+002, 1.115765e+002
1.979871e+002, 1.117974e+002
1.984692e+002, 1.119584e+002
1.989513e+002, 1.113917e+002
1.994334e+002, 1.101535e+002
1.999155e+002, 1.090370e+002
2.003976e+002, 1.087942e+002
2.008798e+002, 1.093555e+002
2.013619e+002, 1.094608e+002
2.018440e+002, 1.085427e+002
2.023261e+002, 1.074821e+002
2.028082e+002, 1.072203e+002
2.032903e+002, 1.078413e+002
2.037725e+002, 1.083960e+002
2.042546e+002, 1.079832e+002
2.047367e+002, 1.069038e+002
2.052188e+002, 1.060139e+002
2.057009e+002, 1.055949e+002
2.061830e+002, 1.053939e+002
2.066652e+002, 1.050829e+002
2.071473e+002, 1.046374e+002
2.076294e+002, 1.041645e+002
2.081115e+002, 1.036828e+002
2.085936e+002, 1.032272e+002
2.090757e+002, 1.028625e+002
2.095579e+002, 1.025991e+002
2.100400e+002, 1.024479e+002
2.105221e+002, 1.024615e+002
2.110042e+002, 1.027227e+002
2.114863e+002, 1.029607e+002
2.119685e+002, 1.031023e+002
2.124506e+002, 1.031294e+002
2.129327e+002, 1.029852e+002
2.134148e+002, 1.025807e+002
2.138969e+002, 1.020156e+002
2.143790e+002, 1.016142e+002
2.148612e+002, 1.014923e+002
2.153433e+002, 1.013459e+002
2.158254e+002, 1.010324e+002
2.163075e+002, 1.006407e+002
2.167896e+002, 1.002852e+002
2.172717e+002, 1.000254e+002
2.177539e+002, 9.985522e+001
2.182360e+002, 9.976552e+001
2.187181e+002, 9.988271e+001
2.192002e+002, 9.991041e+001
2.196823e+002, 9.973558e+001
2.201644e+002, 9.944331e+001
2.206466e+002, 9.915340e+001
2.211287e+002, 9.894013e+001
2.216108e+002, 9.878492e+001
2.220929e+002, 9.858203e+001
2.225750e+002, 9.819014e+001
2.230571e+002, 9.791133e+001
2.235393e+002, 9.788611e+001
2.240214e+002, 9.798897e+001
2.245035e+002, 9.803980e+001
2.249856e+002, 9.792890e+001
2.254677e+002, 9.768276e+001
2.259498e+002, 9.746732e+001
2.264320e+002, 9.731582e+001
2.269141e+002, 9.715999e+001
2.273962e+002, 9.701963e+001
2.278783e+002, 9.686309e+001
2.283604e+002, 9.660680e+001
2.288425e+002, 9.618444e+001
2.293247e+002, 9.566492e+001
2.298068e+002, 9.545381e+001
2.302889e+002, 9.588921e+001
2.307710e+002, 9.622408e+001
2.312531e+002, 9.626073e+001
2.317352e+002, 9.609734e+001
2.322174e+002, 9.589827e+001
2.326995e+002, 9.574081e+001
2.331816e+002, 9.563302e+001
2.336637e+002, 9.562182e+001
2.341458e+002, 9.590974e+001
2.346279e+002, 9.604618e+001
2.351101e+002, 9.577644e+001
2.355922e+002, 9.528003e+001
2.360743e+002, 9.492799e+001
2.365564e+002, 9.492320e+001
2.370385e+002, 9.514277e+001
2.375206e+002, 9.518649e+001
2.380028e+002, 9.498586e+001
2.384849e+002, 9.476467e+001
2.389670e+002, 9.455244e+001
2.394491e+002, 9.437411e+001
2.399312e+002, 9.432636e+001
2.404133e+002, 9.451699e+001
2.408955e+002, 9.475860e+001
2.413776e+002, 9.459244e+001
2.418597e+002, 9.385168e+001
2.423418e+002, 9.319761e+001
2.428239e+002, 9.295609e+001
2.433060e+002, 9.302151e+001
2.437882e+002, 9.311622e+001
2.442703e+002, 9.316856e+001
2.447524e+002, 9.317107e+001
2.452345e+002, 9.310422e+001
2.457166e+002, 9.295434e+001
2.461987e+002, 9.281519e+001
2.466809e+002, 9.273499e+001
2.471630e+002, 9.270258e+001
2.476451e+002, 9.268548e+001
2.481272e+002, 9.268796e+001
2.486093e+002, 9.268398e+001
2.490914e+002, 9.265062e+001
2.495736e+002, 9.258982e+001
2.500557e+002, 9.249433e+001
2.505378e+002, 9.227328e+001
2.510199e+002, 9.199075e+001
2.515020e+002, 9.195462e+001
2.519841e+002, 9.241401e+001
2.524663e+002, 9.286309e+001
2.529484e+002, 9.276563e+001
2.534305e+002, 9.218682e+001
2.539126e+002, 9.169273e+001
2.543947e+002, 9.170557e+001
2.548768e+002, 9.211304e+001
2.553590e+002, 9.238588e+001
2.558411e+002, 9.243888e+001
2.563232e+002, 9.237725e+001
2.568053e+002, 9.226537e+001
2.572874e+002, 9.211389e+001
2.577695e+002, 9.196061e+001
2.582516e+002, 9.184521e+001
2.587338e+002, 9.175317e+001
2.592159e+002, 9.159470e+001
2.596980e+002, 9.127757e+001
2.601801e+002, 9.103039e+001
2.606622e+002, 9.102197e+001
2.611443e+002, 9.116608e+001
2.616265e+002, 9.127415e+001
2.621086e+002, 9.124909e+001
2.625907e+002, 9.109765e+001
2.630728e+002, 9.082853e+001
2.635549e+002, 9.031367e+001
2.640370e+002, 8.987926e+001
2.645192e+002, 8.959905e+001
2.650013e+002, 8.948087e+001
2.654834e+002, 8.956306e+001
2.659655e+002, 8.993893e+001
2.664476e+002, 9.048323e+001
2.669297e+002, 9.073672e+001
2.674119e+002, 9.051781e+001
2.678940e+002, 9.028581e+001
2.683761e+002, 9.023271e+001
2.688582e+002, 9.023722e+001
2.693403e+002, 9.013523e+001
2.698224e+002, 8.983398e+001
2.703046e+002, 8.941528e+001
2.707867e+002, 8.909941e+001
2.712688e+002, 8.890828e+001
2.717509e+002, 8.879543e+001
2.722330e+002, 8.873949e+001
2.727151e+002, 8.874454e+001
2.731973e+002, 8.884282e+001
2.736794e+002, 8.905109e+001
2.741615e+002, 8.928703e+001
2.746436e+002, 8.936453e+001
2.751257e+002, 8.917165e+001
2.756078e+002, 8.903484e+001
2.760900e+002, 8.903526e+001
2.765721e+002, 8.907491e+001
2.770542e+002, 8.904955e+001
2.775363e+002, 8.893502e+001
2.780184e+002, 8.882390e+001
2.785005e+002, 8.891492e+001
2.789827e+002, 8.943135e+001
2.794648e+002, 8.963564e+001
2.799469e+002, 8.926868e+001
2.804290e+002, 8.879064e+001
2.809111e+002, 8.850779e+001
2.813932e+002, 8.847243e+001
2.818754e+002, 8.853310e+001
2.823575e+002, 8.848183e+001
2.828396e+002, 8.824058e+001
2.833217e+002, 8.811782e+001
2.838038e+002, 8.820604e+001
2.842859e+002, 8.832008e+001
2.847681e+002, 8.835009e+001
2.852502e+002, 8.829996e+001
2.857323e+002, 8.825851e+001
2.862144e+002, 8.834676e+001
2.866965e+002, 8.863236e+001
2.871786e+002, 8.864368e+001
2.876608e+002, 8.809647e+001
2.881429e+002, 8.756657e+001
2.886250e+002, 8.730251e+001
2.891071e+002, 8.726514e+001
2.895892e+002, 8.726687e+001
2.900714e+002, 8.714376e+001
2.905535e+002, 8.689211e+001
2.910356e+002, 8.680943e+001
2.915177e+002, 8.700788e+001
2.919998e+002, 8.725637e+001
2.924819e+002, 8.759217e+001
2.929641e+002, 8.792748e+001
2.934462e+002, 8.810252e+001
2.939283e+002, 8.800034e+001
2.944104e+002, 8.767262e+001
2.948925e+002, 8.747099e+001
2.953746e+002, 8.751120e+001
2.958568e+002, 8.755684e+001
2.963389e+002, 8.760838e+001
2.968210e+002, 8.763744e+001
2.973031e+002, 8.759921e+001
2.977852e+002, 8.747066e+001
2.982673e+002, 8.728638e+001
2.987495e+002, 8.714942e+001
2.992316e+002, 8.701150e+001
2.997137e+002, 8.699419e+001
3.001958e+002, 8.727419e+001
3.006779e+002, 8.759373e+001
3.011600e+002, 8.765727e+001
3.016422e+002, 8.737788e+001
3.021243e+002, 8.694185e+001
3.026064e+002, 8.668328e+001
3.030885e+002, 8.666739e+001
3.035706e+002, 8.674085e+001
3.040527e+002, 8.706490e+001
3.045349e+002, 8.736404e+001
3.050170e+002, 8.740383e+001
3.054991e+002, 8.715868e+001
3.059812e+002, 8.678429e+001
3.064633e+002, 8.644737e+001
3.069454e+002, 8.609397e+001
3.074276e+002, 8.600283e+001
3.079097e+002, 8.638042e+001
3.083918e+002, 8.679712e+001
3.088739e+002, 8.702576e+001
3.093560e+002, 8.706676e+001
3.098381e+002, 8.704449e+001
3.103203e+002, 8.707130e+001
3.108024e+002, 8.715582e+001
3.112845e+002, 8.714965e+001
3.117666e+002, 8.698750e+001
3.122487e+002, 8.681632e+001
3.127308e+002, 8.669746e+001
3.132130e+002, 8.660903e+001
3.136951e+002, 8.647783e+001
3.141772e+002, 8.624395e+001
3.146593e+002, 8.594382e+001
3.151414e+002, 8.584243e+001
3.156235e+002, 8.614143e+001
3.161057e+002, 8.640606e+001
3.165878e+002, 8.657045e+001
3.170699e+002, 8.665805e+001
3.175520e+002, 8.668658e+001
3.180341e+002, 8.666305e+001
3.185162e+002, 8.662577e+001
3.189984e+002, 8.667783e+001
3.194805e+002, 8.705125e+001
3.199626e+002, 8.719967e+001
3.204447e+002, 8.695512e+001
3.209268e+002, 8.657604e+001
3.214089e+002, 8.627097e+001
3.218911e+002, 8.610442e+001
3.223732e+002, 8.604826e+001
3.228553e+002, 8.606712e+001
3.233374e+002, 8.619596e+001
3.238195e+002, 8.632005e+001
3.243016e+002, 8.646289e+001
3.247838e+002, 8.658327e+001
3.252659e+002, 8.664909e+001
3.257480e+002, 8.666257e+001
3.262301e+002, 8.665147e+001
3.267122e+002, 8.664476e+001
3.271943e+002, 8.664773e+001
3.276765e+002, 8.660564e+001
3.281586e+002, 8.647863e+001
3.286407e+002, 8.635176e+001
3.291228e+002, 8.625808e+001
3.296049e+002, 8.618923e+001
3.300870e+002, 8.611138e+001
3.305692e+002, 8.599506e+001
3.310513e+002, 8.585620e+001
3.315334e+002, 8.582040e+001
3.320155e+002, 8.606468e+001
3.324976e+002, 8.621587e+001
3.329797e+002, 8.618352e+001
3.334619e+002, 8.604014e+001
3.339440e+002, 8.586735e+001
3.344261e+002, 8.570179e+001
3.349082e+002, 8.555322e+001
3.353904e+002, 8.543539e+001
3.358725e+002, 8.527377e+001
3.363546e+002, 8.527998e+001
3.368367e+002, 8.565880e+001
3.373188e+002, 8.607077e+001
3.378009e+002, 8.621340e+001
3.382831e+002, 8.603649e+001
3.387652e+002, 8.573167e+001
3.392473e+002, 8.555396e+001
3.397294e+002, 8.555091e+001
3.402115e+002, 8.552703e+001
3.406936e+002, 8.541541e+001
3.411758e+002, 8.534332e+001
3.416579e+002, 8.544340e+001
3.421400e+002, 8.565752e+001
3.426221e+002, 8.578664e+001
3.431042e+002, 8.563744e+001
3.435863e+002, 8.521030e+001
3.440685e+002, 8.491855e+001
3.445506e+002, 8.478814e+001
3.450327e+002, 8.478621e+001
3.455148e+002, 8.506884e+001
3.459969e+002, 8.544892e+001
3.464790e+002, 8.559827e+001
3.469612e+002, 8.531293e+001
3.474433e+002, 8.478982e+001
3.479254e+002, 8.468532e+001
3.484075e+002, 8.538206e+001
3.488896e+002, 8.588237e+001
3.493717e+002, 8.607833e+001
3.498539e+002, 8.602461e+001
3.503360e+002, 8.566553e+001
3.508181e+002, 8.501291e+001
3.513002e+002, 8.433648e+001
3.517823e+002, 8.408842e+001
3.522644e+002, 8.445457e+001
3.527466e+002, 8.464187e+001
3.532287e+002, 8.432386e+001
3.537108e+002, 8.405222e+001
3.541929e+002, 8.419608e+001
3.546750e+002, 8.470047e+001
3.551571e+002, 8.520296e+001
3.556393e+002, 8.537623e+001
3.561214e+002, 8.522325e+001
3.566035e+002, 8.505874e+001
3.570856e+002, 8.478896e+001
3.575677e+002, 8.463083e+001
3.580498e+002, 8.474570e+001
3.585320e+002, 8.500601e+001
3.590141e+002, 8.518780e+001
3.594962e+002, 8.515346e+001
3.599783e+002, 8.498846e+001
3.604604e+002, 8.493806e+001
3.609425e+002, 8.508791e+001
3.614247e+002, 8.514866e+001
3.619068e+002, 8.488137e+001
3.623889e+002, 8.457336e+001
3.628710e+002, 8.454420e+001
3.633531e+002, 8.489011e+001
3.638352e+002, 8.527984e+001
3.643174e+002, 8.524789e+001
3.647995e+002, 8.473485e+001
3.652816e+002, 8.440587e+001
3.657637e+002, 8.444695e+001
3.662458e+002, 8.465670e+001
3.667279e+002, 8.502137e+001
3.672101e+002, 8.548376e+001
3.676922e+002, 8.577467e+001
3.681743e+002, 8.554900e+001
3.686564e+002, 8.495516e+001
3.691385e+002, 8.471587e+001
3.696206e+002, 8.503043e+001
3.701028e+002, 8.536250e+001
3.705849e+002, 8.536044e+001
3.710670e+002, 8.515788e+001
3.715491e+002, 8.498697e+001
3.720312e+002, 8.496050e+001
3.725133e+002, 8.497216e+001
3.729955e+002, 8.484122e+001
3.734776e+002, 8.454762e+001
3.739597e+002, 8.431068e+001
3.744418e+002, 8.425863e+001
3.749239e+002, 8.429338e+001
3.754060e+002, 8.427364e+001
3.758882e+002, 8.416271e+001
3.763703e+002, 8.410603e+001
3.768524e+002, 8.428072e+001
3.773345e+002, 8.461390e+001
3.778166e+002, 8.477921e+001
3.782987e+002, 8.463257e+001
3.787809e+002, 8.442922e+001
3.792630e+002, 8.449880e+001
3.797451e+002, 8.480260e+001
3.802272e+002, 8.501859e+001
3.807093e+002, 8.500314e+001
3.811914e+002, 8.485984e+001
3.816736e+002, 8.468943e+001
3.821557e+002, 8.449738e+001
3.826378e+002, 8.437038e+001
3.831199e+002, 8.441539e+001
3.836020e+002, 8.458229e+001
3.840841e+002, 8.463501e+001
3.845663e+002, 8.442073e+001
3.850484e+002, 8.424000e+001
3.855305e+002, 8.436690e+001
3.860126e+002, 8.468655e+001
3.864947e+002, 8.480499e+001
3.869768e+002, 8.451479e+001
3.874590e+002, 8.402882e+001
3.879411e+002, 8.380733e+001
3.884232e+002, 8.390324e+001
3.889053e+002, 8.403358e+001
3.893874e+002, 8.416785e+001
3.898695e+002, 8.429541e+001
3.903517e+002, 8.438562e+001
3.908338e+002, 8.443713e+001
3.913159e+002, 8.451920e+001
3.917980e+002, 8.472762e+001
3.922801e+002, 8.509189e+001
3.927622e+002, 8.527657e+001
3.932444e+002, 8.526237e+001
3.937265e+002, 8.510641e+001
3.942086e+002, 8.471055e+001
3.946907e+002, 8.418865e+001
3.951728e+002, 8.381665e+001
3.956549e+002, 8.376834e+001
3.961371e+002, 8.396195e+001
3.966192e+002, 8.407283e+001
3.971013e+002, 8.404053e+001
3.975834e+002, 8.399702e+001
3.980655e+002, 8.396868e+001
3.985476e+002, 8.392453e+001
3.990298e+002, 8.379888e+001
3.995119e+002, 8.358824e+001
3.999940e+002, 8.339668e+001
4.004761e+002, 8.337096e+001
4.009582e+002, 8.355962e+001
4.014403e+002, 8.374850e+001
4.019225e+002, 8.397297e+001
4.024046e+002, 8.416446e+001
4.028867e+002, 8.432529e+001
4.033688e+002, 8.442758e+001
4.038509e+002, 8.439809e+001
4.043330e+002, 8.415812e+001
4.048152e+002, 8.377000e+001
4.052973e+002, 8.359541e+001
4.057794e+002, 8.375922e+001
4.062615e+002, 8.396317e+001
4.067436e+002, 8.424414e+001
4.072257e+002, 8.448718e+001
4.077079e+002, 8.455809e+001
4.081900e+002, 8.441957e+001
4.086721e+002, 8.418265e+001
4.091542e+002, 8.399318e+001
4.096363e+002, 8.385773e+001
4.101184e+002, 8.372434e+001
4.106006e+002, 8.360393e+001
4.110827e+002, 8.346953e+001
4.115648e+002, 8.329646e+001
4.120469e+002, 8.309485e+001
4.125290e+002, 8.289456e+001
4.130111e+002, 8.263246e+001
4.134933e+002, 8.239980e+001
4.139754e+002, 8.256465e+001
4.144575e+002, 8.331002e+001
4.149396e+002, 8.396532e+001
4.154217e+002, 8.415522e+001
4.159038e+002, 8.409476e+001
4.163860e+002, 8.397433e+001
4.168681e+002, 8.379698e+001
4.173502e+002, 8.369267e+001
4.178323e+002, 8.388387e+001
4.183144e+002, 8.431979e+001
4.187965e+002, 8.453279e+001
4.192787e+002, 8.430561e+001
4.197608e+002, 8.396286e+001
4.202429e+002, 8.386344e+001
4.207250e+002, 8.398685e+001
4.212071e+002, 8.413795e+001
4.216892e+002, 8.430490e+001
4.221714e+002, 8.443532e+001
4.226535e+002, 8.445319e+001
4.231356e+002, 8.435281e+001
4.236177e+002, 8.416900e+001
4.240998e+002, 8.385117e+001
4.245819e+002, 8.348225e+001
4.250641e+002, 8.338879e+001
4.255462e+002, 8.379942e+001
4.260283e+002, 8.419129e+001
4.265104e+002, 8.440728e+001
4.269925e+002, 8.443902e+001
4.274746e+002, 8.417451e+001
4.279568e+002, 8.353989e+001
4.284389e+002, 8.288601e+001
4.289210e+002, 8.276372e+001
4.294031e+002, 8.344419e+001
4.298852e+002, 8.392909e+001
4.303673e+002, 8.415889e+001
4.308495e+002, 8.424278e+001
4.313316e+002, 8.427121e+001
4.318137e+002, 8.423188e+001
4.322958e+002, 8.400181e+001
4.327779e+002, 8.344256e+001
4.332600e+002, 8.264101e+001
4.337422e+002, 8.231486e+001
4.342243e+002, 8.303754e+001
4.347064e+002, 8.356586e+001
4.351885e+002, 8.366363e+001
4.356706e+002, 8.353198e+001
4.361527e+002, 8.334467e+001
4.366349e+002, 8.317062e+001
4.371170e+002, 8.305678e+001
4.375991e+002, 8.308847e+001
4.380812e+002, 8.331863e+001
4.385633e+002, 8.349848e+001
4.390454e+002, 8.366869e+001
4.395276e+002, 8.374635e+001
4.400097e+002, 8.361145e+001
4.404918e+002, 8.335616e+001
4.409739e+002, 8.318163e+001
4.414560e+002, 8.322346e+001
4.419381e+002, 8.341652e+001
4.424203e+002, 8.359847e+001
4.429024e+002, 8.381664e+001
4.433845e+002, 8.389405e+001
4.438666e+002, 8.359707e+001
4.443487e+002, 8.324627e+001
4.448308e+002, 8.313873e+001
4.453130e+002, 8.332472e+001
4.457951e+002, 8.352352e+001
4.462772e+002, 8.344724e+001
4.467593e+002, 8.316299e+001
4.472414e+002, 8.302821e+001
4.477235e+002, 8.311609e+001
4.482057e+002, 8.328760e+001
4.486878e+002, 8.352583e+001
4.491699e+002, 8.377090e+001
4.496520e+002, 8.385265e+001
4.501341e+002, 8.364190e+001
4.506162e+002, 8.333175e+001
4.510984e+002, 8.301550e+001
4.515805e+002, 8.272179e+001
4.520626e+002, 8.266785e+001
4.525447e+002, 8.302140e+001
4.530268e+002, 8.354755e+001
4.535089e+002, 8.376854e+001
4.539911e+002, 8.362631e+001
4.544732e+002, 8.354655e+001
4.549553e+002, 8.375544e+001
4.554374e+002, 8.399610e+001
4.559195e+002, 8.393811e+001
4.564016e+002, 8.357785e+001
4.568838e+002, 8.322974e+001
4.573659e+002, 8.315009e+001
4.578480e+002, 8.332300e+001
4.583301e+002, 8.345244e+001
4.588122e+002, 8.352486e+001
4.592943e+002, 8.357835e+001
4.597765e+002, 8.365112e+001
4.602586e+002, 8.370007e+001
4.607407e+002, 8.362794e+001
4.612228e+002, 8.341405e+001
4.617049e+002, 8.319767e+001
4.621870e+002, 8.319923e+001
4.626692e+002, 8.350193e+001
4.631513e+002, 8.376192e+001
4.636334e+002, 8.407581e+001
4.641155e+002, 8.425761e+001
4.645976e+002, 8.412474e+001
4.650797e+002, 8.379873e+001
4.655619e+002, 8.356431e+001
4.660440e+002, 8.362083e+001
4.665261e+002, 8.382109e+001
4.670082e+002, 8.371854e+001
4.674903e+002, 8.316207e+001
4.679724e+002, 8.271391e+001
4.684546e+002, 8.245898e+001
4.689367e+002, 8.240142e+001
4.694188e+002, 8.266877e+001
4.699009e+002, 8.323904e+001
4.703830e+002, 8.372607e+001
4.708651e+002, 8.376546e+001
4.713473e+002, 8.347596e+001
4.718294e+002, 8.326785e+001
4.723115e+002, 8.314513e+001
4.727936e+002, 8.316089e+001
4.732757e+002, 8.354824e+001
4.737578e+002, 8.406199e+001
4.742400e+002, 8.420454e+001
4.747221e+002, 8.370114e+001
4.752042e+002, 8.314320e+001
4.756863e+002, 8.292619e+001
4.761684e+002, 8.297520e+001
4.766505e+002, 8.310091e+001
4.771327e+002, 8.326865e+001
4.776148e+002, 8.341931e+001
4.780969e+002, 8.347522e+001
4.785790e+002, 8.342361e+001
4.790611e+002, 8.335508e+001
4.795432e+002, 8.332021e+001
4.800254e+002, 8.323021e+001
4.805075e+002, 8.292196e+001
4.809896e+002, 8.249893e+001
4.814717e+002, 8.228268e+001
4.819538e+002, 8.246703e+001
4.824359e+002, 8.289670e+001
4.829181e+002, 8.312881e+001
4.834002e+002, 8.306570e+001
4.838823e+002, 8.292924e+001
4.843644e+002, 8.254498e+001
4.848465e+002, 8.222356e+001
4.853286e+002, 8.227872e+001
4.858108e+002, 8.265902e+001
4.862929e+002, 8.301089e+001
4.867750e+002, 8.300845e+001
4.872571e+002, 8.270387e+001
4.877392e+002, 8.256070e+001
4.882213e+002, 8.262399e+001
4.887035e+002, 8.278582e+001
4.891856e+002, 8.312782e+001
4.896677e+002, 8.348020e+001
4.901498e+002, 8.366721e+001
4.906319e+002, 8.364648e+001
4.911140e+002, 8.350838e+001
4.915962e+002, 8.327333e+001
4.920783e+002, 8.296699e+001
4.925604e+002, 8.282826e+001
4.930425e+002, 8.294944e+001
4.935246e+002, 8.310705e+001
4.940067e+002, 8.312465e+001
4.944889e+002, 8.305569e+001
4.949710e+002, 8.301960e+001
4.954531e+002, 8.309919e+001
4.959352e+002, 8.315553e+001
4.964173e+002, 8.307134e+001
4.968994e+002, 8.286895e+001
4.973816e+002, 8.260149e+001
4.978637e+002, 8.226005e+001
4.983458e+002, 8.195229e+001
4.988279e+002, 8.185164e+001
4.993100e+002, 8.200406e+001
4.997921e+002, 8.214147e+001
5.002743e+002, 8.221260e+001
5.007564e+002, 8.229517e+001
5.012385e+002, 8.253826e+001
5.017206e+002, 8.284741e+001
5.022027e+002, 8.291470e+001
5.026848e+002, 8.254677e+001
5.031670e+002, 8.191804e+001
5.036491e+002, 8.155162e+001
5.041312e+002, 8.163289e+001
5.046133e+002, 8.168610e+001
5.050954e+002, 8.167265e+001
5.055775e+002, 8.164836e+001
5.060597e+002, 8.162007e+001
5.065418e+002, 8.161043e+001
5.070239e+002, 8.169026e+001
5.075060e+002, 8.196568e+001
5.079881e+002, 8.235676e+001
5.084702e+002, 8.243568e+001
5.089524e+002, 8.201321e+001
5.094345e+002, 8.170918e+001
5.099166e+002, 8.189650e+001
5.103987e+002, 8.219536e+001
5.108808e+002, 8.222962e+001
5.113629e+002, 8.193896e+001
5.118451e+002, 8.165450e+001
5.123271e+002, 8.168836e+001
5.128093e+002, 8.191615e+001
5.132914e+002, 8.195424e+001
5.137735e+002, 8.173153e+001
5.142556e+002, 8.151299e+001
5.147377e+002, 8.150169e+001
5.152198e+002, 8.163928e+001
5.157020e+002, 8.170225e+001
5.161841e+002, 8.159797e+001
5.166662e+002, 8.154396e+001
5.171483e+002, 8.166882e+001
5.176304e+002, 8.189687e+001
5.181125e+002, 8.214867e+001
5.185947e+002, 8.239932e+001
5.190768e+002, 8.253615e+001
5.195589e+002, 8.241760e+001
5.200410e+002, 8.200844e+001
5.205231e+002, 8.167341e+001
5.210052e+002, 8.141272e+001
5.214874e+002, 8.121253e+001
5.219695e+002, 8.101212e+001
5.224516e+002, 8.088723e+001
5.229337e+002, 8.100357e+001
5.234158e+002, 8.140989e+001
5.238979e+002, 8.188017e+001
5.243801e+002, 8.204813e+001
5.248622e+002, 8.183585e+001
5.253443e+002, 8.173228e+001
5.258264e+002, 8.185729e+001
5.263085e+002, 8.197733e+001
5.267906e+002, 8.196313e+001
5.272728e+002, 8.187594e+001
5.277549e+002, 8.185728e+001
5.282370e+002, 8.201147e+001
5.287191e+002, 8.214985e+001
5.292012e+002, 8.195227e+001
5.296833e+002, 8.144964e+001
5.301655e+002, 8.113098e+001
5.306476e+002, 8.120012e+001
5.311297e+002, 8.135369e+001
5.316118e+002, 8.118334e+001
5.320939e+002, 8.074550e+001
5.325760e+002, 8.049004e+001
5.330582e+002, 8.058842e+001
5.335403e+002, 8.082994e+001
5.340224e+002, 8.110094e+001
5.345045e+002, 8.138405e+001
5.349866e+002, 8.167931e+001
5.354688e+002, 8.200081e+001
5.359509e+002, 8.224141e+001
5.364330e+002, 8.218294e+001
5.369151e+002, 8.165172e+001
5.373972e+002, 8.122649e+001
5.378793e+002, 8.086171e+001
5.383615e+002, 8.063294e+001
5.388436e+002, 8.068497e+001
5.393257e+002, 8.090293e+001
5.398078e+002, 8.101779e+001
5.402899e+002, 8.086655e+001
5.407720e+002, 8.059300e+001
5.412542e+002, 8.055627e+001
5.417363e+002, 8.085371e+001
5.422184e+002, 8.105666e+001
5.427005e+002, 8.095969e+001
5.431826e+002, 8.087045e+001
5.436647e+002, 8.107487e+001
5.441469e+002, 8.147203e+001
5.446290e+002, 8.164795e+001
5.451111e+002, 8.123969e+001
5.455932e+002, 8.060603e+001
5.460753e+002, 8.029306e+001
5.465574e+002, 8.029268e+001
5.470396e+002, 8.033093e+001
5.475217e+002, 8.029273e+001
5.480038e+002, 8.026353e+001
5.484859e+002, 8.043917e+001
5.489680e+002, 8.085519e+001
5.494501e+002, 8.109576e+001
5.499323e+002, 8.095422e+001
5.504144e+002, 8.071736e+001
5.508965e+002, 8.057829e+001
5.513786e+002, 8.054340e+001
5.518607e+002, 8.058134e+001
5.523428e+002, 8.068242e+001
5.528250e+002, 8.080747e+001
5.533071e+002, 8.086707e+001
5.537892e+002, 8.091949e+001
5.542713e+002, 8.078747e+001
5.547534e+002, 8.015495e+001
5.552355e+002, 7.964761e+001
5.557177e+002, 7.974531e+001
5.561998e+002, 8.027833e+001
5.566819e+002, 8.074085e+001
5.571640e+002, 8.082887e+001
5.576461e+002, 8.067139e+001
5.581282e+002, 8.053037e+001
5.586104e+002, 8.040858e+001
5.590925e+002, 8.027685e+001
5.595746e+002, 8.006303e+001
5.600567e+002, 7.990714e+001
5.605388e+002, 7.996894e+001
5.610209e+002, 8.021558e+001
5.615031e+002, 8.041127e+001
5.619852e+002, 8.046940e+001
5.624673e+002, 8.043417e+001
5.629494e+002, 8.030207e+001
5.634315e+002, 8.010177e+001
5.639136e+002, 7.995039e+001
5.643958e+002, 7.988492e+001
5.648779e+002, 7.993019e+001
5.653600e+002, 8.016800e+001
5.658421e+002, 8.077666e+001
5.663242e+002, 8.103071e+001
5.668063e+002, 8.056596e+001
5.672885e+002, 8.009826e+001
5.677706e+002, 8.012670e+001
5.682527e+002, 8.045554e+001
5.687348e+002, 8.058428e+001
5.692169e+002, 8.026132e+001
5.696990e+002, 7.976094e+001
5.701812e+002, 7.954614e+001
5.706633e+002, 7.955180e+001
5.711454e+002, 8.015503e+001
5.716275e+002, 8.248950e+001
5.721096e+002, 8.426960e+001
5.725917e+002, 8.397498e+001
5.730739e+002, 8.228519e+001
5.735560e+002, 8.079409e+001
5.740381e+002, 8.009315e+001
5.745202e+002, 7.984712e+001
5.750023e+002, 7.981100e+001
5.754844e+002, 7.994186e+001
5.759666e+002, 7.998553e+001
5.764487e+002, 7.985793e+001
5.769308e+002, 7.969862e+001
5.774129e+002, 7.963790e+001
5.778950e+002, 7.968208e+001
5.783771e+002, 7.980688e+001
5.788593e+002, 8.015708e+001
5.793414e+002, 8.043127e+001
5.798235e+002, 8.046280e+001
5.803056e+002, 8.033784e+001
5.807877e+002, 8.015884e+001
5.812698e+002, 7.996896e+001
5.817520e+002, 7.984799e+001
5.822341e+002, 7.992451e+001
5.827162e+002, 8.023575e+001
5.831984e+002, 8.038793e+001
5.836805e+002, 8.026120e+001
5.841626e+002, 8.011729e+001
5.846447e+002, 7.999729e+001
5.851268e+002, 7.991543e+001
5.856089e+002, 7.991982e+001
5.860911e+002, 8.002524e+001
5.865732e+002, 8.008233e+001
5.870553e+002, 7.984930e+001
5.875374e+002, 7.944112e+001
5.880195e+002, 7.936483e+001
5.885016e+002, 7.973309e+001
5.889838e+002, 8.006707e+001
5.894659e+002, 8.006754e+001
5.899480e+002, 7.980420e+001
5.904301e+002, 7.950623e+001
5.909122e+002, 7.908164e+001
5.913943e+002, 7.880434e+001
5.918765e+002, 7.888732e+001
5.923586e+002, 7.908039e+001
5.928407e+002, 7.904414e+001
5.933228e+002, 7.879799e+001
5.938049e+002, 7.870641e+001
5.942870e+002, 7.907716e+001
5.947692e+002, 7.976153e+001
5.952513e+002, 8.004923e+001
5.957334e+002, 7.964197e+001
5.962155e+002, 7.935921e+001
5.966976e+002, 7.936509e+001
5.971797e+002, 7.944304e+001
5.976619e+002, 7.947865e+001
5.981440e+002, 7.945356e+001
5.986261e+002, 7.936953e+001
5.991082e+002, 7.920158e+001
5.995903e+002, 7.899902e+001
6.000724e+002, 7.884063e+001
6.005546e+002, 7.872594e+001
6.010367e+002, 7.866303e+001
6.015188e+002, 7.863672e+001
6.020009e+002, 7.868909e+001
6.024830e+002, 7.894302e+001
6.029651e+002, 7.939333e+001
6.034473e+002, 7.969117e+001
6.039294e+002, 7.976707e+001
6.044115e+002, 7.969561e+001
6.048936e+002, 7.937742e+001
6.053757e+002, 7.897050e+001
6.058578e+002, 7.881504e+001
6.063400e+002, 7.903082e+001
6.068221e+002, 7.937735e+001
6.073042e+002, 7.951030e+001
6.077863e+002, 7.939252e+001
6.082684e+002, 7.930733e+001
6.087505e+002, 7.924573e+001
6.092327e+002, 7.923365e+001
6.097148e+002, 7.938763e+001
6.101969e+002, 7.954766e+001
6.106790e+002, 7.947659e+001
6.111611e+002, 7.910433e+001
6.116432e+002, 7.870084e+001
6.121254e+002, 7.848354e+001
6.126075e+002, 7.842421e+001
6.130896e+002, 7.845994e+001
6.135717e+002, 7.859780e+001
6.140538e+002, 7.873303e+001
6.145359e+002, 7.880888e+001
6.150181e+002, 7.883292e+001
6.155002e+002, 7.881039e+001
6.159823e+002, 7.864684e+001
6.164644e+002, 7.864624e+001
6.169465e+002, 7.918406e+001
6.174286e+002, 7.967475e+001
6.179108e+002, 7.944970e+001
6.183929e+002, 7.867009e+001
6.188750e+002, 7.805282e+001
6.193571e+002, 7.805893e+001
6.198392e+002, 7.846087e+001
6.203214e+002, 7.866051e+001
6.208035e+002, 7.859386e+001
6.212856e+002, 7.852374e+001
6.217677e+002, 7.854042e+001
6.222498e+002, 7.849613e+001
6.227319e+002, 7.820569e+001
6.232141e+002, 7.779510e+001
6.236962e+002, 7.759252e+001
6.241783e+002, 7.778149e+001
6.246604e+002, 7.811207e+001
6.251425e+002, 7.837297e+001
6.256246e+002, 7.857618e+001
6.261068e+002, 7.878040e+001
6.265889e+002, 7.900886e+001
6.270710e+002, 7.915053e+001
6.275531e+002, 7.909155e+001
6.280352e+002, 7.883972e+001
6.285173e+002, 7.855537e+001
6.289995e+002, 7.811663e+001
6.294816e+002, 7.780692e+001
6.299637e+002, 7.768575e+001
6.304458e+002, 7.771875e+001
6.309279e+002, 7.792953e+001
6.314100e+002, 7.827934e+001
6.318922e+002, 7.862334e+001
6.323743e+002, 7.884775e+001
6.328564e+002, 7.896970e+001
6.333385e+002, 7.906558e+001
6.338206e+002, 7.915760e+001
6.343027e+002, 7.912233e+001
6.347849e+002, 7.882533e+001
6.352670e+002, 7.847651e+001
6.357491e+002, 7.828825e+001
6.362312e+002, 7.824488e+001
6.367133e+002, 7.819183e+001
6.371954e+002, 7.806767e+001
6.376776e+002, 7.792783e+001
6.381597e+002, 7.778609e+001
6.386418e+002, 7.766610e+001
6.391239e+002, 7.764308e+001
6.396060e+002, 7.774178e+001
6.400881e+002, 7.786988e+001
6.405703e+002, 7.790964e+001
6.410524e+002, 7.785289e+001
6.415345e+002, 7.781102e+001
6.420166e+002, 7.784167e+001
6.424987e+002, 7.781833e+001
6.429808e+002, 7.757432e+001
6.434630e+002, 7.734664e+001
6.439451e+002, 7.744958e+001
6.444272e+002, 7.790579e+001
6.449093e+002, 7.833484e+001
6.453914e+002, 7.840652e+001
6.458735e+002, 7.823808e+001
6.463557e+002, 7.810745e+001
6.468378e+002, 7.801785e+001
6.473199e+002, 7.791191e+001
6.478020e+002, 7.773784e+001
6.482841e+002, 7.757398e+001
6.487662e+002, 7.757358e+001
6.492484e+002, 7.778076e+001
6.497305e+002, 7.789352e+001
6.502126e+002, 7.787590e+001
6.506947e+002, 7.776990e+001
6.511768e+002, 7.748467e+001
6.516589e+002, 7.715730e+001
6.521411e+002, 7.705178e+001
6.526232e+002, 7.725011e+001
6.531053e+002, 7.754295e+001
6.535874e+002, 7.768704e+001
6.540695e+002, 7.768239e+001
6.545516e+002, 7.748780e+001
6.550338e+002, 7.687952e+001
6.555159e+002, 7.653295e+001
6.559980e+002, 7.706485e+001
6.564801e+002, 7.785596e+001
6.569622e+002, 7.822230e+001
6.574443e+002, 7.807175e+001
6.579265e+002, 7.782751e+001
6.584086e+002, 7.761510e+001
6.588907e+002, 7.744615e+001
6.593728e+002, 7.733158e+001
6.598549e+002, 7.727233e+001
6.603370e+002, 7.729244e+001
6.608192e+002, 7.741110e+001
6.613013e+002, 7.753527e+001
6.617834e+002, 7.748181e+001
6.622655e+002, 7.715931e+001
6.627476e+002, 7.700193e+001
6.632297e+002, 7.711556e+001
6.637119e+002, 7.728151e+001
6.641940e+002, 7.757591e+001
6.646761e+002, 7.782460e+001
6.651582e+002, 7.775768e+001
6.656403e+002, 7.730360e+001
6.661224e+002, 7.678468e+001
6.666046e+002, 7.638276e+001
6.670867e+002, 7.613108e+001
6.675688e+002, 7.620922e+001
6.680509e+002, 7.662899e+001
6.685330e+002, 7.688172e+001
6.690151e+002, 7.665735e+001
6.694973e+002, 7.620618e+001
6.699794e+002, 7.605259e+001
6.704615e+002, 7.641584e+001
6.709436e+002, 7.647027e+001
6.714257e+002, 7.577927e+001
6.719078e+002, 7.520776e+001
6.723900e+002, 7.526537e+001
6.728721e+002, 7.573454e+001
6.733542e+002, 7.625068e+001
6.738363e+002, 7.667493e+001
6.743184e+002, 7.699166e+001
6.748005e+002, 7.716520e+001
6.752827e+002, 7.720507e+001
6.757648e+002, 7.722090e+001
6.762469e+002, 7.724110e+001
6.767290e+002, 7.712925e+001
6.772111e+002, 7.667427e+001
6.776932e+002, 7.613994e+001
6.781754e+002, 7.602499e+001
6.786575e+002, 7.642598e+001
6.791396e+002, 7.670467e+001
6.796217e+002, 7.655303e+001
6.801038e+002, 7.637002e+001
6.805859e+002, 7.655405e+001
6.810681e+002, 7.693912e+001
6.815502e+002, 7.708515e+001
6.820323e+002, 7.682445e+001
6.825144e+002, 7.640945e+001
6.829965e+002, 7.620335e+001
6.834786e+002, 7.622066e+001
6.839608e+002, 7.619783e+001
6.844429e+002, 7.607755e+001
6.849250e+002, 7.602062e+001
6.854071e+002, 7.624400e+001
6.858892e+002, 7.648091e+001
6.863713e+002, 7.635756e+001
6.868535e+002, 7.581519e+001
6.873356e+002, 7.544823e+001
6.878177e+002, 7.564746e+001
6.882998e+002, 7.604598e+001
6.887819e+002, 7.633726e+001
6.892640e+002, 7.650237e+001
6.897462e+002, 7.652245e+001
6.902283e+002, 7.638840e+001
6.907104e+002, 7.620136e+001
6.911925e+002, 7.611308e+001
6.916746e+002, 7.614172e+001
6.921567e+002, 7.609965e+001
6.926389e+002, 7.589196e+001
6.931210e+002, 7.574391e+001
6.936031e+002, 7.565015e+001
6.940852e+002, 7.567773e+001
6.945673e+002, 7.602900e+001
6.950494e+002, 7.668233e+001
6.955316e+002, 7.707143e+001
6.960137e+002, 7.657503e+001
6.964958e+002, 7.581082e+001
6.969779e+002, 7.567307e+001
6.974600e+002, 7.603455e+001
6.979421e+002, 7.623219e+001
6.984243e+002, 7.602197e+001
6.989064e+002, 7.568369e+001
6.993885e+002, 7.556824e+001
6.998706e+002, 7.569632e+001
7.003527e+002, 7.577673e+001
7.008348e+002, 7.574834e+001
7.013170e+002, 7.574754e+001
7.017991e+002, 7.589080e+001
7.022812e+002, 7.601012e+001
7.027633e+002, 7.590495e+001
7.032454e+002, 7.558935e+001
7.037275e+002, 7.529184e+001
7.042097e+002, 7.509482e+001
7.046918e+002, 7.505118e+001
7.051739e+002, 7.538884e+001
7.056560e+002, 7.601750e+001
7.061381e+002, 7.628832e+001
7.066202e+002, 7.597634e+001
7.071024e+002, 7.552214e+001
7.075845e+002, 7.537302e+001
7.080666e+002, 7.552188e+001
7.085487e+002, 7.561440e+001
7.090308e+002, 7.561992e+001
7.095129e+002, 7.561189e+001
7.099951e+002, 7.558074e+001
7.104772e+002, 7.555493e+001
7.109593e+002, 7.556260e+001
7.114414e+002, 7.559927e+001
7.119235e+002, 7.564809e+001
7.124056e+002, 7.572782e+001
7.128878e+002, 7.575971e+001
7.133699e+002, 7.557858e+001
7.138520e+002, 7.521761e+001
7.143341e+002, 7.488036e+001
7.148162e+002, 7.457337e+001
7.152983e+002, 7.447256e+001
7.157805e+002, 7.480715e+001
7.162626e+002, 7.546954e+001
7.167447e+002, 7.583842e+001
7.172268e+002, 7.571036e+001
7.177089e+002, 7.560313e+001
7.181910e+002, 7.562173e+001
7.186732e+002, 7.561874e+001
7.191553e+002, 7.543993e+001
7.196374e+002, 7.515414e+001
7.201195e+002, 7.494889e+001
7.206016e+002, 7.491980e+001
7.210837e+002, 7.496842e+001
7.215659e+002, 7.499140e+001
7.220480e+002, 7.498347e+001
7.225301e+002, 7.490340e+001
7.230122e+002, 7.473645e+001
7.234943e+002, 7.455391e+001
7.239764e+002, 7.437554e+001
7.244586e+002, 7.422498e+001
7.249407e+002, 7.415074e+001
7.254228e+002, 7.409205e+001
7.259049e+002, 7.425826e+001
7.263870e+002, 7.497531e+001
7.268691e+002, 7.560347e+001
7.273513e+002, 7.574462e+001
7.278334e+002, 7.556632e+001
7.283155e+002, 7.537094e+001
7.287976e+002, 7.526061e+001
7.292797e+002, 7.514892e+001
7.297618e+002, 7.490186e+001
7.302440e+002, 7.457958e+001
7.307261e+002, 7.440150e+001
7.312082e+002, 7.437724e+001
7.316903e+002, 7.445060e+001
7.321724e+002, 7.463824e+001
7.326545e+002, 7.484425e+001
7.331367e+002, 7.493074e+001
7.336188e+002, 7.487956e+001
7.341009e+002, 7.478860e+001
7.345830e+002, 7.455104e+001
7.350651e+002, 7.440047e+001
7.355472e+002, 7.449724e+001
7.360294e+002, 7.467742e+001
7.365115e+002, 7.473518e+001
7.369936e+002, 7.465477e+001
7.374757e+002, 7.459557e+001
7.379578e+002, 7.472366e+001
7.384399e+002, 7.490409e+001
7.389221e+002, 7.483297e+001
7.394042e+002, 7.452677e+001
7.398863e+002, 7.420215e+001
7.403684e+002, 7.386423e+001
7.408505e+002, 7.372365e+001
7.413326e+002, 7.408572e+001
7.418148e+002, 7.487482e+001
7.422969e+002, 7.520895e+001
7.427790e+002, 7.469933e+001
7.432611e+002, 7.431145e+001
7.437432e+002, 7.423275e+001
7.442253e+002, 7.424841e+001
7.447075e+002, 7.420004e+001
7.451896e+002, 7.410341e+001
7.456717e+002, 7.403441e+001
7.461538e+002, 7.401403e+001
7.466359e+002, 7.410087e+001
7.471180e+002, 7.452824e+001
7.476002e+002, 7.513051e+001
7.480823e+002, 7.522134e+001
7.485644e+002, 7.470250e+001
7.490465e+002, 7.419223e+001
7.495286e+002, 7.403804e+001
7.500107e+002, 7.415360e+001
7.504929e+002, 7.436497e+001
7.509750e+002, 7.486596e+001
7.514571e+002, 7.496952e+001
7.519392e+002, 7.424471e+001
7.524213e+002, 7.363608e+001
7.529034e+002, 7.357645e+001
7.533856e+002, 7.383133e+001
7.538677e+002, 7.410517e+001
7.543498e+002, 7.431948e+001
7.548319e+002, 7.444576e+001
7.553140e+002, 7.449315e+001
7.557961e+002, 7.442325e+001
7.562783e+002, 7.398838e+001
7.567604e+002, 7.331096e+001
7.572425e+002, 7.319860e+001
7.577246e+002, 7.397382e+001
7.582067e+002, 7.483332e+001
7.586888e+002, 7.477534e+001
7.591710e+002, 7.380918e+001
7.596531e+002, 7.331755e+001
7.601352e+002, 7.371369e+001
7.606173e+002, 7.395969e+001
7.610994e+002, 7.364771e+001
7.615815e+002, 7.335686e+001
7.620637e+002, 7.367905e+001
7.625458e+002, 7.442303e+001
7.630279e+002, 7.481765e+001
7.635100e+002, 7.441994e+001
7.639921e+002, 7.384605e+001
7.644742e+002, 7.355021e+001
7.649564e+002, 7.344884e+001
7.654385e+002, 7.340563e+001
7.659206e+002, 7.339809e+001
7.664027e+002, 7.345647e+001
7.668848e+002, 7.361408e+001
7.673669e+002, 7.378571e+001
7.678491e+002, 7.372531e+001
7.683312e+002, 7.330335e+001
7.688133e+002, 7.315705e+001
7.692954e+002, 7.357946e+001
7.697775e+002, 7.388100e+001
7.702596e+002, 7.353019e+001
7.707418e+002, 7.299654e+001
7.712239e+002, 7.297364e+001
7.717060e+002, 7.359352e+001
7.721881e+002, 7.405107e+001
7.726702e+002, 7.387495e+001
7.731523e+002, 7.356873e+001
7.736345e+002, 7.354700e+001
7.741166e+002, 7.370781e+001
7.745987e+002, 7.382637e+001
7.750808e+002, 7.383265e+001
7.755629e+002, 7.375762e+001
7.760450e+002, 7.361805e+001
7.765272e+002, 7.343093e+001
7.770093e+002, 7.324612e+001
7.774914e+002, 7.302986e+001
7.779735e+002, 7.303693e+001
7.784556e+002, 7.351254e+001
7.789377e+002, 7.394082e+001
7.794199e+002, 7.374520e+001
7.799020e+002, 7.308081e+001
7.803841e+002, 7.272227e+001
7.808662e+002, 7.285717e+001
7.813483e+002, 7.306205e+001
7.818304e+002, 7.329423e+001
7.823126e+002, 7.351039e+001
7.827947e+002, 7.358535e+001
7.832768e+002, 7.362157e+001
7.837589e+002, 7.397781e+001
7.842410e+002, 7.484040e+001
7.847231e+002, 7.556180e+001
7.852053e+002, 7.506982e+001
7.856874e+002, 7.375097e+001
7.861695e+002, 7.323814e+001
7.866516e+002, 7.365029e+001
7.871337e+002, 7.403076e+001
7.876158e+002, 7.396589e+001
7.880980e+002, 7.364394e+001
7.885801e+002, 7.331206e+001
7.890622e+002, 7.294554e+001
7.895443e+002, 7.274841e+001
7.900264e+002, 7.278847e+001
7.905085e+002, 7.290613e+001
7.909907e+002, 7.322166e+001
7.914728e+002, 7.349033e+001
7.919549e+002, 7.342373e+001
7.924370e+002, 7.307228e+001
7.929191e+002, 7.277377e+001
7.934012e+002, 7.269715e+001
7.938834e+002, 7.273470e+001
7.943655e+002, 7.284866e+001
7.948476e+002, 7.297989e+001
7.953297e+002, 7.295049e+001
7.958118e+002, 7.276231e+001
7.962939e+002, 7.267033e+001
7.967761e+002, 7.285107e+001
7.972582e+002, 7.318784e+001
7.977403e+002, 7.341737e+001
7.982224e+002, 7.355041e+001
7.987045e+002, 7.352286e+001
7.991866e+002, 7.321763e+001
7.996688e+002, 7.293340e+001
8.001509e+002, 7.282340e+001
8.006330e+002, 7.280083e+001
8.011151e+002, 7.277058e+001
8.015972e+002, 7.272701e+001
8.020793e+002, 7.268654e+001
8.025615e+002, 7.264249e+001
8.030436e+002, 7.261646e+001
8.035257e+002, 7.264159e+001
8.040078e+002, 7.268541e+001
8.044899e+002, 7.268456e+001
8.049720e+002, 7.263924e+001
8.054542e+002, 7.263009e+001
8.059363e+002, 7.274124e+001
8.064184e+002, 7.289074e+001
8.069005e+002, 7.290038e+001
8.073826e+002, 7.277235e+001
8.078647e+002, 7.246127e+001
8.083469e+002, 7.183550e+001
8.088290e+002, 7.165393e+001
8.093111e+002, 7.270016e+001
8.097932e+002, 7.441299e+001
8.102753e+002, 7.503398e+001
8.107574e+002, 7.379272e+001
8.112396e+002, 7.301995e+001
8.117217e+002, 7.298436e+001
8.122038e+002, 7.310105e+001
8.126859e+002, 7.321513e+001
8.131680e+002, 7.328518e+001
8.136501e+002, 7.327845e+001
8.141323e+002, 7.318957e+001
8.146144e+002, 7.304055e+001
8.150965e+002, 7.274693e+001
8.155786e+002, 7.247713e+001
8.160607e+002, 7.249979e+001
8.165428e+002, 7.269909e+001
8.170250e+002, 7.276454e+001
8.175071e+002, 7.262788e+001
8.179892e+002, 7.240347e+001
8.184713e+002, 7.215804e+001
8.189534e+002, 7.195329e+001
8.194355e+002, 7.207810e+001
8.199177e+002, 7.266523e+001
8.203998e+002, 7.295781e+001
8.208819e+002, 7.278968e+001
8.213640e+002, 7.245646e+001
8.218461e+002, 7.194526e+001
8.223282e+002, 7.145491e+001
8.228104e+002, 7.141893e+001
8.232925e+002, 7.199305e+001
8.237746e+002, 7.245351e+001
8.242567e+002, 7.268637e+001
8.247388e+002, 7.274492e+001
8.252209e+002, 7.256210e+001
8.257031e+002, 7.227160e+001
8.261852e+002, 7.204494e+001
8.266673e+002, 7.192069e+001
8.271494e+002, 7.184471e+001
8.276315e+002, 7.178694e+001
8.281136e+002, 7.174126e+001
8.285958e+002, 7.171643e+001
8.290779e+002, 7.169804e+001
8.295600e+002, 7.159453e+001
8.300421e+002, 7.138503e+001
8.305242e+002, 7.117516e+001
8.310063e+002, 7.100857e+001
8.314885e+002, 7.095435e+001
8.319706e+002, 7.128889e+001
8.324527e+002, 7.236313e+001
8.329348e+002, 7.288326e+001
8.334169e+002, 7.237839e+001
8.338990e+002, 7.189944e+001
8.343812e+002, 7.194591e+001
8.348633e+002, 7.219923e+001
8.353454e+002, 7.220003e+001
8.358275e+002, 7.189579e+001
8.363096e+002, 7.183694e+001
8.367917e+002, 7.257687e+001
8.372739e+002, 7.321508e+001
8.377560e+002, 7.308477e+001
8.382381e+002, 7.255566e+001
8.387202e+002, 7.205063e+001
8.392023e+002, 7.170555e+001
8.396844e+002, 7.166984e+001
8.401666e+002, 7.211965e+001
8.406487e+002, 7.267186e+001
8.411308e+002, 7.253802e+001
8.416129e+002, 7.184241e+001
8.420950e+002, 7.146595e+001
8.425771e+002, 7.151351e+001
8.430593e+002, 7.174086e+001
8.435414e+002, 7.207559e+001
8.440235e+002, 7.239164e+001
8.445056e+002, 7.245168e+001
8.449877e+002, 7.221553e+001
8.454698e+002, 7.192481e+001
8.459520e+002, 7.142527e+001
8.464341e+002, 7.107884e+001
8.469162e+002, 7.104532e+001
8.473983e+002, 7.113548e+001
8.478804e+002, 7.122150e+001
8.483625e+002, 7.128343e+001
8.488447e+002, 7.128650e+001
8.493268e+002, 7.112788e+001
8.498089e+002, 7.105176e+001
8.502910e+002, 7.133311e+001
8.507731e+002, 7.167833e+001
8.512552e+002, 7.167473e+001
8.517374e+002, 7.140459e+001
8.522195e+002, 7.126362e+001
8.527016e+002, 7.143378e+001
8.531837e+002, 7.168337e+001
8.536658e+002, 7.159290e+001
8.541479e+002, 7.130577e+001
8.546301e+002, 7.169357e+001
8.551122e+002, 7.278767e+001
8.555943e+002, 7.335050e+001
8.560764e+002, 7.286311e+001
8.565585e+002, 7.207999e+001
8.570406e+002, 7.182754e+001
8.575228e+002, 7.204259e+001
8.580049e+002, 7.194840e+001
8.584870e+002, 7.125164e+001
8.589691e+002, 7.074651e+001
8.594512e+002, 7.050400e+001
8.599333e+002, 7.045776e+001
8.604155e+002, 7.077547e+001
8.608976e+002, 7.120760e+001
8.613797e+002, 7.125196e+001
8.618618e+002, 7.074753e+001
8.623439e+002, 7.030267e+001
8.628260e+002, 7.011008e+001
8.633082e+002, 7.013171e+001
8.637903e+002, 7.054246e+001
8.642724e+002, 7.106813e+001
8.647545e+002, 7.118513e+001
8.652366e+002, 7.083921e+001
8.657188e+002, 7.051209e+001
8.662009e+002, 7.060330e+001
8.666830e+002, 7.089462e+001
8.671651e+002, 7.092688e+001
8.676472e+002, 7.075728e+001
8.681293e+002, 7.080805e+001
8.686115e+002, 7.115583e+001
8.690936e+002, 7.134267e+001
8.695757e+002, 7.105303e+001
8.700578e+002, 7.054001e+001
8.705399e+002, 7.034248e+001
8.710220e+002, 7.055958e+001
8.715042e+002, 7.058528e+001
8.719863e+002, 7.024080e+001
8.724684e+002, 6.999295e+001
8.729505e+002, 7.012363e+001
8.734326e+002, 7.030854e+001
8.739147e+002, 7.022337e+001
8.743969e+002, 6.991393e+001
8.748790e+002, 6.971889e+001
8.753611e+002, 6.981212e+001
8.758432e+002, 6.987401e+001
8.763253e+002, 6.976274e+001
8.768074e+002, 6.959988e+001
8.772896e+002, 6.947838e+001
8.777717e+002, 6.939700e+001
8.782538e+002, 6.929566e+001
8.787359e+002, 6.915424e+001
8.792180e+002, 6.912312e+001
8.797001e+002, 6.947165e+001
8.801823e+002, 6.995886e+001
8.806644e+002, 7.010201e+001
8.811465e+002, 6.996803e+001
8.816286e+002, 6.984962e+001
8.821107e+002, 6.982744e+001
8.825928e+002, 6.993830e+001
8.830750e+002, 7.025159e+001
8.835571e+002, 7.064771e+001
8.840392e+002, 7.066822e+001
8.845213e+002, 7.022285e+001
8.850034e+002, 6.992859e+001
8.854855e+002, 6.987610e+001
8.859677e+002, 6.988826e+001
8.864498e+002, 6.986616e+001
8.869319e+002, 6.986368e+001
8.874140e+002, 7.002897e+001
8.878961e+002, 7.043079e+001
8.883782e+002, 7.053934e+001
8.888604e+002, 7.005554e+001
8.893425e+002, 6.964687e+001
8.898246e+002, 6.951781e+001
8.903067e+002, 6.952119e+001
8.907888e+002, 6.955123e+001
8.912709e+002, 6.959234e+001
8.917531e+002, 6.966311e+001
8.922352e+002, 6.980473e+001
8.927173e+002, 6.986263e+001
8.931994e+002, 6.959203e+001
8.936815e+002, 6.928267e+001
8.941636e+002, 6.930186e+001
8.946458e+002, 6.957546e+001
8.951279e+002, 6.988747e+001
8.956100e+002, 7.015392e+001
8.960921e+002, 7.031941e+001
8.965742e+002, 7.031544e+001
8.970563e+002, 7.018843e+001
8.975385e+002, 7.005087e+001
8.980206e+002, 6.990264e+001
8.985027e+002, 6.972124e+001
8.989848e+002, 6.948891e+001
8.994669e+002, 6.939661e+001
8.999490e+002, 6.961984e+001
9.004312e+002, 6.995743e+001
9.009133e+002, 6.990742e+001
9.013954e+002, 6.931175e+001
9.018775e+002, 6.907305e+001
9.023596e+002, 6.942481e+001
9.028417e+002, 6.973610e+001
9.033239e+002, 6.978405e+001
9.038060e+002, 6.973247e+001
9.042881e+002, 6.976687e+001
9.047702e+002, 6.985572e+001
9.052523e+002, 6.978947e+001
9.057344e+002, 6.941914e+001
9.062166e+002, 6.907593e+001
9.066987e+002, 6.879192e+001
9.071808e+002, 6.860525e+001
9.076629e+002, 6.857348e+001
9.081450e+002, 6.864951e+001
9.086271e+002, 6.876071e+001
9.091093e+002, 6.888500e+001
9.095914e+002, 6.900564e+001
9.100735e+002, 6.914961e+001
9.105556e+002, 6.924963e+001
9.110377e+002, 6.918240e+001
9.115198e+002, 6.902906e+001
9.120020e+002, 6.896572e+001
9.124841e+002, 6.901003e+001
9.129662e+002, 6.906651e+001
9.134483e+002, 6.907853e+001
9.139304e+002, 6.904468e+001
9.144125e+002, 6.894015e+001
9.148947e+002, 6.877862e+001
9.153768e+002, 6.868293e+001
9.158589e+002, 6.866293e+001
9.163410e+002, 6.859101e+001
9.168231e+002, 6.839880e+001
9.173052e+002, 6.823581e+001
9.177874e+002, 6.829887e+001
9.182695e+002, 6.854858e+001
9.187516e+002, 6.857995e+001
9.192337e+002, 6.824163e+001
9.197158e+002, 6.805534e+001
9.201979e+002, 6.820017e+001
9.206801e+002, 6.833695e+001
9.211622e+002, 6.816085e+001
9.216443e+002, 6.790697e+001
9.221264e+002, 6.799686e+001
9.226085e+002, 6.850529e+001
9.230906e+002, 6.889246e+001
9.235728e+002, 6.914063e+001
9.240549e+002, 6.918419e+001
9.245370e+002, 6.875407e+001
9.250191e+002, 6.829372e+001
9.255012e+002, 6.828268e+001
9.259833e+002, 6.862347e+001
9.264655e+002, 6.886953e+001
9.269476e+002, 6.882731e+001
9.274297e+002, 6.878222e+001
9.279118e+002, 6.910236e+001
9.283939e+002, 6.938902e+001
9.288760e+002, 6.900858e+001
9.293582e+002, 6.826659e+001
9.298403e+002, 6.795711e+001
9.303224e+002, 6.823452e+001
9.308045e+002, 6.853297e+001
9.312866e+002, 6.836819e+001
9.317687e+002, 6.801292e+001
9.322509e+002, 6.801065e+001
9.327330e+002, 6.827714e+001
9.332151e+002, 6.842895e+001
9.336972e+002, 6.842627e+001
9.341793e+002, 6.839493e+001
9.346614e+002, 6.839790e+001
9.351436e+002, 6.839438e+001
9.356257e+002, 6.832246e+001
9.361078e+002, 6.818558e+001
9.365899e+002, 6.804247e+001
9.370720e+002, 6.788998e+001
9.375541e+002, 6.774236e+001
9.380363e+002, 6.758628e+001
9.385184e+002, 6.746986e+001
9.390005e+002, 6.743771e+001
9.394826e+002, 6.746647e+001
9.399647e+002, 6.749372e+001
9.404468e+002, 6.752669e+001
9.409290e+002, 6.753598e+001
9.414111e+002, 6.743507e+001
9.418932e+002, 6.741993e+001
9.423753e+002, 6.769559e+001
9.428574e+002, 6.796720e+001
9.433395e+002, 6.790096e+001
9.438217e+002, 6.756187e+001
9.443038e+002, 6.733681e+001
9.447859e+002, 6.739405e+001
9.452680e+002, 6.741535e+001
9.457501e+002, 6.715440e+001
9.462322e+002, 6.694341e+001
9.467144e+002, 6.709611e+001
9.471965e+002, 6.745182e+001
9.476786e+002, 6.776556e+001
9.481607e+002, 6.796528e+001
9.486428e+002, 6.801712e+001
9.491249e+002, 6.777843e+001
9.496071e+002, 6.753913e+001
9.500892e+002, 6.773410e+001
9.505713e+002, 6.806470e+001
9.510534e+002, 6.795427e+001
9.515355e+002, 6.745609e+001
9.520176e+002, 6.703286e+001
9.524998e+002, 6.689247e+001
9.529819e+002, 6.690260e+001
9.534640e+002, 6.691891e+001
9.539461e+002, 6.695856e+001
9.544282e+002, 6.706891e+001
9.549103e+002, 6.725066e+001
9.553925e+002, 6.757156e+001
9.558746e+002, 6.804882e+001
9.563567e+002, 6.833811e+001
9.568388e+002, 6.818084e+001
9.573209e+002, 6.775153e+001
9.578030e+002, 6.738631e+001
9.582852e+002, 6.707235e+001
9.587673e+002, 6.700723e+001
9.592494e+002, 6.726759e+001
9.597315e+002, 6.747749e+001
9.602136e+002, 6.752900e+001
9.606957e+002, 6.747433e+001
9.611779e+002, 6.733205e+001
9.616600e+002, 6.712921e+001
9.621421e+002, 6.700913e+001
9.626242e+002, 6.694496e+001
9.631063e+002, 6.702061e+001
9.635884e+002, 6.739510e+001
9.640706e+002, 6.771040e+001
9.645527e+002, 6.784103e+001
9.650348e+002, 6.784245e+001
9.655169e+002, 6.773522e+001
9.659990e+002, 6.753259e+001
9.664811e+002, 6.738576e+001
9.669633e+002, 6.731340e+001
9.674454e+002, 6.730180e+001
9.679275e+002, 6.740366e+001
9.684096e+002, 6.750979e+001
9.688917e+002, 6.756850e+001
9.693738e+002, 6.757118e+001
9.698560e+002, 6.750486e+001
9.703381e+002, 6.736895e+001
9.708202e+002, 6.721573e+001
9.713023e+002, 6.699849e+001
9.717844e+002, 6.685367e+001
9.722665e+002, 6.693993e+001
9.727487e+002, 6.710316e+001
9.732308e+002, 6.718189e+001
9.737129e+002, 6.716415e+001
9.741950e+002, 6.706760e+001
9.746771e+002, 6.689989e+001
9.751592e+002, 6.675559e+001
9.756414e+002, 6.672062e+001
9.761235e+002, 6.675893e+001
9.766056e+002, 6.684400e+001
9.770877e+002, 6.695457e+001
9.775698e+002, 6.706996e+001
9.780519e+002, 6.716806e+001
9.785341e+002, 6.714429e+001
9.790162e+002, 6.692546e+001
9.794983e+002, 6.668607e+001
9.799804e+002, 6.674201e+001
9.804625e+002, 6.698997e+001
9.809446e+002, 6.698415e+001
9.814268e+002, 6.674995e+001
9.819089e+002, 6.663932e+001
9.823910e+002, 6.674612e+001
9.828731e+002, 6.690373e+001
9.833552e+002, 6.698795e+001
9.838373e+002, 6.700119e+001
9.843195e+002, 6.691059e+001
9.848016e+002, 6.670423e+001
9.852837e+002, 6.671192e+001
9.857658e+002, 6.700925e+001
9.862479e+002, 6.711664e+001
9.867300e+002, 6.679743e+001
9.872122e+002, 6.644372e+001
9.876943e+002, 6.648232e+001
9.881764e+002, 6.681599e+001
9.886585e+002, 6.689997e+001
9.891406e+002, 6.662106e+001
9.896227e+002, 6.641122e+001
9.901049e+002, 6.623849e+001
9.905870e+002, 6.623975e+001
9.910691e+002, 6.667712e+001
9.915512e+002, 6.711588e+001
9.920333e+002, 6.690599e+001
9.925154e+002, 6.608055e+001
9.929976e+002, 6.571246e+001
9.934797e+002, 6.624777e+001
9.939618e+002, 6.655858e+001
9.944439e+002, 6.645293e+001
9.949260e+002, 6.626484e+001
9.954081e+002, 6.603817e+001
9.958903e+002, 6.588643e+001
9.963724e+002, 6.603261e+001
9.968545e+002, 6.647823e+001
9.973366e+002, 6.672990e+001
9.978187e+002, 6.657952e+001
9.983008e+002, 6.638123e+001
9.987830e+002, 6.614767e+001
9.992651e+002, 6.598452e+001
9.997472e+002, 6.599277e+001
1.000229e+003, 6.611500e+001
1.000711e+003, 6.629157e+001
1.001194e+003, 6.650348e+001
1.001676e+003, 6.657046e+001
1.002158e+003, 6.614398e+001
1.002640e+003, 6.587499e+001
1.003122e+003, 6.645238e+001
1.003604e+003, 6.712983e+001
1.004086e+003, 6.704402e+001
1.004568e+003, 6.640479e+001
1.005050e+003, 6.587371e+001
1.005533e+003, 6.566021e+001
1.006015e+003, 6.555389e+001
1.006497e+003, 6.535850e+001
1.006979e+003, 6.525186e+001
1.007461e+003, 6.556794e+001
1.007943e+003, 6.600147e+001
1.008425e+003, 6.599755e+001
1.008907e+003, 6.563402e+001
1.009390e+003, 6.540182e+001
1.009872e+003, 6.550915e+001
1.010354e+003, 6.573719e+001
1.010836e+003, 6.591611e+001
1.011318e+003, 6.604961e+001
1.011800e+003, 6.615778e+001
1.012282e+003, 6.622134e+001
1.012764e+003, 6.614436e+001
1.013246e+003, 6.595251e+001
1.013729e+003, 6.586073e+001
1.014211e+003, 6.598521e+001
1.014693e+003, 6.615933e+001
1.015175e+003, 6.617631e+001
1.015657e+003, 6.606770e+001
1.016139e+003, 6.586852e+001
1.016621e+003, 6.561765e+001
1.017103e+003, 6.555808e+001
1.017586e+003, 6.571853e+001
1.018068e+003, 6.581495e+001
1.018550e+003, 6.566800e+001
1.019032e+003, 6.540269e+001
1.019514e+003, 6.517550e+001
1.019996e+003, 6.500791e+001
1.020478e+003, 6.503359e+001
1.020960e+003, 6.525452e+001
1.021442e+003, 6.592215e+001
1.021925e+003, 6.713984e+001
1.022407e+003, 6.794302e+001
1.022889e+003, 6.760970e+001
1.023371e+003, 6.663350e+001
1.023853e+003, 6.595961e+001
1.024335e+003, 6.559099e+001
1.024817e+003, 6.535298e+001
1.025299e+003, 6.525293e+001
1.025781e+003, 6.524178e+001
1.026264e+003, 6.533220e+001
1.026746e+003, 6.539314e+001
1.027228e+003, 6.530012e+001
1.027710e+003, 6.516090e+001
1.028192e+003, 6.528273e+001
1.028674e+003, 6.574457e+001
1.029156e+003, 6.575290e+001
1.029638e+003, 6.506029e+001
1.030120e+003, 6.479946e+001
1.030603e+003, 6.546397e+001
1.031085e+003, 6.616800e+001
1.031567e+003, 6.621275e+001
1.032049e+003, 6.579977e+001
1.032531e+003, 6.544280e+001
1.033013e+003, 6.512580e+001
1.033495e+003, 6.493823e+001
1.033977e+003, 6.488981e+001
1.034460e+003, 6.496392e+001
1.034942e+003, 6.527171e+001
1.035424e+003, 6.553817e+001
1.035906e+003, 6.554372e+001
1.036388e+003, 6.534374e+001
1.036870e+003, 6.506590e+001
1.037352e+003, 6.461047e+001
1.037834e+003, 6.443309e+001
1.038317e+003, 6.472018e+001
1.038799e+003, 6.500240e+001
1.039281e+003, 6.523352e+001
1.039763e+003, 6.536295e+001
1.040245e+003, 6.530922e+001
1.040727e+003, 6.512938e+001
1.041209e+003, 6.496395e+001
1.041691e+003, 6.475455e+001
1.042173e+003, 6.474738e+001
1.042656e+003, 6.525575e+001
1.043138e+003, 6.554944e+001
1.043620e+003, 6.526384e+001
1.044102e+003, 6.487356e+001
1.044584e+003, 6.475517e+001
1.045066e+003, 6.480762e+001
1.045548e+003, 6.473935e+001
1.046030e+003, 6.447639e+001
1.046512e+003, 6.431242e+001
1.046995e+003, 6.432957e+001
1.047477e+003, 6.438238e+001
1.047959e+003, 6.440804e+001
1.048441e+003, 6.447183e+001
1.048923e+003, 6.471471e+001
1.049405e+003, 6.501761e+001
1.049887e+003, 6.505131e+001
1.050369e+003, 6.468960e+001
1.050852e+003, 6.452887e+001
1.051334e+003, 6.484513e+001
1.051816e+003, 6.516594e+001
1.052298e+003, 6.546350e+001
1.052780e+003, 6.558080e+001
1.053262e+003, 6.525278e+001
1.053744e+003, 6.468661e+001
1.054226e+003, 6.433682e+001
1.054708e+003, 6.428629e+001
1.055191e+003, 6.434968e+001
1.055673e+003, 6.458353e+001
1.056155e+003, 6.478413e+001
1.056637e+003, 6.488020e+001
1.057119e+003, 6.490385e+001
1.057601e+003, 6.482081e+001
1.058083e+003, 6.470666e+001
1.058565e+003, 6.472704e+001
1.059047e+003, 6.492190e+001
1.059530e+003, 6.506551e+001
1.060012e+003, 6.513807e+001
1.060494e+003, 6.507248e+001
1.060976e+003, 6.471304e+001
1.061458e+003, 6.432137e+001
1.061940e+003, 6.405379e+001
1.062422e+003, 6.393721e+001
1.062904e+003, 6.404357e+001
1.063387e+003, 6.438195e+001
1.063869e+003, 6.458472e+001
1.064351e+003, 6.441194e+001
1.064833e+003, 6.420978e+001
1.065315e+003, 6.409819e+001
1.065797e+003, 6.405336e+001
1.066279e+003, 6.408388e+001
1.066761e+003, 6.415318e+001
1.067244e+003, 6.419992e+001
1.067726e+003, 6.421532e+001
1.068208e+003, 6.424959e+001
1.068690e+003, 6.434414e+001
1.069172e+003, 6.443330e+001
1.069654e+003, 6.447197e+001
1.070136e+003, 6.450751e+001
1.070618e+003, 6.463525e+001
1.071100e+003, 6.475919e+001
1.071583e+003, 6.471551e+001
1.072065e+003, 6.448800e+001
1.072547e+003, 6.418659e+001
1.073029e+003, 6.370861e+001
1.073511e+003, 6.341668e+001
1.073993e+003, 6.365779e+001
1.074475e+003, 6.397717e+001
1.074957e+003, 6.401480e+001
1.075439e+003, 6.390379e+001
1.075922e+003, 6.382411e+001
1.076404e+003, 6.382543e+001
1.076886e+003, 6.398380e+001
1.077368e+003, 6.447324e+001
1.077850e+003, 6.478960e+001
1.078332e+003, 6.447054e+001
1.078814e+003, 6.413437e+001
1.079297e+003, 6.436507e+001
1.079779e+003, 6.476923e+001
1.080261e+003, 6.471268e+001
1.080743e+003, 6.426672e+001
1.081225e+003, 6.410551e+001
1.081707e+003, 6.459506e+001
1.082189e+003, 6.490894e+001
1.082671e+003, 6.447880e+001
1.083153e+003, 6.396535e+001
1.083635e+003, 6.373409e+001
1.084118e+003, 6.370288e+001
1.084600e+003, 6.384990e+001
1.085082e+003, 6.407989e+001
1.085564e+003, 6.413683e+001
1.086046e+003, 6.390739e+001
1.086528e+003, 6.373343e+001
1.087010e+003, 6.381686e+001
1.087492e+003, 6.392687e+001
1.087975e+003, 6.387897e+001
1.088457e+003, 6.384008e+001
1.088939e+003, 6.407076e+001
1.089421e+003, 6.443747e+001
1.089903e+003, 6.458398e+001
1.090385e+003, 6.441856e+001
1.090867e+003, 6.417506e+001
1.091349e+003, 6.388540e+001
1.091832e+003, 6.361081e+001
1.092314e+003, 6.321923e+001
1.092796e+003, 6.300269e+001
1.093278e+003, 6.344933e+001
1.093760e+003, 6.416645e+001
1.094242e+003, 6.436758e+001
1.094724e+003, 6.392668e+001
1.095206e+003, 6.348238e+001
1.095688e+003, 6.317940e+001
1.096171e+003, 6.298792e+001
1.096653e+003, 6.281229e+001
1.097135e+003, 6.283244e+001
1.097617e+003, 6.347088e+001
1.098099e+003, 6.422340e+001
1.098581e+003, 6.422831e+001
1.099063e+003, 6.348933e+001
1.099545e+003, 6.304867e+001
1.100027e+003, 6.338405e+001
1.100510e+003, 6.365245e+001
1.100992e+003, 6.351963e+001
1.101474e+003, 6.340413e+001
1.101956e+003, 6.366037e+001
1.102438e+003, 6.396687e+001
1.102920e+003, 6.385506e+001
1.103402e+003, 6.341485e+001
1.103884e+003, 6.323915e+001
1.104367e+003, 6.357644e+001
1.104849e+003, 6.379010e+001
1.105331e+003, 6.369340e+001
1.105813e+003, 6.355160e+001
1.106295e+003, 6.339452e+001
1.106777e+003, 6.329756e+001
1.107259e+003, 6.337479e+001
1.107741e+003, 6.355984e+001
1.108224e+003, 6.366547e+001
1.108706e+003, 6.367309e+001
1.109188e+003, 6.361525e+001
1.109670e+003, 6.340135e+001
1.110152e+003, 6.325181e+001
1.110634e+003, 6.335593e+001
1.111116e+003, 6.339970e+001
1.111598e+003, 6.306124e+001
1.112080e+003, 6.256230e+001
1.112563e+003, 6.229332e+001
1.113045e+003, 6.225642e+001
1.113527e+003, 6.249482e+001
1.114009e+003, 6.360236e+001
1.114491e+003, 6.400376e+001
1.114973e+003, 6.287496e+001
1.115455e+003, 6.192070e+001
1.115937e+003, 6.211546e+001
1.116419e+003, 6.276986e+001
1.116902e+003, 6.302872e+001
1.117384e+003, 6.292077e+001
1.117866e+003, 6.279268e+001
1.118348e+003, 6.260255e+001
1.118830e+003, 6.248323e+001
1.119312e+003, 6.239240e+001
1.119794e+003, 6.248079e+001
1.120276e+003, 6.290983e+001
1.120759e+003, 6.336946e+001
1.121241e+003, 6.359335e+001
1.121723e+003, 6.360146e+001
1.122205e+003, 6.345208e+001
1.122687e+003, 6.309544e+001
1.123169e+003, 6.279233e+001
1.123651e+003, 6.251103e+001
1.124133e+003, 6.239502e+001
1.124615e+003, 6.250998e+001
1.125098e+003, 6.272382e+001
1.125580e+003, 6.299022e+001
1.126062e+003, 6.320573e+001
1.126544e+003, 6.313459e+001
1.127026e+003, 6.278642e+001
1.127508e+003, 6.261699e+001
1.127990e+003, 6.264740e+001
1.128472e+003, 6.266749e+001
1.128954e+003, 6.263385e+001
1.129437e+003, 6.269889e+001
1.129919e+003, 6.295909e+001
1.130401e+003, 6.323715e+001
1.130883e+003, 6.331504e+001
1.131365e+003, 6.322943e+001
1.131847e+003, 6.310681e+001
1.132329e+003, 6.295123e+001
1.132811e+003, 6.287403e+001
1.133294e+003, 6.287939e+001
1.133776e+003, 6.279054e+001
1.134258e+003, 6.254779e+001
1.134740e+003, 6.240990e+001
1.135222e+003, 6.260737e+001
1.135704e+003, 6.298501e+001
1.136186e+003, 6.335111e+001
1.136668e+003, 6.362486e+001
1.137151e+003, 6.335729e+001
1.137633e+003, 6.266943e+001
1.138115e+003, 6.215098e+001
1.138597e+003, 6.193388e+001
1.139079e+003, 6.196808e+001
1.139561e+003, 6.223407e+001
1.140043e+003, 6.249834e+001
1.140525e+003, 6.240969e+001
1.141007e+003, 6.217895e+001
1.141490e+003, 6.219421e+001
1.141972e+003, 6.238968e+001
1.142454e+003, 6.273088e+001
1.142936e+003, 6.310664e+001
1.143418e+003, 6.313590e+001
1.143900e+003, 6.273035e+001
1.144382e+003, 6.237819e+001
1.144864e+003, 6.251600e+001
1.145346e+003, 6.273439e+001
1.145829e+003, 6.254604e+001
1.146311e+003, 6.221933e+001
1.146793e+003, 6.207327e+001
1.147275e+003, 6.206939e+001
1.147757e+003, 6.210418e+001
1.148239e+003, 6.214579e+001
1.148721e+003, 6.216785e+001
1.149203e+003, 6.214347e+001
1.149686e+003, 6.217180e+001
1.150168e+003, 6.239986e+001
1.150650e+003, 6.261130e+001
1.151132e+003, 6.267516e+001
1.151614e+003, 6.261390e+001
1.152096e+003, 6.241909e+001
1.152578e+003, 6.213796e+001
1.153060e+003, 6.181999e+001
1.153542e+003, 6.147066e+001
1.154025e+003, 6.132469e+001
1.154507e+003, 6.159238e+001
1.154989e+003, 6.189650e+001
1.155471e+003, 6.214648e+001
1.155953e+003, 6.234571e+001
1.156435e+003, 6.255148e+001
1.156917e+003, 6.267773e+001
1.157399e+003, 6.254064e+001
1.157881e+003, 6.217438e+001
1.158364e+003, 6.195713e+001
1.158846e+003, 6.195344e+001
1.159328e+003, 6.204609e+001
1.159810e+003, 6.248315e+001
1.160292e+003, 6.266579e+001
1.160774e+003, 6.219722e+001
1.161256e+003, 6.166553e+001
1.161738e+003, 6.156073e+001
1.162221e+003, 6.171329e+001
1.162703e+003, 6.168843e+001
1.163185e+003, 6.143213e+001
1.163667e+003, 6.147997e+001
1.164149e+003, 6.201951e+001
1.164631e+003, 6.230033e+001
1.165113e+003, 6.214434e+001
1.165595e+003, 6.190110e+001
1.166078e+003, 6.170150e+001
1.166560e+003, 6.161425e+001
1.167042e+003, 6.175884e+001
1.167524e+003, 6.205804e+001
1.168006e+003, 6.211054e+001
1.168488e+003, 6.190248e+001
1.168970e+003, 6.188149e+001
1.169452e+003, 6.207708e+001
1.169934e+003, 6.221751e+001
1.170417e+003, 6.222280e+001
1.170899e+003, 6.224254e+001
1.171381e+003, 6.239767e+001
1.171863e+003, 6.255299e+001
1.172345e+003, 6.241219e+001
1.172827e+003, 6.209710e+001
1.173309e+003, 6.207441e+001
1.173791e+003, 6.226756e+001
1.174273e+003, 6.240116e+001
1.174756e+003, 6.243382e+001
1.175238e+003, 6.237938e+001
1.175720e+003, 6.225144e+001
1.176202e+003, 6.215615e+001
1.176684e+003, 6.220333e+001
1.177166e+003, 6.229236e+001
1.177648e+003, 6.234292e+001
1.178130e+003, 6.232096e+001
1.178613e+003, 6.212206e+001
1.179095e+003, 6.183366e+001
1.179577e+003, 6.161005e+001
1.180059e+003, 6.148522e+001
1.180541e+003, 6.144375e+001
1.181023e+003, 6.148452e+001
1.181505e+003, 6.157517e+001
1.181987e+003, 6.174542e+001
1.182469e+003, 6.190079e+001
1.182952e+003, 6.202493e+001
1.183434e+003, 6.206310e+001
1.183916e+003, 6.188486e+001
1.184398e+003, 6.161218e+001
1.184880e+003, 6.148545e+001
1.185362e+003, 6.153733e+001
1.185844e+003, 6.161546e+001
1.186326e+003, 6.180445e+001
1.186808e+003, 6.183134e+001
1.187291e+003, 6.136362e+001
1.187773e+003, 6.107586e+001
1.188255e+003, 6.149653e+001
1.188737e+003, 6.202922e+001
1.189219e+003, 6.211298e+001
1.189701e+003, 6.185132e+001
1.190183e+003, 6.152645e+001
1.190665e+003, 6.106137e+001
1.191148e+003, 6.096212e+001
1.191630e+003, 6.142140e+001
1.192112e+003, 6.169944e+001
1.192594e+003, 6.163173e+001
1.193076e+003, 6.146862e+001
1.193558e+003, 6.128459e+001
1.194040e+003, 6.124754e+001
1.194522e+003, 6.164435e+001
1.195005e+003, 6.228938e+001
1.195487e+003, 6.233303e+001
1.195969e+003, 6.180410e+001
1.196451e+003, 6.148898e+001
1.196933e+003, 6.141985e+001
1.197415e+003, 6.135239e+001
1.197897e+003, 6.122471e+001
1.198379e+003, 6.115903e+001
1.198861e+003, 6.124105e+001
1.199344e+003, 6.131696e+001
1.199826e+003, 6.108558e+001
1.200308e+003, 6.076220e+001
1.200790e+003, 6.083950e+001
1.201272e+003, 6.115287e+001
1.201754e+003, 6.138560e+001
1.202236e+003, 6.149813e+001
1.202718e+003, 6.148889e+001
1.203200e+003, 6.137751e+001
1.203683e+003, 6.128868e+001
1.204165e+003, 6.130762e+001
1.204647e+003, 6.134080e+001
1.205129e+003, 6.127464e+001
1.205611e+003, 6.123877e+001
1.206093e+003, 6.140147e+001
1.206575e+003, 6.161684e+001
1.207057e+003, 6.172751e+001
1.207540e+003, 6.172372e+001
1.208022e+003, 6.161680e+001
1.208504e+003, 6.139659e+001
1.208986e+003, 6.123858e+001
1.209468e+003, 6.126192e+001
1.209950e+003, 6.123423e+001
1.210432e+003, 6.094368e+001
1.210914e+003, 6.078005e+001
1.211396e+003, 6.112960e+001
1.211879e+003, 6.154246e+001
1.212361e+003, 6.152580e+001
1.212843e+003, 6.118488e+001
1.213325e+003, 6.094374e+001
1.213807e+003, 6.083308e+001
1.214289e+003, 6.065111e+001
1.214771e+003, 6.032069e+001
1.215253e+003, 6.025518e+001
1.215735e+003, 6.057943e+001
1.216218e+003, 6.099434e+001
1.216700e+003, 6.137284e+001
1.217182e+003, 6.158316e+001
1.217664e+003, 6.141920e+001
1.218146e+003, 6.102711e+001
1.218628e+003, 6.087880e+001
1.219110e+003, 6.092350e+001
1.219592e+003, 6.087227e+001
1.220075e+003, 6.074651e+001
1.220557e+003, 6.074018e+001
1.221039e+003, 6.089630e+001
1.221521e+003, 6.122141e+001
1.222003e+003, 6.173502e+001
1.222485e+003, 6.204568e+001
1.222967e+003, 6.159401e+001
1.223449e+003, 6.089390e+001
1.223932e+003, 6.044087e+001
1.224414e+003, 6.017410e+001
1.224896e+003, 6.002687e+001
1.225378e+003, 5.999113e+001
1.225860e+003, 6.012048e+001
1.226342e+003, 6.038430e+001
1.226824e+003, 6.058220e+001
1.227306e+003, 6.067409e+001
1.227788e+003, 6.061355e+001
1.228271e+003, 6.012847e+001
1.228753e+003, 5.982337e+001
1.229235e+003, 6.009607e+001
1.229717e+003, 6.051383e+001
1.230199e+003, 6.085299e+001
1.230681e+003, 6.103637e+001
1.231163e+003, 6.087000e+001
1.231645e+003, 6.036789e+001
1.232127e+003, 6.022046e+001
1.232610e+003, 6.060009e+001
1.233092e+003, 6.080403e+001
1.233574e+003, 6.077039e+001
1.234056e+003, 6.064347e+001
1.234538e+003, 6.042899e+001
1.235020e+003, 6.032081e+001
1.235502e+003, 6.048586e+001
1.235984e+003, 6.074109e+001
1.236467e+003, 6.076398e+001
1.236949e+003, 6.060570e+001
1.237431e+003, 6.043290e+001
1.237913e+003, 6.027486e+001
1.238395e+003, 6.032122e+001
1.238877e+003, 6.052893e+001
1.239359e+003, 6.062825e+001
1.239841e+003, 6.053796e+001
1.240323e+003, 6.029264e+001
1.240806e+003, 5.985457e+001
1.241288e+003, 5.958406e+001
1.241770e+003, 5.998340e+001
1.242252e+003, 6.055126e+001
1.242734e+003, 6.086373e+001
1.243216e+003, 6.099787e+001
1.243698e+003, 6.106064e+001
1.244180e+003, 6.104517e+001
1.244662e+003, 6.088552e+001
1.245145e+003, 6.058126e+001
1.245627e+003, 6.026783e+001
1.246109e+003, 5.990516e+001
1.246591e+003, 5.967535e+001
1.247073e+003, 5.966471e+001
1.247555e+003, 5.972227e+001
1.248037e+003, 5.988465e+001
1.248519e+003, 5.998448e+001
1.249002e+003, 5.981319e+001
1.249484e+003, 5.959788e+001
1.249966e+003, 5.981085e+001
1.250448e+003, 6.040767e+001
1.250930e+003, 6.055730e+001
1.251412e+003, 6.019394e+001
1.251894e+003, 6.016068e+001
1.252376e+003, 6.053855e+001
1.252859e+003, 6.070078e+001
1.253341e+003, 6.045933e+001
1.253823e+003, 6.017508e+001
1.254305e+003, 6.009340e+001
1.254787e+003, 6.010659e+001
1.255269e+003, 6.006259e+001
1.255751e+003, 6.001426e+001
1.256233e+003, 6.005062e+001
1.256715e+003, 6.016101e+001
1.257198e+003, 6.038868e+001
1.257680e+003, 6.065424e+001
1.258162e+003, 6.077873e+001
1.258644e+003, 6.073568e+001
1.259126e+003, 6.060972e+001
1.259608e+003, 6.039608e+001
1.260090e+003, 6.026468e+001
1.260572e+003, 6.043503e+001
1.261054e+003, 6.052175e+001
1.261537e+003, 6.019798e+001
1.262019e+003, 5.986683e+001
1.262501e+003, 5.985651e+001
1.262983e+003, 6.003145e+001
1.263465e+003, 6.019574e+001
1.263947e+003, 6.033669e+001
1.264429e+003, 6.036105e+001
1.264911e+003, 6.019238e+001
1.265394e+003, 6.019577e+001
1.265876e+003, 6.044151e+001
1.266358e+003, 6.053770e+001
1.266840e+003, 6.038384e+001
1.267322e+003, 6.014263e+001
1.267804e+003, 5.989031e+001
1.268286e+003, 5.970643e+001
1.268768e+003, 5.970056e+001
1.269250e+003, 5.980651e+001
1.269733e+003, 5.986856e+001
1.270215e+003, 5.992549e+001
1.270697e+003, 6.016791e+001
1.271179e+003, 6.046495e+001
1.271661e+003, 6.037920e+001
1.272143e+003, 5.996618e+001
1.272625e+003, 5.973418e+001
1.273107e+003, 5.987373e+001
1.273589e+003, 6.007188e+001
1.274072e+003, 6.021033e+001
1.274554e+003, 6.026509e+001
1.275036e+003, 6.012222e+001
1.275518e+003, 6.000722e+001
1.276000e+003, 5.994396e+001
1.276482e+003, 6.008682e+001
1.276964e+003, 6.097321e+001
1.277446e+003, 6.214423e+001
1.277929e+003, 6.203765e+001
1.278411e+003, 6.045837e+001
1.278893e+003, 5.963819e+001
1.279375e+003, 5.977575e+001
1.279857e+003, 5.997139e+001
1.280339e+003, 6.016591e+001
1.280821e+003, 6.023451e+001
1.281303e+003, 6.011951e+001
1.281786e+003, 6.003684e+001
1.282268e+003, 6.013979e+001
##END=



