##NAMES=Iquiqueite
##RRUFFID=R060822
##IDEAL CHEMISTRY=K_3_Na_4_Mg(Cr^6+^O_4_)B_24_O_39_(OH)&#183;12H_2_O
##LOCALITY=Salar de Miraje, Pampa de Tamanigal, Atacama, Chile
##OWNER=RRUFF
##SOURCE=Michael Scott
##DESCRIPTION=Transparent pale yellow crystals imbedded in nitratine
##STATUS=The identification of this mineral has been confirmed only by single crystal X-ray diffraction.
##URL=rruff.info/R060822
160.7290, 354.5548
161.2112, 355.9143
161.6933, 356.2509
162.1754, 356.3444
162.6575, 356.8433
163.1396, 358.0676
163.6217, 359.6120
164.1039, 361.3817
164.5860, 363.3679
165.0681, 365.4187
165.5502, 367.2339
166.0323, 369.1377
166.5145, 371.5229
166.9966, 375.1445
167.4787, 378.8282
167.9608, 381.7014
168.4429, 383.6782
168.9250, 385.8279
169.4071, 388.7940
169.8893, 392.3581
170.3714, 396.1776
170.8535, 400.5481
171.3356, 404.8844
171.8177, 408.5418
172.2998, 411.3754
172.7820, 414.3016
173.2641, 418.2428
173.7462, 422.8112
174.2283, 427.1917
174.7104, 430.6839
175.1925, 433.9466
175.6747, 437.6481
176.1568, 441.8619
176.6389, 446.5347
177.1210, 452.0790
177.6031, 458.1509
178.0852, 463.7272
178.5674, 467.9481
179.0495, 471.4122
179.5316, 475.1691
180.0137, 479.4430
180.4958, 483.8106
180.9779, 488.0406
181.4601, 492.0896
181.9422, 495.6209
182.4243, 498.4501
182.9064, 500.6163
183.3885, 502.1980
183.8706, 503.1561
184.3528, 503.6303
184.8349, 504.0719
185.3170, 504.3963
185.7991, 503.8264
186.2812, 501.6069
186.7633, 497.9945
187.2455, 494.0055
187.7276, 489.9558
188.2097, 485.3405
188.6918, 478.7071
189.1739, 470.0848
189.6560, 461.2431
190.1382, 453.6602
190.6203, 447.1135
191.1024, 439.8690
191.5845, 431.4389
192.0666, 422.3414
192.5487, 413.4756
193.0309, 404.8730
193.5130, 396.7762
193.9951, 389.5308
194.4772, 383.0888
194.9593, 376.4156
195.4414, 369.1746
195.9236, 361.5550
196.4057, 354.2607
196.8878, 347.2278
197.3699, 340.8481
197.8520, 335.8485
198.3341, 332.2131
198.8163, 328.0262
199.2984, 322.4874
199.7805, 316.0950
200.2626, 311.3389
200.7447, 308.5361
201.2268, 306.1955
201.7090, 302.9102
202.1911, 298.5797
202.6732, 294.2393
203.1553, 290.0781
203.6374, 286.1092
204.1195, 282.6087
204.6017, 279.6846
205.0838, 276.9473
205.5659, 273.8940
206.0480, 270.3817
206.5301, 267.3974
207.0122, 265.4218
207.4944, 264.3041
207.9765, 262.4362
208.4586, 259.6230
208.9407, 256.4571
209.4228, 253.4162
209.9049, 250.3832
210.3871, 247.9488
210.8692, 246.4321
211.3513, 245.7902
211.8334, 244.8856
212.3155, 243.6758
212.7976, 242.2766
213.2798, 240.7549
213.7619, 239.0076
214.2440, 237.4509
214.7261, 236.1944
215.2082, 235.2514
215.6903, 234.3456
216.1725, 233.4646
216.6546, 232.6524
217.1367, 232.0454
217.6188, 231.8599
218.1009, 231.2951
218.5830, 230.0550
219.0651, 228.0785
219.5473, 226.2778
220.0294, 224.5871
220.5115, 223.1006
220.9936, 221.9393
221.4757, 221.1001
221.9578, 220.5821
222.4400, 220.5313
222.9221, 221.0247
223.4042, 220.9258
223.8863, 219.9742
224.3684, 218.7156
224.8505, 217.7296
225.3327, 217.0285
225.8148, 216.6186
226.2969, 216.6763
226.7790, 217.3024
227.2611, 217.2008
227.7432, 215.9503
228.2254, 214.4034
228.7075, 213.5749
229.1896, 213.8477
229.6717, 214.0647
230.1538, 213.8943
230.6359, 213.2710
231.1181, 213.0166
231.6002, 213.3353
232.0823, 213.8272
232.5644, 214.0119
233.0465, 213.6464
233.5286, 213.4312
234.0108, 213.5520
234.4929, 214.0398
234.9750, 214.4897
235.4571, 214.8986
235.9392, 215.2620
236.4213, 215.5791
236.9035, 215.8544
237.3856, 216.0768
237.8677, 216.2768
238.3498, 216.4719
238.8319, 216.3977
239.3140, 215.7569
239.7962, 215.1280
240.2783, 215.1516
240.7604, 216.2176
241.2425, 217.2085
241.7246, 217.9268
242.2067, 218.3743
242.6889, 218.5527
243.1710, 218.0931
243.6531, 217.7168
244.1352, 218.2256
244.6173, 220.2442
245.0994, 221.9468
245.5816, 222.9398
246.0637, 223.2106
246.5458, 223.3976
247.0279, 223.4291
247.5100, 223.4517
247.9921, 223.6821
248.4743, 224.5253
248.9564, 224.7645
249.4385, 224.1070
249.9206, 222.5696
250.4027, 220.8138
250.8848, 218.5088
251.3670, 216.3587
251.8491, 215.1267
252.3312, 215.4827
252.8133, 215.2630
253.2954, 213.9093
253.7775, 211.5178
254.2597, 209.7246
254.7418, 208.7610
255.2239, 208.0938
255.7060, 207.3265
256.1881, 206.4522
256.6702, 205.4611
257.1523, 204.2760
257.6345, 202.9378
258.1166, 201.7879
258.5987, 200.8194
259.0808, 200.0670
259.5629, 199.6062
260.0450, 199.5882
260.5272, 199.4704
261.0093, 199.1648
261.4914, 198.7073
261.9735, 198.2723
262.4556, 197.8135
262.9377, 197.4669
263.4199, 197.4035
263.9020, 197.8118
264.3841, 197.8703
264.8662, 197.3643
265.3483, 196.4842
265.8304, 195.9816
266.3126, 196.0389
266.7947, 196.0991
267.2768, 195.6963
267.7589, 194.5313
268.2410, 194.1017
268.7231, 194.7221
269.2053, 196.0285
269.6874, 196.9973
270.1695, 197.6177
270.6516, 197.9543
271.1337, 197.9455
271.6158, 197.4751
272.0980, 197.2713
272.5801, 197.4441
273.0622, 197.8185
273.5443, 197.9723
274.0264, 197.8445
274.5085, 197.6980
274.9907, 197.6473
275.4728, 197.6919
275.9549, 197.8390
276.4370, 198.1489
276.9191, 198.4787
277.4012, 198.4833
277.8834, 198.0772
278.3655, 197.8364
278.8476, 198.1431
279.3297, 199.0335
279.8118, 199.5251
280.2939, 199.5264
280.7761, 199.3265
281.2582, 199.3522
281.7403, 199.6244
282.2224, 199.9175
282.7045, 200.1235
283.1866, 200.2572
283.6688, 200.5024
284.1509, 200.8698
284.6330, 201.3081
285.1151, 201.8299
285.5972, 202.4315
286.0793, 202.8422
286.5615, 202.8310
287.0436, 202.5378
287.5257, 202.7632
288.0078, 203.6086
288.4899, 204.4065
288.9720, 204.3324
289.4542, 203.4733
289.9363, 202.7272
290.4184, 202.3082
290.9005, 202.2041
291.3826, 202.3958
291.8647, 202.8915
292.3469, 203.6002
292.8290, 204.5611
293.3111, 205.7038
293.7932, 206.7791
294.2753, 207.8284
294.7574, 208.6773
295.2396, 208.7325
295.7217, 208.0438
296.2038, 207.5088
296.6859, 207.8928
297.1680, 208.9736
297.6501, 210.2097
298.1323, 211.6105
298.6144, 212.9393
299.0965, 213.8027
299.5786, 214.2646
300.0607, 214.6823
300.5428, 215.3518
301.0250, 216.1307
301.5071, 216.7392
301.9892, 217.0933
302.4713, 217.4045
302.9534, 217.9042
303.4355, 218.5576
303.9177, 219.2769
304.3998, 220.0551
304.8819, 220.8390
305.3640, 221.4687
305.8461, 221.8866
306.3282, 222.4518
306.8104, 223.8158
307.2925, 225.5730
307.7746, 226.8488
308.2567, 226.8129
308.7388, 226.3666
309.2209, 226.3875
309.7031, 226.9420
310.1852, 227.4722
310.6673, 227.2462
311.1494, 226.8344
311.6315, 227.0438
312.1136, 229.2102
312.5958, 231.3183
313.0779, 231.6466
313.5600, 230.3380
314.0421, 229.4005
314.5242, 230.3452
315.0063, 232.0302
315.4885, 233.3198
315.9706, 233.6833
316.4527, 233.7822
316.9348, 233.8813
317.4169, 233.9661
317.8990, 233.9762
318.3812, 233.8922
318.8633, 233.7258
319.3454, 233.5166
319.8275, 233.5076
320.3096, 233.1021
320.7917, 231.7955
321.2739, 229.9404
321.7560, 228.4164
322.2381, 227.9537
322.7202, 227.5011
323.2023, 226.5406
323.6844, 224.8252
324.1666, 223.0542
324.6487, 221.0732
325.1308, 219.1691
325.6129, 217.8056
326.0950, 217.8755
326.5771, 217.7141
327.0593, 216.6469
327.5414, 214.2859
328.0235, 212.5194
328.5056, 212.1265
328.9877, 212.0937
329.4698, 211.3682
329.9520, 208.8938
330.4341, 206.9626
330.9162, 206.1465
331.3983, 206.4920
331.8804, 206.5131
332.3625, 206.1161
332.8447, 205.4833
333.3268, 204.7229
333.8089, 203.7051
334.2910, 202.7978
334.7731, 202.0374
335.2552, 201.4135
335.7374, 200.8675
336.2195, 200.3304
336.7016, 199.9723
337.1837, 199.9935
337.6658, 200.6625
338.1479, 200.7315
338.6301, 199.8567
339.1122, 198.5510
339.5943, 198.0796
340.0764, 198.6774
340.5585, 199.3381
341.0406, 199.6001
341.5227, 199.4420
342.0049, 199.2351
342.4870, 198.9501
342.9691, 198.6723
343.4512, 198.5895
343.9333, 198.7236
344.4154, 198.7137
344.8976, 198.3743
345.3797, 197.7839
345.8618, 197.3515
346.3439, 197.0901
346.8260, 196.8846
347.3081, 196.5766
347.7903, 196.1984
348.2724, 195.9438
348.7545, 195.8295
349.2366, 195.8993
349.7187, 196.4051
350.2008, 197.3137
350.6830, 198.0543
351.1651, 198.0835
351.6472, 197.6418
352.1293, 197.2611
352.6114, 197.0136
353.0935, 196.8994
353.5757, 196.9192
354.0578, 197.0738
354.5399, 197.3631
355.0220, 197.9665
355.5041, 198.6273
355.9862, 198.9689
356.4684, 198.9145
356.9505, 198.8490
357.4326, 199.0938
357.9147, 199.5212
358.3968, 199.9242
358.8789, 200.4403
359.3611, 200.7364
359.8432, 200.2569
360.3253, 199.0569
360.8074, 198.4305
361.2895, 199.6236
361.7716, 201.4190
362.2538, 202.6963
362.7359, 202.8342
363.2180, 202.7536
363.7001, 202.6444
364.1822, 202.5545
364.6643, 202.6556
365.1465, 203.1131
365.6286, 203.6960
366.1107, 204.2828
366.5928, 204.8274
367.0749, 205.4449
367.5570, 206.4604
368.0392, 207.5185
368.5213, 208.0053
369.0034, 206.9703
369.4855, 206.1994
369.9676, 206.2476
370.4497, 207.2768
370.9319, 208.2638
371.4140, 209.3692
371.8961, 210.3199
372.3782, 210.8131
372.8603, 210.5377
373.3424, 210.3295
373.8246, 210.3232
374.3067, 210.4970
374.7888, 210.7223
375.2709, 211.1707
375.7530, 211.3947
376.2351, 211.0110
376.7173, 209.8174
377.1994, 208.8851
377.6815, 208.2837
378.1636, 207.9833
378.6457, 208.0007
379.1278, 208.4060
379.6100, 208.7645
380.0921, 208.8275
380.5742, 208.6112
381.0563, 208.5302
381.5384, 208.5895
382.0205, 208.7576
382.5027, 208.8934
382.9848, 209.0361
383.4669, 209.5943
383.9490, 211.0017
384.4311, 212.7558
384.9132, 213.6129
385.3954, 213.5954
385.8775, 213.4025
386.3596, 213.5781
386.8417, 213.9910
387.3238, 214.3542
387.8059, 214.5613
388.2881, 214.7914
388.7702, 215.2449
389.2523, 215.8852
389.7344, 216.5993
390.2165, 217.3570
390.6986, 218.1484
391.1808, 219.0243
391.6629, 220.0290
392.1450, 220.8680
392.6271, 220.9888
393.1092, 220.9253
393.5913, 221.3783
394.0735, 223.2143
394.5556, 225.0778
395.0377, 226.2635
395.5198, 226.8281
396.0019, 227.4892
396.4840, 228.4621
396.9662, 229.6279
397.4483, 230.9077
397.9304, 232.2623
398.4125, 233.7663
398.8946, 235.3713
399.3767, 237.1283
399.8589, 239.1647
400.3410, 242.0386
400.8231, 244.6643
401.3052, 246.6063
401.7873, 247.5502
402.2694, 249.0424
402.7516, 251.4859
403.2337, 254.1744
403.7158, 256.2940
404.1979, 257.5694
404.6800, 258.8830
405.1621, 260.4751
405.6443, 262.2809
406.1264, 263.6409
406.6085, 264.3231
407.0906, 265.2003
407.5727, 267.0410
408.0548, 269.9501
408.5370, 272.5275
409.0191, 274.5689
409.5012, 276.2859
409.9833, 277.9765
410.4654, 279.6391
410.9475, 281.2961
411.4297, 282.8690
411.9118, 284.4260
412.3939, 286.3615
412.8760, 288.6885
413.3581, 290.7838
413.8402, 292.1709
414.3224, 292.8429
414.8045, 292.7833
415.2866, 291.8130
415.7687, 290.3243
416.2508, 288.8547
416.7329, 287.2992
417.2151, 285.1787
417.6972, 281.9937
418.1793, 278.2114
418.6614, 274.1223
419.1435, 269.7066
419.6256, 265.4308
420.1078, 261.6522
420.5899, 258.1936
421.0720, 254.6529
421.5541, 250.5755
422.0362, 246.7394
422.5183, 243.5660
423.0005, 241.0770
423.4826, 238.4116
423.9647, 234.8976
424.4468, 231.4441
424.9289, 228.7121
425.4110, 227.0795
425.8932, 225.7513
426.3753, 224.8408
426.8574, 224.2101
427.3395, 223.5270
427.8216, 222.7856
428.3037, 222.0014
428.7859, 221.2139
429.2680, 220.4593
429.7501, 219.3540
430.2322, 217.6302
430.7143, 215.9361
431.1964, 215.1481
431.6786, 215.5075
432.1607, 215.4719
432.6428, 214.5969
433.1249, 213.2128
433.6070, 212.4715
434.0891, 212.4369
434.5713, 212.3627
435.0534, 211.5247
435.5355, 210.1727
436.0176, 209.5028
436.4997, 209.6710
436.9818, 210.2834
437.4640, 211.2738
437.9461, 212.3900
438.4282, 212.8106
438.9103, 211.6699
439.3924, 209.9946
439.8745, 209.0394
440.3566, 208.7503
440.8387, 208.6229
441.3209, 208.4278
441.8030, 208.1764
442.2851, 207.8288
442.7672, 207.2240
443.2493, 206.8649
443.7314, 207.1965
444.2136, 207.9378
444.6957, 208.5730
445.1778, 209.0005
445.6599, 209.2370
446.1420, 209.1506
446.6241, 208.6847
447.1063, 208.5633
447.5884, 209.1996
448.0705, 210.0332
448.5526, 210.6444
449.0347, 210.9683
449.5168, 211.1527
449.9990, 211.1174
450.4811, 210.9593
450.9632, 210.9795
451.4453, 211.3138
451.9274, 211.5630
452.4095, 211.4729
452.8917, 210.9830
453.3738, 211.0263
453.8559, 211.7589
454.3380, 212.6575
454.8201, 213.1291
455.3022, 213.1672
455.7844, 213.2101
456.2665, 213.3591
456.7486, 213.5647
457.2307, 213.6583
457.7128, 213.6580
458.1949, 213.8141
458.6771, 214.3429
459.1592, 215.1275
459.6413, 215.9775
460.1234, 216.8952
460.6055, 217.7160
461.0876, 218.2974
461.5698, 218.6873
462.0519, 218.9649
462.5340, 218.8545
463.0161, 218.9289
463.4982, 219.8704
463.9803, 221.4359
464.4625, 222.5295
464.9446, 222.5335
465.4267, 222.0668
465.9088, 221.4117
466.3909, 220.4130
466.8730, 219.7582
467.3552, 219.8228
467.8373, 220.2208
468.3194, 220.4568
468.8015, 219.8834
469.2836, 219.8957
469.7657, 220.8910
470.2479, 222.7630
470.7300, 224.3840
471.2121, 225.5776
471.6942, 226.7882
472.1763, 228.4038
472.6584, 230.6232
473.1406, 232.0602
473.6227, 232.4723
474.1048, 232.4394
474.5869, 232.6893
475.0690, 233.2204
475.5511, 234.2771
476.0333, 236.1748
476.5154, 238.5254
476.9975, 240.4556
477.4796, 241.9688
477.9617, 243.0842
478.4438, 243.4437
478.9260, 243.4961
479.4081, 244.2161
479.8902, 245.9225
480.3723, 247.5029
480.8544, 247.9397
481.3365, 247.6041
481.8187, 247.1382
482.3008, 246.8723
482.7829, 246.4895
483.2650, 245.8530
483.7471, 244.9512
484.2292, 243.7661
484.7114, 242.3163
485.1935, 240.5520
485.6756, 238.3572
486.1577, 235.1217
486.6398, 232.6565
487.1219, 231.6680
487.6041, 231.3236
488.0862, 230.5869
488.5683, 229.2199
489.0504, 227.8316
489.5325, 226.5264
490.0146, 225.2984
490.4968, 224.0873
490.9789, 222.7736
491.4610, 221.8122
491.9431, 221.7661
492.4252, 222.6646
492.9073, 222.7420
493.3895, 221.7796
493.8716, 220.3728
494.3537, 219.2134
494.8358, 218.2934
495.3179, 217.4886
495.8000, 216.7123
496.2822, 216.0812
496.7643, 215.8520
497.2464, 215.9711
497.7285, 216.1403
498.2106, 216.3110
498.6927, 216.3585
499.1749, 216.0992
499.6570, 215.4507
500.1391, 214.7952
500.6212, 214.1357
501.1033, 213.6543
501.5854, 213.5599
502.0676, 214.3971
502.5497, 215.1093
503.0318, 215.4184
503.5139, 215.3618
503.9960, 215.1858
504.4781, 215.0043
504.9603, 214.6103
505.4424, 213.8007
505.9245, 212.2961
506.4066, 211.5914
506.8887, 212.0524
507.3708, 212.8562
507.8530, 213.1240
508.3351, 212.7686
508.8172, 212.3480
509.2993, 211.9299
509.7814, 211.5354
510.2635, 211.2344
510.7457, 211.0217
511.2278, 210.8065
511.7099, 210.3494
512.1920, 209.8765
512.6741, 210.1414
513.1563, 211.1801
513.6384, 212.0281
514.1205, 211.3403
514.6026, 210.0918
515.0847, 209.8433
515.5668, 211.7006
516.0490, 213.3381
516.5311, 212.8561
517.0132, 211.1434
517.4953, 209.9942
517.9774, 210.6882
518.4595, 211.4658
518.9417, 211.5272
519.4238, 210.7942
519.9059, 210.3069
520.3880, 210.4291
520.8701, 210.6302
521.3522, 210.6140
521.8344, 210.2099
522.3165, 209.9061
522.7986, 209.5957
523.2807, 209.4806
523.7628, 209.9879
524.2449, 211.2491
524.7271, 212.4650
525.2092, 213.4993
525.6913, 214.2833
526.1734, 214.4304
526.6555, 213.9274
527.1376, 213.4895
527.6198, 213.8292
528.1019, 214.5887
528.5840, 214.9410
529.0661, 214.7899
529.5482, 214.3765
530.0303, 213.6022
530.5125, 212.7801
530.9946, 212.3973
531.4767, 212.9607
531.9588, 213.6150
532.4409, 213.8170
532.9230, 213.7333
533.4052, 213.8593
533.8873, 214.6275
534.3694, 215.3906
534.8515, 215.9019
535.3336, 216.1461
535.8157, 216.1297
536.2979, 215.4736
536.7800, 214.8990
537.2621, 215.0255
537.7442, 216.3571
538.2263, 216.9926
538.7084, 216.5401
539.1906, 215.6140
539.6727, 215.5523
540.1548, 216.4462
540.6369, 217.0464
541.1190, 216.6565
541.6011, 215.7426
542.0833, 215.8244
542.5654, 216.8615
543.0475, 218.0063
543.5296, 218.9282
544.0117, 219.4594
544.4938, 219.1586
544.9760, 217.8376
545.4581, 216.5317
545.9402, 215.8216
546.4223, 215.6347
546.9044, 215.8787
547.3865, 217.3310
547.8687, 218.3485
548.3508, 217.8720
548.8329, 216.4574
549.3150, 215.8877
549.7971, 217.3003
550.2792, 218.7400
550.7614, 219.5829
551.2435, 219.7629
551.7256, 220.0698
552.2077, 220.5558
552.6898, 221.1000
553.1719, 221.6993
553.6541, 222.4176
554.1362, 222.6405
554.6183, 222.1910
555.1004, 221.5001
555.5825, 221.2367
556.0646, 221.3576
556.5468, 221.6392
557.0289, 222.1349
557.5110, 222.6240
557.9931, 222.7852
558.4752, 222.6363
558.9573, 222.2843
559.4395, 221.2739
559.9216, 220.4177
560.4037, 220.7605
560.8858, 222.6306
561.3679, 223.6908
561.8500, 222.1808
562.3322, 219.8724
562.8143, 218.2837
563.2964, 218.2218
563.7785, 218.2240
564.2606, 218.1694
564.7427, 218.1300
565.2249, 218.3062
565.7070, 218.9630
566.1891, 219.2428
566.6712, 218.7654
567.1533, 217.6865
567.6354, 216.9626
568.1176, 216.6051
568.5997, 216.5237
569.0818, 216.7289
569.5639, 217.1672
570.0460, 217.7172
570.5281, 218.3963
571.0103, 218.8906
571.4924, 218.7063
571.9745, 218.1512
572.4566, 217.7859
572.9387, 217.9612
573.4208, 218.0770
573.9030, 217.4464
574.3851, 216.4785
574.8672, 216.0647
575.3493, 217.1779
575.8314, 218.2365
576.3135, 218.6069
576.7957, 218.2615
577.2778, 217.9521
577.7599, 217.6393
578.2420, 217.4307
578.7241, 217.4276
579.2062, 217.7307
579.6884, 217.7971
580.1705, 217.5433
580.6526, 217.2212
581.1347, 217.1870
581.6168, 217.4270
582.0989, 217.5041
582.5811, 217.2739
583.0632, 216.9384
583.5453, 216.8013
584.0274, 216.8310
584.5095, 216.9141
584.9916, 216.9308
585.4738, 217.0161
585.9559, 217.4155
586.4380, 218.0703
586.9201, 218.5199
587.4022, 218.2542
587.8843, 217.9279
588.3664, 218.0085
588.8485, 218.7280
589.3306, 219.2912
589.8127, 219.6610
590.2949, 219.7976
590.7770, 219.5891
591.2591, 218.6699
591.7412, 218.2915
592.2233, 218.7694
592.7054, 219.6895
593.1876, 220.1194
593.6697, 220.0215
594.1518, 219.9246
594.6339, 219.9508
595.1160, 220.1566
595.5981, 220.9185
596.0803, 222.1527
596.5624, 223.0473
597.0445, 222.5803
597.5266, 221.6874
598.0087, 221.6229
598.4908, 222.5453
598.9730, 223.4957
599.4551, 224.0426
599.9372, 224.3200
600.4193, 224.4380
600.9014, 224.3010
601.3835, 224.1791
601.8657, 224.0555
602.3478, 223.9869
602.8299, 224.0957
603.3120, 224.6168
603.7941, 224.8239
604.2762, 224.3646
604.7584, 223.5271
605.2405, 223.6290
605.7226, 224.8236
606.2047, 225.8701
606.6868, 225.9356
607.1689, 225.3371
607.6511, 225.1358
608.1332, 225.3386
608.6153, 225.7451
609.0974, 225.8445
609.5795, 226.1891
610.0616, 227.9560
610.5438, 232.0430
611.0259, 234.9287
611.5080, 233.3701
611.9901, 230.0105
612.4722, 227.9714
612.9543, 229.1522
613.4365, 230.3463
613.9186, 230.8950
614.4007, 231.1164
614.8828, 231.7772
615.3649, 233.0820
615.8470, 234.4083
616.3292, 235.6913
616.8113, 236.8607
617.2934, 237.3120
617.7755, 236.9530
618.2576, 236.6699
618.7397, 237.0918
619.2219, 238.0476
619.7040, 239.1310
620.1861, 240.3188
620.6682, 241.5167
621.1503, 242.8681
621.6324, 244.0870
622.1146, 244.8310
622.5967, 244.9139
623.0788, 244.7395
623.5609, 243.9985
624.0430, 243.2510
624.5251, 243.2964
625.0073, 244.8896
625.4894, 246.5788
625.9715, 248.3341
626.4536, 250.0269
626.9357, 251.1995
627.4178, 251.6621
627.9000, 252.1029
628.3821, 252.8129
628.8642, 253.7324
629.3463, 254.4514
629.8284, 254.9597
630.3105, 255.4049
630.7927, 255.8762
631.2748, 256.3593
631.7569, 256.8873
632.2390, 257.4797
632.7211, 257.8850
633.2032, 257.7228
633.6854, 257.3633
634.1675, 257.2569
634.6496, 257.9437
635.1317, 258.1307
635.6138, 256.9542
636.0959, 255.2295
636.5781, 254.2700
637.0602, 254.7190
637.5423, 254.8979
638.0244, 254.4144
638.5065, 253.5384
638.9886, 253.3030
639.4708, 253.9010
639.9529, 253.8462
640.4350, 252.1035
640.9171, 249.2868
641.3992, 247.5169
641.8813, 246.7261
642.3635, 245.9599
642.8456, 244.5126
643.3277, 242.7374
643.8098, 240.8807
644.2919, 238.9403
644.7740, 237.5266
645.2562, 237.4938
645.7383, 237.8426
646.2204, 237.7378
646.7025, 236.6812
647.1846, 235.7930
647.6667, 235.1840
648.1489, 234.7382
648.6310, 234.2832
649.1131, 233.7732
649.5952, 233.4584
650.0773, 233.4412
650.5594, 233.5687
651.0416, 233.4025
651.5237, 232.9804
652.0058, 232.8450
652.4879, 233.6624
652.9700, 234.5996
653.4521, 234.0902
653.9343, 232.4488
654.4164, 231.1865
654.8985, 231.5416
655.3806, 232.2838
655.8627, 232.3789
656.3448, 231.6680
656.8270, 231.7650
657.3091, 234.1602
657.7912, 236.5497
658.2733, 237.5460
658.7554, 236.5938
659.2375, 235.9657
659.7197, 235.7504
660.2018, 235.7014
660.6839, 235.5631
661.1660, 235.3353
661.6481, 235.1201
662.1302, 234.9201
662.6124, 234.7692
663.0945, 234.6457
663.5766, 234.6073
664.0587, 234.8218
664.5408, 235.6405
665.0229, 236.3863
665.5051, 236.5036
665.9872, 236.1894
666.4693, 235.9289
666.9514, 236.1126
667.4335, 236.1318
667.9156, 235.5190
668.3978, 234.4316
668.8799, 234.1461
669.3620, 235.0905
669.8441, 236.0224
670.3262, 236.3871
670.8083, 236.2066
671.2905, 235.7429
671.7726, 234.9303
672.2547, 234.4652
672.7368, 235.3648
673.2189, 236.9507
673.7010, 237.7379
674.1832, 237.4939
674.6653, 237.1318
675.1474, 237.3161
675.6295, 237.7356
676.1116, 238.0313
676.5938, 237.8997
677.0759, 238.0311
677.5580, 238.8953
678.0401, 239.9636
678.5222, 240.5522
679.0043, 240.4597
679.4865, 240.2887
679.9686, 240.0629
680.4507, 239.8581
680.9328, 239.8647
681.4149, 240.0840
681.8970, 240.3186
682.3792, 240.5963
682.8613, 240.7608
683.3434, 240.4548
683.8255, 239.7751
684.3076, 239.0756
684.7897, 238.4921
685.2719, 238.0194
685.7540, 237.6012
686.2361, 237.2555
686.7182, 237.2126
687.2003, 237.9882
687.6824, 238.6666
688.1646, 238.7410
688.6467, 238.0620
689.1288, 237.8871
689.6109, 238.4416
690.0930, 239.0101
690.5751, 238.8213
691.0573, 237.9692
691.5394, 237.9269
692.0215, 238.8797
692.5036, 239.9955
692.9857, 240.3610
693.4678, 240.2884
693.9500, 240.2784
694.4321, 240.3821
694.9142, 240.7404
695.3963, 241.7159
695.8784, 242.8905
696.3605, 243.7235
696.8427, 243.7092
697.3248, 243.8521
697.8069, 244.3154
698.2890, 244.9731
698.7711, 245.5381
699.2532, 245.9388
699.7354, 246.5950
700.2175, 247.7465
700.6996, 249.1087
701.1817, 249.8407
701.6638, 250.0508
702.1459, 250.4689
702.6281, 251.7150
703.1102, 253.2045
703.5923, 254.3346
704.0744, 255.1516
704.5565, 255.9092
705.0386, 256.7836
705.5208, 257.5657
706.0029, 257.9285
706.4850, 257.7722
706.9671, 258.5658
707.4492, 260.8899
707.9313, 263.3055
708.4135, 265.1221
708.8956, 266.3372
709.3777, 266.8067
709.8598, 266.4150
710.3419, 266.0209
710.8240, 266.3498
711.3062, 267.2812
711.7883, 268.7220
712.2704, 270.7676
712.7525, 272.4864
713.2346, 273.0024
713.7167, 272.9044
714.1989, 272.7518
714.6810, 272.4496
715.1631, 272.5252
715.6452, 273.2470
716.1273, 274.3083
716.6094, 275.3116
717.0916, 275.8793
717.5737, 277.5413
718.0558, 280.7081
718.5379, 284.7205
719.0200, 288.5932
719.5021, 292.3057
719.9843, 295.8624
720.4664, 299.2430
720.9485, 302.4303
721.4306, 305.2839
721.9127, 307.9104
722.3948, 310.4478
722.8770, 313.1989
723.3591, 315.6600
723.8412, 318.0230
724.3233, 320.0005
724.8054, 320.4794
725.2875, 320.6451
725.7697, 317.3908
726.2518, 308.9651
726.7339, 296.4607
727.2160, 284.3643
727.6981, 272.6473
728.1802, 262.5223
728.6624, 254.4977
729.1445, 248.5067
729.6266, 244.7005
730.1087, 242.9555
730.5908, 242.0050
731.0729, 241.4806
731.5551, 241.1519
732.0372, 240.9216
732.5193, 240.7975
733.0014, 240.5105
733.4835, 239.8984
733.9656, 239.2077
734.4478, 238.5295
734.9299, 237.8384
735.4120, 237.2854
735.8941, 236.8371
736.3762, 236.6421
736.8583, 237.0714
737.3405, 237.8915
737.8226, 238.1628
738.3047, 237.7745
738.7868, 237.1512
739.2689, 236.1800
739.7510, 235.3942
740.2332, 235.5685
740.7153, 237.4339
741.1974, 238.7117
741.6795, 238.0595
742.1616, 236.9096
742.6437, 236.7257
743.1259, 238.1711
743.6080, 238.8338
744.0901, 238.3376
744.5722, 237.4435
745.0543, 237.1892
745.5364, 237.5300
746.0186, 238.1635
746.5007, 239.2371
746.9828, 239.9965
747.4649, 239.0586
747.9470, 237.3176
748.4291, 236.3263
748.9113, 237.5284
749.3934, 238.4726
749.8755, 237.8547
750.3576, 236.5041
750.8397, 236.0900
751.3218, 237.4082
751.8040, 238.1606
752.2861, 237.7306
752.7682, 236.6890
753.2503, 236.5481
753.7324, 237.2686
754.2145, 237.6441
754.6967, 237.0328
755.1788, 236.0961
755.6609, 235.6175
756.1430, 235.5848
756.6251, 235.9766
757.1072, 237.4780
757.5894, 238.7071
758.0715, 238.9219
758.5536, 238.2898
759.0357, 237.6479
759.5178, 236.9258
759.9999, 236.4040
760.4821, 236.2025
760.9642, 236.2637
761.4463, 236.2879
761.9284, 236.2666
762.4105, 236.4221
762.8926, 237.1287
763.3748, 237.9561
763.8569, 238.0673
764.3390, 237.5818
764.8211, 237.1272
765.3032, 237.0549
765.7853, 237.0950
766.2675, 237.0131
766.7496, 236.8141
767.2317, 237.0564
767.7138, 238.0992
768.1959, 239.0997
768.6780, 239.7124
769.1602, 239.9600
769.6423, 240.0268
770.1244, 239.9029
770.6065, 239.7518
771.0886, 239.7334
771.5707, 239.7406
772.0529, 239.4120
772.5350, 238.7878
773.0171, 238.5739
773.4992, 239.7254
773.9813, 240.9889
774.4634, 241.5571
774.9456, 241.2877
775.4277, 240.6937
775.9098, 239.3710
776.3919, 238.3318
776.8740, 238.2857
777.3561, 239.2557
777.8383, 239.6950
778.3204, 239.5697
778.8025, 239.3355
779.2846, 239.3952
779.7667, 239.5971
780.2488, 239.6116
780.7310, 239.4114
781.2131, 239.3933
781.6952, 239.9500
782.1773, 240.6426
782.6594, 241.1597
783.1415, 241.4114
783.6237, 241.6894
784.1058, 242.1106
784.5879, 242.3728
785.0699, 242.1295
785.5521, 241.3786
786.0342, 241.0452
786.5163, 241.1779
786.9984, 241.4591
787.4805, 241.7261
787.9626, 241.9044
788.4448, 241.8070
788.9269, 241.3651
789.4090, 241.1066
789.8911, 241.6370
790.3732, 242.2135
790.8553, 242.1763
791.3375, 241.1119
791.8196, 240.6171
792.3017, 240.7743
792.7838, 241.3328
793.2659, 242.3604
793.7480, 243.7518
794.2302, 244.1721
794.7123, 243.4363
795.1944, 242.6598
795.6765, 242.9427
796.1586, 243.7335
796.6407, 244.3840
797.1229, 244.7912
797.6050, 245.0151
798.0871, 244.9421
798.5692, 244.7937
799.0513, 244.7118
799.5334, 244.6177
800.0156, 244.9214
800.4977, 245.7700
800.9798, 246.6600
801.4619, 246.9580
801.9440, 246.8380
802.4261, 247.3037
802.9083, 248.5218
803.3904, 249.3955
803.8725, 248.4533
804.3546, 246.9755
804.8367, 246.3632
805.3188, 247.0933
805.8010, 247.7866
806.2831, 248.1115
806.7652, 248.3135
807.2473, 248.5692
807.7294, 248.9399
808.2115, 249.0163
808.6937, 248.7117
809.1758, 248.4594
809.6579, 248.7446
810.1400, 249.4038
810.6221, 250.1397
811.1042, 250.9557
811.5864, 251.3740
812.0685, 250.6224
812.5506, 249.6226
813.0327, 249.1543
813.5148, 249.4650
813.9969, 249.9077
814.4791, 250.6203
814.9612, 251.2302
815.4433, 251.3675
815.9254, 251.0045
816.4075, 251.0472
816.8896, 251.5480
817.3718, 252.1503
817.8539, 252.6880
818.3360, 253.0501
818.8181, 252.9568
819.3002, 252.3444
819.7823, 251.8909
820.2645, 252.1375
820.7466, 252.4858
821.2287, 252.4181
821.7108, 251.7292
822.1929, 251.7581
822.6750, 252.8373
823.1572, 253.8285
823.6393, 253.6893
824.1214, 252.6762
824.6035, 252.1475
825.0856, 252.1489
825.5677, 252.3793
826.0499, 253.0817
826.5320, 253.5802
827.0141, 252.9209
827.4962, 250.9144
827.9783, 249.6890
828.4604, 250.7714
828.9426, 251.7694
829.4247, 251.4444
829.9068, 249.7514
830.3889, 248.9372
830.8710, 249.0546
831.3531, 249.6559
831.8353, 250.8549
832.3174, 252.1826
832.7995, 252.4509
833.2816, 251.7594
833.7637, 251.3106
834.2458, 252.1997
834.7280, 253.1607
835.2101, 253.4304
835.6922, 252.9329
836.1743, 252.5294
836.6564, 252.3164
837.1385, 251.9779
837.6207, 251.2226
838.1028, 250.2460
838.5849, 250.1156
839.0670, 250.7659
839.5491, 251.3484
840.0313, 251.3636
840.5134, 251.0569
840.9955, 250.5263
841.4776, 249.8446
841.9597, 249.2951
842.4418, 248.7145
842.9240, 248.6013
843.4061, 249.4005
843.8882, 250.7613
844.3703, 251.0500
844.8524, 250.1302
845.3345, 249.1540
845.8167, 248.4265
846.2988, 248.0399
846.7809, 248.3548
847.2630, 249.1727
847.7451, 249.9012
848.2272, 250.2432
848.7094, 250.4613
849.1915, 250.5756
849.6736, 250.6657
850.1557, 250.9750
850.6378, 251.7989
851.1199, 252.1540
851.6021, 251.7074
852.0842, 250.8770
852.5663, 250.4315
853.0484, 250.3586
853.5305, 250.6286
854.0126, 251.3423
854.4948, 252.1677
854.9769, 253.1793
855.4590, 253.9864
855.9411, 254.0019
856.4232, 251.8838
856.9053, 250.5666
857.3875, 250.3874
857.8696, 250.9717
858.3517, 252.1199
858.8338, 253.8985
859.3159, 254.6577
859.7980, 253.9929
860.2802, 253.0192
860.7623, 253.0352
861.2444, 253.5842
861.7265, 253.9957
862.2086, 254.1748
862.6907, 254.0433
863.1729, 253.1942
863.6550, 252.2863
864.1371, 251.8741
864.6192, 252.0697
865.1013, 252.3711
865.5834, 252.8116
866.0656, 253.2402
866.5477, 253.5201
867.0298, 253.6782
867.5119, 253.6983
867.9940, 253.5762
868.4761, 253.7141
868.9583, 254.9610
869.4404, 256.0984
869.9225, 256.0774
870.4046, 254.5667
870.8867, 253.6950
871.3688, 253.5632
871.8510, 253.9119
872.3331, 254.7875
872.8152, 256.0449
873.2973, 257.0553
873.7794, 257.7897
874.2615, 257.9449
874.7437, 256.6077
875.2258, 255.1967
875.7079, 254.9964
876.1900, 255.8468
876.6721, 256.6595
877.1542, 257.2018
877.6364, 257.6627
878.1185, 258.0591
878.6006, 258.4121
879.0827, 258.7434
879.5648, 259.0511
880.0469, 259.5309
880.5291, 260.4037
881.0112, 261.2722
881.4933, 261.2455
881.9754, 260.8793
882.4575, 261.3206
882.9396, 264.0981
883.4218, 266.3449
883.9039, 267.0724
884.3860, 267.0997
884.8681, 267.5869
885.3502, 268.6485
885.8323, 269.4767
886.3145, 269.9683
886.7966, 270.1703
887.2787, 270.0160
887.7608, 269.6463
888.2429, 269.3286
888.7250, 269.1497
889.2072, 268.9226
889.6893, 268.7607
890.1714, 268.3684
890.6535, 267.4762
891.1356, 265.9377
891.6177, 264.4125
892.0999, 262.8549
892.5820, 261.4329
893.0641, 260.2971
893.5462, 259.4147
894.0283, 258.9049
894.5104, 258.7381
894.9926, 258.1794
895.4747, 256.3158
895.9568, 254.3226
896.4389, 252.8508
896.9210, 251.9671
897.4031, 251.4789
897.8853, 251.4823
898.3674, 251.6655
898.8495, 251.9796
899.3316, 252.3367
899.8137, 252.4799
900.2958, 252.4273
900.7780, 252.2697
901.2601, 251.8150
901.7422, 251.5082
902.2243, 251.7879
902.7064, 252.4246
903.1885, 252.8167
903.6707, 252.8005
904.1528, 252.7398
904.6349, 252.6237
905.1170, 252.5670
905.5991, 252.8132
906.0812, 253.3137
906.5634, 253.8783
907.0455, 254.5462
907.5276, 254.9811
908.0097, 254.5486
908.4918, 253.9019
908.9739, 253.8109
909.4561, 254.7905
909.9382, 255.5296
910.4203, 255.8244
910.9024, 256.1387
911.3845, 257.0687
911.8666, 258.4955
912.3488, 258.9617
912.8309, 258.4086
913.3130, 257.8645
913.7951, 258.2212
914.2772, 258.8662
914.7593, 259.1405
915.2415, 259.0167
915.7236, 259.3470
916.2057, 260.4465
916.6878, 261.7515
917.1699, 263.2273
917.6520, 264.7080
918.1342, 265.2897
918.6163, 265.0402
919.0984, 264.8316
919.5805, 264.8826
920.0626, 265.3665
920.5447, 266.7968
921.0269, 268.7403
921.5090, 270.3141
921.9911, 270.9546
922.4732, 271.6398
922.9553, 272.5293
923.4374, 273.4571
923.9196, 274.0669
924.4017, 274.4017
924.8838, 275.1806
925.3659, 276.6129
925.8480, 278.0009
926.3301, 278.5078
926.8123, 278.6864
927.2944, 279.2829
927.7765, 280.7277
928.2586, 281.3238
928.7407, 280.2676
929.2228, 279.2140
929.7050, 279.1588
930.1871, 280.0571
930.6692, 281.3842
931.1513, 283.1269
931.6334, 284.4484
932.1155, 284.6645
932.5977, 284.2969
933.0798, 283.6099
933.5619, 282.7169
934.0440, 282.0412
934.5261, 281.7608
935.0082, 281.6017
935.4904, 281.5524
935.9725, 281.5546
936.4546, 281.3882
936.9367, 281.0924
937.4188, 281.0176
937.9009, 281.2075
938.3831, 281.7963
938.8652, 283.2427
939.3473, 285.0447
939.8294, 286.5220
940.3115, 287.6025
940.7936, 288.2456
941.2758, 288.4308
941.7579, 288.2397
942.2400, 287.8345
942.7221, 287.1671
943.2042, 285.5978
943.6863, 283.1136
944.1685, 280.5055
944.6506, 278.0372
945.1327, 275.9485
945.6148, 274.5625
946.0969, 273.8801
946.5790, 273.2545
947.0612, 272.4219
947.5433, 272.0426
948.0254, 272.5416
948.5075, 273.5051
948.9896, 273.3973
949.4717, 272.5116
949.9539, 272.3963
950.4360, 274.3761
950.9181, 276.3339
951.4002, 276.5412
951.8823, 275.9091
952.3644, 275.8807
952.8466, 276.8352
953.3287, 277.9008
953.8108, 279.1523
954.2929, 280.2771
954.7750, 280.7866
955.2571, 280.8748
955.7393, 281.1066
956.2214, 281.5393
956.7035, 282.1666
957.1856, 283.5137
957.6677, 284.6192
958.1498, 284.5876
958.6320, 283.4034
959.1141, 282.8586
959.5962, 283.2440
960.0783, 283.1926
960.5604, 281.6508
961.0425, 279.6630
961.5247, 279.8333
962.0068, 281.5321
962.4889, 282.8644
962.9710, 282.7225
963.4531, 282.3479
963.9352, 282.0982
964.4174, 281.9273
964.8995, 281.8344
965.3816, 281.9432
965.8637, 281.5118
966.3458, 280.4275
966.8279, 279.0337
967.3101, 277.4316
967.7922, 275.8979
968.2743, 274.9564
968.7564, 274.6866
969.2385, 274.5651
969.7206, 274.7846
970.2028, 274.6903
970.6849, 273.8617
971.1670, 272.4152
971.6491, 271.2647
972.1312, 270.4135
972.6133, 269.9540
973.0955, 270.2103
973.5776, 270.5800
974.0597, 270.3540
974.5418, 269.7093
975.0239, 269.0031
975.5060, 268.1100
975.9882, 267.5066
976.4703, 267.3589
976.9524, 267.3799
977.4345, 267.2143
977.9166, 266.8882
978.3987, 266.6303
978.8809, 266.4773
979.3630, 266.2918
979.8451, 265.9594
980.3272, 265.5547
980.8093, 265.0077
981.2914, 264.2921
981.7736, 264.2751
982.2557, 265.3034
982.7377, 266.3078
983.2198, 266.9814
983.7020, 267.2268
984.1841, 266.4289
984.6662, 264.9114
985.1483, 263.8238
985.6304, 263.7686
986.1125, 264.0840
986.5947, 264.8040
987.0768, 265.5336
987.5589, 265.6344
988.0410, 264.7248
988.5231, 264.6797
989.0052, 265.7639
989.4874, 266.9632
989.9695, 267.3055
990.4516, 267.0596
990.9337, 266.5261
991.4158, 265.7569
991.8979, 265.2145
992.3801, 265.3318
992.8622, 265.4447
993.3443, 265.1685
993.8264, 264.7014
994.3085, 265.1439
994.7906, 266.4746
995.2728, 267.2249
995.7549, 266.6004
996.2370, 265.6788
996.7191, 265.5469
997.2012, 265.8759
997.6833, 266.2011
998.1655, 266.3925
998.6476, 266.6304
999.1297, 267.0231
999.6118, 267.2770
1000.094, 266.9017
1000.576, 266.1212
1001.058, 266.1451
1001.540, 266.9553
1002.022, 267.8392
1002.505, 268.5446
1002.987, 268.9791
1003.469, 268.9459
1003.951, 268.5577
1004.433, 268.2424
1004.915, 267.9047
1005.397, 268.0781
1005.879, 269.0249
1006.361, 270.2239
1006.844, 271.2793
1007.326, 271.9236
1007.808, 271.5049
1008.290, 269.4000
1008.772, 267.8388
1009.254, 267.8288
1009.736, 268.3573
1010.218, 268.9829
1010.701, 269.6993
1011.183, 269.9997
1011.665, 269.8939
1012.147, 269.6567
1012.629, 269.2236
1013.111, 268.9366
1013.593, 269.3362
1014.075, 270.1342
1014.557, 270.4778
1015.040, 269.8668
1015.522, 269.5981
1016.004, 269.9830
1016.486, 270.4432
1016.968, 269.8843
1017.450, 268.7600
1017.932, 268.6772
1018.414, 269.9500
1018.896, 270.9083
1019.379, 270.2314
1019.861, 269.2761
1020.343, 268.8467
1020.825, 268.9103
1021.307, 269.1189
1021.789, 269.5090
1022.271, 269.6654
1022.753, 269.2665
1023.236, 268.7742
1023.718, 268.7446
1024.200, 269.0762
1024.682, 269.6103
1025.164, 271.0350
1025.646, 271.3564
1026.128, 269.7076
1026.610, 268.0532
1027.093, 268.3447
1027.575, 270.2778
1028.057, 272.0802
1028.539, 273.6460
1029.021, 274.7100
1029.503, 274.3165
1029.985, 274.0850
1030.467, 275.3360
1030.949, 277.6274
1031.432, 279.1383
1031.914, 279.7039
1032.396, 280.1027
1032.878, 280.3978
1033.360, 280.8573
1033.842, 281.6293
1034.324, 282.8897
1034.806, 285.0616
1035.288, 288.4359
1035.771, 291.7159
1036.253, 294.3616
1036.735, 297.1743
1037.217, 300.5301
1037.699, 304.4113
1038.181, 308.6027
1038.663, 313.1021
1039.145, 317.5643
1039.628, 321.3747
1040.110, 325.6704
1040.592, 331.5848
1041.074, 338.3391
1041.556, 344.6508
1042.038, 349.9977
1042.520, 356.1917
1043.002, 363.3485
1043.484, 371.0847
1043.967, 379.2734
1044.449, 387.7228
1044.931, 396.4037
1045.413, 405.2856
1045.895, 414.4590
1046.377, 424.8318
1046.859, 434.5380
1047.341, 443.0262
1047.823, 450.5645
1048.306, 458.1601
1048.788, 465.5619
1049.270, 471.0882
1049.752, 474.3043
1050.234, 475.6524
1050.716, 474.9576
1051.198, 472.8479
1051.680, 469.6617
1052.163, 465.4316
1052.645, 461.0923
1053.127, 456.6652
1053.609, 451.7903
1054.091, 445.2381
1054.573, 439.0177
1055.055, 435.8556
1055.537, 435.7074
1056.020, 438.3859
1056.502, 444.3685
1056.984, 452.6410
1057.466, 462.9941
1057.948, 475.3807
1058.430, 490.5450
1058.912, 507.9276
1059.394, 523.7520
1059.876, 537.7908
1060.359, 552.6004
1060.841, 567.5426
1061.323, 585.9883
1061.805, 609.5687
1062.287, 638.3539
1062.769, 672.2516
1063.251, 710.8443
1063.733, 755.4586
1064.215, 806.6094
1064.698, 863.5164
1065.180, 932.0590
1065.662, 1003.121
1066.144, 1065.175
1066.626, 1114.088
1067.108, 1161.461
1067.590, 1214.945
1068.072, 1256.936
1068.555, 1289.121
1069.037, 1297.280
1069.519, 1227.240
1070.001, 1094.546
1070.483, 950.6783
1070.965, 800.2028
1071.447, 668.0648
1071.929, 565.4362
1072.411, 486.1645
1072.894, 425.0756
1073.376, 383.3141
1073.858, 351.4789
1074.340, 329.9767
1074.822, 314.8769
1075.304, 306.3917
1075.786, 300.9064
1076.268, 295.8192
1076.750, 291.2734
1077.233, 288.2949
1077.715, 287.4364
1078.197, 286.5699
1078.679, 285.4503
1079.161, 284.1012
1079.643, 282.1791
1080.125, 280.2189
1080.607, 279.3777
1081.090, 279.8144
1081.572, 279.7298
1082.054, 277.5075
1082.536, 275.9684
1083.018, 276.2244
1083.500, 277.5972
1083.982, 278.4482
1084.464, 278.7466
1084.946, 278.2269
1085.429, 276.4867
1085.911, 274.9722
1086.393, 274.3840
1086.875, 274.5411
1087.357, 275.5277
1087.839, 277.4402
1088.321, 277.7809
1088.803, 276.4651
1089.286, 275.0966
1089.768, 274.4423
1090.250, 274.2602
1090.732, 274.5896
1091.214, 275.1396
1091.696, 275.3330
1092.178, 274.6369
1092.660, 274.5711
1093.142, 275.3612
1093.625, 276.2226
1094.107, 276.4890
1094.589, 276.2939
1095.071, 275.6771
1095.553, 274.7676
1096.035, 274.2457
1096.517, 274.9214
1096.999, 275.2985
1097.481, 274.8732
1097.964, 274.1665
1098.446, 273.9960
1098.928, 274.3083
1099.410, 274.9360
1099.892, 275.8710
1100.374, 276.6491
1100.856, 276.8641
1101.338, 276.9303
1101.821, 277.1232
1102.303, 277.3964
1102.785, 277.4620
1103.267, 277.3143
1103.749, 277.1686
1104.231, 277.0870
1104.713, 277.0492
1105.195, 276.7044
1105.677, 276.5815
1106.160, 277.4601
1106.642, 279.7926
1107.124, 281.3124
1107.606, 281.9618
1108.088, 281.9690
1108.570, 280.9717
1109.052, 279.8728
1109.534, 280.6012
1110.016, 282.3407
1110.499, 283.3729
1110.981, 282.0783
1111.463, 281.8602
1111.945, 283.3876
1112.427, 285.2167
1112.909, 286.3095
1113.391, 286.7168
1113.873, 286.4282
1114.356, 285.5694
1114.838, 284.8547
1115.320, 285.0481
1115.802, 284.8971
1116.284, 283.6615
1116.766, 282.1377
1117.248, 281.4192
1117.730, 281.4657
1118.213, 281.7445
1118.695, 282.2052
1119.177, 282.3027
1119.659, 280.9909
1120.141, 279.7726
1120.623, 279.9766
1121.105, 281.1239
1121.587, 281.3939
1122.069, 280.6761
1122.552, 280.2606
1123.034, 280.5272
1123.516, 280.6381
1123.998, 279.1223
1124.480, 277.3860
1124.962, 277.2361
1125.444, 279.0634
1125.926, 279.2687
1126.408, 277.2553
1126.891, 275.6558
1127.373, 275.5247
1127.855, 276.0919
1128.337, 276.4403
1128.819, 276.5223
1129.301, 276.1669
1129.783, 275.0472
1130.265, 274.4935
1130.748, 274.9426
1131.230, 275.2737
1131.712, 274.7031
1132.194, 273.6443
1132.676, 273.2484
1133.158, 273.3828
1133.640, 273.6481
1134.122, 274.2331
1134.604, 274.3778
1135.087, 273.5663
1135.569, 272.6728
1136.051, 272.3755
1136.533, 272.6350
1137.015, 273.3078
1137.497, 274.3098
1137.979, 275.0736
1138.461, 275.1079
1138.943, 275.0494
1139.426, 275.2465
1139.908, 275.4698
1140.390, 275.3569
1140.872, 274.9081
1141.354, 274.7212
1141.836, 274.8402
1142.318, 274.9986
1142.800, 274.9802
1143.283, 274.9487
1143.765, 275.0075
1144.247, 275.1516
1144.729, 275.3827
1145.211, 275.7421
1145.693, 275.8817
1146.175, 275.7388
1146.657, 275.4471
1147.140, 274.8419
1147.622, 274.3670
1148.104, 274.5895
1148.586, 275.4900
1149.068, 276.0958
1149.550, 276.2697
1150.032, 276.7049
1150.514, 277.7372
1150.996, 278.5888
1151.479, 277.9984
1151.961, 276.7109
1152.443, 275.5253
1152.925, 274.4926
1153.407, 274.4165
1153.889, 275.7912
1154.371, 276.8406
1154.853, 276.8425
1155.335, 276.2422
1155.818, 275.5860
1156.300, 275.0117
1156.782, 274.8334
1157.264, 275.3269
1157.746, 275.5254
1158.228, 275.1139
1158.710, 274.8197
1159.192, 275.1822
1159.675, 275.8216
1160.157, 275.5739
1160.639, 274.7755
1161.121, 274.3443
1161.603, 274.8103
1162.085, 275.2710
1162.567, 275.5455
1163.049, 275.7609
1163.531, 276.0817
1164.014, 276.4221
1164.496, 276.2262
1164.978, 275.6351
1165.460, 275.2495
1165.942, 275.7036
1166.424, 275.9528
1166.906, 275.6477
1167.388, 275.0620
1167.870, 274.2294
1168.353, 273.2487
1168.835, 273.1724
1169.317, 273.9325
1169.799, 274.6765
1170.281, 274.7427
1170.763, 274.9035
1171.245, 275.7537
1171.727, 276.7082
1172.210, 276.9420
1172.692, 276.4976
1173.174, 276.2808
1173.656, 276.3561
1174.138, 276.6662
1174.620, 277.4855
1175.102, 278.2094
1175.584, 278.4229
1176.067, 278.3321
1176.549, 278.2543
1177.031, 278.1912
1177.513, 278.3076
1177.995, 278.6328
1178.477, 278.9390
1178.959, 278.8016
1179.441, 278.8087
1179.923, 279.6588
1180.406, 280.9604
1180.888, 281.4292
1181.370, 281.0121
1181.852, 280.7795
1182.334, 280.9311
1182.816, 281.2005
1183.298, 281.3345
1183.780, 281.4953
1184.262, 282.0070
1184.745, 282.7075
1185.227, 282.5976
1185.709, 281.5921
1186.191, 280.7183
1186.673, 280.1760
1187.155, 280.0775
1187.637, 281.1430
1188.119, 282.2699
1188.602, 282.1751
1189.084, 280.8974
1189.566, 280.0871
1190.048, 279.7488
1190.530, 279.9830
1191.012, 281.0937
1191.494, 282.0226
1191.976, 281.1812
1192.458, 279.8095
1192.941, 279.3712
1193.423, 280.0564
1193.905, 280.2603
1194.387, 279.9390
1194.869, 279.4081
1195.351, 278.6992
1195.833, 278.0364
1196.315, 277.5775
1196.797, 277.3700
1197.280, 277.6143
1197.762, 278.4737
1198.244, 278.4834
1198.726, 277.4873
1199.208, 276.7069
1199.690, 276.7773
1200.172, 277.2722
1200.654, 278.0323
1201.137, 278.7549
1201.619, 278.9503
1202.101, 278.4205
1202.583, 278.0160
1203.065, 277.7155
1203.547, 277.7022
1204.029, 278.2371
1204.511, 278.9146
1204.994, 279.4669
1205.476, 279.7662
1205.958, 279.4753
1206.440, 278.1338
1206.922, 277.8373
1207.404, 278.7154
1207.886, 279.6774
1208.368, 279.9175
1208.850, 279.9659
1209.333, 280.5343
1209.815, 281.3086
1210.297, 281.6722
1210.779, 281.4853
1211.261, 281.2018
1211.743, 280.8006
1212.225, 280.4573
1212.707, 280.2066
1213.189, 280.1516
1213.672, 280.6861
1214.154, 281.4264
1214.636, 281.5026
1215.118, 280.4874
1215.600, 280.2181
1216.082, 280.8224
1216.564, 281.5096
1217.046, 281.5097
1217.529, 281.4332
1218.011, 282.0959
1218.493, 283.1034
1218.975, 283.4706
1219.457, 282.8854
1219.939, 282.7702
1220.421, 283.2171
1220.903, 283.8993
1221.385, 284.8104
1221.868, 285.5905
1222.350, 285.9156
1222.832, 285.8414
1223.314, 285.5360
1223.796, 284.9423
1224.278, 284.3924
1224.760, 283.8820
1225.242, 283.7136
1225.724, 284.5616
1226.207, 285.4498
1226.689, 285.4003
1227.171, 284.7839
1227.653, 284.6194
1228.135, 284.9861
1228.617, 285.4131
1229.099, 285.8835
1229.581, 286.0948
1230.064, 285.4966
1230.546, 284.8460
1231.028, 284.7502
1231.510, 285.0298
1231.992, 285.2304
1232.474, 285.3445
1232.956, 285.4181
1233.438, 285.4540
1233.921, 285.3580
1234.403, 284.6881
1234.885, 284.2242
1235.367, 285.0279
1235.849, 286.2133
1236.331, 285.8053
1236.813, 283.7965
1237.295, 283.0690
1237.777, 283.8906
1238.260, 284.5887
1238.742, 283.7308
1239.224, 282.6583
1239.706, 281.8603
1240.188, 281.5272
1240.670, 282.2176
1241.152, 283.8205
1241.634, 285.1904
1242.116, 286.2056
1242.599, 286.7529
1243.081, 286.4922
1243.563, 286.0306
1244.045, 285.4741
1244.527, 285.0117
1245.009, 285.0435
1245.491, 285.4681
1245.973, 285.7578
1246.456, 285.8538
1246.938, 285.8333
1247.420, 285.8605
1247.902, 285.5629
1248.384, 284.5580
1248.866, 283.5357
1249.348, 283.8872
1249.830, 285.1218
1250.313, 285.4664
1250.795, 284.8214
1251.277, 284.1743
1251.759, 283.8693
1252.241, 283.7530
1252.723, 283.8351
1253.205, 284.0034
1253.687, 284.0148
1254.169, 284.0121
1254.651, 284.5415
1255.134, 285.5333
1255.616, 285.8488
1256.098, 284.4196
1256.580, 283.4915
1257.062, 283.5005
1257.544, 283.9767
1258.026, 284.4650
1258.508, 284.9274
1258.991, 285.3049
1259.473, 285.5928
1259.955, 285.8023
1260.437, 285.9165
1260.919, 286.0319
1261.401, 286.1879
1261.883, 286.2464
1262.365, 286.1092
1262.848, 285.7530
1263.330, 284.9271
1263.812, 283.8009
1264.294, 283.3748
1264.776, 283.9284
1265.258, 284.0568
1265.740, 283.5059
1266.222, 282.9639
1266.704, 283.1194
1267.187, 283.5591
1267.669, 284.0368
1268.151, 284.4776
1268.633, 284.6476
1269.115, 284.4984
1269.597, 284.7138
1270.079, 285.3921
1270.561, 286.0688
1271.043, 286.2946
1271.526, 286.4860
1272.008, 287.1028
1272.490, 287.7849
1272.972, 287.7875
1273.454, 287.1693
1273.936, 286.7052
1274.418, 286.4732
1274.900, 286.4457
1275.383, 287.0291
1275.865, 287.2744
1276.347, 286.6329
1276.829, 285.6949
1277.311, 285.2215
1277.793, 285.1917
1278.275, 285.6708
1278.757, 286.5879
1279.239, 287.2665
1279.722, 287.1269
1280.204, 287.1324
1280.686, 287.6028
1281.168, 288.0376
1281.650, 287.4699
1282.132, 286.5640
1282.614, 287.0572
1283.096, 288.6920
1283.578, 289.5775
1284.061, 288.4986
1284.543, 288.1637
1285.025, 289.0486
1285.507, 289.9481
1285.989, 289.4359
1286.471, 288.4126
1286.953, 287.9359
1287.435, 287.9809
1287.917, 288.3327
1288.400, 289.0703
1288.882, 289.6789
1289.364, 290.1262
1289.846, 290.4377
1290.328, 290.4439
1290.810, 290.5066
1291.292, 291.0019
1291.774, 291.7435
1292.257, 292.3824
##END=



