##NAMES=Isokite
##RRUFFID=R070526
##IDEAL CHEMISTRY=CaMgP^5+^O_4_F
##LOCALITY=Kjorrestad, near Bamle, Norway
##OWNER=RRUFF
##SOURCE=University of Arizona Mineral Museum
##DESCRIPTION=Colorless crystals, associated with wagnerite, R050519.
##STATUS=The identification of this mineral is confirmed by single-crystal X-ray diffraction and chemical analysis.
##URL=rruff.info/R070526
##MEASURED CHEMISTRY=Ca_1.00_Mg_1.00_(P_1.00_O_4_)(F_0.80_(OH)_0.20_)_Σ=1_ ; = light phase. The gray phase is wagnerite: Mg_2.00_(P_1.00_O_4_)(F_0.80_(OH)_0.20_)_Σ=1_ 
153.0481, 315.6232
153.5302, 305.1180
154.0123, 295.9215
154.4944, 289.6664
154.9765, 289.8874
155.4586, 302.0491
155.9408, 317.0282
156.4229, 331.1993
156.9050, 347.4841
157.3871, 355.2357
157.8692, 348.5360
158.3513, 331.8801
158.8335, 322.3792
159.3156, 333.6407
159.7977, 347.7324
160.2798, 352.8636
160.7619, 334.8082
161.2440, 318.9193
161.7262, 314.8232
162.2083, 321.6911
162.6904, 327.7063
163.1725, 326.6979
163.6546, 323.2884
164.1367, 322.0146
164.6189, 327.2471
165.1010, 332.6509
165.5831, 334.3802
166.0652, 331.8864
166.5473, 329.7011
167.0294, 331.8008
167.5116, 335.5376
167.9937, 336.9855
168.4758, 331.4070
168.9579, 324.7430
169.4400, 321.7805
169.9221, 323.7793
170.4043, 326.6678
170.8864, 329.2082
171.3685, 330.6254
171.8506, 329.0738
172.3327, 316.6725
172.8148, 303.5871
173.2970, 302.6385
173.7791, 321.3222
174.2612, 342.2733
174.7433, 347.5884
175.2254, 340.2344
175.7076, 332.3589
176.1897, 333.8016
176.6718, 339.4722
177.1539, 341.0349
177.6360, 334.1287
178.1181, 324.7462
178.6003, 319.6220
179.0824, 318.6089
179.5645, 320.1414
180.0466, 325.7042
180.5287, 333.0471
181.0108, 336.5075
181.4930, 332.1495
181.9751, 323.8355
182.4572, 317.5872
182.9393, 313.2809
183.4214, 311.9333
183.9035, 318.2615
184.3857, 329.5710
184.8678, 335.6376
185.3499, 326.0385
185.8320, 308.0132
186.3141, 303.6305
186.7962, 314.7777
187.2784, 330.0884
187.7605, 335.5624
188.2426, 332.0727
188.7247, 326.5710
189.2068, 321.8169
189.6889, 317.7247
190.1711, 313.2401
190.6532, 307.6804
191.1353, 303.3796
191.6174, 305.9117
192.0995, 315.1561
192.5816, 323.4628
193.0638, 325.9023
193.5459, 323.0150
194.0280, 319.5297
194.5101, 315.4031
194.9922, 311.4436
195.4743, 309.1157
195.9565, 308.4077
196.4386, 309.5390
196.9207, 314.5408
197.4028, 323.3532
197.8849, 327.0989
198.3671, 323.0326
198.8492, 314.1449
199.3313, 309.9247
199.8134, 310.9605
200.2955, 314.0223
200.7776, 316.8857
201.2598, 319.5404
201.7419, 321.9904
202.2240, 323.8818
202.7061, 325.5573
203.1882, 329.7537
203.6703, 337.6671
204.1525, 344.8312
204.6346, 346.6906
205.1167, 342.4663
205.5988, 337.4334
206.0809, 332.0275
206.5630, 326.4536
207.0452, 324.5373
207.5273, 327.9609
208.0094, 331.8546
208.4915, 329.6371
208.9736, 319.2027
209.4557, 311.5087
209.9379, 310.5147
210.4200, 316.4678
210.9021, 319.7567
211.3842, 319.7151
211.8663, 317.9301
212.3484, 316.0733
212.8306, 313.4539
213.3127, 312.9634
213.7948, 317.0041
214.2769, 327.0937
214.7590, 330.1554
215.2411, 323.0818
215.7233, 311.9079
216.2054, 307.1002
216.6875, 310.6051
217.1696, 315.6975
217.6517, 320.5648
218.1338, 325.9807
218.6160, 327.6895
219.0981, 323.8230
219.5802, 317.4453
220.0623, 315.1744
220.5444, 318.5969
221.0265, 322.9400
221.5087, 325.8287
221.9908, 325.4698
222.4729, 329.5317
222.9550, 342.2225
223.4371, 357.8514
223.9192, 359.9919
224.4014, 340.2209
224.8835, 321.4406
225.3656, 315.9869
225.8477, 331.0001
226.3298, 341.2013
226.8119, 344.8446
227.2941, 343.3470
227.7762, 341.5147
228.2583, 339.5985
228.7404, 337.0041
229.2225, 333.0346
229.7046, 326.0311
230.1868, 321.6434
230.6689, 321.2682
231.1510, 323.8457
231.6331, 324.5144
232.1152, 321.3614
232.5974, 318.8583
233.0795, 319.8785
233.5616, 326.2489
234.0437, 332.4055
234.5258, 339.0804
235.0079, 345.5824
235.4901, 346.9675
235.9722, 340.1598
236.4543, 332.1472
236.9364, 327.8318
237.4185, 329.6145
237.9006, 330.0849
238.3828, 327.9032
238.8649, 323.4782
239.3470, 320.2653
239.8291, 318.2374
240.3112, 317.4661
240.7933, 318.4500
241.2755, 323.3399
241.7576, 325.4257
242.2397, 322.1935
242.7218, 314.2171
243.2039, 311.3255
243.6860, 316.3111
244.1682, 323.2665
244.6503, 327.1834
245.1324, 326.1641
245.6145, 326.0499
246.0966, 327.9036
246.5787, 331.6645
247.0609, 335.4540
247.5430, 339.9693
248.0251, 343.7514
248.5072, 345.3016
248.9893, 343.2413
249.4714, 341.8030
249.9536, 342.1131
250.4357, 344.1421
250.9178, 344.3656
251.3999, 341.5990
251.8820, 338.3545
252.3641, 337.3099
252.8463, 340.3559
253.3284, 341.4735
253.8105, 338.5659
254.2926, 331.6369
254.7747, 327.9998
255.2568, 328.5713
255.7390, 331.3844
256.2211, 335.0109
256.7032, 340.5880
257.1853, 344.2904
257.6674, 345.0413
258.1495, 342.8386
258.6317, 340.4839
259.1138, 338.4073
259.5959, 335.6636
260.0780, 330.6200
260.5601, 320.9215
261.0422, 314.5972
261.5244, 313.3335
262.0065, 317.1246
262.4886, 324.8767
262.9707, 339.3326
263.4528, 354.0893
263.9349, 362.1853
264.4171, 361.4242
264.8992, 359.8938
265.3813, 358.4970
265.8634, 357.2981
266.3455, 360.7698
266.8276, 371.8257
267.3098, 383.0276
267.7919, 385.7121
268.2740, 376.9863
268.7561, 369.4596
269.2382, 366.6787
269.7203, 368.3554
270.2025, 367.8581
270.6846, 363.4282
271.1667, 360.0461
271.6488, 365.0773
272.1309, 381.8248
272.6130, 392.4168
273.0952, 390.7147
273.5773, 377.8829
274.0594, 369.0663
274.5415, 364.9632
275.0236, 363.2578
275.5057, 361.8589
275.9879, 360.7973
276.4700, 360.0559
276.9521, 360.5968
277.4342, 361.7924
277.9163, 357.2029
278.3984, 345.0736
278.8806, 332.4036
279.3627, 326.1133
279.8448, 326.4688
280.3269, 330.1984
280.8090, 338.7208
281.2911, 350.0977
281.7733, 352.6768
282.2554, 344.6676
282.7375, 335.0891
283.2196, 333.8728
283.7017, 341.1134
284.1838, 346.7839
284.6660, 348.5241
285.1481, 346.8272
285.6302, 342.1512
286.1123, 333.7766
286.5944, 327.1372
287.0765, 330.4016
287.5587, 342.5110
288.0408, 347.7947
288.5229, 339.1525
289.0050, 322.8044
289.4871, 317.5210
289.9692, 323.8127
290.4514, 332.3212
290.9335, 334.0730
291.4156, 330.3401
291.8977, 328.9140
292.3798, 332.4190
292.8619, 338.5699
293.3441, 343.0876
293.8262, 346.0066
294.3083, 346.5115
294.7904, 343.4304
295.2726, 337.3122
295.7547, 328.9951
296.2368, 315.5513
296.7189, 303.7511
297.2010, 309.5977
297.6831, 331.3955
298.1653, 351.4276
298.6474, 354.6968
299.1295, 346.3740
299.6116, 337.8890
300.0937, 330.7012
300.5758, 325.8244
301.0580, 326.9455
301.5401, 332.8420
302.0222, 336.7823
302.5043, 330.4759
302.9864, 319.9402
303.4685, 315.5685
303.9507, 320.7354
304.4328, 329.5862
304.9149, 338.0135
305.3970, 345.4520
305.8791, 349.9871
306.3612, 349.7140
306.8434, 346.0918
307.3255, 339.8794
307.8076, 329.4995
308.2897, 321.0179
308.7718, 320.5982
309.2539, 326.3386
309.7361, 333.1284
310.2182, 340.1721
310.7003, 346.0103
311.1824, 349.4279
311.6645, 350.4019
312.1466, 348.4329
312.6288, 340.5887
313.1109, 329.6101
313.5930, 320.8900
314.0751, 316.1526
314.5572, 314.8656
315.0393, 317.7111
315.5215, 325.8942
316.0036, 333.0744
316.4857, 336.8611
316.9678, 337.7137
317.4499, 336.4749
317.9320, 329.2922
318.4142, 323.4423
318.8963, 323.2330
319.3784, 329.8811
319.8605, 336.2233
320.3426, 340.1816
320.8247, 342.4835
321.3069, 343.9571
321.7890, 344.7305
322.2711, 344.7955
322.7532, 344.0211
323.2353, 342.3466
323.7174, 340.4008
324.1996, 337.6424
324.6817, 334.9406
325.1638, 333.1300
325.6459, 331.8624
326.1280, 331.9337
326.6101, 334.3572
327.0923, 339.2302
327.5744, 342.4127
328.0565, 341.4836
328.5386, 340.1690
329.0207, 341.1251
329.5028, 348.0577
329.9850, 352.6104
330.4671, 353.5594
330.9492, 351.2299
331.4313, 348.2610
331.9134, 342.7816
332.3955, 338.4770
332.8777, 338.0023
333.3598, 345.0986
333.8419, 348.7182
334.3240, 346.5240
334.8061, 340.3494
335.2882, 337.4415
335.7704, 339.7405
336.2525, 342.1253
336.7346, 341.0247
337.2167, 333.8226
337.6988, 332.3682
338.1809, 339.0865
338.6631, 350.3720
339.1452, 358.2253
339.6273, 362.7463
340.1094, 363.7271
340.5915, 359.1983
341.0736, 347.9680
341.5558, 343.2314
342.0379, 346.7853
342.5200, 353.6362
343.0021, 355.9675
343.4842, 353.5113
343.9663, 349.8333
344.4485, 345.5597
344.9306, 340.9570
345.4127, 338.9195
345.8948, 339.6870
346.3769, 341.8306
346.8590, 344.2685
347.3412, 346.8806
347.8233, 348.4318
348.3054, 348.2459
348.7875, 346.7775
349.2696, 344.3964
349.7517, 341.0539
350.2339, 339.0816
350.7160, 342.4737
351.1981, 349.1106
351.6802, 353.1832
352.1623, 351.4590
352.6444, 347.7086
353.1266, 346.4893
353.6087, 347.7245
354.0908, 351.1427
354.5729, 360.1388
355.0550, 370.1906
355.5371, 374.4161
356.0193, 369.3347
356.5014, 361.4361
356.9835, 354.5387
357.4656, 349.1175
357.9477, 346.7823
358.4298, 351.4475
358.9120, 357.8772
359.3941, 361.4601
359.8762, 360.6708
360.3583, 359.3285
360.8404, 360.6005
361.3225, 362.6318
361.8047, 362.0597
362.2868, 351.8189
362.7689, 343.2257
363.2510, 343.8382
363.7331, 356.6167
364.2152, 366.0997
364.6974, 364.8842
365.1795, 358.7913
365.6616, 354.5462
366.1437, 354.4444
366.6258, 355.3631
367.1079, 356.8533
367.5901, 358.9484
368.0722, 360.5715
368.5543, 360.1958
369.0364, 360.1433
369.5185, 362.2494
370.0006, 370.2577
370.4828, 375.7045
370.9649, 377.5516
371.4470, 376.0807
371.9291, 372.9175
372.4112, 364.9730
372.8933, 358.8143
373.3755, 358.8632
373.8576, 368.7287
374.3397, 375.8601
374.8218, 378.8062
375.3039, 379.0474
375.7861, 381.0145
376.2682, 386.5163
376.7503, 388.8432
377.2324, 382.5083
377.7145, 365.7220
378.1967, 357.9140
378.6788, 361.2372
379.1609, 369.5996
379.6430, 375.1784
380.1251, 377.9826
380.6072, 377.2490
381.0894, 371.2907
381.5715, 361.3655
382.0536, 352.5232
382.5357, 344.3649
383.0178, 339.7372
383.4999, 343.4019
383.9821, 353.7153
384.4642, 363.2672
384.9463, 370.4435
385.4284, 375.3565
385.9105, 378.5493
386.3926, 379.9455
386.8748, 379.1446
387.3569, 374.3943
387.8390, 367.5595
388.3211, 361.3346
388.8032, 355.4814
389.2853, 351.8942
389.7675, 353.9933
390.2496, 359.9285
390.7317, 364.6047
391.2138, 364.2544
391.6959, 362.2424
392.1780, 361.1729
392.6602, 361.4971
393.1423, 362.1821
393.6244, 362.6113
394.1065, 363.1174
394.5886, 364.1576
395.0707, 367.4634
395.5529, 369.9019
396.0350, 368.7628
396.5171, 363.7181
396.9992, 362.4410
397.4813, 372.1928
397.9634, 383.2949
398.4456, 388.4940
398.9277, 380.6741
399.4098, 373.8961
399.8919, 368.7881
400.3740, 365.6747
400.8561, 366.7348
401.3383, 377.3413
401.8204, 386.6347
402.3025, 388.9693
402.7846, 378.9437
403.2667, 373.7900
403.7488, 376.8021
404.2310, 382.7987
404.7131, 380.2375
405.1952, 364.5943
405.6773, 352.7291
406.1594, 351.8553
406.6415, 362.3113
407.1237, 371.6476
407.6058, 380.1998
408.0879, 386.5551
408.5700, 387.7865
409.0521, 383.7759
409.5342, 381.1072
410.0164, 381.4330
410.4985, 384.3262
410.9806, 390.2675
411.4627, 399.3615
411.9448, 406.0683
412.4269, 403.5757
412.9091, 395.1505
413.3912, 390.4250
413.8733, 391.3747
414.3554, 395.4185
414.8375, 400.2096
415.3196, 405.6229
415.8018, 411.2155
416.2839, 417.1768
416.7660, 422.9589
417.2481, 428.5023
417.7302, 434.1642
418.2123, 436.9890
418.6945, 430.2622
419.1766, 420.7178
419.6587, 417.5340
420.1408, 428.7814
420.6229, 442.7610
421.1050, 456.9610
421.5872, 470.6391
422.0693, 477.6021
422.5514, 468.6688
423.0335, 456.8927
423.5156, 450.7905
423.9977, 458.4475
424.4799, 463.1481
424.9620, 461.4377
425.4441, 455.3744
425.9262, 450.5128
426.4083, 445.9073
426.8904, 443.6427
427.3726, 445.5476
427.8547, 454.1367
428.3368, 456.6781
428.8189, 450.6305
429.3010, 440.9639
429.7831, 433.8177
430.2653, 430.1463
430.7474, 425.6433
431.2295, 418.0722
431.7116, 408.6677
432.1937, 406.9821
432.6758, 414.8606
433.1580, 422.1033
433.6401, 419.0585
434.1222, 406.7599
434.6043, 396.6955
435.0864, 390.3022
435.5685, 386.9680
436.0507, 386.9342
436.5328, 389.6964
437.0149, 391.9411
437.4970, 390.6771
437.9791, 388.0858
438.4612, 388.9681
438.9434, 393.9317
439.4255, 397.3443
439.9076, 392.1841
440.3897, 382.6095
440.8718, 375.5449
441.3539, 373.6912
441.8361, 374.7649
442.3182, 379.4676
442.8003, 386.7686
443.2824, 391.2106
443.7645, 384.1101
444.2466, 377.3735
444.7288, 380.5112
445.2109, 404.2090
445.6930, 420.1607
446.1751, 416.4044
446.6572, 401.9716
447.1393, 393.2126
447.6215, 396.5740
448.1036, 401.1104
448.5857, 404.1084
449.0678, 405.3014
449.5499, 407.0509
450.0320, 409.6815
450.5142, 412.5238
450.9963, 415.0770
451.4784, 417.4771
451.9605, 419.1738
452.4426, 419.8228
452.9247, 419.8520
453.4069, 420.9585
453.8890, 423.4965
454.3711, 425.3947
454.8532, 424.2288
455.3353, 420.4908
455.8174, 421.5545
456.2996, 428.7512
456.7817, 436.7953
457.2638, 438.6503
457.7459, 435.3654
458.2281, 431.2643
458.7102, 427.0376
459.1923, 423.5370
459.6744, 422.9207
460.1565, 424.8623
460.6386, 426.2492
461.1208, 425.3786
461.6029, 422.6387
462.0850, 418.0680
462.5671, 410.3867
463.0492, 403.7637
463.5313, 401.7634
464.0135, 402.3998
464.4956, 401.6914
464.9777, 395.6475
465.4598, 390.2844
465.9419, 389.2307
466.4240, 393.4475
466.9062, 394.8536
467.3883, 387.6920
467.8704, 379.7598
468.3525, 377.4626
468.8346, 387.1902
469.3167, 393.4102
469.7989, 393.8284
470.2810, 389.8597
470.7631, 386.6995
471.2452, 385.3541
471.7273, 382.8235
472.2094, 376.1224
472.6916, 364.1591
473.1737, 360.3574
473.6558, 366.5253
474.1379, 376.3846
474.6200, 382.9398
475.1021, 386.2163
475.5843, 387.4531
476.0664, 386.4720
476.5485, 384.0923
477.0306, 381.4655
477.5127, 378.7116
477.9948, 377.3816
478.4770, 380.5105
478.9591, 385.2305
479.4412, 386.3146
479.9233, 382.0352
480.4054, 377.8081
480.8875, 378.4364
481.3697, 382.0214
481.8518, 385.3674
482.3339, 389.0320
482.8160, 390.4929
483.2981, 386.7871
483.7802, 378.1811
484.2624, 372.1386
484.7445, 372.8160
485.2266, 375.2768
485.7087, 376.3833
486.1908, 373.1194
486.6729, 372.2750
487.1551, 374.7188
487.6372, 379.5037
488.1193, 385.2564
488.6014, 394.0028
489.0835, 399.9368
489.5656, 400.7533
490.0478, 396.4271
490.5299, 392.4871
491.0120, 388.8523
491.4941, 385.8080
491.9762, 383.2102
492.4583, 381.0848
492.9405, 381.3430
493.4226, 385.0757
493.9047, 389.8877
494.3868, 391.8503
494.8689, 391.1209
495.3510, 388.8632
495.8332, 384.2927
496.3153, 379.1059
496.7974, 376.0827
497.2795, 375.2992
497.7616, 375.2696
498.2437, 373.1239
498.7259, 371.7031
499.2080, 375.0783
499.6901, 391.6277
500.1722, 403.4624
500.6543, 396.5934
501.1364, 378.2146
501.6186, 367.0500
502.1007, 377.0459
502.5828, 387.7811
503.0649, 390.0660
503.5470, 380.0264
504.0291, 374.9662
504.5113, 378.9052
504.9934, 385.1624
505.4755, 388.0379
505.9576, 387.2246
506.4397, 383.1400
506.9218, 373.0354
507.4040, 360.7661
507.8861, 359.9610
508.3682, 372.7139
508.8503, 386.6080
509.3324, 396.5887
509.8145, 402.5640
510.2967, 402.6069
510.7788, 396.0082
511.2609, 388.0236
511.7430, 382.8034
512.2252, 380.5556
512.7073, 382.5762
513.1894, 392.5912
513.6715, 402.2935
514.1536, 400.4043
514.6357, 390.1748
515.1179, 382.2431
515.6000, 384.0516
516.0821, 388.9398
516.5642, 393.2154
517.0463, 396.8496
517.5284, 397.2610
518.0106, 389.5112
518.4927, 380.0825
518.9748, 375.1465
519.4569, 378.2848
519.9390, 382.7528
520.4211, 390.4111
520.9033, 399.0066
521.3854, 400.5445
521.8675, 390.2158
522.3496, 381.0238
522.8317, 378.1589
523.3138, 382.0558
523.7960, 386.4810
524.2781, 391.7790
524.7602, 396.7554
525.2423, 400.4426
525.7244, 402.8403
526.2065, 403.7685
526.6887, 402.9565
527.1708, 401.0447
527.6529, 398.1802
528.1350, 394.8403
528.6171, 393.0641
529.0992, 396.5409
529.5814, 400.7810
530.0635, 399.4339
530.5456, 392.0873
531.0277, 386.6503
531.5098, 390.1732
531.9919, 396.7546
532.4741, 400.8194
532.9562, 398.9179
533.4383, 397.1678
533.9204, 397.1984
534.4025, 398.4256
534.8846, 399.4841
535.3668, 399.5092
535.8489, 400.2483
536.3310, 402.6657
536.8131, 406.8947
537.2952, 409.1576
537.7773, 408.7796
538.2595, 407.6269
538.7416, 407.5036
539.2237, 408.6819
539.7058, 407.6516
540.1879, 403.4800
540.6700, 398.2167
541.1522, 394.0695
541.6343, 391.3168
542.1164, 392.3291
542.5985, 402.3211
543.0806, 414.5259
543.5627, 416.5735
544.0449, 409.5428
544.5270, 403.3199
545.0091, 405.6456
545.4912, 411.3051
545.9733, 415.2678
546.4554, 416.3498
546.9376, 416.5814
547.4197, 416.3791
547.9018, 415.9386
548.3839, 415.5225
548.8660, 415.6942
549.3481, 415.3359
549.8303, 413.9841
550.3124, 411.8288
550.7945, 410.0269
551.2766, 408.7308
551.7587, 407.5892
552.2408, 406.2123
552.7230, 404.3711
553.2051, 404.2510
553.6872, 406.2898
554.1693, 408.8813
554.6514, 410.7627
555.1335, 411.7924
555.6157, 409.9630
556.0978, 402.7538
556.5799, 395.5333
557.0620, 398.5790
557.5441, 409.5284
558.0262, 419.1301
558.5084, 422.9778
558.9905, 422.4869
559.4726, 417.2988
559.9547, 407.3600
560.4368, 399.0200
560.9189, 393.4611
561.4011, 391.8887
561.8832, 395.6501
562.3653, 411.9371
562.8474, 423.7273
563.3295, 427.4519
563.8116, 425.6447
564.2938, 421.6810
564.7759, 413.7766
565.2580, 406.9270
565.7401, 402.0700
566.2222, 399.2699
566.7043, 399.5690
567.1865, 403.8123
567.6686, 407.5844
568.1507, 406.7635
568.6328, 402.3613
569.1149, 401.1866
569.5970, 404.2639
570.0792, 407.8466
570.5613, 405.7939
571.0434, 401.1436
571.5255, 400.7670
572.0076, 410.2677
572.4897, 421.1101
572.9719, 427.6589
573.4540, 430.2735
573.9361, 429.8290
574.4182, 423.3620
574.9003, 416.7798
575.3824, 412.8748
575.8646, 412.0309
576.3467, 412.4067
576.8288, 416.2704
577.3109, 419.3765
577.7930, 418.1026
578.2751, 408.8762
578.7573, 404.4188
579.2394, 406.3902
579.7215, 412.3622
580.2036, 418.9493
580.6857, 426.2929
581.1678, 431.8554
581.6500, 435.2588
582.1321, 436.0544
582.6142, 431.2125
583.0963, 421.3643
583.5784, 412.6994
584.0605, 409.9567
584.5427, 410.5968
585.0248, 412.1006
585.5069, 414.4284
585.9890, 415.6192
586.4711, 412.0648
586.9532, 407.8188
587.4354, 407.1339
587.9175, 416.6245
588.3996, 423.2989
588.8817, 423.4168
589.3638, 419.0570
589.8459, 415.6169
590.3281, 413.5328
590.8102, 411.7012
591.2923, 409.3479
591.7744, 406.6322
592.2565, 407.2240
592.7386, 411.8765
593.2208, 416.9147
593.7029, 420.0299
594.1850, 421.2356
594.6671, 420.0211
595.1492, 415.9088
595.6313, 411.6800
596.1135, 409.9727
596.5956, 410.5218
597.0777, 412.8524
597.5598, 418.1149
598.0419, 423.5251
598.5240, 427.7303
599.0062, 430.6500
599.4883, 432.1669
599.9704, 430.0946
600.4525, 428.5515
600.9346, 429.3230
601.4167, 432.6967
601.8989, 436.8255
602.3810, 442.8457
602.8631, 448.1854
603.3452, 451.6097
603.8273, 453.5987
604.3094, 450.1418
604.7916, 438.1877
605.2737, 426.2556
605.7558, 430.3055
606.2379, 448.2794
606.7200, 458.6738
607.2021, 451.8012
607.6843, 438.2946
608.1664, 435.1852
608.6485, 439.9622
609.1306, 442.8070
609.6127, 435.8856
610.0948, 426.4841
610.5770, 419.9044
611.0591, 416.4171
611.5412, 414.2286
612.0233, 415.8463
612.5054, 416.4069
612.9875, 412.3171
613.4697, 398.2727
613.9518, 388.5326
614.4339, 384.4893
614.9160, 383.5304
615.3981, 382.3372
615.8802, 380.6763
616.3624, 379.6271
616.8445, 378.8904
617.3266, 379.3976
617.8087, 385.5901
618.2908, 396.8699
618.7729, 404.7297
619.2551, 402.6096
619.7372, 395.0693
620.2193, 387.7639
620.7014, 380.9828
621.1835, 376.7332
621.6656, 376.9846
622.1478, 379.9810
622.6299, 384.7556
623.1120, 392.2487
623.5941, 398.3397
624.0762, 402.8610
624.5583, 405.0316
625.0405, 403.7557
625.5226, 396.0937
626.0047, 390.0837
626.4868, 386.2288
626.9689, 384.6820
627.4510, 387.0207
627.9332, 394.2031
628.4153, 398.9050
628.8974, 396.5201
629.3795, 389.9100
629.8616, 387.9782
630.3438, 390.5663
630.8259, 395.0962
631.3080, 401.8651
631.7901, 408.5082
632.2722, 411.7910
632.7543, 411.0877
633.2365, 408.9710
633.7186, 406.4689
634.2007, 403.4160
634.6828, 399.6295
635.1649, 392.4768
635.6470, 388.0322
636.1292, 388.1223
636.6113, 390.7720
637.0934, 392.7732
637.5755, 394.0129
638.0576, 394.8402
638.5397, 395.0853
639.0219, 395.0602
639.5040, 396.5445
639.9861, 399.6266
640.4682, 401.4592
640.9503, 399.1459
641.4324, 394.6455
641.9146, 391.7726
642.3967, 390.6136
642.8788, 391.0378
643.3609, 393.5745
643.8430, 397.3199
644.3251, 401.7361
644.8073, 407.6508
645.2894, 411.6192
645.7715, 413.4865
646.2536, 412.5306
646.7357, 407.3875
647.2178, 391.3678
647.7000, 382.5669
648.1821, 386.2277
648.6642, 396.6566
649.1463, 398.7815
649.6284, 391.2016
650.1105, 384.4799
650.5927, 383.0617
651.0748, 385.1671
651.5569, 385.5900
652.0390, 384.4945
652.5211, 383.7933
653.0032, 385.5548
653.4854, 387.9947
653.9675, 388.8907
654.4496, 387.9360
654.9317, 387.1579
655.4138, 386.7373
655.8959, 387.3965
656.3781, 389.9335
656.8602, 397.7817
657.3423, 401.8733
657.8244, 399.5445
658.3065, 394.9128
658.7886, 393.8421
659.2708, 397.7544
659.7529, 399.7444
660.2350, 391.5188
660.7171, 398.9275
661.1992, 402.9071
661.6813, 403.6418
662.1635, 391.4128
662.6456, 395.9237
663.1277, 393.7261
663.6099, 391.2533
664.0920, 398.1202
664.5741, 387.7769
665.0562, 394.4957
665.5383, 394.4036
666.0204, 397.4287
666.5026, 393.7038
666.9847, 392.0638
667.4668, 397.1759
667.9489, 398.5493
668.4310, 394.0474
668.9131, 397.2707
669.3953, 386.6914
669.8774, 388.2241
670.3595, 394.9825
670.8416, 390.8199
671.3237, 394.1666
671.8058, 394.6534
672.2880, 382.1429
672.7701, 392.2359
673.2522, 392.5536
673.7343, 382.8344
674.2164, 392.1528
674.6985, 383.8173
675.1807, 381.7831
675.6628, 384.4912
676.1449, 382.2556
676.6270, 387.8142
677.1091, 385.8643
677.5912, 383.2433
678.0734, 383.4384
678.5555, 386.6963
679.0376, 384.6088
679.5197, 374.4528
680.0018, 365.4221
680.4839, 365.6373
680.9661, 374.0855
681.4482, 380.2018
681.9303, 383.3431
682.4124, 383.7653
682.8945, 378.4807
683.3766, 371.3326
683.8588, 369.8147
684.3409, 378.6369
684.8230, 387.1154
685.3051, 388.9235
685.7872, 386.5732
686.2693, 384.0003
686.7515, 380.6983
687.2336, 378.9626
687.7157, 380.6669
688.1978, 383.9422
688.6799, 382.5277
689.1620, 374.4175
689.6442, 367.9402
690.1263, 366.0974
690.6084, 368.1842
691.0905, 373.5546
691.5726, 381.8229
692.0547, 386.1777
692.5369, 376.8881
693.0190, 363.6502
693.5011, 360.5751
693.9832, 368.4180
694.4653, 376.1553
694.9474, 377.5915
695.4296, 376.9216
695.9117, 377.3195
696.3938, 380.2127
696.8759, 381.5153
697.3580, 379.5438
697.8401, 377.3441
698.3223, 378.6225
698.8044, 384.9927
699.2865, 386.1779
699.7686, 379.3625
700.2507, 370.8784
700.7328, 372.1693
701.2150, 380.9044
701.6971, 386.5916
702.1792, 383.7885
702.6613, 379.4078
703.1434, 381.3189
703.6255, 386.9780
704.1077, 390.4575
704.5898, 388.7569
705.0719, 385.0488
705.5540, 378.8019
706.0361, 370.8071
706.5182, 366.9480
707.0004, 369.4946
707.4825, 372.5514
707.9646, 373.6925
708.4467, 373.1411
708.9288, 374.2314
709.4109, 377.1501
709.8931, 380.0418
710.3752, 381.0670
710.8573, 381.1373
711.3394, 382.7109
711.8215, 386.0805
712.3036, 388.1909
712.7858, 385.9066
713.2679, 381.8979
713.7500, 378.6221
714.2321, 376.5718
714.7142, 375.1588
715.1964, 373.7108
715.6785, 373.2146
716.1606, 375.1290
716.6427, 381.1821
717.1248, 384.3447
717.6069, 383.4225
718.0891, 380.0500
718.5712, 376.7153
719.0533, 373.3768
719.5354, 369.8107
720.0175, 364.9954
720.4996, 361.3608
720.9818, 362.7485
721.4639, 367.5935
721.9460, 371.9903
722.4281, 374.3006
722.9102, 375.7958
723.3923, 376.2423
723.8745, 376.0666
724.3566, 377.9431
724.8387, 385.1325
725.3208, 389.4600
725.8029, 386.8234
726.2850, 378.1962
726.7672, 374.2726
727.2493, 375.3233
727.7314, 378.2445
728.2135, 381.9923
728.6956, 385.8157
729.1777, 388.2361
729.6599, 389.1375
730.1420, 388.7330
730.6241, 386.1179
731.1062, 382.9197
731.5883, 380.5784
732.0704, 379.5631
732.5526, 378.4915
733.0347, 375.6802
733.5168, 373.8585
733.9989, 375.5721
734.4810, 382.6112
734.9631, 386.7860
735.4453, 387.7426
735.9274, 385.7465
736.4095, 378.0715
736.8916, 366.8057
737.3737, 363.2110
737.8558, 371.9257
738.3380, 382.8808
738.8201, 386.6699
739.3022, 385.7169
739.7843, 384.0234
740.2664, 381.9923
740.7485, 380.5006
741.2307, 380.1851
741.7128, 380.5666
742.1949, 380.2658
742.6770, 377.5121
743.1591, 378.3633
743.6412, 386.2354
744.1234, 397.4318
744.6055, 399.2906
745.0876, 392.2353
745.5697, 385.7334
746.0518, 385.6563
746.5339, 387.8288
747.0161, 385.5121
747.4982, 379.8670
747.9803, 376.0179
748.4624, 377.8757
748.9445, 381.0240
749.4266, 382.7936
749.9088, 383.0348
750.3909, 385.8152
750.8730, 395.1475
751.3551, 401.2106
751.8372, 397.3650
752.3193, 383.7385
752.8015, 377.6186
753.2836, 379.2218
753.7657, 385.0480
754.2478, 396.9070
754.7299, 409.7876
755.2120, 412.6277
755.6942, 404.1113
756.1763, 394.4947
756.6584, 386.4630
757.1405, 382.4906
757.6226, 385.8316
758.1047, 402.8175
758.5869, 412.0285
759.0690, 408.4114
759.5511, 400.9384
760.0332, 397.6491
760.5153, 399.3667
760.9974, 398.9017
761.4796, 395.4536
761.9617, 390.6935
762.4438, 384.9032
762.9259, 379.4940
763.4080, 378.7023
763.8901, 385.2322
764.3723, 392.0767
764.8544, 394.3495
765.3365, 394.0269
765.8186, 393.7481
766.3007, 393.7979
766.7828, 394.4091
767.2650, 396.7162
767.7471, 398.9176
768.2292, 397.4326
768.7113, 391.6151
769.1934, 386.1435
769.6755, 381.5745
770.1577, 378.8000
770.6398, 381.4239
771.1219, 387.5768
771.6040, 390.7863
772.0861, 384.4643
772.5682, 378.3558
773.0504, 379.9533
773.5325, 386.8959
774.0146, 393.0801
774.4967, 398.6707
774.9788, 401.3423
775.4609, 399.8877
775.9431, 395.2601
776.4252, 390.5721
776.9073, 385.6113
777.3894, 381.8959
777.8715, 380.3353
778.3536, 380.2573
778.8358, 379.4731
779.3179, 378.4667
779.8000, 379.7142
780.2821, 388.4736
780.7642, 396.7772
781.2463, 397.7403
781.7285, 392.0739
782.2106, 388.4253
782.6927, 391.3750
783.1748, 393.5484
783.6569, 391.7844
784.1390, 386.4730
784.6212, 384.7199
785.1033, 386.9120
785.5854, 390.3185
786.0675, 394.3575
786.5496, 398.1502
787.0317, 398.7886
787.5139, 396.5342
787.9960, 394.4535
788.4781, 395.1842
788.9602, 396.3471
789.4423, 396.0622
789.9244, 393.9701
790.4066, 392.3583
790.8887, 391.4065
791.3708, 391.1011
791.8529, 391.4930
792.3350, 392.6101
792.8171, 394.2369
793.2993, 396.4564
793.7814, 398.7531
794.2635, 400.5621
794.7456, 402.2134
795.2277, 404.5363
795.7098, 407.6497
796.1920, 410.5788
796.6741, 414.5186
797.1562, 416.8703
797.6383, 415.1225
798.1204, 407.1252
798.6025, 400.7359
799.0847, 395.8840
799.5668, 392.8824
800.0489, 392.3086
800.5310, 394.1823
801.0131, 396.9065
801.4952, 400.5862
801.9774, 403.9040
802.4595, 405.4706
802.9416, 405.8232
803.4237, 405.0769
803.9058, 402.5987
804.3879, 402.6338
804.8701, 411.6622
805.3522, 421.3179
805.8343, 423.8065
806.3164, 415.6987
806.7985, 408.3961
807.2806, 400.6216
807.7628, 396.0237
808.2449, 401.2149
808.7270, 414.4851
809.2091, 419.6458
809.6912, 413.6270
810.1733, 407.6131
810.6555, 416.3367
811.1376, 429.7056
811.6197, 434.0834
812.1018, 422.4502
812.5839, 412.5435
813.0660, 410.4349
813.5482, 411.6834
814.0303, 412.0043
814.5124, 410.3032
814.9945, 412.3022
815.4766, 419.8253
815.9587, 426.8733
816.4409, 425.6108
816.9230, 417.7935
817.4051, 408.5488
817.8872, 397.7103
818.3693, 390.3557
818.8514, 393.1111
819.3336, 400.2225
819.8157, 405.2971
820.2978, 405.6389
820.7799, 406.4453
821.2620, 408.9294
821.7441, 411.2357
822.2263, 411.0235
822.7084, 407.9443
823.1905, 406.1510
823.6726, 406.0403
824.1547, 407.3253
824.6368, 411.0894
825.1190, 415.6491
825.6011, 417.9319
826.0832, 416.8906
826.5653, 414.5311
827.0474, 410.2534
827.5295, 405.9881
828.0117, 403.8992
828.4938, 405.6010
828.9760, 406.3834
829.4581, 405.9081
829.9402, 405.0088
830.4223, 404.4756
830.9044, 404.3506
831.3865, 404.8987
831.8687, 406.1607
832.3508, 408.0897
832.8329, 411.0368
833.3150, 414.3937
833.7971, 417.6986
834.2792, 421.9121
834.7614, 423.5883
835.2435, 419.3394
835.7256, 414.0347
836.2077, 412.6729
836.6898, 417.3206
837.1719, 413.9592
837.6541, 399.3187
838.1362, 385.6805
838.6183, 390.4632
839.1004, 406.4926
839.5825, 417.1543
840.0646, 419.2752
840.5468, 417.1224
841.0289, 409.1107
841.5110, 400.5348
841.9931, 396.5225
842.4752, 399.6807
842.9573, 403.4354
843.4395, 408.5346
843.9216, 413.0789
844.4037, 415.2055
844.8858, 415.0411
845.3679, 413.8887
845.8500, 411.8620
846.3322, 408.7063
846.8143, 400.6705
847.2964, 393.1396
847.7785, 394.0104
848.2606, 407.1798
848.7427, 416.8011
849.2249, 416.4114
849.7070, 412.7243
850.1891, 409.4764
850.6712, 406.3563
851.1533, 406.1652
851.6354, 409.6627
852.1176, 412.6960
852.5997, 411.2745
853.0818, 406.7565
853.5639, 400.8622
854.0460, 393.6560
854.5281, 389.7689
855.0103, 396.4480
855.4924, 404.1719
855.9745, 405.0517
856.4566, 396.5370
856.9387, 392.3089
857.4208, 393.6115
857.9030, 396.8005
858.3851, 399.7055
858.8672, 402.4283
859.3493, 407.3630
859.8314, 414.3763
860.3135, 417.7800
860.7957, 409.8025
861.2778, 398.8497
861.7599, 392.7454
862.2420, 392.0691
862.7241, 391.1808
863.2062, 384.3776
863.6884, 382.1855
864.1705, 390.8093
864.6526, 408.9909
865.1347, 419.1651
865.6168, 420.8513
866.0989, 420.0993
866.5811, 421.7173
867.0632, 422.5452
867.5453, 415.5977
868.0274, 402.5945
868.5095, 392.7274
868.9916, 392.0526
869.4738, 393.4052
869.9559, 393.4702
870.4380, 392.7384
870.9201, 394.8897
871.4022, 401.5602
871.8843, 404.7286
872.3665, 399.4956
872.8486, 390.3042
873.3307, 388.8987
873.8128, 393.2340
874.2949, 395.2934
874.7770, 387.2407
875.2592, 379.6383
875.7413, 379.3123
876.2234, 384.0565
876.7055, 387.4694
877.1876, 388.4792
877.6697, 389.2525
878.1519, 390.1359
878.6340, 391.0416
879.1161, 391.2284
879.5982, 391.0298
880.0803, 392.9771
880.5624, 399.2483
881.0446, 405.2665
881.5267, 407.3058
882.0088, 406.1547
882.4909, 403.0964
882.9730, 394.4342
883.4551, 389.5283
883.9373, 390.4146
884.4194, 394.0414
884.9015, 396.8626
885.3836, 398.8966
885.8657, 399.0988
886.3478, 397.0318
886.8300, 394.4782
887.3121, 392.2557
887.7942, 391.2551
888.2763, 393.4359
888.7584, 401.2258
889.2405, 406.1472
889.7227, 402.5603
890.2048, 397.4357
890.6869, 395.9543
891.1690, 399.0640
891.6511, 400.5280
892.1332, 399.8419
892.6154, 399.6828
893.0975, 403.8120
893.5796, 409.6783
894.0617, 413.8576
894.5438, 416.0284
895.0259, 413.6235
895.5081, 398.5078
895.9902, 384.3058
896.4723, 380.8401
896.9544, 388.5349
897.4365, 392.5524
897.9186, 391.8156
898.4008, 391.8107
898.8829, 397.7123
899.3650, 406.1722
899.8471, 407.5722
900.3292, 402.8643
900.8113, 397.6920
901.2935, 393.0318
901.7756, 390.8215
902.2577, 393.7437
902.7398, 400.7266
903.2219, 404.6982
903.7040, 404.2076
904.1862, 403.9937
904.6683, 405.2477
905.1504, 407.7612
905.6325, 412.4189
906.1146, 418.2837
906.5967, 421.3990
907.0789, 418.2488
907.5610, 414.4584
908.0431, 413.1360
908.5252, 413.8453
909.0073, 415.9509
909.4894, 421.0043
909.9716, 424.3320
910.4537, 425.2749
910.9358, 424.7837
911.4179, 423.5365
911.9000, 421.8753
912.3821, 421.8579
912.8643, 424.1036
913.3464, 426.7811
913.8285, 429.3086
914.3106, 430.9774
914.7927, 431.0236
915.2748, 428.9967
915.7570, 425.7932
916.2391, 420.0507
916.7212, 415.4343
917.2033, 415.9055
917.6854, 420.7085
918.1675, 421.2675
918.6497, 417.3506
919.1318, 414.4095
919.6139, 418.3621
920.0960, 423.7860
920.5781, 425.8853
921.0602, 424.3733
921.5424, 422.8267
922.0245, 420.4523
922.5066, 420.0384
922.9887, 423.2080
923.4708, 429.0518
923.9529, 434.1142
924.4351, 438.2948
924.9172, 440.2230
925.3993, 439.1399
925.8814, 435.5514
926.3635, 427.0960
926.8456, 416.5634
927.3278, 410.8972
927.8099, 414.9818
928.2920, 420.0774
928.7741, 425.5020
929.2562, 431.1251
929.7383, 437.6851
930.2205, 444.9016
930.7026, 448.6703
931.1847, 447.6312
931.6668, 444.6940
932.1489, 442.1586
932.6310, 439.5435
933.1132, 435.8923
933.5953, 428.5757
934.0774, 426.1943
934.5595, 431.5181
935.0416, 438.7305
935.5237, 443.4711
936.0059, 445.8689
936.4880, 448.9383
936.9701, 452.7820
937.4522, 456.0674
937.9343, 456.2130
938.4164, 456.4748
938.8986, 460.6081
939.3807, 468.7172
939.8628, 475.3440
940.3449, 479.2192
940.8270, 482.1304
941.3091, 483.0078
941.7913, 483.8345
942.2734, 495.2891
942.7555, 515.9099
943.2376, 534.1442
943.7197, 542.0374
944.2018, 547.7827
944.6840, 556.9055
945.1661, 569.1699
945.6482, 584.3881
946.1303, 602.4362
946.6124, 623.6750
947.0945, 649.5556
947.5767, 676.7443
948.0588, 700.2188
948.5409, 720.6415
949.0230, 740.5216
949.5051, 759.8781
949.9872, 780.3430
950.4694, 804.0309
950.9515, 828.9620
951.4336, 853.8910
951.9157, 879.9048
952.3978, 900.9650
952.8799, 916.8998
953.3621, 928.1804
953.8442, 933.3081
954.3263, 933.7029
954.8084, 939.5123
955.2905, 949.3072
955.7726, 950.0632
956.2548, 932.1710
956.7369, 903.5914
957.2190, 865.4488
957.7011, 820.0304
958.1832, 778.7189
958.6653, 742.4881
959.1475, 708.6296
959.6296, 676.7615
960.1117, 647.1087
960.5938, 620.6291
961.0759, 597.1122
961.5580, 574.9178
962.0402, 553.2081
962.5223, 534.0519
963.0044, 517.7405
963.4865, 505.2570
963.9686, 498.3378
964.4507, 501.9225
964.9329, 494.9852
965.4150, 474.3934
965.8971, 453.7523
966.3792, 447.3847
966.8613, 450.0505
967.3434, 452.0049
967.8256, 452.4502
968.3077, 450.7467
968.7898, 442.3511
969.2719, 435.9251
969.7540, 438.1612
970.2361, 447.0470
970.7183, 446.8470
971.2004, 435.9820
971.6825, 427.6899
972.1646, 427.6622
972.6467, 432.6370
973.1288, 440.6761
973.6110, 449.5576
974.0931, 454.3066
974.5752, 450.9437
975.0573, 445.9272
975.5394, 438.2427
976.0215, 431.3995
976.5037, 430.1855
976.9858, 434.8448
977.4679, 437.9986
977.9500, 439.0892
978.4321, 437.7835
978.9142, 430.0950
979.3964, 422.0801
979.8785, 421.6893
980.3606, 430.6190
980.8427, 436.4853
981.3248, 434.9263
981.8069, 434.0807
982.2891, 438.5158
982.7712, 446.2701
983.2533, 446.4641
983.7354, 440.1658
984.2175, 435.5365
984.6996, 439.1734
985.1818, 443.4787
985.6639, 443.1476
986.1460, 439.5783
986.6281, 435.3663
987.1102, 428.3207
987.5923, 426.2976
988.0745, 431.1746
988.5566, 438.6371
989.0387, 443.8989
989.5208, 447.1213
990.0029, 448.5181
990.4850, 448.0166
990.9672, 446.9048
991.4493, 446.1514
991.9314, 444.8290
992.4135, 441.0577
992.8957, 434.8367
993.3778, 436.1270
993.8599, 446.7350
994.3420, 453.9257
994.8242, 449.0869
995.3063, 438.3392
995.7884, 427.8205
996.2705, 419.4587
996.7526, 418.4318
997.2347, 436.9077
997.7169, 449.7697
998.1990, 448.8224
998.6811, 442.1941
999.1632, 440.6420
999.6453, 444.1428
1000.127, 450.2137
1000.610, 459.1658
1001.092, 465.8902
1001.574, 463.1987
1002.056, 457.2219
1002.538, 454.6944
1003.020, 457.1670
1003.502, 456.1844
1003.984, 448.4188
1004.466, 442.6574
1004.949, 443.6771
1005.431, 449.6788
1005.913, 455.7680
1006.395, 461.3474
1006.877, 463.6447
1007.359, 458.0418
1007.841, 452.3395
1008.323, 450.4794
1008.806, 451.2130
1009.288, 452.0723
1009.770, 452.8030
1010.252, 454.8863
1010.734, 458.9850
1011.216, 462.2916
1011.698, 458.7600
1012.180, 453.5199
1012.662, 456.5249
1013.145, 469.3990
1013.627, 479.8975
1014.109, 484.1881
1014.591, 484.3042
1015.073, 479.6588
1015.555, 471.5434
1016.037, 467.3726
1016.519, 467.0682
1017.002, 469.3409
1017.484, 476.6051
1017.966, 482.0816
1018.448, 476.0488
1018.930, 465.2594
1019.412, 461.3512
1019.894, 472.6779
1020.376, 478.5857
1020.858, 476.8801
1021.341, 473.1046
1021.823, 474.2115
1022.305, 477.7322
1022.787, 475.5190
1023.269, 467.1848
1023.751, 459.7099
1024.233, 457.2885
1024.715, 456.5100
1025.198, 455.8412
1025.680, 455.2223
1026.162, 454.0522
1026.644, 452.0393
1027.126, 453.4681
1027.608, 461.8941
1028.090, 469.9478
1028.572, 465.9102
1029.054, 456.1610
1029.536, 450.9505
1030.019, 456.2416
1030.501, 458.9700
1030.983, 457.0065
1031.465, 454.0871
1031.947, 452.4461
1032.429, 452.3194
1032.911, 456.2011
1033.393, 463.7032
1033.876, 470.4054
1034.358, 474.8889
1034.840, 476.5104
1035.322, 473.8572
1035.804, 468.0379
1036.286, 462.1706
1036.768, 455.7263
1037.250, 452.0435
1037.733, 452.4958
1038.215, 453.6979
1038.697, 448.6899
1039.179, 442.4239
1039.661, 444.0430
1040.143, 458.5207
1040.625, 466.1734
1041.107, 457.9436
1041.589, 448.2131
1042.072, 444.1996
1042.554, 445.1520
1043.036, 447.2925
1043.518, 450.2859
1044.000, 451.7773
1044.482, 447.8470
1044.964, 444.6929
1045.446, 445.5294
1045.928, 450.0504
1046.411, 458.5641
1046.893, 475.2491
1047.375, 479.8189
1047.857, 468.3033
1048.339, 453.7783
1048.821, 449.1805
1049.303, 451.6252
1049.785, 460.0537
1050.268, 473.9179
1050.750, 479.0832
1051.232, 458.5875
1051.714, 443.2205
1052.196, 443.8384
1052.678, 455.8882
1053.160, 467.3908
1053.642, 477.6476
1054.125, 481.0755
1054.607, 472.8107
1055.089, 464.5109
1055.571, 465.9371
1056.053, 470.8032
1056.535, 471.5197
1057.017, 465.6582
1057.499, 465.3169
1057.981, 471.8028
1058.464, 476.9037
1058.946, 472.7691
1059.428, 464.5113
1059.910, 458.2839
1060.392, 454.6976
1060.874, 455.5573
1061.356, 464.7722
1061.838, 474.5382
1062.320, 484.5472
1062.803, 493.3225
1063.285, 498.4394
1063.767, 500.1271
1064.249, 498.3187
1064.731, 492.5279
1065.213, 488.2055
1065.695, 490.4151
1066.177, 494.2028
1066.660, 496.4947
1067.142, 497.2387
1067.624, 495.3813
1068.106, 490.2539
1068.588, 488.7545
1069.070, 495.3121
1069.552, 504.3994
1070.034, 510.0630
1070.516, 512.9745
1070.999, 514.1960
1071.481, 514.4531
1071.963, 511.6330
1072.445, 504.3961
1072.927, 496.6819
1073.409, 491.1718
1073.891, 487.8825
1074.373, 488.0855
1074.855, 491.2325
1075.338, 493.4817
1075.820, 492.4350
1076.302, 490.5180
1076.784, 487.8056
1077.266, 485.3232
1077.748, 485.4076
1078.230, 488.1105
1078.713, 490.2914
1079.195, 491.6213
1079.677, 491.2744
1080.159, 485.9650
1080.641, 480.3695
1081.123, 479.4320
1081.605, 484.2223
1082.087, 487.7260
1082.569, 489.8470
1083.052, 490.8662
1083.534, 490.1373
1084.016, 489.3565
1084.498, 493.2914
1084.980, 499.2326
1085.462, 501.2337
1085.944, 494.6216
1086.426, 489.3363
1086.908, 487.6714
1087.391, 486.9552
1087.873, 484.3731
1088.355, 480.5811
1088.837, 481.1598
1089.319, 485.8463
1089.801, 491.8051
1090.283, 499.8513
1090.765, 506.1306
1091.248, 507.3814
1091.730, 505.6885
1092.212, 505.4007
1092.694, 506.9968
1093.176, 504.9930
1093.658, 497.9772
1094.140, 492.0226
1094.622, 494.8938
1095.104, 500.8754
1095.587, 505.0655
1096.069, 506.8600
1096.551, 503.1598
1097.033, 489.6899
1097.515, 482.2494
1097.997, 488.2915
1098.479, 499.5804
1098.961, 498.7915
1099.443, 491.8688
1099.926, 492.3648
1100.408, 509.0157
1100.890, 518.4078
1101.372, 507.9827
1101.854, 496.6347
1102.336, 497.0269
1102.818, 506.7947
1103.300, 509.8465
1103.783, 507.1365
1104.265, 504.7226
1104.747, 506.9063
1105.229, 509.0635
1105.711, 508.6285
1106.193, 506.9344
1106.675, 506.1782
1107.157, 506.7747
1107.640, 504.1993
1108.122, 497.8990
1108.604, 492.6060
1109.086, 494.0245
1109.568, 497.0472
1110.050, 496.3073
1110.532, 492.4460
1111.014, 490.7445
1111.496, 491.0403
1111.979, 495.2310
1112.461, 505.1345
1112.943, 515.0424
1113.425, 515.7267
1113.907, 511.1670
1114.389, 507.3981
1114.871, 505.4691
1115.353, 503.9586
1115.835, 502.8954
1116.318, 501.7583
1116.800, 500.8485
1117.282, 499.3775
1117.764, 493.0363
1118.246, 483.9415
1118.728, 479.6128
1119.210, 485.6467
1119.692, 490.3028
1120.175, 485.1927
1120.657, 479.8906
1121.139, 483.4828
1121.621, 495.6211
1122.103, 493.8368
1122.585, 479.2483
1123.067, 467.4655
1123.549, 468.8116
1124.031, 474.9643
1124.514, 485.3585
1124.996, 495.0982
1125.478, 494.7868
1125.960, 481.6925
1126.442, 472.3389
1126.924, 467.7245
1127.406, 467.7208
1127.888, 477.6829
1128.370, 488.0916
1128.853, 486.6452
1129.335, 475.2391
1129.817, 470.5660
1130.299, 476.3489
1130.781, 482.0692
1131.263, 486.3094
1131.745, 488.0014
1132.227, 482.4282
1132.710, 474.7095
1133.192, 475.3832
1133.674, 487.1247
1134.156, 491.0686
1134.638, 477.0034
1135.120, 465.4476
1135.602, 465.1529
1136.084, 470.8146
1136.567, 469.2560
1137.049, 463.0191
1137.531, 459.4539
1138.013, 461.7765
1138.495, 464.0011
1138.977, 461.8454
1139.459, 461.0330
1139.941, 465.9958
1140.423, 475.6078
1140.906, 481.3597
1141.388, 483.2870
1141.870, 481.2750
1142.352, 470.8652
1142.834, 462.1017
1143.316, 460.6266
1143.798, 463.0325
1144.280, 465.3991
1144.762, 467.6361
1145.245, 471.6199
1145.727, 477.4395
1146.209, 481.1248
1146.691, 477.9286
1147.173, 473.5308
1147.655, 472.7612
1148.137, 474.0057
1148.619, 472.1248
1149.102, 465.6839
1149.584, 463.8437
1150.066, 468.3428
1150.548, 473.0691
1151.030, 472.2816
1151.512, 468.5595
1151.994, 463.5079
1152.476, 457.6805
1152.958, 454.6142
1153.441, 455.3158
1153.923, 455.6768
1154.405, 454.2163
1154.887, 453.7029
1155.369, 461.0929
1155.851, 470.3625
1156.333, 470.8388
1156.815, 459.4747
1157.297, 455.7231
1157.780, 466.2971
1158.262, 473.4472
1158.744, 469.2022
1159.226, 459.4428
1159.708, 455.0326
1160.190, 454.6860
1160.672, 456.3566
1161.154, 461.5876
1161.637, 461.9172
1162.119, 450.7406
1162.601, 442.5922
1163.083, 448.0756
1163.565, 461.7328
1164.047, 463.7958
1164.529, 457.1751
1165.011, 451.6935
1165.494, 452.7484
1165.976, 453.0443
1166.458, 448.2558
1166.940, 444.6684
1167.422, 449.6467
1167.904, 461.3982
1168.386, 462.0875
1168.868, 453.4855
1169.350, 447.3722
1169.833, 452.7634
1170.315, 458.9291
1170.797, 462.9812
1171.279, 464.5240
1171.761, 461.1404
1172.243, 453.4239
1172.725, 454.2037
1173.207, 463.7324
1173.689, 469.4708
1174.172, 456.3111
1174.654, 443.7768
1175.136, 445.7345
1175.618, 455.2369
1176.100, 459.7411
1176.582, 459.2800
1177.064, 457.4901
1177.546, 454.7453
1178.029, 452.2332
1178.511, 450.6875
1178.993, 449.8663
1179.475, 447.7691
1179.957, 446.2222
1180.439, 454.9305
1180.921, 474.9431
1181.403, 486.0018
1181.885, 482.5154
1182.368, 474.6782
1182.850, 469.6121
1183.332, 466.4925
1183.814, 464.8696
1184.296, 464.6275
1184.778, 465.3721
1185.260, 467.2593
1185.742, 468.2959
1186.224, 467.3914
1186.707, 466.5450
1187.189, 468.0243
1187.671, 470.5860
1188.153, 473.4587
1188.635, 476.8718
1189.117, 476.2326
1189.599, 470.9081
1190.081, 465.9314
1190.564, 463.3152
1191.046, 462.5775
1191.528, 465.9836
1192.010, 469.6692
1192.492, 466.8239
1192.974, 452.8680
1193.456, 449.7284
1193.938, 459.7810
1194.421, 466.8271
1194.903, 457.3744
1195.385, 443.7239
1195.867, 440.2260
1196.349, 443.9094
1196.831, 450.0448
1197.313, 463.6653
1197.795, 464.3365
1198.277, 449.3825
1198.760, 433.9025
1199.242, 428.1864
1199.724, 428.8720
1200.206, 435.0886
1200.688, 443.9083
1201.170, 446.9947
1201.652, 438.6660
1202.134, 436.9856
1202.616, 444.6468
1203.099, 451.8837
1203.581, 448.0153
1204.063, 439.7995
1204.545, 435.0630
1205.027, 434.0788
1205.509, 437.5488
1205.991, 449.1804
1206.473, 455.1020
1206.956, 452.6835
1207.438, 448.6348
1207.920, 451.7972
1208.402, 456.4398
1208.884, 451.9990
1209.366, 440.3936
1209.848, 438.4505
1210.330, 452.6915
1210.813, 463.8784
1211.295, 469.4563
1211.777, 468.9649
1212.259, 456.7155
1212.741, 441.0034
1213.223, 432.8542
1213.705, 432.9859
1214.187, 437.2721
1214.669, 446.8657
1215.151, 455.3837
1215.634, 461.8730
1216.116, 465.2765
1216.598, 462.5710
1217.080, 456.9713
1217.562, 452.2662
1218.044, 448.9707
1218.526, 447.9184
1219.008, 449.2099
1219.491, 452.6108
1219.973, 458.9207
1220.455, 464.9398
1220.937, 465.4057
1221.419, 463.1196
1221.901, 461.9436
1222.383, 462.5953
1222.865, 461.6414
1223.348, 458.0905
1223.830, 456.2209
1224.312, 458.0228
1224.794, 460.9941
1225.276, 462.2351
1225.758, 462.1941
1226.240, 461.3922
1226.722, 459.8358
1227.204, 457.3667
1227.687, 453.1882
1228.169, 452.0268
1228.651, 457.4948
1229.133, 463.5502
1229.615, 459.9286
1230.097, 452.9938
1230.579, 452.6060
1231.061, 462.3226
1231.543, 463.3497
1232.026, 454.0153
1232.508, 445.5865
1232.990, 443.3355
1233.472, 444.4212
1233.954, 446.1845
1234.436, 448.7345
1234.918, 452.7831
1235.400, 459.2216
1235.883, 461.5922
1236.365, 459.4679
1236.847, 457.2698
1237.329, 457.0480
1237.811, 458.1425
1238.293, 460.6415
1238.775, 463.6841
1239.257, 466.2730
1239.740, 468.7287
1240.222, 468.4732
1240.704, 465.4036
1241.186, 461.4442
1241.668, 456.3229
1242.150, 452.4476
1242.632, 453.3407
1243.114, 456.0024
1243.596, 456.0209
1244.079, 452.5892
1244.561, 451.7169
1245.043, 453.4019
1245.525, 456.6389
1246.007, 464.4208
1246.489, 469.6296
1246.971, 464.7248
1247.453, 456.0468
1247.936, 451.5005
1248.418, 451.1852
1248.900, 454.9622
1249.382, 462.3995
1249.864, 467.3737
1250.346, 460.4431
1250.828, 456.5557
1251.310, 469.5649
1251.792, 485.6048
1252.275, 488.4683
1252.757, 478.8671
1253.239, 471.0574
1253.721, 465.5210
1254.203, 464.2172
1254.685, 472.9309
1255.167, 480.3187
1255.649, 482.5336
1256.131, 480.8616
1256.614, 473.9211
1257.096, 463.4176
1257.578, 461.1945
1258.060, 466.4453
1258.542, 472.0820
1259.024, 477.7195
1259.506, 478.4484
1259.988, 470.9628
1260.471, 462.0643
1260.953, 459.2440
1261.435, 460.7974
1261.917, 460.8596
1262.399, 459.8157
1262.881, 460.6547
1263.363, 468.6830
1263.845, 472.3854
1264.328, 469.5469
1264.810, 463.5369
1265.292, 454.5742
1265.774, 446.2983
1266.256, 449.1603
1266.738, 460.3003
1267.220, 466.9491
1267.702, 462.5215
1268.184, 458.8670
1268.667, 456.9209
1269.149, 455.7950
1269.631, 453.8597
1270.113, 452.7491
1270.595, 456.4218
1271.077, 463.0598
1271.559, 465.4819
1272.041, 461.6872
1272.523, 458.7016
1273.006, 457.4342
1273.488, 454.7824
1273.970, 444.5771
1274.452, 434.5775
1274.934, 433.2228
1275.416, 438.5794
1275.898, 444.6116
1276.380, 452.1777
1276.863, 452.6208
1277.345, 444.7972
1277.827, 438.3565
1278.309, 442.6319
1278.791, 449.1972
1279.273, 452.7375
1279.755, 454.1756
1280.237, 455.1779
1280.719, 455.7423
1281.202, 458.2183
1281.684, 462.6368
1282.166, 465.3390
1282.648, 461.9442
1283.130, 458.8081
1283.612, 461.0719
1284.094, 463.2888
1284.576, 454.4968
1285.058, 438.5528
1285.541, 439.4572
1286.023, 456.3820
##END=



