##NAMES=Itsiite
##RRUFFID=R160010
##IDEAL CHEMISTRY=Ba_2_Ca(BSi_2_O_7_)_2_
##LOCALITY=Gun claim, Yukon Territory, Canada
##OWNER=RRUFF
##SOURCE=Gunnar FÃ¤rber
##DESCRIPTION=White milky massive, associated with cerchiaraite-(Fe), diopside, pyrite, quartz, sphalerite, and witherite
##STATUS=The identification of this mineral has been confirmed by single-crystal X-ray diffraction.
##URL=rruff.info/R160010
8.930109e+001, 0.000000e+000
8.978320e+001, 2.466622e+003
9.026532e+001, 2.452705e+003
9.074744e+001, 2.454207e+003
9.122955e+001, 2.479524e+003
9.171167e+001, 2.510911e+003
9.219379e+001, 2.524992e+003
9.267590e+001, 2.524801e+003
9.315802e+001, 2.518288e+003
9.364014e+001, 2.508727e+003
9.412225e+001, 2.497743e+003
9.460437e+001, 2.489008e+003
9.508649e+001, 2.484402e+003
9.556860e+001, 2.481354e+003
9.605072e+001, 2.476118e+003
9.653284e+001, 2.470810e+003
9.701495e+001, 2.465384e+003
9.749707e+001, 2.458075e+003
9.797919e+001, 2.448805e+003
9.846130e+001, 2.441918e+003
9.894342e+001, 2.437520e+003
9.942554e+001, 2.435747e+003
9.990765e+001, 2.441182e+003
1.003898e+002, 2.454696e+003
1.008719e+002, 2.472945e+003
1.013540e+002, 2.492076e+003
1.018361e+002, 2.513067e+003
1.023182e+002, 2.532039e+003
1.028004e+002, 2.548580e+003
1.032825e+002, 2.563722e+003
1.037646e+002, 2.573414e+003
1.042467e+002, 2.579007e+003
1.047288e+002, 2.579305e+003
1.052109e+002, 2.570578e+003
1.056931e+002, 2.550254e+003
1.061752e+002, 2.525822e+003
1.066573e+002, 2.499736e+003
1.071394e+002, 2.466958e+003
1.076215e+002, 2.441494e+003
1.081036e+002, 2.425143e+003
1.085858e+002, 2.416766e+003
1.090679e+002, 2.410751e+003
1.095500e+002, 2.408297e+003
1.100321e+002, 2.407345e+003
1.105142e+002, 2.406816e+003
1.109963e+002, 2.405714e+003
1.114785e+002, 2.406144e+003
1.119606e+002, 2.408245e+003
1.124427e+002, 2.412000e+003
1.129248e+002, 2.417484e+003
1.134069e+002, 2.426089e+003
1.138890e+002, 2.435681e+003
1.143712e+002, 2.444652e+003
1.148533e+002, 2.452761e+003
1.153354e+002, 2.460079e+003
1.158175e+002, 2.465894e+003
1.162996e+002, 2.470035e+003
1.167817e+002, 2.475721e+003
1.172639e+002, 2.484866e+003
1.177460e+002, 2.496035e+003
1.182281e+002, 2.507406e+003
1.187102e+002, 2.518131e+003
1.191923e+002, 2.528976e+003
1.196744e+002, 2.540980e+003
1.201566e+002, 2.554914e+003
1.206387e+002, 2.566845e+003
1.211208e+002, 2.574423e+003
1.216029e+002, 2.578137e+003
1.220850e+002, 2.578874e+003
1.225671e+002, 2.574629e+003
1.230493e+002, 2.568600e+003
1.235314e+002, 2.563889e+003
1.240135e+002, 2.560888e+003
1.244956e+002, 2.559262e+003
1.249777e+002, 2.559611e+003
1.254598e+002, 2.561336e+003
1.259420e+002, 2.562337e+003
1.264241e+002, 2.559862e+003
1.269062e+002, 2.555824e+003
1.273883e+002, 2.553868e+003
1.278704e+002, 2.555174e+003
1.283525e+002, 2.558263e+003
1.288347e+002, 2.561113e+003
1.293168e+002, 2.563748e+003
1.297989e+002, 2.566501e+003
1.302810e+002, 2.570114e+003
1.307631e+002, 2.574222e+003
1.312452e+002, 2.577345e+003
1.317274e+002, 2.578544e+003
1.322095e+002, 2.578817e+003
1.326916e+002, 2.581156e+003
1.331737e+002, 2.585863e+003
1.336558e+002, 2.590908e+003
1.341379e+002, 2.594076e+003
1.346201e+002, 2.595423e+003
1.351022e+002, 2.597505e+003
1.355843e+002, 2.601472e+003
1.360664e+002, 2.606982e+003
1.365485e+002, 2.611329e+003
1.370306e+002, 2.614505e+003
1.375128e+002, 2.616559e+003
1.379949e+002, 2.617415e+003
1.384770e+002, 2.616872e+003
1.389591e+002, 2.616054e+003
1.394412e+002, 2.615138e+003
1.399233e+002, 2.614056e+003
1.404055e+002, 2.613678e+003
1.408876e+002, 2.614447e+003
1.413697e+002, 2.615362e+003
1.418518e+002, 2.614631e+003
1.423339e+002, 2.611525e+003
1.428160e+002, 2.608336e+003
1.432982e+002, 2.605753e+003
1.437803e+002, 2.603675e+003
1.442624e+002, 2.602653e+003
1.447445e+002, 2.603137e+003
1.452266e+002, 2.604556e+003
1.457087e+002, 2.605523e+003
1.461909e+002, 2.605526e+003
1.466730e+002, 2.605804e+003
1.471551e+002, 2.606977e+003
1.476372e+002, 2.610325e+003
1.481193e+002, 2.612434e+003
1.486014e+002, 2.612400e+003
1.490836e+002, 2.611040e+003
1.495657e+002, 2.611141e+003
1.500478e+002, 2.613690e+003
1.505299e+002, 2.616914e+003
1.510120e+002, 2.620062e+003
1.514941e+002, 2.622644e+003
1.519763e+002, 2.625636e+003
1.524584e+002, 2.629496e+003
1.529405e+002, 2.633926e+003
1.534226e+002, 2.637594e+003
1.539047e+002, 2.639983e+003
1.543868e+002, 2.641825e+003
1.548690e+002, 2.643516e+003
1.553511e+002, 2.644411e+003
1.558332e+002, 2.645870e+003
1.563153e+002, 2.648737e+003
1.567974e+002, 2.652736e+003
1.572795e+002, 2.655611e+003
1.577617e+002, 2.655409e+003
1.582438e+002, 2.654726e+003
1.587259e+002, 2.655445e+003
1.592080e+002, 2.659883e+003
1.596901e+002, 2.664038e+003
1.601722e+002, 2.666317e+003
1.606544e+002, 2.666841e+003
1.611365e+002, 2.667995e+003
1.616186e+002, 2.671097e+003
1.621007e+002, 2.674999e+003
1.625828e+002, 2.678713e+003
1.630649e+002, 2.681247e+003
1.635471e+002, 2.684000e+003
1.640292e+002, 2.687812e+003
1.645113e+002, 2.692688e+003
1.649934e+002, 2.697397e+003
1.654755e+002, 2.701607e+003
1.659576e+002, 2.705197e+003
1.664398e+002, 2.707976e+003
1.669219e+002, 2.709050e+003
1.674040e+002, 2.709867e+003
1.678861e+002, 2.711304e+003
1.683682e+002, 2.713421e+003
1.688503e+002, 2.715954e+003
1.693325e+002, 2.718901e+003
1.698146e+002, 2.722171e+003
1.702967e+002, 2.725569e+003
1.707788e+002, 2.729311e+003
1.712609e+002, 2.733066e+003
1.717430e+002, 2.736551e+003
1.722252e+002, 2.739796e+003
1.727073e+002, 2.742687e+003
1.731894e+002, 2.744870e+003
1.736715e+002, 2.746634e+003
1.741536e+002, 2.748543e+003
1.746357e+002, 2.751043e+003
1.751179e+002, 2.753807e+003
1.756000e+002, 2.756391e+003
1.760821e+002, 2.758685e+003
1.765642e+002, 2.761069e+003
1.770463e+002, 2.763704e+003
1.775284e+002, 2.766690e+003
1.780106e+002, 2.770274e+003
1.784927e+002, 2.775303e+003
1.789748e+002, 2.780888e+003
1.794569e+002, 2.785063e+003
1.799390e+002, 2.787321e+003
1.804211e+002, 2.789647e+003
1.809033e+002, 2.794933e+003
1.813854e+002, 2.802677e+003
1.818675e+002, 2.810263e+003
1.823496e+002, 2.816339e+003
1.828317e+002, 2.821169e+003
1.833138e+002, 2.825476e+003
1.837960e+002, 2.829071e+003
1.842781e+002, 2.832750e+003
1.847602e+002, 2.837940e+003
1.852423e+002, 2.844474e+003
1.857244e+002, 2.850645e+003
1.862065e+002, 2.855274e+003
1.866887e+002, 2.858664e+003
1.871708e+002, 2.861966e+003
1.876529e+002, 2.865137e+003
1.881350e+002, 2.868523e+003
1.886171e+002, 2.872649e+003
1.890992e+002, 2.877534e+003
1.895814e+002, 2.882876e+003
1.900635e+002, 2.888538e+003
1.905456e+002, 2.894585e+003
1.910277e+002, 2.900892e+003
1.915098e+002, 2.907534e+003
1.919919e+002, 2.914387e+003
1.924741e+002, 2.920709e+003
1.929562e+002, 2.926408e+003
1.934383e+002, 2.932954e+003
1.939204e+002, 2.940990e+003
1.944025e+002, 2.950537e+003
1.948846e+002, 2.962219e+003
1.953668e+002, 2.976498e+003
1.958489e+002, 2.992500e+003
1.963310e+002, 3.008589e+003
1.968131e+002, 3.024889e+003
1.972952e+002, 3.040212e+003
1.977773e+002, 3.055328e+003
1.982595e+002, 3.070309e+003
1.987416e+002, 3.078819e+003
1.992237e+002, 3.079388e+003
1.997058e+002, 3.073574e+003
2.001879e+002, 3.065020e+003
2.006700e+002, 3.053394e+003
2.011522e+002, 3.040257e+003
2.016343e+002, 3.025663e+003
2.021164e+002, 3.009205e+003
2.025985e+002, 2.995642e+003
2.030806e+002, 2.985882e+003
2.035627e+002, 2.979319e+003
2.040449e+002, 2.974298e+003
2.045270e+002, 2.970810e+003
2.050091e+002, 2.968831e+003
2.054912e+002, 2.968651e+003
2.059733e+002, 2.970545e+003
2.064554e+002, 2.972481e+003
2.069376e+002, 2.974138e+003
2.074197e+002, 2.975690e+003
2.079018e+002, 2.977863e+003
2.083839e+002, 2.980741e+003
2.088660e+002, 2.984087e+003
2.093481e+002, 2.987457e+003
2.098303e+002, 2.990524e+003
2.103124e+002, 2.995458e+003
2.107945e+002, 3.003154e+003
2.112766e+002, 3.012821e+003
2.117587e+002, 3.021326e+003
2.122408e+002, 3.028237e+003
2.127230e+002, 3.034978e+003
2.132051e+002, 3.042575e+003
2.136872e+002, 3.051219e+003
2.141693e+002, 3.059961e+003
2.146514e+002, 3.068469e+003
2.151335e+002, 3.076914e+003
2.156157e+002, 3.085914e+003
2.160978e+002, 3.095729e+003
2.165799e+002, 3.105574e+003
2.170620e+002, 3.114853e+003
2.175441e+002, 3.123065e+003
2.180262e+002, 3.132126e+003
2.185084e+002, 3.142366e+003
2.189905e+002, 3.153725e+003
2.194726e+002, 3.165366e+003
2.199547e+002, 3.177655e+003
2.204368e+002, 3.189983e+003
2.209189e+002, 3.201812e+003
2.214011e+002, 3.213084e+003
2.218832e+002, 3.224477e+003
2.223653e+002, 3.236341e+003
2.228474e+002, 3.248444e+003
2.233295e+002, 3.260270e+003
2.238116e+002, 3.271768e+003
2.242938e+002, 3.282719e+003
2.247759e+002, 3.292471e+003
2.252580e+002, 3.299135e+003
2.257401e+002, 3.309292e+003
2.262222e+002, 3.325577e+003
2.267043e+002, 3.345682e+003
2.271865e+002, 3.360745e+003
2.276686e+002, 3.369690e+003
2.281507e+002, 3.374709e+003
2.286328e+002, 3.376927e+003
2.291149e+002, 3.376645e+003
2.295970e+002, 3.372750e+003
2.300792e+002, 3.364438e+003
2.305613e+002, 3.352473e+003
2.310434e+002, 3.340144e+003
2.315255e+002, 3.328281e+003
2.320076e+002, 3.315198e+003
2.324897e+002, 3.299657e+003
2.329719e+002, 3.279272e+003
2.334540e+002, 3.261991e+003
2.339361e+002, 3.248185e+003
2.344182e+002, 3.237662e+003
2.349003e+002, 3.229589e+003
2.353824e+002, 3.224543e+003
2.358646e+002, 3.221121e+003
2.363467e+002, 3.218330e+003
2.368288e+002, 3.214600e+003
2.373109e+002, 3.214995e+003
2.377930e+002, 3.220364e+003
2.382751e+002, 3.229769e+003
2.387573e+002, 3.240538e+003
2.392394e+002, 3.253800e+003
2.397215e+002, 3.266673e+003
2.402036e+002, 3.277719e+003
2.406857e+002, 3.285444e+003
2.411678e+002, 3.294793e+003
2.416500e+002, 3.307320e+003
2.421321e+002, 3.320954e+003
2.426142e+002, 3.330771e+003
2.430963e+002, 3.336613e+003
2.435784e+002, 3.338701e+003
2.440605e+002, 3.336614e+003
2.445427e+002, 3.328415e+003
2.450248e+002, 3.320947e+003
2.455069e+002, 3.313819e+003
2.459890e+002, 3.307607e+003
2.464711e+002, 3.303701e+003
2.469532e+002, 3.302575e+003
2.474354e+002, 3.303000e+003
2.479175e+002, 3.304523e+003
2.483996e+002, 3.307057e+003
2.488817e+002, 3.311126e+003
2.493638e+002, 3.316768e+003
2.498459e+002, 3.324001e+003
2.503281e+002, 3.332876e+003
2.508102e+002, 3.343656e+003
2.512923e+002, 3.355774e+003
2.517744e+002, 3.369407e+003
2.522565e+002, 3.384822e+003
2.527386e+002, 3.400086e+003
2.532208e+002, 3.414653e+003
2.537029e+002, 3.429474e+003
2.541850e+002, 3.447053e+003
2.546671e+002, 3.470548e+003
2.551492e+002, 3.490619e+003
2.556313e+002, 3.504175e+003
2.561135e+002, 3.510670e+003
2.565956e+002, 3.513895e+003
2.570777e+002, 3.514133e+003
2.575598e+002, 3.510670e+003
2.580419e+002, 3.502077e+003
2.585240e+002, 3.486957e+003
2.590062e+002, 3.469892e+003
2.594883e+002, 3.451529e+003
2.599704e+002, 3.432063e+003
2.604525e+002, 3.412718e+003
2.609346e+002, 3.392843e+003
2.614167e+002, 3.374202e+003
2.618989e+002, 3.359159e+003
2.623810e+002, 3.348915e+003
2.628631e+002, 3.339538e+003
2.633452e+002, 3.330126e+003
2.638273e+002, 3.320629e+003
2.643094e+002, 3.313116e+003
2.647916e+002, 3.307798e+003
2.652737e+002, 3.304075e+003
2.657558e+002, 3.300968e+003
2.662379e+002, 3.297807e+003
2.667200e+002, 3.297964e+003
2.672021e+002, 3.303574e+003
2.676843e+002, 3.313717e+003
2.681664e+002, 3.318885e+003
2.686485e+002, 3.317187e+003
2.691306e+002, 3.314365e+003
2.696127e+002, 3.315536e+003
2.700948e+002, 3.321613e+003
2.705770e+002, 3.327271e+003
2.710591e+002, 3.331438e+003
2.715412e+002, 3.334404e+003
2.720233e+002, 3.337845e+003
2.725054e+002, 3.341775e+003
2.729875e+002, 3.345842e+003
2.734697e+002, 3.349814e+003
2.739518e+002, 3.353728e+003
2.744339e+002, 3.357460e+003
2.749160e+002, 3.361095e+003
2.753981e+002, 3.364484e+003
2.758802e+002, 3.367047e+003
2.763624e+002, 3.368554e+003
2.768445e+002, 3.370114e+003
2.773266e+002, 3.372510e+003
2.778087e+002, 3.375822e+003
2.782908e+002, 3.379143e+003
2.787729e+002, 3.382483e+003
2.792551e+002, 3.385758e+003
2.797372e+002, 3.388526e+003
2.802193e+002, 3.390706e+003
2.807014e+002, 3.393096e+003
2.811835e+002, 3.396309e+003
2.816656e+002, 3.400332e+003
2.821478e+002, 3.403891e+003
2.826299e+002, 3.406671e+003
2.831120e+002, 3.409510e+003
2.835941e+002, 3.413946e+003
2.840762e+002, 3.420061e+003
2.845583e+002, 3.426578e+003
2.850405e+002, 3.432882e+003
2.855226e+002, 3.439053e+003
2.860047e+002, 3.445996e+003
2.864868e+002, 3.453874e+003
2.869689e+002, 3.461971e+003
2.874510e+002, 3.468903e+003
2.879332e+002, 3.474758e+003
2.884153e+002, 3.481668e+003
2.888974e+002, 3.491042e+003
2.893795e+002, 3.502074e+003
2.898616e+002, 3.511441e+003
2.903438e+002, 3.519027e+003
2.908259e+002, 3.525677e+003
2.913080e+002, 3.532630e+003
2.917901e+002, 3.539580e+003
2.922722e+002, 3.545140e+003
2.927543e+002, 3.548874e+003
2.932365e+002, 3.550855e+003
2.937186e+002, 3.550826e+003
2.942007e+002, 3.548768e+003
2.946828e+002, 3.545904e+003
2.951649e+002, 3.543177e+003
2.956470e+002, 3.540524e+003
2.961292e+002, 3.537599e+003
2.966113e+002, 3.534211e+003
2.970934e+002, 3.530686e+003
2.975755e+002, 3.527552e+003
2.980576e+002, 3.524774e+003
2.985397e+002, 3.522052e+003
2.990219e+002, 3.518432e+003
2.995040e+002, 3.514748e+003
2.999861e+002, 3.512992e+003
3.004682e+002, 3.514010e+003
3.009503e+002, 3.516210e+003
3.014324e+002, 3.517883e+003
3.019146e+002, 3.519156e+003
3.023967e+002, 3.520557e+003
3.028788e+002, 3.521243e+003
3.033609e+002, 3.522633e+003
3.038430e+002, 3.527212e+003
3.043251e+002, 3.535899e+003
3.048073e+002, 3.545520e+003
3.052894e+002, 3.553940e+003
3.057715e+002, 3.561059e+003
3.062536e+002, 3.566894e+003
3.067357e+002, 3.571295e+003
3.072178e+002, 3.574337e+003
3.077000e+002, 3.575712e+003
3.081821e+002, 3.575226e+003
3.086642e+002, 3.574199e+003
3.091463e+002, 3.573667e+003
3.096284e+002, 3.573169e+003
3.101105e+002, 3.571995e+003
3.105927e+002, 3.569665e+003
3.110748e+002, 3.566671e+003
3.115569e+002, 3.562651e+003
3.120390e+002, 3.557661e+003
3.125211e+002, 3.554079e+003
3.130032e+002, 3.554535e+003
3.134854e+002, 3.556626e+003
3.139675e+002, 3.557795e+003
3.144496e+002, 3.556510e+003
3.149317e+002, 3.554820e+003
3.154138e+002, 3.553451e+003
3.158959e+002, 3.552478e+003
3.163781e+002, 3.552100e+003
3.168602e+002, 3.553281e+003
3.173423e+002, 3.554656e+003
3.178244e+002, 3.555168e+003
3.183065e+002, 3.553786e+003
3.187886e+002, 3.552684e+003
3.192708e+002, 3.552273e+003
3.197529e+002, 3.552634e+003
3.202350e+002, 3.554012e+003
3.207171e+002, 3.556785e+003
3.211992e+002, 3.560292e+003
3.216813e+002, 3.564464e+003
3.221635e+002, 3.570185e+003
3.226456e+002, 3.574368e+003
3.231277e+002, 3.574946e+003
3.236098e+002, 3.573790e+003
3.240919e+002, 3.574050e+003
3.245740e+002, 3.576252e+003
3.250562e+002, 3.579860e+003
3.255383e+002, 3.585446e+003
3.260204e+002, 3.594092e+003
3.265025e+002, 3.600325e+003
3.269846e+002, 3.602505e+003
3.274667e+002, 3.602680e+003
3.279489e+002, 3.603050e+003
3.284310e+002, 3.602936e+003
3.289131e+002, 3.603946e+003
3.293952e+002, 3.607007e+003
3.298773e+002, 3.612231e+003
3.303594e+002, 3.615951e+003
3.308416e+002, 3.616729e+003
3.313237e+002, 3.617211e+003
3.318058e+002, 3.619346e+003
3.322879e+002, 3.624582e+003
3.327700e+002, 3.628927e+003
3.332521e+002, 3.631500e+003
3.337343e+002, 3.632832e+003
3.342164e+002, 3.635642e+003
3.346985e+002, 3.640386e+003
3.351806e+002, 3.645758e+003
3.356627e+002, 3.651167e+003
3.361448e+002, 3.656649e+003
3.366270e+002, 3.661749e+003
3.371091e+002, 3.666160e+003
3.375912e+002, 3.670339e+003
3.380733e+002, 3.675587e+003
3.385554e+002, 3.682428e+003
3.390375e+002, 3.688539e+003
3.395197e+002, 3.692826e+003
3.400018e+002, 3.695164e+003
3.404839e+002, 3.697570e+003
3.409660e+002, 3.700022e+003
3.414481e+002, 3.702487e+003
3.419302e+002, 3.704767e+003
3.424124e+002, 3.706839e+003
3.428945e+002, 3.709196e+003
3.433766e+002, 3.712328e+003
3.438587e+002, 3.715836e+003
3.443408e+002, 3.717768e+003
3.448229e+002, 3.717909e+003
3.453051e+002, 3.717799e+003
3.457872e+002, 3.719086e+003
3.462693e+002, 3.721508e+003
3.467514e+002, 3.723237e+003
3.472335e+002, 3.723599e+003
3.477156e+002, 3.723501e+003
3.481978e+002, 3.724897e+003
3.486799e+002, 3.727704e+003
3.491620e+002, 3.730528e+003
3.496441e+002, 3.732047e+003
3.501262e+002, 3.732966e+003
3.506083e+002, 3.735055e+003
3.510905e+002, 3.738766e+003
3.515726e+002, 3.742947e+003
3.520547e+002, 3.746365e+003
3.525368e+002, 3.749161e+003
3.530189e+002, 3.751765e+003
3.535010e+002, 3.753583e+003
3.539832e+002, 3.755683e+003
3.544653e+002, 3.759728e+003
3.549474e+002, 3.765876e+003
3.554295e+002, 3.772105e+003
3.559116e+002, 3.776137e+003
3.563937e+002, 3.779379e+003
3.568759e+002, 3.783900e+003
3.573580e+002, 3.792563e+003
3.578401e+002, 3.801039e+003
3.583222e+002, 3.805694e+003
3.588043e+002, 3.807167e+003
3.592864e+002, 3.808997e+003
3.597686e+002, 3.812917e+003
3.602507e+002, 3.818114e+003
3.607328e+002, 3.823879e+003
3.612149e+002, 3.830165e+003
3.616970e+002, 3.836832e+003
3.621791e+002, 3.844360e+003
3.626613e+002, 3.852192e+003
3.631434e+002, 3.859087e+003
3.636255e+002, 3.863648e+003
3.641076e+002, 3.867907e+003
3.645897e+002, 3.872757e+003
3.650718e+002, 3.878194e+003
3.655540e+002, 3.884173e+003
3.660361e+002, 3.891117e+003
3.665182e+002, 3.898454e+003
3.670003e+002, 3.905508e+003
3.674824e+002, 3.912288e+003
3.679645e+002, 3.918770e+003
3.684467e+002, 3.924989e+003
3.689288e+002, 3.930881e+003
3.694109e+002, 3.936770e+003
3.698930e+002, 3.942704e+003
3.703751e+002, 3.948724e+003
3.708572e+002, 3.954996e+003
3.713394e+002, 3.962462e+003
3.718215e+002, 3.968561e+003
3.723036e+002, 3.972828e+003
3.727857e+002, 3.975594e+003
3.732678e+002, 3.978380e+003
3.737499e+002, 3.982310e+003
3.742321e+002, 3.984191e+003
3.747142e+002, 3.981576e+003
3.751963e+002, 3.972472e+003
3.756784e+002, 3.967602e+003
3.761605e+002, 3.968629e+003
3.766426e+002, 3.971722e+003
3.771248e+002, 3.970541e+003
3.776069e+002, 3.964284e+003
3.780890e+002, 3.958487e+003
3.785711e+002, 3.955315e+003
3.790532e+002, 3.954287e+003
3.795353e+002, 3.951827e+003
3.800175e+002, 3.947633e+003
3.804996e+002, 3.943477e+003
3.809817e+002, 3.941109e+003
3.814638e+002, 3.940386e+003
3.819459e+002, 3.940078e+003
3.824280e+002, 3.940118e+003
3.829102e+002, 3.940176e+003
3.833923e+002, 3.938952e+003
3.838744e+002, 3.936638e+003
3.843565e+002, 3.935609e+003
3.848386e+002, 3.939067e+003
3.853207e+002, 3.944604e+003
3.858029e+002, 3.946614e+003
3.862850e+002, 3.943993e+003
3.867671e+002, 3.940851e+003
3.872492e+002, 3.941712e+003
3.877313e+002, 3.945296e+003
3.882134e+002, 3.948688e+003
3.886956e+002, 3.950333e+003
3.891777e+002, 3.951349e+003
3.896598e+002, 3.952805e+003
3.901419e+002, 3.954712e+003
3.906240e+002, 3.956532e+003
3.911061e+002, 3.958270e+003
3.915883e+002, 3.959708e+003
3.920704e+002, 3.960585e+003
3.925525e+002, 3.960469e+003
3.930346e+002, 3.960386e+003
3.935167e+002, 3.960717e+003
3.939988e+002, 3.961463e+003
3.944810e+002, 3.962587e+003
3.949631e+002, 3.963867e+003
3.954452e+002, 3.965688e+003
3.959273e+002, 3.968320e+003
3.964094e+002, 3.971996e+003
3.968915e+002, 3.975814e+003
3.973737e+002, 3.979016e+003
3.978558e+002, 3.982410e+003
3.983379e+002, 3.986991e+003
3.988200e+002, 3.995052e+003
3.993021e+002, 4.001837e+003
3.997842e+002, 4.005384e+003
4.002664e+002, 4.005676e+003
4.007485e+002, 4.008705e+003
4.012306e+002, 4.016134e+003
4.017127e+002, 4.024535e+003
4.021948e+002, 4.031824e+003
4.026769e+002, 4.037911e+003
4.031591e+002, 4.042921e+003
4.036412e+002, 4.046545e+003
4.041233e+002, 4.049202e+003
4.046054e+002, 4.051963e+003
4.050875e+002, 4.054734e+003
4.055696e+002, 4.057862e+003
4.060518e+002, 4.061684e+003
4.065339e+002, 4.066270e+003
4.070160e+002, 4.070292e+003
4.074981e+002, 4.073546e+003
4.079802e+002, 4.076919e+003
4.084623e+002, 4.081383e+003
4.089445e+002, 4.087000e+003
4.094266e+002, 4.093517e+003
4.099087e+002, 4.101334e+003
4.103908e+002, 4.109728e+003
4.108729e+002, 4.116565e+003
4.113550e+002, 4.121966e+003
4.118372e+002, 4.127525e+003
4.123193e+002, 4.134717e+003
4.128014e+002, 4.142959e+003
4.132835e+002, 4.150796e+003
4.137656e+002, 4.157930e+003
4.142477e+002, 4.165184e+003
4.147299e+002, 4.172810e+003
4.152120e+002, 4.181116e+003
4.156941e+002, 4.190683e+003
4.161762e+002, 4.203133e+003
4.166583e+002, 4.216058e+003
4.171404e+002, 4.226626e+003
4.176226e+002, 4.234939e+003
4.181047e+002, 4.244210e+003
4.185868e+002, 4.256605e+003
4.190689e+002, 4.270685e+003
4.195510e+002, 4.285260e+003
4.200331e+002, 4.299324e+003
4.205153e+002, 4.314594e+003
4.209974e+002, 4.331696e+003
4.214795e+002, 4.350444e+003
4.219616e+002, 4.369690e+003
4.224437e+002, 4.390865e+003
4.229258e+002, 4.411383e+003
4.234080e+002, 4.430313e+003
4.238901e+002, 4.447900e+003
4.243722e+002, 4.463810e+003
4.248543e+002, 4.478343e+003
4.253364e+002, 4.491173e+003
4.258185e+002, 4.501930e+003
4.263007e+002, 4.511120e+003
4.267828e+002, 4.517759e+003
4.272649e+002, 4.521801e+003
4.277470e+002, 4.523215e+003
4.282291e+002, 4.521528e+003
4.287112e+002, 4.515716e+003
4.291934e+002, 4.508494e+003
4.296755e+002, 4.500969e+003
4.301576e+002, 4.493010e+003
4.306397e+002, 4.485000e+003
4.311218e+002, 4.476202e+003
4.316039e+002, 4.468482e+003
4.320861e+002, 4.464503e+003
4.325682e+002, 4.464322e+003
4.330503e+002, 4.467710e+003
4.335324e+002, 4.475586e+003
4.340145e+002, 4.486814e+003
4.344966e+002, 4.497273e+003
4.349788e+002, 4.506956e+003
4.354609e+002, 4.517321e+003
4.359430e+002, 4.529200e+003
4.364251e+002, 4.542889e+003
4.369072e+002, 4.559715e+003
4.373893e+002, 4.581309e+003
4.378715e+002, 4.602875e+003
4.383536e+002, 4.618783e+003
4.388357e+002, 4.630171e+003
4.393178e+002, 4.640203e+003
4.397999e+002, 4.652552e+003
4.402820e+002, 4.662942e+003
4.407642e+002, 4.668227e+003
4.412463e+002, 4.668219e+003
4.417284e+002, 4.661342e+003
4.422105e+002, 4.642140e+003
4.426926e+002, 4.617672e+003
4.431747e+002, 4.594729e+003
4.436569e+002, 4.576524e+003
4.441390e+002, 4.558221e+003
4.446211e+002, 4.538136e+003
4.451032e+002, 4.516776e+003
4.455853e+002, 4.496286e+003
4.460674e+002, 4.475195e+003
4.465496e+002, 4.456581e+003
4.470317e+002, 4.442028e+003
4.475138e+002, 4.432739e+003
4.479959e+002, 4.423917e+003
4.484780e+002, 4.415014e+003
4.489601e+002, 4.407098e+003
4.494423e+002, 4.401024e+003
4.499244e+002, 4.396817e+003
4.504065e+002, 4.394772e+003
4.508886e+002, 4.395228e+003
4.513707e+002, 4.397887e+003
4.518528e+002, 4.401566e+003
4.523350e+002, 4.406314e+003
4.528171e+002, 4.411871e+003
4.532992e+002, 4.418028e+003
4.537813e+002, 4.424751e+003
4.542634e+002, 4.432554e+003
4.547455e+002, 4.441413e+003
4.552277e+002, 4.451319e+003
4.557098e+002, 4.462530e+003
4.561919e+002, 4.474860e+003
4.566740e+002, 4.488256e+003
4.571561e+002, 4.503064e+003
4.576382e+002, 4.518286e+003
4.581204e+002, 4.532002e+003
4.586025e+002, 4.544372e+003
4.590846e+002, 4.555457e+003
4.595667e+002, 4.564537e+003
4.600488e+002, 4.572893e+003
4.605309e+002, 4.582529e+003
4.610131e+002, 4.594073e+003
4.614952e+002, 4.605319e+003
4.619773e+002, 4.613808e+003
4.624594e+002, 4.621085e+003
4.629415e+002, 4.629521e+003
4.634236e+002, 4.639733e+003
4.639058e+002, 4.651392e+003
4.643879e+002, 4.664366e+003
4.648700e+002, 4.678560e+003
4.653521e+002, 4.694550e+003
4.658342e+002, 4.713774e+003
4.663163e+002, 4.733999e+003
4.667985e+002, 4.754149e+003
4.672806e+002, 4.774662e+003
4.677627e+002, 4.794008e+003
4.682448e+002, 4.812905e+003
4.687269e+002, 4.830106e+003
4.692090e+002, 4.844438e+003
4.696912e+002, 4.857817e+003
4.701733e+002, 4.865038e+003
4.706554e+002, 4.864920e+003
4.711375e+002, 4.857591e+003
4.716196e+002, 4.843842e+003
4.721017e+002, 4.822752e+003
4.725839e+002, 4.797715e+003
4.730660e+002, 4.769288e+003
4.735481e+002, 4.737553e+003
4.740302e+002, 4.707554e+003
4.745123e+002, 4.679798e+003
4.749944e+002, 4.653701e+003
4.754766e+002, 4.628028e+003
4.759587e+002, 4.603083e+003
4.764408e+002, 4.580441e+003
4.769229e+002, 4.560754e+003
4.774050e+002, 4.544081e+003
4.778871e+002, 4.531252e+003
4.783693e+002, 4.522092e+003
4.788514e+002, 4.514669e+003
4.793335e+002, 4.506929e+003
4.798156e+002, 4.500452e+003
4.802977e+002, 4.497799e+003
4.807798e+002, 4.500508e+003
4.812620e+002, 4.503166e+003
4.817441e+002, 4.501376e+003
4.822262e+002, 4.497736e+003
4.827083e+002, 4.496096e+003
4.831904e+002, 4.499801e+003
4.836725e+002, 4.503572e+003
4.841547e+002, 4.504934e+003
4.846368e+002, 4.504039e+003
4.851189e+002, 4.504280e+003
4.856010e+002, 4.507253e+003
4.860831e+002, 4.510531e+003
4.865652e+002, 4.512729e+003
4.870474e+002, 4.512599e+003
4.875295e+002, 4.514141e+003
4.880116e+002, 4.518271e+003
4.884937e+002, 4.523370e+003
4.889758e+002, 4.527206e+003
4.894579e+002, 4.529528e+003
4.899401e+002, 4.531404e+003
4.904222e+002, 4.533141e+003
4.909043e+002, 4.534638e+003
4.913864e+002, 4.535097e+003
4.918685e+002, 4.534274e+003
4.923506e+002, 4.534142e+003
4.928328e+002, 4.536875e+003
4.933149e+002, 4.541664e+003
4.937970e+002, 4.544533e+003
4.942791e+002, 4.544939e+003
4.947612e+002, 4.544871e+003
4.952433e+002, 4.547196e+003
4.957255e+002, 4.550917e+003
4.962076e+002, 4.553427e+003
4.966897e+002, 4.553031e+003
4.971718e+002, 4.551836e+003
4.976539e+002, 4.551174e+003
4.981360e+002, 4.551265e+003
4.986182e+002, 4.552920e+003
4.991003e+002, 4.558180e+003
4.995824e+002, 4.564074e+003
5.000645e+002, 4.567938e+003
5.005466e+002, 4.568714e+003
5.010287e+002, 4.571161e+003
5.015109e+002, 4.578192e+003
5.019930e+002, 4.586824e+003
5.024751e+002, 4.593992e+003
5.029572e+002, 4.598040e+003
5.034393e+002, 4.602038e+003
5.039214e+002, 4.606385e+003
5.044036e+002, 4.610868e+003
5.048857e+002, 4.614890e+003
5.053678e+002, 4.618495e+003
5.058499e+002, 4.621657e+003
5.063320e+002, 4.624401e+003
5.068141e+002, 4.626756e+003
5.072963e+002, 4.628602e+003
5.077784e+002, 4.629990e+003
5.082605e+002, 4.630845e+003
5.087426e+002, 4.631054e+003
5.092247e+002, 4.630633e+003
5.097068e+002, 4.629788e+003
5.101890e+002, 4.628418e+003
5.106711e+002, 4.626852e+003
5.111532e+002, 4.625264e+003
5.116353e+002, 4.623808e+003
5.121174e+002, 4.623354e+003
5.125995e+002, 4.623946e+003
5.130817e+002, 4.625943e+003
5.135638e+002, 4.630900e+003
5.140459e+002, 4.638616e+003
5.145280e+002, 4.644923e+003
5.150101e+002, 4.645959e+003
5.154922e+002, 4.645023e+003
5.159744e+002, 4.645111e+003
5.164565e+002, 4.646904e+003
5.169386e+002, 4.649779e+003
5.174207e+002, 4.654805e+003
5.179028e+002, 4.660593e+003
5.183849e+002, 4.664835e+003
5.188671e+002, 4.665728e+003
5.193492e+002, 4.666574e+003
5.198313e+002, 4.667808e+003
5.203134e+002, 4.669447e+003
5.207955e+002, 4.672420e+003
5.212776e+002, 4.678308e+003
5.217598e+002, 4.683108e+003
5.222419e+002, 4.683812e+003
5.227240e+002, 4.679133e+003
5.232061e+002, 4.677220e+003
5.236882e+002, 4.678659e+003
5.241703e+002, 4.681833e+003
5.246525e+002, 4.684474e+003
5.251346e+002, 4.686713e+003
5.256167e+002, 4.690580e+003
5.260988e+002, 4.697721e+003
5.265809e+002, 4.705550e+003
5.270630e+002, 4.707901e+003
5.275452e+002, 4.705890e+003
5.280273e+002, 4.705760e+003
5.285094e+002, 4.712356e+003
5.289915e+002, 4.722278e+003
5.294736e+002, 4.732036e+003
5.299557e+002, 4.741400e+003
5.304379e+002, 4.750619e+003
5.309200e+002, 4.759102e+003
5.314021e+002, 4.767908e+003
5.318842e+002, 4.778136e+003
5.323663e+002, 4.790577e+003
5.328484e+002, 4.803534e+003
5.333306e+002, 4.817320e+003
5.338127e+002, 4.831195e+003
5.342948e+002, 4.843252e+003
5.347769e+002, 4.850837e+003
5.352590e+002, 4.859678e+003
5.357411e+002, 4.871326e+003
5.362233e+002, 4.885679e+003
5.367054e+002, 4.900210e+003
5.371875e+002, 4.914693e+003
5.376696e+002, 4.929753e+003
5.381517e+002, 4.945604e+003
5.386339e+002, 4.962021e+003
5.391160e+002, 4.981224e+003
5.395981e+002, 5.003455e+003
5.400802e+002, 5.028065e+003
5.405623e+002, 5.055261e+003
5.410444e+002, 5.084751e+003
5.415266e+002, 5.115456e+003
5.420087e+002, 5.146790e+003
5.424908e+002, 5.179373e+003
5.429729e+002, 5.214630e+003
5.434550e+002, 5.251573e+003
5.439371e+002, 5.287490e+003
5.444193e+002, 5.323267e+003
5.449014e+002, 5.356021e+003
5.453835e+002, 5.385083e+003
5.458656e+002, 5.410632e+003
5.463477e+002, 5.426309e+003
5.468298e+002, 5.429115e+003
5.473120e+002, 5.421234e+003
5.477941e+002, 5.404493e+003
5.482762e+002, 5.376170e+003
5.487583e+002, 5.342911e+003
5.492404e+002, 5.303067e+003
5.497225e+002, 5.259219e+003
5.502047e+002, 5.215194e+003
5.506868e+002, 5.169110e+003
5.511689e+002, 5.126283e+003
5.516510e+002, 5.088242e+003
5.521331e+002, 5.054765e+003
5.526152e+002, 5.025905e+003
5.530974e+002, 5.002110e+003
5.535795e+002, 4.981041e+003
5.540616e+002, 4.960923e+003
5.545437e+002, 4.942186e+003
5.550258e+002, 4.927354e+003
5.555079e+002, 4.916791e+003
5.559901e+002, 4.908721e+003
5.564722e+002, 4.901437e+003
5.569543e+002, 4.895151e+003
5.574364e+002, 4.890297e+003
5.579185e+002, 4.887157e+003
5.584006e+002, 4.885182e+003
5.588828e+002, 4.883599e+003
5.593649e+002, 4.882726e+003
5.598470e+002, 4.883317e+003
5.603291e+002, 4.886977e+003
5.608112e+002, 4.890771e+003
5.612933e+002, 4.893533e+003
5.617755e+002, 4.895113e+003
5.622576e+002, 4.895694e+003
5.627397e+002, 4.893573e+003
5.632218e+002, 4.891722e+003
5.637039e+002, 4.891782e+003
5.641860e+002, 4.895075e+003
5.646682e+002, 4.896846e+003
5.651503e+002, 4.896713e+003
5.656324e+002, 4.895708e+003
5.661145e+002, 4.894956e+003
5.665966e+002, 4.894470e+003
5.670787e+002, 4.894898e+003
5.675609e+002, 4.896523e+003
5.680430e+002, 4.899188e+003
5.685251e+002, 4.903354e+003
5.690072e+002, 4.908740e+003
5.694893e+002, 4.912468e+003
5.699714e+002, 4.911306e+003
5.704536e+002, 4.908358e+003
5.709357e+002, 4.908490e+003
5.714178e+002, 4.911568e+003
5.718999e+002, 4.914350e+003
5.723820e+002, 4.913163e+003
5.728641e+002, 4.911543e+003
5.733463e+002, 4.912832e+003
5.738284e+002, 4.918591e+003
5.743105e+002, 4.924478e+003
5.747926e+002, 4.930000e+003
5.752747e+002, 4.934575e+003
5.757568e+002, 4.937407e+003
5.762390e+002, 4.936050e+003
5.767211e+002, 4.936103e+003
5.772032e+002, 4.938461e+003
5.776853e+002, 4.942654e+003
5.781674e+002, 4.947341e+003
5.786495e+002, 4.953179e+003
5.791317e+002, 4.957589e+003
5.796138e+002, 4.958680e+003
5.800959e+002, 4.957106e+003
5.805780e+002, 4.958842e+003
5.810601e+002, 4.964250e+003
5.815422e+002, 4.969445e+003
5.820244e+002, 4.970657e+003
5.825065e+002, 4.969228e+003
5.829886e+002, 4.968160e+003
5.834707e+002, 4.967708e+003
5.839528e+002, 4.968483e+003
5.844349e+002, 4.971225e+003
5.849171e+002, 4.975497e+003
5.853992e+002, 4.980682e+003
5.858813e+002, 4.989234e+003
5.863634e+002, 4.995721e+003
5.868455e+002, 4.996144e+003
5.873276e+002, 4.992568e+003
5.878098e+002, 4.990656e+003
5.882919e+002, 4.992318e+003
5.887740e+002, 4.994878e+003
5.892561e+002, 4.997501e+003
5.897382e+002, 5.000150e+003
5.902203e+002, 5.003744e+003
5.907025e+002, 5.008970e+003
5.911846e+002, 5.013802e+003
5.916667e+002, 5.016803e+003
5.921488e+002, 5.017877e+003
5.926309e+002, 5.018839e+003
5.931130e+002, 5.019866e+003
5.935952e+002, 5.020554e+003
5.940773e+002, 5.019778e+003
5.945594e+002, 5.018151e+003
5.950415e+002, 5.018085e+003
5.955236e+002, 5.020711e+003
5.960057e+002, 5.024267e+003
5.964879e+002, 5.027082e+003
5.969700e+002, 5.029300e+003
5.974521e+002, 5.031185e+003
5.979342e+002, 5.032249e+003
5.984163e+002, 5.033546e+003
5.988984e+002, 5.036011e+003
5.993806e+002, 5.039469e+003
5.998627e+002, 5.042183e+003
6.003448e+002, 5.042365e+003
6.008269e+002, 5.042857e+003
6.013090e+002, 5.045165e+003
6.017911e+002, 5.049924e+003
6.022733e+002, 5.053927e+003
6.027554e+002, 5.057146e+003
6.032375e+002, 5.059614e+003
6.037196e+002, 5.060891e+003
6.042017e+002, 5.060751e+003
6.046838e+002, 5.062024e+003
6.051660e+002, 5.065173e+003
6.056481e+002, 5.069632e+003
6.061302e+002, 5.075512e+003
6.066123e+002, 5.082217e+003
6.070944e+002, 5.086725e+003
6.075765e+002, 5.085878e+003
6.080587e+002, 5.084343e+003
6.085408e+002, 5.088538e+003
6.090229e+002, 5.096921e+003
6.095050e+002, 5.104190e+003
6.099871e+002, 5.106223e+003
6.104692e+002, 5.107263e+003
6.109514e+002, 5.109884e+003
6.114335e+002, 5.114347e+003
6.119156e+002, 5.118515e+003
6.123977e+002, 5.122400e+003
6.128798e+002, 5.125458e+003
6.133619e+002, 5.127187e+003
6.138441e+002, 5.126513e+003
6.143262e+002, 5.127357e+003
6.148083e+002, 5.130456e+003
6.152904e+002, 5.134163e+003
6.157725e+002, 5.135896e+003
6.162546e+002, 5.135483e+003
6.167368e+002, 5.137110e+003
6.172189e+002, 5.142301e+003
6.177010e+002, 5.148831e+003
6.181831e+002, 5.152299e+003
6.186652e+002, 5.153424e+003
6.191473e+002, 5.155055e+003
6.196295e+002, 5.159106e+003
6.201116e+002, 5.163956e+003
6.205937e+002, 5.167977e+003
6.210758e+002, 5.171289e+003
6.215579e+002, 5.174671e+003
6.220400e+002, 5.178442e+003
6.225222e+002, 5.182321e+003
6.230043e+002, 5.185658e+003
6.234864e+002, 5.187878e+003
6.239685e+002, 5.192589e+003
6.244506e+002, 5.202909e+003
6.249327e+002, 5.213472e+003
6.254149e+002, 5.220602e+003
6.258970e+002, 5.222854e+003
6.263791e+002, 5.225833e+003
6.268612e+002, 5.229929e+003
6.273433e+002, 5.234431e+003
6.278254e+002, 5.237735e+003
6.283076e+002, 5.239984e+003
6.287897e+002, 5.244703e+003
6.292718e+002, 5.253876e+003
6.297539e+002, 5.264171e+003
6.302360e+002, 5.268739e+003
6.307181e+002, 5.269623e+003
6.312003e+002, 5.273216e+003
6.316824e+002, 5.286015e+003
6.321645e+002, 5.300266e+003
6.326466e+002, 5.309228e+003
6.331287e+002, 5.313764e+003
6.336108e+002, 5.319604e+003
6.340930e+002, 5.330357e+003
6.345751e+002, 5.341647e+003
6.350572e+002, 5.351044e+003
6.355393e+002, 5.358019e+003
6.360214e+002, 5.365670e+003
6.365035e+002, 5.375174e+003
6.369857e+002, 5.383884e+003
6.374678e+002, 5.390328e+003
6.379499e+002, 5.394864e+003
6.384320e+002, 5.393685e+003
6.389141e+002, 5.385519e+003
6.393962e+002, 5.374533e+003
6.398784e+002, 5.366023e+003
6.403605e+002, 5.359543e+003
6.408426e+002, 5.352802e+003
6.413247e+002, 5.345178e+003
6.418068e+002, 5.337239e+003
6.422889e+002, 5.328136e+003
6.427711e+002, 5.319225e+003
6.432532e+002, 5.313307e+003
6.437353e+002, 5.314915e+003
6.442174e+002, 5.316822e+003
6.446995e+002, 5.314854e+003
6.451816e+002, 5.309713e+003
6.456638e+002, 5.306595e+003
6.461459e+002, 5.307697e+003
6.466280e+002, 5.309515e+003
6.471101e+002, 5.311070e+003
6.475922e+002, 5.312329e+003
6.480743e+002, 5.312964e+003
6.485565e+002, 5.312447e+003
6.490386e+002, 5.312492e+003
6.495207e+002, 5.314806e+003
6.500028e+002, 5.319035e+003
6.504849e+002, 5.322311e+003
6.509670e+002, 5.324214e+003
6.514492e+002, 5.326153e+003
6.519313e+002, 5.330275e+003
6.524134e+002, 5.335358e+003
6.528955e+002, 5.339179e+003
6.533776e+002, 5.341496e+003
6.538597e+002, 5.341963e+003
6.543419e+002, 5.338700e+003
6.548240e+002, 5.333929e+003
6.553061e+002, 5.331096e+003
6.557882e+002, 5.332243e+003
6.562703e+002, 5.334321e+003
6.567524e+002, 5.337042e+003
6.572346e+002, 5.340330e+003
6.577167e+002, 5.344058e+003
6.581988e+002, 5.348964e+003
6.586809e+002, 5.352713e+003
6.591630e+002, 5.353890e+003
6.596451e+002, 5.353188e+003
6.601273e+002, 5.354821e+003
6.606094e+002, 5.358844e+003
6.610915e+002, 5.363618e+003
6.615736e+002, 5.368351e+003
6.620557e+002, 5.372913e+003
6.625378e+002, 5.377159e+003
6.630200e+002, 5.381026e+003
6.635021e+002, 5.384317e+003
6.639842e+002, 5.386667e+003
6.644663e+002, 5.388454e+003
6.649484e+002, 5.389963e+003
6.654305e+002, 5.391150e+003
6.659127e+002, 5.392407e+003
6.663948e+002, 5.394262e+003
6.668769e+002, 5.396074e+003
6.673590e+002, 5.397032e+003
6.678411e+002, 5.395672e+003
6.683232e+002, 5.397024e+003
6.688054e+002, 5.402941e+003
6.692875e+002, 5.410134e+003
6.697696e+002, 5.412104e+003
6.702517e+002, 5.408722e+003
6.707338e+002, 5.406079e+003
6.712159e+002, 5.406015e+003
6.716981e+002, 5.407531e+003
6.721802e+002, 5.409274e+003
6.726623e+002, 5.411177e+003
6.731444e+002, 5.413101e+003
6.736265e+002, 5.415095e+003
6.741086e+002, 5.416971e+003
6.745908e+002, 5.418336e+003
6.750729e+002, 5.419360e+003
6.755550e+002, 5.421044e+003
6.760371e+002, 5.425413e+003
6.765192e+002, 5.429048e+003
6.770013e+002, 5.429869e+003
6.774835e+002, 5.427442e+003
6.779656e+002, 5.427550e+003
6.784477e+002, 5.431005e+003
6.789298e+002, 5.435556e+003
6.794119e+002, 5.439639e+003
6.798940e+002, 5.443272e+003
6.803762e+002, 5.447508e+003
6.808583e+002, 5.452555e+003
6.813404e+002, 5.457104e+003
6.818225e+002, 5.459789e+003
6.823046e+002, 5.460979e+003
6.827867e+002, 5.461118e+003
6.832689e+002, 5.459634e+003
6.837510e+002, 5.459375e+003
6.842331e+002, 5.463841e+003
6.847152e+002, 5.470292e+003
6.851973e+002, 5.475146e+003
6.856794e+002, 5.475660e+003
6.861616e+002, 5.476792e+003
6.866437e+002, 5.479593e+003
6.871258e+002, 5.483573e+003
6.876079e+002, 5.488128e+003
6.880900e+002, 5.493992e+003
6.885721e+002, 5.498240e+003
6.890543e+002, 5.499592e+003
6.895364e+002, 5.499125e+003
6.900185e+002, 5.500122e+003
6.905006e+002, 5.502493e+003
6.909827e+002, 5.504912e+003
6.914648e+002, 5.506695e+003
6.919470e+002, 5.508066e+003
6.924291e+002, 5.509406e+003
6.929112e+002, 5.510697e+003
6.933933e+002, 5.511883e+003
6.938754e+002, 5.513174e+003
6.943575e+002, 5.514234e+003
6.948397e+002, 5.514303e+003
6.953218e+002, 5.513177e+003
6.958039e+002, 5.514290e+003
6.962860e+002, 5.520813e+003
6.967681e+002, 5.527237e+003
6.972502e+002, 5.530602e+003
6.977324e+002, 5.530042e+003
6.982145e+002, 5.531010e+003
6.986966e+002, 5.533815e+003
6.991787e+002, 5.537377e+003
6.996608e+002, 5.540886e+003
7.001429e+002, 5.544253e+003
7.006251e+002, 5.547167e+003
7.011072e+002, 5.549500e+003
7.015893e+002, 5.551595e+003
7.020714e+002, 5.553164e+003
7.025535e+002, 5.554827e+003
7.030356e+002, 5.557554e+003
7.035178e+002, 5.561835e+003
7.039999e+002, 5.566642e+003
7.044820e+002, 5.572577e+003
7.049641e+002, 5.578439e+003
7.054462e+002, 5.582324e+003
7.059283e+002, 5.581723e+003
7.064105e+002, 5.583288e+003
7.068926e+002, 5.589400e+003
7.073747e+002, 5.597286e+003
7.078568e+002, 5.599396e+003
7.083389e+002, 5.595226e+003
7.088210e+002, 5.592730e+003
7.093032e+002, 5.595162e+003
7.097853e+002, 5.600469e+003
7.102674e+002, 5.605343e+003
7.107495e+002, 5.609632e+003
7.112316e+002, 5.612458e+003
7.117137e+002, 5.611110e+003
7.121959e+002, 5.609948e+003
7.126780e+002, 5.612854e+003
7.131601e+002, 5.619294e+003
7.136422e+002, 5.624788e+003
7.141243e+002, 5.627356e+003
7.146064e+002, 5.629453e+003
7.150886e+002, 5.632368e+003
7.155707e+002, 5.636195e+003
7.160528e+002, 5.638005e+003
7.165349e+002, 5.637040e+003
7.170170e+002, 5.636091e+003
7.174991e+002, 5.636874e+003
7.179813e+002, 5.639281e+003
7.184634e+002, 5.642839e+003
7.189455e+002, 5.647604e+003
7.194276e+002, 5.652102e+003
7.199097e+002, 5.654437e+003
7.203918e+002, 5.656010e+003
7.208740e+002, 5.658790e+003
7.213561e+002, 5.663280e+003
7.218382e+002, 5.667647e+003
7.223203e+002, 5.670614e+003
7.228024e+002, 5.673279e+003
7.232845e+002, 5.676698e+003
7.237667e+002, 5.682225e+003
7.242488e+002, 5.686026e+003
7.247309e+002, 5.686878e+003
7.252130e+002, 5.687280e+003
7.256951e+002, 5.690377e+003
7.261772e+002, 5.696335e+003
7.266594e+002, 5.702703e+003
7.271415e+002, 5.709642e+003
7.276236e+002, 5.715123e+003
7.281057e+002, 5.714717e+003
7.285878e+002, 5.710612e+003
7.290699e+002, 5.708612e+003
7.295521e+002, 5.711922e+003
7.300342e+002, 5.715869e+003
7.305163e+002, 5.716953e+003
7.309984e+002, 5.716594e+003
7.314805e+002, 5.717308e+003
7.319626e+002, 5.721250e+003
7.324448e+002, 5.724479e+003
7.329269e+002, 5.725610e+003
7.334090e+002, 5.725739e+003
7.338911e+002, 5.728267e+003
7.343732e+002, 5.734106e+003
7.348553e+002, 5.738358e+003
7.353375e+002, 5.738609e+003
7.358196e+002, 5.736967e+003
7.363017e+002, 5.739568e+003
7.367838e+002, 5.745719e+003
7.372659e+002, 5.751178e+003
7.377480e+002, 5.752833e+003
7.382302e+002, 5.753311e+003
7.387123e+002, 5.755704e+003
7.391944e+002, 5.759367e+003
7.396765e+002, 5.761039e+003
7.401586e+002, 5.756145e+003
7.406407e+002, 5.752179e+003
7.411229e+002, 5.753668e+003
7.416050e+002, 5.760260e+003
7.420871e+002, 5.762961e+003
7.425692e+002, 5.759834e+003
7.430513e+002, 5.757467e+003
7.435334e+002, 5.759881e+003
7.440156e+002, 5.766438e+003
7.444977e+002, 5.771604e+003
7.449798e+002, 5.775414e+003
7.454619e+002, 5.778675e+003
7.459440e+002, 5.781302e+003
7.464261e+002, 5.784056e+003
7.469083e+002, 5.788625e+003
7.473904e+002, 5.795180e+003
7.478725e+002, 5.800001e+003
7.483546e+002, 5.799519e+003
7.488367e+002, 5.797888e+003
7.493188e+002, 5.797551e+003
7.498010e+002, 5.798327e+003
7.502831e+002, 5.802002e+003
7.507652e+002, 5.811282e+003
7.512473e+002, 5.819165e+003
7.517294e+002, 5.818709e+003
7.522115e+002, 5.810065e+003
7.526937e+002, 5.804966e+003
7.531758e+002, 5.804314e+003
7.536579e+002, 5.805888e+003
7.541400e+002, 5.808736e+003
7.546221e+002, 5.811921e+003
7.551042e+002, 5.813806e+003
7.555864e+002, 5.813899e+003
7.560685e+002, 5.813712e+003
7.565506e+002, 5.814214e+003
7.570327e+002, 5.814852e+003
7.575148e+002, 5.815042e+003
7.579969e+002, 5.814044e+003
7.584791e+002, 5.813750e+003
7.589612e+002, 5.814476e+003
7.594433e+002, 5.815501e+003
7.599254e+002, 5.814784e+003
7.604075e+002, 5.811979e+003
7.608896e+002, 5.815320e+003
7.613718e+002, 5.827681e+003
7.618539e+002, 5.841057e+003
7.623360e+002, 5.844034e+003
7.628181e+002, 5.840200e+003
7.633002e+002, 5.837035e+003
7.637823e+002, 5.836925e+003
7.642645e+002, 5.837662e+003
7.647466e+002, 5.837733e+003
7.652287e+002, 5.838002e+003
7.657108e+002, 5.839810e+003
7.661929e+002, 5.846323e+003
7.666750e+002, 5.850239e+003
7.671572e+002, 5.850132e+003
7.676393e+002, 5.847821e+003
7.681214e+002, 5.846695e+003
7.686035e+002, 5.846881e+003
7.690856e+002, 5.846355e+003
7.695677e+002, 5.843971e+003
7.700499e+002, 5.841736e+003
7.705320e+002, 5.842929e+003
7.710141e+002, 5.846753e+003
7.714962e+002, 5.851251e+003
7.719783e+002, 5.857579e+003
7.724604e+002, 5.862178e+003
7.729426e+002, 5.861893e+003
7.734247e+002, 5.858540e+003
7.739068e+002, 5.856374e+003
7.743889e+002, 5.856684e+003
7.748710e+002, 5.857069e+003
7.753531e+002, 5.856942e+003
7.758353e+002, 5.856750e+003
7.763174e+002, 5.858120e+003
7.767995e+002, 5.861193e+003
7.772816e+002, 5.863615e+003
7.777637e+002, 5.864326e+003
7.782458e+002, 5.864221e+003
7.787280e+002, 5.864703e+003
7.792101e+002, 5.865664e+003
7.796922e+002, 5.866658e+003
7.801743e+002, 5.867086e+003
7.806564e+002, 5.867911e+003
7.811385e+002, 5.869976e+003
7.816207e+002, 5.872954e+003
7.821028e+002, 5.875313e+003
7.825849e+002, 5.876613e+003
7.830670e+002, 5.877690e+003
7.835491e+002, 5.878188e+003
7.840313e+002, 5.878677e+003
7.845134e+002, 5.882677e+003
7.849955e+002, 5.890253e+003
7.854776e+002, 5.895229e+003
7.859597e+002, 5.892667e+003
7.864418e+002, 5.887216e+003
7.869240e+002, 5.886445e+003
7.874061e+002, 5.889299e+003
7.878882e+002, 5.891977e+003
7.883703e+002, 5.891432e+003
7.888524e+002, 5.891311e+003
7.893345e+002, 5.894448e+003
7.898167e+002, 5.900226e+003
7.902988e+002, 5.902957e+003
7.907809e+002, 5.900734e+003
7.912630e+002, 5.899081e+003
7.917451e+002, 5.900298e+003
7.922272e+002, 5.903554e+003
7.927094e+002, 5.904788e+003
7.931915e+002, 5.904101e+003
7.936736e+002, 5.903859e+003
7.941557e+002, 5.906689e+003
7.946378e+002, 5.909935e+003
7.951199e+002, 5.909647e+003
7.956021e+002, 5.906513e+003
7.960842e+002, 5.903737e+003
7.965663e+002, 5.901994e+003
7.970484e+002, 5.901587e+003
7.975305e+002, 5.903611e+003
7.980126e+002, 5.907567e+003
7.984948e+002, 5.909222e+003
7.989769e+002, 5.907300e+003
7.994590e+002, 5.906270e+003
7.999411e+002, 5.908442e+003
8.004232e+002, 5.912903e+003
8.009053e+002, 5.915720e+003
8.013875e+002, 5.917117e+003
8.018696e+002, 5.919096e+003
8.023517e+002, 5.924348e+003
8.028338e+002, 5.929746e+003
8.033159e+002, 5.931102e+003
8.037980e+002, 5.929258e+003
8.042802e+002, 5.929519e+003
8.047623e+002, 5.936849e+003
8.052444e+002, 5.942970e+003
8.057265e+002, 5.943452e+003
8.062086e+002, 5.939330e+003
8.066907e+002, 5.940993e+003
8.071729e+002, 5.949820e+003
8.076550e+002, 5.958226e+003
8.081371e+002, 5.962908e+003
8.086192e+002, 5.964455e+003
8.091013e+002, 5.963733e+003
8.095834e+002, 5.961081e+003
8.100656e+002, 5.958354e+003
8.105477e+002, 5.956829e+003
8.110298e+002, 5.955570e+003
8.115119e+002, 5.953325e+003
8.119940e+002, 5.950502e+003
8.124761e+002, 5.949943e+003
8.129583e+002, 5.953589e+003
8.134404e+002, 5.957954e+003
8.139225e+002, 5.962894e+003
8.144046e+002, 5.967843e+003
8.148867e+002, 5.968370e+003
8.153688e+002, 5.964206e+003
8.158510e+002, 5.961148e+003
8.163331e+002, 5.962930e+003
8.168152e+002, 5.967178e+003
8.172973e+002, 5.970176e+003
8.177794e+002, 5.972094e+003
8.182615e+002, 5.973762e+003
8.187437e+002, 5.973247e+003
8.192258e+002, 5.974686e+003
8.197079e+002, 5.982435e+003
8.201900e+002, 5.994888e+003
8.206721e+002, 6.000389e+003
8.211542e+002, 5.995701e+003
8.216364e+002, 5.991174e+003
8.221185e+002, 5.990539e+003
8.226006e+002, 5.992396e+003
8.230827e+002, 5.992083e+003
8.235648e+002, 5.989825e+003
8.240469e+002, 5.987116e+003
8.245291e+002, 5.984655e+003
8.250112e+002, 5.982319e+003
8.254933e+002, 5.979804e+003
8.259754e+002, 5.977354e+003
8.264575e+002, 5.975564e+003
8.269396e+002, 5.975256e+003
8.274218e+002, 5.975025e+003
8.279039e+002, 5.974416e+003
8.283860e+002, 5.973641e+003
8.288681e+002, 5.973532e+003
8.293502e+002, 5.974233e+003
8.298323e+002, 5.974520e+003
8.303145e+002, 5.973390e+003
8.307966e+002, 5.972265e+003
8.312787e+002, 5.974655e+003
8.317608e+002, 5.979456e+003
8.322429e+002, 5.983247e+003
8.327250e+002, 5.982917e+003
8.332072e+002, 5.982703e+003
8.336893e+002, 5.986323e+003
8.341714e+002, 5.991763e+003
8.346535e+002, 5.993305e+003
8.351356e+002, 5.987423e+003
8.356177e+002, 5.983776e+003
8.360999e+002, 5.984625e+003
8.365820e+002, 5.988146e+003
8.370641e+002, 5.989931e+003
8.375462e+002, 5.990234e+003
8.380283e+002, 5.992104e+003
8.385104e+002, 5.997253e+003
8.389926e+002, 6.002964e+003
8.394747e+002, 6.006370e+003
8.399568e+002, 6.008132e+003
8.404389e+002, 6.009461e+003
8.409210e+002, 6.009364e+003
8.414031e+002, 6.010479e+003
8.418853e+002, 6.014118e+003
8.423674e+002, 6.018798e+003
8.428495e+002, 6.022651e+003
8.433316e+002, 6.025687e+003
8.438137e+002, 6.027363e+003
8.442958e+002, 6.027240e+003
8.447780e+002, 6.026549e+003
8.452601e+002, 6.027105e+003
8.457422e+002, 6.028525e+003
8.462243e+002, 6.030125e+003
8.467064e+002, 6.032326e+003
8.471885e+002, 6.033148e+003
8.476707e+002, 6.030212e+003
8.481528e+002, 6.025887e+003
8.486349e+002, 6.022933e+003
8.491170e+002, 6.021740e+003
8.495991e+002, 6.022221e+003
8.500812e+002, 6.025497e+003
8.505634e+002, 6.028918e+003
8.510455e+002, 6.028619e+003
8.515276e+002, 6.025375e+003
8.520097e+002, 6.025326e+003
8.524918e+002, 6.029719e+003
8.529739e+002, 6.034316e+003
8.534561e+002, 6.034506e+003
8.539382e+002, 6.033119e+003
8.544203e+002, 6.033347e+003
8.549024e+002, 6.036185e+003
8.553845e+002, 6.039087e+003
8.558666e+002, 6.042131e+003
8.563488e+002, 6.044418e+003
8.568309e+002, 6.044699e+003
8.573130e+002, 6.042253e+003
8.577951e+002, 6.042823e+003
8.582772e+002, 6.046631e+003
8.587593e+002, 6.051243e+003
8.592415e+002, 6.055085e+003
8.597236e+002, 6.058006e+003
8.602057e+002, 6.059922e+003
8.606878e+002, 6.060799e+003
8.611699e+002, 6.060473e+003
8.616520e+002, 6.057583e+003
8.621342e+002, 6.054593e+003
8.626163e+002, 6.053211e+003
8.630984e+002, 6.053573e+003
8.635805e+002, 6.053628e+003
8.640626e+002, 6.053213e+003
8.645447e+002, 6.053420e+003
8.650269e+002, 6.056198e+003
8.655090e+002, 6.060077e+003
8.659911e+002, 6.058252e+003
8.664732e+002, 6.051711e+003
8.669553e+002, 6.046841e+003
8.674374e+002, 6.049755e+003
8.679196e+002, 6.053916e+003
8.684017e+002, 6.053620e+003
8.688838e+002, 6.049679e+003
8.693659e+002, 6.049853e+003
8.698480e+002, 6.058353e+003
8.703301e+002, 6.064431e+003
8.708123e+002, 6.063718e+003
8.712944e+002, 6.058819e+003
8.717765e+002, 6.059631e+003
8.722586e+002, 6.065513e+003
8.727407e+002, 6.070364e+003
8.732228e+002, 6.070556e+003
8.737050e+002, 6.069447e+003
8.741871e+002, 6.071247e+003
8.746692e+002, 6.074364e+003
8.751513e+002, 6.075343e+003
8.756334e+002, 6.071092e+003
8.761155e+002, 6.067171e+003
8.765977e+002, 6.063766e+003
8.770798e+002, 6.061866e+003
8.775619e+002, 6.064446e+003
8.780440e+002, 6.072095e+003
8.785261e+002, 6.075948e+003
8.790082e+002, 6.073404e+003
8.794904e+002, 6.068825e+003
8.799725e+002, 6.067471e+003
8.804546e+002, 6.068220e+003
8.809367e+002, 6.069205e+003
8.814188e+002, 6.070221e+003
8.819009e+002, 6.070662e+003
8.823831e+002, 6.069321e+003
8.828652e+002, 6.067874e+003
8.833473e+002, 6.068208e+003
8.838294e+002, 6.071128e+003
8.843115e+002, 6.072769e+003
8.847936e+002, 6.072915e+003
8.852758e+002, 6.072356e+003
8.857579e+002, 6.071212e+003
8.862400e+002, 6.070182e+003
8.867221e+002, 6.070710e+003
8.872042e+002, 6.073012e+003
8.876863e+002, 6.076850e+003
8.881685e+002, 6.084972e+003
8.886506e+002, 6.092387e+003
8.891327e+002, 6.094380e+003
8.896148e+002, 6.089603e+003
8.900969e+002, 6.088899e+003
8.905790e+002, 6.093175e+003
8.910612e+002, 6.098857e+003
8.915433e+002, 6.105337e+003
8.920254e+002, 6.111289e+003
8.925075e+002, 6.109759e+003
8.929896e+002, 6.101772e+003
8.934717e+002, 6.096162e+003
8.939539e+002, 6.100885e+003
8.944360e+002, 6.107477e+003
8.949181e+002, 6.110737e+003
8.954002e+002, 6.110851e+003
8.958823e+002, 6.109962e+003
8.963644e+002, 6.106802e+003
8.968466e+002, 6.105951e+003
8.973287e+002, 6.109778e+003
8.978108e+002, 6.115978e+003
8.982929e+002, 6.117919e+003
8.987750e+002, 6.116310e+003
8.992571e+002, 6.115428e+003
8.997393e+002, 6.117995e+003
9.002214e+002, 6.120326e+003
9.007035e+002, 6.118335e+003
9.011856e+002, 6.114169e+003
9.016677e+002, 6.111466e+003
9.021498e+002, 6.112148e+003
9.026320e+002, 6.112416e+003
9.031141e+002, 6.111009e+003
9.035962e+002, 6.110084e+003
9.040783e+002, 6.113877e+003
9.045604e+002, 6.121803e+003
9.050425e+002, 6.125551e+003
9.055247e+002, 6.123413e+003
9.060068e+002, 6.120196e+003
9.064889e+002, 6.120415e+003
9.069710e+002, 6.122167e+003
9.074531e+002, 6.123456e+003
9.079352e+002, 6.124026e+003
9.084174e+002, 6.124159e+003
9.088995e+002, 6.124036e+003
9.093816e+002, 6.123498e+003
9.098637e+002, 6.122047e+003
9.103458e+002, 6.119681e+003
9.108279e+002, 6.119573e+003
9.113101e+002, 6.121744e+003
9.117922e+002, 6.123955e+003
9.122743e+002, 6.123689e+003
9.127564e+002, 6.123129e+003
9.132385e+002, 6.125261e+003
9.137206e+002, 6.129678e+003
9.142028e+002, 6.132923e+003
9.146849e+002, 6.132807e+003
9.151670e+002, 6.132689e+003
9.156491e+002, 6.133773e+003
9.161312e+002, 6.135638e+003
9.166133e+002, 6.136907e+003
9.170955e+002, 6.137651e+003
9.175776e+002, 6.136445e+003
9.180597e+002, 6.131398e+003
9.185418e+002, 6.126352e+003
9.190239e+002, 6.126565e+003
9.195060e+002, 6.130237e+003
9.199882e+002, 6.133817e+003
9.204703e+002, 6.135781e+003
9.209524e+002, 6.137977e+003
9.214345e+002, 6.140756e+003
9.219166e+002, 6.143663e+003
9.223987e+002, 6.146292e+003
9.228809e+002, 6.148614e+003
9.233630e+002, 6.149282e+003
9.238451e+002, 6.147666e+003
9.243272e+002, 6.146856e+003
9.248093e+002, 6.152300e+003
9.252914e+002, 6.159549e+003
9.257736e+002, 6.162032e+003
9.262557e+002, 6.157945e+003
9.267378e+002, 6.155015e+003
9.272199e+002, 6.157437e+003
9.277020e+002, 6.159866e+003
9.281841e+002, 6.159009e+003
9.286663e+002, 6.154937e+003
9.291484e+002, 6.154888e+003
9.296305e+002, 6.159018e+003
9.301126e+002, 6.164331e+003
9.305947e+002, 6.170661e+003
9.310768e+002, 6.176001e+003
9.315590e+002, 6.176486e+003
9.320411e+002, 6.173317e+003
9.325232e+002, 6.171573e+003
9.330053e+002, 6.173579e+003
9.334874e+002, 6.176530e+003
9.339695e+002, 6.180413e+003
9.344517e+002, 6.184357e+003
9.349338e+002, 6.185388e+003
9.354159e+002, 6.183405e+003
9.358980e+002, 6.184911e+003
9.363801e+002, 6.192952e+003
9.368622e+002, 6.201760e+003
9.373444e+002, 6.203454e+003
9.378265e+002, 6.201687e+003
9.383086e+002, 6.201841e+003
9.387907e+002, 6.205938e+003
9.392728e+002, 6.210820e+003
9.397549e+002, 6.216126e+003
9.402371e+002, 6.221689e+003
9.407192e+002, 6.227710e+003
9.412013e+002, 6.234162e+003
9.416834e+002, 6.239335e+003
9.421655e+002, 6.243063e+003
9.426476e+002, 6.246488e+003
9.431298e+002, 6.249521e+003
9.436119e+002, 6.253322e+003
9.440940e+002, 6.260287e+003
9.445761e+002, 6.270333e+003
9.450582e+002, 6.277613e+003
9.455403e+002, 6.279013e+003
9.460225e+002, 6.279470e+003
9.465046e+002, 6.279987e+003
9.469867e+002, 6.280885e+003
9.474688e+002, 6.283914e+003
9.479509e+002, 6.288907e+003
9.484330e+002, 6.293821e+003
9.489152e+002, 6.298553e+003
9.493973e+002, 6.301771e+003
9.498794e+002, 6.300056e+003
9.503615e+002, 6.296391e+003
9.508436e+002, 6.296071e+003
9.513257e+002, 6.304089e+003
9.518079e+002, 6.310402e+003
9.522900e+002, 6.314393e+003
9.527721e+002, 6.316666e+003
9.532542e+002, 6.317439e+003
9.537363e+002, 6.316965e+003
9.542184e+002, 6.317461e+003
9.547006e+002, 6.319354e+003
9.551827e+002, 6.320288e+003
9.556648e+002, 6.317700e+003
9.561469e+002, 6.313837e+003
9.566290e+002, 6.310954e+003
9.571111e+002, 6.309560e+003
9.575933e+002, 6.306110e+003
9.580754e+002, 6.298256e+003
9.585575e+002, 6.293089e+003
9.590396e+002, 6.296114e+003
9.595217e+002, 6.303670e+003
9.600038e+002, 6.301632e+003
9.604860e+002, 6.291710e+003
9.609681e+002, 6.282771e+003
9.614502e+002, 6.279240e+003
9.619323e+002, 6.278416e+003
9.624144e+002, 6.280079e+003
9.628965e+002, 6.283091e+003
9.633787e+002, 6.284892e+003
9.638608e+002, 6.284656e+003
9.643429e+002, 6.285092e+003
9.648250e+002, 6.286807e+003
9.653071e+002, 6.288495e+003
9.657892e+002, 6.287663e+003
9.662714e+002, 6.285493e+003
9.667535e+002, 6.285805e+003
9.672356e+002, 6.289916e+003
9.677177e+002, 6.291328e+003
9.681998e+002, 6.283174e+003
9.686819e+002, 6.273621e+003
9.691641e+002, 6.268872e+003
9.696462e+002, 6.269343e+003
9.701283e+002, 6.268190e+003
9.706104e+002, 6.264990e+003
9.710925e+002, 6.262377e+003
9.715746e+002, 6.262061e+003
9.720568e+002, 6.263178e+003
9.725389e+002, 6.265361e+003
9.730210e+002, 6.267768e+003
9.735031e+002, 6.267583e+003
9.739852e+002, 6.259649e+003
9.744673e+002, 6.253793e+003
9.749495e+002, 6.254123e+003
9.754316e+002, 6.257478e+003
9.759137e+002, 6.258434e+003
9.763958e+002, 6.256872e+003
9.768779e+002, 6.256099e+003
9.773600e+002, 6.256767e+003
9.778422e+002, 6.258275e+003
9.783243e+002, 6.261056e+003
9.788064e+002, 6.263818e+003
9.792885e+002, 6.264789e+003
9.797706e+002, 6.263460e+003
9.802527e+002, 6.261455e+003
9.807349e+002, 6.257100e+003
9.812170e+002, 6.254761e+003
9.816991e+002, 6.257730e+003
9.821812e+002, 6.264993e+003
9.826633e+002, 6.268635e+003
9.831454e+002, 6.268893e+003
9.836276e+002, 6.269131e+003
9.841097e+002, 6.271243e+003
9.845918e+002, 6.274033e+003
9.850739e+002, 6.277048e+003
9.855560e+002, 6.279935e+003
9.860381e+002, 6.281707e+003
9.865203e+002, 6.281337e+003
9.870024e+002, 6.282075e+003
9.874845e+002, 6.284719e+003
9.879666e+002, 6.287961e+003
9.884487e+002, 6.289655e+003
9.889308e+002, 6.290447e+003
9.894130e+002, 6.292740e+003
9.898951e+002, 6.297396e+003
9.903772e+002, 6.300349e+003
9.908593e+002, 6.297732e+003
9.913414e+002, 6.293758e+003
9.918235e+002, 6.291396e+003
9.923057e+002, 6.290760e+003
9.927878e+002, 6.290594e+003
9.932699e+002, 6.291014e+003
9.937520e+002, 6.291092e+003
9.942341e+002, 6.289741e+003
9.947162e+002, 6.288128e+003
9.951984e+002, 6.288646e+003
9.956805e+002, 6.290576e+003
9.961626e+002, 6.291979e+003
9.966447e+002, 6.291213e+003
9.971268e+002, 6.291001e+003
9.976089e+002, 6.291749e+003
9.980911e+002, 6.293447e+003
9.985732e+002, 6.296206e+003
9.990553e+002, 6.300016e+003
9.995374e+002, 6.305017e+003
1.000020e+003, 6.311565e+003
1.000502e+003, 6.315363e+003
1.000984e+003, 6.308830e+003
1.001466e+003, 6.299888e+003
1.001948e+003, 6.296403e+003
1.002430e+003, 6.299712e+003
1.002912e+003, 6.303904e+003
1.003394e+003, 6.310096e+003
1.003876e+003, 6.313804e+003
1.004359e+003, 6.312337e+003
1.004841e+003, 6.307628e+003
1.005323e+003, 6.304953e+003
1.005805e+003, 6.304240e+003
1.006287e+003, 6.305231e+003
1.006769e+003, 6.309532e+003
1.007251e+003, 6.313373e+003
1.007733e+003, 6.314397e+003
1.008216e+003, 6.313972e+003
1.008698e+003, 6.313819e+003
1.009180e+003, 6.313613e+003
1.009662e+003, 6.315216e+003
1.010144e+003, 6.319027e+003
1.010626e+003, 6.322960e+003
1.011108e+003, 6.325173e+003
1.011590e+003, 6.325946e+003
1.012072e+003, 6.324782e+003
1.012555e+003, 6.321855e+003
1.013037e+003, 6.320798e+003
1.013519e+003, 6.324130e+003
1.014001e+003, 6.328155e+003
1.014483e+003, 6.332300e+003
1.014965e+003, 6.336009e+003
1.015447e+003, 6.336794e+003
1.015929e+003, 6.334992e+003
1.016411e+003, 6.334111e+003
1.016894e+003, 6.335533e+003
1.017376e+003, 6.337740e+003
1.017858e+003, 6.340226e+003
1.018340e+003, 6.342342e+003
1.018822e+003, 6.343147e+003
1.019304e+003, 6.341820e+003
1.019786e+003, 6.341343e+003
1.020268e+003, 6.342280e+003
1.020751e+003, 6.342771e+003
1.021233e+003, 6.340508e+003
1.021715e+003, 6.336940e+003
1.022197e+003, 6.336891e+003
1.022679e+003, 6.339627e+003
1.023161e+003, 6.340393e+003
1.023643e+003, 6.332639e+003
1.024125e+003, 6.327079e+003
1.024607e+003, 6.329446e+003
1.025090e+003, 6.336260e+003
1.025572e+003, 6.340645e+003
1.026054e+003, 6.342428e+003
1.026536e+003, 6.343719e+003
1.027018e+003, 6.344893e+003
1.027500e+003, 6.345580e+003
1.027982e+003, 6.344136e+003
1.028464e+003, 6.342639e+003
1.028947e+003, 6.344123e+003
1.029429e+003, 6.350053e+003
1.029911e+003, 6.353579e+003
1.030393e+003, 6.353732e+003
1.030875e+003, 6.352731e+003
1.031357e+003, 6.351048e+003
1.031839e+003, 6.349474e+003
1.032321e+003, 6.350610e+003
1.032803e+003, 6.354272e+003
1.033286e+003, 6.359484e+003
1.033768e+003, 6.368374e+003
1.034250e+003, 6.375735e+003
1.034732e+003, 6.377411e+003
1.035214e+003, 6.377092e+003
1.035696e+003, 6.380103e+003
1.036178e+003, 6.386993e+003
1.036660e+003, 6.393929e+003
1.037143e+003, 6.400686e+003
1.037625e+003, 6.407064e+003
1.038107e+003, 6.412338e+003
1.038589e+003, 6.417554e+003
1.039071e+003, 6.423541e+003
1.039553e+003, 6.430458e+003
1.040035e+003, 6.439473e+003
1.040517e+003, 6.452398e+003
1.041000e+003, 6.464967e+003
1.041482e+003, 6.475542e+003
1.041964e+003, 6.485322e+003
1.042446e+003, 6.496748e+003
1.042928e+003, 6.509681e+003
1.043410e+003, 6.522858e+003
1.043892e+003, 6.535600e+003
1.044374e+003, 6.549670e+003
1.044856e+003, 6.567713e+003
1.045339e+003, 6.586146e+003
1.045821e+003, 6.601136e+003
1.046303e+003, 6.611457e+003
1.046785e+003, 6.627083e+003
1.047267e+003, 6.648150e+003
1.047749e+003, 6.672837e+003
1.048231e+003, 6.700072e+003
1.048713e+003, 6.729541e+003
1.049195e+003, 6.759486e+003
1.049677e+003, 6.791258e+003
1.050160e+003, 6.827990e+003
1.050642e+003, 6.875007e+003
1.051124e+003, 6.921232e+003
1.051606e+003, 6.966407e+003
1.052088e+003, 7.008964e+003
1.052570e+003, 7.047108e+003
1.053052e+003, 7.080721e+003
1.053534e+003, 7.108740e+003
1.054017e+003, 7.131198e+003
1.054499e+003, 7.142329e+003
1.054981e+003, 7.138673e+003
1.055463e+003, 7.122172e+003
1.055945e+003, 7.093175e+003
1.056427e+003, 7.052750e+003
1.056909e+003, 7.000216e+003
1.057391e+003, 6.934374e+003
1.057874e+003, 6.870947e+003
1.058356e+003, 6.815275e+003
1.058838e+003, 6.764595e+003
1.059320e+003, 6.714175e+003
1.059802e+003, 6.667403e+003
1.060284e+003, 6.627554e+003
1.060766e+003, 6.596253e+003
1.061248e+003, 6.571304e+003
1.061730e+003, 6.553911e+003
1.062213e+003, 6.539907e+003
1.062695e+003, 6.527029e+003
1.063177e+003, 6.515037e+003
1.063659e+003, 6.502591e+003
1.064141e+003, 6.489921e+003
1.064623e+003, 6.478615e+003
1.065105e+003, 6.467931e+003
1.065587e+003, 6.460382e+003
1.066070e+003, 6.459815e+003
1.066552e+003, 6.461250e+003
1.067034e+003, 6.456233e+003
1.067516e+003, 6.444397e+003
1.067998e+003, 6.437608e+003
1.068480e+003, 6.437583e+003
1.068962e+003, 6.439611e+003
1.069444e+003, 6.441733e+003
1.069927e+003, 6.442347e+003
1.070409e+003, 6.438762e+003
1.070891e+003, 6.431055e+003
1.071373e+003, 6.427168e+003
1.071855e+003, 6.428820e+003
1.072337e+003, 6.430231e+003
1.072819e+003, 6.429458e+003
1.073301e+003, 6.427796e+003
1.073783e+003, 6.427067e+003
1.074266e+003, 6.427324e+003
1.074748e+003, 6.428995e+003
1.075230e+003, 6.433443e+003
1.075712e+003, 6.435712e+003
1.076194e+003, 6.432025e+003
1.076676e+003, 6.428547e+003
1.077158e+003, 6.429453e+003
1.077640e+003, 6.434153e+003
1.078122e+003, 6.437070e+003
1.078604e+003, 6.438202e+003
1.079087e+003, 6.437646e+003
1.079569e+003, 6.433572e+003
1.080051e+003, 6.429782e+003
1.080533e+003, 6.427386e+003
1.081015e+003, 6.427306e+003
1.081497e+003, 6.431438e+003
1.081979e+003, 6.441354e+003
1.082461e+003, 6.447229e+003
1.082944e+003, 6.447842e+003
1.083426e+003, 6.447649e+003
1.083908e+003, 6.452501e+003
1.084390e+003, 6.457937e+003
1.084872e+003, 6.456754e+003
1.085354e+003, 6.449538e+003
1.085836e+003, 6.447886e+003
1.086318e+003, 6.457431e+003
1.086801e+003, 6.464867e+003
1.087283e+003, 6.466588e+003
1.087765e+003, 6.465460e+003
1.088247e+003, 6.466399e+003
1.088729e+003, 6.468801e+003
1.089211e+003, 6.471281e+003
1.089693e+003, 6.473763e+003
1.090175e+003, 6.475136e+003
1.090657e+003, 6.473907e+003
1.091140e+003, 6.472310e+003
1.091622e+003, 6.471292e+003
1.092104e+003, 6.470891e+003
1.092586e+003, 6.471931e+003
1.093068e+003, 6.474288e+003
1.093550e+003, 6.476599e+003
1.094032e+003, 6.479065e+003
1.094514e+003, 6.480117e+003
1.094997e+003, 6.475373e+003
1.095479e+003, 6.470127e+003
1.095961e+003, 6.472171e+003
1.096443e+003, 6.485249e+003
1.096925e+003, 6.492430e+003
1.097407e+003, 6.492835e+003
1.097889e+003, 6.492887e+003
1.098371e+003, 6.498618e+003
1.098854e+003, 6.506154e+003
1.099336e+003, 6.510675e+003
1.099818e+003, 6.512616e+003
1.100300e+003, 6.514133e+003
1.100782e+003, 6.516381e+003
1.101264e+003, 6.516761e+003
1.101746e+003, 6.514181e+003
1.102228e+003, 6.511192e+003
1.102710e+003, 6.512043e+003
1.103193e+003, 6.515052e+003
1.103675e+003, 6.515809e+003
1.104157e+003, 6.513829e+003
1.104639e+003, 6.511933e+003
1.105121e+003, 6.511660e+003
1.105603e+003, 6.511429e+003
1.106085e+003, 6.510679e+003
1.106567e+003, 6.509520e+003
1.107049e+003, 6.507548e+003
1.107531e+003, 6.505116e+003
1.108014e+003, 6.505706e+003
1.108496e+003, 6.511289e+003
1.108978e+003, 6.516203e+003
1.109460e+003, 6.515044e+003
1.109942e+003, 6.512356e+003
1.110424e+003, 6.512510e+003
1.110906e+003, 6.515717e+003
1.111388e+003, 6.516322e+003
1.111871e+003, 6.514253e+003
1.112353e+003, 6.510244e+003
1.112835e+003, 6.502893e+003
1.113317e+003, 6.496096e+003
1.113799e+003, 6.495384e+003
1.114281e+003, 6.497906e+003
1.114763e+003, 6.498885e+003
1.115245e+003, 6.496729e+003
1.115728e+003, 6.495060e+003
1.116210e+003, 6.494186e+003
1.116692e+003, 6.493136e+003
1.117174e+003, 6.489778e+003
1.117656e+003, 6.486410e+003
1.118138e+003, 6.488179e+003
1.118620e+003, 6.493935e+003
1.119102e+003, 6.498620e+003
1.119584e+003, 6.500412e+003
1.120067e+003, 6.500423e+003
1.120549e+003, 6.497310e+003
1.121031e+003, 6.494572e+003
1.121513e+003, 6.499248e+003
1.121995e+003, 6.508172e+003
1.122477e+003, 6.509639e+003
1.122959e+003, 6.502663e+003
1.123441e+003, 6.495390e+003
1.123924e+003, 6.490247e+003
1.124406e+003, 6.488043e+003
1.124888e+003, 6.490135e+003
1.125370e+003, 6.494678e+003
1.125852e+003, 6.496383e+003
1.126334e+003, 6.495587e+003
1.126816e+003, 6.495461e+003
1.127298e+003, 6.497054e+003
1.127781e+003, 6.498412e+003
1.128263e+003, 6.498621e+003
1.128745e+003, 6.497687e+003
1.129227e+003, 6.495145e+003
1.129709e+003, 6.491165e+003
1.130191e+003, 6.488092e+003
1.130673e+003, 6.485859e+003
1.131155e+003, 6.485157e+003
1.131637e+003, 6.486259e+003
1.132120e+003, 6.488900e+003
1.132602e+003, 6.494006e+003
1.133084e+003, 6.499894e+003
1.133566e+003, 6.504093e+003
1.134048e+003, 6.506130e+003
1.134530e+003, 6.506581e+003
1.135012e+003, 6.504780e+003
1.135494e+003, 6.503862e+003
1.135976e+003, 6.507373e+003
1.136458e+003, 6.512036e+003
1.136941e+003, 6.511260e+003
1.137423e+003, 6.507477e+003
1.137905e+003, 6.506569e+003
1.138387e+003, 6.513321e+003
1.138869e+003, 6.518265e+003
1.139351e+003, 6.520375e+003
1.139833e+003, 6.521752e+003
1.140315e+003, 6.524877e+003
1.140798e+003, 6.528655e+003
1.141280e+003, 6.530042e+003
1.141762e+003, 6.529321e+003
1.142244e+003, 6.529062e+003
1.142726e+003, 6.529898e+003
1.143208e+003, 6.531938e+003
1.143690e+003, 6.535468e+003
1.144172e+003, 6.539773e+003
1.144655e+003, 6.545311e+003
1.145137e+003, 6.550854e+003
1.145619e+003, 6.550470e+003
1.146101e+003, 6.543407e+003
1.146583e+003, 6.537487e+003
1.147065e+003, 6.537447e+003
1.147547e+003, 6.539399e+003
1.148029e+003, 6.542212e+003
1.148511e+003, 6.545278e+003
1.148994e+003, 6.546470e+003
1.149476e+003, 6.546047e+003
1.149958e+003, 6.545963e+003
1.150440e+003, 6.546530e+003
1.150922e+003, 6.548142e+003
1.151404e+003, 6.551916e+003
1.151886e+003, 6.556017e+003
1.152368e+003, 6.558658e+003
1.152851e+003, 6.560037e+003
1.153333e+003, 6.563413e+003
1.153815e+003, 6.568713e+003
1.154297e+003, 6.572648e+003
1.154779e+003, 6.573363e+003
1.155261e+003, 6.573431e+003
1.155743e+003, 6.574781e+003
1.156225e+003, 6.576940e+003
1.156708e+003, 6.580258e+003
1.157190e+003, 6.585678e+003
1.157672e+003, 6.583612e+003
1.158154e+003, 6.572865e+003
1.158636e+003, 6.565536e+003
1.159118e+003, 6.571777e+003
1.159600e+003, 6.581320e+003
1.160082e+003, 6.582714e+003
1.160564e+003, 6.579457e+003
1.161047e+003, 6.577538e+003
1.161529e+003, 6.578530e+003
1.162011e+003, 6.579604e+003
1.162493e+003, 6.580932e+003
1.162975e+003, 6.581936e+003
1.163457e+003, 6.581358e+003
1.163939e+003, 6.580714e+003
1.164421e+003, 6.582875e+003
1.164903e+003, 6.586734e+003
1.165385e+003, 6.588881e+003
1.165868e+003, 6.586528e+003
1.166350e+003, 6.586126e+003
1.166832e+003, 6.588597e+003
1.167314e+003, 6.591498e+003
1.167796e+003, 6.592014e+003
1.168278e+003, 6.591270e+003
1.168760e+003, 6.590748e+003
1.169242e+003, 6.590748e+003
1.169725e+003, 6.592373e+003
1.170207e+003, 6.598798e+003
1.170689e+003, 6.602608e+003
1.171171e+003, 6.601953e+003
1.171653e+003, 6.599808e+003
1.172135e+003, 6.600825e+003
1.172617e+003, 6.603468e+003
1.173099e+003, 6.603776e+003
1.173582e+003, 6.601387e+003
1.174064e+003, 6.600125e+003
1.174546e+003, 6.600922e+003
1.175028e+003, 6.604072e+003
1.175510e+003, 6.611049e+003
1.175992e+003, 6.618571e+003
1.176474e+003, 6.618925e+003
1.176956e+003, 6.614337e+003
1.177438e+003, 6.611160e+003
1.177921e+003, 6.610635e+003
1.178403e+003, 6.610925e+003
1.178885e+003, 6.611439e+003
1.179367e+003, 6.612594e+003
1.179849e+003, 6.614807e+003
1.180331e+003, 6.617668e+003
1.180813e+003, 6.619800e+003
1.181295e+003, 6.621380e+003
1.181778e+003, 6.623203e+003
1.182260e+003, 6.625977e+003
1.182742e+003, 6.627249e+003
1.183224e+003, 6.623954e+003
1.183706e+003, 6.620805e+003
1.184188e+003, 6.620476e+003
1.184670e+003, 6.622449e+003
1.185152e+003, 6.623817e+003
1.185635e+003, 6.624845e+003
1.186117e+003, 6.627213e+003
1.186599e+003, 6.632170e+003
1.187081e+003, 6.637139e+003
1.187563e+003, 6.642055e+003
1.188045e+003, 6.645233e+003
1.188527e+003, 6.644448e+003
1.189009e+003, 6.640299e+003
1.189491e+003, 6.641584e+003
1.189974e+003, 6.647432e+003
1.190456e+003, 6.651348e+003
1.190938e+003, 6.648069e+003
1.191420e+003, 6.644878e+003
1.191902e+003, 6.646452e+003
1.192384e+003, 6.649070e+003
1.192866e+003, 6.648712e+003
1.193348e+003, 6.645279e+003
1.193830e+003, 6.643807e+003
1.194313e+003, 6.644176e+003
1.194795e+003, 6.644943e+003
1.195277e+003, 6.644129e+003
1.195759e+003, 6.644686e+003
1.196241e+003, 6.650518e+003
1.196723e+003, 6.657256e+003
1.197205e+003, 6.659317e+003
1.197687e+003, 6.656640e+003
1.198169e+003, 6.652382e+003
1.198652e+003, 6.646846e+003
1.199134e+003, 6.642452e+003
1.199616e+003, 6.641722e+003
1.200098e+003, 6.641857e+003
1.200580e+003, 6.640814e+003
1.201062e+003, 6.639845e+003
1.201544e+003, 6.641175e+003
1.202026e+003, 6.644877e+003
1.202509e+003, 6.648984e+003
1.202991e+003, 6.653315e+003
1.203473e+003, 6.657066e+003
1.203955e+003, 6.659870e+003
1.204437e+003, 6.661600e+003
1.204919e+003, 6.660532e+003
1.205401e+003, 6.658721e+003
1.205883e+003, 6.661516e+003
1.206365e+003, 6.669020e+003
1.206848e+003, 6.673087e+003
1.207330e+003, 6.672444e+003
1.207812e+003, 6.671194e+003
1.208294e+003, 6.672769e+003
1.208776e+003, 6.674584e+003
1.209258e+003, 6.674154e+003
1.209740e+003, 6.672648e+003
1.210222e+003, 6.673964e+003
1.210705e+003, 6.678216e+003
1.211187e+003, 6.680616e+003
1.211669e+003, 6.680371e+003
1.212151e+003, 6.678577e+003
1.212633e+003, 6.674589e+003
1.213115e+003, 6.670877e+003
1.213597e+003, 6.669656e+003
1.214079e+003, 6.670341e+003
1.214562e+003, 6.670677e+003
1.215044e+003, 6.670717e+003
1.215526e+003, 6.672550e+003
1.216008e+003, 6.677147e+003
1.216490e+003, 6.680827e+003
1.216972e+003, 6.678302e+003
1.217454e+003, 6.675742e+003
1.217936e+003, 6.678781e+003
1.218418e+003, 6.685869e+003
1.218901e+003, 6.688751e+003
1.219383e+003, 6.687622e+003
1.219865e+003, 6.688413e+003
1.220347e+003, 6.693428e+003
1.220829e+003, 6.697960e+003
1.221311e+003, 6.697925e+003
1.221793e+003, 6.696458e+003
1.222275e+003, 6.696035e+003
1.222757e+003, 6.696481e+003
1.223240e+003, 6.696258e+003
1.223722e+003, 6.695390e+003
1.224204e+003, 6.693318e+003
1.224686e+003, 6.689643e+003
1.225168e+003, 6.685683e+003
1.225650e+003, 6.681096e+003
1.226132e+003, 6.677915e+003
1.226614e+003, 6.678098e+003
1.227096e+003, 6.681157e+003
1.227579e+003, 6.681784e+003
1.228061e+003, 6.680390e+003
1.228543e+003, 6.680604e+003
1.229025e+003, 6.684301e+003
1.229507e+003, 6.688577e+003
1.229989e+003, 6.692551e+003
1.230471e+003, 6.695507e+003
1.230953e+003, 6.696713e+003
1.231436e+003, 6.696314e+003
1.231918e+003, 6.695758e+003
1.232400e+003, 6.695149e+003
1.232882e+003, 6.695497e+003
1.233364e+003, 6.697166e+003
1.233846e+003, 6.699949e+003
1.234328e+003, 6.705633e+003
1.234810e+003, 6.710734e+003
1.235292e+003, 6.712461e+003
1.235775e+003, 6.711292e+003
1.236257e+003, 6.711193e+003
1.236739e+003, 6.711814e+003
1.237221e+003, 6.711001e+003
1.237703e+003, 6.705262e+003
1.238185e+003, 6.702102e+003
1.238667e+003, 6.705795e+003
1.239149e+003, 6.711807e+003
1.239632e+003, 6.718294e+003
1.240114e+003, 6.724475e+003
1.240596e+003, 6.725013e+003
1.241078e+003, 6.721226e+003
1.241560e+003, 6.718786e+003
1.242042e+003, 6.721350e+003
1.242524e+003, 6.723958e+003
1.243006e+003, 6.725455e+003
1.243489e+003, 6.726478e+003
1.243971e+003, 6.726781e+003
1.244453e+003, 6.727028e+003
1.244935e+003, 6.731056e+003
1.245417e+003, 6.737718e+003
1.245899e+003, 6.742608e+003
1.246381e+003, 6.742958e+003
1.246863e+003, 6.742664e+003
1.247345e+003, 6.742127e+003
1.247828e+003, 6.741694e+003
1.248310e+003, 6.741718e+003
1.248792e+003, 6.742113e+003
1.249274e+003, 6.741222e+003
1.249756e+003, 6.740359e+003
1.250238e+003, 6.743844e+003
1.250720e+003, 6.762061e+003
1.251202e+003, 6.770001e+003
1.251684e+003, 6.762458e+003
1.252167e+003, 6.752759e+003
1.252649e+003, 6.753399e+003
1.253131e+003, 6.759421e+003
1.253613e+003, 6.761396e+003
1.254095e+003, 6.760182e+003
1.254577e+003, 6.759313e+003
1.255059e+003, 6.760008e+003
1.255541e+003, 6.759860e+003
1.256023e+003, 6.758078e+003
1.256506e+003, 6.757612e+003
1.256988e+003, 6.763485e+003
1.257470e+003, 6.770661e+003
1.257952e+003, 6.771519e+003
1.258434e+003, 6.767717e+003
1.258916e+003, 6.764239e+003
1.259398e+003, 6.760864e+003
1.259880e+003, 6.760758e+003
1.260363e+003, 6.764429e+003
1.260845e+003, 6.769849e+003
1.261327e+003, 6.778784e+003
1.261809e+003, 6.785693e+003
1.262291e+003, 6.782718e+003
1.262773e+003, 6.773373e+003
1.263255e+003, 6.767288e+003
1.263737e+003, 6.765222e+003
1.264219e+003, 6.764608e+003
1.264702e+003, 6.765358e+003
1.265184e+003, 6.766009e+003
1.265666e+003, 6.765183e+003
1.266148e+003, 6.764057e+003
1.266630e+003, 6.762458e+003
1.267112e+003, 6.761747e+003
1.267594e+003, 6.765501e+003
1.268076e+003, 6.774448e+003
1.268559e+003, 6.775707e+003
1.269041e+003, 6.768554e+003
1.269523e+003, 6.763474e+003
1.270005e+003, 6.770736e+003
1.270487e+003, 6.778826e+003
1.270969e+003, 6.780279e+003
1.271451e+003, 6.778841e+003
1.271933e+003, 6.779306e+003
1.272416e+003, 6.781517e+003
1.272898e+003, 6.784194e+003
1.273380e+003, 6.787127e+003
1.273862e+003, 6.789475e+003
1.274344e+003, 6.790436e+003
1.274826e+003, 6.791045e+003
1.275308e+003, 6.791811e+003
1.275790e+003, 6.792332e+003
1.276272e+003, 6.791113e+003
1.276755e+003, 6.789274e+003
1.277237e+003, 6.792539e+003
1.277719e+003, 6.800173e+003
1.278201e+003, 6.805034e+003
1.278683e+003, 6.800445e+003
1.279165e+003, 6.797901e+003
1.279647e+003, 6.800367e+003
1.280129e+003, 6.803829e+003
1.280611e+003, 6.802780e+003
1.281094e+003, 6.799824e+003
1.281576e+003, 6.801118e+003
1.282058e+003, 6.805983e+003
1.282540e+003, 6.809554e+003
1.283022e+003, 6.809602e+003
1.283504e+003, 6.809899e+003
1.283986e+003, 6.810677e+003
1.284468e+003, 6.812077e+003
1.284950e+003, 6.815151e+003
1.285433e+003, 6.818302e+003
1.285915e+003, 6.819292e+003
1.286397e+003, 6.818422e+003
1.286879e+003, 6.816929e+003
1.287361e+003, 6.814158e+003
1.287843e+003, 6.814279e+003
1.288325e+003, 6.817950e+003
1.288807e+003, 6.822439e+003
1.289290e+003, 6.826384e+003
1.289772e+003, 6.829261e+003
1.290254e+003, 6.831064e+003
1.290736e+003, 6.831150e+003
1.291218e+003, 6.827337e+003
1.291700e+003, 6.818842e+003
1.292182e+003, 6.818148e+003
1.292664e+003, 6.825982e+003
1.293146e+003, 6.833085e+003
1.293629e+003, 6.830648e+003
1.294111e+003, 6.828131e+003
1.294593e+003, 6.833803e+003
1.295075e+003, 6.840445e+003
1.295557e+003, 6.836842e+003
1.296039e+003, 6.824963e+003
1.296521e+003, 6.822445e+003
1.297003e+003, 6.828948e+003
1.297486e+003, 6.834182e+003
1.297968e+003, 6.832527e+003
1.298450e+003, 6.830110e+003
1.298932e+003, 6.828244e+003
1.299414e+003, 6.827351e+003
1.299896e+003, 6.828834e+003
1.300378e+003, 6.831603e+003
1.300860e+003, 6.831361e+003
1.301343e+003, 6.829476e+003
1.301825e+003, 6.831843e+003
##END=



