##NAMES=Jacobsite
##RRUFFID=R120170
##IDEAL CHEMISTRY=Mn^2+^Fe^3+^_2_O_4_
##LOCALITY=N'Chwaning Mine III, Kalahari manganese field, Northern Cape Province, South Africa
##OWNER=RRUFF
##SOURCE=Marshall Sussman
##DESCRIPTION=Black octahedra
##STATUS=The identification of this mineral is confirmed by single-crystal X-ray diffraction and chemical analysis.
##URL=rruff.info/R120170
##MEASURED CHEMISTRY=(Mn_0.90_Mg_0.10_)_Σ=1.00_(Fe^3+^_1.49_Mn^3+^_0.50_)_Σ=1.99_O_4_
8.936163e+001, 0.000000e+000
8.984375e+001, 1.017373e+002
9.032587e+001, 1.032129e+002
9.080798e+001, 1.034791e+002
9.129010e+001, 1.020072e+002
9.177222e+001, 9.994114e+001
9.225433e+001, 9.875439e+001
9.273645e+001, 9.836852e+001
9.321857e+001, 9.799500e+001
9.370068e+001, 9.688169e+001
9.418280e+001, 9.522463e+001
9.466492e+001, 9.367517e+001
9.514703e+001, 9.251338e+001
9.562915e+001, 9.159826e+001
9.611127e+001, 9.038464e+001
9.659338e+001, 8.879875e+001
9.707550e+001, 8.732591e+001
9.755762e+001, 8.675341e+001
9.803973e+001, 8.710030e+001
9.852185e+001, 8.720970e+001
9.900397e+001, 8.641542e+001
9.948608e+001, 8.468457e+001
9.996820e+001, 8.346531e+001
1.004503e+002, 8.290882e+001
1.009324e+002, 8.268040e+001
1.014146e+002, 8.207397e+001
1.018967e+002, 8.099545e+001
1.023788e+002, 7.979259e+001
1.028609e+002, 7.855689e+001
1.033430e+002, 7.717198e+001
1.038251e+002, 7.619263e+001
1.043073e+002, 7.581885e+001
1.047894e+002, 7.590961e+001
1.052715e+002, 7.573485e+001
1.057536e+002, 7.522408e+001
1.062357e+002, 7.452454e+001
1.067178e+002, 7.370511e+001
1.072000e+002, 7.257067e+001
1.076821e+002, 7.161449e+001
1.081642e+002, 7.100754e+001
1.086463e+002, 7.079299e+001
1.091284e+002, 7.032663e+001
1.096105e+002, 6.930889e+001
1.100927e+002, 6.816747e+001
1.105748e+002, 6.731087e+001
1.110569e+002, 6.713042e+001
1.115390e+002, 6.687276e+001
1.120211e+002, 6.631522e+001
1.125032e+002, 6.532465e+001
1.129854e+002, 6.449856e+001
1.134675e+002, 6.406003e+001
1.139496e+002, 6.380898e+001
1.144317e+002, 6.344926e+001
1.149138e+002, 6.290691e+001
1.153959e+002, 6.224870e+001
1.158781e+002, 6.148069e+001
1.163602e+002, 6.050677e+001
1.168423e+002, 5.960590e+001
1.173244e+002, 5.888266e+001
1.178065e+002, 5.830115e+001
1.182886e+002, 5.776996e+001
1.187708e+002, 5.726561e+001
1.192529e+002, 5.678745e+001
1.197350e+002, 5.633815e+001
1.202171e+002, 5.589771e+001
1.206992e+002, 5.550893e+001
1.211813e+002, 5.526971e+001
1.216635e+002, 5.514375e+001
1.221456e+002, 5.493523e+001
1.226277e+002, 5.449784e+001
1.231098e+002, 5.391056e+001
1.235919e+002, 5.327481e+001
1.240740e+002, 5.252955e+001
1.245562e+002, 5.180787e+001
1.250383e+002, 5.127121e+001
1.255204e+002, 5.091593e+001
1.260025e+002, 5.064268e+001
1.264846e+002, 5.042057e+001
1.269667e+002, 5.022074e+001
1.274489e+002, 4.997109e+001
1.279310e+002, 4.962560e+001
1.284131e+002, 4.921167e+001
1.288952e+002, 4.877384e+001
1.293773e+002, 4.830742e+001
1.298594e+002, 4.783812e+001
1.303416e+002, 4.736879e+001
1.308237e+002, 4.690942e+001
1.313058e+002, 4.650130e+001
1.317879e+002, 4.622424e+001
1.322700e+002, 4.603764e+001
1.327521e+002, 4.573292e+001
1.332343e+002, 4.526973e+001
1.337164e+002, 4.472324e+001
1.341985e+002, 4.419101e+001
1.346806e+002, 4.367051e+001
1.351627e+002, 4.319585e+001
1.356448e+002, 4.276969e+001
1.361270e+002, 4.238829e+001
1.366091e+002, 4.216323e+001
1.370912e+002, 4.215767e+001
1.375733e+002, 4.229493e+001
1.380554e+002, 4.235429e+001
1.385375e+002, 4.236860e+001
1.390197e+002, 4.220641e+001
1.395018e+002, 4.165641e+001
1.399839e+002, 4.057415e+001
1.404660e+002, 3.977225e+001
1.409481e+002, 3.946449e+001
1.414302e+002, 3.960774e+001
1.419124e+002, 3.961865e+001
1.423945e+002, 3.949445e+001
1.428766e+002, 3.924406e+001
1.433587e+002, 3.885295e+001
1.438408e+002, 3.824682e+001
1.443229e+002, 3.765810e+001
1.448051e+002, 3.714042e+001
1.452872e+002, 3.669372e+001
1.457693e+002, 3.626827e+001
1.462514e+002, 3.581907e+001
1.467335e+002, 3.541311e+001
1.472156e+002, 3.513694e+001
1.476978e+002, 3.511083e+001
1.481799e+002, 3.506995e+001
1.486620e+002, 3.494554e+001
1.491441e+002, 3.471260e+001
1.496262e+002, 3.446384e+001
1.501083e+002, 3.411842e+001
1.505905e+002, 3.377317e+001
1.510726e+002, 3.359934e+001
1.515547e+002, 3.389678e+001
1.520368e+002, 3.410857e+001
1.525189e+002, 3.405435e+001
1.530010e+002, 3.356272e+001
1.534832e+002, 3.309521e+001
1.539653e+002, 3.274600e+001
1.544474e+002, 3.244436e+001
1.549295e+002, 3.202053e+001
1.554116e+002, 3.119240e+001
1.558937e+002, 3.042560e+001
1.563759e+002, 2.994387e+001
1.568580e+002, 2.995289e+001
1.573401e+002, 3.001197e+001
1.578222e+002, 3.011110e+001
1.583043e+002, 3.021575e+001
1.587864e+002, 3.019864e+001
1.592686e+002, 2.988741e+001
1.597507e+002, 2.952392e+001
1.602328e+002, 2.926378e+001
1.607149e+002, 2.930330e+001
1.611970e+002, 2.929020e+001
1.616791e+002, 2.905114e+001
1.621613e+002, 2.862789e+001
1.626434e+002, 2.827360e+001
1.631255e+002, 2.810944e+001
1.636076e+002, 2.805507e+001
1.640897e+002, 2.803888e+001
1.645718e+002, 2.818963e+001
1.650540e+002, 2.824785e+001
1.655361e+002, 2.802742e+001
1.660182e+002, 2.753718e+001
1.665003e+002, 2.704989e+001
1.669824e+002, 2.660422e+001
1.674645e+002, 2.626884e+001
1.679467e+002, 2.613249e+001
1.684288e+002, 2.645983e+001
1.689109e+002, 2.683695e+001
1.693930e+002, 2.697734e+001
1.698751e+002, 2.686666e+001
1.703572e+002, 2.662724e+001
1.708394e+002, 2.619604e+001
1.713215e+002, 2.570323e+001
1.718036e+002, 2.537401e+001
1.722857e+002, 2.553139e+001
1.727678e+002, 2.577929e+001
1.732499e+002, 2.566190e+001
1.737321e+002, 2.510390e+001
1.742142e+002, 2.453048e+001
1.746963e+002, 2.430201e+001
1.751784e+002, 2.432786e+001
1.756605e+002, 2.439367e+001
1.761426e+002, 2.442183e+001
1.766248e+002, 2.441473e+001
1.771069e+002, 2.436483e+001
1.775890e+002, 2.426285e+001
1.780711e+002, 2.415384e+001
1.785532e+002, 2.403290e+001
1.790353e+002, 2.392813e+001
1.795175e+002, 2.394426e+001
1.799996e+002, 2.422036e+001
1.804817e+002, 2.464570e+001
1.809638e+002, 2.502347e+001
1.814459e+002, 2.534027e+001
1.819280e+002, 2.558114e+001
1.824102e+002, 2.568756e+001
1.828923e+002, 2.567832e+001
1.833744e+002, 2.568527e+001
1.838565e+002, 2.578984e+001
1.843386e+002, 2.597530e+001
1.848207e+002, 2.624338e+001
1.853029e+002, 2.668573e+001
1.857850e+002, 2.704548e+001
1.862671e+002, 2.676153e+001
1.867492e+002, 2.586477e+001
1.872313e+002, 2.499393e+001
1.877134e+002, 2.461409e+001
1.881956e+002, 2.464705e+001
1.886777e+002, 2.474446e+001
1.891598e+002, 2.486045e+001
1.896419e+002, 2.500164e+001
1.901240e+002, 2.520442e+001
1.906061e+002, 2.547516e+001
1.910883e+002, 2.572526e+001
1.915704e+002, 2.592058e+001
1.920525e+002, 2.605601e+001
1.925346e+002, 2.604913e+001
1.930167e+002, 2.584396e+001
1.934988e+002, 2.549860e+001
1.939810e+002, 2.512548e+001
1.944631e+002, 2.470108e+001
1.949452e+002, 2.438511e+001
1.954273e+002, 2.426252e+001
1.959094e+002, 2.432628e+001
1.963915e+002, 2.428076e+001
1.968737e+002, 2.400737e+001
1.973558e+002, 2.361110e+001
1.978379e+002, 2.351152e+001
1.983200e+002, 2.376404e+001
1.988021e+002, 2.405156e+001
1.992842e+002, 2.408643e+001
1.997664e+002, 2.386274e+001
2.002485e+002, 2.359225e+001
2.007306e+002, 2.327688e+001
2.012127e+002, 2.294679e+001
2.016948e+002, 2.280262e+001
2.021769e+002, 2.289427e+001
2.026591e+002, 2.301210e+001
2.031412e+002, 2.290595e+001
2.036233e+002, 2.252649e+001
2.041054e+002, 2.229836e+001
2.045875e+002, 2.234431e+001
2.050696e+002, 2.263308e+001
2.055518e+002, 2.293463e+001
2.060339e+002, 2.330265e+001
2.065160e+002, 2.356882e+001
2.069981e+002, 2.349621e+001
2.074802e+002, 2.299602e+001
2.079623e+002, 2.258500e+001
2.084445e+002, 2.241034e+001
2.089266e+002, 2.245889e+001
2.094087e+002, 2.242578e+001
2.098908e+002, 2.226271e+001
2.103729e+002, 2.210407e+001
2.108550e+002, 2.215739e+001
2.113372e+002, 2.254256e+001
2.118193e+002, 2.270461e+001
2.123014e+002, 2.240890e+001
2.127835e+002, 2.165687e+001
2.132656e+002, 2.124589e+001
2.137477e+002, 2.128168e+001
2.142299e+002, 2.150367e+001
2.147120e+002, 2.162646e+001
2.151941e+002, 2.165491e+001
2.156762e+002, 2.156785e+001
2.161583e+002, 2.128776e+001
2.166404e+002, 2.079131e+001
2.171226e+002, 2.060426e+001
2.176047e+002, 2.085655e+001
2.180868e+002, 2.126107e+001
2.185689e+002, 2.147253e+001
2.190510e+002, 2.143017e+001
2.195331e+002, 2.134008e+001
2.200153e+002, 2.124864e+001
2.204974e+002, 2.115692e+001
2.209795e+002, 2.104710e+001
2.214616e+002, 2.090318e+001
2.219437e+002, 2.075755e+001
2.224258e+002, 2.063964e+001
2.229080e+002, 2.052842e+001
2.233901e+002, 2.049797e+001
2.238722e+002, 2.062434e+001
2.243543e+002, 2.095686e+001
2.248364e+002, 2.100067e+001
2.253185e+002, 2.056754e+001
2.258007e+002, 2.002096e+001
2.262828e+002, 1.983671e+001
2.267649e+002, 2.018622e+001
2.272470e+002, 2.056522e+001
2.277291e+002, 2.087005e+001
2.282112e+002, 2.112048e+001
2.286934e+002, 2.116366e+001
2.291755e+002, 2.090126e+001
2.296576e+002, 2.051865e+001
2.301397e+002, 2.026053e+001
2.306218e+002, 2.017550e+001
2.311039e+002, 2.011886e+001
2.315861e+002, 2.004122e+001
2.320682e+002, 1.992323e+001
2.325503e+002, 1.993695e+001
2.330324e+002, 2.022680e+001
2.335145e+002, 2.052859e+001
2.339966e+002, 2.047080e+001
2.344788e+002, 1.978934e+001
2.349609e+002, 1.922488e+001
2.354430e+002, 1.901259e+001
2.359251e+002, 1.922357e+001
2.364072e+002, 1.926086e+001
2.368893e+002, 1.895569e+001
2.373715e+002, 1.861514e+001
2.378536e+002, 1.866065e+001
2.383357e+002, 1.938649e+001
2.388178e+002, 1.998315e+001
2.392999e+002, 2.023153e+001
2.397820e+002, 2.009002e+001
2.402642e+002, 1.989439e+001
2.407463e+002, 1.960345e+001
2.412284e+002, 1.929221e+001
2.417105e+002, 1.903627e+001
2.421926e+002, 1.877836e+001
2.426747e+002, 1.868519e+001
2.431569e+002, 1.886983e+001
2.436390e+002, 1.939579e+001
2.441211e+002, 1.966456e+001
2.446032e+002, 1.956979e+001
2.450853e+002, 1.931656e+001
2.455674e+002, 1.913656e+001
2.460496e+002, 1.905088e+001
2.465317e+002, 1.900209e+001
2.470138e+002, 1.899872e+001
2.474959e+002, 1.905217e+001
2.479780e+002, 1.901188e+001
2.484601e+002, 1.881826e+001
2.489423e+002, 1.859050e+001
2.494244e+002, 1.847105e+001
2.499065e+002, 1.853921e+001
2.503886e+002, 1.855512e+001
2.508707e+002, 1.842342e+001
2.513528e+002, 1.813106e+001
2.518350e+002, 1.803620e+001
2.523171e+002, 1.826441e+001
2.527992e+002, 1.855422e+001
2.532813e+002, 1.862737e+001
2.537634e+002, 1.838695e+001
2.542455e+002, 1.813691e+001
2.547277e+002, 1.792719e+001
2.552098e+002, 1.775686e+001
2.556919e+002, 1.762557e+001
2.561740e+002, 1.753229e+001
2.566561e+002, 1.747827e+001
2.571382e+002, 1.747001e+001
2.576204e+002, 1.752127e+001
2.581025e+002, 1.758825e+001
2.585846e+002, 1.768662e+001
2.590667e+002, 1.781106e+001
2.595488e+002, 1.780099e+001
2.600309e+002, 1.755472e+001
2.605131e+002, 1.732283e+001
2.609952e+002, 1.737727e+001
2.614773e+002, 1.788623e+001
2.619594e+002, 1.820401e+001
2.624415e+002, 1.817147e+001
2.629236e+002, 1.782773e+001
2.634058e+002, 1.757740e+001
2.638879e+002, 1.744385e+001
2.643700e+002, 1.735989e+001
2.648521e+002, 1.724642e+001
2.653342e+002, 1.705104e+001
2.658163e+002, 1.702506e+001
2.662985e+002, 1.729490e+001
2.667806e+002, 1.777380e+001
2.672627e+002, 1.792649e+001
2.677448e+002, 1.762335e+001
2.682269e+002, 1.726313e+001
2.687090e+002, 1.715746e+001
2.691912e+002, 1.737594e+001
2.696733e+002, 1.754865e+001
2.701554e+002, 1.763389e+001
2.706375e+002, 1.764041e+001
2.711196e+002, 1.757770e+001
2.716017e+002, 1.741111e+001
2.720839e+002, 1.727072e+001
2.725660e+002, 1.727372e+001
2.730481e+002, 1.745302e+001
2.735302e+002, 1.755997e+001
2.740123e+002, 1.757118e+001
2.744944e+002, 1.749624e+001
2.749766e+002, 1.732164e+001
2.754587e+002, 1.700269e+001
2.759408e+002, 1.675898e+001
2.764229e+002, 1.676206e+001
2.769050e+002, 1.703352e+001
2.773871e+002, 1.728144e+001
2.778693e+002, 1.749977e+001
2.783514e+002, 1.766803e+001
2.788335e+002, 1.773413e+001
2.793156e+002, 1.769166e+001
2.797977e+002, 1.758916e+001
2.802798e+002, 1.740517e+001
2.807620e+002, 1.713989e+001
2.812441e+002, 1.702526e+001
2.817262e+002, 1.711009e+001
2.822083e+002, 1.728077e+001
2.826904e+002, 1.733698e+001
2.831725e+002, 1.727289e+001
2.836547e+002, 1.717723e+001
2.841368e+002, 1.707472e+001
2.846189e+002, 1.696960e+001
2.851010e+002, 1.690029e+001
2.855831e+002, 1.686566e+001
2.860652e+002, 1.687217e+001
2.865474e+002, 1.696744e+001
2.870295e+002, 1.714852e+001
2.875116e+002, 1.726810e+001
2.879937e+002, 1.726308e+001
2.884758e+002, 1.714062e+001
2.889579e+002, 1.689492e+001
2.894401e+002, 1.648906e+001
2.899222e+002, 1.613417e+001
2.904043e+002, 1.617280e+001
2.908864e+002, 1.655221e+001
2.913685e+002, 1.684750e+001
2.918506e+002, 1.687194e+001
2.923328e+002, 1.669491e+001
2.928149e+002, 1.648407e+001
2.932970e+002, 1.623226e+001
2.937791e+002, 1.601830e+001
2.942612e+002, 1.593205e+001
2.947433e+002, 1.595597e+001
2.952255e+002, 1.603162e+001
2.957076e+002, 1.619685e+001
2.961897e+002, 1.636952e+001
2.966718e+002, 1.634461e+001
2.971539e+002, 1.612745e+001
2.976360e+002, 1.590604e+001
2.981182e+002, 1.585570e+001
2.986003e+002, 1.592590e+001
2.990824e+002, 1.598297e+001
2.995645e+002, 1.595991e+001
3.000466e+002, 1.594141e+001
3.005287e+002, 1.610114e+001
3.010109e+002, 1.640976e+001
3.014930e+002, 1.666383e+001
3.019751e+002, 1.668874e+001
3.024572e+002, 1.656346e+001
3.029393e+002, 1.641248e+001
3.034214e+002, 1.624446e+001
3.039036e+002, 1.608924e+001
3.043857e+002, 1.594781e+001
3.048678e+002, 1.583654e+001
3.053499e+002, 1.581439e+001
3.058320e+002, 1.602398e+001
3.063141e+002, 1.630298e+001
3.067963e+002, 1.643567e+001
3.072784e+002, 1.634945e+001
3.077605e+002, 1.622913e+001
3.082426e+002, 1.621777e+001
3.087247e+002, 1.629005e+001
3.092068e+002, 1.638544e+001
3.096890e+002, 1.650593e+001
3.101711e+002, 1.661681e+001
3.106532e+002, 1.668114e+001
3.111353e+002, 1.668818e+001
3.116174e+002, 1.668250e+001
3.120995e+002, 1.669287e+001
3.125817e+002, 1.670869e+001
3.130638e+002, 1.671321e+001
3.135459e+002, 1.671345e+001
3.140280e+002, 1.668985e+001
3.145101e+002, 1.661642e+001
3.149922e+002, 1.648831e+001
3.154744e+002, 1.637549e+001
3.159565e+002, 1.629298e+001
3.164386e+002, 1.625111e+001
3.169207e+002, 1.626219e+001
3.174028e+002, 1.643525e+001
3.178849e+002, 1.656573e+001
3.183671e+002, 1.655189e+001
3.188492e+002, 1.639856e+001
3.193313e+002, 1.623611e+001
3.198134e+002, 1.601173e+001
3.202955e+002, 1.584509e+001
3.207776e+002, 1.583313e+001
3.212598e+002, 1.621493e+001
3.217419e+002, 1.651982e+001
3.222240e+002, 1.660185e+001
3.227061e+002, 1.649870e+001
3.231882e+002, 1.641128e+001
3.236703e+002, 1.631269e+001
3.241525e+002, 1.628482e+001
3.246346e+002, 1.638195e+001
3.251167e+002, 1.683084e+001
3.255988e+002, 1.710254e+001
3.260809e+002, 1.698286e+001
3.265630e+002, 1.663743e+001
3.270452e+002, 1.652001e+001
3.275273e+002, 1.698926e+001
3.280094e+002, 1.740484e+001
3.284915e+002, 1.752744e+001
3.289736e+002, 1.719563e+001
3.294557e+002, 1.692544e+001
3.299379e+002, 1.669109e+001
3.304200e+002, 1.652620e+001
3.309021e+002, 1.649283e+001
3.313842e+002, 1.668872e+001
3.318663e+002, 1.688656e+001
3.323484e+002, 1.703897e+001
3.328306e+002, 1.714747e+001
3.333127e+002, 1.717628e+001
3.337948e+002, 1.707193e+001
3.342769e+002, 1.693534e+001
3.347590e+002, 1.688865e+001
3.352411e+002, 1.698996e+001
3.357233e+002, 1.704906e+001
3.362054e+002, 1.701546e+001
3.366875e+002, 1.689580e+001
3.371696e+002, 1.680156e+001
3.376517e+002, 1.673934e+001
3.381339e+002, 1.669068e+001
3.386160e+002, 1.662879e+001
3.390981e+002, 1.653647e+001
3.395802e+002, 1.652505e+001
3.400623e+002, 1.664433e+001
3.405444e+002, 1.684012e+001
3.410266e+002, 1.690792e+001
3.415087e+002, 1.682432e+001
3.419908e+002, 1.672943e+001
3.424729e+002, 1.675770e+001
3.429550e+002, 1.690724e+001
3.434371e+002, 1.684593e+001
3.439193e+002, 1.647554e+001
3.444014e+002, 1.601994e+001
3.448835e+002, 1.595885e+001
3.453656e+002, 1.628877e+001
3.458477e+002, 1.655004e+001
3.463298e+002, 1.648439e+001
3.468120e+002, 1.615261e+001
3.472941e+002, 1.577571e+001
3.477762e+002, 1.533306e+001
3.482583e+002, 1.496814e+001
3.487404e+002, 1.490401e+001
3.492225e+002, 1.508249e+001
3.497047e+002, 1.525669e+001
3.501868e+002, 1.532800e+001
3.506689e+002, 1.533769e+001
3.511510e+002, 1.538834e+001
3.516331e+002, 1.547691e+001
3.521152e+002, 1.548257e+001
3.525974e+002, 1.521863e+001
3.530795e+002, 1.481080e+001
3.535616e+002, 1.449140e+001
3.540437e+002, 1.433267e+001
3.545258e+002, 1.427687e+001
3.550079e+002, 1.431700e+001
3.554901e+002, 1.442831e+001
3.559722e+002, 1.450062e+001
3.564543e+002, 1.442871e+001
3.569364e+002, 1.430120e+001
3.574185e+002, 1.421002e+001
3.579006e+002, 1.418208e+001
3.583828e+002, 1.416423e+001
3.588649e+002, 1.413545e+001
3.593470e+002, 1.409221e+001
3.598291e+002, 1.402734e+001
3.603112e+002, 1.390078e+001
3.607933e+002, 1.377937e+001
3.612755e+002, 1.369252e+001
3.617576e+002, 1.364000e+001
3.622397e+002, 1.364505e+001
3.627218e+002, 1.383074e+001
3.632039e+002, 1.403799e+001
3.636860e+002, 1.408927e+001
3.641682e+002, 1.372401e+001
3.646503e+002, 1.340345e+001
3.651324e+002, 1.331563e+001
3.656145e+002, 1.345110e+001
3.660966e+002, 1.353259e+001
3.665787e+002, 1.347951e+001
3.670609e+002, 1.338034e+001
3.675430e+002, 1.329178e+001
3.680251e+002, 1.324557e+001
3.685072e+002, 1.317736e+001
3.689893e+002, 1.304563e+001
3.694714e+002, 1.288339e+001
3.699536e+002, 1.280581e+001
3.704357e+002, 1.287352e+001
3.709178e+002, 1.296270e+001
3.713999e+002, 1.303366e+001
3.718820e+002, 1.311211e+001
3.723641e+002, 1.309966e+001
3.728463e+002, 1.293864e+001
3.733284e+002, 1.272489e+001
3.738105e+002, 1.261718e+001
3.742926e+002, 1.267618e+001
3.747747e+002, 1.270124e+001
3.752568e+002, 1.260911e+001
3.757390e+002, 1.239721e+001
3.762211e+002, 1.230941e+001
3.767032e+002, 1.238537e+001
3.771853e+002, 1.250064e+001
3.776674e+002, 1.254177e+001
3.781495e+002, 1.250441e+001
3.786317e+002, 1.242453e+001
3.791138e+002, 1.229250e+001
3.795959e+002, 1.213230e+001
3.800780e+002, 1.201166e+001
3.805601e+002, 1.193237e+001
3.810422e+002, 1.188135e+001
3.815244e+002, 1.184718e+001
3.820065e+002, 1.183238e+001
3.824886e+002, 1.185992e+001
3.829707e+002, 1.194198e+001
3.834528e+002, 1.203881e+001
3.839349e+002, 1.213115e+001
3.844171e+002, 1.220423e+001
3.848992e+002, 1.218212e+001
3.853813e+002, 1.189624e+001
3.858634e+002, 1.153192e+001
3.863455e+002, 1.143759e+001
3.868276e+002, 1.163264e+001
3.873098e+002, 1.188729e+001
3.877919e+002, 1.203011e+001
3.882740e+002, 1.209311e+001
3.887561e+002, 1.213295e+001
3.892382e+002, 1.216523e+001
3.897203e+002, 1.218572e+001
3.902025e+002, 1.221150e+001
3.906846e+002, 1.223069e+001
3.911667e+002, 1.218674e+001
3.916488e+002, 1.198349e+001
3.921309e+002, 1.173869e+001
3.926130e+002, 1.153589e+001
3.930952e+002, 1.135862e+001
3.935773e+002, 1.130449e+001
3.940594e+002, 1.160050e+001
3.945415e+002, 1.203323e+001
3.950236e+002, 1.220642e+001
3.955057e+002, 1.162158e+001
3.959879e+002, 1.108634e+001
3.964700e+002, 1.100682e+001
3.969521e+002, 1.151023e+001
3.974342e+002, 1.181667e+001
3.979163e+002, 1.163107e+001
3.983984e+002, 1.127963e+001
3.988806e+002, 1.106000e+001
3.993627e+002, 1.106500e+001
3.998448e+002, 1.112066e+001
4.003269e+002, 1.123540e+001
4.008090e+002, 1.139806e+001
4.012911e+002, 1.151806e+001
4.017733e+002, 1.156240e+001
4.022554e+002, 1.160422e+001
4.027375e+002, 1.168584e+001
4.032196e+002, 1.183601e+001
4.037017e+002, 1.196154e+001
4.041838e+002, 1.208574e+001
4.046660e+002, 1.216490e+001
4.051481e+002, 1.209610e+001
4.056302e+002, 1.184365e+001
4.061123e+002, 1.156893e+001
4.065944e+002, 1.127574e+001
4.070765e+002, 1.097539e+001
4.075587e+002, 1.098428e+001
4.080408e+002, 1.137141e+001
4.085229e+002, 1.180333e+001
4.090050e+002, 1.191700e+001
4.094871e+002, 1.173085e+001
4.099692e+002, 1.151049e+001
4.104514e+002, 1.126375e+001
4.109335e+002, 1.106996e+001
4.114156e+002, 1.119265e+001
4.118977e+002, 1.159786e+001
4.123798e+002, 1.190247e+001
4.128619e+002, 1.171046e+001
4.133441e+002, 1.126209e+001
4.138262e+002, 1.105075e+001
4.143083e+002, 1.116696e+001
4.147904e+002, 1.134033e+001
4.152725e+002, 1.123404e+001
4.157546e+002, 1.099093e+001
4.162368e+002, 1.090487e+001
4.167189e+002, 1.134119e+001
4.172010e+002, 1.182155e+001
4.176831e+002, 1.192722e+001
4.181652e+002, 1.167085e+001
4.186473e+002, 1.139758e+001
4.191295e+002, 1.125683e+001
4.196116e+002, 1.120365e+001
4.200937e+002, 1.121167e+001
4.205758e+002, 1.138606e+001
4.210579e+002, 1.145789e+001
4.215400e+002, 1.124455e+001
4.220222e+002, 1.086232e+001
4.225043e+002, 1.059221e+001
4.229864e+002, 1.051100e+001
4.234685e+002, 1.054494e+001
4.239506e+002, 1.071039e+001
4.244327e+002, 1.109380e+001
4.249149e+002, 1.130861e+001
4.253970e+002, 1.115144e+001
4.258791e+002, 1.092527e+001
4.263612e+002, 1.094403e+001
4.268433e+002, 1.144045e+001
4.273254e+002, 1.180808e+001
4.278076e+002, 1.192050e+001
4.282897e+002, 1.181663e+001
4.287718e+002, 1.176405e+001
4.292539e+002, 1.177218e+001
4.297360e+002, 1.181250e+001
4.302181e+002, 1.189041e+001
4.307003e+002, 1.202515e+001
4.311824e+002, 1.204741e+001
4.316645e+002, 1.190714e+001
4.321466e+002, 1.172578e+001
4.326287e+002, 1.172964e+001
4.331108e+002, 1.192214e+001
4.335930e+002, 1.212071e+001
4.340751e+002, 1.226242e+001
4.345572e+002, 1.235636e+001
4.350393e+002, 1.242898e+001
4.355214e+002, 1.248014e+001
4.360035e+002, 1.251497e+001
4.364857e+002, 1.252253e+001
4.369678e+002, 1.251693e+001
4.374499e+002, 1.252776e+001
4.379320e+002, 1.255139e+001
4.384141e+002, 1.261404e+001
4.388962e+002, 1.280344e+001
4.393784e+002, 1.306604e+001
4.398605e+002, 1.324485e+001
4.403426e+002, 1.317441e+001
4.408247e+002, 1.303518e+001
4.413068e+002, 1.297988e+001
4.417889e+002, 1.302722e+001
4.422711e+002, 1.308939e+001
4.427532e+002, 1.309647e+001
4.432353e+002, 1.310607e+001
4.437174e+002, 1.317801e+001
4.441995e+002, 1.347946e+001
4.446816e+002, 1.368692e+001
4.451638e+002, 1.362491e+001
4.456459e+002, 1.336546e+001
4.461280e+002, 1.323855e+001
4.466101e+002, 1.340800e+001
4.470922e+002, 1.362395e+001
4.475743e+002, 1.378450e+001
4.480565e+002, 1.387746e+001
4.485386e+002, 1.393792e+001
4.490207e+002, 1.394782e+001
4.495028e+002, 1.393627e+001
4.499849e+002, 1.394261e+001
4.504670e+002, 1.398131e+001
4.509492e+002, 1.400603e+001
4.514313e+002, 1.400752e+001
4.519134e+002, 1.398691e+001
4.523955e+002, 1.393957e+001
4.528776e+002, 1.385253e+001
4.533597e+002, 1.378699e+001
4.538419e+002, 1.380806e+001
4.543240e+002, 1.391239e+001
4.548061e+002, 1.395541e+001
4.552882e+002, 1.391088e+001
4.557703e+002, 1.383837e+001
4.562524e+002, 1.383763e+001
4.567346e+002, 1.389738e+001
4.572167e+002, 1.394254e+001
4.576988e+002, 1.393079e+001
4.581809e+002, 1.388938e+001
4.586630e+002, 1.383871e+001
4.591451e+002, 1.378347e+001
4.596273e+002, 1.379447e+001
4.601094e+002, 1.404166e+001
4.605915e+002, 1.434639e+001
4.610736e+002, 1.445515e+001
4.615557e+002, 1.423268e+001
4.620378e+002, 1.398520e+001
4.625200e+002, 1.394434e+001
4.630021e+002, 1.401830e+001
4.634842e+002, 1.402922e+001
4.639663e+002, 1.377803e+001
4.644484e+002, 1.356067e+001
4.649305e+002, 1.356667e+001
4.654127e+002, 1.382085e+001
4.658948e+002, 1.398516e+001
4.663769e+002, 1.386384e+001
4.668590e+002, 1.370373e+001
4.673411e+002, 1.368489e+001
4.678232e+002, 1.411024e+001
4.683054e+002, 1.428389e+001
4.687875e+002, 1.403461e+001
4.692696e+002, 1.354610e+001
4.697517e+002, 1.327840e+001
4.702338e+002, 1.333629e+001
4.707159e+002, 1.342407e+001
4.711981e+002, 1.342826e+001
4.716802e+002, 1.334271e+001
4.721623e+002, 1.335131e+001
4.726444e+002, 1.348696e+001
4.731265e+002, 1.362672e+001
4.736086e+002, 1.362066e+001
4.740908e+002, 1.347195e+001
4.745729e+002, 1.338659e+001
4.750550e+002, 1.342252e+001
4.755371e+002, 1.350695e+001
4.760192e+002, 1.350345e+001
4.765013e+002, 1.341939e+001
4.769835e+002, 1.331551e+001
4.774656e+002, 1.316658e+001
4.779477e+002, 1.303866e+001
4.784298e+002, 1.309603e+001
4.789119e+002, 1.335160e+001
4.793940e+002, 1.354755e+001
4.798762e+002, 1.334126e+001
4.803583e+002, 1.299736e+001
4.808404e+002, 1.288117e+001
4.813225e+002, 1.330220e+001
4.818046e+002, 1.369333e+001
4.822867e+002, 1.367424e+001
4.827689e+002, 1.339367e+001
4.832510e+002, 1.323413e+001
4.837331e+002, 1.356109e+001
4.842152e+002, 1.383069e+001
4.846973e+002, 1.373828e+001
4.851794e+002, 1.315724e+001
4.856616e+002, 1.276739e+001
4.861437e+002, 1.272871e+001
4.866258e+002, 1.284276e+001
4.871079e+002, 1.296963e+001
4.875900e+002, 1.315819e+001
4.880721e+002, 1.327339e+001
4.885543e+002, 1.329807e+001
4.890364e+002, 1.324368e+001
4.895185e+002, 1.311799e+001
4.900006e+002, 1.288266e+001
4.904827e+002, 1.270078e+001
4.909648e+002, 1.266182e+001
4.914470e+002, 1.275785e+001
4.919291e+002, 1.286053e+001
4.924112e+002, 1.298460e+001
4.928933e+002, 1.303981e+001
4.933754e+002, 1.287804e+001
4.938575e+002, 1.255180e+001
4.943397e+002, 1.229856e+001
4.948218e+002, 1.218918e+001
4.953039e+002, 1.214307e+001
4.957860e+002, 1.198964e+001
4.962681e+002, 1.179196e+001
4.967502e+002, 1.176525e+001
4.972324e+002, 1.221225e+001
4.977145e+002, 1.276581e+001
4.981966e+002, 1.309970e+001
4.986787e+002, 1.319788e+001
4.991608e+002, 1.316426e+001
4.996429e+002, 1.292272e+001
5.001251e+002, 1.264427e+001
5.006072e+002, 1.247675e+001
5.010893e+002, 1.252809e+001
5.015714e+002, 1.259231e+001
5.020535e+002, 1.260702e+001
5.025356e+002, 1.260431e+001
5.030178e+002, 1.265803e+001
5.034999e+002, 1.287273e+001
5.039820e+002, 1.303742e+001
5.044641e+002, 1.308669e+001
5.049462e+002, 1.301636e+001
5.054283e+002, 1.295874e+001
5.059105e+002, 1.292237e+001
5.063926e+002, 1.288660e+001
5.068747e+002, 1.281292e+001
5.073568e+002, 1.267924e+001
5.078389e+002, 1.268437e+001
5.083210e+002, 1.289809e+001
5.088032e+002, 1.316800e+001
5.092853e+002, 1.318430e+001
5.097674e+002, 1.296437e+001
5.102495e+002, 1.280079e+001
5.107316e+002, 1.286191e+001
5.112137e+002, 1.303752e+001
5.116959e+002, 1.307687e+001
5.121780e+002, 1.298907e+001
5.126601e+002, 1.289970e+001
5.131422e+002, 1.286296e+001
5.136243e+002, 1.289365e+001
5.141064e+002, 1.305407e+001
5.145886e+002, 1.341757e+001
5.150707e+002, 1.368001e+001
5.155528e+002, 1.353822e+001
5.160349e+002, 1.320528e+001
5.165170e+002, 1.298729e+001
5.169991e+002, 1.310099e+001
5.174813e+002, 1.322368e+001
5.179634e+002, 1.321606e+001
5.184455e+002, 1.310149e+001
5.189276e+002, 1.308649e+001
5.194097e+002, 1.332649e+001
5.198918e+002, 1.355566e+001
5.203740e+002, 1.366179e+001
5.208561e+002, 1.360681e+001
5.213382e+002, 1.354774e+001
5.218203e+002, 1.345421e+001
5.223024e+002, 1.339140e+001
5.227845e+002, 1.347319e+001
5.232667e+002, 1.374725e+001
5.237488e+002, 1.387562e+001
5.242309e+002, 1.372395e+001
5.247130e+002, 1.344742e+001
5.251951e+002, 1.347023e+001
5.256772e+002, 1.378702e+001
5.261594e+002, 1.411875e+001
5.266415e+002, 1.433295e+001
5.271236e+002, 1.444731e+001
5.276057e+002, 1.445809e+001
5.280878e+002, 1.436366e+001
5.285699e+002, 1.430936e+001
5.290521e+002, 1.449089e+001
5.295342e+002, 1.475982e+001
5.300163e+002, 1.491132e+001
5.304984e+002, 1.483442e+001
5.309805e+002, 1.473454e+001
5.314626e+002, 1.471138e+001
5.319448e+002, 1.474648e+001
5.324269e+002, 1.480376e+001
5.329090e+002, 1.483434e+001
5.333911e+002, 1.492269e+001
5.338732e+002, 1.518064e+001
5.343553e+002, 1.561870e+001
5.348375e+002, 1.578671e+001
5.353196e+002, 1.541576e+001
5.358017e+002, 1.503071e+001
5.362838e+002, 1.493174e+001
5.367659e+002, 1.523558e+001
5.372480e+002, 1.550906e+001
5.377302e+002, 1.577064e+001
5.382123e+002, 1.597076e+001
5.386944e+002, 1.598748e+001
5.391765e+002, 1.580281e+001
5.396586e+002, 1.569476e+001
5.401407e+002, 1.574255e+001
5.406229e+002, 1.591123e+001
5.411050e+002, 1.618679e+001
5.415871e+002, 1.655007e+001
5.420692e+002, 1.680510e+001
5.425513e+002, 1.672492e+001
5.430334e+002, 1.650068e+001
5.435156e+002, 1.643600e+001
5.439977e+002, 1.655602e+001
5.444798e+002, 1.670092e+001
5.449619e+002, 1.671257e+001
5.454440e+002, 1.670739e+001
5.459261e+002, 1.681590e+001
5.464083e+002, 1.713130e+001
5.468904e+002, 1.747946e+001
5.473725e+002, 1.786110e+001
5.478546e+002, 1.822771e+001
5.483367e+002, 1.848468e+001
5.488188e+002, 1.846933e+001
5.493010e+002, 1.849981e+001
5.497831e+002, 1.868133e+001
5.502652e+002, 1.901059e+001
5.507473e+002, 1.924798e+001
5.512294e+002, 1.935293e+001
5.517115e+002, 1.943499e+001
5.521937e+002, 1.955710e+001
5.526758e+002, 1.972018e+001
5.531579e+002, 1.991829e+001
5.536400e+002, 2.015377e+001
5.541221e+002, 2.041822e+001
5.546042e+002, 2.070586e+001
5.550864e+002, 2.101480e+001
5.555685e+002, 2.135485e+001
5.560506e+002, 2.181317e+001
5.565327e+002, 2.218933e+001
5.570148e+002, 2.204815e+001
5.574969e+002, 2.153091e+001
5.579791e+002, 2.116879e+001
5.584612e+002, 2.139283e+001
5.589433e+002, 2.181168e+001
5.594254e+002, 2.213314e+001
5.599075e+002, 2.233694e+001
5.603896e+002, 2.247885e+001
5.608718e+002, 2.254119e+001
5.613539e+002, 2.257352e+001
5.618360e+002, 2.261079e+001
5.623181e+002, 2.264396e+001
5.628002e+002, 2.270642e+001
5.632823e+002, 2.284025e+001
5.637645e+002, 2.298712e+001
5.642466e+002, 2.304906e+001
5.647287e+002, 2.297626e+001
5.652108e+002, 2.293048e+001
5.656929e+002, 2.295030e+001
5.661750e+002, 2.302526e+001
5.666572e+002, 2.312430e+001
5.671393e+002, 2.325442e+001
5.676214e+002, 2.335275e+001
5.681035e+002, 2.332942e+001
5.685856e+002, 2.323703e+001
5.690677e+002, 2.333410e+001
5.695499e+002, 2.364321e+001
5.700320e+002, 2.390135e+001
5.705141e+002, 2.377975e+001
5.709962e+002, 2.346007e+001
5.714783e+002, 2.323798e+001
5.719604e+002, 2.320105e+001
5.724426e+002, 2.324120e+001
5.729247e+002, 2.338022e+001
5.734068e+002, 2.353451e+001
5.738889e+002, 2.355725e+001
5.743710e+002, 2.313685e+001
5.748531e+002, 2.284174e+001
5.753353e+002, 2.292887e+001
5.758174e+002, 2.337300e+001
5.762995e+002, 2.374152e+001
5.767816e+002, 2.407477e+001
5.772637e+002, 2.426576e+001
5.777458e+002, 2.419796e+001
5.782280e+002, 2.375903e+001
5.787101e+002, 2.370476e+001
5.791922e+002, 2.414501e+001
5.796743e+002, 2.472825e+001
5.801564e+002, 2.509488e+001
5.806385e+002, 2.525330e+001
5.811207e+002, 2.536029e+001
5.816028e+002, 2.541672e+001
5.820849e+002, 2.548992e+001
5.825670e+002, 2.571489e+001
5.830491e+002, 2.604690e+001
5.835313e+002, 2.635305e+001
5.840134e+002, 2.654729e+001
5.844955e+002, 2.670031e+001
5.849776e+002, 2.684548e+001
5.854597e+002, 2.699456e+001
5.859418e+002, 2.720979e+001
5.864240e+002, 2.758249e+001
5.869061e+002, 2.798071e+001
5.873882e+002, 2.832877e+001
5.878703e+002, 2.859788e+001
5.883524e+002, 2.888858e+001
5.888345e+002, 2.927417e+001
5.893167e+002, 2.964554e+001
5.897988e+002, 2.990839e+001
5.902809e+002, 2.999463e+001
5.907630e+002, 3.011578e+001
5.912451e+002, 3.024630e+001
5.917272e+002, 3.046097e+001
5.922094e+002, 3.096164e+001
5.926915e+002, 3.176530e+001
5.931736e+002, 3.251805e+001
5.936557e+002, 3.310043e+001
5.941378e+002, 3.355291e+001
5.946199e+002, 3.394580e+001
5.951021e+002, 3.428261e+001
5.955842e+002, 3.461891e+001
5.960663e+002, 3.498903e+001
5.965484e+002, 3.537764e+001
5.970305e+002, 3.575383e+001
5.975126e+002, 3.611246e+001
5.979948e+002, 3.654212e+001
5.984769e+002, 3.718151e+001
5.989590e+002, 3.785795e+001
5.994411e+002, 3.842097e+001
5.999232e+002, 3.873613e+001
6.004053e+002, 3.911290e+001
6.008875e+002, 3.960335e+001
6.013696e+002, 4.017583e+001
6.018517e+002, 4.079527e+001
6.023338e+002, 4.149805e+001
6.028159e+002, 4.217053e+001
6.032980e+002, 4.281505e+001
6.037802e+002, 4.340992e+001
6.042623e+002, 4.385215e+001
6.047444e+002, 4.411102e+001
6.052265e+002, 4.444517e+001
6.057086e+002, 4.505574e+001
6.061907e+002, 4.584777e+001
6.066729e+002, 4.648311e+001
6.071550e+002, 4.696184e+001
6.076371e+002, 4.743234e+001
6.081192e+002, 4.795203e+001
6.086013e+002, 4.855376e+001
6.090834e+002, 4.930905e+001
6.095656e+002, 5.028704e+001
6.100477e+002, 5.120226e+001
6.105298e+002, 5.190661e+001
6.110119e+002, 5.246043e+001
6.114940e+002, 5.293944e+001
6.119761e+002, 5.310778e+001
6.124583e+002, 5.349908e+001
6.129404e+002, 5.438136e+001
6.134225e+002, 5.551228e+001
6.139046e+002, 5.635997e+001
6.143867e+002, 5.673627e+001
6.148688e+002, 5.720730e+001
6.153510e+002, 5.802205e+001
6.158331e+002, 5.908076e+001
6.163152e+002, 5.968505e+001
6.167973e+002, 5.978039e+001
6.172794e+002, 5.993095e+001
6.177615e+002, 6.057547e+001
6.182437e+002, 6.155887e+001
6.187258e+002, 6.249474e+001
6.192079e+002, 6.337182e+001
6.196900e+002, 6.415753e+001
6.201721e+002, 6.474641e+001
6.206542e+002, 6.526051e+001
6.211364e+002, 6.588287e+001
6.216185e+002, 6.678773e+001
6.221006e+002, 6.752058e+001
6.225827e+002, 6.773190e+001
6.230648e+002, 6.770609e+001
6.235469e+002, 6.784043e+001
6.240291e+002, 6.818006e+001
6.245112e+002, 6.873307e+001
6.249933e+002, 6.970766e+001
6.254754e+002, 7.088929e+001
6.259575e+002, 7.148367e+001
6.264396e+002, 7.131650e+001
6.269218e+002, 7.108836e+001
6.274039e+002, 7.106182e+001
6.278860e+002, 7.120215e+001
6.283681e+002, 7.129184e+001
6.288502e+002, 7.132814e+001
6.293323e+002, 7.138197e+001
6.298145e+002, 7.149844e+001
6.302966e+002, 7.167078e+001
6.307787e+002, 7.191157e+001
6.312608e+002, 7.222834e+001
6.317429e+002, 7.251746e+001
6.322250e+002, 7.270396e+001
6.327072e+002, 7.281940e+001
6.331893e+002, 7.290679e+001
6.336714e+002, 7.302802e+001
6.341535e+002, 7.303033e+001
6.346356e+002, 7.278479e+001
6.351177e+002, 7.241951e+001
6.355999e+002, 7.214092e+001
6.360820e+002, 7.205116e+001
6.365641e+002, 7.188782e+001
6.370462e+002, 7.158643e+001
6.375283e+002, 7.118827e+001
6.380104e+002, 7.081409e+001
6.384926e+002, 7.045564e+001
6.389747e+002, 7.016186e+001
6.394568e+002, 7.002759e+001
6.399389e+002, 6.996113e+001
6.404210e+002, 6.963477e+001
6.409031e+002, 6.905663e+001
6.413853e+002, 6.840032e+001
6.418674e+002, 6.774838e+001
6.423495e+002, 6.710959e+001
6.428316e+002, 6.650068e+001
6.433137e+002, 6.591628e+001
6.437958e+002, 6.537936e+001
6.442780e+002, 6.495113e+001
6.447601e+002, 6.453913e+001
6.452422e+002, 6.407140e+001
6.457243e+002, 6.362254e+001
6.462064e+002, 6.296460e+001
6.466885e+002, 6.190047e+001
6.471707e+002, 6.073936e+001
6.476528e+002, 5.995338e+001
6.481349e+002, 5.969834e+001
6.486170e+002, 5.928408e+001
6.490991e+002, 5.854148e+001
6.495812e+002, 5.760244e+001
6.500634e+002, 5.674929e+001
6.505455e+002, 5.596961e+001
6.510276e+002, 5.519025e+001
6.515097e+002, 5.436678e+001
6.519918e+002, 5.351936e+001
6.524739e+002, 5.263343e+001
6.529561e+002, 5.173897e+001
6.534382e+002, 5.092694e+001
6.539203e+002, 5.032339e+001
6.544024e+002, 4.978159e+001
6.548845e+002, 4.922942e+001
6.553666e+002, 4.867155e+001
6.558488e+002, 4.798547e+001
6.563309e+002, 4.695765e+001
6.568130e+002, 4.593637e+001
6.572951e+002, 4.514987e+001
6.577772e+002, 4.473691e+001
6.582593e+002, 4.417657e+001
6.587415e+002, 4.342189e+001
6.592236e+002, 4.259585e+001
6.597057e+002, 4.182899e+001
6.601878e+002, 4.112359e+001
6.606699e+002, 4.044062e+001
6.611520e+002, 3.977663e+001
6.616342e+002, 3.915558e+001
6.621163e+002, 3.867668e+001
6.625984e+002, 3.827464e+001
6.630805e+002, 3.777123e+001
6.635626e+002, 3.692101e+001
6.640447e+002, 3.612325e+001
6.645269e+002, 3.582071e+001
6.650090e+002, 3.581601e+001
6.654911e+002, 3.552296e+001
6.659732e+002, 3.431687e+001
6.664553e+002, 3.322996e+001
6.669374e+002, 3.276115e+001
6.674196e+002, 3.285271e+001
6.679017e+002, 3.264774e+001
6.683838e+002, 3.199281e+001
6.688659e+002, 3.132716e+001
6.693480e+002, 3.088900e+001
6.698301e+002, 3.067430e+001
6.703123e+002, 3.036555e+001
6.707944e+002, 2.995257e+001
6.712765e+002, 2.951312e+001
6.717586e+002, 2.910927e+001
6.722407e+002, 2.872483e+001
6.727228e+002, 2.833218e+001
6.732050e+002, 2.792380e+001
6.736871e+002, 2.750525e+001
6.741692e+002, 2.704484e+001
6.746513e+002, 2.658446e+001
6.751334e+002, 2.617215e+001
6.756155e+002, 2.573875e+001
6.760977e+002, 2.546832e+001
6.765798e+002, 2.555503e+001
6.770619e+002, 2.578354e+001
6.775440e+002, 2.583822e+001
6.780261e+002, 2.567914e+001
6.785082e+002, 2.542429e+001
6.789904e+002, 2.506524e+001
6.794725e+002, 2.464364e+001
6.799546e+002, 2.421249e+001
6.804367e+002, 2.377728e+001
6.809188e+002, 2.349585e+001
6.814009e+002, 2.355396e+001
6.818831e+002, 2.373401e+001
6.823652e+002, 2.360465e+001
6.828473e+002, 2.321574e+001
6.833294e+002, 2.282135e+001
6.838115e+002, 2.261662e+001
6.842936e+002, 2.242355e+001
6.847758e+002, 2.205120e+001
6.852579e+002, 2.149450e+001
6.857400e+002, 2.108024e+001
6.862221e+002, 2.102982e+001
6.867042e+002, 2.103418e+001
6.871863e+002, 2.090408e+001
6.876685e+002, 2.055830e+001
6.881506e+002, 2.046412e+001
6.886327e+002, 2.071615e+001
6.891148e+002, 2.102388e+001
6.895969e+002, 2.113991e+001
6.900790e+002, 2.107143e+001
6.905612e+002, 2.090762e+001
6.910433e+002, 2.064863e+001
6.915254e+002, 2.034073e+001
6.920075e+002, 2.000669e+001
6.924896e+002, 1.967350e+001
6.929717e+002, 1.939196e+001
6.934539e+002, 1.917280e+001
6.939360e+002, 1.901554e+001
6.944181e+002, 1.903063e+001
6.949002e+002, 1.908207e+001
6.953823e+002, 1.895813e+001
6.958644e+002, 1.829905e+001
6.963466e+002, 1.785754e+001
6.968287e+002, 1.784451e+001
6.973108e+002, 1.808795e+001
6.977929e+002, 1.813419e+001
6.982750e+002, 1.793712e+001
6.987571e+002, 1.771176e+001
6.992393e+002, 1.750024e+001
6.997214e+002, 1.732424e+001
7.002035e+002, 1.730502e+001
7.006856e+002, 1.741916e+001
7.011677e+002, 1.746186e+001
7.016498e+002, 1.720983e+001
7.021320e+002, 1.688580e+001
7.026141e+002, 1.675135e+001
7.030962e+002, 1.679637e+001
7.035783e+002, 1.687104e+001
7.040604e+002, 1.703572e+001
7.045425e+002, 1.710372e+001
7.050247e+002, 1.689618e+001
7.055068e+002, 1.630536e+001
7.059889e+002, 1.601512e+001
7.064710e+002, 1.625964e+001
7.069531e+002, 1.650386e+001
7.074352e+002, 1.631669e+001
7.079174e+002, 1.562825e+001
7.083995e+002, 1.536401e+001
7.088816e+002, 1.559789e+001
7.093637e+002, 1.597403e+001
7.098458e+002, 1.619861e+001
7.103279e+002, 1.627082e+001
7.108101e+002, 1.614832e+001
7.112922e+002, 1.577393e+001
7.117743e+002, 1.543179e+001
7.122564e+002, 1.538505e+001
7.127385e+002, 1.547298e+001
7.132206e+002, 1.550196e+001
7.137028e+002, 1.534472e+001
7.141849e+002, 1.523138e+001
7.146670e+002, 1.528126e+001
7.151491e+002, 1.536732e+001
7.156312e+002, 1.529049e+001
7.161133e+002, 1.493890e+001
7.165955e+002, 1.475735e+001
7.170776e+002, 1.488400e+001
7.175597e+002, 1.514753e+001
7.180418e+002, 1.515306e+001
7.185239e+002, 1.492693e+001
7.190060e+002, 1.473248e+001
7.194882e+002, 1.470576e+001
7.199703e+002, 1.472609e+001
7.204524e+002, 1.462276e+001
7.209345e+002, 1.443883e+001
7.214166e+002, 1.429895e+001
7.218987e+002, 1.426801e+001
7.223809e+002, 1.428941e+001
7.228630e+002, 1.439674e+001
7.233451e+002, 1.456305e+001
7.238272e+002, 1.456661e+001
7.243093e+002, 1.426906e+001
7.247914e+002, 1.400473e+001
7.252736e+002, 1.389920e+001
7.257557e+002, 1.394174e+001
7.262378e+002, 1.405036e+001
7.267199e+002, 1.425068e+001
7.272020e+002, 1.430463e+001
7.276841e+002, 1.386151e+001
7.281663e+002, 1.320433e+001
7.286484e+002, 1.302723e+001
7.291305e+002, 1.333745e+001
7.296126e+002, 1.369513e+001
7.300947e+002, 1.381490e+001
7.305768e+002, 1.384954e+001
7.310590e+002, 1.393828e+001
7.315411e+002, 1.412746e+001
7.320232e+002, 1.421461e+001
7.325053e+002, 1.408933e+001
7.329874e+002, 1.391007e+001
7.334695e+002, 1.375817e+001
7.339517e+002, 1.362150e+001
7.344338e+002, 1.357660e+001
7.349159e+002, 1.365449e+001
7.353980e+002, 1.373473e+001
7.358801e+002, 1.365490e+001
7.363622e+002, 1.345960e+001
7.368444e+002, 1.335422e+001
7.373265e+002, 1.339052e+001
7.378086e+002, 1.341669e+001
7.382907e+002, 1.319291e+001
7.387728e+002, 1.290990e+001
7.392549e+002, 1.283778e+001
7.397371e+002, 1.324779e+001
7.402192e+002, 1.353018e+001
7.407013e+002, 1.338169e+001
7.411834e+002, 1.306746e+001
7.416655e+002, 1.295117e+001
7.421476e+002, 1.314666e+001
7.426298e+002, 1.327108e+001
7.431119e+002, 1.327363e+001
7.435940e+002, 1.319237e+001
7.440761e+002, 1.305553e+001
7.445582e+002, 1.287630e+001
7.450403e+002, 1.278224e+001
7.455225e+002, 1.282286e+001
7.460046e+002, 1.294622e+001
7.464867e+002, 1.317627e+001
7.469688e+002, 1.343445e+001
7.474509e+002, 1.354885e+001
7.479330e+002, 1.333807e+001
7.484152e+002, 1.308622e+001
7.488973e+002, 1.282463e+001
7.493794e+002, 1.260319e+001
7.498615e+002, 1.259073e+001
7.503436e+002, 1.296587e+001
7.508257e+002, 1.321864e+001
7.513079e+002, 1.317421e+001
7.517900e+002, 1.293508e+001
7.522721e+002, 1.288865e+001
7.527542e+002, 1.303436e+001
7.532363e+002, 1.316677e+001
7.537184e+002, 1.319605e+001
7.542006e+002, 1.314456e+001
7.546827e+002, 1.301306e+001
7.551648e+002, 1.282139e+001
7.556469e+002, 1.265755e+001
7.561290e+002, 1.254485e+001
7.566111e+002, 1.249001e+001
7.570933e+002, 1.248051e+001
7.575754e+002, 1.252145e+001
7.580575e+002, 1.269203e+001
7.585396e+002, 1.315042e+001
7.590217e+002, 1.349992e+001
7.595038e+002, 1.356014e+001
7.599860e+002, 1.335836e+001
7.604681e+002, 1.317997e+001
7.609502e+002, 1.301814e+001
7.614323e+002, 1.297693e+001
7.619144e+002, 1.328844e+001
7.623965e+002, 1.370811e+001
7.628787e+002, 1.372760e+001
7.633608e+002, 1.336474e+001
7.638429e+002, 1.300275e+001
7.643250e+002, 1.285292e+001
7.648071e+002, 1.279927e+001
7.652892e+002, 1.276898e+001
7.657714e+002, 1.275238e+001
7.662535e+002, 1.278644e+001
7.667356e+002, 1.292898e+001
7.672177e+002, 1.304757e+001
7.676998e+002, 1.304698e+001
7.681819e+002, 1.291505e+001
7.686641e+002, 1.290499e+001
7.691462e+002, 1.303636e+001
7.696283e+002, 1.314139e+001
7.701104e+002, 1.301944e+001
7.705925e+002, 1.278802e+001
7.710746e+002, 1.268537e+001
7.715568e+002, 1.273800e+001
7.720389e+002, 1.280423e+001
7.725210e+002, 1.278359e+001
7.730031e+002, 1.274907e+001
7.734852e+002, 1.274636e+001
7.739673e+002, 1.276103e+001
7.744495e+002, 1.289434e+001
7.749316e+002, 1.327923e+001
7.754137e+002, 1.362296e+001
7.758958e+002, 1.367862e+001
7.763779e+002, 1.342064e+001
7.768600e+002, 1.318329e+001
7.773422e+002, 1.296680e+001
7.778243e+002, 1.283479e+001
7.783064e+002, 1.293884e+001
7.787885e+002, 1.315102e+001
7.792706e+002, 1.320975e+001
7.797527e+002, 1.304989e+001
7.802349e+002, 1.288634e+001
7.807170e+002, 1.282979e+001
7.811991e+002, 1.283793e+001
7.816812e+002, 1.287553e+001
7.821633e+002, 1.294315e+001
7.826454e+002, 1.304930e+001
7.831276e+002, 1.330599e+001
7.836097e+002, 1.346664e+001
7.840918e+002, 1.317744e+001
7.845739e+002, 1.242651e+001
7.850560e+002, 1.201854e+001
7.855381e+002, 1.206599e+001
7.860203e+002, 1.228857e+001
7.865024e+002, 1.241316e+001
7.869845e+002, 1.248917e+001
7.874666e+002, 1.261379e+001
7.879487e+002, 1.283250e+001
7.884308e+002, 1.302342e+001
7.889130e+002, 1.310344e+001
7.893951e+002, 1.314106e+001
7.898772e+002, 1.321158e+001
7.903593e+002, 1.339610e+001
7.908414e+002, 1.347293e+001
7.913235e+002, 1.341548e+001
7.918057e+002, 1.328277e+001
7.922878e+002, 1.307057e+001
7.927699e+002, 1.279609e+001
7.932520e+002, 1.286401e+001
7.937341e+002, 1.341548e+001
7.942162e+002, 1.392957e+001
7.946984e+002, 1.370380e+001
7.951805e+002, 1.310855e+001
7.956626e+002, 1.273363e+001
7.961447e+002, 1.278295e+001
7.966268e+002, 1.291286e+001
7.971089e+002, 1.304231e+001
7.975911e+002, 1.316910e+001
7.980732e+002, 1.329270e+001
7.985553e+002, 1.342234e+001
7.990374e+002, 1.353977e+001
7.995195e+002, 1.366802e+001
8.000016e+002, 1.374022e+001
8.004838e+002, 1.362792e+001
8.009659e+002, 1.336768e+001
8.014480e+002, 1.316945e+001
8.019301e+002, 1.307834e+001
8.024122e+002, 1.303124e+001
8.028943e+002, 1.294908e+001
8.033765e+002, 1.288285e+001
8.038586e+002, 1.291171e+001
8.043407e+002, 1.317350e+001
8.048228e+002, 1.331511e+001
8.053049e+002, 1.312210e+001
8.057870e+002, 1.285874e+001
8.062692e+002, 1.281267e+001
8.067513e+002, 1.307816e+001
8.072334e+002, 1.315862e+001
8.077155e+002, 1.296074e+001
8.081976e+002, 1.270979e+001
8.086797e+002, 1.274482e+001
8.091619e+002, 1.296528e+001
8.096440e+002, 1.307217e+001
8.101261e+002, 1.298443e+001
8.106082e+002, 1.284253e+001
8.110903e+002, 1.264889e+001
8.115724e+002, 1.250646e+001
8.120546e+002, 1.254209e+001
8.125367e+002, 1.304625e+001
8.130188e+002, 1.327012e+001
8.135009e+002, 1.298468e+001
8.139830e+002, 1.260878e+001
8.144651e+002, 1.266311e+001
8.149473e+002, 1.318711e+001
8.154294e+002, 1.345707e+001
8.159115e+002, 1.336992e+001
8.163936e+002, 1.316901e+001
8.168757e+002, 1.314207e+001
8.173578e+002, 1.319541e+001
8.178400e+002, 1.314070e+001
8.183221e+002, 1.288558e+001
8.188042e+002, 1.270487e+001
8.192863e+002, 1.277033e+001
8.197684e+002, 1.294873e+001
8.202505e+002, 1.312514e+001
8.207327e+002, 1.334699e+001
8.212148e+002, 1.342741e+001
8.216969e+002, 1.330996e+001
8.221790e+002, 1.315233e+001
8.226611e+002, 1.316751e+001
8.231432e+002, 1.331225e+001
8.236254e+002, 1.325887e+001
8.241075e+002, 1.294392e+001
8.245896e+002, 1.268573e+001
8.250717e+002, 1.287042e+001
8.255538e+002, 1.322772e+001
8.260359e+002, 1.347011e+001
8.265181e+002, 1.355947e+001
8.270002e+002, 1.348401e+001
8.274823e+002, 1.301413e+001
8.279644e+002, 1.256052e+001
8.284465e+002, 1.242292e+001
8.289286e+002, 1.270309e+001
8.294108e+002, 1.277459e+001
8.298929e+002, 1.258898e+001
8.303750e+002, 1.240307e+001
8.308571e+002, 1.250080e+001
8.313392e+002, 1.276418e+001
8.318214e+002, 1.295170e+001
8.323035e+002, 1.303675e+001
8.327856e+002, 1.306368e+001
8.332677e+002, 1.302197e+001
8.337498e+002, 1.295849e+001
8.342319e+002, 1.290140e+001
8.347141e+002, 1.284714e+001
8.351962e+002, 1.284329e+001
8.356783e+002, 1.294519e+001
8.361604e+002, 1.300336e+001
8.366425e+002, 1.283566e+001
8.371246e+002, 1.247545e+001
8.376068e+002, 1.252701e+001
8.380889e+002, 1.299634e+001
8.385710e+002, 1.340255e+001
8.390531e+002, 1.330695e+001
8.395352e+002, 1.299570e+001
8.400173e+002, 1.270533e+001
8.404995e+002, 1.245899e+001
8.409816e+002, 1.242087e+001
8.414637e+002, 1.295593e+001
8.419458e+002, 1.340514e+001
8.424279e+002, 1.343117e+001
8.429100e+002, 1.304429e+001
8.433922e+002, 1.284447e+001
8.438743e+002, 1.286148e+001
8.443564e+002, 1.290171e+001
8.448385e+002, 1.282497e+001
8.453206e+002, 1.269498e+001
8.458027e+002, 1.268589e+001
8.462849e+002, 1.277424e+001
8.467670e+002, 1.282909e+001
8.472491e+002, 1.278823e+001
8.477312e+002, 1.268282e+001
8.482133e+002, 1.243575e+001
8.486954e+002, 1.209313e+001
8.491776e+002, 1.206075e+001
8.496597e+002, 1.257382e+001
8.501418e+002, 1.292380e+001
8.506239e+002, 1.278623e+001
8.511060e+002, 1.235901e+001
8.515881e+002, 1.238309e+001
8.520703e+002, 1.279898e+001
8.525524e+002, 1.310485e+001
8.530345e+002, 1.297938e+001
8.535166e+002, 1.269728e+001
8.539987e+002, 1.242211e+001
8.544808e+002, 1.218841e+001
8.549630e+002, 1.208390e+001
8.554451e+002, 1.225504e+001
8.559272e+002, 1.241743e+001
8.564093e+002, 1.253726e+001
8.568914e+002, 1.260115e+001
8.573735e+002, 1.256507e+001
8.578557e+002, 1.241950e+001
8.583378e+002, 1.227692e+001
8.588199e+002, 1.214932e+001
8.593020e+002, 1.207271e+001
8.597841e+002, 1.213451e+001
8.602662e+002, 1.228411e+001
8.607484e+002, 1.242025e+001
8.612305e+002, 1.255201e+001
8.617126e+002, 1.259884e+001
8.621947e+002, 1.243423e+001
8.626768e+002, 1.220690e+001
8.631589e+002, 1.214240e+001
8.636411e+002, 1.234165e+001
8.641232e+002, 1.240213e+001
8.646053e+002, 1.225664e+001
8.650874e+002, 1.203950e+001
8.655695e+002, 1.191260e+001
8.660516e+002, 1.185923e+001
8.665338e+002, 1.182750e+001
8.670159e+002, 1.180893e+001
8.674980e+002, 1.180304e+001
8.679801e+002, 1.183792e+001
8.684622e+002, 1.186871e+001
8.689443e+002, 1.183401e+001
8.694265e+002, 1.161835e+001
8.699086e+002, 1.163233e+001
8.703907e+002, 1.203755e+001
8.708728e+002, 1.241924e+001
8.713549e+002, 1.235972e+001
8.718370e+002, 1.190903e+001
8.723192e+002, 1.168075e+001
8.728013e+002, 1.169767e+001
8.732834e+002, 1.179525e+001
8.737655e+002, 1.191946e+001
8.742476e+002, 1.200362e+001
8.747297e+002, 1.198417e+001
8.752119e+002, 1.185447e+001
8.756940e+002, 1.163616e+001
8.761761e+002, 1.115245e+001
8.766582e+002, 1.077830e+001
8.771403e+002, 1.068068e+001
8.776224e+002, 1.084167e+001
8.781046e+002, 1.106966e+001
8.785867e+002, 1.137312e+001
8.790688e+002, 1.155237e+001
8.795509e+002, 1.133274e+001
8.800330e+002, 1.100502e+001
8.805151e+002, 1.102911e+001
8.809973e+002, 1.132343e+001
8.814794e+002, 1.156924e+001
8.819615e+002, 1.172218e+001
8.824436e+002, 1.170491e+001
8.829257e+002, 1.134821e+001
8.834078e+002, 1.081677e+001
8.838900e+002, 1.057489e+001
8.843721e+002, 1.067166e+001
8.848542e+002, 1.080339e+001
8.853363e+002, 1.089190e+001
8.858184e+002, 1.095485e+001
8.863005e+002, 1.107845e+001
8.867827e+002, 1.120057e+001
8.872648e+002, 1.115020e+001
8.877469e+002, 1.071095e+001
8.882290e+002, 1.032229e+001
8.887111e+002, 1.014825e+001
8.891932e+002, 1.015591e+001
8.896754e+002, 1.031392e+001
8.901575e+002, 1.074041e+001
8.906396e+002, 1.097950e+001
8.911217e+002, 1.096253e+001
8.916038e+002, 1.082625e+001
8.920859e+002, 1.068895e+001
8.925681e+002, 1.057207e+001
8.930502e+002, 1.057096e+001
8.935323e+002, 1.072156e+001
8.940144e+002, 1.083197e+001
8.944965e+002, 1.073008e+001
8.949786e+002, 1.055513e+001
8.954608e+002, 1.042034e+001
8.959429e+002, 1.034570e+001
8.964250e+002, 1.029114e+001
8.969071e+002, 1.025912e+001
8.973892e+002, 1.024298e+001
8.978713e+002, 1.027864e+001
8.983535e+002, 1.033712e+001
8.988356e+002, 1.018967e+001
8.993177e+002, 9.852524e+000
8.997998e+002, 9.583436e+000
9.002819e+002, 9.594486e+000
9.007640e+002, 9.706556e+000
9.012462e+002, 9.801023e+000
9.017283e+002, 9.871965e+000
9.022104e+002, 9.945908e+000
9.026925e+002, 1.007318e+001
9.031746e+002, 1.011617e+001
9.036567e+002, 9.989553e+000
9.041389e+002, 9.775175e+000
9.046210e+002, 9.781653e+000
9.051031e+002, 9.977478e+000
9.055852e+002, 1.007440e+001
9.060673e+002, 9.887626e+000
9.065494e+002, 9.646638e+000
9.070316e+002, 9.528031e+000
9.075137e+002, 9.509476e+000
9.079958e+002, 9.550842e+000
9.084779e+002, 9.742056e+000
9.089600e+002, 9.850412e+000
9.094421e+002, 9.810910e+000
9.099243e+002, 9.729749e+000
9.104064e+002, 9.806387e+000
9.108885e+002, 1.002124e+001
9.113706e+002, 9.970214e+000
9.118527e+002, 9.547519e+000
9.123348e+002, 9.154190e+000
9.128170e+002, 9.284343e+000
9.132991e+002, 9.601047e+000
9.137812e+002, 9.698248e+000
9.142633e+002, 9.433722e+000
9.147454e+002, 9.274995e+000
9.152275e+002, 9.359453e+000
9.157097e+002, 9.486238e+000
9.161918e+002, 9.549748e+000
9.166739e+002, 9.550493e+000
9.171560e+002, 9.493762e+000
9.176381e+002, 9.379092e+000
9.181202e+002, 9.316584e+000
9.186024e+002, 9.470019e+000
9.190845e+002, 9.654783e+000
9.195666e+002, 9.651284e+000
9.200487e+002, 9.484309e+000
9.205308e+002, 9.332551e+000
9.210129e+002, 9.241456e+000
9.214951e+002, 9.177440e+000
9.219772e+002, 9.115952e+000
9.224593e+002, 9.080802e+000
9.229414e+002, 9.152406e+000
9.234235e+002, 9.328840e+000
9.239056e+002, 9.569804e+000
9.243878e+002, 9.943167e+000
9.248699e+002, 1.021369e+001
9.253520e+002, 1.000222e+001
9.258341e+002, 9.541484e+000
9.263162e+002, 9.197813e+000
9.267983e+002, 9.114118e+000
9.272805e+002, 9.100065e+000
9.277626e+002, 9.148992e+000
9.282447e+002, 9.234254e+000
9.287268e+002, 9.361789e+000
9.292089e+002, 9.532826e+000
9.296910e+002, 9.533411e+000
9.301732e+002, 9.334595e+000
9.306553e+002, 9.128739e+000
9.311374e+002, 9.102901e+000
9.316195e+002, 9.159338e+000
9.321016e+002, 9.196937e+000
9.325837e+002, 9.203527e+000
9.330659e+002, 9.191390e+000
9.335480e+002, 9.102482e+000
9.340301e+002, 9.072152e+000
9.345122e+002, 9.196692e+000
9.349943e+002, 9.433094e+000
9.354764e+002, 9.439619e+000
9.359586e+002, 9.223217e+000
9.364407e+002, 9.051189e+000
9.369228e+002, 9.081991e+000
9.374049e+002, 9.196810e+000
9.378870e+002, 9.300624e+000
9.383691e+002, 9.390443e+000
9.388513e+002, 9.456765e+000
9.393334e+002, 9.544301e+000
9.398155e+002, 9.530347e+000
9.402976e+002, 9.329070e+000
9.407797e+002, 9.094614e+000
9.412618e+002, 9.145171e+000
9.417440e+002, 9.446422e+000
9.422261e+002, 9.480498e+000
9.427082e+002, 9.112931e+000
9.431903e+002, 8.736941e+000
9.436724e+002, 8.753032e+000
9.441545e+002, 8.947607e+000
9.446367e+002, 9.124685e+000
9.451188e+002, 9.275717e+000
9.456009e+002, 9.292334e+000
9.460830e+002, 9.102254e+000
9.465651e+002, 8.885950e+000
9.470472e+002, 8.718002e+000
9.475294e+002, 8.607220e+000
9.480115e+002, 8.692287e+000
9.484936e+002, 8.954373e+000
9.489757e+002, 9.174928e+000
9.494578e+002, 9.138599e+000
9.499399e+002, 9.075393e+000
9.504221e+002, 9.246093e+000
9.509042e+002, 9.557011e+000
9.513863e+002, 9.610367e+000
9.518684e+002, 9.183417e+000
9.523505e+002, 8.856338e+000
9.528326e+002, 8.728566e+000
9.533148e+002, 8.757514e+000
9.537969e+002, 8.937440e+000
9.542790e+002, 9.218752e+000
9.547611e+002, 9.383494e+000
9.552432e+002, 9.365109e+000
9.557253e+002, 9.262789e+000
9.562075e+002, 9.050200e+000
9.566896e+002, 8.845237e+000
9.571717e+002, 8.782550e+000
9.576538e+002, 8.944090e+000
9.581359e+002, 8.999234e+000
9.586180e+002, 8.901632e+000
9.591002e+002, 8.813480e+000
9.595823e+002, 8.898854e+000
9.600644e+002, 9.082439e+000
9.605465e+002, 9.118005e+000
9.610286e+002, 9.017611e+000
9.615107e+002, 8.910112e+000
9.619929e+002, 8.851886e+000
9.624750e+002, 8.821636e+000
9.629571e+002, 8.792636e+000
9.634392e+002, 8.782368e+000
9.639213e+002, 8.876035e+000
9.644034e+002, 9.127141e+000
9.648856e+002, 9.255744e+000
9.653677e+002, 9.167836e+000
9.658498e+002, 8.980266e+000
9.663319e+002, 8.850504e+000
9.668140e+002, 8.767545e+000
9.672961e+002, 8.707053e+000
9.677783e+002, 8.646991e+000
9.682604e+002, 8.649379e+000
9.687425e+002, 8.789193e+000
9.692246e+002, 8.963075e+000
9.697067e+002, 9.111158e+000
9.701888e+002, 9.246937e+000
9.706710e+002, 9.211991e+000
9.711531e+002, 8.989380e+000
9.716352e+002, 8.760127e+000
9.721173e+002, 8.665036e+000
9.725994e+002, 8.646320e+000
9.730815e+002, 8.639391e+000
9.735637e+002, 8.640688e+000
9.740458e+002, 8.647353e+000
9.745279e+002, 8.656178e+000
9.750100e+002, 8.673150e+000
9.754921e+002, 8.698208e+000
9.759742e+002, 8.733105e+000
9.764564e+002, 8.792529e+000
9.769385e+002, 8.874353e+000
9.774206e+002, 8.928461e+000
9.779027e+002, 8.941578e+000
9.783848e+002, 8.923559e+000
9.788669e+002, 8.824559e+000
9.793491e+002, 8.728743e+000
9.798312e+002, 8.754178e+000
9.803133e+002, 9.019617e+000
9.807954e+002, 9.145017e+000
9.812775e+002, 9.079467e+000
9.817596e+002, 8.944189e+000
9.822418e+002, 8.778439e+000
9.827239e+002, 8.608510e+000
9.832060e+002, 8.609186e+000
9.836881e+002, 8.762858e+000
9.841702e+002, 8.909168e+000
9.846523e+002, 9.001252e+000
9.851345e+002, 9.005599e+000
9.856166e+002, 8.815607e+000
9.860987e+002, 8.516752e+000
9.865808e+002, 8.418763e+000
9.870629e+002, 8.592513e+000
9.875450e+002, 8.748317e+000
9.880272e+002, 8.834775e+000
9.885093e+002, 8.870324e+000
9.889914e+002, 8.866954e+000
9.894735e+002, 8.836843e+000
9.899556e+002, 8.793522e+000
9.904377e+002, 8.724502e+000
9.909199e+002, 8.710527e+000
9.914020e+002, 8.862429e+000
9.918841e+002, 9.014845e+000
9.923662e+002, 9.058021e+000
9.928483e+002, 8.988982e+000
9.933304e+002, 8.872852e+000
9.938126e+002, 8.702341e+000
9.942947e+002, 8.610949e+000
9.947768e+002, 8.781110e+000
9.952589e+002, 9.004779e+000
9.957410e+002, 8.982409e+000
9.962231e+002, 8.804056e+000
9.967053e+002, 8.732915e+000
9.971874e+002, 8.969705e+000
9.976695e+002, 9.157513e+000
9.981516e+002, 9.265561e+000
9.986337e+002, 9.284632e+000
9.991158e+002, 9.164446e+000
9.995980e+002, 8.927136e+000
1.000080e+003, 8.745403e+000
1.000562e+003, 8.647681e+000
1.001044e+003, 8.557075e+000
1.001526e+003, 8.405254e+000
1.002009e+003, 8.239902e+000
1.002491e+003, 8.055761e+000
1.002973e+003, 7.834805e+000
1.003455e+003, 7.922407e+000
1.003937e+003, 8.439749e+000
1.004419e+003, 8.880805e+000
1.004901e+003, 8.989778e+000
1.005383e+003, 8.897706e+000
1.005865e+003, 8.896022e+000
1.006348e+003, 8.937745e+000
1.006830e+003, 8.887938e+000
1.007312e+003, 8.500956e+000
1.007794e+003, 8.245724e+000
1.008276e+003, 8.365438e+000
1.008758e+003, 8.625331e+000
1.009240e+003, 8.782536e+000
1.009722e+003, 8.822696e+000
1.010205e+003, 8.923711e+000
1.010687e+003, 9.110929e+000
1.011169e+003, 9.230142e+000
1.011651e+003, 9.077787e+000
1.012133e+003, 8.832773e+000
1.012615e+003, 8.644428e+000
1.013097e+003, 8.531895e+000
1.013579e+003, 8.573866e+000
1.014061e+003, 8.916346e+000
1.014544e+003, 9.181410e+000
1.015026e+003, 9.232426e+000
1.015508e+003, 9.162600e+000
1.015990e+003, 9.242007e+000
1.016472e+003, 9.414276e+000
1.016954e+003, 9.431669e+000
1.017436e+003, 9.156701e+000
1.017918e+003, 8.868143e+000
1.018401e+003, 8.693377e+000
1.018883e+003, 8.622813e+000
1.019365e+003, 8.650908e+000
1.019847e+003, 8.790236e+000
1.020329e+003, 8.966915e+000
1.020811e+003, 9.199711e+000
1.021293e+003, 9.367720e+000
1.021775e+003, 9.342732e+000
1.022257e+003, 9.221143e+000
1.022740e+003, 9.182016e+000
1.023222e+003, 9.187756e+000
1.023704e+003, 9.086880e+000
1.024186e+003, 8.572947e+000
1.024668e+003, 8.289157e+000
1.025150e+003, 8.456870e+000
1.025632e+003, 8.826072e+000
1.026114e+003, 8.967773e+000
1.026596e+003, 8.908864e+000
1.027079e+003, 8.926238e+000
1.027561e+003, 9.073110e+000
1.028043e+003, 9.218622e+000
1.028525e+003, 9.289244e+000
1.029007e+003, 9.288197e+000
1.029489e+003, 9.183900e+000
1.029971e+003, 8.967165e+000
1.030453e+003, 8.849333e+000
1.030936e+003, 8.841866e+000
1.031418e+003, 8.904814e+000
1.031900e+003, 9.070581e+000
1.032382e+003, 9.241622e+000
1.032864e+003, 9.169343e+000
1.033346e+003, 8.950549e+000
1.033828e+003, 8.818753e+000
1.034310e+003, 8.944222e+000
1.034792e+003, 9.031622e+000
1.035275e+003, 8.988826e+000
1.035757e+003, 8.898273e+000
1.036239e+003, 8.805385e+000
1.036721e+003, 8.710817e+000
1.037203e+003, 8.750033e+000
1.037685e+003, 8.925679e+000
1.038167e+003, 9.084644e+000
1.038649e+003, 9.161116e+000
1.039132e+003, 9.134573e+000
1.039614e+003, 8.872769e+000
1.040096e+003, 8.465868e+000
1.040578e+003, 8.366642e+000
1.041060e+003, 8.733775e+000
1.041542e+003, 9.024473e+000
1.042024e+003, 9.119211e+000
1.042506e+003, 9.139009e+000
1.042989e+003, 9.325777e+000
1.043471e+003, 9.563174e+000
1.043953e+003, 9.571728e+000
1.044435e+003, 9.251283e+000
1.044917e+003, 8.989520e+000
1.045399e+003, 8.940810e+000
1.045881e+003, 8.989469e+000
1.046363e+003, 9.104001e+000
1.046845e+003, 9.270205e+000
1.047328e+003, 9.364051e+000
1.047810e+003, 9.390856e+000
1.048292e+003, 9.424940e+000
1.048774e+003, 9.540144e+000
1.049256e+003, 9.622785e+000
1.049738e+003, 9.546759e+000
1.050220e+003, 9.389932e+000
1.050702e+003, 9.278303e+000
1.051184e+003, 9.245055e+000
1.051667e+003, 9.188365e+000
1.052149e+003, 9.080032e+000
1.052631e+003, 9.033900e+000
1.053113e+003, 9.256927e+000
1.053595e+003, 9.569512e+000
1.054077e+003, 9.580497e+000
1.054559e+003, 9.317334e+000
1.055041e+003, 9.076665e+000
1.055523e+003, 8.936399e+000
1.056006e+003, 8.899775e+000
1.056488e+003, 9.010513e+000
1.056970e+003, 9.179389e+000
1.057452e+003, 9.219138e+000
1.057934e+003, 9.141910e+000
1.058416e+003, 9.059963e+000
1.058898e+003, 8.997143e+000
1.059380e+003, 8.916002e+000
1.059863e+003, 8.699594e+000
1.060345e+003, 8.518504e+000
1.060827e+003, 8.567270e+000
1.061309e+003, 8.861221e+000
1.061791e+003, 9.002400e+000
1.062273e+003, 8.962535e+000
1.062755e+003, 8.895151e+000
1.063237e+003, 8.827430e+000
1.063719e+003, 8.822793e+000
1.064202e+003, 9.091787e+000
1.064684e+003, 9.473210e+000
1.065166e+003, 9.650083e+000
1.065648e+003, 9.328109e+000
1.066130e+003, 9.156187e+000
1.066612e+003, 9.296197e+000
1.067094e+003, 9.455063e+000
1.067576e+003, 9.316375e+000
1.068059e+003, 8.967693e+000
1.068541e+003, 8.995449e+000
1.069023e+003, 9.355932e+000
1.069505e+003, 9.632617e+000
1.069987e+003, 9.512434e+000
1.070469e+003, 9.312299e+000
1.070951e+003, 9.156207e+000
1.071433e+003, 9.047475e+000
1.071916e+003, 8.979025e+000
1.072398e+003, 8.943088e+000
1.072880e+003, 9.060683e+000
1.073362e+003, 9.376746e+000
1.073844e+003, 9.651751e+000
1.074326e+003, 9.585028e+000
1.074808e+003, 9.384925e+000
1.075290e+003, 9.272770e+000
1.075772e+003, 9.270369e+000
1.076255e+003, 9.224011e+000
1.076737e+003, 9.079795e+000
1.077219e+003, 8.999573e+000
1.077701e+003, 9.058164e+000
1.078183e+003, 9.177929e+000
1.078665e+003, 9.214106e+000
1.079147e+003, 9.189669e+000
1.079629e+003, 9.147509e+000
1.080111e+003, 9.072373e+000
1.080594e+003, 9.060668e+000
1.081076e+003, 9.229756e+000
1.081558e+003, 9.390986e+000
1.082040e+003, 9.410464e+000
1.082522e+003, 9.310903e+000
1.083004e+003, 9.347548e+000
1.083486e+003, 9.506458e+000
1.083968e+003, 9.652279e+000
1.084450e+003, 9.734064e+000
1.084933e+003, 9.754190e+000
1.085415e+003, 9.691961e+000
1.085897e+003, 9.576122e+000
1.086379e+003, 9.450313e+000
1.086861e+003, 9.309280e+000
1.087343e+003, 9.177094e+000
1.087825e+003, 9.047914e+000
1.088307e+003, 8.973934e+000
1.088790e+003, 8.992631e+000
1.089272e+003, 9.098196e+000
1.089754e+003, 9.370975e+000
1.090236e+003, 9.753140e+000
1.090718e+003, 9.924656e+000
1.091200e+003, 9.699750e+000
1.091682e+003, 9.496388e+000
1.092164e+003, 9.383582e+000
1.092646e+003, 9.323400e+000
1.093129e+003, 9.249271e+000
1.093611e+003, 9.183468e+000
1.094093e+003, 9.188755e+000
1.094575e+003, 9.278461e+000
1.095057e+003, 9.376791e+000
1.095539e+003, 9.453431e+000
1.096021e+003, 9.527120e+000
1.096503e+003, 9.614918e+000
1.096986e+003, 9.703134e+000
1.097468e+003, 9.732092e+000
1.097950e+003, 9.708866e+000
1.098432e+003, 9.691900e+000
1.098914e+003, 9.698382e+000
1.099396e+003, 9.719894e+000
1.099878e+003, 9.801136e+000
1.100360e+003, 9.859281e+000
1.100843e+003, 9.795725e+000
1.101325e+003, 9.592548e+000
1.101807e+003, 9.440639e+000
1.102289e+003, 9.335361e+000
1.102771e+003, 9.321624e+000
1.103253e+003, 9.476987e+000
1.103735e+003, 9.686215e+000
1.104217e+003, 9.856647e+000
1.104699e+003, 9.968884e+000
1.105182e+003, 9.978327e+000
1.105664e+003, 9.692095e+000
1.106146e+003, 9.692174e+000
1.106628e+003, 1.010911e+001
1.107110e+003, 1.050337e+001
1.107592e+003, 1.040885e+001
1.108074e+003, 1.003975e+001
1.108556e+003, 9.817663e+000
1.109038e+003, 9.741134e+000
1.109521e+003, 9.699442e+000
1.110003e+003, 9.722688e+000
1.110485e+003, 9.666155e+000
1.110967e+003, 9.432385e+000
1.111449e+003, 9.188951e+000
1.111931e+003, 9.241396e+000
1.112413e+003, 9.515207e+000
1.112895e+003, 9.670347e+000
1.113377e+003, 9.666813e+000
1.113860e+003, 9.613118e+000
1.114342e+003, 9.492199e+000
1.114824e+003, 9.425185e+000
1.115306e+003, 9.480907e+000
1.115788e+003, 9.639668e+000
1.116270e+003, 9.901281e+000
1.116752e+003, 1.026272e+001
1.117234e+003, 1.041621e+001
1.117717e+003, 1.023641e+001
1.118199e+003, 1.002908e+001
1.118681e+003, 1.015001e+001
1.119163e+003, 1.031389e+001
1.119645e+003, 1.019509e+001
1.120127e+003, 9.763935e+000
1.120609e+003, 9.543783e+000
1.121091e+003, 9.555894e+000
1.121573e+003, 9.657224e+000
1.122056e+003, 9.844909e+000
1.122538e+003, 9.998265e+000
1.123020e+003, 9.896296e+000
1.123502e+003, 9.681229e+000
1.123984e+003, 9.576788e+000
1.124466e+003, 9.682494e+000
1.124948e+003, 9.806973e+000
1.125430e+003, 9.998271e+000
1.125913e+003, 1.007505e+001
1.126395e+003, 9.802174e+000
1.126877e+003, 9.384345e+000
1.127359e+003, 9.282574e+000
1.127841e+003, 9.426997e+000
1.128323e+003, 9.626609e+000
1.128805e+003, 9.907840e+000
1.129287e+003, 1.009904e+001
1.129770e+003, 1.017601e+001
1.130252e+003, 1.017095e+001
1.130734e+003, 1.008849e+001
1.131216e+003, 9.950908e+000
1.131698e+003, 9.835879e+000
1.132180e+003, 9.748313e+000
1.132662e+003, 9.699469e+000
1.133144e+003, 9.733643e+000
1.133626e+003, 9.758655e+000
1.134109e+003, 9.680596e+000
1.134591e+003, 9.619544e+000
1.135073e+003, 9.831881e+000
1.135555e+003, 1.027994e+001
1.136037e+003, 1.049570e+001
1.136519e+003, 1.042202e+001
1.137001e+003, 1.031736e+001
1.137483e+003, 1.041670e+001
1.137965e+003, 1.049967e+001
1.138448e+003, 1.034221e+001
1.138930e+003, 1.006052e+001
1.139412e+003, 1.005571e+001
1.139894e+003, 1.034606e+001
1.140376e+003, 1.053285e+001
1.140858e+003, 1.051692e+001
1.141340e+003, 1.046813e+001
1.141822e+003, 1.058522e+001
1.142304e+003, 1.071463e+001
1.142787e+003, 1.069741e+001
1.143269e+003, 1.052455e+001
1.143751e+003, 1.038057e+001
1.144233e+003, 1.026300e+001
1.144715e+003, 1.018742e+001
1.145197e+003, 1.014665e+001
1.145679e+003, 1.018282e+001
1.146161e+003, 1.047562e+001
1.146644e+003, 1.081730e+001
1.147126e+003, 1.090189e+001
1.147608e+003, 1.056363e+001
1.148090e+003, 1.043954e+001
1.148572e+003, 1.061530e+001
1.149054e+003, 1.076195e+001
1.149536e+003, 1.067841e+001
1.150018e+003, 1.051599e+001
1.150500e+003, 1.054137e+001
1.150983e+003, 1.068928e+001
1.151465e+003, 1.083462e+001
1.151947e+003, 1.097755e+001
1.152429e+003, 1.102928e+001
1.152911e+003, 1.094267e+001
1.153393e+003, 1.085993e+001
1.153875e+003, 1.092519e+001
1.154357e+003, 1.105096e+001
1.154840e+003, 1.094007e+001
1.155322e+003, 1.067635e+001
1.155804e+003, 1.053162e+001
1.156286e+003, 1.078522e+001
1.156768e+003, 1.091191e+001
1.157250e+003, 1.078309e+001
1.157732e+003, 1.059497e+001
1.158214e+003, 1.052556e+001
1.158697e+003, 1.055222e+001
1.159179e+003, 1.056903e+001
1.159661e+003, 1.058362e+001
1.160143e+003, 1.065778e+001
1.160625e+003, 1.095147e+001
1.161107e+003, 1.114155e+001
1.161589e+003, 1.110468e+001
1.162071e+003, 1.095010e+001
1.162553e+003, 1.077299e+001
1.163036e+003, 1.058930e+001
1.163518e+003, 1.052371e+001
1.164000e+003, 1.057899e+001
1.164482e+003, 1.065403e+001
1.164964e+003, 1.072320e+001
1.165446e+003, 1.075658e+001
1.165928e+003, 1.070781e+001
1.166410e+003, 1.063302e+001
1.166892e+003, 1.064764e+001
1.167375e+003, 1.074408e+001
1.167857e+003, 1.080365e+001
1.168339e+003, 1.080962e+001
1.168821e+003, 1.081436e+001
1.169303e+003, 1.090969e+001
1.169785e+003, 1.096390e+001
1.170267e+003, 1.081611e+001
1.170749e+003, 1.057185e+001
1.171231e+003, 1.057994e+001
1.171714e+003, 1.083736e+001
1.172196e+003, 1.090062e+001
1.172678e+003, 1.063917e+001
1.173160e+003, 1.042837e+001
1.173642e+003, 1.072740e+001
1.174124e+003, 1.109395e+001
1.174606e+003, 1.113287e+001
1.175088e+003, 1.089706e+001
1.175571e+003, 1.070674e+001
1.176053e+003, 1.056044e+001
1.176535e+003, 1.045273e+001
1.177017e+003, 1.036391e+001
1.177499e+003, 1.037339e+001
1.177981e+003, 1.069222e+001
1.178463e+003, 1.105153e+001
1.178945e+003, 1.118559e+001
1.179427e+003, 1.108295e+001
1.179910e+003, 1.084861e+001
1.180392e+003, 1.045054e+001
1.180874e+003, 1.023477e+001
1.181356e+003, 1.037079e+001
1.181838e+003, 1.064472e+001
1.182320e+003, 1.098530e+001
1.182802e+003, 1.124375e+001
1.183284e+003, 1.117574e+001
1.183767e+003, 1.069580e+001
1.184249e+003, 1.049599e+001
1.184731e+003, 1.061144e+001
1.185213e+003, 1.076345e+001
1.185695e+003, 1.084856e+001
1.186177e+003, 1.086178e+001
1.186659e+003, 1.073767e+001
1.187141e+003, 1.056338e+001
1.187624e+003, 1.046204e+001
1.188106e+003, 1.044436e+001
1.188588e+003, 1.054759e+001
1.189070e+003, 1.080340e+001
1.189552e+003, 1.099289e+001
1.190034e+003, 1.095218e+001
1.190516e+003, 1.081816e+001
1.190998e+003, 1.071970e+001
1.191480e+003, 1.066381e+001
1.191963e+003, 1.067192e+001
1.192445e+003, 1.080793e+001
1.192927e+003, 1.084748e+001
1.193409e+003, 1.078449e+001
1.193891e+003, 1.065043e+001
1.194373e+003, 1.039161e+001
1.194855e+003, 1.012989e+001
1.195337e+003, 9.982442e+000
1.195819e+003, 9.964599e+000
1.196302e+003, 1.013030e+001
1.196784e+003, 1.064146e+001
1.197266e+003, 1.097459e+001
1.197748e+003, 1.111462e+001
1.198230e+003, 1.109959e+001
1.198712e+003, 1.080864e+001
1.199194e+003, 1.048724e+001
1.199676e+003, 1.058500e+001
1.200158e+003, 1.092363e+001
1.200641e+003, 1.098556e+001
1.201123e+003, 1.049476e+001
1.201605e+003, 1.020313e+001
1.202087e+003, 1.017480e+001
1.202569e+003, 1.024619e+001
1.203051e+003, 1.034542e+001
1.203533e+003, 1.040393e+001
1.204015e+003, 1.025745e+001
1.204498e+003, 9.984826e+000
1.204980e+003, 9.880713e+000
1.205462e+003, 1.009558e+001
1.205944e+003, 1.019528e+001
1.206426e+003, 1.012003e+001
1.206908e+003, 1.001996e+001
1.207390e+003, 1.004358e+001
1.207872e+003, 1.013007e+001
1.208354e+003, 1.021076e+001
1.208837e+003, 1.028373e+001
1.209319e+003, 1.035801e+001
1.209801e+003, 1.044161e+001
1.210283e+003, 1.051930e+001
1.210765e+003, 1.060127e+001
1.211247e+003, 1.063209e+001
1.211729e+003, 1.047653e+001
1.212211e+003, 1.028900e+001
1.212694e+003, 1.031178e+001
1.213176e+003, 1.050803e+001
1.213658e+003, 1.057409e+001
1.214140e+003, 1.040561e+001
1.214622e+003, 1.036749e+001
1.215104e+003, 1.054363e+001
1.215586e+003, 1.072625e+001
1.216068e+003, 1.068085e+001
1.216551e+003, 1.052092e+001
1.217033e+003, 1.037036e+001
1.217515e+003, 1.023478e+001
1.217997e+003, 1.008742e+001
1.218479e+003, 9.906908e+000
1.218961e+003, 9.776410e+000
1.219443e+003, 9.707546e+000
1.219925e+003, 9.698055e+000
1.220407e+003, 9.795797e+000
1.220890e+003, 9.915686e+000
1.221372e+003, 9.975567e+000
1.221854e+003, 9.962859e+000
1.222336e+003, 9.845227e+000
1.222818e+003, 9.550064e+000
1.223300e+003, 9.490571e+000
1.223782e+003, 9.801188e+000
1.224264e+003, 1.011609e+001
1.224746e+003, 9.973787e+000
1.225229e+003, 9.665994e+000
1.225711e+003, 9.422084e+000
1.226193e+003, 9.295590e+000
1.226675e+003, 9.491293e+000
1.227157e+003, 1.011151e+001
1.227639e+003, 1.047679e+001
1.228121e+003, 1.040714e+001
1.228603e+003, 1.022067e+001
1.229085e+003, 1.032994e+001
1.229568e+003, 1.042915e+001
1.230050e+003, 1.008004e+001
1.230532e+003, 9.359879e+000
1.231014e+003, 9.198565e+000
1.231496e+003, 9.669877e+000
1.231978e+003, 1.003782e+001
1.232460e+003, 1.012748e+001
1.232942e+003, 1.011094e+001
1.233425e+003, 1.015910e+001
1.233907e+003, 1.017423e+001
1.234389e+003, 9.968844e+000
1.234871e+003, 9.622110e+000
1.235353e+003, 9.733286e+000
1.235835e+003, 1.033565e+001
1.236317e+003, 1.054555e+001
1.236799e+003, 1.007657e+001
1.237281e+003, 9.585044e+000
1.237764e+003, 9.662151e+000
1.238246e+003, 9.912237e+000
1.238728e+003, 1.005669e+001
1.239210e+003, 1.009667e+001
1.239692e+003, 1.002837e+001
1.240174e+003, 9.858676e+000
1.240656e+003, 9.748872e+000
1.241138e+003, 9.747776e+000
1.241621e+003, 9.753516e+000
1.242103e+003, 9.584870e+000
1.242585e+003, 9.509320e+000
1.243067e+003, 9.795198e+000
1.243549e+003, 1.029072e+001
1.244031e+003, 1.041631e+001
1.244513e+003, 1.021402e+001
1.244995e+003, 1.000572e+001
1.245478e+003, 9.863803e+000
1.245960e+003, 9.730579e+000
1.246442e+003, 9.563975e+000
1.246924e+003, 9.400525e+000
1.247406e+003, 9.261283e+000
1.247888e+003, 9.139636e+000
1.248370e+003, 9.004518e+000
1.248852e+003, 8.871821e+000
1.249334e+003, 8.824573e+000
1.249817e+003, 8.898643e+000
1.250299e+003, 8.941674e+000
1.250781e+003, 8.757745e+000
1.251263e+003, 8.685957e+000
1.251745e+003, 8.905370e+000
1.252227e+003, 9.279206e+000
1.252709e+003, 9.499166e+000
1.253191e+003, 9.591126e+000
1.253673e+003, 9.639408e+000
1.254156e+003, 9.667651e+000
1.254638e+003, 9.591147e+000
1.255120e+003, 9.253210e+000
1.255602e+003, 9.008276e+000
1.256084e+003, 9.004573e+000
1.256566e+003, 9.118896e+000
1.257048e+003, 9.112726e+000
1.257530e+003, 9.034460e+000
1.258012e+003, 8.967185e+000
1.258495e+003, 8.918447e+000
1.258977e+003, 8.970756e+000
1.259459e+003, 9.219592e+000
1.259941e+003, 9.359956e+000
1.260423e+003, 9.268515e+000
1.260905e+003, 9.077495e+000
1.261387e+003, 8.940733e+000
1.261869e+003, 8.871229e+000
1.262352e+003, 8.916601e+000
1.262834e+003, 9.093146e+000
1.263316e+003, 9.172253e+000
1.263798e+003, 9.112454e+000
1.264280e+003, 9.064094e+000
1.264762e+003, 9.063031e+000
1.265244e+003, 9.116141e+000
1.265726e+003, 9.317850e+000
1.266208e+003, 9.521464e+000
1.266691e+003, 9.545290e+000
1.267173e+003, 9.372791e+000
1.267655e+003, 9.190642e+000
1.268137e+003, 8.984292e+000
1.268619e+003, 8.896425e+000
1.269101e+003, 8.989285e+000
1.269583e+003, 9.101904e+000
1.270065e+003, 9.099833e+000
1.270548e+003, 9.034678e+000
1.271030e+003, 8.900213e+000
1.271512e+003, 8.739147e+000
1.271994e+003, 8.786454e+000
1.272476e+003, 9.034344e+000
1.272958e+003, 9.099038e+000
1.273440e+003, 8.868485e+000
1.273922e+003, 8.653867e+000
1.274405e+003, 8.721043e+000
1.274887e+003, 8.834594e+000
1.275369e+003, 8.883114e+000
1.275851e+003, 8.855769e+000
1.276333e+003, 8.674955e+000
1.276815e+003, 8.382191e+000
1.277297e+003, 8.190227e+000
1.277779e+003, 8.143480e+000
1.278261e+003, 8.141343e+000
1.278744e+003, 8.204786e+000
1.279226e+003, 8.198461e+000
1.279708e+003, 8.001853e+000
1.280190e+003, 7.800417e+000
1.280672e+003, 8.078391e+000
1.281154e+003, 8.611861e+000
1.281636e+003, 8.808518e+000
1.282118e+003, 8.588145e+000
1.282600e+003, 8.296816e+000
1.283083e+003, 7.916870e+000
1.283565e+003, 7.687090e+000
1.284047e+003, 7.676290e+000
1.284529e+003, 7.804722e+000
1.285011e+003, 8.033328e+000
1.285493e+003, 8.286272e+000
1.285975e+003, 8.457649e+000
1.286457e+003, 8.534432e+000
1.286939e+003, 8.499284e+000
1.287422e+003, 8.318388e+000
1.287904e+003, 8.175735e+000
1.288386e+003, 8.115467e+000
1.288868e+003, 8.060268e+000
1.289350e+003, 7.866245e+000
1.289832e+003, 7.682624e+000
1.290314e+003, 7.662272e+000
1.290796e+003, 7.800890e+000
1.291279e+003, 8.025437e+000
1.291761e+003, 8.361833e+000
1.292243e+003, 8.474448e+000
1.292725e+003, 8.302962e+000
1.293207e+003, 8.119741e+000
1.293689e+003, 8.194372e+000
1.294171e+003, 8.279977e+000
1.294653e+003, 8.186405e+000
1.295135e+003, 8.001163e+000
1.295618e+003, 7.840979e+000
1.296100e+003, 7.713969e+000
1.296582e+003, 7.749884e+000
1.297064e+003, 7.948276e+000
1.297546e+003, 8.059624e+000
1.298028e+003, 7.864191e+000
1.298510e+003, 7.641437e+000
1.298992e+003, 7.443529e+000
1.299475e+003, 7.319286e+000
1.299957e+003, 7.382361e+000
1.300439e+003, 7.562054e+000
1.300921e+003, 7.671192e+000
1.301403e+003, 7.696821e+000
1.301885e+003, 7.652260e+000
##END=



