##NAMES=Jacobsite
##RRUFFID=R120170
##IDEAL CHEMISTRY=Mn^2+^Fe^3+^_2_O_4_
##LOCALITY=N'Chwaning Mine III, Kalahari manganese field, Northern Cape Province, South Africa
##OWNER=RRUFF
##SOURCE=Marshall Sussman
##DESCRIPTION=Black octahedra
##STATUS=The identification of this mineral is confirmed by single-crystal X-ray diffraction and chemical analysis.
##URL=rruff.info/R120170
##MEASURED CHEMISTRY=(Mn_0.90_Mg_0.10_)_Σ=1.00_(Fe^3+^_1.49_Mn^3+^_0.50_)_Σ=1.99_O_4_
8.975323e+001, 0.000000e+000
9.023535e+001, 1.972382e+002
9.071747e+001, 2.001366e+002
9.119958e+001, 2.004181e+002
9.168170e+001, 1.997212e+002
9.216382e+001, 1.969225e+002
9.264594e+001, 1.926888e+002
9.312805e+001, 1.880111e+002
9.361017e+001, 1.833015e+002
9.409229e+001, 1.780391e+002
9.457440e+001, 1.715738e+002
9.505651e+001, 1.656627e+002
9.553863e+001, 1.601776e+002
9.602074e+001, 1.553337e+002
9.650286e+001, 1.515164e+002
9.698498e+001, 1.487973e+002
9.746709e+001, 1.464733e+002
9.794921e+001, 1.434701e+002
9.843133e+001, 1.388664e+002
9.891344e+001, 1.348211e+002
9.939556e+001, 1.319461e+002
9.987768e+001, 1.299976e+002
1.003598e+002, 1.284320e+002
1.008419e+002, 1.270067e+002
1.013240e+002, 1.256971e+002
1.018061e+002, 1.243836e+002
1.022883e+002, 1.229577e+002
1.027704e+002, 1.215700e+002
1.032525e+002, 1.203803e+002
1.037346e+002, 1.193977e+002
1.042167e+002, 1.184938e+002
1.046988e+002, 1.177492e+002
1.051810e+002, 1.169851e+002
1.056631e+002, 1.158802e+002
1.061452e+002, 1.140742e+002
1.066273e+002, 1.117737e+002
1.071094e+002, 1.098412e+002
1.075915e+002, 1.084833e+002
1.080737e+002, 1.072695e+002
1.085558e+002, 1.059877e+002
1.090379e+002, 1.046765e+002
1.095200e+002, 1.034641e+002
1.100021e+002, 1.024588e+002
1.104842e+002, 1.016787e+002
1.109664e+002, 1.010432e+002
1.114485e+002, 1.007005e+002
1.119306e+002, 1.003690e+002
1.124127e+002, 9.990694e+001
1.128948e+002, 9.930155e+001
1.133769e+002, 9.863241e+001
1.138591e+002, 9.801248e+001
1.143412e+002, 9.739570e+001
1.148233e+002, 9.692989e+001
1.153054e+002, 9.683669e+001
1.157875e+002, 9.678625e+001
1.162696e+002, 9.643138e+001
1.167517e+002, 9.563844e+001
1.172339e+002, 9.457043e+001
1.177160e+002, 9.357925e+001
1.181981e+002, 9.258492e+001
1.186802e+002, 9.177702e+001
1.191623e+002, 9.125912e+001
1.196444e+002, 9.097792e+001
1.201266e+002, 9.082119e+001
1.206087e+002, 9.085387e+001
1.210908e+002, 9.087971e+001
1.215729e+002, 9.057175e+001
1.220550e+002, 8.987607e+001
1.225371e+002, 8.894210e+001
1.230193e+002, 8.782161e+001
1.235014e+002, 8.648165e+001
1.239835e+002, 8.521304e+001
1.244656e+002, 8.409337e+001
1.249477e+002, 8.314865e+001
1.254298e+002, 8.245621e+001
1.259120e+002, 8.209879e+001
1.263941e+002, 8.195116e+001
1.268762e+002, 8.175661e+001
1.273583e+002, 8.155296e+001
1.278404e+002, 8.122001e+001
1.283225e+002, 8.076891e+001
1.288047e+002, 8.018441e+001
1.292868e+002, 7.942256e+001
1.297689e+002, 7.842086e+001
1.302510e+002, 7.720705e+001
1.307331e+002, 7.619069e+001
1.312152e+002, 7.538563e+001
1.316974e+002, 7.477544e+001
1.321795e+002, 7.452891e+001
1.326616e+002, 7.450622e+001
1.331437e+002, 7.439680e+001
1.336258e+002, 7.390528e+001
1.341079e+002, 7.293580e+001
1.345901e+002, 7.220622e+001
1.350722e+002, 7.172885e+001
1.355543e+002, 7.142283e+001
1.360364e+002, 7.133679e+001
1.365185e+002, 7.143892e+001
1.370006e+002, 7.153831e+001
1.374828e+002, 7.142911e+001
1.379649e+002, 7.107991e+001
1.384470e+002, 7.058432e+001
1.389291e+002, 6.974035e+001
1.394112e+002, 6.883089e+001
1.398933e+002, 6.820409e+001
1.403755e+002, 6.796353e+001
1.408576e+002, 6.791178e+001
1.413397e+002, 6.790221e+001
1.418218e+002, 6.794061e+001
1.423039e+002, 6.776910e+001
1.427860e+002, 6.712074e+001
1.432681e+002, 6.613837e+001
1.437503e+002, 6.533988e+001
1.442324e+002, 6.488881e+001
1.447145e+002, 6.461696e+001
1.451966e+002, 6.437032e+001
1.456787e+002, 6.414554e+001
1.461608e+002, 6.391869e+001
1.466430e+002, 6.364016e+001
1.471251e+002, 6.329427e+001
1.476072e+002, 6.304665e+001
1.480893e+002, 6.304235e+001
1.485714e+002, 6.307598e+001
1.490535e+002, 6.302246e+001
1.495357e+002, 6.285962e+001
1.500178e+002, 6.267583e+001
1.504999e+002, 6.262232e+001
1.509820e+002, 6.280647e+001
1.514641e+002, 6.288269e+001
1.519462e+002, 6.278242e+001
1.524284e+002, 6.260577e+001
1.529105e+002, 6.244608e+001
1.533926e+002, 6.233644e+001
1.538747e+002, 6.221982e+001
1.543568e+002, 6.195093e+001
1.548389e+002, 6.135723e+001
1.553211e+002, 6.080439e+001
1.558032e+002, 6.018322e+001
1.562853e+002, 5.964648e+001
1.567674e+002, 5.944049e+001
1.572495e+002, 5.970760e+001
1.577316e+002, 6.029429e+001
1.582138e+002, 6.053737e+001
1.586959e+002, 6.024261e+001
1.591780e+002, 5.988157e+001
1.596601e+002, 5.952956e+001
1.601422e+002, 5.919117e+001
1.606243e+002, 5.887337e+001
1.611065e+002, 5.858873e+001
1.615886e+002, 5.832472e+001
1.620707e+002, 5.803136e+001
1.625528e+002, 5.759984e+001
1.630349e+002, 5.724180e+001
1.635170e+002, 5.712157e+001
1.639991e+002, 5.721876e+001
1.644813e+002, 5.734630e+001
1.649634e+002, 5.746059e+001
1.654455e+002, 5.749833e+001
1.659276e+002, 5.733615e+001
1.664097e+002, 5.686820e+001
1.668918e+002, 5.626651e+001
1.673740e+002, 5.565606e+001
1.678561e+002, 5.499398e+001
1.683382e+002, 5.453286e+001
1.688203e+002, 5.462371e+001
1.693024e+002, 5.495922e+001
1.697845e+002, 5.517884e+001
1.702667e+002, 5.514182e+001
1.707488e+002, 5.490997e+001
1.712309e+002, 5.459752e+001
1.717130e+002, 5.412185e+001
1.721951e+002, 5.372296e+001
1.726772e+002, 5.349021e+001
1.731594e+002, 5.337582e+001
1.736415e+002, 5.333208e+001
1.741236e+002, 5.337363e+001
1.746057e+002, 5.345896e+001
1.750878e+002, 5.331474e+001
1.755699e+002, 5.259240e+001
1.760521e+002, 5.203013e+001
1.765342e+002, 5.192840e+001
1.770163e+002, 5.211809e+001
1.774984e+002, 5.229722e+001
1.779805e+002, 5.224542e+001
1.784626e+002, 5.196049e+001
1.789448e+002, 5.167451e+001
1.794269e+002, 5.132232e+001
1.799090e+002, 5.103152e+001
1.803911e+002, 5.085300e+001
1.808732e+002, 5.077205e+001
1.813553e+002, 5.075362e+001
1.818375e+002, 5.077798e+001
1.823196e+002, 5.085725e+001
1.828017e+002, 5.084713e+001
1.832838e+002, 5.070123e+001
1.837659e+002, 5.052892e+001
1.842480e+002, 5.039568e+001
1.847301e+002, 5.029470e+001
1.852123e+002, 5.016154e+001
1.856944e+002, 4.992470e+001
1.861765e+002, 4.956309e+001
1.866586e+002, 4.929045e+001
1.871407e+002, 4.914645e+001
1.876228e+002, 4.906026e+001
1.881050e+002, 4.900038e+001
1.885871e+002, 4.896039e+001
1.890692e+002, 4.890572e+001
1.895513e+002, 4.877959e+001
1.900334e+002, 4.858784e+001
1.905155e+002, 4.847710e+001
1.909977e+002, 4.852855e+001
1.914798e+002, 4.863935e+001
1.919619e+002, 4.871948e+001
1.924440e+002, 4.876956e+001
1.929261e+002, 4.873203e+001
1.934082e+002, 4.848113e+001
1.938904e+002, 4.807912e+001
1.943725e+002, 4.770247e+001
1.948546e+002, 4.737230e+001
1.953367e+002, 4.710744e+001
1.958188e+002, 4.696744e+001
1.963009e+002, 4.701015e+001
1.967831e+002, 4.706254e+001
1.972652e+002, 4.697238e+001
1.977473e+002, 4.678695e+001
1.982294e+002, 4.662705e+001
1.987115e+002, 4.661988e+001
1.991936e+002, 4.670565e+001
1.996758e+002, 4.660149e+001
2.001579e+002, 4.613169e+001
2.006400e+002, 4.570705e+001
2.011221e+002, 4.557917e+001
2.016042e+002, 4.566764e+001
2.020863e+002, 4.577306e+001
2.025685e+002, 4.576745e+001
2.030506e+002, 4.565532e+001
2.035327e+002, 4.550476e+001
2.040148e+002, 4.520489e+001
2.044969e+002, 4.498852e+001
2.049790e+002, 4.499477e+001
2.054612e+002, 4.516079e+001
2.059433e+002, 4.533355e+001
2.064254e+002, 4.539246e+001
2.069075e+002, 4.533346e+001
2.073896e+002, 4.523773e+001
2.078717e+002, 4.498911e+001
2.083539e+002, 4.480946e+001
2.088360e+002, 4.485051e+001
2.093181e+002, 4.503859e+001
2.098002e+002, 4.516747e+001
2.102823e+002, 4.502636e+001
2.107644e+002, 4.456231e+001
2.112466e+002, 4.431409e+001
2.117287e+002, 4.443142e+001
2.122108e+002, 4.460182e+001
2.126929e+002, 4.475443e+001
2.131750e+002, 4.485942e+001
2.136571e+002, 4.487903e+001
2.141393e+002, 4.475904e+001
2.146214e+002, 4.445671e+001
2.151035e+002, 4.432983e+001
2.155856e+002, 4.461556e+001
2.160677e+002, 4.482858e+001
2.165498e+002, 4.465204e+001
2.170320e+002, 4.413826e+001
2.175141e+002, 4.359428e+001
2.179962e+002, 4.329249e+001
2.184783e+002, 4.326287e+001
2.189604e+002, 4.331897e+001
2.194425e+002, 4.358062e+001
2.199247e+002, 4.382116e+001
2.204068e+002, 4.388106e+001
2.208889e+002, 4.376680e+001
2.213710e+002, 4.361739e+001
2.218531e+002, 4.356329e+001
2.223352e+002, 4.360867e+001
2.228174e+002, 4.353709e+001
2.232995e+002, 4.312537e+001
2.237816e+002, 4.275886e+001
2.242637e+002, 4.283863e+001
2.247458e+002, 4.335807e+001
2.252279e+002, 4.380947e+001
2.257100e+002, 4.369675e+001
2.261922e+002, 4.310365e+001
2.266743e+002, 4.278157e+001
2.271564e+002, 4.286491e+001
2.276385e+002, 4.318287e+001
2.281206e+002, 4.371960e+001
2.286027e+002, 4.448669e+001
2.290849e+002, 4.504852e+001
2.295670e+002, 4.490484e+001
2.300491e+002, 4.430007e+001
2.305312e+002, 4.392097e+001
2.310133e+002, 4.405736e+001
2.314954e+002, 4.437011e+001
2.319776e+002, 4.445997e+001
2.324597e+002, 4.429541e+001
2.329418e+002, 4.413005e+001
2.334239e+002, 4.416247e+001
2.339060e+002, 4.429204e+001
2.343881e+002, 4.436371e+001
2.348703e+002, 4.429544e+001
2.353524e+002, 4.418934e+001
2.358345e+002, 4.418974e+001
2.363166e+002, 4.431615e+001
2.367987e+002, 4.446901e+001
2.372808e+002, 4.456458e+001
2.377630e+002, 4.466843e+001
2.382451e+002, 4.490099e+001
2.387272e+002, 4.540154e+001
2.392093e+002, 4.589738e+001
2.396914e+002, 4.585951e+001
2.401735e+002, 4.507794e+001
2.406557e+002, 4.443742e+001
2.411378e+002, 4.435648e+001
2.416199e+002, 4.454375e+001
2.421020e+002, 4.476677e+001
2.425841e+002, 4.496027e+001
2.430662e+002, 4.511609e+001
2.435484e+002, 4.522312e+001
2.440305e+002, 4.528612e+001
2.445126e+002, 4.528253e+001
2.449947e+002, 4.523183e+001
2.454768e+002, 4.510732e+001
2.459589e+002, 4.483543e+001
2.464410e+002, 4.438044e+001
2.469232e+002, 4.389617e+001
2.474053e+002, 4.366976e+001
2.478874e+002, 4.383683e+001
2.483695e+002, 4.394294e+001
2.488516e+002, 4.382727e+001
2.493337e+002, 4.367377e+001
2.498159e+002, 4.364557e+001
2.502980e+002, 4.378848e+001
2.507801e+002, 4.398753e+001
2.512622e+002, 4.403505e+001
2.517443e+002, 4.382611e+001
2.522264e+002, 4.370300e+001
2.527086e+002, 4.379769e+001
2.531907e+002, 4.391011e+001
2.536728e+002, 4.389017e+001
2.541549e+002, 4.370371e+001
2.546370e+002, 4.343248e+001
2.551191e+002, 4.318567e+001
2.556013e+002, 4.292979e+001
2.560834e+002, 4.278441e+001
2.565655e+002, 4.282215e+001
2.570476e+002, 4.289742e+001
2.575297e+002, 4.290758e+001
2.580118e+002, 4.283833e+001
2.584940e+002, 4.275394e+001
2.589761e+002, 4.274719e+001
2.594582e+002, 4.286983e+001
2.599403e+002, 4.293915e+001
2.604224e+002, 4.280473e+001
2.609045e+002, 4.274157e+001
2.613867e+002, 4.302526e+001
2.618688e+002, 4.362245e+001
2.623509e+002, 4.419485e+001
2.628330e+002, 4.433103e+001
2.633151e+002, 4.385614e+001
2.637972e+002, 4.357286e+001
2.642794e+002, 4.364207e+001
2.647615e+002, 4.372966e+001
2.652436e+002, 4.354494e+001
2.657257e+002, 4.315036e+001
2.662078e+002, 4.291675e+001
2.666899e+002, 4.327083e+001
2.671721e+002, 4.438880e+001
2.676542e+002, 4.491783e+001
2.681363e+002, 4.440060e+001
2.686184e+002, 4.383855e+001
2.691005e+002, 4.377566e+001
2.695826e+002, 4.413988e+001
2.700648e+002, 4.450220e+001
2.705469e+002, 4.449285e+001
2.710290e+002, 4.409163e+001
2.715111e+002, 4.392257e+001
2.719932e+002, 4.407483e+001
2.724753e+002, 4.431559e+001
2.729575e+002, 4.467416e+001
2.734396e+002, 4.505773e+001
2.739217e+002, 4.522298e+001
2.744038e+002, 4.496521e+001
2.748859e+002, 4.433695e+001
2.753680e+002, 4.400220e+001
2.758501e+002, 4.411681e+001
2.763322e+002, 4.427678e+001
2.768144e+002, 4.432520e+001
2.772965e+002, 4.431579e+001
2.777786e+002, 4.440187e+001
2.782607e+002, 4.468981e+001
2.787428e+002, 4.510293e+001
2.792249e+002, 4.530068e+001
2.797071e+002, 4.518955e+001
2.801892e+002, 4.502459e+001
2.806713e+002, 4.477034e+001
2.811534e+002, 4.451594e+001
2.816355e+002, 4.444270e+001
2.821176e+002, 4.464553e+001
2.825998e+002, 4.501833e+001
2.830819e+002, 4.528992e+001
2.835640e+002, 4.544133e+001
2.840461e+002, 4.555239e+001
2.845282e+002, 4.563062e+001
2.850103e+002, 4.568026e+001
2.854925e+002, 4.571052e+001
2.859746e+002, 4.572580e+001
2.864567e+002, 4.571360e+001
2.869388e+002, 4.563881e+001
2.874209e+002, 4.547310e+001
2.879030e+002, 4.534773e+001
2.883852e+002, 4.534536e+001
2.888673e+002, 4.536959e+001
2.893494e+002, 4.525805e+001
2.898315e+002, 4.496650e+001
2.903136e+002, 4.469417e+001
2.907957e+002, 4.472050e+001
2.912779e+002, 4.509502e+001
2.917600e+002, 4.538218e+001
2.922421e+002, 4.550008e+001
2.927242e+002, 4.553416e+001
2.932063e+002, 4.556747e+001
2.936884e+002, 4.561066e+001
2.941706e+002, 4.561848e+001
2.946527e+002, 4.551325e+001
2.951348e+002, 4.529970e+001
2.956169e+002, 4.523942e+001
2.960990e+002, 4.556939e+001
2.965811e+002, 4.589093e+001
2.970633e+002, 4.571839e+001
2.975454e+002, 4.510394e+001
2.980275e+002, 4.480002e+001
2.985096e+002, 4.555236e+001
2.989917e+002, 4.709149e+001
2.994738e+002, 4.770878e+001
2.999560e+002, 4.655804e+001
3.004381e+002, 4.527360e+001
3.009202e+002, 4.479574e+001
3.014023e+002, 4.501348e+001
3.018844e+002, 4.540097e+001
3.023665e+002, 4.577237e+001
3.028487e+002, 4.605972e+001
3.033308e+002, 4.607362e+001
3.038129e+002, 4.561059e+001
3.042950e+002, 4.522979e+001
3.047771e+002, 4.524621e+001
3.052592e+002, 4.553937e+001
3.057414e+002, 4.580479e+001
3.062235e+002, 4.593333e+001
3.067056e+002, 4.597138e+001
3.071877e+002, 4.600887e+001
3.076698e+002, 4.606321e+001
3.081519e+002, 4.606377e+001
3.086341e+002, 4.598909e+001
3.091162e+002, 4.584595e+001
3.095983e+002, 4.560584e+001
3.100804e+002, 4.523434e+001
3.105625e+002, 4.488654e+001
3.110446e+002, 4.480017e+001
3.115268e+002, 4.497384e+001
3.120089e+002, 4.517595e+001
3.124910e+002, 4.537989e+001
3.129731e+002, 4.558055e+001
3.134552e+002, 4.579091e+001
3.139373e+002, 4.601460e+001
3.144195e+002, 4.619290e+001
3.149016e+002, 4.628513e+001
3.153837e+002, 4.628284e+001
3.158658e+002, 4.615579e+001
3.163479e+002, 4.566447e+001
3.168300e+002, 4.521468e+001
3.173121e+002, 4.521625e+001
3.177943e+002, 4.565049e+001
3.182764e+002, 4.611235e+001
3.187585e+002, 4.636449e+001
3.192406e+002, 4.641139e+001
3.197227e+002, 4.637536e+001
3.202048e+002, 4.622876e+001
3.206870e+002, 4.603072e+001
3.211691e+002, 4.575144e+001
3.216512e+002, 4.543232e+001
3.221333e+002, 4.522204e+001
3.226154e+002, 4.520468e+001
3.230975e+002, 4.532513e+001
3.235797e+002, 4.545705e+001
3.240618e+002, 4.565592e+001
3.245439e+002, 4.575525e+001
3.250260e+002, 4.559102e+001
3.255081e+002, 4.530200e+001
3.259902e+002, 4.516463e+001
3.264724e+002, 4.528164e+001
3.269545e+002, 4.551479e+001
3.274366e+002, 4.567222e+001
3.279187e+002, 4.576525e+001
3.284008e+002, 4.575877e+001
3.288829e+002, 4.562620e+001
3.293651e+002, 4.539874e+001
3.298472e+002, 4.508590e+001
3.303293e+002, 4.468913e+001
3.308114e+002, 4.427736e+001
3.312935e+002, 4.388511e+001
3.317756e+002, 4.351633e+001
3.322578e+002, 4.333359e+001
3.327399e+002, 4.349278e+001
3.332220e+002, 4.372604e+001
3.337041e+002, 4.391547e+001
3.341862e+002, 4.402680e+001
3.346683e+002, 4.392274e+001
3.351505e+002, 4.343432e+001
3.356326e+002, 4.264492e+001
3.361147e+002, 4.218021e+001
3.365968e+002, 4.230712e+001
3.370789e+002, 4.243227e+001
3.375610e+002, 4.227399e+001
3.380432e+002, 4.192225e+001
3.385253e+002, 4.159837e+001
3.390074e+002, 4.140650e+001
3.394895e+002, 4.130059e+001
3.399716e+002, 4.115645e+001
3.404537e+002, 4.092690e+001
3.409359e+002, 4.074976e+001
3.414180e+002, 4.068067e+001
3.419001e+002, 4.066756e+001
3.423822e+002, 4.067772e+001
3.428643e+002, 4.070233e+001
3.433464e+002, 4.065747e+001
3.438286e+002, 4.040458e+001
3.443107e+002, 3.982032e+001
3.447928e+002, 3.938763e+001
3.452749e+002, 3.917760e+001
3.457570e+002, 3.907555e+001
3.462391e+002, 3.904152e+001
3.467213e+002, 3.904950e+001
3.472034e+002, 3.902280e+001
3.476855e+002, 3.889508e+001
3.481676e+002, 3.866137e+001
3.486497e+002, 3.836998e+001
3.491318e+002, 3.794158e+001
3.496140e+002, 3.754528e+001
3.500961e+002, 3.719987e+001
3.505782e+002, 3.694490e+001
3.510603e+002, 3.690813e+001
3.515424e+002, 3.720257e+001
3.520245e+002, 3.768921e+001
3.525067e+002, 3.775897e+001
3.529888e+002, 3.690498e+001
3.534709e+002, 3.626418e+001
3.539530e+002, 3.607050e+001
3.544351e+002, 3.612272e+001
3.549172e+002, 3.622169e+001
3.553994e+002, 3.629243e+001
3.558815e+002, 3.630905e+001
3.563636e+002, 3.621706e+001
3.568457e+002, 3.590065e+001
3.573278e+002, 3.571597e+001
3.578099e+002, 3.586424e+001
3.582920e+002, 3.598209e+001
3.587741e+002, 3.573156e+001
3.592563e+002, 3.514504e+001
3.597384e+002, 3.457586e+001
3.602205e+002, 3.438298e+001
3.607026e+002, 3.461523e+001
3.611847e+002, 3.475515e+001
3.616668e+002, 3.474902e+001
3.621490e+002, 3.471330e+001
3.626311e+002, 3.469584e+001
3.631132e+002, 3.467620e+001
3.635953e+002, 3.459927e+001
3.640774e+002, 3.442483e+001
3.645595e+002, 3.418771e+001
3.650417e+002, 3.404431e+001
3.655238e+002, 3.416350e+001
3.660059e+002, 3.413849e+001
3.664880e+002, 3.375244e+001
3.669701e+002, 3.329339e+001
3.674522e+002, 3.306677e+001
3.679344e+002, 3.316292e+001
3.684165e+002, 3.340411e+001
3.688986e+002, 3.352275e+001
3.693807e+002, 3.348798e+001
3.698628e+002, 3.340831e+001
3.703449e+002, 3.322414e+001
3.708271e+002, 3.305198e+001
3.713092e+002, 3.298746e+001
3.717913e+002, 3.300659e+001
3.722734e+002, 3.298646e+001
3.727555e+002, 3.278985e+001
3.732376e+002, 3.242600e+001
3.737198e+002, 3.219671e+001
3.742019e+002, 3.222964e+001
3.746840e+002, 3.224573e+001
3.751661e+002, 3.212958e+001
3.756482e+002, 3.194240e+001
3.761303e+002, 3.178158e+001
3.766125e+002, 3.169458e+001
3.770946e+002, 3.165759e+001
3.775767e+002, 3.162421e+001
3.780588e+002, 3.160403e+001
3.785409e+002, 3.155920e+001
3.790230e+002, 3.142898e+001
3.795052e+002, 3.130031e+001
3.799873e+002, 3.128928e+001
3.804694e+002, 3.141510e+001
3.809515e+002, 3.147783e+001
3.814336e+002, 3.117838e+001
3.819157e+002, 3.052755e+001
3.823979e+002, 3.012916e+001
3.828800e+002, 3.018620e+001
3.833621e+002, 3.037747e+001
3.838442e+002, 3.055444e+001
3.843263e+002, 3.068645e+001
3.848084e+002, 3.067745e+001
3.852906e+002, 3.030585e+001
3.857727e+002, 2.978608e+001
3.862548e+002, 2.964406e+001
3.867369e+002, 2.996488e+001
3.872190e+002, 3.036023e+001
3.877011e+002, 3.067829e+001
3.881833e+002, 3.091514e+001
3.886654e+002, 3.104372e+001
3.891475e+002, 3.102035e+001
3.896296e+002, 3.095825e+001
3.901117e+002, 3.097975e+001
3.905938e+002, 3.106723e+001
3.910760e+002, 3.105836e+001
3.915581e+002, 3.082136e+001
3.920402e+002, 3.056646e+001
3.925223e+002, 3.064154e+001
3.930044e+002, 3.107857e+001
3.934865e+002, 3.138916e+001
3.939687e+002, 3.130085e+001
3.944508e+002, 3.099401e+001
3.949329e+002, 3.071878e+001
3.954150e+002, 3.050141e+001
3.958971e+002, 3.039674e+001
3.963792e+002, 3.052976e+001
3.968614e+002, 3.086217e+001
3.973435e+002, 3.096980e+001
3.978256e+002, 3.059037e+001
3.983077e+002, 3.019525e+001
3.987898e+002, 3.009524e+001
3.992719e+002, 3.024518e+001
3.997540e+002, 3.048156e+001
4.002361e+002, 3.075415e+001
4.007183e+002, 3.100956e+001
4.012004e+002, 3.106693e+001
4.016825e+002, 3.077845e+001
4.021646e+002, 3.058352e+001
4.026467e+002, 3.060599e+001
4.031288e+002, 3.073931e+001
4.036110e+002, 3.088824e+001
4.040931e+002, 3.102388e+001
4.045752e+002, 3.111770e+001
4.050573e+002, 3.112815e+001
4.055394e+002, 3.103106e+001
4.060215e+002, 3.096998e+001
4.065037e+002, 3.090626e+001
4.069858e+002, 3.090935e+001
4.074679e+002, 3.105236e+001
4.079500e+002, 3.129237e+001
4.084321e+002, 3.153584e+001
4.089142e+002, 3.173277e+001
4.093964e+002, 3.187244e+001
4.098785e+002, 3.190294e+001
4.103606e+002, 3.153429e+001
4.108427e+002, 3.144448e+001
4.113248e+002, 3.201571e+001
4.118069e+002, 3.270698e+001
4.122891e+002, 3.292097e+001
4.127712e+002, 3.254006e+001
4.132533e+002, 3.201038e+001
4.137354e+002, 3.196768e+001
4.142175e+002, 3.258747e+001
4.146996e+002, 3.298870e+001
4.151818e+002, 3.288123e+001
4.156639e+002, 3.281918e+001
4.161460e+002, 3.310936e+001
4.166281e+002, 3.362498e+001
4.171102e+002, 3.402611e+001
4.175923e+002, 3.407610e+001
4.180745e+002, 3.387491e+001
4.185566e+002, 3.374689e+001
4.190387e+002, 3.366618e+001
4.195208e+002, 3.372456e+001
4.200029e+002, 3.412844e+001
4.204850e+002, 3.457947e+001
4.209672e+002, 3.476483e+001
4.214493e+002, 3.460388e+001
4.219314e+002, 3.436477e+001
4.224135e+002, 3.427502e+001
4.228956e+002, 3.433549e+001
4.233777e+002, 3.458032e+001
4.238599e+002, 3.514770e+001
4.243420e+002, 3.571803e+001
4.248241e+002, 3.596691e+001
4.253062e+002, 3.599583e+001
4.257883e+002, 3.618080e+001
4.262704e+002, 3.688964e+001
4.267526e+002, 3.775047e+001
4.272347e+002, 3.814985e+001
4.277168e+002, 3.806184e+001
4.281989e+002, 3.796062e+001
4.286810e+002, 3.805963e+001
4.291631e+002, 3.833142e+001
4.296453e+002, 3.869845e+001
4.301274e+002, 3.924606e+001
4.306095e+002, 3.969492e+001
4.310916e+002, 3.978156e+001
4.315737e+002, 3.968879e+001
4.320558e+002, 3.982880e+001
4.325380e+002, 4.032788e+001
4.330201e+002, 4.088897e+001
4.335022e+002, 4.115769e+001
4.339843e+002, 4.108641e+001
4.344664e+002, 4.105377e+001
4.349485e+002, 4.101262e+001
4.354307e+002, 4.106353e+001
4.359128e+002, 4.136720e+001
4.363949e+002, 4.183996e+001
4.368770e+002, 4.218132e+001
4.373591e+002, 4.218985e+001
4.378412e+002, 4.198943e+001
4.383234e+002, 4.205424e+001
4.388055e+002, 4.275417e+001
4.392876e+002, 4.324807e+001
4.397697e+002, 4.330780e+001
4.402518e+002, 4.323443e+001
4.407339e+002, 4.328835e+001
4.412160e+002, 4.353095e+001
4.416982e+002, 4.390731e+001
4.421803e+002, 4.440541e+001
4.426624e+002, 4.509863e+001
4.431445e+002, 4.538393e+001
4.436266e+002, 4.480839e+001
4.441087e+002, 4.428910e+001
4.445909e+002, 4.416371e+001
4.450730e+002, 4.427434e+001
4.455551e+002, 4.432024e+001
4.460372e+002, 4.413942e+001
4.465193e+002, 4.385746e+001
4.470014e+002, 4.377121e+001
4.474836e+002, 4.396263e+001
4.479657e+002, 4.410548e+001
4.484478e+002, 4.411263e+001
4.489299e+002, 4.407228e+001
4.494120e+002, 4.402227e+001
4.498941e+002, 4.397161e+001
4.503763e+002, 4.393345e+001
4.508584e+002, 4.397237e+001
4.513405e+002, 4.404290e+001
4.518226e+002, 4.390429e+001
4.523047e+002, 4.344346e+001
4.527868e+002, 4.304776e+001
4.532690e+002, 4.297911e+001
4.537511e+002, 4.311290e+001
4.542332e+002, 4.333604e+001
4.547153e+002, 4.375647e+001
4.551974e+002, 4.400249e+001
4.556795e+002, 4.357814e+001
4.561617e+002, 4.266157e+001
4.566438e+002, 4.205856e+001
4.571259e+002, 4.206869e+001
4.576080e+002, 4.231387e+001
4.580901e+002, 4.229125e+001
4.585722e+002, 4.200376e+001
4.590544e+002, 4.179725e+001
4.595365e+002, 4.181861e+001
4.600186e+002, 4.188490e+001
4.605007e+002, 4.183026e+001
4.609828e+002, 4.166311e+001
4.614649e+002, 4.148491e+001
4.619471e+002, 4.135207e+001
4.624292e+002, 4.126051e+001
4.629113e+002, 4.119136e+001
4.633934e+002, 4.127269e+001
4.638755e+002, 4.120882e+001
4.643576e+002, 4.078514e+001
4.648398e+002, 4.029715e+001
4.653219e+002, 4.009312e+001
4.658040e+002, 4.021486e+001
4.662861e+002, 4.039952e+001
4.667682e+002, 4.035416e+001
4.672503e+002, 4.004973e+001
4.677325e+002, 3.978770e+001
4.682146e+002, 3.959204e+001
4.686967e+002, 3.941376e+001
4.691788e+002, 3.929380e+001
4.696609e+002, 3.916876e+001
4.701430e+002, 3.889449e+001
4.706252e+002, 3.839588e+001
4.711073e+002, 3.790088e+001
4.715894e+002, 3.789783e+001
4.720715e+002, 3.855651e+001
4.725536e+002, 3.895958e+001
4.730357e+002, 3.880574e+001
4.735179e+002, 3.849472e+001
4.740000e+002, 3.817596e+001
4.744821e+002, 3.788543e+001
4.749642e+002, 3.768550e+001
4.754463e+002, 3.764960e+001
4.759284e+002, 3.771845e+001
4.764106e+002, 3.776161e+001
4.768927e+002, 3.777225e+001
4.773748e+002, 3.780753e+001
4.778569e+002, 3.798384e+001
4.783390e+002, 3.814494e+001
4.788211e+002, 3.800303e+001
4.793033e+002, 3.743259e+001
4.797854e+002, 3.697999e+001
4.802675e+002, 3.705046e+001
4.807496e+002, 3.739044e+001
4.812317e+002, 3.752769e+001
4.817138e+002, 3.737463e+001
4.821959e+002, 3.714513e+001
4.826780e+002, 3.704508e+001
4.831602e+002, 3.706591e+001
4.836423e+002, 3.691359e+001
4.841244e+002, 3.635603e+001
4.846065e+002, 3.588798e+001
4.850886e+002, 3.572815e+001
4.855707e+002, 3.578970e+001
4.860529e+002, 3.595087e+001
4.865350e+002, 3.616412e+001
4.870171e+002, 3.635812e+001
4.874992e+002, 3.641174e+001
4.879813e+002, 3.628316e+001
4.884634e+002, 3.612247e+001
4.889456e+002, 3.588292e+001
4.894277e+002, 3.566171e+001
4.899098e+002, 3.547774e+001
4.903919e+002, 3.535204e+001
4.908740e+002, 3.534519e+001
4.913561e+002, 3.551962e+001
4.918383e+002, 3.576300e+001
4.923204e+002, 3.572809e+001
4.928025e+002, 3.527244e+001
4.932846e+002, 3.493354e+001
4.937667e+002, 3.499075e+001
4.942488e+002, 3.508320e+001
4.947310e+002, 3.489400e+001
4.952131e+002, 3.444658e+001
4.956952e+002, 3.411961e+001
4.961773e+002, 3.429807e+001
4.966594e+002, 3.478715e+001
4.971415e+002, 3.504966e+001
4.976237e+002, 3.504654e+001
4.981058e+002, 3.494531e+001
4.985879e+002, 3.476451e+001
4.990700e+002, 3.457023e+001
4.995521e+002, 3.450224e+001
5.000342e+002, 3.463540e+001
5.005164e+002, 3.472746e+001
5.009985e+002, 3.458947e+001
5.014806e+002, 3.434764e+001
5.019627e+002, 3.423761e+001
5.024448e+002, 3.430876e+001
5.029269e+002, 3.443654e+001
5.034091e+002, 3.451612e+001
5.038912e+002, 3.454601e+001
5.043733e+002, 3.451233e+001
5.048554e+002, 3.433568e+001
5.053375e+002, 3.419164e+001
5.058196e+002, 3.414495e+001
5.063018e+002, 3.417016e+001
5.067839e+002, 3.425284e+001
5.072660e+002, 3.438211e+001
5.077481e+002, 3.448829e+001
5.082302e+002, 3.443511e+001
5.087123e+002, 3.412268e+001
5.091945e+002, 3.401301e+001
5.096766e+002, 3.438845e+001
5.101587e+002, 3.468447e+001
5.106408e+002, 3.454530e+001
5.111229e+002, 3.418828e+001
5.116050e+002, 3.406536e+001
5.120872e+002, 3.443775e+001
5.125693e+002, 3.503134e+001
5.130514e+002, 3.538603e+001
5.135335e+002, 3.549657e+001
5.140156e+002, 3.540065e+001
5.144977e+002, 3.492669e+001
5.149799e+002, 3.442475e+001
5.154620e+002, 3.419171e+001
5.159441e+002, 3.420057e+001
5.164262e+002, 3.425028e+001
5.169083e+002, 3.424439e+001
5.173904e+002, 3.424044e+001
5.178726e+002, 3.432473e+001
5.183547e+002, 3.449230e+001
5.188368e+002, 3.467175e+001
5.193189e+002, 3.484873e+001
5.198010e+002, 3.499466e+001
5.202831e+002, 3.500932e+001
5.207653e+002, 3.480516e+001
5.212474e+002, 3.474735e+001
5.217295e+002, 3.508171e+001
5.222116e+002, 3.545811e+001
5.226937e+002, 3.551571e+001
5.231758e+002, 3.528360e+001
5.236580e+002, 3.506538e+001
5.241401e+002, 3.508300e+001
5.246222e+002, 3.529094e+001
5.251043e+002, 3.545970e+001
5.255864e+002, 3.561478e+001
5.260685e+002, 3.568406e+001
5.265507e+002, 3.554215e+001
5.270328e+002, 3.539965e+001
5.275149e+002, 3.545382e+001
5.279970e+002, 3.570766e+001
5.284791e+002, 3.599589e+001
5.289612e+002, 3.616321e+001
5.294434e+002, 3.623676e+001
5.299255e+002, 3.642168e+001
5.304076e+002, 3.683811e+001
5.308897e+002, 3.708413e+001
5.313718e+002, 3.678004e+001
5.318539e+002, 3.631496e+001
5.323361e+002, 3.612469e+001
5.328182e+002, 3.631697e+001
5.333003e+002, 3.647666e+001
5.337824e+002, 3.619934e+001
5.342645e+002, 3.572150e+001
5.347466e+002, 3.557203e+001
5.352288e+002, 3.583193e+001
5.357109e+002, 3.624854e+001
5.361930e+002, 3.671204e+001
5.366751e+002, 3.717321e+001
5.371572e+002, 3.735817e+001
5.376393e+002, 3.698092e+001
5.381215e+002, 3.670366e+001
5.386036e+002, 3.674160e+001
5.390857e+002, 3.696865e+001
5.395678e+002, 3.729934e+001
5.400499e+002, 3.768272e+001
5.405320e+002, 3.796564e+001
5.410142e+002, 3.795758e+001
5.414963e+002, 3.764540e+001
5.419784e+002, 3.748998e+001
5.424604e+002, 3.767097e+001
5.429426e+002, 3.780052e+001
5.434247e+002, 3.772644e+001
5.439068e+002, 3.759691e+001
5.443889e+002, 3.755490e+001
5.448710e+002, 3.764363e+001
5.453531e+002, 3.787488e+001
5.458353e+002, 3.839067e+001
5.463174e+002, 3.914296e+001
5.467995e+002, 3.948592e+001
5.472816e+002, 3.921062e+001
5.477637e+002, 3.889720e+001
5.482458e+002, 3.898720e+001
5.487280e+002, 3.926064e+001
5.492101e+002, 3.934195e+001
5.496922e+002, 3.905914e+001
5.501743e+002, 3.881377e+001
5.506564e+002, 3.890855e+001
5.511385e+002, 3.921289e+001
5.516207e+002, 3.944506e+001
5.521028e+002, 3.954473e+001
5.525849e+002, 3.964653e+001
5.530670e+002, 3.988794e+001
5.535491e+002, 4.027069e+001
5.540313e+002, 4.057091e+001
5.545134e+002, 4.094240e+001
5.549955e+002, 4.106456e+001
5.554776e+002, 4.061168e+001
5.559597e+002, 3.996936e+001
5.564418e+002, 3.961506e+001
5.569240e+002, 3.966542e+001
5.574061e+002, 3.990912e+001
5.578882e+002, 4.014011e+001
5.583703e+002, 4.036177e+001
5.588524e+002, 4.043056e+001
5.593345e+002, 4.017399e+001
5.598167e+002, 4.001259e+001
5.602988e+002, 4.015384e+001
5.607809e+002, 4.042635e+001
5.612630e+002, 4.061716e+001
5.617451e+002, 4.066626e+001
5.622272e+002, 4.069896e+001
5.627094e+002, 4.083875e+001
5.631915e+002, 4.105108e+001
5.636736e+002, 4.123780e+001
5.641557e+002, 4.140084e+001
5.646378e+002, 4.146822e+001
5.651199e+002, 4.134886e+001
5.656021e+002, 4.108768e+001
5.660842e+002, 4.089725e+001
5.665663e+002, 4.074496e+001
5.670484e+002, 4.070831e+001
5.675305e+002, 4.089035e+001
5.680126e+002, 4.116658e+001
5.684948e+002, 4.136026e+001
5.689769e+002, 4.145201e+001
5.694590e+002, 4.159529e+001
5.699411e+002, 4.196550e+001
5.704232e+002, 4.253699e+001
5.709053e+002, 4.278549e+001
5.713875e+002, 4.246880e+001
5.718696e+002, 4.213948e+001
5.723517e+002, 4.170451e+001
5.728338e+002, 4.140437e+001
5.733159e+002, 4.152107e+001
5.737980e+002, 4.206392e+001
5.742802e+002, 4.271577e+001
5.747623e+002, 4.328833e+001
5.752444e+002, 4.375206e+001
5.757265e+002, 4.391717e+001
5.762086e+002, 4.369201e+001
5.766907e+002, 4.355244e+001
5.771729e+002, 4.374213e+001
5.776550e+002, 4.414585e+001
5.781371e+002, 4.459118e+001
5.786192e+002, 4.510668e+001
5.791013e+002, 4.552097e+001
5.795834e+002, 4.561863e+001
5.800656e+002, 4.567017e+001
5.805477e+002, 4.606070e+001
5.810298e+002, 4.675972e+001
5.815119e+002, 4.739858e+001
5.819940e+002, 4.774360e+001
5.824761e+002, 4.785701e+001
5.829583e+002, 4.794149e+001
5.834404e+002, 4.772605e+001
5.839225e+002, 4.791686e+001
5.844046e+002, 4.878253e+001
5.848867e+002, 4.981685e+001
5.853688e+002, 5.078142e+001
5.858510e+002, 5.161745e+001
5.863331e+002, 5.230740e+001
5.868152e+002, 5.284973e+001
5.872973e+002, 5.322060e+001
5.877794e+002, 5.325908e+001
5.882615e+002, 5.287746e+001
5.887437e+002, 5.277883e+001
5.892258e+002, 5.326154e+001
5.897079e+002, 5.394817e+001
5.901900e+002, 5.447850e+001
5.906721e+002, 5.488024e+001
5.911542e+002, 5.532843e+001
5.916364e+002, 5.583407e+001
5.921185e+002, 5.644099e+001
5.926006e+002, 5.732070e+001
5.930827e+002, 5.833658e+001
5.935648e+002, 5.905878e+001
5.940469e+002, 5.931642e+001
5.945291e+002, 5.936421e+001
5.950112e+002, 5.953828e+001
5.954933e+002, 5.983539e+001
5.959754e+002, 6.029122e+001
5.964575e+002, 6.098621e+001
5.969396e+002, 6.172559e+001
5.974218e+002, 6.246068e+001
5.979039e+002, 6.319323e+001
5.983860e+002, 6.393720e+001
5.988681e+002, 6.469836e+001
5.993502e+002, 6.546191e+001
5.998323e+002, 6.625594e+001
6.003145e+002, 6.707581e+001
6.007966e+002, 6.768521e+001
6.012787e+002, 6.796845e+001
6.017608e+002, 6.825889e+001
6.022429e+002, 6.864943e+001
6.027250e+002, 6.919955e+001
6.032072e+002, 7.008107e+001
6.036893e+002, 7.148441e+001
6.041714e+002, 7.271953e+001
6.046535e+002, 7.334070e+001
6.051356e+002, 7.362816e+001
6.056177e+002, 7.389468e+001
6.060999e+002, 7.421075e+001
6.065820e+002, 7.474037e+001
6.070641e+002, 7.563486e+001
6.075462e+002, 7.679659e+001
6.080283e+002, 7.779491e+001
6.085104e+002, 7.856236e+001
6.089926e+002, 7.924442e+001
6.094747e+002, 7.970039e+001
6.099568e+002, 8.019466e+001
6.104389e+002, 8.098995e+001
6.109210e+002, 8.200907e+001
6.114031e+002, 8.293196e+001
6.118853e+002, 8.352062e+001
6.123674e+002, 8.395090e+001
6.128495e+002, 8.463569e+001
6.133316e+002, 8.560996e+001
6.138137e+002, 8.646479e+001
6.142958e+002, 8.706059e+001
6.147780e+002, 8.756271e+001
6.152601e+002, 8.810741e+001
6.157422e+002, 8.869698e+001
6.162243e+002, 8.936257e+001
6.167064e+002, 9.013785e+001
6.171885e+002, 9.096231e+001
6.176707e+002, 9.192936e+001
6.181528e+002, 9.289260e+001
6.186349e+002, 9.350539e+001
6.191170e+002, 9.367580e+001
6.195991e+002, 9.372263e+001
6.200812e+002, 9.402723e+001
6.205634e+002, 9.461275e+001
6.210455e+002, 9.511517e+001
6.215276e+002, 9.527901e+001
6.220097e+002, 9.568397e+001
6.224918e+002, 9.667377e+001
6.229739e+002, 9.782938e+001
6.234561e+002, 9.874734e+001
6.239382e+002, 9.933875e+001
6.244203e+002, 9.971768e+001
6.249023e+002, 9.984720e+001
6.253845e+002, 9.984960e+001
6.258666e+002, 1.001173e+002
6.263487e+002, 1.006909e+002
6.268308e+002, 1.011344e+002
6.273129e+002, 1.012339e+002
6.277950e+002, 1.011056e+002
6.282772e+002, 1.009129e+002
6.287593e+002, 1.005996e+002
6.292414e+002, 1.004788e+002
6.297235e+002, 1.007314e+002
6.302056e+002, 1.010694e+002
6.306877e+002, 1.013901e+002
6.311699e+002, 1.016249e+002
6.316520e+002, 1.016405e+002
6.321341e+002, 1.013754e+002
6.326162e+002, 1.009674e+002
6.330983e+002, 1.006717e+002
6.335804e+002, 1.005420e+002
6.340626e+002, 1.002266e+002
6.345447e+002, 9.950504e+001
6.350268e+002, 9.888566e+001
6.355089e+002, 9.869486e+001
6.359910e+002, 9.870257e+001
6.364731e+002, 9.859394e+001
6.369553e+002, 9.832439e+001
6.374374e+002, 9.780125e+001
6.379195e+002, 9.673244e+001
6.384016e+002, 9.543768e+001
6.388837e+002, 9.453805e+001
6.393658e+002, 9.410000e+001
6.398480e+002, 9.379684e+001
6.403301e+002, 9.345420e+001
6.408122e+002, 9.304742e+001
6.412943e+002, 9.248694e+001
6.417764e+002, 9.158079e+001
6.422585e+002, 9.080379e+001
6.427407e+002, 9.037202e+001
6.432228e+002, 8.987855e+001
6.437049e+002, 8.900971e+001
6.441870e+002, 8.785996e+001
6.446691e+002, 8.669064e+001
6.451512e+002, 8.562827e+001
6.456334e+002, 8.468420e+001
6.461155e+002, 8.393160e+001
6.465976e+002, 8.336856e+001
6.470797e+002, 8.271605e+001
6.475618e+002, 8.191580e+001
6.480439e+002, 8.106527e+001
6.485261e+002, 8.028014e+001
6.490082e+002, 7.950280e+001
6.494903e+002, 7.856564e+001
6.499724e+002, 7.731750e+001
6.504545e+002, 7.612340e+001
6.509366e+002, 7.516037e+001
6.514188e+002, 7.431344e+001
6.519009e+002, 7.348813e+001
6.523830e+002, 7.265144e+001
6.528651e+002, 7.172810e+001
6.533472e+002, 7.063058e+001
6.538293e+002, 6.947299e+001
6.543115e+002, 6.872388e+001
6.547936e+002, 6.864194e+001
6.552757e+002, 6.834388e+001
6.557578e+002, 6.754070e+001
6.562399e+002, 6.662984e+001
6.567220e+002, 6.573936e+001
6.572042e+002, 6.491275e+001
6.576863e+002, 6.426201e+001
6.581684e+002, 6.394248e+001
6.586505e+002, 6.362668e+001
6.591326e+002, 6.297218e+001
6.596147e+002, 6.207641e+001
6.600969e+002, 6.117015e+001
6.605790e+002, 6.030193e+001
6.610611e+002, 5.953826e+001
6.615432e+002, 5.896914e+001
6.620253e+002, 5.856220e+001
6.625074e+002, 5.797907e+001
6.629896e+002, 5.692366e+001
6.634717e+002, 5.608649e+001
6.639538e+002, 5.571187e+001
6.644359e+002, 5.543187e+001
6.649180e+002, 5.491717e+001
6.654001e+002, 5.420600e+001
6.658823e+002, 5.358639e+001
6.663644e+002, 5.327296e+001
6.668465e+002, 5.308364e+001
6.673286e+002, 5.264010e+001
6.678107e+002, 5.195281e+001
6.682928e+002, 5.139008e+001
6.687750e+002, 5.104578e+001
6.692571e+002, 5.082541e+001
6.697392e+002, 5.071474e+001
6.702213e+002, 5.068274e+001
6.707034e+002, 5.045955e+001
6.711855e+002, 4.995277e+001
6.716677e+002, 4.936304e+001
6.721498e+002, 4.861213e+001
6.726319e+002, 4.789784e+001
6.731140e+002, 4.746173e+001
6.735961e+002, 4.730516e+001
6.740782e+002, 4.725115e+001
6.745604e+002, 4.719325e+001
6.750425e+002, 4.708832e+001
6.755246e+002, 4.675951e+001
6.760067e+002, 4.614022e+001
6.764888e+002, 4.559417e+001
6.769709e+002, 4.520458e+001
6.774531e+002, 4.489391e+001
6.779352e+002, 4.462157e+001
6.784173e+002, 4.437579e+001
6.788994e+002, 4.411455e+001
6.793815e+002, 4.381580e+001
6.798636e+002, 4.351596e+001
6.803458e+002, 4.329399e+001
6.808279e+002, 4.306321e+001
6.813100e+002, 4.261596e+001
6.817921e+002, 4.195519e+001
6.822742e+002, 4.137537e+001
6.827563e+002, 4.113817e+001
6.832385e+002, 4.115773e+001
6.837206e+002, 4.098692e+001
6.842027e+002, 4.046018e+001
6.846848e+002, 4.010579e+001
6.851669e+002, 4.015947e+001
6.856490e+002, 4.026062e+001
6.861312e+002, 4.022879e+001
6.866133e+002, 4.007249e+001
6.870954e+002, 3.985909e+001
6.875775e+002, 3.963674e+001
6.880596e+002, 3.932409e+001
6.885417e+002, 3.874744e+001
6.890239e+002, 3.804280e+001
6.895060e+002, 3.754759e+001
6.899881e+002, 3.731766e+001
6.904702e+002, 3.717426e+001
6.909523e+002, 3.698003e+001
6.914344e+002, 3.675080e+001
6.919166e+002, 3.656502e+001
6.923987e+002, 3.649151e+001
6.928808e+002, 3.634980e+001
6.933629e+002, 3.606929e+001
6.938450e+002, 3.578074e+001
6.943271e+002, 3.559821e+001
6.948093e+002, 3.547054e+001
6.952914e+002, 3.524151e+001
6.957735e+002, 3.480577e+001
6.962556e+002, 3.436104e+001
6.967377e+002, 3.420929e+001
6.972198e+002, 3.423792e+001
6.977020e+002, 3.398030e+001
6.981841e+002, 3.334545e+001
6.986662e+002, 3.276680e+001
6.991483e+002, 3.256011e+001
6.996304e+002, 3.263709e+001
7.001125e+002, 3.266897e+001
7.005947e+002, 3.276339e+001
7.010768e+002, 3.263860e+001
7.015589e+002, 3.206424e+001
7.020410e+002, 3.148075e+001
7.025231e+002, 3.124979e+001
7.030052e+002, 3.120867e+001
7.034874e+002, 3.090856e+001
7.039695e+002, 3.012626e+001
7.044516e+002, 2.933987e+001
7.049337e+002, 2.923476e+001
7.054158e+002, 2.966732e+001
7.058979e+002, 2.997718e+001
7.063801e+002, 3.011942e+001
7.068622e+002, 2.999069e+001
7.073442e+002, 2.939784e+001
7.078264e+002, 2.858971e+001
7.083085e+002, 2.823303e+001
7.087906e+002, 2.856904e+001
7.092727e+002, 2.871278e+001
7.097548e+002, 2.841635e+001
7.102369e+002, 2.809715e+001
7.107191e+002, 2.805874e+001
7.112012e+002, 2.815945e+001
7.116833e+002, 2.808477e+001
7.121654e+002, 2.772544e+001
7.126475e+002, 2.734668e+001
7.131296e+002, 2.731774e+001
7.136118e+002, 2.755586e+001
7.140939e+002, 2.755400e+001
7.145760e+002, 2.724711e+001
7.150581e+002, 2.704317e+001
7.155402e+002, 2.721074e+001
7.160223e+002, 2.749916e+001
7.165045e+002, 2.743808e+001
7.169866e+002, 2.694827e+001
7.174687e+002, 2.662744e+001
7.179508e+002, 2.665711e+001
7.184329e+002, 2.672647e+001
7.189150e+002, 2.672837e+001
7.193972e+002, 2.665263e+001
7.198793e+002, 2.646002e+001
7.203614e+002, 2.616054e+001
7.208435e+002, 2.588627e+001
7.213256e+002, 2.576724e+001
7.218077e+002, 2.577760e+001
7.222899e+002, 2.586817e+001
7.227720e+002, 2.607180e+001
7.232541e+002, 2.605454e+001
7.237362e+002, 2.557986e+001
7.242183e+002, 2.503837e+001
7.247004e+002, 2.493969e+001
7.251826e+002, 2.527253e+001
7.256647e+002, 2.546188e+001
7.261468e+002, 2.530305e+001
7.266289e+002, 2.520627e+001
7.271110e+002, 2.547910e+001
7.275931e+002, 2.579797e+001
7.280753e+002, 2.572590e+001
7.285574e+002, 2.527248e+001
7.290395e+002, 2.482592e+001
7.295216e+002, 2.466349e+001
7.300037e+002, 2.470483e+001
7.304858e+002, 2.482204e+001
7.309680e+002, 2.502257e+001
7.314501e+002, 2.501883e+001
7.319322e+002, 2.462501e+001
7.324143e+002, 2.433491e+001
7.328964e+002, 2.474889e+001
7.333785e+002, 2.563882e+001
7.338607e+002, 2.581350e+001
7.343428e+002, 2.466376e+001
7.348249e+002, 2.374691e+001
7.353070e+002, 2.345272e+001
7.357891e+002, 2.344749e+001
7.362712e+002, 2.351822e+001
7.367534e+002, 2.362631e+001
7.372355e+002, 2.381655e+001
7.377176e+002, 2.412986e+001
7.381997e+002, 2.436558e+001
7.386818e+002, 2.410131e+001
7.391639e+002, 2.341547e+001
7.396461e+002, 2.311783e+001
7.401282e+002, 2.335514e+001
7.406103e+002, 2.359313e+001
7.410924e+002, 2.348032e+001
7.415745e+002, 2.321909e+001
7.420566e+002, 2.331107e+001
7.425388e+002, 2.393472e+001
7.430209e+002, 2.426853e+001
7.435030e+002, 2.407351e+001
7.439851e+002, 2.375350e+001
7.444672e+002, 2.337445e+001
7.449493e+002, 2.306714e+001
7.454315e+002, 2.309659e+001
7.459136e+002, 2.349564e+001
7.463957e+002, 2.382859e+001
7.468778e+002, 2.354373e+001
7.473599e+002, 2.288630e+001
7.478420e+002, 2.263059e+001
7.483242e+002, 2.278456e+001
7.488063e+002, 2.304227e+001
7.492884e+002, 2.335516e+001
7.497705e+002, 2.360147e+001
7.502526e+002, 2.361592e+001
7.507347e+002, 2.338208e+001
7.512169e+002, 2.320717e+001
7.516990e+002, 2.310305e+001
7.521811e+002, 2.303720e+001
7.526632e+002, 2.301470e+001
7.531453e+002, 2.301834e+001
7.536274e+002, 2.304040e+001
7.541096e+002, 2.307480e+001
7.545917e+002, 2.311085e+001
7.550738e+002, 2.314561e+001
7.555559e+002, 2.317305e+001
7.560380e+002, 2.316231e+001
7.565201e+002, 2.313282e+001
7.570023e+002, 2.317187e+001
7.574844e+002, 2.329492e+001
7.579665e+002, 2.348458e+001
7.584486e+002, 2.377413e+001
7.589307e+002, 2.407731e+001
7.594128e+002, 2.409698e+001
7.598950e+002, 2.359778e+001
7.603771e+002, 2.323956e+001
7.608592e+002, 2.310171e+001
7.613413e+002, 2.301198e+001
7.618234e+002, 2.289927e+001
7.623055e+002, 2.277721e+001
7.627877e+002, 2.266662e+001
7.632698e+002, 2.257216e+001
7.637519e+002, 2.252378e+001
7.642340e+002, 2.255063e+001
7.647161e+002, 2.263401e+001
7.651982e+002, 2.277064e+001
7.656804e+002, 2.294461e+001
7.661625e+002, 2.309001e+001
7.666446e+002, 2.318561e+001
7.671267e+002, 2.319268e+001
7.676088e+002, 2.303254e+001
7.680909e+002, 2.269056e+001
7.685731e+002, 2.253321e+001
7.690552e+002, 2.259903e+001
7.695373e+002, 2.279072e+001
7.700194e+002, 2.329350e+001
7.705015e+002, 2.374625e+001
7.709836e+002, 2.381884e+001
7.714658e+002, 2.355968e+001
7.719479e+002, 2.328950e+001
7.724300e+002, 2.307695e+001
7.729121e+002, 2.294339e+001
7.733942e+002, 2.295912e+001
7.738763e+002, 2.304058e+001
7.743585e+002, 2.306048e+001
7.748406e+002, 2.300423e+001
7.753227e+002, 2.289636e+001
7.758048e+002, 2.273641e+001
7.762869e+002, 2.261463e+001
7.767690e+002, 2.280700e+001
7.772512e+002, 2.339733e+001
7.777333e+002, 2.374554e+001
7.782154e+002, 2.378714e+001
7.786975e+002, 2.362440e+001
7.791796e+002, 2.315212e+001
7.796617e+002, 2.257569e+001
7.801439e+002, 2.224384e+001
7.806260e+002, 2.219481e+001
7.811081e+002, 2.223349e+001
7.815902e+002, 2.239435e+001
7.820723e+002, 2.254646e+001
7.825544e+002, 2.260442e+001
7.830366e+002, 2.259590e+001
7.835187e+002, 2.256367e+001
7.840008e+002, 2.252403e+001
7.844829e+002, 2.248932e+001
7.849650e+002, 2.247021e+001
7.854471e+002, 2.246508e+001
7.859293e+002, 2.247190e+001
7.864114e+002, 2.249078e+001
7.868935e+002, 2.247973e+001
7.873756e+002, 2.237372e+001
7.878577e+002, 2.242475e+001
7.883398e+002, 2.301450e+001
7.888220e+002, 2.401488e+001
7.893040e+002, 2.431230e+001
7.897861e+002, 2.321131e+001
7.902682e+002, 2.244357e+001
7.907504e+002, 2.228876e+001
7.912325e+002, 2.236298e+001
7.917146e+002, 2.248535e+001
7.921967e+002, 2.262504e+001
7.926788e+002, 2.279273e+001
7.931609e+002, 2.300033e+001
7.936431e+002, 2.315906e+001
7.941252e+002, 2.317490e+001
7.946073e+002, 2.309552e+001
7.950894e+002, 2.300004e+001
7.955715e+002, 2.289366e+001
7.960536e+002, 2.275671e+001
7.965358e+002, 2.257353e+001
7.970179e+002, 2.243353e+001
7.975000e+002, 2.248259e+001
7.979821e+002, 2.273438e+001
7.984642e+002, 2.283992e+001
7.989464e+002, 2.274089e+001
7.994285e+002, 2.260192e+001
7.999106e+002, 2.232821e+001
8.003927e+002, 2.213701e+001
8.008748e+002, 2.232584e+001
8.013569e+002, 2.278374e+001
8.018391e+002, 2.295380e+001
8.023212e+002, 2.242711e+001
8.028033e+002, 2.197025e+001
8.032854e+002, 2.209998e+001
8.037675e+002, 2.244366e+001
8.042496e+002, 2.255699e+001
8.047318e+002, 2.244603e+001
8.052139e+002, 2.234166e+001
8.056960e+002, 2.236727e+001
8.061781e+002, 2.247727e+001
8.066602e+002, 2.265088e+001
8.071423e+002, 2.287259e+001
8.076245e+002, 2.285705e+001
8.081066e+002, 2.251639e+001
8.085887e+002, 2.235516e+001
8.090708e+002, 2.268978e+001
8.095529e+002, 2.319092e+001
8.100350e+002, 2.334906e+001
8.105172e+002, 2.309366e+001
8.109993e+002, 2.294597e+001
8.114814e+002, 2.304054e+001
8.119635e+002, 2.307072e+001
8.124456e+002, 2.284457e+001
8.129277e+002, 2.259517e+001
8.134099e+002, 2.255560e+001
8.138920e+002, 2.271574e+001
8.143741e+002, 2.292825e+001
8.148562e+002, 2.317660e+001
8.153383e+002, 2.332791e+001
8.158204e+002, 2.310385e+001
8.163026e+002, 2.271127e+001
8.167847e+002, 2.271219e+001
8.172668e+002, 2.310999e+001
8.177489e+002, 2.330084e+001
8.182310e+002, 2.291486e+001
8.187131e+002, 2.227507e+001
8.191953e+002, 2.201939e+001
8.196774e+002, 2.221528e+001
8.201595e+002, 2.237503e+001
8.206416e+002, 2.250190e+001
8.211237e+002, 2.258834e+001
8.216058e+002, 2.262815e+001
8.220880e+002, 2.262661e+001
8.225701e+002, 2.256979e+001
8.230522e+002, 2.246128e+001
8.235343e+002, 2.239614e+001
8.240164e+002, 2.246056e+001
8.244985e+002, 2.249146e+001
8.249807e+002, 2.229278e+001
8.254628e+002, 2.210480e+001
8.259449e+002, 2.228885e+001
8.264270e+002, 2.276767e+001
8.269091e+002, 2.310597e+001
8.273912e+002, 2.303622e+001
8.278734e+002, 2.284032e+001
8.283555e+002, 2.297201e+001
8.288376e+002, 2.332856e+001
8.293197e+002, 2.348453e+001
8.298018e+002, 2.340209e+001
8.302839e+002, 2.314419e+001
8.307661e+002, 2.268541e+001
8.312482e+002, 2.223661e+001
8.317303e+002, 2.216667e+001
8.322124e+002, 2.254128e+001
8.326945e+002, 2.281775e+001
8.331766e+002, 2.297169e+001
8.336588e+002, 2.305606e+001
8.341409e+002, 2.301409e+001
8.346230e+002, 2.296549e+001
8.351051e+002, 2.302862e+001
8.355872e+002, 2.318176e+001
8.360693e+002, 2.329532e+001
8.365515e+002, 2.333288e+001
8.370336e+002, 2.331950e+001
8.375157e+002, 2.319908e+001
8.379978e+002, 2.308147e+001
8.384799e+002, 2.319306e+001
8.389620e+002, 2.343400e+001
8.394442e+002, 2.339341e+001
8.399263e+002, 2.287504e+001
8.404084e+002, 2.230031e+001
8.408905e+002, 2.236284e+001
8.413726e+002, 2.291283e+001
8.418547e+002, 2.301637e+001
8.423369e+002, 2.262580e+001
8.428190e+002, 2.234851e+001
8.433011e+002, 2.242955e+001
8.437832e+002, 2.262537e+001
8.442653e+002, 2.263873e+001
8.447474e+002, 2.247740e+001
8.452296e+002, 2.248635e+001
8.457117e+002, 2.291330e+001
8.461938e+002, 2.314459e+001
8.466759e+002, 2.300458e+001
8.471580e+002, 2.277571e+001
8.476401e+002, 2.258177e+001
8.481223e+002, 2.244535e+001
8.486044e+002, 2.239434e+001
8.490865e+002, 2.244972e+001
8.495686e+002, 2.252795e+001
8.500507e+002, 2.266998e+001
8.505328e+002, 2.274424e+001
8.510150e+002, 2.250904e+001
8.514971e+002, 2.211527e+001
8.519792e+002, 2.194926e+001
8.524613e+002, 2.211112e+001
8.529434e+002, 2.233290e+001
8.534255e+002, 2.234556e+001
8.539077e+002, 2.222139e+001
8.543898e+002, 2.220368e+001
8.548719e+002, 2.229227e+001
8.553540e+002, 2.230389e+001
8.558361e+002, 2.219429e+001
8.563182e+002, 2.202575e+001
8.568004e+002, 2.180425e+001
8.572825e+002, 2.158940e+001
8.577646e+002, 2.158845e+001
8.582467e+002, 2.199047e+001
8.587288e+002, 2.219430e+001
8.592109e+002, 2.205532e+001
8.596931e+002, 2.189306e+001
8.601752e+002, 2.176009e+001
8.606573e+002, 2.169835e+001
8.611394e+002, 2.182936e+001
8.616215e+002, 2.214197e+001
8.621036e+002, 2.226819e+001
8.625858e+002, 2.187673e+001
8.630679e+002, 2.144941e+001
8.635500e+002, 2.131727e+001
8.640321e+002, 2.135355e+001
8.645142e+002, 2.138305e+001
8.649963e+002, 2.139063e+001
8.654785e+002, 2.146392e+001
8.659606e+002, 2.166189e+001
8.664427e+002, 2.188581e+001
8.669248e+002, 2.199182e+001
8.674069e+002, 2.198928e+001
8.678890e+002, 2.192201e+001
8.683712e+002, 2.179175e+001
8.688533e+002, 2.159314e+001
8.693354e+002, 2.128996e+001
8.698175e+002, 2.103490e+001
8.702996e+002, 2.104876e+001
8.707817e+002, 2.133393e+001
8.712639e+002, 2.158641e+001
8.717459e+002, 2.185745e+001
8.722280e+002, 2.200524e+001
8.727101e+002, 2.194518e+001
8.731923e+002, 2.180923e+001
8.736744e+002, 2.155765e+001
8.741565e+002, 2.130533e+001
8.746386e+002, 2.137826e+001
8.751207e+002, 2.201950e+001
8.756028e+002, 2.239628e+001
8.760850e+002, 2.197994e+001
8.765671e+002, 2.142407e+001
8.770492e+002, 2.125418e+001
8.775313e+002, 2.127164e+001
8.780134e+002, 2.099209e+001
8.784955e+002, 2.036821e+001
8.789777e+002, 1.996164e+001
8.794598e+002, 2.037983e+001
8.799419e+002, 2.106534e+001
8.804240e+002, 2.102073e+001
8.809061e+002, 2.044592e+001
8.813882e+002, 2.006413e+001
8.818704e+002, 1.998892e+001
8.823525e+002, 2.002639e+001
8.828346e+002, 2.006117e+001
8.833167e+002, 2.010789e+001
8.837988e+002, 2.020918e+001
8.842809e+002, 2.038185e+001
8.847631e+002, 2.047517e+001
8.852452e+002, 2.044732e+001
8.857273e+002, 2.045228e+001
8.862094e+002, 2.063033e+001
8.866915e+002, 2.077388e+001
8.871736e+002, 2.057916e+001
8.876558e+002, 2.007764e+001
8.881379e+002, 1.976014e+001
8.886200e+002, 1.977439e+001
8.891021e+002, 1.978388e+001
8.895842e+002, 1.968621e+001
8.900663e+002, 1.960756e+001
8.905485e+002, 1.970376e+001
8.910306e+002, 1.986618e+001
8.915127e+002, 1.985154e+001
8.919948e+002, 1.958567e+001
8.924769e+002, 1.932795e+001
8.929590e+002, 1.930679e+001
8.934412e+002, 1.932318e+001
8.939233e+002, 1.909972e+001
8.944054e+002, 1.876636e+001
8.948875e+002, 1.861913e+001
8.953696e+002, 1.870614e+001
8.958517e+002, 1.887164e+001
8.963339e+002, 1.901528e+001
8.968160e+002, 1.911275e+001
8.972981e+002, 1.906350e+001
8.977802e+002, 1.889447e+001
8.982623e+002, 1.892202e+001
8.987444e+002, 1.919742e+001
8.992266e+002, 1.936496e+001
8.997087e+002, 1.922682e+001
9.001908e+002, 1.898406e+001
9.006729e+002, 1.894859e+001
9.011550e+002, 1.913504e+001
9.016371e+002, 1.919009e+001
9.021193e+002, 1.901630e+001
9.026014e+002, 1.889402e+001
9.030835e+002, 1.898777e+001
9.035656e+002, 1.903650e+001
9.040477e+002, 1.874047e+001
9.045298e+002, 1.827759e+001
9.050120e+002, 1.814109e+001
9.054941e+002, 1.853349e+001
9.059762e+002, 1.882059e+001
9.064583e+002, 1.874258e+001
9.069404e+002, 1.862893e+001
9.074225e+002, 1.873759e+001
9.079047e+002, 1.890032e+001
9.083868e+002, 1.881839e+001
9.088689e+002, 1.849049e+001
9.093510e+002, 1.824818e+001
9.098331e+002, 1.831284e+001
9.103152e+002, 1.850412e+001
9.107974e+002, 1.874498e+001
9.112795e+002, 1.893736e+001
9.117616e+002, 1.878800e+001
9.122437e+002, 1.837449e+001
9.127258e+002, 1.819020e+001
9.132079e+002, 1.846946e+001
9.136901e+002, 1.885923e+001
9.141722e+002, 1.886190e+001
9.146543e+002, 1.855349e+001
9.151364e+002, 1.835254e+001
9.156185e+002, 1.825817e+001
9.161006e+002, 1.835651e+001
9.165828e+002, 1.874021e+001
9.170649e+002, 1.897298e+001
9.175470e+002, 1.862441e+001
9.180291e+002, 1.790133e+001
9.185112e+002, 1.757693e+001
9.189933e+002, 1.785819e+001
9.194755e+002, 1.799973e+001
9.199576e+002, 1.786359e+001
9.204397e+002, 1.778354e+001
9.209218e+002, 1.793859e+001
9.214039e+002, 1.818485e+001
9.218860e+002, 1.841701e+001
9.223682e+002, 1.862445e+001
9.228503e+002, 1.865610e+001
9.233324e+002, 1.831270e+001
9.238145e+002, 1.803295e+001
9.242966e+002, 1.801535e+001
9.247787e+002, 1.803936e+001
9.252609e+002, 1.788836e+001
9.257430e+002, 1.765215e+001
9.262251e+002, 1.756112e+001
9.267072e+002, 1.768644e+001
9.271893e+002, 1.781595e+001
9.276714e+002, 1.776805e+001
9.281536e+002, 1.769358e+001
9.286357e+002, 1.776409e+001
9.291178e+002, 1.791700e+001
9.295999e+002, 1.803122e+001
9.300820e+002, 1.808654e+001
9.305641e+002, 1.814314e+001
9.310463e+002, 1.825645e+001
9.315284e+002, 1.829309e+001
9.320105e+002, 1.786545e+001
9.324926e+002, 1.717075e+001
9.329747e+002, 1.719849e+001
9.334568e+002, 1.794087e+001
9.339390e+002, 1.828884e+001
9.344211e+002, 1.779770e+001
9.349032e+002, 1.713478e+001
9.353853e+002, 1.704531e+001
9.358674e+002, 1.740903e+001
9.363495e+002, 1.748740e+001
9.368317e+002, 1.717853e+001
9.373138e+002, 1.705349e+001
9.377959e+002, 1.728543e+001
9.382780e+002, 1.745540e+001
9.387601e+002, 1.725509e+001
9.392422e+002, 1.691706e+001
9.397244e+002, 1.689176e+001
9.402065e+002, 1.727019e+001
9.406886e+002, 1.742294e+001
9.411707e+002, 1.713617e+001
9.416528e+002, 1.692486e+001
9.421349e+002, 1.689702e+001
9.426171e+002, 1.696627e+001
9.430992e+002, 1.712456e+001
9.435813e+002, 1.732046e+001
9.440634e+002, 1.742520e+001
9.445455e+002, 1.738144e+001
9.450276e+002, 1.737251e+001
9.455098e+002, 1.751396e+001
9.459919e+002, 1.765804e+001
9.464740e+002, 1.773795e+001
9.469561e+002, 1.774214e+001
9.474382e+002, 1.761967e+001
9.479203e+002, 1.740143e+001
9.484025e+002, 1.723898e+001
9.488846e+002, 1.722851e+001
9.493667e+002, 1.726187e+001
9.498488e+002, 1.721546e+001
9.503309e+002, 1.715726e+001
9.508130e+002, 1.722375e+001
9.512952e+002, 1.737711e+001
9.517773e+002, 1.747057e+001
9.522594e+002, 1.745513e+001
9.527415e+002, 1.738983e+001
9.532236e+002, 1.733022e+001
9.537057e+002, 1.726185e+001
9.541878e+002, 1.709137e+001
9.546699e+002, 1.685935e+001
9.551520e+002, 1.688335e+001
9.556342e+002, 1.720703e+001
9.561163e+002, 1.752170e+001
9.565984e+002, 1.767611e+001
9.570805e+002, 1.765282e+001
9.575626e+002, 1.737459e+001
9.580447e+002, 1.684848e+001
9.585269e+002, 1.660465e+001
9.590090e+002, 1.671433e+001
9.594911e+002, 1.678779e+001
9.599732e+002, 1.670091e+001
9.604553e+002, 1.666101e+001
9.609374e+002, 1.687420e+001
9.614196e+002, 1.721819e+001
9.619017e+002, 1.734422e+001
9.623838e+002, 1.718773e+001
9.628659e+002, 1.700934e+001
9.633480e+002, 1.669386e+001
9.638301e+002, 1.651506e+001
9.643123e+002, 1.665544e+001
9.647944e+002, 1.686812e+001
9.652765e+002, 1.695043e+001
9.657586e+002, 1.691838e+001
9.662407e+002, 1.687494e+001
9.667228e+002, 1.685106e+001
9.672050e+002, 1.677914e+001
9.676871e+002, 1.655598e+001
9.681692e+002, 1.637695e+001
9.686513e+002, 1.630601e+001
9.691334e+002, 1.637467e+001
9.696155e+002, 1.674028e+001
9.700977e+002, 1.733800e+001
9.705798e+002, 1.765104e+001
9.710619e+002, 1.726850e+001
9.715440e+002, 1.684290e+001
9.720261e+002, 1.682272e+001
9.725082e+002, 1.693795e+001
9.729904e+002, 1.690207e+001
9.734725e+002, 1.675790e+001
9.739546e+002, 1.667235e+001
9.744367e+002, 1.669039e+001
9.749188e+002, 1.670649e+001
9.754009e+002, 1.663175e+001
9.758831e+002, 1.651562e+001
9.763652e+002, 1.638231e+001
9.768473e+002, 1.627201e+001
9.773294e+002, 1.630339e+001
9.778115e+002, 1.645788e+001
9.782936e+002, 1.659368e+001
9.787758e+002, 1.664369e+001
9.792579e+002, 1.660640e+001
9.797400e+002, 1.642659e+001
9.802221e+002, 1.617701e+001
9.807042e+002, 1.613720e+001
9.811863e+002, 1.627896e+001
9.816685e+002, 1.637176e+001
9.821506e+002, 1.637000e+001
9.826327e+002, 1.634962e+001
9.831148e+002, 1.636142e+001
9.835969e+002, 1.637617e+001
9.840790e+002, 1.632881e+001
9.845612e+002, 1.621880e+001
9.850433e+002, 1.614458e+001
9.855254e+002, 1.610205e+001
9.860075e+002, 1.612388e+001
9.864896e+002, 1.622306e+001
9.869717e+002, 1.638235e+001
9.874539e+002, 1.661601e+001
9.879360e+002, 1.687338e+001
9.884181e+002, 1.699856e+001
9.889002e+002, 1.698800e+001
9.893823e+002, 1.684171e+001
9.898644e+002, 1.645096e+001
9.903466e+002, 1.613675e+001
9.908287e+002, 1.604583e+001
9.913108e+002, 1.601846e+001
9.917929e+002, 1.591825e+001
9.922750e+002, 1.574991e+001
9.927571e+002, 1.553141e+001
9.932393e+002, 1.502122e+001
9.937214e+002, 1.489633e+001
9.942035e+002, 1.551512e+001
9.946856e+002, 1.610291e+001
9.951677e+002, 1.642946e+001
9.956498e+002, 1.652962e+001
9.961320e+002, 1.636192e+001
9.966141e+002, 1.597649e+001
9.970962e+002, 1.569141e+001
9.975783e+002, 1.551381e+001
9.980604e+002, 1.552894e+001
9.985425e+002, 1.596995e+001
9.990247e+002, 1.638909e+001
9.995068e+002, 1.645297e+001
9.999889e+002, 1.634176e+001
1.000471e+003, 1.633390e+001
1.000953e+003, 1.645795e+001
1.001435e+003, 1.654977e+001
1.001917e+003, 1.657736e+001
1.002399e+003, 1.650258e+001
1.002882e+003, 1.611917e+001
1.003364e+003, 1.578519e+001
1.003846e+003, 1.593078e+001
1.004328e+003, 1.635653e+001
1.004810e+003, 1.666570e+001
1.005292e+003, 1.674969e+001
1.005774e+003, 1.667013e+001
1.006256e+003, 1.637299e+001
1.006739e+003, 1.605308e+001
1.007221e+003, 1.590580e+001
1.007703e+003, 1.584329e+001
1.008185e+003, 1.571200e+001
1.008667e+003, 1.555243e+001
1.009149e+003, 1.553796e+001
1.009631e+003, 1.571936e+001
1.010113e+003, 1.593087e+001
1.010595e+003, 1.601442e+001
1.011078e+003, 1.605652e+001
1.011560e+003, 1.622309e+001
1.012042e+003, 1.643963e+001
1.012524e+003, 1.655644e+001
1.013006e+003, 1.654667e+001
1.013488e+003, 1.636293e+001
1.013970e+003, 1.598958e+001
1.014452e+003, 1.562139e+001
1.014935e+003, 1.548421e+001
1.015417e+003, 1.550730e+001
1.015899e+003, 1.551795e+001
1.016381e+003, 1.552785e+001
1.016863e+003, 1.561987e+001
1.017345e+003, 1.579312e+001
1.017827e+003, 1.589051e+001
1.018309e+003, 1.582687e+001
1.018791e+003, 1.573106e+001
1.019274e+003, 1.579615e+001
1.019756e+003, 1.597818e+001
1.020238e+003, 1.606309e+001
1.020720e+003, 1.605317e+001
1.021202e+003, 1.601034e+001
1.021684e+003, 1.594429e+001
1.022166e+003, 1.586010e+001
1.022648e+003, 1.575880e+001
1.023130e+003, 1.564729e+001
1.023613e+003, 1.552066e+001
1.024095e+003, 1.538661e+001
1.024577e+003, 1.539653e+001
1.025059e+003, 1.557076e+001
1.025541e+003, 1.572651e+001
1.026023e+003, 1.584332e+001
1.026505e+003, 1.587151e+001
1.026987e+003, 1.575825e+001
1.027469e+003, 1.558642e+001
1.027952e+003, 1.552351e+001
1.028434e+003, 1.557816e+001
1.028916e+003, 1.547256e+001
1.029398e+003, 1.508563e+001
1.029880e+003, 1.498826e+001
1.030362e+003, 1.538983e+001
1.030844e+003, 1.586181e+001
1.031326e+003, 1.614612e+001
1.031809e+003, 1.629930e+001
1.032291e+003, 1.645712e+001
1.032773e+003, 1.665281e+001
1.033255e+003, 1.654721e+001
1.033737e+003, 1.590197e+001
1.034219e+003, 1.548251e+001
1.034701e+003, 1.550799e+001
1.035183e+003, 1.567972e+001
1.035666e+003, 1.586303e+001
1.036148e+003, 1.602291e+001
1.036630e+003, 1.607450e+001
1.037112e+003, 1.599285e+001
1.037594e+003, 1.594379e+001
1.038076e+003, 1.598470e+001
1.038558e+003, 1.596489e+001
1.039040e+003, 1.580313e+001
1.039522e+003, 1.563354e+001
1.040005e+003, 1.550305e+001
1.040487e+003, 1.543716e+001
1.040969e+003, 1.550976e+001
1.041451e+003, 1.575782e+001
1.041933e+003, 1.594858e+001
1.042415e+003, 1.616691e+001
1.042897e+003, 1.620326e+001
1.043379e+003, 1.578427e+001
1.043861e+003, 1.540631e+001
1.044344e+003, 1.543494e+001
1.044826e+003, 1.571652e+001
1.045308e+003, 1.599045e+001
1.045790e+003, 1.627144e+001
1.046272e+003, 1.631386e+001
1.046754e+003, 1.580440e+001
1.047236e+003, 1.545140e+001
1.047718e+003, 1.562585e+001
1.048201e+003, 1.581916e+001
1.048683e+003, 1.559472e+001
1.049165e+003, 1.516873e+001
1.049647e+003, 1.497632e+001
1.050129e+003, 1.508429e+001
1.050611e+003, 1.520690e+001
1.051093e+003, 1.531382e+001
1.051575e+003, 1.539432e+001
1.052057e+003, 1.540484e+001
1.052540e+003, 1.542649e+001
1.053022e+003, 1.556260e+001
1.053504e+003, 1.573453e+001
1.053986e+003, 1.579874e+001
1.054468e+003, 1.573405e+001
1.054950e+003, 1.561109e+001
1.055432e+003, 1.537151e+001
1.055914e+003, 1.518096e+001
1.056396e+003, 1.504385e+001
1.056879e+003, 1.502672e+001
1.057361e+003, 1.533097e+001
1.057843e+003, 1.572624e+001
1.058325e+003, 1.578169e+001
1.058807e+003, 1.543973e+001
1.059289e+003, 1.515368e+001
1.059771e+003, 1.506445e+001
1.060253e+003, 1.506483e+001
1.060736e+003, 1.515460e+001
1.061218e+003, 1.527860e+001
1.061700e+003, 1.542316e+001
1.062182e+003, 1.556044e+001
1.062664e+003, 1.565328e+001
1.063146e+003, 1.569611e+001
1.063628e+003, 1.570561e+001
1.064110e+003, 1.575675e+001
1.064593e+003, 1.567785e+001
1.065075e+003, 1.517638e+001
1.065557e+003, 1.473773e+001
1.066039e+003, 1.486222e+001
1.066521e+003, 1.523589e+001
1.067003e+003, 1.533729e+001
1.067485e+003, 1.511099e+001
1.067967e+003, 1.487473e+001
1.068449e+003, 1.466984e+001
1.068932e+003, 1.461045e+001
1.069414e+003, 1.490411e+001
1.069896e+003, 1.520384e+001
1.070378e+003, 1.520468e+001
1.070860e+003, 1.506940e+001
1.071342e+003, 1.504067e+001
1.071824e+003, 1.514464e+001
1.072306e+003, 1.528670e+001
1.072788e+003, 1.549698e+001
1.073271e+003, 1.559076e+001
1.073753e+003, 1.538073e+001
1.074235e+003, 1.512853e+001
1.074717e+003, 1.505152e+001
1.075199e+003, 1.503134e+001
1.075681e+003, 1.483978e+001
1.076163e+003, 1.452127e+001
1.076645e+003, 1.438328e+001
1.077127e+003, 1.455239e+001
1.077610e+003, 1.483812e+001
1.078092e+003, 1.535186e+001
1.078574e+003, 1.573410e+001
1.079056e+003, 1.558208e+001
1.079538e+003, 1.527401e+001
1.080020e+003, 1.533730e+001
1.080502e+003, 1.568469e+001
1.080984e+003, 1.580989e+001
1.081467e+003, 1.551196e+001
1.081949e+003, 1.521698e+001
1.082431e+003, 1.508661e+001
1.082913e+003, 1.505027e+001
1.083395e+003, 1.511600e+001
1.083877e+003, 1.521449e+001
1.084359e+003, 1.527589e+001
1.084841e+003, 1.530697e+001
1.085323e+003, 1.535832e+001
1.085806e+003, 1.545022e+001
1.086288e+003, 1.548654e+001
1.086770e+003, 1.534436e+001
1.087252e+003, 1.523856e+001
1.087734e+003, 1.537457e+001
1.088216e+003, 1.551648e+001
1.088698e+003, 1.540782e+001
1.089180e+003, 1.513834e+001
1.089662e+003, 1.491050e+001
1.090145e+003, 1.476465e+001
1.090627e+003, 1.471698e+001
1.091109e+003, 1.484285e+001
1.091591e+003, 1.497511e+001
1.092073e+003, 1.508632e+001
1.092555e+003, 1.513391e+001
1.093037e+003, 1.501664e+001
1.093519e+003, 1.484313e+001
1.094002e+003, 1.479009e+001
1.094484e+003, 1.487979e+001
1.094966e+003, 1.501756e+001
1.095448e+003, 1.523815e+001
1.095930e+003, 1.540680e+001
1.096412e+003, 1.542704e+001
1.096894e+003, 1.543792e+001
1.097376e+003, 1.562274e+001
1.097859e+003, 1.579477e+001
1.098341e+003, 1.563420e+001
1.098823e+003, 1.517984e+001
1.099305e+003, 1.486441e+001
1.099787e+003, 1.482459e+001
1.100269e+003, 1.485054e+001
1.100751e+003, 1.498465e+001
1.101233e+003, 1.505849e+001
1.101715e+003, 1.490012e+001
1.102198e+003, 1.470798e+001
1.102680e+003, 1.464661e+001
1.103162e+003, 1.473989e+001
1.103644e+003, 1.507182e+001
1.104126e+003, 1.587349e+001
1.104608e+003, 1.621107e+001
1.105090e+003, 1.542754e+001
1.105572e+003, 1.479560e+001
1.106054e+003, 1.495972e+001
1.106537e+003, 1.526040e+001
1.107019e+003, 1.511805e+001
1.107501e+003, 1.469952e+001
1.107983e+003, 1.445429e+001
1.108465e+003, 1.443299e+001
1.108947e+003, 1.447948e+001
1.109429e+003, 1.468962e+001
1.109911e+003, 1.481055e+001
1.110394e+003, 1.467796e+001
1.110876e+003, 1.456179e+001
1.111358e+003, 1.471665e+001
1.111840e+003, 1.494882e+001
1.112322e+003, 1.490679e+001
1.112804e+003, 1.456980e+001
1.113286e+003, 1.432534e+001
1.113768e+003, 1.421221e+001
1.114250e+003, 1.412627e+001
1.114733e+003, 1.396905e+001
1.115215e+003, 1.396979e+001
1.115697e+003, 1.437184e+001
1.116179e+003, 1.484570e+001
1.116661e+003, 1.499699e+001
1.117143e+003, 1.486864e+001
1.117625e+003, 1.477894e+001
1.118107e+003, 1.476321e+001
1.118589e+003, 1.469930e+001
1.119072e+003, 1.454562e+001
1.119554e+003, 1.442577e+001
1.120036e+003, 1.437987e+001
1.120518e+003, 1.437891e+001
1.121000e+003, 1.440774e+001
1.121482e+003, 1.445473e+001
1.121964e+003, 1.447418e+001
1.122446e+003, 1.444077e+001
1.122929e+003, 1.456418e+001
1.123411e+003, 1.494620e+001
1.123893e+003, 1.512350e+001
1.124375e+003, 1.494901e+001
1.124857e+003, 1.468667e+001
1.125339e+003, 1.446964e+001
1.125821e+003, 1.433784e+001
1.126303e+003, 1.436762e+001
1.126786e+003, 1.455342e+001
1.127268e+003, 1.483145e+001
1.127750e+003, 1.523062e+001
1.128232e+003, 1.542787e+001
1.128714e+003, 1.535744e+001
1.129196e+003, 1.526216e+001
1.129678e+003, 1.525624e+001
1.130160e+003, 1.523700e+001
1.130642e+003, 1.506956e+001
1.131125e+003, 1.482203e+001
1.131607e+003, 1.476472e+001
1.132089e+003, 1.488218e+001
1.132571e+003, 1.487045e+001
1.133053e+003, 1.471756e+001
1.133535e+003, 1.465141e+001
1.134017e+003, 1.474159e+001
1.134499e+003, 1.492596e+001
1.134981e+003, 1.517805e+001
1.135464e+003, 1.538145e+001
1.135946e+003, 1.523522e+001
1.136428e+003, 1.486957e+001
1.136910e+003, 1.481761e+001
1.137392e+003, 1.502498e+001
1.137874e+003, 1.521224e+001
1.138356e+003, 1.532168e+001
1.138838e+003, 1.537168e+001
1.139321e+003, 1.537187e+001
1.139803e+003, 1.534592e+001
1.140285e+003, 1.533060e+001
1.140767e+003, 1.529695e+001
1.141249e+003, 1.514751e+001
1.141731e+003, 1.495620e+001
1.142213e+003, 1.491700e+001
1.142695e+003, 1.499559e+001
1.143177e+003, 1.501205e+001
1.143660e+003, 1.491272e+001
1.144142e+003, 1.477256e+001
1.144624e+003, 1.462455e+001
1.145106e+003, 1.450495e+001
1.145588e+003, 1.442150e+001
1.146070e+003, 1.441251e+001
1.146552e+003, 1.459743e+001
1.147034e+003, 1.486134e+001
1.147516e+003, 1.501674e+001
1.147999e+003, 1.502956e+001
1.148481e+003, 1.489633e+001
1.148963e+003, 1.456693e+001
1.149445e+003, 1.439580e+001
1.149927e+003, 1.481396e+001
1.150409e+003, 1.523443e+001
1.150891e+003, 1.516499e+001
1.151373e+003, 1.492829e+001
1.151856e+003, 1.484787e+001
1.152338e+003, 1.491435e+001
1.152820e+003, 1.504936e+001
1.153302e+003, 1.523479e+001
1.153784e+003, 1.530676e+001
1.154266e+003, 1.509422e+001
1.154748e+003, 1.492521e+001
1.155230e+003, 1.498638e+001
1.155713e+003, 1.503768e+001
1.156195e+003, 1.485186e+001
1.156677e+003, 1.461840e+001
1.157159e+003, 1.463449e+001
1.157641e+003, 1.486527e+001
1.158123e+003, 1.494006e+001
1.158605e+003, 1.459375e+001
1.159087e+003, 1.458735e+001
1.159569e+003, 1.543576e+001
1.160052e+003, 1.598274e+001
1.160534e+003, 1.571886e+001
1.161016e+003, 1.528428e+001
1.161498e+003, 1.513067e+001
1.161980e+003, 1.514775e+001
1.162462e+003, 1.509054e+001
1.162944e+003, 1.494429e+001
1.163426e+003, 1.488638e+001
1.163908e+003, 1.495140e+001
1.164391e+003, 1.501177e+001
1.164873e+003, 1.507249e+001
1.165355e+003, 1.504716e+001
1.165837e+003, 1.484998e+001
1.166319e+003, 1.466498e+001
1.166801e+003, 1.471324e+001
1.167283e+003, 1.495158e+001
1.167765e+003, 1.526456e+001
1.168247e+003, 1.566481e+001
1.168730e+003, 1.565255e+001
1.169212e+003, 1.518963e+001
1.169694e+003, 1.500201e+001
1.170176e+003, 1.529297e+001
1.170658e+003, 1.566171e+001
1.171140e+003, 1.584614e+001
1.171622e+003, 1.585467e+001
1.172104e+003, 1.563571e+001
1.172587e+003, 1.527749e+001
1.173069e+003, 1.505293e+001
1.173551e+003, 1.495271e+001
1.174033e+003, 1.494542e+001
1.174515e+003, 1.502359e+001
1.174997e+003, 1.521687e+001
1.175479e+003, 1.552220e+001
1.175961e+003, 1.575625e+001
1.176443e+003, 1.575252e+001
1.176926e+003, 1.564161e+001
1.177408e+003, 1.561675e+001
1.177890e+003, 1.556544e+001
1.178372e+003, 1.521088e+001
1.178854e+003, 1.474790e+001
1.179336e+003, 1.461288e+001
1.179818e+003, 1.479774e+001
1.180300e+003, 1.493478e+001
1.180782e+003, 1.486430e+001
1.181265e+003, 1.479837e+001
1.181747e+003, 1.488720e+001
1.182229e+003, 1.499709e+001
1.182711e+003, 1.499282e+001
1.183193e+003, 1.501091e+001
1.183675e+003, 1.527477e+001
1.184157e+003, 1.562170e+001
1.184639e+003, 1.574691e+001
1.185122e+003, 1.560963e+001
1.185604e+003, 1.535855e+001
1.186086e+003, 1.484499e+001
1.186568e+003, 1.451448e+001
1.187050e+003, 1.453247e+001
1.187532e+003, 1.463334e+001
1.188014e+003, 1.477630e+001
1.188496e+003, 1.489089e+001
1.188979e+003, 1.489374e+001
1.189461e+003, 1.482524e+001
1.189943e+003, 1.480457e+001
1.190425e+003, 1.484456e+001
1.190907e+003, 1.485389e+001
1.191389e+003, 1.481496e+001
1.191871e+003, 1.480572e+001
1.192353e+003, 1.487499e+001
1.192835e+003, 1.483728e+001
1.193318e+003, 1.453201e+001
1.193800e+003, 1.428777e+001
1.194282e+003, 1.455430e+001
1.194764e+003, 1.516034e+001
1.195246e+003, 1.540486e+001
1.195728e+003, 1.530375e+001
1.196210e+003, 1.528507e+001
1.196692e+003, 1.536103e+001
1.197174e+003, 1.532765e+001
1.197657e+003, 1.514449e+001
1.198139e+003, 1.505879e+001
1.198621e+003, 1.523114e+001
1.199103e+003, 1.546961e+001
1.199585e+003, 1.553260e+001
1.200067e+003, 1.547219e+001
1.200549e+003, 1.537197e+001
1.201031e+003, 1.523877e+001
1.201514e+003, 1.508311e+001
1.201996e+003, 1.490904e+001
1.202478e+003, 1.467172e+001
1.202960e+003, 1.439341e+001
1.203442e+003, 1.430460e+001
1.203924e+003, 1.459144e+001
1.204406e+003, 1.494660e+001
1.204888e+003, 1.520570e+001
1.205370e+003, 1.536286e+001
1.205853e+003, 1.542476e+001
1.206335e+003, 1.537042e+001
1.206817e+003, 1.503788e+001
1.207299e+003, 1.459790e+001
1.207781e+003, 1.453648e+001
1.208263e+003, 1.497934e+001
1.208745e+003, 1.524364e+001
1.209227e+003, 1.503237e+001
1.209709e+003, 1.482747e+001
1.210192e+003, 1.465030e+001
1.210674e+003, 1.459507e+001
1.211156e+003, 1.486523e+001
1.211638e+003, 1.514155e+001
1.212120e+003, 1.503952e+001
1.212602e+003, 1.469057e+001
1.213084e+003, 1.462278e+001
1.213566e+003, 1.494160e+001
1.214049e+003, 1.497301e+001
1.214531e+003, 1.459505e+001
1.215013e+003, 1.443970e+001
1.215495e+003, 1.467194e+001
1.215977e+003, 1.491105e+001
1.216459e+003, 1.495713e+001
1.216941e+003, 1.490475e+001
1.217423e+003, 1.485878e+001
1.217906e+003, 1.482335e+001
1.218388e+003, 1.482337e+001
1.218870e+003, 1.484646e+001
1.219352e+003, 1.483207e+001
1.219834e+003, 1.477865e+001
1.220316e+003, 1.466577e+001
1.220798e+003, 1.451278e+001
1.221280e+003, 1.446741e+001
1.221762e+003, 1.461199e+001
1.222245e+003, 1.481731e+001
1.222727e+003, 1.499967e+001
1.223209e+003, 1.512738e+001
1.223691e+003, 1.515086e+001
1.224173e+003, 1.510782e+001
1.224655e+003, 1.499882e+001
1.225137e+003, 1.488378e+001
1.225619e+003, 1.483563e+001
1.226101e+003, 1.488387e+001
1.226584e+003, 1.512274e+001
1.227066e+003, 1.574489e+001
1.227548e+003, 1.607903e+001
1.228030e+003, 1.563661e+001
1.228512e+003, 1.520018e+001
1.228994e+003, 1.513312e+001
1.229476e+003, 1.516356e+001
1.229958e+003, 1.509555e+001
1.230441e+003, 1.496294e+001
1.230923e+003, 1.482300e+001
1.231405e+003, 1.467740e+001
1.231887e+003, 1.460707e+001
1.232369e+003, 1.465644e+001
1.232851e+003, 1.464319e+001
1.233333e+003, 1.454918e+001
1.233815e+003, 1.439949e+001
1.234297e+003, 1.415582e+001
1.234780e+003, 1.408580e+001
1.235262e+003, 1.441539e+001
1.235744e+003, 1.489905e+001
1.236226e+003, 1.512305e+001
1.236708e+003, 1.513605e+001
1.237190e+003, 1.515542e+001
1.237672e+003, 1.515464e+001
1.238154e+003, 1.496571e+001
1.238636e+003, 1.462522e+001
1.239119e+003, 1.436345e+001
1.239601e+003, 1.425038e+001
1.240083e+003, 1.423996e+001
1.240565e+003, 1.431582e+001
1.241047e+003, 1.441895e+001
1.241529e+003, 1.449020e+001
1.242011e+003, 1.456387e+001
1.242493e+003, 1.474051e+001
1.242975e+003, 1.488826e+001
1.243458e+003, 1.479742e+001
1.243940e+003, 1.456413e+001
1.244422e+003, 1.439715e+001
1.244904e+003, 1.433512e+001
1.245386e+003, 1.436344e+001
1.245868e+003, 1.458460e+001
1.246350e+003, 1.469917e+001
1.246832e+003, 1.452570e+001
1.247315e+003, 1.441656e+001
1.247797e+003, 1.451845e+001
1.248279e+003, 1.469640e+001
1.248761e+003, 1.493360e+001
1.249243e+003, 1.510570e+001
1.249725e+003, 1.494188e+001
1.250207e+003, 1.447372e+001
1.250689e+003, 1.425931e+001
1.251172e+003, 1.431481e+001
1.251654e+003, 1.448207e+001
1.252136e+003, 1.475619e+001
1.252618e+003, 1.495308e+001
1.253100e+003, 1.501741e+001
1.253582e+003, 1.495384e+001
1.254064e+003, 1.475292e+001
1.254546e+003, 1.456496e+001
1.255028e+003, 1.465044e+001
1.255510e+003, 1.485577e+001
1.255993e+003, 1.490528e+001
1.256475e+003, 1.485236e+001
1.256957e+003, 1.475662e+001
1.257439e+003, 1.465801e+001
1.257921e+003, 1.466571e+001
1.258403e+003, 1.476056e+001
1.258885e+003, 1.469796e+001
1.259367e+003, 1.431133e+001
1.259850e+003, 1.400076e+001
1.260332e+003, 1.398872e+001
1.260814e+003, 1.404818e+001
1.261296e+003, 1.413885e+001
1.261778e+003, 1.419112e+001
1.262260e+003, 1.405490e+001
1.262742e+003, 1.390677e+001
1.263224e+003, 1.409647e+001
1.263707e+003, 1.456094e+001
1.264189e+003, 1.475688e+001
1.264671e+003, 1.464598e+001
1.265153e+003, 1.435031e+001
1.265635e+003, 1.377438e+001
1.266117e+003, 1.345469e+001
1.266599e+003, 1.352145e+001
1.267081e+003, 1.382454e+001
1.267563e+003, 1.430561e+001
1.268046e+003, 1.475988e+001
1.268528e+003, 1.494902e+001
1.269010e+003, 1.493048e+001
1.269492e+003, 1.476068e+001
1.269974e+003, 1.452596e+001
1.270456e+003, 1.449579e+001
1.270938e+003, 1.457988e+001
1.271420e+003, 1.441485e+001
1.271902e+003, 1.406174e+001
1.272385e+003, 1.403267e+001
1.272867e+003, 1.452470e+001
1.273349e+003, 1.498680e+001
1.273831e+003, 1.515528e+001
1.274313e+003, 1.512291e+001
1.274795e+003, 1.471434e+001
1.275277e+003, 1.437381e+001
1.275759e+003, 1.452593e+001
1.276242e+003, 1.480349e+001
1.276724e+003, 1.469238e+001
1.277206e+003, 1.435745e+001
1.277688e+003, 1.441803e+001
1.278170e+003, 1.494536e+001
1.278652e+003, 1.521995e+001
1.279134e+003, 1.521860e+001
1.279616e+003, 1.501592e+001
1.280099e+003, 1.456960e+001
1.280581e+003, 1.414614e+001
1.281063e+003, 1.381510e+001
1.281545e+003, 1.379511e+001
1.282027e+003, 1.428569e+001
1.282509e+003, 1.503578e+001
1.282991e+003, 1.575145e+001
1.283473e+003, 1.633245e+001
1.283955e+003, 1.656429e+001
##END=



