##NAMES=Jamesonite
##RRUFFID=R050432
##IDEAL CHEMISTRY=Pb^2+^_4_Fe^2+^Sb^3+^_6_S^2-^_14_
##LOCALITY=San Jose mine, Oruro District, Bolivia
##OWNER=RRUFF
##SOURCE=University of Arizona Mineral Museum
##DESCRIPTION=Grayish black coarse acicular crystals
##STATUS=The identification of this mineral has been confirmed by X-ray diffraction and chemical analysis
##URL=rruff.info/R050432
##MEASURED CHEMISTRY=Pb_4.00_Fe_1.00_(Sb_5.95_As_0.05_)_Î£=6_S_14.00_
95.71167, 60.76053
96.19379, 59.79654
96.67590, 58.94258
97.15802, 58.11266
97.64014, 57.43279
98.12225, 56.75264
98.60437, 55.75668
99.08649, 54.24945
99.56860, 52.56928
100.0507, 51.21761
100.5328, 50.12411
101.0150, 49.16542
101.4971, 48.31159
101.9792, 47.56355
102.4613, 46.80924
102.9434, 45.76689
103.4255, 44.79956
103.9077, 44.21323
104.3898, 44.12230
104.8719, 44.36151
105.3540, 44.66703
105.8361, 45.30836
106.3182, 45.50661
106.8004, 44.84939
107.2825, 43.79492
107.7646, 42.85879
108.2467, 42.34977
108.7288, 42.24178
109.2109, 42.23439
109.6931, 42.59641
110.1752, 42.78916
110.6573, 42.54524
111.1394, 41.97968
111.6215, 41.39175
112.1036, 41.01727
112.5858, 40.87074
113.0679, 41.06306
113.5500, 41.83475
114.0321, 42.74012
114.5142, 43.60614
114.9964, 44.40277
115.4785, 44.84887
115.9606, 44.28392
116.4427, 42.76998
116.9248, 41.79882
117.4069, 42.07478
117.8891, 43.10677
118.3712, 43.91508
118.8533, 44.33324
119.3354, 44.41715
119.8175, 44.16233
120.2996, 43.60155
120.7818, 43.09695
121.2639, 42.87726
121.7460, 42.94429
122.2281, 43.24531
122.7102, 44.34734
123.1923, 45.29324
123.6745, 45.35559
124.1566, 44.46703
124.6387, 43.37366
125.1208, 43.27339
125.6029, 44.98190
126.0850, 45.94561
126.5672, 45.51862
127.0493, 44.65708
127.5314, 44.15073
128.0135, 44.30901
128.4956, 44.86778
128.9777, 45.08633
129.4599, 44.60812
129.9420, 44.15415
130.4241, 43.69293
130.9062, 43.29858
131.3883, 43.12973
131.8704, 43.31877
132.3526, 43.74345
132.8347, 43.70591
133.3168, 42.56608
133.7989, 41.70019
134.2810, 41.99348
134.7632, 43.22487
135.2453, 44.19976
135.7274, 44.02138
136.2095, 42.96850
136.6916, 42.23378
137.1737, 41.92197
137.6559, 41.92056
138.1380, 42.28411
138.6201, 43.14566
139.1022, 43.73735
139.5843, 43.25977
140.0664, 42.22879
140.5486, 41.35150
141.0307, 40.99797
141.5128, 40.98956
141.9949, 40.77160
142.4770, 40.09297
142.9591, 39.59016
143.4413, 39.73372
143.9234, 40.22149
144.4055, 40.47851
144.8876, 39.97477
145.3697, 38.70355
145.8518, 37.92443
146.3340, 38.15992
146.8161, 38.46595
147.2982, 38.58646
147.7803, 38.52692
148.2624, 38.41684
148.7445, 38.38761
149.2267, 38.47558
149.7088, 38.49064
150.1909, 38.49580
150.6730, 38.40135
151.1551, 38.01689
151.6372, 37.38111
152.1194, 36.84751
152.6015, 36.89582
153.0836, 37.90142
153.5657, 38.47653
154.0478, 38.35496
154.5299, 37.93237
155.0121, 37.52509
155.4942, 37.19933
155.9763, 37.03286
156.4584, 37.22147
156.9405, 37.77448
157.4226, 38.35870
157.9048, 39.00549
158.3869, 39.61708
158.8690, 39.94494
159.3511, 39.82069
159.8332, 39.55056
160.3154, 39.49744
160.7975, 39.65776
161.2796, 39.91378
161.7617, 40.30968
162.2438, 40.81886
162.7259, 41.04799
163.2081, 40.64835
163.6902, 40.13314
164.1723, 39.90957
164.6544, 40.01332
165.1365, 40.19122
165.6186, 40.13148
166.1008, 39.74928
166.5829, 39.51735
167.0650, 39.55111
167.5471, 39.73064
168.0292, 40.06876
168.5113, 40.54989
168.9935, 41.02350
169.4756, 41.22695
169.9577, 41.02213
170.4398, 40.78907
170.9219, 40.45154
171.4040, 40.15910
171.8862, 40.08854
172.3683, 40.29507
172.8504, 40.62642
173.3325, 40.71921
173.8146, 40.26840
174.2967, 39.92295
174.7789, 39.81370
175.2610, 39.78146
175.7431, 39.60414
176.2252, 39.17056
176.7073, 38.60255
177.1894, 38.31393
177.6716, 38.46185
178.1537, 38.65551
178.6358, 38.79489
179.1179, 38.93143
179.6000, 39.23520
180.0821, 39.87874
180.5643, 40.61449
181.0464, 40.67893
181.5285, 39.77163
182.0106, 38.77253
182.4927, 37.93256
182.9749, 37.29038
183.4570, 37.05965
183.9391, 37.50545
184.4212, 38.35859
184.9033, 38.98074
185.3854, 39.28971
185.8676, 39.48922
186.3497, 39.87539
186.8318, 40.46552
187.3139, 40.61909
187.7960, 39.56398
188.2781, 38.12117
188.7603, 37.15459
189.2424, 36.83604
189.7245, 37.01075
190.2066, 37.70633
190.6887, 39.21351
191.1708, 40.16165
191.6530, 39.52390
192.1351, 38.37890
192.6172, 37.57461
193.0993, 37.39878
193.5814, 37.74358
194.0635, 38.53298
194.5457, 40.27399
195.0278, 41.40543
195.5099, 41.41859
195.9920, 40.86138
196.4741, 40.21311
196.9562, 39.68004
197.4384, 39.23949
197.9205, 38.80988
198.4026, 38.23679
198.8847, 37.91841
199.3668, 38.00018
199.8489, 38.30923
200.3311, 38.70395
200.8132, 39.11952
201.2953, 39.50012
201.7774, 39.62000
202.2595, 38.99585
202.7416, 38.64130
203.2238, 38.76578
203.7059, 39.19698
204.1880, 39.75853
204.6701, 40.37977
205.1522, 40.97156
205.6343, 41.10381
206.1165, 40.35830
206.5986, 39.68792
207.0807, 39.29965
207.5628, 39.12472
208.0449, 39.01345
208.5271, 38.87529
209.0092, 38.76443
209.4913, 38.92227
209.9734, 39.75251
210.4555, 40.32116
210.9376, 40.04076
211.4198, 39.19957
211.9019, 38.61886
212.3840, 38.78180
212.8661, 39.42454
213.3482, 39.77294
213.8303, 39.72834
214.3125, 39.58019
214.7946, 39.33250
215.2767, 39.04786
215.7588, 39.14309
216.2409, 40.12969
216.7230, 41.36039
217.2052, 41.65228
217.6873, 40.62342
218.1694, 39.43729
218.6515, 39.08884
219.1336, 39.53918
219.6157, 39.76762
220.0979, 39.09255
220.5800, 38.19788
221.0621, 37.86403
221.5442, 38.25598
222.0263, 38.87479
222.5084, 39.27866
222.9906, 39.45902
223.4727, 39.53396
223.9548, 39.47543
224.4369, 39.35520
224.9190, 39.18133
225.4011, 38.94779
225.8833, 38.77621
226.3654, 38.90269
226.8475, 39.44719
227.3296, 39.70327
227.8117, 39.20287
228.2938, 38.56955
228.7760, 38.14637
229.2581, 38.01025
229.7402, 38.08351
230.2223, 38.30924
230.7044, 38.76950
231.1865, 39.11983
231.6687, 39.25682
232.1508, 39.32952
232.6329, 39.48609
233.1150, 39.72977
233.5971, 39.87892
234.0793, 39.60128
234.5614, 38.55589
235.0435, 37.94341
235.5256, 38.17206
236.0077, 38.49451
236.4898, 38.39916
236.9720, 37.82707
237.4541, 37.11834
237.9362, 36.73245
238.4183, 36.78379
238.9004, 36.91444
239.3825, 37.24717
239.8647, 37.55355
240.3468, 37.74526
240.8289, 37.78129
241.3110, 37.59538
241.7931, 37.06031
242.2752, 35.94637
242.7574, 35.16990
243.2395, 34.89485
243.7216, 34.77892
244.2037, 34.61201
244.6858, 34.36828
245.1679, 34.16543
245.6501, 34.18101
246.1322, 34.57494
246.6143, 34.43981
247.0964, 33.16602
247.5785, 31.87723
248.0606, 31.47358
248.5428, 31.94805
249.0249, 32.47329
249.5070, 32.16552
249.9891, 30.82351
250.4712, 30.25634
250.9533, 31.11710
251.4355, 32.19291
251.9176, 32.71104
252.3997, 32.63116
252.8818, 32.29029
253.3639, 31.91957
253.8460, 31.52184
254.3282, 31.20241
254.8103, 30.95078
255.2924, 30.78173
255.7745, 30.77561
256.2566, 30.90879
256.7387, 30.97191
257.2209, 30.78366
257.7030, 30.38434
258.1851, 30.10158
258.6672, 30.01944
259.1493, 29.98619
259.6314, 29.93836
260.1136, 29.86711
260.5957, 29.68915
261.0778, 29.25956
261.5599, 28.71996
262.0420, 28.46885
262.5241, 28.61415
263.0063, 28.92411
263.4884, 29.32308
263.9705, 29.79096
264.4526, 30.13723
264.9347, 30.19296
265.4168, 30.11925
265.8990, 30.24296
266.3811, 30.66259
266.8632, 31.07747
267.3453, 31.35501
267.8274, 31.48004
268.3095, 31.29366
268.7917, 30.56074
269.2738, 29.63249
269.7559, 28.96411
270.2380, 28.57690
270.7202, 28.36930
271.2023, 28.34427
271.6844, 28.47342
272.1665, 28.57648
272.6486, 28.67375
273.1307, 28.64167
273.6129, 28.37989
274.0950, 27.88803
274.5771, 27.29211
275.0592, 26.51003
275.5413, 25.62451
276.0234, 25.17992
276.5056, 25.55042
276.9877, 25.99743
277.4698, 25.92508
277.9519, 25.41168
278.4340, 24.85548
278.9161, 24.48622
279.3983, 24.27045
279.8804, 24.05975
280.3625, 23.87526
280.8446, 23.64715
281.3267, 23.36903
281.8088, 23.02748
282.2910, 22.57239
282.7731, 21.80355
283.2552, 20.90909
283.7373, 20.61003
284.2194, 21.31485
284.7015, 21.84644
285.1837, 21.41609
285.6658, 20.52615
286.1479, 19.95674
286.6300, 20.19213
287.1121, 20.83521
287.5942, 20.95826
288.0764, 20.36327
288.5585, 19.69987
289.0406, 19.07873
289.5227, 18.56892
290.0048, 18.29217
290.4869, 18.31977
290.9691, 18.48293
291.4512, 18.47543
291.9333, 18.22533
292.4154, 18.03502
292.8975, 18.08926
293.3796, 18.17208
293.8618, 18.10887
294.3439, 17.85540
294.8260, 17.51808
295.3081, 17.17736
295.7902, 16.78245
296.2723, 16.62870
296.7545, 17.04561
297.2366, 17.52582
297.7187, 17.79974
298.2008, 17.83810
298.6829, 17.75977
299.1650, 17.60594
299.6472, 17.33971
300.1293, 17.34602
300.6114, 17.98781
301.0935, 18.61302
301.5756, 18.87777
302.0577, 18.85203
302.5399, 18.84772
303.0220, 19.20317
303.5041, 19.88642
303.9862, 20.14768
304.4683, 19.54649
304.9504, 19.01515
305.4326, 18.77877
305.9147, 18.85818
306.3968, 19.31873
306.8789, 20.33167
307.3610, 21.67929
307.8431, 22.35060
308.3253, 21.82988
308.8074, 21.42134
309.2895, 21.48629
309.7716, 21.85001
310.2537, 22.35225
310.7358, 22.94880
311.2180, 23.53034
311.7001, 23.80847
312.1822, 23.58334
312.6643, 23.50296
313.1464, 23.65896
313.6285, 24.00617
314.1107, 24.60758
314.5928, 25.46334
315.0749, 26.32145
315.5570, 26.80735
316.0391, 26.84405
316.5212, 26.78184
317.0034, 26.47455
317.4855, 26.21638
317.9676, 26.20189
318.4497, 26.42752
318.9319, 26.72823
319.4140, 26.90253
319.8961, 26.91651
320.3782, 27.14478
320.8603, 28.08416
321.3424, 28.75984
321.8246, 28.56566
322.3067, 27.78195
322.7888, 27.13803
323.2709, 27.23945
323.7530, 27.95441
324.2351, 28.29723
324.7173, 28.08905
325.1994, 27.72523
325.6815, 27.39320
326.1636, 26.98759
326.6457, 26.29446
327.1278, 25.15094
327.6100, 23.82189
328.0921, 23.00336
328.5742, 23.01579
329.0563, 22.84632
329.5384, 22.14597
330.0205, 21.24682
330.5027, 20.39537
330.9848, 19.66048
331.4669, 19.03657
331.9490, 18.50937
332.4311, 18.07209
332.9132, 17.76294
333.3954, 17.77799
333.8775, 17.78490
334.3596, 17.63879
334.8417, 17.31480
335.3238, 16.82338
335.8059, 16.03787
336.2881, 14.94671
336.7702, 14.27277
337.2523, 14.43107
337.7344, 14.57493
338.2165, 14.25578
338.6986, 13.61983
339.1808, 13.03260
339.6629, 12.73300
340.1450, 12.64923
340.6271, 12.51967
341.1092, 12.35639
341.5913, 12.11833
342.0735, 11.56615
342.5556, 11.01390
343.0377, 10.95116
343.5198, 11.68324
344.0019, 12.59776
344.4840, 12.55759
344.9662, 11.26969
345.4483, 10.31743
345.9304, 10.56384
346.4125, 11.10871
346.8946, 11.32766
347.3767, 11.12277
347.8589, 10.83672
348.3410, 10.84555
348.8231, 11.13794
349.3052, 11.24796
349.7873, 11.00568
350.2694, 10.67647
350.7516, 10.40619
351.2337, 10.20178
351.7158, 10.07886
352.1979, 10.09935
352.6800, 10.21160
353.1621, 10.25333
353.6443, 10.22858
354.1264, 10.11475
354.6085, 9.788263
355.0906, 9.386481
355.5727, 9.146792
356.0548, 9.221251
356.5370, 9.401265
357.0191, 9.352536
357.5012, 9.041063
357.9833, 8.887225
358.4654, 9.204695
358.9475, 9.692798
359.4297, 9.996984
359.9118, 10.07101
360.3939, 10.04186
360.8760, 9.997892
361.3581, 9.930227
361.8402, 9.781648
362.3224, 9.507659
362.8045, 9.197955
363.2866, 8.895098
363.7687, 8.606802
364.2508, 8.473073
364.7329, 8.681860
365.2151, 9.038706
365.6972, 9.188495
366.1793, 9.071042
366.6614, 8.937244
367.1435, 8.987031
367.6257, 9.172211
368.1078, 9.343127
368.5899, 9.580626
369.0720, 9.715372
369.5541, 9.510758
370.0363, 9.024914
370.5184, 8.664313
371.0005, 8.674048
371.4826, 8.876379
371.9647, 8.838810
372.4468, 8.432105
372.9290, 8.137505
373.4111, 8.303810
373.8932, 8.679149
374.3753, 8.765207
374.8574, 8.408174
375.3395, 7.893945
375.8217, 7.542744
376.3038, 7.352641
376.7859, 7.370187
377.2680, 7.846627
377.7501, 8.366489
378.2322, 8.554294
378.7144, 8.407339
379.1965, 8.151037
379.6786, 7.903409
380.1607, 7.689748
380.6428, 7.735386
381.1249, 8.224775
381.6071, 8.727009
382.0892, 9.234523
382.5713, 9.632233
383.0534, 9.619340
383.5355, 9.032514
384.0176, 8.224700
384.4998, 7.973967
384.9819, 8.925974
385.4640, 9.383911
385.9461, 8.865099
386.4282, 8.115219
386.9103, 7.768542
387.3925, 7.914324
387.8746, 8.277617
388.3567, 8.608387
388.8388, 8.950356
389.3209, 8.915992
389.8030, 8.197891
390.2852, 7.481481
390.7673, 6.936801
391.2494, 6.600037
391.7315, 6.520830
392.2136, 6.744270
392.6957, 7.180746
393.1779, 7.472100
393.6600, 7.362573
394.1421, 7.479311
394.6242, 8.256460
395.1063, 9.055773
395.5884, 9.218222
396.0706, 8.617947
396.5527, 7.726326
397.0348, 7.116942
397.5169, 6.803551
397.9990, 6.733046
398.4811, 7.422326
398.9633, 7.884250
399.4454, 7.451174
399.9275, 6.436141
400.4096, 5.668900
400.8917, 5.760116
401.3738, 6.522147
401.8560, 7.205191
402.3381, 7.976308
402.8202, 8.319984
403.3023, 7.647274
403.7844, 6.730511
404.2665, 6.467375
404.7487, 7.160372
405.2308, 8.056166
405.7129, 8.173844
406.1950, 7.467523
406.6771, 6.858471
407.1592, 6.525301
407.6414, 6.325679
408.1235, 6.080926
408.6056, 5.834961
409.0877, 5.830949
409.5698, 6.455905
410.0519, 7.385544
410.5341, 7.824941
411.0162, 7.671041
411.4983, 7.342216
411.9804, 6.914841
412.4625, 6.521438
412.9446, 6.419769
413.4268, 6.764425
413.9089, 7.215817
414.3910, 7.596575
414.8731, 7.880476
415.3552, 7.875607
415.8373, 7.381114
416.3195, 6.806306
416.8016, 6.899714
417.2837, 7.712110
417.7658, 8.187200
418.2480, 7.697158
418.7301, 6.908726
419.2122, 6.628992
419.6943, 6.928856
420.1764, 7.330192
420.6585, 7.472476
421.1407, 7.374130
421.6228, 7.309813
422.1049, 7.216056
422.5870, 7.219007
423.0691, 7.579967
423.5512, 8.038383
424.0334, 7.999164
424.5155, 7.198401
424.9976, 6.175794
425.4797, 5.988169
425.9618, 7.435432
426.4439, 8.106246
426.9261, 7.444760
427.4082, 6.470819
427.8903, 5.732117
428.3724, 5.349119
428.8545, 5.351572
429.3366, 5.806674
429.8188, 6.690354
430.3009, 7.401525
430.7830, 8.053277
431.2651, 8.378993
431.7472, 8.000583
432.2293, 7.398904
432.7115, 7.266296
433.1936, 7.839877
433.6757, 8.542636
434.1578, 8.277546
434.6399, 6.600030
435.1220, 5.535232
435.6042, 5.752871
436.0863, 6.189949
436.5684, 6.445499
437.0505, 6.491379
437.5326, 6.399305
438.0147, 6.121867
438.4969, 5.770995
438.9790, 5.794476
439.4611, 6.355125
439.9432, 6.878949
440.4253, 7.078454
440.9074, 7.143100
441.3896, 7.305476
441.8717, 7.653316
442.3538, 7.877330
442.8359, 7.552711
443.3180, 6.796097
443.8001, 6.325236
444.2823, 6.310271
444.7644, 6.550191
445.2465, 7.091619
445.7286, 7.815841
446.2107, 8.042892
446.6928, 7.036947
447.1750, 5.821223
447.6571, 5.531884
448.1392, 6.103203
448.6213, 6.704743
449.1034, 6.901858
449.5855, 6.837576
450.0677, 6.926652
450.5498, 7.289917
451.0319, 7.526714
451.5140, 7.429370
451.9961, 7.198753
452.4782, 7.064269
452.9604, 7.072915
453.4425, 7.183671
453.9246, 7.391528
454.4067, 7.731692
454.8888, 7.769160
455.3709, 7.047831
455.8531, 6.570721
456.3352, 7.048956
456.8173, 7.946762
457.2994, 8.269210
457.7815, 7.549886
458.2636, 6.337160
458.7458, 5.803791
459.2279, 6.318408
459.7100, 6.763639
460.1921, 7.130844
460.6742, 7.409284
461.1563, 7.599011
461.6385, 7.695319
462.1206, 7.681158
462.6027, 7.532195
463.0848, 7.264364
463.5669, 6.918089
464.0490, 6.335456
464.5312, 6.009353
465.0133, 6.327131
465.4954, 6.853992
465.9775, 7.180652
466.4597, 7.214880
466.9418, 7.060360
467.4239, 6.681132
467.9060, 6.142096
468.3881, 5.889285
468.8702, 6.039399
469.3524, 6.384147
469.8345, 6.886515
470.3166, 7.462240
470.7987, 7.830519
471.2808, 8.002390
471.7629, 7.876769
472.2451, 7.074395
472.7272, 5.779657
473.2093, 4.988338
473.6914, 5.213727
474.1735, 5.979599
474.6556, 6.346674
475.1378, 6.151588
475.6199, 6.175162
476.1020, 6.837947
476.5841, 7.560584
477.0662, 7.848790
477.5483, 7.670016
478.0305, 7.203155
478.5126, 6.530562
478.9947, 5.707000
479.4768, 5.243019
479.9589, 5.423906
480.4410, 5.618635
480.9232, 5.747627
481.4053, 5.852604
481.8874, 6.010884
482.3695, 6.227448
482.8516, 6.392236
483.3337, 6.334095
483.8159, 6.007794
484.2980, 5.853066
484.7801, 6.133323
485.2622, 6.285138
485.7443, 5.868739
486.2264, 5.256926
486.7086, 5.130919
487.1907, 5.878415
487.6728, 6.840005
488.1549, 6.945521
488.6370, 6.127154
489.1191, 5.571239
489.6013, 5.677285
490.0834, 5.976411
490.5655, 6.082942
491.0476, 6.008675
491.5297, 5.830051
492.0118, 5.412842
492.4940, 4.999995
492.9761, 4.937663
493.4582, 5.219018
493.9403, 5.597581
494.4224, 6.012352
494.9045, 6.386498
495.3867, 6.501842
495.8688, 6.296503
496.3509, 6.049836
496.8330, 5.693849
497.3151, 5.403035
497.7972, 5.484626
498.2794, 5.907073
498.7615, 6.206656
499.2436, 5.932087
499.7257, 5.136720
500.2078, 4.786778
500.6899, 5.349359
501.1721, 5.794251
501.6542, 5.912128
502.1363, 5.854052
502.6184, 5.751082
503.1005, 5.654665
503.5826, 5.612050
504.0648, 5.716642
504.5469, 5.995824
505.0290, 6.150456
505.5111, 6.187382
505.9932, 6.076498
506.4753, 5.703129
506.9575, 5.213300
507.4396, 4.793124
507.9217, 4.464295
508.4038, 4.380715
508.8859, 4.941727
509.3680, 6.092736
509.8502, 6.803645
510.3323, 6.742906
510.8144, 6.353630
511.2965, 5.960415
511.7786, 5.584476
512.2607, 5.378697
512.7429, 5.547360
513.2250, 5.769603
513.7071, 5.685254
514.1892, 5.385291
514.6713, 5.304245
515.1534, 5.672350
515.6356, 6.251107
516.1177, 6.566457
516.5998, 6.480282
517.0819, 6.433753
517.5640, 6.570837
518.0461, 6.642236
518.5283, 6.351918
519.0104, 5.821036
519.4925, 5.481314
519.9746, 5.642917
520.4567, 6.135089
520.9388, 6.307420
521.4210, 5.953281
521.9031, 5.658660
522.3852, 5.490382
522.8673, 5.397614
523.3494, 5.387336
523.8315, 5.433193
524.3137, 5.440787
524.7958, 5.320854
525.2779, 5.107804
525.7600, 4.881509
526.2421, 4.586559
526.7242, 4.495101
527.2064, 4.941009
527.6885, 5.543711
528.1706, 5.816350
528.6527, 5.685509
529.1348, 5.443375
529.6169, 5.196620
530.0991, 4.948808
530.5812, 4.608031
531.0633, 4.171271
531.5454, 4.054139
532.0275, 4.700760
532.5096, 5.932364
532.9918, 6.479945
533.4739, 5.799817
533.9560, 5.248573
534.4381, 5.216937
534.9202, 5.390451
535.4023, 5.440420
535.8845, 5.300514
536.3666, 5.071651
536.8487, 4.820823
537.3308, 4.547956
537.8129, 4.559235
538.2950, 5.086634
538.7772, 5.608162
539.2593, 6.162536
539.7414, 6.571340
540.2236, 6.605322
540.7057, 6.212584
541.1878, 5.641104
541.6699, 5.029656
542.1520, 4.417623
542.6342, 4.090729
543.1163, 4.113399
543.5984, 4.318238
544.0805, 4.745578
544.5626, 5.252982
545.0447, 5.560253
545.5269, 5.557531
546.0090, 5.488685
546.4911, 5.549886
546.9732, 5.632261
547.4553, 5.433037
547.9374, 4.883201
548.4196, 4.428069
548.9017, 4.542391
549.3838, 5.243927
549.8659, 5.680655
550.3480, 5.822138
550.8301, 5.790215
551.3123, 5.376298
551.7944, 4.914983
552.2765, 4.898977
552.7586, 5.415575
553.2407, 6.016685
553.7228, 6.153176
554.2050, 5.800224
554.6871, 5.410134
555.1692, 4.737082
555.6513, 4.396884
556.1334, 4.863516
556.6155, 5.647846
557.0977, 6.154089
557.5798, 6.227859
558.0619, 5.992430
558.5440, 5.292732
559.0261, 4.341722
559.5082, 3.988646
559.9904, 4.433874
560.4725, 5.116445
560.9546, 5.786140
561.4367, 6.338704
561.9188, 6.396375
562.4009, 5.434339
562.8831, 4.631292
563.3652, 4.518180
563.8473, 4.784807
564.3294, 5.060363
564.8115, 5.244826
565.2936, 5.333404
565.7758, 5.319304
566.2579, 5.202297
566.7400, 5.009112
567.2221, 4.501131
567.7042, 4.213165
568.1863, 4.347565
568.6685, 4.680707
569.1506, 5.024014
569.6327, 5.320767
570.1148, 5.558952
570.5969, 5.776379
571.0790, 5.942357
571.5612, 5.795755
572.0433, 5.197417
572.5254, 4.682557
573.0075, 4.636587
573.4896, 4.793361
573.9717, 4.726854
574.4539, 4.325678
574.9360, 3.992398
575.4181, 3.967525
575.9002, 4.100655
576.3823, 4.219514
576.8644, 4.293467
577.3466, 4.254975
577.8287, 4.009931
578.3108, 3.648212
578.7929, 3.614568
579.2750, 4.318568
579.7571, 4.819066
580.2393, 4.985736
580.7214, 4.992335
581.2035, 4.966071
581.6856, 4.916643
582.1677, 4.766594
582.6498, 4.406407
583.1320, 3.955360
583.6141, 3.866757
584.0962, 4.246072
584.5783, 4.630021
585.0604, 4.981825
585.5425, 5.214399
586.0247, 5.278756
586.5068, 5.169598
586.9889, 4.857244
587.4710, 4.121542
587.9531, 3.312220
588.4352, 2.691925
588.9174, 2.321738
589.3995, 2.609420
589.8816, 3.884370
590.3637, 5.451692
590.8458, 6.088419
591.3279, 5.386442
591.8101, 4.847545
592.2922, 4.471146
592.7743, 4.252639
593.2564, 4.315443
593.7385, 4.512681
594.2206, 4.520970
594.7028, 4.189292
595.1849, 3.828597
595.6670, 4.093072
596.1491, 5.134495
596.6312, 5.646521
597.1133, 5.235161
597.5955, 4.678295
598.0776, 4.301766
598.5597, 4.107247
599.0418, 4.113887
599.5239, 4.368636
600.0060, 4.728498
600.4882, 5.264222
600.9703, 5.800401
601.4524, 5.821849
601.9345, 5.212611
602.4166, 4.475113
602.8987, 4.017209
603.3809, 3.829047
603.8630, 3.801343
604.3451, 4.077277
604.8272, 4.306241
605.3093, 4.387784
605.7914, 4.414686
606.2736, 4.471417
606.7557, 4.573291
607.2378, 4.710553
607.7199, 4.919024
608.2020, 5.137504
608.6841, 5.009533
609.1663, 4.376006
609.6484, 3.851793
610.1305, 3.538565
610.6126, 3.479970
611.0947, 3.842545
611.5768, 4.598111
612.0590, 5.203034
612.5411, 5.439108
613.0232, 5.403497
613.5053, 5.107029
613.9874, 4.610734
614.4695, 4.131697
614.9517, 3.731513
615.4338, 3.506904
615.9159, 3.641670
616.3980, 4.278542
616.8801, 4.792963
617.3622, 5.425832
617.8444, 5.702573
618.3265, 5.093467
618.8086, 4.099500
619.2907, 3.513321
619.7728, 3.618838
620.2549, 4.027232
620.7371, 4.298923
621.2192, 4.435082
621.7013, 4.422033
622.1834, 4.130028
622.6655, 3.984374
623.1476, 4.436538
623.6298, 5.129332
624.1119, 5.470977
624.5940, 5.344407
625.0761, 5.074042
625.5582, 4.657876
626.0403, 4.259765
626.5225, 4.147249
627.0046, 4.299430
627.4867, 4.420451
627.9688, 4.304407
628.4509, 4.057121
628.9330, 4.039240
629.4152, 4.485717
629.8973, 4.731833
630.3794, 4.681122
630.8615, 4.525183
631.3436, 4.338302
631.8257, 4.137193
632.3079, 3.909749
632.7900, 3.612892
633.2721, 3.386328
633.7542, 3.513400
634.2363, 3.943113
634.7184, 4.191137
635.2006, 4.132061
635.6827, 3.972818
636.1648, 3.867617
636.6469, 3.816071
637.1290, 3.791628
637.6111, 3.830717
638.0933, 3.852547
638.5754, 3.911208
639.0576, 3.894934
639.5397, 3.543657
640.0218, 2.911910
640.5039, 2.468192
640.9860, 2.639570
641.4681, 3.273532
641.9503, 3.601158
642.4324, 3.490902
642.9145, 3.403535
643.3966, 3.450811
643.8787, 3.541353
644.3608, 3.606642
644.8430, 3.656789
645.3251, 3.755912
645.8072, 3.959778
646.2893, 4.198892
646.7714, 4.465704
647.2535, 4.714388
647.7357, 4.784400
648.2178, 4.626219
648.6999, 4.308776
649.1820, 3.861835
649.6641, 3.262932
650.1462, 2.981655
650.6284, 3.301720
651.1105, 3.567914
651.5926, 3.607562
652.0747, 3.557578
652.5568, 3.487712
653.0389, 3.450470
653.5211, 3.606956
654.0032, 4.278697
654.4853, 5.154614
654.9674, 5.217598
655.4495, 4.376926
655.9316, 3.754269
656.4138, 3.779327
656.8959, 4.120394
657.3780, 4.438329
657.8601, 4.737960
658.3422, 4.829297
658.8243, 4.505187
659.3065, 4.152673
659.7886, 3.917297
660.2707, 3.818948
660.7528, 3.930131
661.2349, 4.247459
661.7170, 4.573250
662.1992, 4.687806
662.6813, 4.596265
663.1634, 4.397031
663.6455, 3.967180
664.1276, 3.669585
664.6097, 3.759104
665.0919, 3.942326
665.5740, 3.966569
666.0561, 3.817266
666.5382, 3.633960
667.0203, 3.291399
667.5024, 3.085432
667.9846, 3.483717
668.4667, 4.312675
668.9488, 4.977063
669.4309, 5.258352
669.9130, 5.303430
670.3951, 5.307345
670.8773, 5.282284
671.3594, 5.116893
671.8415, 4.663356
672.3236, 4.239611
672.8057, 3.857834
673.2878, 3.570428
673.7700, 3.479052
674.2521, 3.576880
674.7342, 3.660981
675.2163, 3.521344
675.6984, 3.283442
676.1805, 3.194911
676.6627, 3.254319
677.1448, 3.441441
677.6269, 3.810014
678.1090, 4.156652
678.5911, 4.154809
679.0732, 3.701366
679.5554, 3.496102
680.0375, 3.694697
680.5196, 3.953931
681.0017, 4.362353
681.4838, 4.653110
681.9659, 4.325263
682.4481, 3.366400
682.9302, 2.512804
683.4123, 2.503104
683.8944, 3.150471
684.3765, 3.748442
684.8586, 4.303636
685.3408, 4.767753
685.8229, 5.206895
686.3050, 5.454126
686.7871, 5.145340
687.2692, 4.302486
687.7513, 3.753269
688.2335, 3.847717
688.7156, 4.024356
689.1977, 4.046336
689.6798, 3.930013
690.1619, 3.657520
690.6440, 3.256643
691.1262, 2.909105
691.6083, 2.798661
692.0904, 2.902868
692.5725, 3.076026
693.0546, 3.342441
693.5367, 3.608622
694.0189, 3.922455
694.5010, 4.158856
694.9831, 4.135466
695.4652, 3.895983
695.9473, 3.790726
696.4294, 4.170157
696.9116, 4.468339
697.3937, 4.112213
697.8758, 3.451802
698.3579, 3.135154
698.8400, 3.305595
699.3221, 3.144780
699.8043, 3.873225
700.2864, 4.283930
700.7685, 4.393970
701.2506, 3.302819
701.7327, 3.762756
702.2148, 3.601088
702.6970, 3.413931
703.1791, 4.092178
703.6612, 3.175737
704.1433, 3.840260
704.6254, 3.873692
705.1075, 4.195958
705.5897, 3.892779
706.0718, 3.782780
706.5539, 4.298427
707.0360, 4.467649
707.5181, 4.092471
708.0002, 4.433097
708.4824, 3.494809
708.9645, 3.678786
709.4466, 4.346970
709.9287, 4.003240
710.4108, 4.355301
710.8929, 4.442367
711.3751, 3.325137
711.8572, 4.302298
712.3393, 4.262133
712.8214, 4.346545
713.3035, 4.267653
713.7856, 4.187957
714.2678, 4.087754
714.7499, 3.858783
715.2320, 3.506448
715.7141, 3.311020
716.1962, 3.481362
716.6783, 3.895457
717.1605, 4.204812
717.6426, 4.483665
718.1247, 4.501500
718.6068, 3.969606
719.0889, 3.492575
719.5710, 3.365582
720.0532, 3.472418
720.5353, 3.600051
721.0174, 3.686457
721.4995, 3.772608
721.9816, 3.863218
722.4637, 3.986769
722.9459, 4.299066
723.4280, 4.771623
723.9101, 4.953071
724.3922, 4.573777
724.8743, 3.940095
725.3564, 3.639539
725.8386, 3.795267
726.3207, 3.838323
726.8028, 3.577794
727.2849, 3.429348
727.7670, 3.676945
728.2491, 4.025072
728.7313, 4.101765
729.2134, 3.844214
729.6955, 3.501032
730.1776, 3.088598
730.6597, 2.783154
731.1418, 2.948395
731.6240, 3.512355
732.1061, 4.084697
732.5882, 4.545511
733.0703, 4.847319
733.5524, 4.919214
734.0345, 4.753729
734.5167, 4.538162
734.9988, 4.212674
735.4809, 3.914138
735.9630, 3.586633
736.4451, 3.352474
736.9272, 3.317256
737.4094, 3.476635
737.8915, 3.773532
738.3737, 4.337100
738.8558, 4.808943
739.3379, 4.575677
739.8200, 3.923874
740.3021, 3.868422
740.7842, 4.606685
741.2664, 5.214000
741.7485, 4.891181
742.2306, 3.872724
742.7127, 3.312140
743.1948, 3.458465
743.6769, 3.617377
744.1591, 3.717052
744.6412, 3.852803
745.1233, 4.160866
745.6054, 4.525578
746.0875, 4.708132
746.5696, 4.616967
747.0518, 4.404404
747.5339, 4.033839
748.0160, 3.684301
748.4981, 3.746737
748.9802, 4.187123
749.4623, 4.596025
749.9445, 4.776382
750.4266, 4.755541
750.9087, 4.542264
751.3908, 4.036229
751.8729, 3.823352
752.3550, 4.176834
752.8372, 4.463208
753.3193, 4.447337
753.8014, 4.287576
754.2835, 4.152608
754.7656, 4.061950
755.2477, 3.948152
755.7299, 3.673058
756.2120, 3.449996
756.6941, 3.543845
757.1762, 3.844547
757.6583, 4.087101
758.1404, 4.198083
758.6226, 4.263715
759.1047, 4.389972
759.5868, 4.539010
760.0689, 4.403935
760.5510, 3.794666
761.0331, 3.412118
761.5153, 3.477123
761.9974, 3.721521
762.4795, 3.999533
762.9616, 4.294307
763.4437, 4.571091
763.9258, 4.922686
764.4080, 5.077308
764.8901, 4.799541
765.3722, 4.320763
765.8543, 3.784597
766.3364, 3.292112
766.8185, 3.094970
767.3007, 3.343565
767.7828, 3.780100
768.2649, 3.905744
768.7470, 3.700612
769.2291, 3.757310
769.7112, 4.227323
770.1934, 4.624612
770.6755, 4.739808
771.1576, 4.626972
771.6397, 4.280344
772.1218, 3.606722
772.6039, 3.346567
773.0861, 4.017301
773.5682, 4.699135
774.0503, 4.892032
774.5324, 4.799025
775.0145, 4.729830
775.4966, 4.748258
775.9788, 4.709088
776.4609, 4.428201
776.9430, 4.066169
777.4251, 4.097198
777.9072, 4.506636
778.3893, 4.678210
778.8715, 4.445813
779.3536, 4.030224
779.8357, 3.552558
780.3178, 3.051379
780.7999, 2.797366
781.2820, 2.870121
781.7642, 3.070611
782.2463, 3.643147
782.7284, 4.103546
783.2105, 4.005113
783.6926, 3.588281
784.1747, 3.358060
784.6569, 3.489533
785.1390, 3.832774
785.6211, 4.444838
786.1032, 5.101933
786.5853, 5.339549
787.0674, 5.168018
787.5496, 4.833693
788.0317, 4.426644
788.5138, 4.025043
788.9959, 3.703124
789.4780, 3.436489
789.9601, 3.642185
790.4423, 4.852592
790.9244, 5.674727
791.4065, 5.636720
791.8886, 5.213841
792.3707, 4.639881
792.8528, 3.989219
793.3350, 3.497712
793.8171, 3.172187
794.2992, 3.113564
794.7813, 3.665566
795.2634, 4.375718
795.7455, 4.499454
796.2277, 4.081152
796.7098, 3.799234
797.1919, 4.078228
797.6740, 4.628105
798.1561, 4.893405
798.6382, 4.864818
799.1204, 4.795127
799.6025, 4.690082
800.0846, 4.558049
800.5667, 4.340077
801.0488, 4.140230
801.5309, 4.191987
802.0131, 4.545609
802.4952, 4.786399
802.9773, 4.829683
803.4594, 4.809817
803.9415, 4.741838
804.4236, 4.667148
804.9058, 4.613433
805.3879, 4.595922
805.8700, 4.663047
806.3521, 4.932487
806.8342, 5.181974
807.3163, 4.917651
807.7985, 4.309571
808.2806, 4.211329
808.7627, 4.788945
809.2448, 5.133474
809.7269, 4.515247
810.2090, 3.322285
810.6912, 2.757318
811.1733, 3.047452
811.6554, 3.422519
812.1375, 4.083648
812.6196, 4.592450
813.1017, 4.710718
813.5839, 4.617772
814.0660, 4.521762
814.5481, 4.449537
815.0302, 4.433039
815.5123, 4.480654
815.9944, 4.594354
816.4766, 4.849395
816.9587, 5.147938
817.4408, 5.347295
817.9229, 5.398432
818.4050, 5.218818
818.8871, 4.650627
819.3693, 3.967963
819.8514, 4.107545
820.3335, 5.130502
820.8156, 5.359590
821.2977, 4.254149
821.7798, 3.199567
822.2620, 3.131464
822.7441, 3.785105
823.2262, 4.427947
823.7083, 5.276923
824.1904, 5.612061
824.6725, 4.845433
825.1547, 4.190940
825.6368, 4.338324
826.1189, 4.857614
826.6010, 5.176876
827.0831, 5.184127
827.5652, 5.086045
828.0474, 4.902406
828.5295, 4.773479
829.0116, 5.025477
829.4937, 5.450040
829.9758, 5.432199
830.4579, 4.872963
830.9401, 4.256041
831.4222, 3.942561
831.9043, 3.874593
832.3864, 3.929665
832.8685, 4.177301
833.3506, 4.142123
833.8328, 3.495958
834.3149, 3.116066
834.7970, 3.659011
835.2791, 4.689698
835.7612, 5.455049
836.2434, 5.949870
836.7255, 6.192159
837.2076, 6.086066
837.6898, 5.832633
838.1719, 5.399984
838.6540, 4.949472
839.1361, 4.666230
839.6182, 4.569872
840.1003, 4.558130
840.5825, 4.576113
841.0646, 4.627938
841.5467, 4.784609
842.0288, 4.978405
842.5109, 4.935757
842.9930, 4.634080
843.4752, 4.375851
843.9573, 4.344769
844.4394, 4.477721
844.9215, 4.691621
845.4036, 5.076457
845.8857, 5.038709
846.3679, 4.183444
846.8500, 3.608305
847.3321, 3.957603
847.8142, 4.609689
848.2963, 4.902513
848.7784, 4.844991
849.2606, 4.849276
849.7427, 5.229804
850.2248, 5.388503
850.7069, 4.886878
851.1890, 4.197150
851.6711, 3.754211
852.1533, 3.577217
852.6354, 3.484739
853.1175, 3.373601
853.5996, 3.436892
854.0817, 4.131273
854.5638, 5.123453
855.0460, 5.558515
855.5281, 5.398592
856.0102, 4.659471
856.4923, 3.269459
856.9744, 2.012344
857.4565, 1.973014
857.9387, 3.097704
858.4208, 3.863084
858.9029, 4.163394
859.3850, 4.360342
859.8671, 4.569180
860.3492, 4.637724
860.8314, 4.314134
861.3135, 3.774581
861.7956, 3.515910
862.2777, 3.713273
862.7598, 3.891546
863.2419, 3.822579
863.7241, 3.799112
864.2062, 4.099092
864.6883, 4.554641
865.1704, 4.894946
865.6525, 5.044186
866.1346, 5.060442
866.6168, 5.013493
867.0989, 4.842620
867.5810, 4.271266
868.0631, 3.486964
868.5452, 3.200310
869.0273, 3.533260
869.5095, 4.040311
869.9916, 4.428704
870.4737, 4.665980
870.9558, 4.604081
871.4379, 4.144512
871.9200, 3.982421
872.4022, 4.327624
872.8843, 4.548481
873.3664, 4.271426
873.8485, 3.795205
874.3306, 3.580285
874.8127, 3.636522
875.2949, 3.588755
875.7770, 3.173434
876.2591, 2.962897
876.7412, 3.224634
877.2233, 3.677172
877.7054, 4.237954
878.1876, 4.757050
878.6697, 4.873008
879.1518, 4.342330
879.6339, 3.839614
880.1160, 4.149688
880.5981, 4.659736
881.0803, 4.329598
881.5624, 3.400798
882.0445, 2.880152
882.5266, 3.098823
883.0087, 3.555305
883.4908, 3.740184
883.9730, 3.725407
884.4551, 3.801702
884.9372, 3.976759
885.4193, 4.132396
885.9014, 4.294611
886.3835, 4.232625
886.8657, 3.646880
887.3478, 2.831735
887.8299, 2.623363
888.3120, 3.337810
888.7941, 3.815033
889.2762, 3.925270
889.7584, 3.958753
890.2405, 3.909436
890.7226, 3.886683
891.2047, 4.075318
891.6868, 4.437686
892.1689, 4.612409
892.6511, 4.374983
893.1332, 4.069924
893.6153, 3.771747
894.0974, 3.565399
894.5795, 3.663063
895.0616, 3.927079
895.5438, 3.897732
896.0259, 3.386012
896.5080, 2.930381
896.9901, 3.336353
897.4722, 4.144429
897.9543, 4.112079
898.4365, 3.410513
898.9186, 3.226069
899.4007, 3.893192
899.8828, 4.510526
900.3649, 4.241360
900.8470, 3.378923
901.3292, 3.026821
901.8113, 3.329880
902.2934, 3.396360
902.7755, 2.993606
903.2576, 2.741856
903.7397, 3.137134
904.2219, 3.719492
904.7040, 3.646584
905.1861, 2.774102
905.6682, 2.354993
906.1503, 2.773687
906.6324, 3.164467
907.1146, 3.407233
907.5967, 3.468074
908.0788, 3.200876
908.5609, 2.741042
909.0430, 2.484248
909.5251, 2.631786
910.0073, 2.673928
910.4894, 2.073265
910.9715, 1.427660
911.4536, 1.347657
911.9357, 1.694243
912.4178, 2.205673
912.9000, 2.761668
913.3821, 3.156642
913.8642, 3.213536
914.3463, 3.024580
914.8284, 2.632153
915.3105, 2.128225
915.7927, 2.033631
916.2748, 2.400827
916.7569, 2.560207
917.2390, 2.101007
917.7211, 1.472423
918.2032, 1.457483
918.6854, 2.085178
919.1675, 2.573353
919.6496, 2.962496
920.1317, 3.050279
920.6138, 2.580666
921.0959, 2.098722
921.5781, 2.126281
922.0602, 2.547632
922.5423, 2.790483
923.0244, 2.695110
923.5065, 2.729056
923.9886, 3.124023
924.4708, 3.409543
924.9529, 3.248139
925.4350, 2.934547
925.9171, 2.845881
926.3992, 3.015097
926.8813, 3.211009
927.3635, 3.334914
927.8456, 3.471473
928.3277, 3.829044
928.8098, 4.110745
929.2919, 3.859200
929.7740, 3.239148
930.2562, 2.767931
930.7383, 2.658459
931.2204, 2.708622
931.7025, 2.714920
932.1846, 2.747981
932.6667, 3.083465
933.1489, 3.573697
933.6310, 3.533808
934.1131, 2.860365
934.5952, 2.336287
935.0774, 2.580226
935.5595, 3.222885
936.0416, 3.365331
936.5237, 3.002683
937.0059, 2.828672
937.4880, 2.901838
937.9701, 3.012156
938.4522, 3.100658
938.9343, 3.133351
939.4164, 3.053947
939.8986, 2.871782
940.3807, 2.741556
940.8628, 2.581208
941.3449, 2.640105
941.8270, 3.095395
942.3091, 3.594697
942.7913, 4.019058
943.2734, 4.338616
943.7555, 4.566394
944.2376, 4.745605
944.7197, 4.461716
945.2018, 2.837057
945.6840, 1.754922
946.1661, 2.459964
946.6482, 3.587872
947.1303, 3.930944
947.6124, 3.562799
948.0945, 3.048347
948.5767, 2.499382
949.0588, 2.222829
949.5409, 2.591035
950.0230, 3.160928
950.5051, 3.623204
950.9872, 3.905561
951.4694, 3.846596
951.9515, 3.478863
952.4336, 3.132427
952.9157, 3.032671
953.3978, 3.070800
953.8799, 3.130701
954.3621, 3.194687
954.8442, 3.280178
955.3263, 3.347800
955.8084, 3.056225
956.2905, 2.269408
956.7726, 1.570148
957.2548, 1.651742
957.7369, 2.349397
958.2190, 3.069307
958.7011, 3.840669
959.1832, 3.911630
959.6653, 2.067499
960.1475, 3.225486
960.6296, 3.861486
961.1117, 4.003531
961.5938, 2.172191
962.0759, 2.889068
962.5580, 2.584740
963.0402, 2.238524
963.5223, 3.314058
964.0044, 1.769742
964.4865, 2.822725
964.9686, 2.838913
965.4507, 3.329621
965.9329, 2.792799
966.4150, 2.573357
966.8971, 3.381758
967.3792, 3.621032
967.8613, 2.965935
968.3434, 3.486806
968.8256, 1.906589
969.3077, 2.170108
969.7898, 3.229106
970.2719, 2.625673
970.7540, 3.165327
971.2361, 3.269634
971.7183, 1.395443
972.2004, 2.402388
972.6825, 1.969711
973.1646, 1.366119
973.6467, 1.585170
974.1288, 2.670924
974.6110, 3.433069
975.0931, 2.957082
975.5752, 2.248520
976.0573, 2.357306
976.5394, 2.762001
977.0215, 2.558566
977.5037, 1.915511
977.9858, 1.598661
978.4679, 1.882436
978.9500, 2.495368
979.4321, 3.390813
979.9142, 4.222689
980.3964, 4.142835
980.8785, 3.389400
981.3606, 2.752923
981.8427, 2.368121
982.3248, 2.268886
982.8069, 2.488292
983.2891, 2.768057
983.7712, 2.668053
984.2533, 2.276149
984.7354, 2.326506
985.2175, 2.839244
985.6996, 2.998572
986.1818, 2.557957
986.6639, 2.280157
987.1460, 2.805040
987.6281, 3.613651
988.1102, 3.411531
988.5923, 1.959428
989.0745, 1.341220
989.5566, 1.850876
990.0387, 2.324348
990.5208, 2.442532
991.0029, 2.422298
991.4850, 2.435256
991.9672, 2.465190
992.4493, 2.446559
992.9314, 2.348883
993.4135, 2.274909
993.8956, 2.193654
994.3777, 2.178691
994.8599, 2.352076
995.3420, 2.525422
995.8241, 2.445651
996.3062, 2.182364
996.7883, 2.147264
997.2704, 2.438079
997.7526, 2.840720
998.2347, 3.668740
998.7168, 4.218009
999.1989, 4.004435
999.6810, 3.400413
1000.163, 2.722277
1000.645, 2.069844
1001.127, 1.812654
1001.609, 2.359190
1002.092, 2.832062
1002.574, 2.852385
1003.056, 2.692210
1003.538, 2.376764
1004.020, 2.113071
1004.502, 2.352677
1004.984, 3.088666
1005.466, 3.507755
1005.949, 2.991894
1006.431, 2.282140
1006.913, 1.708791
1007.395, 1.397824
1007.877, 1.632944
1008.359, 2.237041
1008.841, 2.839004
1009.323, 3.302186
1009.805, 3.545217
1010.288, 3.452922
1010.770, 3.164350
1011.252, 2.695297
1011.734, 2.220927
1012.216, 2.206038
1012.698, 2.523447
1013.180, 2.453083
1013.662, 1.727051
1014.145, 1.085708
1014.627, 1.396483
1015.109, 2.206146
1015.591, 2.737256
1016.073, 2.976997
1016.555, 2.725439
1017.037, 2.059091
1017.519, 1.624164
1018.001, 1.748445
1018.484, 2.152882
1018.966, 2.536679
1019.448, 2.873097
1019.930, 3.104970
1020.412, 3.214081
1020.894, 2.918032
1021.376, 2.180607
1021.858, 1.727821
1022.341, 2.000927
1022.823, 2.617562
1023.305, 2.993193
1023.787, 3.149265
1024.269, 3.358504
1024.751, 3.641125
1025.233, 3.499542
1025.715, 2.757629
1026.198, 2.161734
1026.680, 2.210593
1027.162, 2.616895
1027.644, 2.861389
1028.126, 2.942377
1028.608, 2.919186
1029.090, 2.756145
1029.572, 2.683442
1030.054, 2.810692
1030.536, 2.838020
1031.019, 2.494408
1031.501, 2.006596
1031.983, 1.878906
1032.465, 2.171259
1032.947, 2.355852
1033.429, 2.379975
1033.911, 2.448935
1034.393, 2.690839
1034.876, 2.834346
1035.358, 2.639486
1035.840, 2.240694
1036.322, 1.955714
1036.804, 1.803256
1037.286, 1.663850
1037.768, 1.446054
1038.250, 1.408685
1038.733, 1.662416
1039.215, 2.049609
1039.697, 2.569939
1040.179, 3.108343
1040.661, 3.367979
1041.143, 3.310300
1041.625, 3.120449
1042.107, 2.565063
1042.589, 2.199064
1043.072, 2.356367
1043.554, 2.521616
1044.036, 2.221473
1044.518, 1.682352
1045.000, 1.471236
1045.482, 1.688369
1045.964, 1.902614
1046.446, 2.055809
1046.928, 2.243471
1047.411, 2.608451
1047.893, 2.905518
1048.375, 2.875789
1048.857, 2.656487
1049.339, 2.553628
1049.821, 2.574265
1050.303, 2.823343
1050.785, 3.690152
1051.268, 4.295266
1051.750, 4.238118
1052.232, 3.922572
1052.714, 3.555602
1053.196, 3.211360
1053.678, 2.996813
1054.160, 2.931890
1054.642, 2.970577
1055.125, 3.196992
1055.607, 3.401355
1056.089, 3.545595
1056.571, 3.600808
1057.053, 3.473820
1057.535, 3.261760
1058.017, 3.196720
1058.499, 3.343089
1058.981, 3.368210
1059.464, 3.050779
1059.946, 2.750270
1060.428, 2.726530
1060.910, 2.676812
1061.392, 2.193003
1061.874, 1.530171
1062.356, 1.231574
1062.838, 1.410417
1063.320, 1.745886
1063.803, 2.373006
1064.285, 2.810384
1064.767, 2.764494
1065.249, 2.509032
1065.731, 2.062168
1066.213, 1.664178
1066.695, 1.891175
1067.177, 2.832646
1067.660, 3.295102
1068.142, 2.244850
1068.624, 1.337670
1069.106, 1.563199
1069.588, 2.052719
1070.070, 2.016771
1070.552, 1.722380
1071.034, 1.861509
1071.516, 2.516907
1071.999, 2.866482
1072.481, 2.215697
1072.963, 1.651288
1073.445, 1.833256
1073.927, 2.155356
1074.409, 2.102437
1074.891, 1.841318
1075.373, 1.666627
1075.855, 1.640919
1076.338, 1.753460
1076.820, 2.123409
1077.302, 2.426868
1077.784, 2.566507
1078.266, 2.520090
1078.748, 2.085095
1079.230, 1.549614
1079.712, 1.353848
1080.195, 1.523166
1080.677, 1.770037
1081.159, 2.098423
1081.641, 2.243612
1082.123, 1.820982
1082.605, 1.438197
1083.087, 1.545964
1083.569, 1.963842
1084.052, 2.624134
1084.534, 3.354070
1085.016, 3.529226
1085.498, 2.726898
1085.980, 1.983627
1086.462, 1.796673
1086.944, 1.768493
1087.426, 1.631829
1087.908, 1.511881
1088.391, 1.609795
1088.873, 1.881394
1089.355, 2.156480
1089.837, 2.460175
1090.319, 2.437751
1090.801, 1.504315
1091.283, 0.7334392
1091.765, 0.8660579
1092.248, 1.345992
1092.730, 1.717030
1093.212, 1.900803
1093.694, 1.826413
1094.176, 1.429674
1094.658, 1.169413
1095.140, 1.336334
1095.622, 1.511529
1096.104, 1.369094
1096.587, 1.277156
1097.069, 1.725819
1097.551, 2.420800
1098.033, 2.688982
1098.515, 2.398829
1098.997, 2.150515
1099.479, 2.179533
1099.961, 2.190947
1100.443, 1.971072
1100.926, 1.813997
1101.408, 2.112655
1101.890, 2.524826
1102.372, 2.395126
1102.854, 1.694019
1103.336, 1.274878
1103.818, 1.578500
1104.300, 1.808795
1104.783, 1.651147
1105.265, 1.537425
1105.747, 1.759613
1106.229, 2.121228
1106.711, 2.358822
1107.193, 2.481369
1107.675, 2.695140
1108.157, 3.217666
1108.640, 3.462006
1109.122, 3.301956
1109.604, 2.916430
1110.086, 2.146636
1110.568, 1.368380
1111.050, 0.8632380
1111.532, 0.6522183
1112.014, 0.8058267
1112.496, 1.568579
1112.979, 2.030471
1113.461, 2.107049
1113.943, 1.942960
1114.425, 1.231550
1114.907, 0.6346186
1115.389, 0.7600554
1115.871, 1.290299
1116.353, 1.492843
1116.835, 1.288578
1117.318, 1.239337
1117.800, 1.616690
1118.282, 1.623754
1118.764, 0.7810636
1119.246, 0.1008951
1119.728, 0.2255514
1120.210, 0.7605031
1120.692, 1.152931
1121.175, 1.402880
1121.657, 1.424992
1122.139, 1.038246
1122.621, 0.9417145
1123.103, 1.291450
1123.585, 1.716738
1124.067, 2.166639
1124.549, 2.407653
1125.031, 2.099625
1125.514, 1.400492
1125.996, 1.038477
1126.478, 1.026001
1126.960, 1.374068
1127.442, 2.240999
1127.924, 2.687628
1128.406, 2.329883
1128.888, 1.902762
1129.370, 2.021522
1129.853, 2.408138
1130.335, 2.349530
1130.817, 1.847534
1131.299, 1.850846
1131.781, 2.392378
1132.263, 2.708212
1132.745, 2.637484
1133.227, 2.488487
1133.710, 2.436633
1134.192, 2.412946
1134.674, 2.298404
1135.156, 2.141119
1135.638, 2.244802
1136.120, 2.533455
1136.602, 2.277351
1137.084, 1.469746
1137.567, 0.9993078
1138.049, 1.210716
1138.531, 1.632899
1139.013, 1.838577
1139.495, 1.914784
1139.977, 2.056573
1140.459, 2.200704
1140.941, 2.109124
1141.423, 1.847197
1141.906, 1.710085
1142.388, 1.761318
1142.870, 1.862854
1143.352, 1.932272
1143.834, 1.992871
1144.316, 2.173364
1144.798, 2.288001
1145.280, 1.882103
1145.762, 1.264758
1146.245, 1.091958
1146.727, 1.346725
1147.209, 1.635767
1147.691, 1.803704
1148.173, 1.810563
1148.655, 1.527434
1149.137, 1.182140
1149.619, 0.8061220
1150.102, 0.6135845
1150.584, 1.122689
1151.066, 1.917229
1151.548, 2.016887
1152.030, 1.343357
1152.512, 0.9805737
1152.994, 1.630447
1153.476, 2.208041
1153.958, 2.173660
1154.441, 1.900691
1154.923, 1.485499
1155.405, 1.086063
1155.887, 0.7577260
1156.369, 0.5971530
1156.851, 1.004644
1157.333, 2.401417
1157.815, 2.996578
1158.297, 1.363233
1158.780, 0.2887588
1159.262, 1.197136
1159.744, 2.428052
1160.226, 2.838234
1160.708, 2.715767
1161.190, 2.614607
1161.672, 2.543094
1162.154, 2.570285
1162.637, 3.003072
1163.119, 2.917907
1163.601, 1.753386
1164.083, 0.9539053
1164.565, 1.304318
1165.047, 1.978669
1165.529, 2.101192
1166.011, 1.827264
1166.494, 1.811166
1166.976, 2.145560
1167.458, 2.252177
1167.940, 2.082767
1168.422, 1.900980
1168.904, 1.743628
1169.386, 1.761438
1169.868, 2.103968
1170.350, 2.471014
1170.833, 2.276258
1171.315, 1.682508
1171.797, 1.749532
1172.279, 2.400990
1172.761, 2.765108
1173.243, 2.754106
1173.725, 2.641362
1174.207, 2.537083
1174.689, 2.497856
1175.172, 2.626808
1175.654, 2.693097
1176.136, 2.130380
1176.618, 1.278551
1177.100, 0.8639593
1177.582, 0.8662258
1178.064, 1.220701
1178.546, 1.810575
1179.029, 2.231452
1179.511, 2.277968
1179.993, 2.273484
1180.475, 2.570749
1180.957, 2.874040
1181.439, 2.985545
1181.921, 2.859807
1182.403, 2.279919
1182.885, 1.479034
1183.368, 0.9169051
1183.850, 0.6930713
1184.332, 0.6328568
1184.814, 0.6701286
1185.296, 0.8476924
1185.778, 1.435920
1186.260, 1.878750
1186.742, 1.649818
1187.225, 1.247147
1187.707, 1.186851
1188.189, 1.442572
1188.671, 1.826831
1189.153, 2.433114
1189.635, 2.734123
1190.117, 2.485427
1190.599, 2.246385
1191.082, 2.013882
1191.564, 1.943094
1192.046, 2.252307
1192.528, 2.607280
1193.010, 2.493514
1193.492, 1.994325
1193.974, 1.826263
1194.456, 2.051746
1194.938, 2.271667
1195.421, 2.450033
1195.903, 2.801412
1196.385, 3.454208
1196.867, 3.772354
1197.349, 3.212474
1197.831, 2.335743
1198.313, 2.266865
1198.795, 2.766383
1199.277, 2.555870
1199.760, 1.818485
1200.242, 1.597067
1200.724, 1.923827
1201.206, 2.056766
1201.688, 1.730631
1202.170, 1.354089
1202.652, 1.235014
1203.134, 1.306565
1203.617, 1.590621
1204.099, 1.929394
1204.581, 2.186245
1205.063, 2.279107
1205.545, 1.985053
1206.027, 1.402561
1206.509, 0.9319347
1206.991, 0.7164472
1207.474, 0.6387095
1207.956, 0.4981806
1208.438, 0.6614294
1208.920, 1.792122
1209.402, 2.826686
1209.884, 2.675666
1210.366, 2.006658
1210.848, 1.943467
1211.330, 2.492110
1211.813, 2.776847
1212.295, 2.519181
1212.777, 2.380464
1213.259, 2.577256
1213.741, 2.558879
1214.223, 2.051031
1214.705, 1.489211
1215.187, 1.079418
1215.669, 0.9396878
1216.152, 1.398720
1216.634, 2.386083
1217.116, 2.608007
1217.598, 1.990530
1218.080, 1.482069
1218.562, 1.166656
1219.044, 1.128625
1219.526, 1.402759
1220.009, 1.778534
1220.491, 2.102642
1220.973, 2.341646
1221.455, 2.368185
1221.937, 2.293996
1222.419, 2.494677
1222.901, 2.814686
1223.383, 2.803863
1223.865, 2.470546
1224.348, 1.980899
1224.830, 1.441147
1225.312, 1.351964
1225.794, 2.371757
1226.276, 3.352236
1226.758, 3.406782
1227.240, 3.045754
1227.722, 2.537117
1228.204, 2.018672
1228.687, 1.554005
1229.169, 1.211096
1229.651, 1.195703
1230.133, 1.620234
1230.615, 1.926729
1231.097, 1.975636
1231.579, 1.958513
1232.061, 1.868384
1232.544, 1.774680
1233.026, 1.706228
1233.508, 1.646722
1233.990, 1.544723
1234.472, 1.450274
1234.954, 1.645940
1235.436, 2.248604
1235.918, 2.172469
1236.401, 1.291808
1236.883, 1.227460
1237.365, 2.354119
1237.847, 3.273749
1238.329, 3.243352
1238.811, 2.758331
1239.293, 2.308060
1239.775, 1.937304
1240.257, 1.775086
1240.740, 1.744846
1241.222, 1.627726
1241.704, 1.490741
1242.186, 1.634797
1242.668, 2.011610
1243.150, 2.134490
1243.632, 1.770124
1244.114, 1.441305
1244.596, 1.600396
1245.079, 1.773033
1245.561, 1.629277
1246.043, 1.399761
1246.525, 1.150416
1247.007, 1.028020
1247.489, 1.356956
1247.971, 2.047521
1248.453, 2.375625
1248.936, 2.121646
1249.418, 1.857615
1249.900, 1.540473
1250.382, 1.309200
1250.864, 1.200656
1251.346, 1.159374
1251.828, 1.138655
1252.310, 1.221226
1252.792, 1.573680
1253.275, 2.062739
1253.757, 2.014779
1254.239, 1.505905
1254.721, 1.653257
1255.203, 2.381575
1255.685, 2.573865
1256.167, 2.044813
1256.649, 1.458481
1257.131, 1.156131
1257.614, 1.173333
1258.096, 1.855982
1258.578, 2.481322
1259.060, 1.878053
1259.542, 0.9986072
1260.024, 1.138280
1260.506, 1.826186
1260.988, 2.180790
1261.471, 2.102893
1261.953, 1.828687
1262.435, 1.335466
1262.917, 1.049084
1263.399, 1.162200
1263.881, 1.370735
1264.363, 1.747151
1264.845, 2.009650
1265.328, 1.952334
1265.810, 1.789576
1266.292, 1.777527
1266.774, 1.858602
1267.256, 1.791660
1267.738, 1.560476
1268.220, 1.270922
1268.702, 0.9074395
1269.184, 1.196415
1269.667, 2.236581
1270.149, 2.748085
1270.631, 2.152579
1271.113, 1.526294
1271.595, 1.979746
1272.077, 2.756898
1272.559, 2.611727
1273.041, 2.153369
1273.523, 2.402370
1274.006, 2.966338
1274.488, 3.065110
1274.970, 2.737315
1275.452, 2.423597
1275.934, 2.243068
1276.416, 2.206556
1276.898, 2.625210
1277.380, 2.722602
1277.863, 1.744973
1278.345, 1.077984
1278.827, 1.762066
1279.309, 2.651392
1279.791, 2.806357
1280.273, 2.512439
1280.755, 2.389812
1281.237, 2.436358
1281.719, 2.522742
1282.202, 2.676468
1282.684, 2.300975
1283.166, 1.345471
1283.648, 1.002127
1284.130, 1.630078
1284.612, 2.470316
1285.094, 3.029188
1285.576, 3.327065
1286.059, 3.311384
1286.541, 3.129209
##END=



