##NAMES=Jasmundite
##RRUFFID=R060805
##IDEAL CHEMISTRY=Ca_11_O_2_(SiO_4_)_4_S^2-^
##LOCALITY=Bellerberg, Eifel Mts., Germany
##OWNER=RRUFF
##SOURCE=Michael Scott
##DESCRIPTION=Brownish-green irregular grains
##STATUS=The identification of this mineral is confirmed by single-crystal X-ray diffraction and chemical analysis.
##URL=rruff.info/R060805
##MEASURED CHEMISTRY=(Ca_10.64_Mg_0.18_Fe_0.09_Al_0.06_[box]_0.03_)_Σ=11_O_2_((Si_0.99_Ti_0.01_)_Σ=1_O_4_)_4_(S_0.78_P_0.12_O_0.10_)_Σ=1_ ; = gray host
8.970801e+001, 1.729204e+002
9.019012e+001, 1.761762e+002
9.067224e+001, 1.785731e+002
9.115436e+001, 1.801292e+002
9.163647e+001, 1.804945e+002
9.211859e+001, 1.792845e+002
9.260071e+001, 1.763654e+002
9.308282e+001, 1.721509e+002
9.356494e+001, 1.663857e+002
9.404706e+001, 1.586159e+002
9.452917e+001, 1.519253e+002
9.501129e+001, 1.466393e+002
9.549341e+001, 1.434164e+002
9.597552e+001, 1.442106e+002
9.645764e+001, 1.512423e+002
9.693976e+001, 1.598065e+002
9.742188e+001, 1.594421e+002
9.790399e+001, 1.439180e+002
9.838611e+001, 1.314799e+002
9.886823e+001, 1.283972e+002
9.935034e+001, 1.309192e+002
9.983246e+001, 1.350017e+002
1.003146e+002, 1.390004e+002
1.007967e+002, 1.425323e+002
1.012788e+002, 1.435580e+002
1.017609e+002, 1.388890e+002
1.022430e+002, 1.352480e+002
1.027252e+002, 1.344381e+002
1.032073e+002, 1.357907e+002
1.036894e+002, 1.381442e+002
1.041715e+002, 1.409419e+002
1.046536e+002, 1.442325e+002
1.051357e+002, 1.453309e+002
1.056179e+002, 1.414478e+002
1.061000e+002, 1.380226e+002
1.065821e+002, 1.372657e+002
1.070642e+002, 1.386577e+002
1.075463e+002, 1.401425e+002
1.080284e+002, 1.396044e+002
1.085106e+002, 1.361393e+002
1.089927e+002, 1.353998e+002
1.094748e+002, 1.398527e+002
1.099569e+002, 1.444021e+002
1.104390e+002, 1.466998e+002
1.109212e+002, 1.463647e+002
1.114033e+002, 1.438495e+002
1.118854e+002, 1.390458e+002
1.123675e+002, 1.294790e+002
1.128496e+002, 1.262246e+002
1.133317e+002, 1.349608e+002
1.138139e+002, 1.462620e+002
1.142960e+002, 1.520266e+002
1.147781e+002, 1.505038e+002
1.152602e+002, 1.460809e+002
1.157423e+002, 1.449814e+002
1.162244e+002, 1.485979e+002
1.167066e+002, 1.512284e+002
1.171887e+002, 1.518724e+002
1.176708e+002, 1.513516e+002
1.181529e+002, 1.504238e+002
1.186350e+002, 1.491640e+002
1.191171e+002, 1.481379e+002
1.195993e+002, 1.478853e+002
1.200814e+002, 1.474472e+002
1.205635e+002, 1.504382e+002
1.210456e+002, 1.599221e+002
1.215277e+002, 1.735961e+002
1.220098e+002, 1.865124e+002
1.224920e+002, 1.969206e+002
1.229741e+002, 2.060529e+002
1.234562e+002, 2.152786e+002
1.239383e+002, 2.236266e+002
1.244204e+002, 2.350943e+002
1.249025e+002, 2.534486e+002
1.253847e+002, 2.774141e+002
1.258668e+002, 3.010512e+002
1.263489e+002, 3.229736e+002
1.268310e+002, 3.426605e+002
1.273131e+002, 3.594789e+002
1.277952e+002, 3.723145e+002
1.282773e+002, 3.854047e+002
1.287595e+002, 4.032466e+002
1.292416e+002, 4.258145e+002
1.297237e+002, 4.469152e+002
1.302058e+002, 4.661790e+002
1.306879e+002, 4.815229e+002
1.311701e+002, 4.899972e+002
1.316522e+002, 4.897985e+002
1.321343e+002, 4.867268e+002
1.326164e+002, 4.883957e+002
1.330985e+002, 4.964333e+002
1.335806e+002, 5.010523e+002
1.340628e+002, 4.954680e+002
1.345449e+002, 4.863361e+002
1.350270e+002, 4.780780e+002
1.355091e+002, 4.714366e+002
1.359912e+002, 4.679250e+002
1.364733e+002, 4.712884e+002
1.369555e+002, 4.849611e+002
1.374376e+002, 4.966940e+002
1.379197e+002, 4.985859e+002
1.384018e+002, 4.987708e+002
1.388839e+002, 5.052475e+002
1.393660e+002, 5.217224e+002
1.398482e+002, 5.450286e+002
1.403303e+002, 5.681726e+002
1.408124e+002, 5.907126e+002
1.412945e+002, 6.136602e+002
1.417766e+002, 6.349184e+002
1.422587e+002, 6.571484e+002
1.427409e+002, 6.838972e+002
1.432230e+002, 7.172256e+002
1.437051e+002, 7.552045e+002
1.441872e+002, 7.916439e+002
1.446693e+002, 8.261341e+002
1.451514e+002, 8.591233e+002
1.456336e+002, 8.905004e+002
1.461157e+002, 9.205585e+002
1.465978e+002, 9.506092e+002
1.470799e+002, 9.818036e+002
1.475620e+002, 1.012689e+003
1.480441e+002, 1.035069e+003
1.485263e+002, 1.041515e+003
1.490084e+002, 1.046702e+003
1.494905e+002, 1.052522e+003
1.499726e+002, 1.058829e+003
1.504547e+002, 1.065709e+003
1.509368e+002, 1.073648e+003
1.514190e+002, 1.081933e+003
1.519011e+002, 1.083140e+003
1.523832e+002, 1.065336e+003
1.528653e+002, 1.052761e+003
1.533474e+002, 1.055461e+003
1.538295e+002, 1.066831e+003
1.543117e+002, 1.074091e+003
1.547938e+002, 1.068062e+003
1.552759e+002, 1.049659e+003
1.557580e+002, 1.038436e+003
1.562401e+002, 1.037503e+003
1.567222e+002, 1.039840e+003
1.572044e+002, 1.044697e+003
1.576865e+002, 1.051415e+003
1.581686e+002, 1.059111e+003
1.586507e+002, 1.067154e+003
1.591328e+002, 1.075564e+003
1.596149e+002, 1.085073e+003
1.600971e+002, 1.096060e+003
1.605792e+002, 1.107593e+003
1.610613e+002, 1.120914e+003
1.615434e+002, 1.134777e+003
1.620255e+002, 1.145443e+003
1.625076e+002, 1.149373e+003
1.629898e+002, 1.146542e+003
1.634719e+002, 1.151627e+003
1.639540e+002, 1.173298e+003
1.644361e+002, 1.192855e+003
1.649182e+002, 1.198312e+003
1.654003e+002, 1.193439e+003
1.658825e+002, 1.192619e+003
1.663646e+002, 1.207994e+003
1.668467e+002, 1.239236e+003
1.673288e+002, 1.259534e+003
1.678109e+002, 1.264098e+003
1.682930e+002, 1.263905e+003
1.687752e+002, 1.261197e+003
1.692573e+002, 1.257578e+003
1.697394e+002, 1.258071e+003
1.702215e+002, 1.267823e+003
1.707036e+002, 1.286290e+003
1.711857e+002, 1.296732e+003
1.716679e+002, 1.290287e+003
1.721500e+002, 1.284339e+003
1.726321e+002, 1.292594e+003
1.731142e+002, 1.312514e+003
1.735963e+002, 1.327912e+003
1.740784e+002, 1.325769e+003
1.745606e+002, 1.306774e+003
1.750427e+002, 1.293367e+003
1.755248e+002, 1.289131e+003
1.760069e+002, 1.287193e+003
1.764890e+002, 1.282017e+003
1.769711e+002, 1.274301e+003
1.774533e+002, 1.270587e+003
1.779354e+002, 1.277052e+003
1.784175e+002, 1.292507e+003
1.788996e+002, 1.302206e+003
1.793817e+002, 1.302894e+003
1.798638e+002, 1.300706e+003
1.803460e+002, 1.298211e+003
1.808281e+002, 1.295827e+003
1.813102e+002, 1.295851e+003
1.817923e+002, 1.300562e+003
1.822744e+002, 1.309402e+003
1.827565e+002, 1.316757e+003
1.832387e+002, 1.320237e+003
1.837208e+002, 1.324072e+003
1.842029e+002, 1.332425e+003
1.846850e+002, 1.344788e+003
1.851671e+002, 1.355787e+003
1.856492e+002, 1.361351e+003
1.861314e+002, 1.362440e+003
1.866135e+002, 1.365055e+003
1.870956e+002, 1.371889e+003
1.875777e+002, 1.378227e+003
1.880598e+002, 1.379765e+003
1.885419e+002, 1.376892e+003
1.890241e+002, 1.374399e+003
1.895062e+002, 1.376122e+003
1.899883e+002, 1.380171e+003
1.904704e+002, 1.380265e+003
1.909525e+002, 1.374995e+003
1.914346e+002, 1.366846e+003
1.919168e+002, 1.354603e+003
1.923989e+002, 1.339038e+003
1.928810e+002, 1.329108e+003
1.933631e+002, 1.331798e+003
1.938452e+002, 1.343686e+003
1.943273e+002, 1.353299e+003
1.948095e+002, 1.360924e+003
1.952916e+002, 1.365713e+003
1.957737e+002, 1.366341e+003
1.962558e+002, 1.363076e+003
1.967379e+002, 1.358112e+003
1.972200e+002, 1.350833e+003
1.977022e+002, 1.343498e+003
1.981843e+002, 1.340947e+003
1.986664e+002, 1.345840e+003
1.991485e+002, 1.351984e+003
1.996306e+002, 1.356035e+003
2.001127e+002, 1.357948e+003
2.005949e+002, 1.356621e+003
2.010770e+002, 1.348787e+003
2.015591e+002, 1.339140e+003
2.020412e+002, 1.337481e+003
2.025233e+002, 1.348068e+003
2.030054e+002, 1.359021e+003
2.034876e+002, 1.361898e+003
2.039697e+002, 1.357809e+003
2.044518e+002, 1.353704e+003
2.049339e+002, 1.352358e+003
2.054160e+002, 1.352562e+003
2.058981e+002, 1.352264e+003
2.063803e+002, 1.351924e+003
2.068624e+002, 1.349978e+003
2.073445e+002, 1.343386e+003
2.078266e+002, 1.333578e+003
2.083087e+002, 1.327500e+003
2.087908e+002, 1.328515e+003
2.092730e+002, 1.333650e+003
2.097551e+002, 1.338934e+003
2.102372e+002, 1.345692e+003
2.107193e+002, 1.347988e+003
2.112014e+002, 1.336408e+003
2.116835e+002, 1.316421e+003
2.121657e+002, 1.308280e+003
2.126478e+002, 1.322385e+003
2.131299e+002, 1.345149e+003
2.136120e+002, 1.358086e+003
2.140941e+002, 1.360740e+003
2.145763e+002, 1.359600e+003
2.150584e+002, 1.356509e+003
2.155405e+002, 1.351845e+003
2.160226e+002, 1.346336e+003
2.165047e+002, 1.339602e+003
2.169868e+002, 1.333103e+003
2.174690e+002, 1.328251e+003
2.179511e+002, 1.324864e+003
2.184332e+002, 1.323633e+003
2.189153e+002, 1.325611e+003
2.193974e+002, 1.329863e+003
2.198795e+002, 1.335028e+003
2.203617e+002, 1.341584e+003
2.208438e+002, 1.347180e+003
2.213259e+002, 1.347197e+003
2.218080e+002, 1.342246e+003
2.222901e+002, 1.340721e+003
2.227722e+002, 1.350027e+003
2.232544e+002, 1.363085e+003
2.237365e+002, 1.367344e+003
2.242186e+002, 1.359655e+003
2.247007e+002, 1.348934e+003
2.251828e+002, 1.344170e+003
2.256649e+002, 1.344371e+003
2.261471e+002, 1.344424e+003
2.266292e+002, 1.341231e+003
2.271113e+002, 1.338130e+003
2.275934e+002, 1.340535e+003
2.280755e+002, 1.349486e+003
2.285576e+002, 1.358438e+003
2.290398e+002, 1.362660e+003
2.295219e+002, 1.362137e+003
2.300040e+002, 1.357071e+003
2.304861e+002, 1.340761e+003
2.309682e+002, 1.323965e+003
2.314503e+002, 1.317630e+003
2.319325e+002, 1.322226e+003
2.324146e+002, 1.331138e+003
2.328967e+002, 1.342295e+003
2.333788e+002, 1.354137e+003
2.338609e+002, 1.359910e+003
2.343430e+002, 1.352037e+003
2.348252e+002, 1.343745e+003
2.353073e+002, 1.345467e+003
2.357894e+002, 1.356258e+003
2.362715e+002, 1.368955e+003
2.367536e+002, 1.381147e+003
2.372357e+002, 1.391151e+003
2.377179e+002, 1.394067e+003
2.382000e+002, 1.381835e+003
2.386821e+002, 1.371245e+003
2.391642e+002, 1.372724e+003
2.396463e+002, 1.383547e+003
2.401284e+002, 1.394961e+003
2.406106e+002, 1.404053e+003
2.410927e+002, 1.409622e+003
2.415748e+002, 1.407843e+003
2.420569e+002, 1.393536e+003
2.425390e+002, 1.381249e+003
2.430211e+002, 1.378532e+003
2.435033e+002, 1.381430e+003
2.439854e+002, 1.380970e+003
2.444675e+002, 1.372854e+003
2.449496e+002, 1.362031e+003
2.454317e+002, 1.359636e+003
2.459138e+002, 1.367691e+003
2.463960e+002, 1.377423e+003
2.468781e+002, 1.389241e+003
2.473602e+002, 1.401071e+003
2.478423e+002, 1.410396e+003
2.483244e+002, 1.416497e+003
2.488065e+002, 1.419319e+003
2.492887e+002, 1.418071e+003
2.497708e+002, 1.410578e+003
2.502529e+002, 1.405134e+003
2.507350e+002, 1.403020e+003
2.512171e+002, 1.402789e+003
2.516992e+002, 1.403534e+003
2.521814e+002, 1.404960e+003
2.526635e+002, 1.406262e+003
2.531456e+002, 1.406372e+003
2.536277e+002, 1.404718e+003
2.541098e+002, 1.404317e+003
2.545919e+002, 1.405255e+003
2.550741e+002, 1.407261e+003
2.555562e+002, 1.411199e+003
2.560383e+002, 1.416508e+003
2.565204e+002, 1.420826e+003
2.570025e+002, 1.422248e+003
2.574846e+002, 1.420735e+003
2.579668e+002, 1.416142e+003
2.584489e+002, 1.403867e+003
2.589310e+002, 1.393592e+003
2.594131e+002, 1.388776e+003
2.598952e+002, 1.389372e+003
2.603773e+002, 1.395697e+003
2.608595e+002, 1.409137e+003
2.613416e+002, 1.427991e+003
2.618237e+002, 1.435531e+003
2.623058e+002, 1.420140e+003
2.627879e+002, 1.407183e+003
2.632701e+002, 1.402856e+003
2.637522e+002, 1.404017e+003
2.642343e+002, 1.405921e+003
2.647164e+002, 1.406271e+003
2.651985e+002, 1.405321e+003
2.656806e+002, 1.403873e+003
2.661628e+002, 1.402734e+003
2.666449e+002, 1.399849e+003
2.671270e+002, 1.391823e+003
2.676091e+002, 1.383641e+003
2.680912e+002, 1.380968e+003
2.685733e+002, 1.385420e+003
2.690555e+002, 1.393109e+003
2.695376e+002, 1.396739e+003
2.700197e+002, 1.391881e+003
2.705018e+002, 1.392125e+003
2.709839e+002, 1.400482e+003
2.714660e+002, 1.411034e+003
2.719482e+002, 1.421689e+003
2.724303e+002, 1.431187e+003
2.729124e+002, 1.436989e+003
2.733945e+002, 1.434487e+003
2.738766e+002, 1.420528e+003
2.743587e+002, 1.413221e+003
2.748409e+002, 1.418664e+003
2.753230e+002, 1.425508e+003
2.758051e+002, 1.428897e+003
2.762872e+002, 1.429623e+003
2.767693e+002, 1.431281e+003
2.772514e+002, 1.436773e+003
2.777336e+002, 1.445881e+003
2.782157e+002, 1.456019e+003
2.786978e+002, 1.470727e+003
2.791799e+002, 1.481586e+003
2.796620e+002, 1.482964e+003
2.801441e+002, 1.479257e+003
2.806263e+002, 1.477930e+003
2.811084e+002, 1.483633e+003
2.815905e+002, 1.493301e+003
2.820726e+002, 1.498627e+003
2.825547e+002, 1.497338e+003
2.830368e+002, 1.496943e+003
2.835190e+002, 1.499123e+003
2.840011e+002, 1.503791e+003
2.844832e+002, 1.511880e+003
2.849653e+002, 1.524447e+003
2.854474e+002, 1.537469e+003
2.859295e+002, 1.546478e+003
2.864117e+002, 1.551437e+003
2.868938e+002, 1.552283e+003
2.873759e+002, 1.544775e+003
2.878580e+002, 1.536065e+003
2.883401e+002, 1.531773e+003
2.888222e+002, 1.532460e+003
2.893044e+002, 1.537022e+003
2.897865e+002, 1.547327e+003
2.902686e+002, 1.561832e+003
2.907507e+002, 1.572204e+003
2.912328e+002, 1.576799e+003
2.917149e+002, 1.577059e+003
2.921971e+002, 1.571744e+003
2.926792e+002, 1.561961e+003
2.931613e+002, 1.556946e+003
2.936434e+002, 1.568505e+003
2.941255e+002, 1.584760e+003
2.946076e+002, 1.581547e+003
2.950898e+002, 1.553541e+003
2.955719e+002, 1.526646e+003
2.960540e+002, 1.525144e+003
2.965361e+002, 1.543195e+003
2.970182e+002, 1.554903e+003
2.975003e+002, 1.552015e+003
2.979825e+002, 1.545397e+003
2.984646e+002, 1.542655e+003
2.989467e+002, 1.543806e+003
2.994288e+002, 1.548100e+003
2.999109e+002, 1.556194e+003
3.003930e+002, 1.566557e+003
3.008752e+002, 1.573937e+003
3.013573e+002, 1.580476e+003
3.018394e+002, 1.581717e+003
3.023215e+002, 1.571716e+003
3.028036e+002, 1.555791e+003
3.032857e+002, 1.544733e+003
3.037679e+002, 1.543007e+003
3.042500e+002, 1.545286e+003
3.047321e+002, 1.540795e+003
3.052142e+002, 1.522571e+003
3.056963e+002, 1.511670e+003
3.061784e+002, 1.513812e+003
3.066606e+002, 1.521376e+003
3.071427e+002, 1.528564e+003
3.076248e+002, 1.533906e+003
3.081069e+002, 1.537372e+003
3.085890e+002, 1.539154e+003
3.090711e+002, 1.539725e+003
3.095533e+002, 1.535812e+003
3.100354e+002, 1.522735e+003
3.105175e+002, 1.510384e+003
3.109996e+002, 1.503623e+003
3.114817e+002, 1.501731e+003
3.119638e+002, 1.501647e+003
3.124460e+002, 1.501395e+003
3.129281e+002, 1.500911e+003
3.134102e+002, 1.499589e+003
3.138923e+002, 1.498016e+003
3.143744e+002, 1.494759e+003
3.148565e+002, 1.486894e+003
3.153387e+002, 1.478172e+003
3.158208e+002, 1.473658e+003
3.163029e+002, 1.475615e+003
3.167850e+002, 1.481033e+003
3.172671e+002, 1.483426e+003
3.177492e+002, 1.480545e+003
3.182314e+002, 1.480300e+003
3.187135e+002, 1.490440e+003
3.191956e+002, 1.498803e+003
3.196777e+002, 1.494428e+003
3.201598e+002, 1.476706e+003
3.206419e+002, 1.457712e+003
3.211241e+002, 1.448401e+003
3.216062e+002, 1.448823e+003
3.220883e+002, 1.455812e+003
3.225704e+002, 1.476046e+003
3.230525e+002, 1.494630e+003
3.235346e+002, 1.503025e+003
3.240168e+002, 1.502953e+003
3.244989e+002, 1.500045e+003
3.249810e+002, 1.492518e+003
3.254631e+002, 1.485363e+003
3.259452e+002, 1.492666e+003
3.264273e+002, 1.518869e+003
3.269095e+002, 1.542368e+003
3.273916e+002, 1.547755e+003
3.278737e+002, 1.543411e+003
3.283558e+002, 1.542265e+003
3.288379e+002, 1.547989e+003
3.293200e+002, 1.555094e+003
3.298022e+002, 1.557863e+003
3.302843e+002, 1.557454e+003
3.307664e+002, 1.561536e+003
3.312485e+002, 1.575507e+003
3.317306e+002, 1.591892e+003
3.322127e+002, 1.596717e+003
3.326949e+002, 1.588114e+003
3.331770e+002, 1.579399e+003
3.336591e+002, 1.572476e+003
3.341412e+002, 1.568632e+003
3.346233e+002, 1.571038e+003
3.351054e+002, 1.580318e+003
3.355876e+002, 1.590805e+003
3.360697e+002, 1.596180e+003
3.365518e+002, 1.595186e+003
3.370339e+002, 1.597952e+003
3.375161e+002, 1.607023e+003
3.379982e+002, 1.617430e+003
3.384803e+002, 1.625682e+003
3.389624e+002, 1.632649e+003
3.394445e+002, 1.642163e+003
3.399266e+002, 1.657275e+003
3.404088e+002, 1.676185e+003
3.408909e+002, 1.688755e+003
3.413730e+002, 1.685632e+003
3.418551e+002, 1.687068e+003
3.423372e+002, 1.699182e+003
3.428193e+002, 1.715298e+003
3.433015e+002, 1.727687e+003
3.437836e+002, 1.733751e+003
3.442657e+002, 1.737462e+003
3.447478e+002, 1.745039e+003
3.452299e+002, 1.757364e+003
3.457120e+002, 1.771356e+003
3.461942e+002, 1.789346e+003
3.466763e+002, 1.806994e+003
3.471584e+002, 1.821427e+003
3.476405e+002, 1.833188e+003
3.481226e+002, 1.845253e+003
3.486047e+002, 1.862032e+003
3.490869e+002, 1.881972e+003
3.495690e+002, 1.891054e+003
3.500511e+002, 1.881671e+003
3.505332e+002, 1.874068e+003
3.510153e+002, 1.875062e+003
3.514974e+002, 1.883308e+003
3.519796e+002, 1.898178e+003
3.524617e+002, 1.921842e+003
3.529438e+002, 1.947288e+003
3.534259e+002, 1.966760e+003
3.539080e+002, 1.980282e+003
3.543901e+002, 1.986186e+003
3.548723e+002, 1.977839e+003
3.553544e+002, 1.966744e+003
3.558365e+002, 1.968441e+003
3.563186e+002, 1.984767e+003
3.568007e+002, 2.000625e+003
3.572828e+002, 2.009801e+003
3.577650e+002, 2.013354e+003
3.582471e+002, 2.011366e+003
3.587292e+002, 2.003067e+003
3.592113e+002, 1.995350e+003
3.596934e+002, 1.994419e+003
3.601755e+002, 2.000704e+003
3.606577e+002, 2.010117e+003
3.611398e+002, 2.025134e+003
3.616219e+002, 2.041040e+003
3.621040e+002, 2.057597e+003
3.625861e+002, 2.072937e+003
3.630682e+002, 2.080324e+003
3.635504e+002, 2.074498e+003
3.640325e+002, 2.061432e+003
3.645146e+002, 2.061563e+003
3.649967e+002, 2.093002e+003
3.654788e+002, 2.114891e+003
3.659609e+002, 2.119327e+003
3.664431e+002, 2.115896e+003
3.669252e+002, 2.112334e+003
3.674073e+002, 2.111037e+003
3.678894e+002, 2.111961e+003
3.683715e+002, 2.115398e+003
3.688536e+002, 2.121975e+003
3.693358e+002, 2.127952e+003
3.698179e+002, 2.135270e+003
3.703000e+002, 2.140104e+003
3.707821e+002, 2.139116e+003
3.712642e+002, 2.134527e+003
3.717463e+002, 2.130740e+003
3.722285e+002, 2.129826e+003
3.727106e+002, 2.132180e+003
3.731927e+002, 2.141366e+003
3.736748e+002, 2.163374e+003
3.741569e+002, 2.175898e+003
3.746390e+002, 2.161695e+003
3.751212e+002, 2.139917e+003
3.756033e+002, 2.126669e+003
3.760854e+002, 2.125206e+003
3.765675e+002, 2.129224e+003
3.770496e+002, 2.136538e+003
3.775317e+002, 2.145719e+003
3.780139e+002, 2.149163e+003
3.784960e+002, 2.143171e+003
3.789781e+002, 2.136013e+003
3.794602e+002, 2.136701e+003
3.799423e+002, 2.143673e+003
3.804244e+002, 2.149893e+003
3.809066e+002, 2.155490e+003
3.813887e+002, 2.158435e+003
3.818708e+002, 2.154926e+003
3.823529e+002, 2.146025e+003
3.828350e+002, 2.138396e+003
3.833171e+002, 2.135777e+003
3.837993e+002, 2.137272e+003
3.842814e+002, 2.139620e+003
3.847635e+002, 2.145598e+003
3.852456e+002, 2.148661e+003
3.857277e+002, 2.145353e+003
3.862098e+002, 2.139710e+003
3.866920e+002, 2.134185e+003
3.871741e+002, 2.130124e+003
3.876562e+002, 2.132118e+003
3.881383e+002, 2.148382e+003
3.886204e+002, 2.186162e+003
3.891025e+002, 2.204689e+003
3.895847e+002, 2.185192e+003
3.900668e+002, 2.166633e+003
3.905489e+002, 2.163224e+003
3.910310e+002, 2.172225e+003
3.915131e+002, 2.186058e+003
3.919952e+002, 2.201131e+003
3.924774e+002, 2.216561e+003
3.929595e+002, 2.230426e+003
3.934416e+002, 2.243149e+003
3.939237e+002, 2.253090e+003
3.944058e+002, 2.258007e+003
3.948879e+002, 2.261123e+003
3.953701e+002, 2.265564e+003
3.958522e+002, 2.271740e+003
3.963343e+002, 2.275519e+003
3.968164e+002, 2.269397e+003
3.972985e+002, 2.257521e+003
3.977806e+002, 2.258208e+003
3.982628e+002, 2.277753e+003
3.987449e+002, 2.297462e+003
3.992270e+002, 2.298900e+003
3.997091e+002, 2.287608e+003
4.001912e+002, 2.282132e+003
4.006733e+002, 2.291246e+003
4.011555e+002, 2.301904e+003
4.016376e+002, 2.303680e+003
4.021197e+002, 2.298965e+003
4.026018e+002, 2.296656e+003
4.030839e+002, 2.301155e+003
4.035660e+002, 2.308299e+003
4.040482e+002, 2.309059e+003
4.045303e+002, 2.297383e+003
4.050124e+002, 2.291256e+003
4.054945e+002, 2.296743e+003
4.059766e+002, 2.304391e+003
4.064587e+002, 2.305840e+003
4.069409e+002, 2.301285e+003
4.074230e+002, 2.297123e+003
4.079051e+002, 2.299130e+003
4.083872e+002, 2.306984e+003
4.088693e+002, 2.313377e+003
4.093514e+002, 2.319741e+003
4.098336e+002, 2.322633e+003
4.103157e+002, 2.316212e+003
4.107978e+002, 2.308244e+003
4.112799e+002, 2.309578e+003
4.117620e+002, 2.324124e+003
4.122441e+002, 2.340868e+003
4.127263e+002, 2.342497e+003
4.132084e+002, 2.327842e+003
4.136905e+002, 2.321861e+003
4.141726e+002, 2.333764e+003
4.146547e+002, 2.348315e+003
4.151368e+002, 2.352646e+003
4.156190e+002, 2.349194e+003
4.161011e+002, 2.348432e+003
4.165832e+002, 2.358157e+003
4.170653e+002, 2.370743e+003
4.175474e+002, 2.376082e+003
4.180295e+002, 2.374365e+003
4.185117e+002, 2.370124e+003
4.189938e+002, 2.362105e+003
4.194759e+002, 2.355947e+003
4.199580e+002, 2.369137e+003
4.204401e+002, 2.416545e+003
4.209222e+002, 2.449767e+003
4.214044e+002, 2.446466e+003
4.218865e+002, 2.429242e+003
4.223686e+002, 2.420818e+003
4.228507e+002, 2.425740e+003
4.233328e+002, 2.439416e+003
4.238149e+002, 2.459060e+003
4.242971e+002, 2.485569e+003
4.247792e+002, 2.501913e+003
4.252613e+002, 2.497386e+003
4.257434e+002, 2.494815e+003
4.262255e+002, 2.500608e+003
4.267076e+002, 2.511472e+003
4.271898e+002, 2.524138e+003
4.276719e+002, 2.537471e+003
4.281540e+002, 2.547526e+003
4.286361e+002, 2.545098e+003
4.291182e+002, 2.527069e+003
4.296003e+002, 2.518044e+003
4.300825e+002, 2.528590e+003
4.305646e+002, 2.541676e+003
4.310467e+002, 2.551210e+003
4.315288e+002, 2.555030e+003
4.320109e+002, 2.545951e+003
4.324930e+002, 2.507353e+003
4.329752e+002, 2.460380e+003
4.334573e+002, 2.438785e+003
4.339394e+002, 2.442300e+003
4.344215e+002, 2.445993e+003
4.349036e+002, 2.437672e+003
4.353857e+002, 2.422410e+003
4.358679e+002, 2.412596e+003
4.363500e+002, 2.411444e+003
4.368321e+002, 2.407192e+003
4.373142e+002, 2.395130e+003
4.377963e+002, 2.379485e+003
4.382784e+002, 2.363670e+003
4.387606e+002, 2.348728e+003
4.392427e+002, 2.336266e+003
4.397248e+002, 2.328700e+003
4.402069e+002, 2.325942e+003
4.406890e+002, 2.316325e+003
4.411711e+002, 2.287044e+003
4.416533e+002, 2.265542e+003
4.421354e+002, 2.262535e+003
4.426175e+002, 2.267673e+003
4.430996e+002, 2.269570e+003
4.435817e+002, 2.264358e+003
4.440638e+002, 2.254128e+003
4.445460e+002, 2.239037e+003
4.450281e+002, 2.218362e+003
4.455102e+002, 2.205904e+003
4.459923e+002, 2.209592e+003
4.464744e+002, 2.212731e+003
4.469565e+002, 2.201732e+003
4.474387e+002, 2.182009e+003
4.479208e+002, 2.168094e+003
4.484029e+002, 2.167878e+003
4.488850e+002, 2.172919e+003
4.493671e+002, 2.175771e+003
4.498492e+002, 2.176432e+003
4.503314e+002, 2.174410e+003
4.508135e+002, 2.168942e+003
4.512956e+002, 2.161947e+003
4.517777e+002, 2.157423e+003
4.522598e+002, 2.157702e+003
4.527419e+002, 2.152263e+003
4.532241e+002, 2.132141e+003
4.537062e+002, 2.112237e+003
4.541883e+002, 2.106088e+003
4.546704e+002, 2.111233e+003
4.551525e+002, 2.114764e+003
4.556346e+002, 2.107337e+003
4.561168e+002, 2.093183e+003
4.565989e+002, 2.091189e+003
4.570810e+002, 2.114931e+003
4.575631e+002, 2.127862e+003
4.580452e+002, 2.119621e+003
4.585273e+002, 2.104424e+003
4.590095e+002, 2.091667e+003
4.594916e+002, 2.083150e+003
4.599737e+002, 2.077429e+003
4.604558e+002, 2.072934e+003
4.609379e+002, 2.070127e+003
4.614200e+002, 2.072039e+003
4.619022e+002, 2.080529e+003
4.623843e+002, 2.087735e+003
4.628664e+002, 2.089400e+003
4.633485e+002, 2.086721e+003
4.638306e+002, 2.081698e+003
4.643127e+002, 2.073079e+003
4.647949e+002, 2.065010e+003
4.652770e+002, 2.058127e+003
4.657591e+002, 2.053629e+003
4.662412e+002, 2.055225e+003
4.667233e+002, 2.063561e+003
4.672054e+002, 2.072170e+003
4.676876e+002, 2.074992e+003
4.681697e+002, 2.071973e+003
4.686518e+002, 2.063717e+003
4.691339e+002, 2.042333e+003
4.696160e+002, 2.025307e+003
4.700981e+002, 2.021213e+003
4.705803e+002, 2.023218e+003
4.710624e+002, 2.021494e+003
4.715445e+002, 2.012590e+003
4.720266e+002, 2.001438e+003
4.725087e+002, 1.994629e+003
4.729908e+002, 1.992409e+003
4.734730e+002, 1.992491e+003
4.739551e+002, 1.995599e+003
4.744372e+002, 2.000028e+003
4.749193e+002, 2.007201e+003
4.754014e+002, 2.014740e+003
4.758835e+002, 2.016790e+003
4.763657e+002, 2.008806e+003
4.768478e+002, 1.997928e+003
4.773299e+002, 1.989820e+003
4.778120e+002, 1.984670e+003
4.782941e+002, 1.985810e+003
4.787762e+002, 1.997144e+003
4.792584e+002, 2.006006e+003
4.797405e+002, 1.992372e+003
4.802226e+002, 1.947393e+003
4.807047e+002, 1.919070e+003
4.811868e+002, 1.921965e+003
4.816689e+002, 1.928880e+003
4.821511e+002, 1.923769e+003
4.826332e+002, 1.910394e+003
4.831153e+002, 1.900182e+003
4.835974e+002, 1.899054e+003
4.840795e+002, 1.902667e+003
4.845616e+002, 1.900324e+003
4.850438e+002, 1.887259e+003
4.855259e+002, 1.881754e+003
4.860080e+002, 1.896289e+003
4.864901e+002, 1.909671e+003
4.869722e+002, 1.908367e+003
4.874543e+002, 1.895805e+003
4.879365e+002, 1.885971e+003
4.884186e+002, 1.889782e+003
4.889007e+002, 1.897598e+003
4.893828e+002, 1.892071e+003
4.898649e+002, 1.873825e+003
4.903470e+002, 1.860785e+003
4.908292e+002, 1.861911e+003
4.913113e+002, 1.868695e+003
4.917934e+002, 1.866397e+003
4.922755e+002, 1.853322e+003
4.927576e+002, 1.842192e+003
4.932397e+002, 1.836054e+003
4.937219e+002, 1.831680e+003
4.942040e+002, 1.825552e+003
4.946861e+002, 1.818843e+003
4.951682e+002, 1.816650e+003
4.956503e+002, 1.822627e+003
4.961324e+002, 1.832556e+003
4.966146e+002, 1.833426e+003
4.970967e+002, 1.819363e+003
4.975788e+002, 1.808689e+003
4.980609e+002, 1.808258e+003
4.985430e+002, 1.807190e+003
4.990251e+002, 1.793319e+003
4.995073e+002, 1.770974e+003
4.999894e+002, 1.759983e+003
5.004715e+002, 1.784251e+003
5.009536e+002, 1.820101e+003
5.014358e+002, 1.815954e+003
5.019179e+002, 1.770529e+003
5.024000e+002, 1.735324e+003
5.028821e+002, 1.733696e+003
5.033642e+002, 1.749246e+003
5.038463e+002, 1.753649e+003
5.043285e+002, 1.744780e+003
5.048106e+002, 1.738530e+003
5.052927e+002, 1.740318e+003
5.057748e+002, 1.743963e+003
5.062569e+002, 1.743426e+003
5.067390e+002, 1.739904e+003
5.072212e+002, 1.739642e+003
5.077033e+002, 1.746833e+003
5.081854e+002, 1.757802e+003
5.086675e+002, 1.761403e+003
5.091496e+002, 1.754509e+003
5.096317e+002, 1.746659e+003
5.101139e+002, 1.734604e+003
5.105960e+002, 1.725284e+003
5.110781e+002, 1.725387e+003
5.115602e+002, 1.732782e+003
5.120423e+002, 1.738180e+003
5.125244e+002, 1.734546e+003
5.130065e+002, 1.726913e+003
5.134886e+002, 1.723813e+003
5.139708e+002, 1.725204e+003
5.144529e+002, 1.727431e+003
5.149350e+002, 1.730009e+003
5.154171e+002, 1.731613e+003
5.158992e+002, 1.729260e+003
5.163813e+002, 1.721945e+003
5.168635e+002, 1.716887e+003
5.173456e+002, 1.713525e+003
5.178277e+002, 1.713961e+003
5.183098e+002, 1.723279e+003
5.187919e+002, 1.737703e+003
5.192740e+002, 1.747214e+003
5.197562e+002, 1.746200e+003
5.202383e+002, 1.739306e+003
5.207204e+002, 1.737144e+003
5.212025e+002, 1.741758e+003
5.216846e+002, 1.745206e+003
5.221667e+002, 1.739506e+003
5.226489e+002, 1.739318e+003
5.231310e+002, 1.759229e+003
5.236131e+002, 1.791387e+003
5.240952e+002, 1.812004e+003
5.245773e+002, 1.803603e+003
5.250594e+002, 1.787123e+003
5.255416e+002, 1.790247e+003
5.260237e+002, 1.809185e+003
5.265058e+002, 1.821480e+003
5.269879e+002, 1.819158e+003
5.274700e+002, 1.811127e+003
5.279521e+002, 1.807596e+003
5.284343e+002, 1.808844e+003
5.289164e+002, 1.815203e+003
5.293985e+002, 1.831896e+003
5.298806e+002, 1.848259e+003
5.303627e+002, 1.857670e+003
5.308448e+002, 1.863818e+003
5.313270e+002, 1.874823e+003
5.318091e+002, 1.893638e+003
5.322912e+002, 1.912880e+003
5.327733e+002, 1.918973e+003
5.332554e+002, 1.909673e+003
5.337375e+002, 1.910018e+003
5.342197e+002, 1.929198e+003
5.347018e+002, 1.946344e+003
5.351839e+002, 1.947579e+003
5.356660e+002, 1.939617e+003
5.361481e+002, 1.935195e+003
5.366302e+002, 1.939347e+003
5.371124e+002, 1.943291e+003
5.375945e+002, 1.938679e+003
5.380766e+002, 1.929789e+003
5.385587e+002, 1.925800e+003
5.390408e+002, 1.928543e+003
5.395229e+002, 1.934108e+003
5.400051e+002, 1.940102e+003
5.404872e+002, 1.946331e+003
5.409693e+002, 1.943275e+003
5.414514e+002, 1.921662e+003
5.419335e+002, 1.902137e+003
5.424156e+002, 1.888720e+003
5.428978e+002, 1.878589e+003
5.433799e+002, 1.869448e+003
5.438620e+002, 1.860604e+003
5.443441e+002, 1.851859e+003
5.448262e+002, 1.840888e+003
5.453083e+002, 1.829632e+003
5.457905e+002, 1.828028e+003
5.462726e+002, 1.838351e+003
5.467547e+002, 1.846981e+003
5.472368e+002, 1.845968e+003
5.477189e+002, 1.840573e+003
5.482010e+002, 1.840879e+003
5.486832e+002, 1.848537e+003
5.491653e+002, 1.855453e+003
5.496474e+002, 1.859439e+003
5.501295e+002, 1.861767e+003
5.506116e+002, 1.861791e+003
5.510938e+002, 1.860904e+003
5.515759e+002, 1.863835e+003
5.520580e+002, 1.873843e+003
5.525401e+002, 1.887698e+003
5.530222e+002, 1.896214e+003
5.535043e+002, 1.896182e+003
5.539865e+002, 1.899050e+003
5.544686e+002, 1.908235e+003
5.549507e+002, 1.918709e+003
5.554328e+002, 1.929101e+003
5.559149e+002, 1.938746e+003
5.563970e+002, 1.946189e+003
5.568792e+002, 1.950599e+003
5.573613e+002, 1.952900e+003
5.578434e+002, 1.953194e+003
5.583255e+002, 1.952078e+003
5.588076e+002, 1.952578e+003
5.592897e+002, 1.955951e+003
5.597719e+002, 1.958147e+003
5.602540e+002, 1.953216e+003
5.607361e+002, 1.939452e+003
5.612182e+002, 1.935132e+003
5.617003e+002, 1.947913e+003
5.621824e+002, 1.959736e+003
5.626646e+002, 1.964706e+003
5.631467e+002, 1.965907e+003
5.636288e+002, 1.967569e+003
5.641109e+002, 1.970729e+003
5.645930e+002, 1.973257e+003
5.650751e+002, 1.973561e+003
5.655573e+002, 1.971457e+003
5.660394e+002, 1.964137e+003
5.665215e+002, 1.948958e+003
5.670036e+002, 1.938708e+003
5.674857e+002, 1.944226e+003
5.679678e+002, 1.956674e+003
5.684500e+002, 1.957097e+003
5.689321e+002, 1.939693e+003
5.694142e+002, 1.928284e+003
5.698963e+002, 1.931547e+003
5.703784e+002, 1.942316e+003
5.708605e+002, 1.957994e+003
5.713427e+002, 1.975604e+003
5.718248e+002, 1.987711e+003
5.723069e+002, 1.989716e+003
5.727890e+002, 1.984888e+003
5.732711e+002, 1.981015e+003
5.737532e+002, 1.977508e+003
5.742354e+002, 1.976974e+003
5.747175e+002, 1.983565e+003
5.751996e+002, 1.989359e+003
5.756817e+002, 1.989960e+003
5.761638e+002, 1.986210e+003
5.766459e+002, 1.980277e+003
5.771281e+002, 1.968982e+003
5.776102e+002, 1.961308e+003
5.780923e+002, 1.970249e+003
5.785744e+002, 1.988327e+003
5.790565e+002, 1.995951e+003
5.795386e+002, 1.988418e+003
5.800208e+002, 1.974918e+003
5.805029e+002, 1.963020e+003
5.809850e+002, 1.952777e+003
5.814671e+002, 1.952364e+003
5.819492e+002, 1.977780e+003
5.824313e+002, 1.993514e+003
5.829135e+002, 1.990406e+003
5.833956e+002, 1.977815e+003
5.838777e+002, 1.960495e+003
5.843599e+002, 1.941226e+003
5.848420e+002, 1.927963e+003
5.853241e+002, 1.932076e+003
5.858062e+002, 1.945069e+003
5.862883e+002, 1.947420e+003
5.867704e+002, 1.939161e+003
5.872526e+002, 1.929507e+003
5.877347e+002, 1.921676e+003
5.882168e+002, 1.914953e+003
5.886989e+002, 1.907590e+003
5.891810e+002, 1.897986e+003
5.896631e+002, 1.894174e+003
5.901453e+002, 1.904743e+003
5.906274e+002, 1.912602e+003
5.911095e+002, 1.905675e+003
5.915916e+002, 1.890858e+003
5.920737e+002, 1.881029e+003
5.925558e+002, 1.880951e+003
5.930380e+002, 1.883799e+003
5.935201e+002, 1.880000e+003
5.940022e+002, 1.870125e+003
5.944843e+002, 1.863443e+003
5.949664e+002, 1.861148e+003
5.954485e+002, 1.859977e+003
5.959307e+002, 1.857798e+003
5.964128e+002, 1.855635e+003
5.968949e+002, 1.856388e+003
5.973770e+002, 1.863252e+003
5.978591e+002, 1.865304e+003
5.983412e+002, 1.854808e+003
5.988234e+002, 1.841355e+003
5.993055e+002, 1.834146e+003
5.997876e+002, 1.832683e+003
6.002697e+002, 1.831563e+003
6.007518e+002, 1.827563e+003
6.012339e+002, 1.821948e+003
6.017161e+002, 1.817741e+003
6.021982e+002, 1.815319e+003
6.026803e+002, 1.812814e+003
6.031624e+002, 1.812331e+003
6.036445e+002, 1.808760e+003
6.041266e+002, 1.794095e+003
6.046088e+002, 1.774002e+003
6.050909e+002, 1.764236e+003
6.055730e+002, 1.776950e+003
6.060551e+002, 1.787231e+003
6.065372e+002, 1.775936e+003
6.070193e+002, 1.754782e+003
6.075015e+002, 1.742317e+003
6.079836e+002, 1.741109e+003
6.084657e+002, 1.741200e+003
6.089478e+002, 1.733522e+003
6.094299e+002, 1.720859e+003
6.099120e+002, 1.720246e+003
6.103942e+002, 1.742353e+003
6.108763e+002, 1.754073e+003
6.113584e+002, 1.741171e+003
6.118405e+002, 1.722901e+003
6.123226e+002, 1.710746e+003
6.128047e+002, 1.704513e+003
6.132869e+002, 1.699204e+003
6.137690e+002, 1.690814e+003
6.142511e+002, 1.684436e+003
6.147332e+002, 1.686757e+003
6.152153e+002, 1.694698e+003
6.156974e+002, 1.701773e+003
6.161796e+002, 1.706177e+003
6.166617e+002, 1.704869e+003
6.171438e+002, 1.693488e+003
6.176259e+002, 1.672121e+003
6.181080e+002, 1.655683e+003
6.185901e+002, 1.642590e+003
6.190723e+002, 1.637228e+003
6.195544e+002, 1.649024e+003
6.200365e+002, 1.662384e+003
6.205186e+002, 1.661090e+003
6.210007e+002, 1.645181e+003
6.214828e+002, 1.631868e+003
6.219650e+002, 1.636205e+003
6.224471e+002, 1.645123e+003
6.229292e+002, 1.639196e+003
6.234113e+002, 1.621676e+003
6.238934e+002, 1.608378e+003
6.243755e+002, 1.604866e+003
6.248577e+002, 1.606639e+003
6.253398e+002, 1.608416e+003
6.258219e+002, 1.610548e+003
6.263040e+002, 1.609946e+003
6.267861e+002, 1.600753e+003
6.272682e+002, 1.595789e+003
6.277504e+002, 1.602327e+003
6.282325e+002, 1.611987e+003
6.287146e+002, 1.615811e+003
6.291967e+002, 1.612282e+003
6.296788e+002, 1.605920e+003
6.301609e+002, 1.597119e+003
6.306431e+002, 1.588759e+003
6.311252e+002, 1.587309e+003
6.316073e+002, 1.591935e+003
6.320894e+002, 1.595426e+003
6.325715e+002, 1.595416e+003
6.330536e+002, 1.590609e+003
6.335358e+002, 1.577156e+003
6.340179e+002, 1.549984e+003
6.345000e+002, 1.537518e+003
6.349821e+002, 1.553101e+003
6.354642e+002, 1.567222e+003
6.359464e+002, 1.573107e+003
6.364285e+002, 1.571806e+003
6.369106e+002, 1.562604e+003
6.373927e+002, 1.545851e+003
6.378748e+002, 1.531406e+003
6.383569e+002, 1.528556e+003
6.388391e+002, 1.532453e+003
6.393212e+002, 1.535263e+003
6.398033e+002, 1.536417e+003
6.402854e+002, 1.532376e+003
6.407675e+002, 1.520300e+003
6.412496e+002, 1.506369e+003
6.417318e+002, 1.501712e+003
6.422139e+002, 1.510272e+003
6.426960e+002, 1.513782e+003
6.431781e+002, 1.508995e+003
6.436602e+002, 1.503217e+003
6.441423e+002, 1.499763e+003
6.446245e+002, 1.496328e+003
6.451066e+002, 1.488197e+003
6.455887e+002, 1.474374e+003
6.460708e+002, 1.463337e+003
6.465529e+002, 1.464570e+003
6.470350e+002, 1.472141e+003
6.475172e+002, 1.474762e+003
6.479993e+002, 1.472368e+003
6.484814e+002, 1.469733e+003
6.489635e+002, 1.468945e+003
6.494456e+002, 1.469310e+003
6.499277e+002, 1.470321e+003
6.504099e+002, 1.474233e+003
6.508920e+002, 1.470397e+003
6.513741e+002, 1.446470e+003
6.518562e+002, 1.428983e+003
6.523383e+002, 1.432102e+003
6.528204e+002, 1.443908e+003
6.533026e+002, 1.448039e+003
6.537847e+002, 1.440618e+003
6.542668e+002, 1.433899e+003
6.547489e+002, 1.439408e+003
6.552310e+002, 1.449928e+003
6.557131e+002, 1.454218e+003
6.561953e+002, 1.452136e+003
6.566774e+002, 1.445192e+003
6.571595e+002, 1.433057e+003
6.576416e+002, 1.421703e+003
6.581237e+002, 1.422289e+003
6.586058e+002, 1.439942e+003
6.590880e+002, 1.445956e+003
6.595701e+002, 1.428858e+003
6.600522e+002, 1.413266e+003
6.605343e+002, 1.406597e+003
6.610164e+002, 1.404708e+003
6.614985e+002, 1.401883e+003
6.619807e+002, 1.397109e+003
6.624628e+002, 1.396022e+003
6.629449e+002, 1.407941e+003
6.634270e+002, 1.421667e+003
6.639091e+002, 1.420791e+003
6.643912e+002, 1.407914e+003
6.648734e+002, 1.395346e+003
6.653555e+002, 1.387779e+003
6.658376e+002, 1.383548e+003
6.663197e+002, 1.380799e+003
6.668018e+002, 1.379999e+003
6.672839e+002, 1.375777e+003
6.677661e+002, 1.361932e+003
6.682482e+002, 1.354197e+003
6.687303e+002, 1.362590e+003
6.692124e+002, 1.375702e+003
6.696945e+002, 1.381768e+003
6.701766e+002, 1.379635e+003
6.706588e+002, 1.376311e+003
6.711409e+002, 1.375158e+003
6.716230e+002, 1.373786e+003
6.721051e+002, 1.369214e+003
6.725872e+002, 1.362724e+003
6.730693e+002, 1.356522e+003
6.735515e+002, 1.351553e+003
6.740336e+002, 1.350403e+003
6.745157e+002, 1.357917e+003
6.749978e+002, 1.373197e+003
6.754799e+002, 1.377873e+003
6.759620e+002, 1.367368e+003
6.764442e+002, 1.357459e+003
6.769263e+002, 1.351468e+003
6.774084e+002, 1.349381e+003
6.778905e+002, 1.354581e+003
6.783726e+002, 1.366328e+003
6.788547e+002, 1.368323e+003
6.793369e+002, 1.344918e+003
6.798190e+002, 1.323137e+003
6.803011e+002, 1.321853e+003
6.807832e+002, 1.330943e+003
6.812653e+002, 1.333928e+003
6.817474e+002, 1.328052e+003
6.822296e+002, 1.323889e+003
6.827117e+002, 1.332815e+003
6.831938e+002, 1.349239e+003
6.836759e+002, 1.351148e+003
6.841580e+002, 1.336382e+003
6.846401e+002, 1.323060e+003
6.851223e+002, 1.314619e+003
6.856044e+002, 1.310735e+003
6.860865e+002, 1.313023e+003
6.865686e+002, 1.320947e+003
6.870507e+002, 1.325134e+003
6.875328e+002, 1.319454e+003
6.880150e+002, 1.317633e+003
6.884971e+002, 1.327976e+003
6.889792e+002, 1.340724e+003
6.894613e+002, 1.346087e+003
6.899434e+002, 1.344197e+003
6.904255e+002, 1.341371e+003
6.909077e+002, 1.341318e+003
6.913898e+002, 1.342760e+003
6.918719e+002, 1.344276e+003
6.923540e+002, 1.345637e+003
6.928361e+002, 1.345370e+003
6.933182e+002, 1.343262e+003
6.938004e+002, 1.338714e+003
6.942825e+002, 1.329820e+003
6.947646e+002, 1.318577e+003
6.952467e+002, 1.314624e+003
6.957288e+002, 1.324468e+003
6.962109e+002, 1.331923e+003
6.966931e+002, 1.337298e+003
6.971752e+002, 1.339490e+003
6.976573e+002, 1.337099e+003
6.981394e+002, 1.331150e+003
6.986215e+002, 1.322757e+003
6.991036e+002, 1.310887e+003
6.995858e+002, 1.302349e+003
7.000679e+002, 1.305039e+003
7.005500e+002, 1.314023e+003
7.010321e+002, 1.320515e+003
7.015142e+002, 1.324011e+003
7.019963e+002, 1.329110e+003
7.024785e+002, 1.339043e+003
7.029606e+002, 1.348288e+003
7.034427e+002, 1.344234e+003
7.039248e+002, 1.322609e+003
7.044069e+002, 1.304610e+003
7.048890e+002, 1.288207e+003
7.053712e+002, 1.278643e+003
7.058533e+002, 1.281205e+003
7.063354e+002, 1.290387e+003
7.068175e+002, 1.300997e+003
7.072996e+002, 1.313559e+003
7.077817e+002, 1.319942e+003
7.082639e+002, 1.310885e+003
7.087460e+002, 1.300481e+003
7.092281e+002, 1.299683e+003
7.097102e+002, 1.306162e+003
7.101923e+002, 1.316042e+003
7.106744e+002, 1.327357e+003
7.111566e+002, 1.334763e+003
7.116387e+002, 1.330182e+003
7.121208e+002, 1.316470e+003
7.126029e+002, 1.310152e+003
7.130850e+002, 1.312399e+003
7.135671e+002, 1.312426e+003
7.140493e+002, 1.304786e+003
7.145314e+002, 1.296956e+003
7.150135e+002, 1.299676e+003
7.154956e+002, 1.314135e+003
7.159777e+002, 1.318988e+003
7.164598e+002, 1.303803e+003
7.169420e+002, 1.292779e+003
7.174241e+002, 1.293615e+003
7.179062e+002, 1.300033e+003
7.183883e+002, 1.307867e+003
7.188704e+002, 1.315660e+003
7.193525e+002, 1.321740e+003
7.198347e+002, 1.326070e+003
7.203168e+002, 1.326762e+003
7.207989e+002, 1.317723e+003
7.212810e+002, 1.303387e+003
7.217631e+002, 1.299094e+003
7.222452e+002, 1.307078e+003
7.227274e+002, 1.311675e+003
7.232095e+002, 1.300169e+003
7.236916e+002, 1.278620e+003
7.241737e+002, 1.267609e+003
7.246558e+002, 1.269230e+003
7.251379e+002, 1.276277e+003
7.256201e+002, 1.295640e+003
7.261022e+002, 1.311667e+003
7.265843e+002, 1.316717e+003
7.270664e+002, 1.312986e+003
7.275485e+002, 1.302947e+003
7.280306e+002, 1.283683e+003
7.285128e+002, 1.269467e+003
7.289949e+002, 1.267927e+003
7.294770e+002, 1.272188e+003
7.299591e+002, 1.277786e+003
7.304412e+002, 1.283945e+003
7.309233e+002, 1.290988e+003
7.314055e+002, 1.298908e+003
7.318876e+002, 1.305108e+003
7.323697e+002, 1.304909e+003
7.328518e+002, 1.299861e+003
7.333339e+002, 1.299503e+003
7.338160e+002, 1.304476e+003
7.342982e+002, 1.306671e+003
7.347803e+002, 1.301893e+003
7.352624e+002, 1.295596e+003
7.357445e+002, 1.295844e+003
7.362266e+002, 1.303979e+003
7.367087e+002, 1.305454e+003
7.371909e+002, 1.290441e+003
7.376730e+002, 1.281747e+003
7.381551e+002, 1.286667e+003
7.386372e+002, 1.297774e+003
7.391193e+002, 1.313676e+003
7.396014e+002, 1.330679e+003
7.400836e+002, 1.335505e+003
7.405657e+002, 1.313130e+003
7.410478e+002, 1.288905e+003
7.415299e+002, 1.290383e+003
7.420120e+002, 1.304281e+003
7.424941e+002, 1.304863e+003
7.429763e+002, 1.289649e+003
7.434584e+002, 1.272948e+003
7.439405e+002, 1.264597e+003
7.444226e+002, 1.260091e+003
7.449047e+002, 1.245448e+003
7.453868e+002, 1.217654e+003
7.458690e+002, 1.206419e+003
7.463511e+002, 1.219846e+003
7.468332e+002, 1.237526e+003
7.473153e+002, 1.250123e+003
7.477974e+002, 1.258295e+003
7.482795e+002, 1.263510e+003
7.487617e+002, 1.265317e+003
7.492438e+002, 1.265877e+003
7.497259e+002, 1.264277e+003
7.502080e+002, 1.262692e+003
7.506901e+002, 1.263712e+003
7.511722e+002, 1.264799e+003
7.516544e+002, 1.261327e+003
7.521365e+002, 1.252619e+003
7.526186e+002, 1.244405e+003
7.531007e+002, 1.240477e+003
7.535828e+002, 1.239979e+003
7.540649e+002, 1.243997e+003
7.545471e+002, 1.250626e+003
7.550292e+002, 1.251829e+003
7.555113e+002, 1.245473e+003
7.559934e+002, 1.237561e+003
7.564755e+002, 1.233577e+003
7.569576e+002, 1.233242e+003
7.574398e+002, 1.236251e+003
7.579219e+002, 1.246571e+003
7.584040e+002, 1.246945e+003
7.588861e+002, 1.225632e+003
7.593682e+002, 1.204931e+003
7.598503e+002, 1.204541e+003
7.603325e+002, 1.217453e+003
7.608146e+002, 1.224815e+003
7.612967e+002, 1.221428e+003
7.617788e+002, 1.220041e+003
7.622609e+002, 1.226038e+003
7.627430e+002, 1.233017e+003
7.632252e+002, 1.237631e+003
7.637073e+002, 1.239181e+003
7.641894e+002, 1.236767e+003
7.646715e+002, 1.230038e+003
7.651536e+002, 1.221967e+003
7.656357e+002, 1.213894e+003
7.661179e+002, 1.207037e+003
7.666000e+002, 1.205848e+003
7.670821e+002, 1.209169e+003
7.675642e+002, 1.207945e+003
7.680463e+002, 1.198694e+003
7.685284e+002, 1.187782e+003
7.690106e+002, 1.182717e+003
7.694927e+002, 1.183372e+003
7.699748e+002, 1.188278e+003
7.704569e+002, 1.202639e+003
7.709390e+002, 1.207928e+003
7.714211e+002, 1.191682e+003
7.719033e+002, 1.173880e+003
7.723854e+002, 1.172982e+003
7.728675e+002, 1.184950e+003
7.733496e+002, 1.193021e+003
7.738317e+002, 1.191824e+003
7.743138e+002, 1.191860e+003
7.747960e+002, 1.200043e+003
7.752781e+002, 1.207080e+003
7.757602e+002, 1.205180e+003
7.762423e+002, 1.195769e+003
7.767244e+002, 1.182064e+003
7.772065e+002, 1.164691e+003
7.776887e+002, 1.152093e+003
7.781708e+002, 1.154610e+003
7.786529e+002, 1.167003e+003
7.791350e+002, 1.180904e+003
7.796171e+002, 1.194978e+003
7.800992e+002, 1.204750e+003
7.805814e+002, 1.208493e+003
7.810635e+002, 1.207617e+003
7.815456e+002, 1.202977e+003
7.820277e+002, 1.194842e+003
7.825098e+002, 1.191435e+003
7.829919e+002, 1.194219e+003
7.834741e+002, 1.197307e+003
7.839562e+002, 1.198329e+003
7.844383e+002, 1.200255e+003
7.849204e+002, 1.207651e+003
7.854025e+002, 1.219063e+003
7.858846e+002, 1.225561e+003
7.863668e+002, 1.225380e+003
7.868489e+002, 1.222161e+003
7.873310e+002, 1.211026e+003
7.878131e+002, 1.201992e+003
7.882952e+002, 1.204906e+003
7.887773e+002, 1.215410e+003
7.892595e+002, 1.222774e+003
7.897416e+002, 1.223010e+003
7.902237e+002, 1.220845e+003
7.907058e+002, 1.217003e+003
7.911879e+002, 1.214888e+003
7.916700e+002, 1.222615e+003
7.921522e+002, 1.237137e+003
7.926343e+002, 1.246647e+003
7.931164e+002, 1.246968e+003
7.935985e+002, 1.241781e+003
7.940806e+002, 1.232973e+003
7.945627e+002, 1.222731e+003
7.950449e+002, 1.223835e+003
7.955270e+002, 1.235802e+003
7.960091e+002, 1.266726e+003
7.964912e+002, 1.331564e+003
7.969733e+002, 1.386486e+003
7.974554e+002, 1.389218e+003
7.979376e+002, 1.348076e+003
7.984197e+002, 1.314487e+003
7.989018e+002, 1.288704e+003
7.993839e+002, 1.270548e+003
7.998660e+002, 1.264383e+003
8.003481e+002, 1.261256e+003
8.008303e+002, 1.257547e+003
8.013124e+002, 1.253155e+003
8.017945e+002, 1.247060e+003
8.022766e+002, 1.238122e+003
8.027587e+002, 1.235651e+003
8.032408e+002, 1.247748e+003
8.037230e+002, 1.265335e+003
8.042051e+002, 1.285663e+003
8.046872e+002, 1.303839e+003
8.051693e+002, 1.310716e+003
8.056514e+002, 1.304756e+003
8.061335e+002, 1.293303e+003
8.066157e+002, 1.279891e+003
8.070978e+002, 1.268534e+003
8.075799e+002, 1.272005e+003
8.080620e+002, 1.287703e+003
8.085441e+002, 1.293537e+003
8.090262e+002, 1.285004e+003
8.095084e+002, 1.274441e+003
8.099905e+002, 1.270014e+003
8.104726e+002, 1.270906e+003
8.109547e+002, 1.275837e+003
8.114368e+002, 1.287817e+003
8.119189e+002, 1.293855e+003
8.124011e+002, 1.291185e+003
8.128832e+002, 1.286545e+003
8.133653e+002, 1.280834e+003
8.138474e+002, 1.275940e+003
8.143295e+002, 1.274553e+003
8.148116e+002, 1.276904e+003
8.152938e+002, 1.280390e+003
8.157759e+002, 1.286811e+003
8.162580e+002, 1.291669e+003
8.167401e+002, 1.291575e+003
8.172222e+002, 1.290191e+003
8.177043e+002, 1.291881e+003
8.181865e+002, 1.296229e+003
8.186686e+002, 1.299134e+003
8.191507e+002, 1.298030e+003
8.196328e+002, 1.296275e+003
8.201149e+002, 1.298824e+003
8.205970e+002, 1.301813e+003
8.210792e+002, 1.296884e+003
8.215613e+002, 1.285624e+003
8.220434e+002, 1.276961e+003
8.225255e+002, 1.275084e+003
8.230076e+002, 1.278399e+003
8.234897e+002, 1.287427e+003
8.239719e+002, 1.300582e+003
8.244540e+002, 1.302943e+003
8.249361e+002, 1.293395e+003
8.254182e+002, 1.292139e+003
8.259003e+002, 1.307806e+003
8.263824e+002, 1.325488e+003
8.268646e+002, 1.328855e+003
8.273467e+002, 1.319870e+003
8.278288e+002, 1.318276e+003
8.283109e+002, 1.328588e+003
8.287930e+002, 1.337345e+003
8.292751e+002, 1.339224e+003
8.297573e+002, 1.343602e+003
8.302394e+002, 1.356556e+003
8.307215e+002, 1.375296e+003
8.312036e+002, 1.395753e+003
8.316857e+002, 1.419977e+003
8.321678e+002, 1.436380e+003
8.326500e+002, 1.435307e+003
8.331321e+002, 1.433047e+003
8.336142e+002, 1.436350e+003
8.340963e+002, 1.445558e+003
8.345784e+002, 1.463445e+003
8.350605e+002, 1.488494e+003
8.355427e+002, 1.509049e+003
8.360248e+002, 1.515508e+003
8.365069e+002, 1.517640e+003
8.369890e+002, 1.520966e+003
8.374711e+002, 1.529204e+003
8.379532e+002, 1.550847e+003
8.384354e+002, 1.585592e+003
8.389175e+002, 1.627675e+003
8.393996e+002, 1.674295e+003
8.398817e+002, 1.718908e+003
8.403638e+002, 1.745569e+003
8.408459e+002, 1.758079e+003
8.413281e+002, 1.789511e+003
8.418102e+002, 1.842023e+003
8.422923e+002, 1.888673e+003
8.427744e+002, 1.916654e+003
8.432565e+002, 1.943952e+003
8.437386e+002, 1.992488e+003
8.442208e+002, 2.060966e+003
8.447029e+002, 2.129520e+003
8.451850e+002, 2.201772e+003
8.456671e+002, 2.264225e+003
8.461492e+002, 2.302210e+003
8.466313e+002, 2.344749e+003
8.471135e+002, 2.417900e+003
8.475956e+002, 2.509626e+003
8.480777e+002, 2.589988e+003
8.485598e+002, 2.649678e+003
8.490419e+002, 2.719472e+003
8.495240e+002, 2.802711e+003
8.500062e+002, 2.898384e+003
8.504883e+002, 3.018582e+003
8.509704e+002, 3.144315e+003
8.514525e+002, 3.247217e+003
8.519346e+002, 3.326223e+003
8.524167e+002, 3.413889e+003
8.528989e+002, 3.535089e+003
8.533810e+002, 3.660525e+003
8.538631e+002, 3.767642e+003
8.543452e+002, 3.865574e+003
8.548273e+002, 3.969973e+003
8.553094e+002, 4.076828e+003
8.557916e+002, 4.164721e+003
8.562737e+002, 4.221474e+003
8.567558e+002, 4.267716e+003
8.572379e+002, 4.340388e+003
8.577200e+002, 4.419869e+003
8.582021e+002, 4.451127e+003
8.586843e+002, 4.436085e+003
8.591664e+002, 4.401323e+003
8.596485e+002, 4.355393e+003
8.601306e+002, 4.300439e+003
8.606127e+002, 4.238744e+003
8.610948e+002, 4.169622e+003
8.615770e+002, 4.091960e+003
8.620591e+002, 4.006083e+003
8.625412e+002, 3.903653e+003
8.630233e+002, 3.780720e+003
8.635054e+002, 3.647137e+003
8.639875e+002, 3.504322e+003
8.644697e+002, 3.360339e+003
8.649518e+002, 3.234018e+003
8.654339e+002, 3.127817e+003
8.659160e+002, 3.032550e+003
8.663981e+002, 2.959738e+003
8.668802e+002, 2.882662e+003
8.673624e+002, 2.793061e+003
8.678445e+002, 2.697147e+003
8.683266e+002, 2.595760e+003
8.688087e+002, 2.491515e+003
8.692908e+002, 2.399815e+003
8.697729e+002, 2.333921e+003
8.702551e+002, 2.266424e+003
8.707372e+002, 2.184565e+003
8.712193e+002, 2.103757e+003
8.717014e+002, 2.032840e+003
8.721835e+002, 1.973211e+003
8.726656e+002, 1.926886e+003
8.731478e+002, 1.894885e+003
8.736299e+002, 1.868295e+003
8.741120e+002, 1.847011e+003
8.745941e+002, 1.824231e+003
8.750762e+002, 1.788369e+003
8.755583e+002, 1.748804e+003
8.760405e+002, 1.723220e+003
8.765226e+002, 1.712766e+003
8.770047e+002, 1.704761e+003
8.774868e+002, 1.691656e+003
8.779689e+002, 1.675283e+003
8.784510e+002, 1.655318e+003
8.789332e+002, 1.634753e+003
8.794153e+002, 1.623513e+003
8.798974e+002, 1.621135e+003
8.803795e+002, 1.618984e+003
8.808616e+002, 1.613528e+003
8.813438e+002, 1.607593e+003
8.818259e+002, 1.605413e+003
8.823080e+002, 1.605633e+003
8.827901e+002, 1.599403e+003
8.832722e+002, 1.586193e+003
8.837543e+002, 1.576000e+003
8.842365e+002, 1.570941e+003
8.847186e+002, 1.568951e+003
8.852007e+002, 1.569705e+003
8.856828e+002, 1.570975e+003
8.861649e+002, 1.566274e+003
8.866470e+002, 1.553257e+003
8.871292e+002, 1.542501e+003
8.876113e+002, 1.531704e+003
8.880934e+002, 1.527940e+003
8.885755e+002, 1.539722e+003
8.890576e+002, 1.554114e+003
8.895397e+002, 1.553837e+003
8.900219e+002, 1.539595e+003
8.905040e+002, 1.536514e+003
8.909861e+002, 1.559807e+003
8.914682e+002, 1.571950e+003
8.919503e+002, 1.557296e+003
8.924324e+002, 1.541935e+003
8.929146e+002, 1.544635e+003
8.933967e+002, 1.556141e+003
8.938788e+002, 1.558140e+003
8.943609e+002, 1.546627e+003
8.948430e+002, 1.536777e+003
8.953251e+002, 1.534497e+003
8.958073e+002, 1.533961e+003
8.962894e+002, 1.530545e+003
8.967715e+002, 1.528167e+003
8.972536e+002, 1.533883e+003
8.977357e+002, 1.545409e+003
8.982178e+002, 1.551897e+003
8.987000e+002, 1.546685e+003
8.991821e+002, 1.541348e+003
8.996642e+002, 1.549213e+003
9.001463e+002, 1.558559e+003
9.006284e+002, 1.550349e+003
9.011105e+002, 1.532724e+003
9.015927e+002, 1.529297e+003
9.020748e+002, 1.545142e+003
9.025569e+002, 1.560974e+003
9.030390e+002, 1.559675e+003
9.035211e+002, 1.550454e+003
9.040032e+002, 1.548258e+003
9.044854e+002, 1.550693e+003
9.049675e+002, 1.550260e+003
9.054496e+002, 1.546624e+003
9.059317e+002, 1.544997e+003
9.064138e+002, 1.548183e+003
9.068959e+002, 1.553924e+003
9.073781e+002, 1.560960e+003
9.078602e+002, 1.567997e+003
9.083423e+002, 1.564797e+003
9.088244e+002, 1.551581e+003
9.093065e+002, 1.541160e+003
9.097886e+002, 1.536524e+003
9.102708e+002, 1.538640e+003
9.107529e+002, 1.549289e+003
9.112350e+002, 1.565520e+003
9.117171e+002, 1.579794e+003
9.121992e+002, 1.593345e+003
9.126814e+002, 1.594618e+003
9.131635e+002, 1.578462e+003
9.136456e+002, 1.565955e+003
9.141277e+002, 1.566739e+003
9.146099e+002, 1.573222e+003
9.150920e+002, 1.576560e+003
9.155741e+002, 1.576819e+003
9.160562e+002, 1.575933e+003
9.165383e+002, 1.572709e+003
9.170204e+002, 1.570647e+003
9.175026e+002, 1.567284e+003
9.179847e+002, 1.568968e+003
9.184668e+002, 1.586614e+003
9.189489e+002, 1.609028e+003
9.194310e+002, 1.612147e+003
9.199131e+002, 1.590349e+003
9.203953e+002, 1.576733e+003
9.208774e+002, 1.577257e+003
9.213595e+002, 1.579920e+003
9.218416e+002, 1.582434e+003
9.223237e+002, 1.585214e+003
9.228058e+002, 1.587701e+003
9.232880e+002, 1.590817e+003
9.237701e+002, 1.598157e+003
9.242522e+002, 1.614147e+003
9.247343e+002, 1.624152e+003
9.252164e+002, 1.616966e+003
9.256985e+002, 1.610305e+003
9.261807e+002, 1.616117e+003
9.266628e+002, 1.627493e+003
9.271449e+002, 1.635492e+003
9.276270e+002, 1.639091e+003
9.281091e+002, 1.642206e+003
9.285912e+002, 1.646441e+003
9.290734e+002, 1.650585e+003
9.295555e+002, 1.652811e+003
9.300376e+002, 1.655517e+003
9.305197e+002, 1.661648e+003
9.310018e+002, 1.670021e+003
9.314839e+002, 1.680498e+003
9.319661e+002, 1.692174e+003
9.324482e+002, 1.694412e+003
9.329303e+002, 1.670322e+003
9.334124e+002, 1.642138e+003
9.338945e+002, 1.631848e+003
9.343766e+002, 1.633140e+003
9.348588e+002, 1.637396e+003
9.353409e+002, 1.643135e+003
9.358230e+002, 1.653406e+003
9.363051e+002, 1.670052e+003
9.367872e+002, 1.680893e+003
9.372693e+002, 1.664350e+003
9.377515e+002, 1.638305e+003
9.382336e+002, 1.636687e+003
9.387157e+002, 1.652823e+003
9.391978e+002, 1.668679e+003
9.396799e+002, 1.678967e+003
9.401620e+002, 1.678469e+003
9.406442e+002, 1.662036e+003
9.411263e+002, 1.641159e+003
9.416084e+002, 1.635293e+003
9.420905e+002, 1.640644e+003
9.425726e+002, 1.644968e+003
9.430547e+002, 1.647530e+003
9.435369e+002, 1.648254e+003
9.440190e+002, 1.647130e+003
9.445011e+002, 1.644993e+003
9.449832e+002, 1.642177e+003
9.454653e+002, 1.639786e+003
9.459474e+002, 1.642308e+003
9.464296e+002, 1.649112e+003
9.469117e+002, 1.650546e+003
9.473938e+002, 1.645565e+003
9.478759e+002, 1.639929e+003
9.483580e+002, 1.635872e+003
9.488401e+002, 1.634703e+003
9.493223e+002, 1.638782e+003
9.498044e+002, 1.647168e+003
9.502865e+002, 1.652847e+003
9.507686e+002, 1.655481e+003
9.512507e+002, 1.658756e+003
9.517328e+002, 1.663252e+003
9.522150e+002, 1.668834e+003
9.526971e+002, 1.676532e+003
9.531792e+002, 1.682469e+003
9.536613e+002, 1.678436e+003
9.541434e+002, 1.663686e+003
9.546255e+002, 1.656063e+003
9.551077e+002, 1.656825e+003
9.555898e+002, 1.660404e+003
9.560719e+002, 1.666330e+003
9.565540e+002, 1.673604e+003
9.570361e+002, 1.683171e+003
9.575182e+002, 1.692044e+003
9.580004e+002, 1.690426e+003
9.584825e+002, 1.672110e+003
9.589646e+002, 1.670402e+003
9.594467e+002, 1.697004e+003
9.599288e+002, 1.715097e+003
9.604109e+002, 1.710123e+003
9.608931e+002, 1.698530e+003
9.613752e+002, 1.693614e+003
9.618573e+002, 1.694746e+003
9.623394e+002, 1.699578e+003
9.628215e+002, 1.714634e+003
9.633036e+002, 1.718881e+003
9.637858e+002, 1.700916e+003
9.642679e+002, 1.688616e+003
9.647500e+002, 1.696648e+003
9.652321e+002, 1.710851e+003
9.657142e+002, 1.715088e+003
9.661964e+002, 1.710378e+003
9.666785e+002, 1.710350e+003
9.671606e+002, 1.716911e+003
9.676427e+002, 1.725140e+003
9.681248e+002, 1.743385e+003
9.686069e+002, 1.753547e+003
9.690891e+002, 1.739461e+003
9.695712e+002, 1.717781e+003
9.700533e+002, 1.710228e+003
9.705354e+002, 1.717421e+003
9.710175e+002, 1.726464e+003
9.714996e+002, 1.742408e+003
9.719818e+002, 1.751343e+003
9.724639e+002, 1.745356e+003
9.729460e+002, 1.737878e+003
9.734281e+002, 1.735406e+003
9.739102e+002, 1.737094e+003
9.743923e+002, 1.741958e+003
9.748745e+002, 1.750141e+003
9.753566e+002, 1.756809e+003
9.758387e+002, 1.758221e+003
9.763208e+002, 1.761958e+003
9.768029e+002, 1.775572e+003
9.772850e+002, 1.786904e+003
9.777672e+002, 1.781123e+003
9.782493e+002, 1.768413e+003
9.787314e+002, 1.772872e+003
9.792135e+002, 1.801223e+003
9.796956e+002, 1.818214e+003
9.801777e+002, 1.806006e+003
9.806599e+002, 1.792639e+003
9.811420e+002, 1.787072e+003
9.816241e+002, 1.786263e+003
9.821062e+002, 1.790347e+003
9.825883e+002, 1.796254e+003
9.830704e+002, 1.795277e+003
9.835526e+002, 1.782404e+003
9.840347e+002, 1.780541e+003
9.845168e+002, 1.810500e+003
9.849989e+002, 1.836604e+003
9.854810e+002, 1.841528e+003
9.859631e+002, 1.834310e+003
9.864453e+002, 1.818153e+003
9.869274e+002, 1.798718e+003
9.874095e+002, 1.789461e+003
9.878916e+002, 1.795005e+003
9.883737e+002, 1.805667e+003
9.888558e+002, 1.825003e+003
9.893380e+002, 1.840199e+003
9.898201e+002, 1.843211e+003
9.903022e+002, 1.838596e+003
9.907843e+002, 1.828706e+003
9.912664e+002, 1.816226e+003
9.917485e+002, 1.807381e+003
9.922307e+002, 1.803563e+003
9.927128e+002, 1.805220e+003
9.931949e+002, 1.817042e+003
9.936770e+002, 1.829510e+003
9.941591e+002, 1.835008e+003
9.946412e+002, 1.838536e+003
9.951234e+002, 1.847083e+003
9.956055e+002, 1.860325e+003
9.960876e+002, 1.872783e+003
9.965697e+002, 1.882410e+003
9.970518e+002, 1.891552e+003
9.975339e+002, 1.903734e+003
9.980161e+002, 1.913274e+003
9.984982e+002, 1.913743e+003
9.989803e+002, 1.910541e+003
9.994624e+002, 1.912021e+003
9.999445e+002, 1.917849e+003
1.000427e+003, 1.920102e+003
1.000909e+003, 1.915480e+003
1.001391e+003, 1.907678e+003
1.001873e+003, 1.885381e+003
1.002355e+003, 1.873848e+003
1.002837e+003, 1.907360e+003
1.003319e+003, 1.954941e+003
1.003801e+003, 1.967851e+003
1.004284e+003, 1.945574e+003
1.004766e+003, 1.933006e+003
1.005248e+003, 1.954801e+003
1.005730e+003, 1.973619e+003
1.006212e+003, 1.965064e+003
1.006694e+003, 1.953803e+003
1.007176e+003, 1.963154e+003
1.007658e+003, 1.979540e+003
1.008141e+003, 1.978775e+003
1.008623e+003, 1.960505e+003
1.009105e+003, 1.948950e+003
1.009587e+003, 1.956226e+003
1.010069e+003, 1.966597e+003
1.010551e+003, 1.976279e+003
1.011033e+003, 1.983036e+003
1.011515e+003, 1.982751e+003
1.011997e+003, 1.979644e+003
1.012480e+003, 1.979581e+003
1.012962e+003, 1.983372e+003
1.013444e+003, 1.989060e+003
1.013926e+003, 1.997254e+003
1.014408e+003, 2.004884e+003
1.014890e+003, 2.012395e+003
1.015372e+003, 2.017089e+003
1.015854e+003, 2.012659e+003
1.016336e+003, 2.006398e+003
1.016819e+003, 2.011720e+003
1.017301e+003, 2.028391e+003
1.017783e+003, 2.038080e+003
1.018265e+003, 2.028839e+003
1.018747e+003, 2.020961e+003
1.019229e+003, 2.024968e+003
1.019711e+003, 2.029872e+003
1.020193e+003, 2.024550e+003
1.020676e+003, 2.017288e+003
1.021158e+003, 2.022318e+003
1.021640e+003, 2.039886e+003
1.022122e+003, 2.054752e+003
1.022604e+003, 2.066693e+003
1.023086e+003, 2.068867e+003
1.023568e+003, 2.047322e+003
1.024050e+003, 2.028000e+003
1.024532e+003, 2.032197e+003
1.025015e+003, 2.045817e+003
1.025497e+003, 2.043649e+003
1.025979e+003, 2.026584e+003
1.026461e+003, 2.028952e+003
1.026943e+003, 2.080918e+003
1.027425e+003, 2.118585e+003
1.027907e+003, 2.118505e+003
1.028389e+003, 2.109002e+003
1.028871e+003, 2.100622e+003
1.029354e+003, 2.095463e+003
1.029836e+003, 2.095156e+003
1.030318e+003, 2.099688e+003
1.030800e+003, 2.107570e+003
1.031282e+003, 2.120860e+003
1.031764e+003, 2.133802e+003
1.032246e+003, 2.149306e+003
1.032728e+003, 2.159936e+003
1.033211e+003, 2.159397e+003
1.033693e+003, 2.153895e+003
1.034175e+003, 2.149153e+003
1.034657e+003, 2.145908e+003
1.035139e+003, 2.147380e+003
1.035621e+003, 2.157853e+003
1.036103e+003, 2.166647e+003
1.036585e+003, 2.169707e+003
1.037068e+003, 2.175017e+003
1.037550e+003, 2.193593e+003
1.038032e+003, 2.210376e+003
1.038514e+003, 2.200929e+003
1.038996e+003, 2.170902e+003
1.039478e+003, 2.167195e+003
1.039960e+003, 2.212493e+003
1.040442e+003, 2.243725e+003
1.040924e+003, 2.252775e+003
1.041406e+003, 2.259374e+003
1.041889e+003, 2.270972e+003
1.042371e+003, 2.282064e+003
1.042853e+003, 2.286153e+003
1.043335e+003, 2.284936e+003
1.043817e+003, 2.287079e+003
1.044299e+003, 2.292785e+003
1.044781e+003, 2.301687e+003
1.045263e+003, 2.316183e+003
1.045746e+003, 2.329043e+003
1.046228e+003, 2.337472e+003
1.046710e+003, 2.344725e+003
1.047192e+003, 2.355412e+003
1.047674e+003, 2.366481e+003
1.048156e+003, 2.365614e+003
1.048638e+003, 2.347299e+003
1.049120e+003, 2.340397e+003
1.049603e+003, 2.349095e+003
1.050085e+003, 2.355290e+003
1.050567e+003, 2.351590e+003
1.051049e+003, 2.351265e+003
1.051531e+003, 2.367464e+003
1.052013e+003, 2.391307e+003
1.052495e+003, 2.396750e+003
1.052977e+003, 2.380437e+003
1.053459e+003, 2.388235e+003
1.053942e+003, 2.425701e+003
1.054424e+003, 2.446761e+003
1.054906e+003, 2.437795e+003
1.055388e+003, 2.427832e+003
1.055870e+003, 2.438113e+003
1.056352e+003, 2.456692e+003
1.056834e+003, 2.457065e+003
1.057316e+003, 2.441641e+003
1.057798e+003, 2.448136e+003
1.058281e+003, 2.476124e+003
1.058763e+003, 2.506978e+003
1.059245e+003, 2.537070e+003
1.059727e+003, 2.547324e+003
1.060209e+003, 2.524676e+003
1.060691e+003, 2.493996e+003
1.061173e+003, 2.492697e+003
1.061655e+003, 2.514312e+003
1.062138e+003, 2.539427e+003
1.062620e+003, 2.565269e+003
1.063102e+003, 2.576860e+003
1.063584e+003, 2.572935e+003
1.064066e+003, 2.559714e+003
1.064548e+003, 2.540157e+003
1.065030e+003, 2.530180e+003
1.065512e+003, 2.554978e+003
1.065995e+003, 2.594502e+003
1.066477e+003, 2.607324e+003
1.066959e+003, 2.602453e+003
1.067441e+003, 2.600127e+003
1.067923e+003, 2.602527e+003
1.068405e+003, 2.606787e+003
1.068887e+003, 2.611704e+003
1.069369e+003, 2.616198e+003
1.069851e+003, 2.617007e+003
1.070333e+003, 2.620664e+003
1.070816e+003, 2.638387e+003
1.071298e+003, 2.661928e+003
1.071780e+003, 2.680415e+003
1.072262e+003, 2.693731e+003
1.072744e+003, 2.703468e+003
1.073226e+003, 2.710607e+003
1.073708e+003, 2.717970e+003
1.074190e+003, 2.727898e+003
1.074673e+003, 2.737155e+003
1.075155e+003, 2.741535e+003
1.075637e+003, 2.745809e+003
1.076119e+003, 2.753930e+003
1.076601e+003, 2.765433e+003
1.077083e+003, 2.782006e+003
1.077565e+003, 2.801490e+003
1.078047e+003, 2.813488e+003
1.078530e+003, 2.811218e+003
1.079012e+003, 2.809235e+003
1.079494e+003, 2.814263e+003
1.079976e+003, 2.820495e+003
1.080458e+003, 2.818637e+003
1.080940e+003, 2.820641e+003
1.081422e+003, 2.844938e+003
1.081904e+003, 2.884992e+003
1.082386e+003, 2.914633e+003
1.082869e+003, 2.928626e+003
1.083351e+003, 2.935747e+003
1.083833e+003, 2.927142e+003
1.084315e+003, 2.925776e+003
1.084797e+003, 2.945199e+003
1.085279e+003, 2.968369e+003
1.085761e+003, 2.982713e+003
1.086243e+003, 2.990990e+003
1.086726e+003, 2.999707e+003
1.087208e+003, 3.009273e+003
1.087690e+003, 3.016076e+003
1.088172e+003, 3.011571e+003
1.088654e+003, 3.023286e+003
1.089136e+003, 3.068041e+003
1.089618e+003, 3.105898e+003
1.090100e+003, 3.112843e+003
1.090583e+003, 3.102784e+003
1.091065e+003, 3.093373e+003
1.091547e+003, 3.085747e+003
1.092029e+003, 3.100099e+003
1.092511e+003, 3.142057e+003
1.092993e+003, 3.171375e+003
1.093475e+003, 3.182448e+003
1.093957e+003, 3.190945e+003
1.094439e+003, 3.203522e+003
1.094922e+003, 3.213945e+003
1.095404e+003, 3.212830e+003
1.095886e+003, 3.209557e+003
1.096368e+003, 3.239103e+003
1.096850e+003, 3.296628e+003
1.097332e+003, 3.335310e+003
1.097814e+003, 3.354139e+003
1.098296e+003, 3.371243e+003
1.098778e+003, 3.391958e+003
1.099261e+003, 3.414804e+003
1.099743e+003, 3.439138e+003
1.100225e+003, 3.462657e+003
1.100707e+003, 3.478307e+003
1.101189e+003, 3.492537e+003
1.101671e+003, 3.523142e+003
1.102153e+003, 3.563619e+003
1.102635e+003, 3.594676e+003
1.103118e+003, 3.615449e+003
1.103600e+003, 3.638136e+003
1.104082e+003, 3.668226e+003
1.104564e+003, 3.704802e+003
1.105046e+003, 3.750090e+003
1.105528e+003, 3.798503e+003
1.106010e+003, 3.845346e+003
1.106492e+003, 3.891036e+003
1.106974e+003, 3.930125e+003
1.107457e+003, 3.970472e+003
1.107939e+003, 4.035646e+003
1.108421e+003, 4.129965e+003
1.108903e+003, 4.209555e+003
1.109385e+003, 4.248124e+003
1.109867e+003, 4.276721e+003
1.110349e+003, 4.312284e+003
1.110831e+003, 4.337930e+003
1.111313e+003, 4.338660e+003
1.111796e+003, 4.323834e+003
1.112278e+003, 4.304860e+003
1.112760e+003, 4.283224e+003
1.113242e+003, 4.260921e+003
1.113724e+003, 4.232411e+003
1.114206e+003, 4.213924e+003
1.114688e+003, 4.217474e+003
1.115170e+003, 4.216192e+003
1.115653e+003, 4.195727e+003
1.116135e+003, 4.175780e+003
1.116617e+003, 4.178287e+003
1.117099e+003, 4.190816e+003
1.117581e+003, 4.173797e+003
1.118063e+003, 4.117917e+003
1.118545e+003, 4.099089e+003
1.119027e+003, 4.128308e+003
1.119510e+003, 4.147098e+003
1.119992e+003, 4.141818e+003
1.120474e+003, 4.136486e+003
1.120956e+003, 4.145106e+003
1.121438e+003, 4.160423e+003
1.121920e+003, 4.171798e+003
1.122402e+003, 4.180309e+003
1.122884e+003, 4.190666e+003
1.123366e+003, 4.202705e+003
1.123849e+003, 4.212895e+003
1.124331e+003, 4.222479e+003
1.124813e+003, 4.248993e+003
1.125295e+003, 4.297386e+003
1.125777e+003, 4.342721e+003
1.126259e+003, 4.364421e+003
1.126741e+003, 4.371909e+003
1.127223e+003, 4.367801e+003
1.127705e+003, 4.366416e+003
1.128188e+003, 4.401996e+003
1.128670e+003, 4.457479e+003
1.129152e+003, 4.491399e+003
1.129634e+003, 4.500689e+003
1.130116e+003, 4.512523e+003
1.130598e+003, 4.540758e+003
1.131080e+003, 4.562731e+003
1.131562e+003, 4.550297e+003
1.132045e+003, 4.541748e+003
1.132527e+003, 4.570316e+003
1.133009e+003, 4.610764e+003
1.133491e+003, 4.640588e+003
1.133973e+003, 4.659377e+003
1.134455e+003, 4.668258e+003
1.134937e+003, 4.666482e+003
1.135419e+003, 4.679982e+003
1.135901e+003, 4.728723e+003
1.136384e+003, 4.770688e+003
1.136866e+003, 4.799612e+003
1.137348e+003, 4.818399e+003
1.137830e+003, 4.822482e+003
1.138312e+003, 4.822703e+003
1.138794e+003, 4.828005e+003
1.139276e+003, 4.840076e+003
1.139758e+003, 4.868884e+003
1.140240e+003, 4.918656e+003
1.140723e+003, 4.972219e+003
1.141205e+003, 5.035577e+003
1.141687e+003, 5.071250e+003
1.142169e+003, 5.064801e+003
1.142651e+003, 5.056279e+003
1.143133e+003, 5.073381e+003
1.143615e+003, 5.104991e+003
1.144097e+003, 5.133531e+003
1.144580e+003, 5.159735e+003
1.145062e+003, 5.192645e+003
1.145544e+003, 5.227519e+003
1.146026e+003, 5.233459e+003
1.146508e+003, 5.214030e+003
1.146990e+003, 5.208427e+003
1.147472e+003, 5.231753e+003
1.147954e+003, 5.277150e+003
1.148437e+003, 5.350491e+003
1.148919e+003, 5.418969e+003
1.149401e+003, 5.439826e+003
1.149883e+003, 5.438670e+003
1.150365e+003, 5.444566e+003
1.150847e+003, 5.455116e+003
1.151329e+003, 5.460060e+003
1.151811e+003, 5.460275e+003
1.152293e+003, 5.465927e+003
1.152776e+003, 5.479599e+003
1.153258e+003, 5.502977e+003
1.153740e+003, 5.547373e+003
1.154222e+003, 5.587889e+003
1.154704e+003, 5.606862e+003
1.155186e+003, 5.624288e+003
1.155668e+003, 5.660979e+003
1.156150e+003, 5.706035e+003
1.156632e+003, 5.734292e+003
1.157115e+003, 5.744571e+003
1.157597e+003, 5.765876e+003
1.158079e+003, 5.805208e+003
1.158561e+003, 5.837553e+003
1.159043e+003, 5.859019e+003
1.159525e+003, 5.878503e+003
1.160007e+003, 5.899013e+003
1.160489e+003, 5.920163e+003
1.160972e+003, 5.942877e+003
1.161454e+003, 5.963544e+003
1.161936e+003, 5.971571e+003
1.162418e+003, 5.968443e+003
1.162900e+003, 5.962832e+003
1.163382e+003, 5.958154e+003
1.163864e+003, 5.987429e+003
1.164346e+003, 6.050386e+003
1.164828e+003, 6.093644e+003
1.165311e+003, 6.091672e+003
1.165793e+003, 6.086018e+003
1.166275e+003, 6.123496e+003
1.166757e+003, 6.172683e+003
1.167239e+003, 6.193587e+003
1.167721e+003, 6.201714e+003
1.168203e+003, 6.214360e+003
1.168685e+003, 6.232764e+003
1.169167e+003, 6.260508e+003
1.169650e+003, 6.293753e+003
1.170132e+003, 6.309650e+003
1.170614e+003, 6.291268e+003
1.171096e+003, 6.278419e+003
1.171578e+003, 6.282002e+003
1.172060e+003, 6.297796e+003
1.172542e+003, 6.335872e+003
1.173024e+003, 6.374393e+003
1.173507e+003, 6.392000e+003
1.173989e+003, 6.398346e+003
1.174471e+003, 6.413104e+003
1.174953e+003, 6.436676e+003
1.175435e+003, 6.462250e+003
1.175917e+003, 6.493999e+003
1.176399e+003, 6.510714e+003
1.176881e+003, 6.506137e+003
1.177364e+003, 6.507107e+003
1.177846e+003, 6.525040e+003
1.178328e+003, 6.544651e+003
1.178810e+003, 6.551126e+003
1.179292e+003, 6.552428e+003
1.179774e+003, 6.566240e+003
1.180256e+003, 6.589420e+003
1.180738e+003, 6.614678e+003
1.181220e+003, 6.638637e+003
1.181703e+003, 6.644300e+003
1.182185e+003, 6.636040e+003
1.182667e+003, 6.647281e+003
1.183149e+003, 6.691147e+003
1.183631e+003, 6.734316e+003
1.184113e+003, 6.748397e+003
1.184595e+003, 6.756042e+003
1.185077e+003, 6.771511e+003
1.185559e+003, 6.792044e+003
1.186042e+003, 6.820034e+003
1.186524e+003, 6.848527e+003
1.187006e+003, 6.863930e+003
1.187488e+003, 6.869256e+003
1.187970e+003, 6.887194e+003
1.188452e+003, 6.927996e+003
1.188934e+003, 6.962768e+003
1.189416e+003, 6.987731e+003
1.189899e+003, 7.008982e+003
1.190381e+003, 7.028555e+003
1.190863e+003, 7.040997e+003
1.191345e+003, 7.035520e+003
1.191827e+003, 7.036208e+003
1.192309e+003, 7.084300e+003
1.192791e+003, 7.166157e+003
1.193273e+003, 7.203052e+003
1.193755e+003, 7.198025e+003
1.194238e+003, 7.210760e+003
1.194720e+003, 7.243136e+003
1.195202e+003, 7.270670e+003
1.195684e+003, 7.287361e+003
1.196166e+003, 7.302711e+003
1.196648e+003, 7.322198e+003
1.197130e+003, 7.347321e+003
1.197612e+003, 7.381166e+003
1.198094e+003, 7.420314e+003
1.198577e+003, 7.463273e+003
1.199059e+003, 7.507326e+003
1.199541e+003, 7.553627e+003
1.200023e+003, 7.596358e+003
1.200505e+003, 7.621285e+003
1.200987e+003, 7.627635e+003
1.201469e+003, 7.637794e+003
1.201951e+003, 7.632806e+003
1.202434e+003, 7.678415e+003
1.202916e+003, 7.815840e+003
1.203398e+003, 7.969748e+003
1.203880e+003, 8.178250e+003
1.204362e+003, 8.307184e+003
1.204844e+003, 8.221286e+003
1.205326e+003, 8.031021e+003
1.205808e+003, 7.952659e+003
1.206291e+003, 7.980688e+003
1.206773e+003, 8.018079e+003
1.207255e+003, 8.065353e+003
1.207737e+003, 8.092570e+003
1.208219e+003, 8.098827e+003
1.208701e+003, 8.131110e+003
1.209183e+003, 8.203493e+003
1.209665e+003, 8.277228e+003
1.210147e+003, 8.323708e+003
1.210630e+003, 8.357237e+003
1.211112e+003, 8.391207e+003
1.211594e+003, 8.426980e+003
1.212076e+003, 8.462184e+003
1.212558e+003, 8.502934e+003
1.213040e+003, 8.565225e+003
1.213522e+003, 8.638354e+003
1.214004e+003, 8.692022e+003
1.214486e+003, 8.720635e+003
1.214969e+003, 8.759809e+003
1.215451e+003, 8.826140e+003
1.215933e+003, 8.893913e+003
1.216415e+003, 8.968424e+003
1.216897e+003, 9.030083e+003
1.217379e+003, 9.059562e+003
1.217861e+003, 9.092402e+003
1.218343e+003, 9.162019e+003
1.218826e+003, 9.248066e+003
1.219308e+003, 9.305761e+003
1.219790e+003, 9.337903e+003
1.220272e+003, 9.398284e+003
1.220754e+003, 9.484339e+003
1.221236e+003, 9.524564e+003
1.221718e+003, 9.518206e+003
1.222200e+003, 9.541113e+003
1.222682e+003, 9.616322e+003
1.223165e+003, 9.705296e+003
1.223647e+003, 9.781979e+003
1.224129e+003, 9.851505e+003
1.224611e+003, 9.922121e+003
1.225093e+003, 9.985537e+003
1.225575e+003, 1.001759e+004
1.226057e+003, 1.004855e+004
1.226539e+003, 1.011715e+004
1.227021e+003, 1.021569e+004
1.227504e+003, 1.032526e+004
1.227986e+003, 1.044170e+004
1.228468e+003, 1.054434e+004
1.228950e+003, 1.061779e+004
1.229432e+003, 1.069697e+004
1.229914e+003, 1.078291e+004
1.230396e+003, 1.087583e+004
1.230878e+003, 1.097557e+004
1.231361e+003, 1.108282e+004
1.231843e+003, 1.119814e+004
1.232325e+003, 1.132080e+004
1.232807e+003, 1.144983e+004
1.233289e+003, 1.158229e+004
1.233771e+003, 1.169901e+004
1.234253e+003, 1.180727e+004
1.234735e+003, 1.195200e+004
1.235218e+003, 1.212070e+004
1.235700e+003, 1.223966e+004
1.236182e+003, 1.230149e+004
1.236664e+003, 1.238107e+004
1.237146e+003, 1.251810e+004
1.237628e+003, 1.268092e+004
1.238110e+003, 1.286585e+004
1.238592e+003, 1.304740e+004
1.239074e+003, 1.320402e+004
1.239557e+003, 1.335830e+004
1.240039e+003, 1.353425e+004
1.240521e+003, 1.371939e+004
1.241003e+003, 1.388932e+004
1.241485e+003, 1.404588e+004
1.241967e+003, 1.419988e+004
1.242449e+003, 1.433884e+004
1.242931e+003, 1.452986e+004
1.243413e+003, 1.478660e+004
1.243896e+003, 1.500811e+004
1.244378e+003, 1.516996e+004
1.244860e+003, 1.533348e+004
1.245342e+003, 1.553142e+004
1.245824e+003, 1.574452e+004
1.246306e+003, 1.595850e+004
1.246788e+003, 1.616137e+004
1.247270e+003, 1.632168e+004
1.247753e+003, 1.646593e+004
1.248235e+003, 1.665017e+004
1.248717e+003, 1.684521e+004
1.249199e+003, 1.698800e+004
1.249681e+003, 1.708609e+004
1.250163e+003, 1.719179e+004
1.250645e+003, 1.731780e+004
1.251127e+003, 1.746215e+004
1.251609e+003, 1.766895e+004
1.252092e+003, 1.782360e+004
1.252574e+003, 1.786550e+004
1.253056e+003, 1.792080e+004
1.253538e+003, 1.804899e+004
1.254020e+003, 1.818578e+004
1.254502e+003, 1.827503e+004
1.254984e+003, 1.833286e+004
1.255466e+003, 1.839678e+004
1.255948e+003, 1.846187e+004
1.256431e+003, 1.849449e+004
1.256913e+003, 1.849956e+004
1.257395e+003, 1.849686e+004
1.257877e+003, 1.848884e+004
1.258359e+003, 1.847751e+004
1.258841e+003, 1.846061e+004
1.259323e+003, 1.841638e+004
1.259805e+003, 1.832199e+004
1.260288e+003, 1.823633e+004
1.260770e+003, 1.821020e+004
1.261252e+003, 1.818454e+004
1.261734e+003, 1.812359e+004
1.262216e+003, 1.805092e+004
1.262698e+003, 1.799709e+004
1.263180e+003, 1.793707e+004
1.263662e+003, 1.782364e+004
1.264145e+003, 1.766799e+004
1.264627e+003, 1.755586e+004
1.265109e+003, 1.749660e+004
1.265591e+003, 1.740228e+004
1.266073e+003, 1.727132e+004
1.266555e+003, 1.715073e+004
1.267037e+003, 1.704950e+004
1.267519e+003, 1.693482e+004
1.268001e+003, 1.679113e+004
1.268484e+003, 1.663928e+004
1.268966e+003, 1.649495e+004
1.269448e+003, 1.636015e+004
1.269930e+003, 1.623629e+004
1.270412e+003, 1.612317e+004
1.270894e+003, 1.603966e+004
1.271376e+003, 1.595171e+004
1.271858e+003, 1.579708e+004
1.272340e+003, 1.560206e+004
1.272823e+003, 1.544761e+004
1.273305e+003, 1.534552e+004
##END=



