##NAMES=Jeremejevite
##RRUFFID=R060533
##IDEAL CHEMISTRY=Al_6_(BO_3_)_5_F_3_
##LOCALITY=Erongo Mountains, Nambia
##OWNER=RRUFF
##SOURCE=Gemological Institute of America
##DESCRIPTION=Pale blue fragments of hexagonal prisms
##STATUS=The identification of this mineral has been confirmed by X-ray diffraction and chemical analysis
##URL=rruff.info/R060533
##MEASURED CHEMISTRY=Al_6.00_(BO_3_)_5_(F_2.22_(OH)_0.78_)_3.00_  ; B and H not measured but estimated by difference and charge balance
9.059570e+001, 1.073780e+003
9.107782e+001, 1.076390e+003
9.155994e+001, 1.077370e+003
9.204205e+001, 1.076310e+003
9.252417e+001, 1.073858e+003
9.300629e+001, 1.070088e+003
9.348840e+001, 1.059627e+003
9.397052e+001, 1.036450e+003
9.445264e+001, 9.995922e+002
9.493475e+001, 9.617167e+002
9.541687e+001, 9.275616e+002
9.589898e+001, 8.970456e+002
9.638110e+001, 8.703084e+002
9.686321e+001, 8.481751e+002
9.734533e+001, 8.303828e+002
9.782745e+001, 8.138162e+002
9.830956e+001, 7.959916e+002
9.879168e+001, 7.740696e+002
9.927380e+001, 7.545959e+002
9.975591e+001, 7.400847e+002
1.002380e+002, 7.291174e+002
1.007201e+002, 7.182778e+002
1.012023e+002, 7.054644e+002
1.016844e+002, 6.910995e+002
1.021665e+002, 6.775482e+002
1.026486e+002, 6.640740e+002
1.031307e+002, 6.516325e+002
1.036128e+002, 6.413678e+002
1.040950e+002, 6.333837e+002
1.045771e+002, 6.263954e+002
1.050592e+002, 6.198099e+002
1.055413e+002, 6.133985e+002
1.060234e+002, 6.068553e+002
1.065055e+002, 5.991867e+002
1.069877e+002, 5.910767e+002
1.074698e+002, 5.857264e+002
1.079519e+002, 5.862379e+002
1.084340e+002, 5.856536e+002
1.089161e+002, 5.813065e+002
1.093982e+002, 5.736212e+002
1.098804e+002, 5.638977e+002
1.103625e+002, 5.525021e+002
1.108446e+002, 5.385502e+002
1.113267e+002, 5.278813e+002
1.118088e+002, 5.225120e+002
1.122909e+002, 5.184121e+002
1.127731e+002, 5.139813e+002
1.132552e+002, 5.088937e+002
1.137373e+002, 5.035586e+002
1.142194e+002, 4.985906e+002
1.147015e+002, 4.938750e+002
1.151836e+002, 4.897961e+002
1.156658e+002, 4.870638e+002
1.161479e+002, 4.846025e+002
1.166300e+002, 4.811463e+002
1.171121e+002, 4.761783e+002
1.175942e+002, 4.705591e+002
1.180763e+002, 4.664954e+002
1.185584e+002, 4.646043e+002
1.190406e+002, 4.625550e+002
1.195227e+002, 4.595176e+002
1.200048e+002, 4.557852e+002
1.204869e+002, 4.520950e+002
1.209690e+002, 4.486704e+002
1.214511e+002, 4.456257e+002
1.219333e+002, 4.429326e+002
1.224154e+002, 4.404438e+002
1.228975e+002, 4.385392e+002
1.233796e+002, 4.377790e+002
1.238617e+002, 4.382785e+002
1.243438e+002, 4.388933e+002
1.248260e+002, 4.399958e+002
1.253081e+002, 4.405973e+002
1.257902e+002, 4.394604e+002
1.262723e+002, 4.357664e+002
1.267544e+002, 4.305876e+002
1.272365e+002, 4.262988e+002
1.277187e+002, 4.230112e+002
1.282008e+002, 4.205637e+002
1.286829e+002, 4.190932e+002
1.291650e+002, 4.182167e+002
1.296471e+002, 4.174590e+002
1.301292e+002, 4.165291e+002
1.306114e+002, 4.154434e+002
1.310935e+002, 4.144268e+002
1.315756e+002, 4.137670e+002
1.320577e+002, 4.128979e+002
1.325398e+002, 4.118895e+002
1.330219e+002, 4.105805e+002
1.335041e+002, 4.086263e+002
1.339862e+002, 4.056354e+002
1.344683e+002, 4.013478e+002
1.349504e+002, 3.976506e+002
1.354325e+002, 3.946700e+002
1.359146e+002, 3.920356e+002
1.363968e+002, 3.896120e+002
1.368789e+002, 3.873599e+002
1.373610e+002, 3.852364e+002
1.378431e+002, 3.832480e+002
1.383252e+002, 3.814193e+002
1.388073e+002, 3.795539e+002
1.392895e+002, 3.773699e+002
1.397716e+002, 3.752414e+002
1.402537e+002, 3.738334e+002
1.407358e+002, 3.734844e+002
1.412179e+002, 3.731227e+002
1.417000e+002, 3.711459e+002
1.421821e+002, 3.677263e+002
1.426643e+002, 3.642453e+002
1.431464e+002, 3.611887e+002
1.436285e+002, 3.585070e+002
1.441106e+002, 3.560016e+002
1.445927e+002, 3.536498e+002
1.450748e+002, 3.514765e+002
1.455570e+002, 3.494160e+002
1.460391e+002, 3.474747e+002
1.465212e+002, 3.457515e+002
1.470033e+002, 3.444200e+002
1.474854e+002, 3.435261e+002
1.479675e+002, 3.425561e+002
1.484497e+002, 3.413701e+002
1.489318e+002, 3.400906e+002
1.494139e+002, 3.388053e+002
1.498960e+002, 3.375302e+002
1.503781e+002, 3.361514e+002
1.508602e+002, 3.344644e+002
1.513424e+002, 3.322103e+002
1.518245e+002, 3.301864e+002
1.523066e+002, 3.282205e+002
1.527887e+002, 3.265843e+002
1.532708e+002, 3.255296e+002
1.537529e+002, 3.251491e+002
1.542351e+002, 3.252719e+002
1.547172e+002, 3.254790e+002
1.551993e+002, 3.256890e+002
1.556814e+002, 3.261138e+002
1.561635e+002, 3.266388e+002
1.566456e+002, 3.274131e+002
1.571278e+002, 3.285753e+002
1.576099e+002, 3.301871e+002
1.580920e+002, 3.322711e+002
1.585741e+002, 3.349977e+002
1.590562e+002, 3.388883e+002
1.595383e+002, 3.427330e+002
1.600205e+002, 3.466823e+002
1.605026e+002, 3.504015e+002
1.609847e+002, 3.530285e+002
1.614668e+002, 3.538376e+002
1.619489e+002, 3.532520e+002
1.624310e+002, 3.533433e+002
1.629131e+002, 3.542544e+002
1.633953e+002, 3.556176e+002
1.638774e+002, 3.572037e+002
1.643595e+002, 3.590317e+002
1.648416e+002, 3.612487e+002
1.653237e+002, 3.638485e+002
1.658058e+002, 3.670050e+002
1.662880e+002, 3.709713e+002
1.667701e+002, 3.758836e+002
1.672522e+002, 3.815599e+002
1.677343e+002, 3.878838e+002
1.682164e+002, 3.949159e+002
1.686985e+002, 4.022598e+002
1.691807e+002, 4.091469e+002
1.696628e+002, 4.162729e+002
1.701449e+002, 4.246146e+002
1.706270e+002, 4.342150e+002
1.711091e+002, 4.454054e+002
1.715912e+002, 4.586983e+002
1.720734e+002, 4.733083e+002
1.725555e+002, 4.920016e+002
1.730376e+002, 5.136300e+002
1.735197e+002, 5.395950e+002
1.740018e+002, 5.715641e+002
1.744839e+002, 6.091422e+002
1.749661e+002, 6.535348e+002
1.754482e+002, 7.115786e+002
1.759303e+002, 7.811979e+002
1.764124e+002, 8.702810e+002
1.768945e+002, 9.883466e+002
1.773766e+002, 1.126168e+003
1.778588e+002, 1.275886e+003
1.783409e+002, 1.443934e+003
1.788230e+002, 1.631493e+003
1.793051e+002, 1.692855e+003
1.797872e+002, 1.542030e+003
1.802693e+002, 1.351400e+003
1.807515e+002, 1.139500e+003
1.812336e+002, 9.253439e+002
1.817157e+002, 7.373577e+002
1.821978e+002, 6.002498e+002
1.826799e+002, 5.180351e+002
1.831620e+002, 4.553380e+002
1.836441e+002, 4.160004e+002
1.841263e+002, 3.875734e+002
1.846084e+002, 3.668849e+002
1.850905e+002, 3.524939e+002
1.855726e+002, 3.419935e+002
1.860547e+002, 3.335079e+002
1.865368e+002, 3.273295e+002
1.870190e+002, 3.224462e+002
1.875011e+002, 3.187436e+002
1.879832e+002, 3.163589e+002
1.884653e+002, 3.156015e+002
1.889474e+002, 3.164713e+002
1.894296e+002, 3.183430e+002
1.899117e+002, 3.207308e+002
1.903938e+002, 3.236607e+002
1.908759e+002, 3.272368e+002
1.913580e+002, 3.328162e+002
1.918401e+002, 3.384191e+002
1.923223e+002, 3.425153e+002
1.928044e+002, 3.452541e+002
1.932865e+002, 3.447530e+002
1.937686e+002, 3.366457e+002
1.942507e+002, 3.231468e+002
1.947328e+002, 3.105566e+002
1.952150e+002, 3.004277e+002
1.956971e+002, 2.925108e+002
1.961792e+002, 2.865006e+002
1.966613e+002, 2.828256e+002
1.971434e+002, 2.801686e+002
1.976255e+002, 2.776473e+002
1.981077e+002, 2.752738e+002
1.985898e+002, 2.731821e+002
1.990719e+002, 2.713783e+002
1.995540e+002, 2.698853e+002
2.000361e+002, 2.687972e+002
2.005182e+002, 2.680258e+002
2.010004e+002, 2.678729e+002
2.014825e+002, 2.686318e+002
2.019646e+002, 2.700631e+002
2.024467e+002, 2.715740e+002
2.029288e+002, 2.726780e+002
2.034109e+002, 2.734206e+002
2.038930e+002, 2.745287e+002
2.043752e+002, 2.759138e+002
2.048573e+002, 2.778380e+002
2.053394e+002, 2.802782e+002
2.058215e+002, 2.832914e+002
2.063036e+002, 2.870086e+002
2.067857e+002, 2.915302e+002
2.072679e+002, 2.968639e+002
2.077500e+002, 3.028647e+002
2.082321e+002, 3.134255e+002
2.087142e+002, 3.210623e+002
2.091963e+002, 3.234561e+002
2.096784e+002, 3.207466e+002
2.101606e+002, 3.138112e+002
2.106427e+002, 3.027379e+002
2.111248e+002, 2.868015e+002
2.116069e+002, 2.738249e+002
2.120890e+002, 2.643602e+002
2.125711e+002, 2.569942e+002
2.130533e+002, 2.516123e+002
2.135354e+002, 2.479445e+002
2.140175e+002, 2.455124e+002
2.144996e+002, 2.440218e+002
2.149817e+002, 2.436817e+002
2.154638e+002, 2.427990e+002
2.159460e+002, 2.408486e+002
2.164281e+002, 2.389449e+002
2.169102e+002, 2.377331e+002
2.173923e+002, 2.371449e+002
2.178744e+002, 2.366054e+002
2.183565e+002, 2.355629e+002
2.188387e+002, 2.339246e+002
2.193208e+002, 2.326837e+002
2.198029e+002, 2.318267e+002
2.202850e+002, 2.313115e+002
2.207671e+002, 2.312960e+002
2.212492e+002, 2.317028e+002
2.217314e+002, 2.320562e+002
2.222135e+002, 2.318819e+002
2.226956e+002, 2.311453e+002
2.231777e+002, 2.308306e+002
2.236598e+002, 2.312582e+002
2.241419e+002, 2.318652e+002
2.246240e+002, 2.322006e+002
2.251062e+002, 2.322517e+002
2.255883e+002, 2.323311e+002
2.260704e+002, 2.326619e+002
2.265525e+002, 2.332578e+002
2.270346e+002, 2.340435e+002
2.275167e+002, 2.347593e+002
2.279989e+002, 2.358239e+002
2.284810e+002, 2.375771e+002
2.289631e+002, 2.400298e+002
2.294452e+002, 2.431339e+002
2.299273e+002, 2.469235e+002
2.304094e+002, 2.513680e+002
2.308916e+002, 2.564039e+002
2.313737e+002, 2.634015e+002
2.318558e+002, 2.702111e+002
2.323379e+002, 2.750581e+002
2.328200e+002, 2.781591e+002
2.333021e+002, 2.777563e+002
2.337843e+002, 2.702174e+002
2.342664e+002, 2.587468e+002
2.347485e+002, 2.478278e+002
2.352306e+002, 2.378390e+002
2.357127e+002, 2.295085e+002
2.361948e+002, 2.241674e+002
2.366770e+002, 2.223173e+002
2.371591e+002, 2.212874e+002
2.376412e+002, 2.198875e+002
2.381233e+002, 2.184756e+002
2.386054e+002, 2.175616e+002
2.390875e+002, 2.175608e+002
2.395697e+002, 2.177478e+002
2.400518e+002, 2.167553e+002
2.405339e+002, 2.140757e+002
2.410160e+002, 2.118398e+002
2.414981e+002, 2.112009e+002
2.419802e+002, 2.112466e+002
2.424624e+002, 2.111610e+002
2.429445e+002, 2.106462e+002
2.434266e+002, 2.099612e+002
2.439087e+002, 2.095810e+002
2.443908e+002, 2.096454e+002
2.448729e+002, 2.096326e+002
2.453550e+002, 2.093453e+002
2.458372e+002, 2.089533e+002
2.463193e+002, 2.085628e+002
2.468014e+002, 2.082022e+002
2.472835e+002, 2.079284e+002
2.477656e+002, 2.079173e+002
2.482477e+002, 2.084418e+002
2.487299e+002, 2.085488e+002
2.492120e+002, 2.076838e+002
2.496941e+002, 2.066209e+002
2.501762e+002, 2.059393e+002
2.506583e+002, 2.058163e+002
2.511404e+002, 2.060490e+002
2.516226e+002, 2.063262e+002
2.521047e+002, 2.066831e+002
2.525868e+002, 2.070027e+002
2.530689e+002, 2.074195e+002
2.535510e+002, 2.077147e+002
2.540331e+002, 2.076716e+002
2.545153e+002, 2.072596e+002
2.549974e+002, 2.066939e+002
2.554795e+002, 2.062703e+002
2.559616e+002, 2.059341e+002
2.564437e+002, 2.058987e+002
2.569258e+002, 2.062468e+002
2.574080e+002, 2.067722e+002
2.578901e+002, 2.073658e+002
2.583722e+002, 2.079962e+002
2.588543e+002, 2.086792e+002
2.593364e+002, 2.094445e+002
2.598185e+002, 2.103419e+002
2.603007e+002, 2.111979e+002
2.607828e+002, 2.115081e+002
2.612649e+002, 2.121658e+002
2.617470e+002, 2.137923e+002
2.622291e+002, 2.164087e+002
2.627112e+002, 2.195227e+002
2.631934e+002, 2.225402e+002
2.636755e+002, 2.251924e+002
2.641576e+002, 2.288357e+002
2.646397e+002, 2.332012e+002
2.651218e+002, 2.385291e+002
2.656039e+002, 2.450589e+002
2.660861e+002, 2.527017e+002
2.665682e+002, 2.613136e+002
2.670503e+002, 2.710965e+002
2.675324e+002, 2.826836e+002
2.680145e+002, 2.907828e+002
2.684966e+002, 2.954574e+002
2.689788e+002, 2.974437e+002
2.694609e+002, 2.957830e+002
2.699430e+002, 2.913832e+002
2.704251e+002, 2.869878e+002
2.709072e+002, 2.850805e+002
2.713893e+002, 2.858524e+002
2.718715e+002, 2.835198e+002
2.723536e+002, 2.785194e+002
2.728357e+002, 2.707919e+002
2.733178e+002, 2.584828e+002
2.737999e+002, 2.431675e+002
2.742820e+002, 2.286837e+002
2.747642e+002, 2.175139e+002
2.752463e+002, 2.095188e+002
2.757284e+002, 2.034811e+002
2.762105e+002, 1.996457e+002
2.766926e+002, 1.969258e+002
2.771747e+002, 1.954097e+002
2.776568e+002, 1.947292e+002
2.781389e+002, 1.941337e+002
2.786211e+002, 1.931905e+002
2.791032e+002, 1.920577e+002
2.795853e+002, 1.914457e+002
2.800674e+002, 1.915050e+002
2.805495e+002, 1.917805e+002
2.810316e+002, 1.921552e+002
2.815138e+002, 1.926715e+002
2.819959e+002, 1.934549e+002
2.824780e+002, 1.945908e+002
2.829601e+002, 1.959231e+002
2.834422e+002, 1.970032e+002
2.839243e+002, 1.976082e+002
2.844065e+002, 1.984248e+002
2.848886e+002, 1.994914e+002
2.853707e+002, 2.008792e+002
2.858528e+002, 2.026796e+002
2.863349e+002, 2.049237e+002
2.868170e+002, 2.076109e+002
2.872992e+002, 2.108328e+002
2.877813e+002, 2.146237e+002
2.882634e+002, 2.187026e+002
2.887455e+002, 2.234492e+002
2.892276e+002, 2.282758e+002
2.897097e+002, 2.326839e+002
2.901919e+002, 2.365935e+002
2.906740e+002, 2.394764e+002
2.911561e+002, 2.405739e+002
2.916382e+002, 2.397330e+002
2.921203e+002, 2.380002e+002
2.926024e+002, 2.344075e+002
2.930846e+002, 2.305613e+002
2.935667e+002, 2.278244e+002
2.940488e+002, 2.263789e+002
2.945309e+002, 2.261680e+002
2.950130e+002, 2.272155e+002
2.954951e+002, 2.296435e+002
2.959773e+002, 2.329994e+002
2.964594e+002, 2.373801e+002
2.969415e+002, 2.426062e+002
2.974236e+002, 2.483809e+002
2.979057e+002, 2.547321e+002
2.983878e+002, 2.622814e+002
2.988700e+002, 2.715677e+002
2.993521e+002, 2.825742e+002
2.998342e+002, 2.941758e+002
3.003163e+002, 3.079459e+002
3.007984e+002, 3.207854e+002
3.012805e+002, 3.329403e+002
3.017627e+002, 3.433815e+002
3.022448e+002, 3.477817e+002
3.027269e+002, 3.435122e+002
3.032090e+002, 3.315029e+002
3.036911e+002, 3.154748e+002
3.041732e+002, 2.927505e+002
3.046554e+002, 2.706722e+002
3.051375e+002, 2.515554e+002
3.056196e+002, 2.354925e+002
3.061017e+002, 2.229231e+002
3.065838e+002, 2.143120e+002
3.070659e+002, 2.087910e+002
3.075481e+002, 2.050301e+002
3.080302e+002, 2.029582e+002
3.085123e+002, 2.020455e+002
3.089944e+002, 2.023101e+002
3.094765e+002, 2.035873e+002
3.099586e+002, 2.057836e+002
3.104408e+002, 2.089867e+002
3.109229e+002, 2.125847e+002
3.114050e+002, 2.157343e+002
3.118871e+002, 2.184317e+002
3.123692e+002, 2.212350e+002
3.128513e+002, 2.244431e+002
3.133335e+002, 2.277217e+002
3.138156e+002, 2.305570e+002
3.142977e+002, 2.328441e+002
3.147798e+002, 2.352363e+002
3.152619e+002, 2.382364e+002
3.157440e+002, 2.418994e+002
3.162262e+002, 2.463041e+002
3.167083e+002, 2.510361e+002
3.171904e+002, 2.568150e+002
3.176725e+002, 2.644594e+002
3.181546e+002, 2.739355e+002
3.186367e+002, 2.841261e+002
3.191188e+002, 2.941918e+002
3.196010e+002, 3.044604e+002
3.200831e+002, 3.161953e+002
3.205652e+002, 3.286312e+002
3.210473e+002, 3.432540e+002
3.215294e+002, 3.602369e+002
3.220115e+002, 3.798810e+002
3.224937e+002, 4.033974e+002
3.229758e+002, 4.308378e+002
3.234579e+002, 4.630988e+002
3.239400e+002, 5.013575e+002
3.244221e+002, 5.448821e+002
3.249042e+002, 5.943329e+002
3.253864e+002, 6.524015e+002
3.258685e+002, 7.162689e+002
3.263506e+002, 7.832765e+002
3.268327e+002, 8.542458e+002
3.273148e+002, 9.224902e+002
3.277969e+002, 9.810693e+002
3.282791e+002, 1.034989e+003
3.287612e+002, 1.059165e+003
3.292433e+002, 1.043965e+003
3.297254e+002, 9.986345e+002
3.302075e+002, 9.266879e+002
3.306896e+002, 8.287187e+002
3.311718e+002, 7.239773e+002
3.316539e+002, 6.282000e+002
3.321360e+002, 5.425370e+002
3.326181e+002, 4.698257e+002
3.331002e+002, 4.133253e+002
3.335823e+002, 3.678760e+002
3.340645e+002, 3.313307e+002
3.345466e+002, 3.031294e+002
3.350287e+002, 2.803808e+002
3.355108e+002, 2.618415e+002
3.359929e+002, 2.473586e+002
3.364750e+002, 2.349277e+002
3.369572e+002, 2.244632e+002
3.374393e+002, 2.156947e+002
3.379214e+002, 2.089173e+002
3.384035e+002, 2.037318e+002
3.388856e+002, 1.994084e+002
3.393677e+002, 1.957063e+002
3.398499e+002, 1.924321e+002
3.403320e+002, 1.890494e+002
3.408141e+002, 1.850235e+002
3.412962e+002, 1.818418e+002
3.417783e+002, 1.803422e+002
3.422604e+002, 1.796404e+002
3.427426e+002, 1.786004e+002
3.432247e+002, 1.769021e+002
3.437068e+002, 1.749610e+002
3.441889e+002, 1.733149e+002
3.446710e+002, 1.719805e+002
3.451531e+002, 1.710399e+002
3.456353e+002, 1.709055e+002
3.461174e+002, 1.708901e+002
3.465995e+002, 1.702505e+002
3.470816e+002, 1.690510e+002
3.475637e+002, 1.681521e+002
3.480458e+002, 1.683954e+002
3.485280e+002, 1.698566e+002
3.490101e+002, 1.710006e+002
3.494922e+002, 1.714296e+002
3.499743e+002, 1.719958e+002
3.504564e+002, 1.728883e+002
3.509385e+002, 1.741937e+002
3.514207e+002, 1.760393e+002
3.519028e+002, 1.784909e+002
3.523849e+002, 1.815341e+002
3.528670e+002, 1.851821e+002
3.533491e+002, 1.889240e+002
3.538312e+002, 1.938816e+002
3.543134e+002, 2.008468e+002
3.547955e+002, 2.088342e+002
3.552776e+002, 2.170539e+002
3.557597e+002, 2.251739e+002
3.562418e+002, 2.327291e+002
3.567239e+002, 2.389682e+002
3.572061e+002, 2.433514e+002
3.576882e+002, 2.473488e+002
3.581703e+002, 2.501452e+002
3.586524e+002, 2.531986e+002
3.591345e+002, 2.573484e+002
3.596166e+002, 2.627505e+002
3.600987e+002, 2.691258e+002
3.605808e+002, 2.761384e+002
3.610630e+002, 2.836495e+002
3.615451e+002, 2.932772e+002
3.620272e+002, 3.054003e+002
3.625093e+002, 3.190380e+002
3.629914e+002, 3.334835e+002
3.634735e+002, 3.493060e+002
3.639557e+002, 3.670188e+002
3.644378e+002, 3.868104e+002
3.649199e+002, 4.092052e+002
3.654020e+002, 4.363313e+002
3.658841e+002, 4.671674e+002
3.663662e+002, 5.050894e+002
3.668484e+002, 5.474040e+002
3.673305e+002, 5.978179e+002
3.678126e+002, 6.589589e+002
3.682947e+002, 7.316787e+002
3.687768e+002, 8.173218e+002
3.692589e+002, 9.187546e+002
3.697411e+002, 1.037405e+003
3.702232e+002, 1.168782e+003
3.707053e+002, 1.329818e+003
3.711874e+002, 1.488713e+003
3.716695e+002, 1.651017e+003
3.721516e+002, 1.801877e+003
3.726338e+002, 1.904311e+003
3.731159e+002, 1.926088e+003
3.735980e+002, 1.868055e+003
3.740801e+002, 1.748581e+003
3.745622e+002, 1.515783e+003
3.750443e+002, 1.281403e+003
3.755265e+002, 1.067940e+003
3.760086e+002, 8.799006e+002
3.764907e+002, 7.247784e+002
3.769728e+002, 6.068629e+002
3.774549e+002, 5.196003e+002
3.779370e+002, 4.499189e+002
3.784192e+002, 4.009344e+002
3.789013e+002, 3.611793e+002
3.793834e+002, 3.303498e+002
3.798655e+002, 3.055774e+002
3.803476e+002, 2.857845e+002
3.808297e+002, 2.707018e+002
3.813119e+002, 2.586444e+002
3.817940e+002, 2.485637e+002
3.822761e+002, 2.404096e+002
3.827582e+002, 2.327918e+002
3.832403e+002, 2.256846e+002
3.837224e+002, 2.189568e+002
3.842046e+002, 2.123616e+002
3.846867e+002, 2.059975e+002
3.851688e+002, 2.000384e+002
3.856509e+002, 1.944520e+002
3.861330e+002, 1.894175e+002
3.866151e+002, 1.854316e+002
3.870973e+002, 1.826929e+002
3.875794e+002, 1.803309e+002
3.880615e+002, 1.778565e+002
3.885436e+002, 1.754503e+002
3.890257e+002, 1.733917e+002
3.895078e+002, 1.717583e+002
3.899900e+002, 1.704352e+002
3.904721e+002, 1.693360e+002
3.909542e+002, 1.684583e+002
3.914363e+002, 1.677794e+002
3.919184e+002, 1.671522e+002
3.924005e+002, 1.669243e+002
3.928827e+002, 1.676257e+002
3.933648e+002, 1.692873e+002
3.938469e+002, 1.711108e+002
3.943290e+002, 1.725542e+002
3.948111e+002, 1.740393e+002
3.952932e+002, 1.765336e+002
3.957754e+002, 1.803167e+002
3.962575e+002, 1.838299e+002
3.967396e+002, 1.857727e+002
3.972217e+002, 1.861314e+002
3.977038e+002, 1.858431e+002
3.981859e+002, 1.849759e+002
3.986681e+002, 1.834445e+002
3.991501e+002, 1.808044e+002
3.996323e+002, 1.773600e+002
4.001144e+002, 1.740987e+002
4.005965e+002, 1.714487e+002
4.010786e+002, 1.694036e+002
4.015607e+002, 1.680540e+002
4.020428e+002, 1.674617e+002
4.025250e+002, 1.673071e+002
4.030071e+002, 1.674980e+002
4.034892e+002, 1.681150e+002
4.039713e+002, 1.693206e+002
4.044534e+002, 1.711273e+002
4.049355e+002, 1.732997e+002
4.054177e+002, 1.755552e+002
4.058998e+002, 1.778257e+002
4.063819e+002, 1.805273e+002
4.068640e+002, 1.834644e+002
4.073461e+002, 1.869364e+002
4.078282e+002, 1.912776e+002
4.083104e+002, 1.962956e+002
4.087925e+002, 2.015122e+002
4.092746e+002, 2.066755e+002
4.097567e+002, 2.118447e+002
4.102388e+002, 2.173919e+002
4.107209e+002, 2.238662e+002
4.112031e+002, 2.299946e+002
4.116852e+002, 2.350124e+002
4.121673e+002, 2.400025e+002
4.126494e+002, 2.457530e+002
4.131315e+002, 2.525671e+002
4.136136e+002, 2.606555e+002
4.140958e+002, 2.702589e+002
4.145779e+002, 2.814198e+002
4.150600e+002, 2.941533e+002
4.155421e+002, 3.093164e+002
4.160242e+002, 3.252572e+002
4.165063e+002, 3.429664e+002
4.169885e+002, 3.610599e+002
4.174706e+002, 3.768029e+002
4.179527e+002, 3.893825e+002
4.184348e+002, 3.976595e+002
4.189169e+002, 3.976191e+002
4.193990e+002, 3.879826e+002
4.198812e+002, 3.725080e+002
4.203633e+002, 3.491932e+002
4.208454e+002, 3.227649e+002
4.213275e+002, 2.968062e+002
4.218096e+002, 2.721281e+002
4.222917e+002, 2.496926e+002
4.227739e+002, 2.305012e+002
4.232560e+002, 2.145627e+002
4.237381e+002, 2.012971e+002
4.242202e+002, 1.912436e+002
4.247023e+002, 1.831996e+002
4.251844e+002, 1.761341e+002
4.256666e+002, 1.700487e+002
4.261487e+002, 1.649693e+002
4.266308e+002, 1.612524e+002
4.271129e+002, 1.583855e+002
4.275950e+002, 1.556783e+002
4.280771e+002, 1.531050e+002
4.285593e+002, 1.507868e+002
4.290414e+002, 1.488417e+002
4.295235e+002, 1.472002e+002
4.300056e+002, 1.456420e+002
4.304877e+002, 1.441384e+002
4.309698e+002, 1.427819e+002
4.314520e+002, 1.416780e+002
4.319341e+002, 1.407516e+002
4.324162e+002, 1.398569e+002
4.328983e+002, 1.389661e+002
4.333804e+002, 1.380739e+002
4.338625e+002, 1.371458e+002
4.343447e+002, 1.361654e+002
4.348268e+002, 1.353635e+002
4.353089e+002, 1.348004e+002
4.357910e+002, 1.343721e+002
4.362731e+002, 1.340560e+002
4.367552e+002, 1.338244e+002
4.372374e+002, 1.336108e+002
4.377195e+002, 1.333763e+002
4.382016e+002, 1.331315e+002
4.386837e+002, 1.329217e+002
4.391658e+002, 1.329273e+002
4.396479e+002, 1.327323e+002
4.401301e+002, 1.321138e+002
4.406122e+002, 1.313946e+002
4.410943e+002, 1.308645e+002
4.415764e+002, 1.305900e+002
4.420585e+002, 1.304747e+002
4.425406e+002, 1.304103e+002
4.430227e+002, 1.303861e+002
4.435049e+002, 1.304947e+002
4.439870e+002, 1.310346e+002
4.444691e+002, 1.313976e+002
4.449512e+002, 1.313112e+002
4.454333e+002, 1.309355e+002
4.459154e+002, 1.304984e+002
4.463976e+002, 1.300966e+002
4.468797e+002, 1.298103e+002
4.473618e+002, 1.298840e+002
4.478439e+002, 1.304999e+002
4.483260e+002, 1.309299e+002
4.488081e+002, 1.308487e+002
4.492903e+002, 1.306795e+002
4.497724e+002, 1.306564e+002
4.502545e+002, 1.308035e+002
4.507366e+002, 1.310500e+002
4.512187e+002, 1.313562e+002
4.517008e+002, 1.317196e+002
4.521830e+002, 1.321145e+002
4.526651e+002, 1.325183e+002
4.531472e+002, 1.330035e+002
4.536293e+002, 1.335046e+002
4.541114e+002, 1.341414e+002
4.545935e+002, 1.351703e+002
4.550757e+002, 1.368064e+002
4.555578e+002, 1.385207e+002
4.560399e+002, 1.397261e+002
4.565220e+002, 1.405901e+002
4.570041e+002, 1.419067e+002
4.574862e+002, 1.439847e+002
4.579684e+002, 1.464187e+002
4.584505e+002, 1.488126e+002
4.589326e+002, 1.511845e+002
4.594147e+002, 1.532258e+002
4.598968e+002, 1.551687e+002
4.603789e+002, 1.565430e+002
4.608611e+002, 1.570170e+002
4.613432e+002, 1.565576e+002
4.618253e+002, 1.550642e+002
4.623074e+002, 1.523125e+002
4.627895e+002, 1.486292e+002
4.632716e+002, 1.452980e+002
4.637538e+002, 1.422398e+002
4.642359e+002, 1.396047e+002
4.647180e+002, 1.375520e+002
4.652001e+002, 1.358296e+002
4.656822e+002, 1.341308e+002
4.661643e+002, 1.324173e+002
4.666465e+002, 1.309764e+002
4.671286e+002, 1.301694e+002
4.676107e+002, 1.300709e+002
4.680928e+002, 1.298225e+002
4.685749e+002, 1.290361e+002
4.690570e+002, 1.285159e+002
4.695392e+002, 1.285929e+002
4.700213e+002, 1.290450e+002
4.705034e+002, 1.295759e+002
4.709855e+002, 1.300625e+002
4.714676e+002, 1.304691e+002
4.719497e+002, 1.306957e+002
4.724319e+002, 1.306810e+002
4.729140e+002, 1.307553e+002
4.733961e+002, 1.309753e+002
4.738782e+002, 1.312973e+002
4.743603e+002, 1.317213e+002
4.748424e+002, 1.322311e+002
4.753246e+002, 1.327808e+002
4.758067e+002, 1.332802e+002
4.762888e+002, 1.338210e+002
4.767709e+002, 1.345966e+002
4.772530e+002, 1.356042e+002
4.777351e+002, 1.368539e+002
4.782173e+002, 1.384469e+002
4.786994e+002, 1.402506e+002
4.791815e+002, 1.420485e+002
4.796636e+002, 1.438408e+002
4.801457e+002, 1.455837e+002
4.806278e+002, 1.471400e+002
4.811100e+002, 1.486598e+002
4.815920e+002, 1.505237e+002
4.820742e+002, 1.528171e+002
4.825563e+002, 1.550349e+002
4.830384e+002, 1.567579e+002
4.835205e+002, 1.579604e+002
4.840026e+002, 1.589290e+002
4.844847e+002, 1.601568e+002
4.849669e+002, 1.606393e+002
4.854490e+002, 1.597642e+002
4.859311e+002, 1.579054e+002
4.864132e+002, 1.556169e+002
4.868953e+002, 1.531063e+002
4.873774e+002, 1.505099e+002
4.878596e+002, 1.480388e+002
4.883417e+002, 1.455461e+002
4.888238e+002, 1.435688e+002
4.893059e+002, 1.419912e+002
4.897880e+002, 1.409451e+002
4.902701e+002, 1.409803e+002
4.907523e+002, 1.415889e+002
4.912344e+002, 1.416270e+002
4.917165e+002, 1.403129e+002
4.921986e+002, 1.382484e+002
4.926807e+002, 1.371391e+002
4.931628e+002, 1.373310e+002
4.936450e+002, 1.375296e+002
4.941271e+002, 1.374425e+002
4.946092e+002, 1.372912e+002
4.950913e+002, 1.372498e+002
4.955734e+002, 1.373116e+002
4.960555e+002, 1.372996e+002
4.965377e+002, 1.369465e+002
4.970198e+002, 1.364383e+002
4.975019e+002, 1.362978e+002
4.979840e+002, 1.365702e+002
4.984661e+002, 1.370512e+002
4.989482e+002, 1.377103e+002
4.994304e+002, 1.384911e+002
4.999125e+002, 1.392496e+002
5.003946e+002, 1.399035e+002
5.008767e+002, 1.407253e+002
5.013588e+002, 1.418713e+002
5.018409e+002, 1.432756e+002
5.023231e+002, 1.448456e+002
5.028052e+002, 1.465595e+002
5.032873e+002, 1.484302e+002
5.037694e+002, 1.504942e+002
5.042515e+002, 1.527757e+002
5.047336e+002, 1.549700e+002
5.052158e+002, 1.566254e+002
5.056979e+002, 1.587018e+002
5.061800e+002, 1.619495e+002
5.066621e+002, 1.657186e+002
5.071442e+002, 1.689691e+002
5.076263e+002, 1.713387e+002
5.081085e+002, 1.732917e+002
5.085906e+002, 1.754976e+002
5.090727e+002, 1.779827e+002
5.095548e+002, 1.806328e+002
5.100369e+002, 1.837682e+002
5.105190e+002, 1.867389e+002
5.110012e+002, 1.897441e+002
5.114833e+002, 1.923461e+002
5.119654e+002, 1.938100e+002
5.124475e+002, 1.937554e+002
5.129296e+002, 1.924330e+002
5.134117e+002, 1.903064e+002
5.138939e+002, 1.873959e+002
5.143760e+002, 1.834103e+002
5.148581e+002, 1.776833e+002
5.153402e+002, 1.713874e+002
5.158223e+002, 1.653204e+002
5.163044e+002, 1.595321e+002
5.167866e+002, 1.542508e+002
5.172687e+002, 1.495827e+002
5.177508e+002, 1.454421e+002
5.182329e+002, 1.416595e+002
5.187150e+002, 1.382502e+002
5.191971e+002, 1.354893e+002
5.196793e+002, 1.336214e+002
5.201614e+002, 1.323405e+002
5.206435e+002, 1.310022e+002
5.211256e+002, 1.294973e+002
5.216077e+002, 1.282342e+002
5.220898e+002, 1.275066e+002
5.225720e+002, 1.268955e+002
5.230541e+002, 1.259019e+002
5.235362e+002, 1.246123e+002
5.240183e+002, 1.235994e+002
5.245004e+002, 1.233067e+002
5.249825e+002, 1.235988e+002
5.254647e+002, 1.237808e+002
5.259468e+002, 1.238421e+002
5.264289e+002, 1.237925e+002
5.269110e+002, 1.235077e+002
5.273931e+002, 1.232062e+002
5.278752e+002, 1.229606e+002
5.283574e+002, 1.228439e+002
5.288395e+002, 1.230603e+002
5.293216e+002, 1.239088e+002
5.298037e+002, 1.252642e+002
5.302858e+002, 1.263668e+002
5.307679e+002, 1.271396e+002
5.312501e+002, 1.278292e+002
5.317322e+002, 1.282994e+002
5.322143e+002, 1.288557e+002
5.326964e+002, 1.299039e+002
5.331785e+002, 1.315618e+002
5.336606e+002, 1.333008e+002
5.341428e+002, 1.348394e+002
5.346249e+002, 1.362047e+002
5.351070e+002, 1.375858e+002
5.355891e+002, 1.390416e+002
5.360712e+002, 1.400149e+002
5.365533e+002, 1.399675e+002
5.370355e+002, 1.390456e+002
5.375176e+002, 1.382860e+002
5.379997e+002, 1.381404e+002
5.384818e+002, 1.375910e+002
5.389639e+002, 1.361841e+002
5.394460e+002, 1.342890e+002
5.399282e+002, 1.322562e+002
5.404103e+002, 1.302093e+002
5.408924e+002, 1.282599e+002
5.413745e+002, 1.265496e+002
5.418566e+002, 1.250853e+002
5.423387e+002, 1.236102e+002
5.428209e+002, 1.219517e+002
5.433029e+002, 1.205101e+002
5.437850e+002, 1.194689e+002
5.442672e+002, 1.186386e+002
5.447493e+002, 1.178257e+002
5.452314e+002, 1.169742e+002
5.457135e+002, 1.161243e+002
5.461956e+002, 1.152702e+002
5.466777e+002, 1.144284e+002
5.471599e+002, 1.138636e+002
5.476420e+002, 1.136912e+002
5.481241e+002, 1.135817e+002
5.486062e+002, 1.133550e+002
5.490883e+002, 1.130514e+002
5.495704e+002, 1.127130e+002
5.500526e+002, 1.123093e+002
5.505347e+002, 1.119553e+002
5.510168e+002, 1.118086e+002
5.514989e+002, 1.117472e+002
5.519810e+002, 1.114306e+002
5.524631e+002, 1.107783e+002
5.529453e+002, 1.102378e+002
5.534274e+002, 1.102966e+002
5.539095e+002, 1.109583e+002
5.543916e+002, 1.112121e+002
5.548737e+002, 1.107051e+002
5.553558e+002, 1.102766e+002
5.558380e+002, 1.102593e+002
5.563201e+002, 1.103996e+002
5.568022e+002, 1.103409e+002
5.572843e+002, 1.100102e+002
5.577664e+002, 1.096654e+002
5.582485e+002, 1.096513e+002
5.587307e+002, 1.099893e+002
5.592128e+002, 1.100389e+002
5.596949e+002, 1.095663e+002
5.601770e+002, 1.091345e+002
5.606591e+002, 1.089706e+002
5.611412e+002, 1.089313e+002
5.616234e+002, 1.088462e+002
5.621055e+002, 1.086718e+002
5.625876e+002, 1.084645e+002
5.630697e+002, 1.082284e+002
5.635518e+002, 1.079959e+002
5.640339e+002, 1.078798e+002
5.645161e+002, 1.078982e+002
5.649982e+002, 1.080130e+002
5.654803e+002, 1.082671e+002
5.659624e+002, 1.085933e+002
5.664445e+002, 1.087157e+002
5.669266e+002, 1.085532e+002
5.674088e+002, 1.083057e+002
5.678909e+002, 1.078407e+002
5.683730e+002, 1.074233e+002
5.688551e+002, 1.074553e+002
5.693372e+002, 1.079669e+002
5.698193e+002, 1.086128e+002
5.703015e+002, 1.090803e+002
5.707836e+002, 1.093767e+002
5.712657e+002, 1.096085e+002
5.717478e+002, 1.096666e+002
5.722299e+002, 1.098093e+002
5.727120e+002, 1.101508e+002
5.731942e+002, 1.105445e+002
5.736763e+002, 1.108175e+002
5.741584e+002, 1.109635e+002
5.746405e+002, 1.111670e+002
5.751226e+002, 1.116773e+002
5.756047e+002, 1.123902e+002
5.760869e+002, 1.128052e+002
5.765690e+002, 1.128142e+002
5.770511e+002, 1.129870e+002
5.775332e+002, 1.137396e+002
5.780153e+002, 1.147291e+002
5.784974e+002, 1.153761e+002
5.789796e+002, 1.155937e+002
5.794617e+002, 1.158213e+002
5.799438e+002, 1.162423e+002
5.804259e+002, 1.167493e+002
5.809080e+002, 1.172861e+002
5.813901e+002, 1.178131e+002
5.818723e+002, 1.181819e+002
5.823544e+002, 1.182806e+002
5.828365e+002, 1.181872e+002
5.833186e+002, 1.181650e+002
5.838007e+002, 1.182271e+002
5.842828e+002, 1.183496e+002
5.847650e+002, 1.186423e+002
5.852471e+002, 1.189007e+002
5.857292e+002, 1.189033e+002
5.862113e+002, 1.187402e+002
5.866934e+002, 1.187121e+002
5.871755e+002, 1.190222e+002
5.876577e+002, 1.195543e+002
5.881398e+002, 1.200353e+002
5.886219e+002, 1.204469e+002
5.891040e+002, 1.209298e+002
5.895861e+002, 1.214544e+002
5.900682e+002, 1.221438e+002
5.905504e+002, 1.231572e+002
5.910325e+002, 1.244459e+002
5.915146e+002, 1.256926e+002
5.919967e+002, 1.269132e+002
5.924788e+002, 1.279551e+002
5.929609e+002, 1.285487e+002
5.934431e+002, 1.288354e+002
5.939252e+002, 1.292606e+002
5.944073e+002, 1.299925e+002
5.948894e+002, 1.308150e+002
5.953715e+002, 1.314018e+002
5.958536e+002, 1.316367e+002
5.963358e+002, 1.321783e+002
5.968179e+002, 1.332077e+002
5.973000e+002, 1.342939e+002
5.977821e+002, 1.352157e+002
5.982642e+002, 1.361284e+002
5.987463e+002, 1.372028e+002
5.992285e+002, 1.385101e+002
5.997106e+002, 1.401624e+002
6.001927e+002, 1.423926e+002
6.006748e+002, 1.451887e+002
6.011569e+002, 1.479573e+002
6.016390e+002, 1.505320e+002
6.021212e+002, 1.533571e+002
6.026033e+002, 1.566580e+002
6.030854e+002, 1.603846e+002
6.035675e+002, 1.645332e+002
6.040496e+002, 1.693332e+002
6.045317e+002, 1.739188e+002
6.050139e+002, 1.778888e+002
6.054960e+002, 1.813881e+002
6.059781e+002, 1.847282e+002
6.064602e+002, 1.878882e+002
6.069423e+002, 1.904436e+002
6.074244e+002, 1.921307e+002
6.079066e+002, 1.929013e+002
6.083887e+002, 1.925259e+002
6.088708e+002, 1.907579e+002
6.093529e+002, 1.880828e+002
6.098350e+002, 1.841042e+002
6.103171e+002, 1.796031e+002
6.107993e+002, 1.749991e+002
6.112814e+002, 1.703714e+002
6.117635e+002, 1.656638e+002
6.122456e+002, 1.607390e+002
6.127277e+002, 1.558751e+002
6.132098e+002, 1.516751e+002
6.136920e+002, 1.481619e+002
6.141741e+002, 1.447656e+002
6.146562e+002, 1.412836e+002
6.151383e+002, 1.379377e+002
6.156204e+002, 1.349471e+002
6.161025e+002, 1.322664e+002
6.165847e+002, 1.297244e+002
6.170668e+002, 1.271470e+002
6.175489e+002, 1.248370e+002
6.180310e+002, 1.231250e+002
6.185131e+002, 1.217993e+002
6.189952e+002, 1.204159e+002
6.194774e+002, 1.188447e+002
6.199595e+002, 1.172614e+002
6.204416e+002, 1.158472e+002
6.209237e+002, 1.145865e+002
6.214058e+002, 1.136692e+002
6.218879e+002, 1.135127e+002
6.223701e+002, 1.131923e+002
6.228522e+002, 1.124075e+002
6.233343e+002, 1.114350e+002
6.238164e+002, 1.105328e+002
6.242985e+002, 1.097644e+002
6.247806e+002, 1.090975e+002
6.252628e+002, 1.085426e+002
6.257448e+002, 1.080680e+002
6.262269e+002, 1.075681e+002
6.267090e+002, 1.070291e+002
6.271912e+002, 1.066065e+002
6.276733e+002, 1.064055e+002
6.281554e+002, 1.063269e+002
6.286375e+002, 1.061846e+002
6.291196e+002, 1.059701e+002
6.296017e+002, 1.057531e+002
6.300839e+002, 1.055487e+002
6.305660e+002, 1.053392e+002
6.310481e+002, 1.050915e+002
6.315302e+002, 1.048291e+002
6.320123e+002, 1.045995e+002
6.324944e+002, 1.044256e+002
6.329766e+002, 1.043055e+002
6.334587e+002, 1.042591e+002
6.339408e+002, 1.043177e+002
6.344229e+002, 1.042845e+002
6.349050e+002, 1.041109e+002
6.353871e+002, 1.039024e+002
6.358693e+002, 1.036406e+002
6.363514e+002, 1.033985e+002
6.368335e+002, 1.033249e+002
6.373156e+002, 1.035048e+002
6.377977e+002, 1.036283e+002
6.382798e+002, 1.033868e+002
6.387620e+002, 1.029649e+002
6.392441e+002, 1.026512e+002
6.397262e+002, 1.024897e+002
6.402083e+002, 1.026128e+002
6.406904e+002, 1.031903e+002
6.411725e+002, 1.040211e+002
6.416547e+002, 1.044315e+002
6.421368e+002, 1.039613e+002
6.426189e+002, 1.037361e+002
6.431010e+002, 1.039384e+002
6.435831e+002, 1.042213e+002
6.440652e+002, 1.043138e+002
6.445474e+002, 1.043023e+002
6.450295e+002, 1.044803e+002
6.455116e+002, 1.050299e+002
6.459937e+002, 1.056977e+002
6.464758e+002, 1.059919e+002
6.469579e+002, 1.059179e+002
6.474401e+002, 1.061601e+002
6.479222e+002, 1.069482e+002
6.484043e+002, 1.077901e+002
6.488864e+002, 1.082176e+002
6.493685e+002, 1.083997e+002
6.498506e+002, 1.088689e+002
6.503328e+002, 1.099582e+002
6.508149e+002, 1.108861e+002
6.512970e+002, 1.112330e+002
6.517791e+002, 1.113140e+002
6.522612e+002, 1.114373e+002
6.527433e+002, 1.116735e+002
6.532255e+002, 1.120836e+002
6.537076e+002, 1.127617e+002
6.541897e+002, 1.135409e+002
6.546718e+002, 1.137434e+002
6.551539e+002, 1.130580e+002
6.556360e+002, 1.125475e+002
6.561182e+002, 1.124118e+002
6.566003e+002, 1.124442e+002
6.570824e+002, 1.125984e+002
6.575645e+002, 1.128351e+002
6.580466e+002, 1.130446e+002
6.585287e+002, 1.130862e+002
6.590109e+002, 1.132436e+002
6.594930e+002, 1.138350e+002
6.599751e+002, 1.147539e+002
6.604572e+002, 1.156913e+002
6.609393e+002, 1.165753e+002
6.614214e+002, 1.175636e+002
6.619036e+002, 1.187405e+002
6.623857e+002, 1.201437e+002
6.628678e+002, 1.221389e+002
6.633499e+002, 1.252154e+002
6.638320e+002, 1.282497e+002
6.643141e+002, 1.316855e+002
6.647963e+002, 1.346485e+002
6.652784e+002, 1.366204e+002
6.657605e+002, 1.374885e+002
6.662426e+002, 1.372129e+002
6.667247e+002, 1.356842e+002
6.672068e+002, 1.331350e+002
6.676890e+002, 1.296390e+002
6.681711e+002, 1.252358e+002
6.686532e+002, 1.212832e+002
6.691353e+002, 1.180712e+002
6.696174e+002, 1.154482e+002
6.700995e+002, 1.133794e+002
6.705817e+002, 1.118563e+002
6.710638e+002, 1.106307e+002
6.715459e+002, 1.099312e+002
6.720280e+002, 1.092418e+002
6.725101e+002, 1.083862e+002
6.729922e+002, 1.074750e+002
6.734744e+002, 1.065419e+002
6.739565e+002, 1.056524e+002
6.744386e+002, 1.050205e+002
6.749207e+002, 1.048637e+002
6.754028e+002, 1.049869e+002
6.758849e+002, 1.046523e+002
6.763671e+002, 1.036605e+002
6.768492e+002, 1.031267e+002
6.773313e+002, 1.036262e+002
6.778134e+002, 1.042435e+002
6.782955e+002, 1.041484e+002
6.787776e+002, 1.035479e+002
6.792598e+002, 1.031912e+002
6.797419e+002, 1.034600e+002
6.802240e+002, 1.037412e+002
6.807061e+002, 1.035558e+002
6.811882e+002, 1.031955e+002
6.816703e+002, 1.031517e+002
6.821525e+002, 1.034869e+002
6.826346e+002, 1.039128e+002
6.831167e+002, 1.042111e+002
6.835988e+002, 1.043835e+002
6.840809e+002, 1.043854e+002
6.845630e+002, 1.039132e+002
6.850452e+002, 1.039356e+002
6.855273e+002, 1.052330e+002
6.860094e+002, 1.064850e+002
6.864915e+002, 1.068679e+002
6.869736e+002, 1.065618e+002
6.874557e+002, 1.061965e+002
6.879379e+002, 1.059376e+002
6.884200e+002, 1.058157e+002
6.889021e+002, 1.059025e+002
6.893842e+002, 1.061401e+002
6.898663e+002, 1.063534e+002
6.903484e+002, 1.065179e+002
6.908306e+002, 1.068461e+002
6.913127e+002, 1.075161e+002
6.917948e+002, 1.084819e+002
6.922769e+002, 1.095339e+002
6.927590e+002, 1.107673e+002
6.932411e+002, 1.119376e+002
6.937233e+002, 1.129858e+002
6.942054e+002, 1.140110e+002
6.946875e+002, 1.151527e+002
6.951696e+002, 1.163235e+002
6.956517e+002, 1.172557e+002
6.961339e+002, 1.177544e+002
6.966160e+002, 1.182239e+002
6.970981e+002, 1.192542e+002
6.975802e+002, 1.206423e+002
6.980623e+002, 1.216921e+002
6.985444e+002, 1.222891e+002
6.990266e+002, 1.225797e+002
6.995087e+002, 1.225668e+002
6.999908e+002, 1.223844e+002
7.004729e+002, 1.225475e+002
7.009550e+002, 1.233093e+002
7.014371e+002, 1.240358e+002
7.019193e+002, 1.246125e+002
7.024014e+002, 1.252496e+002
7.028835e+002, 1.259631e+002
7.033656e+002, 1.268552e+002
7.038477e+002, 1.280852e+002
7.043298e+002, 1.297056e+002
7.048120e+002, 1.317513e+002
7.052941e+002, 1.345040e+002
7.057762e+002, 1.377572e+002
7.062583e+002, 1.405970e+002
7.067404e+002, 1.429636e+002
7.072225e+002, 1.446841e+002
7.077046e+002, 1.456040e+002
7.081867e+002, 1.458586e+002
7.086688e+002, 1.458022e+002
7.091509e+002, 1.456033e+002
7.096331e+002, 1.446889e+002
7.101152e+002, 1.429291e+002
7.105973e+002, 1.405214e+002
7.110794e+002, 1.371674e+002
7.115615e+002, 1.333690e+002
7.120436e+002, 1.299753e+002
7.125258e+002, 1.272713e+002
7.130079e+002, 1.248579e+002
7.134900e+002, 1.222367e+002
7.139721e+002, 1.194788e+002
7.144542e+002, 1.168377e+002
7.149363e+002, 1.142754e+002
7.154185e+002, 1.122177e+002
7.159006e+002, 1.109811e+002
7.163827e+002, 1.102619e+002
7.168648e+002, 1.096005e+002
7.173469e+002, 1.090120e+002
7.178290e+002, 1.083956e+002
7.183112e+002, 1.078120e+002
7.187933e+002, 1.071280e+002
7.192754e+002, 1.060102e+002
7.197575e+002, 1.048626e+002
7.202396e+002, 1.043756e+002
7.207217e+002, 1.046599e+002
7.212039e+002, 1.050211e+002
7.216860e+002, 1.047094e+002
7.221681e+002, 1.039412e+002
7.226502e+002, 1.036022e+002
7.231323e+002, 1.037378e+002
7.236144e+002, 1.039125e+002
7.240966e+002, 1.039991e+002
7.245787e+002, 1.040568e+002
7.250608e+002, 1.041629e+002
7.255429e+002, 1.043169e+002
7.260250e+002, 1.044214e+002
7.265071e+002, 1.044243e+002
7.269893e+002, 1.044356e+002
7.274714e+002, 1.044191e+002
7.279535e+002, 1.044773e+002
7.284356e+002, 1.046993e+002
7.289177e+002, 1.051114e+002
7.293998e+002, 1.057463e+002
7.298820e+002, 1.066715e+002
7.303641e+002, 1.077530e+002
7.308462e+002, 1.087031e+002
7.313283e+002, 1.095171e+002
7.318104e+002, 1.102488e+002
7.322925e+002, 1.108796e+002
7.327747e+002, 1.114934e+002
7.332568e+002, 1.121505e+002
7.337389e+002, 1.128475e+002
7.342210e+002, 1.135547e+002
7.347031e+002, 1.140691e+002
7.351852e+002, 1.148956e+002
7.356674e+002, 1.165747e+002
7.361495e+002, 1.182554e+002
7.366316e+002, 1.190923e+002
7.371137e+002, 1.193120e+002
7.375958e+002, 1.197329e+002
7.380779e+002, 1.207799e+002
7.385601e+002, 1.220597e+002
7.390422e+002, 1.229691e+002
7.395243e+002, 1.235541e+002
7.400064e+002, 1.242924e+002
7.404885e+002, 1.252496e+002
7.409706e+002, 1.262107e+002
7.414528e+002, 1.270210e+002
7.419349e+002, 1.277807e+002
7.424170e+002, 1.287488e+002
7.428991e+002, 1.300409e+002
7.433812e+002, 1.311327e+002
7.438633e+002, 1.317432e+002
7.443455e+002, 1.323941e+002
7.448276e+002, 1.333897e+002
7.453097e+002, 1.345967e+002
7.457918e+002, 1.357690e+002
7.462739e+002, 1.368424e+002
7.467560e+002, 1.380002e+002
7.472382e+002, 1.397211e+002
7.477203e+002, 1.416078e+002
7.482024e+002, 1.422365e+002
7.486845e+002, 1.415760e+002
7.491666e+002, 1.410303e+002
7.496487e+002, 1.411823e+002
7.501309e+002, 1.413378e+002
7.506130e+002, 1.406230e+002
7.510951e+002, 1.389809e+002
7.515772e+002, 1.375092e+002
7.520593e+002, 1.363012e+002
7.525414e+002, 1.351275e+002
7.530236e+002, 1.337024e+002
7.535057e+002, 1.324518e+002
7.539878e+002, 1.316484e+002
7.544699e+002, 1.313820e+002
7.549520e+002, 1.318266e+002
7.554341e+002, 1.333504e+002
7.559163e+002, 1.350629e+002
7.563984e+002, 1.354442e+002
7.568805e+002, 1.348727e+002
7.573626e+002, 1.350609e+002
7.578447e+002, 1.363157e+002
7.583268e+002, 1.378730e+002
7.588090e+002, 1.392482e+002
7.592911e+002, 1.404717e+002
7.597732e+002, 1.416554e+002
7.602553e+002, 1.429022e+002
7.607374e+002, 1.439264e+002
7.612195e+002, 1.449203e+002
7.617017e+002, 1.455105e+002
7.621838e+002, 1.454816e+002
7.626659e+002, 1.449502e+002
7.631480e+002, 1.440982e+002
7.636301e+002, 1.429758e+002
7.641122e+002, 1.415497e+002
7.645944e+002, 1.397677e+002
7.650765e+002, 1.376802e+002
7.655586e+002, 1.352201e+002
7.660407e+002, 1.324706e+002
7.665228e+002, 1.299490e+002
7.670049e+002, 1.278521e+002
7.674871e+002, 1.259243e+002
7.679692e+002, 1.238211e+002
7.684513e+002, 1.215061e+002
7.689334e+002, 1.195347e+002
7.694155e+002, 1.180701e+002
7.698976e+002, 1.166708e+002
7.703798e+002, 1.152581e+002
7.708619e+002, 1.138528e+002
7.713440e+002, 1.124078e+002
7.718261e+002, 1.109759e+002
7.723082e+002, 1.097919e+002
7.727903e+002, 1.089675e+002
7.732725e+002, 1.083754e+002
7.737546e+002, 1.081416e+002
7.742367e+002, 1.079950e+002
7.747188e+002, 1.073894e+002
7.752009e+002, 1.063530e+002
7.756830e+002, 1.054994e+002
7.761652e+002, 1.052486e+002
7.766473e+002, 1.053454e+002
7.771294e+002, 1.051748e+002
7.776115e+002, 1.046862e+002
7.780936e+002, 1.042833e+002
7.785757e+002, 1.040782e+002
7.790579e+002, 1.037950e+002
7.795400e+002, 1.030951e+002
7.800221e+002, 1.023079e+002
7.805042e+002, 1.020427e+002
7.809863e+002, 1.024393e+002
7.814684e+002, 1.027305e+002
7.819506e+002, 1.026540e+002
7.824327e+002, 1.024928e+002
7.829148e+002, 1.023465e+002
7.833969e+002, 1.022705e+002
7.838790e+002, 1.024114e+002
7.843611e+002, 1.027641e+002
7.848433e+002, 1.030125e+002
7.853254e+002, 1.027721e+002
7.858075e+002, 1.022630e+002
7.862896e+002, 1.022559e+002
7.867717e+002, 1.027623e+002
7.872538e+002, 1.029123e+002
7.877360e+002, 1.023925e+002
7.882181e+002, 1.017493e+002
7.887002e+002, 1.014360e+002
7.891823e+002, 1.014398e+002
7.896644e+002, 1.016658e+002
7.901465e+002, 1.025617e+002
7.906286e+002, 1.030272e+002
7.911107e+002, 1.026966e+002
7.915928e+002, 1.021757e+002
7.920750e+002, 1.017510e+002
7.925571e+002, 1.014663e+002
7.930392e+002, 1.013358e+002
7.935213e+002, 1.013751e+002
7.940034e+002, 1.014851e+002
7.944855e+002, 1.016928e+002
7.949677e+002, 1.018656e+002
7.954498e+002, 1.016481e+002
7.959319e+002, 1.010972e+002
7.964140e+002, 1.007448e+002
7.968961e+002, 1.008265e+002
7.973782e+002, 1.010097e+002
7.978604e+002, 1.008050e+002
7.983425e+002, 1.001845e+002
7.988246e+002, 9.984370e+001
7.993067e+002, 1.000036e+002
7.997888e+002, 1.000398e+002
8.002709e+002, 9.961703e+001
8.007531e+002, 9.915807e+001
8.012352e+002, 9.900399e+001
8.017173e+002, 9.910706e+001
8.021994e+002, 9.918703e+001
8.026815e+002, 9.914541e+001
8.031636e+002, 9.910325e+001
8.036458e+002, 9.910475e+001
8.041279e+002, 9.915224e+001
8.046100e+002, 9.931204e+001
8.050921e+002, 9.952828e+001
8.055742e+002, 9.960629e+001
8.060563e+002, 9.943505e+001
8.065385e+002, 9.914780e+001
8.070206e+002, 9.896085e+001
8.075027e+002, 9.886404e+001
8.079848e+002, 9.869367e+001
8.084669e+002, 9.841336e+001
8.089490e+002, 9.820390e+001
8.094312e+002, 9.812360e+001
8.099133e+002, 9.818925e+001
8.103954e+002, 9.850201e+001
8.108775e+002, 9.915406e+001
8.113596e+002, 9.940996e+001
8.118417e+002, 9.890392e+001
8.123239e+002, 9.847372e+001
8.128060e+002, 9.833449e+001
8.132881e+002, 9.838134e+001
8.137702e+002, 9.858571e+001
8.142523e+002, 9.888638e+001
8.147344e+002, 9.913440e+001
8.152166e+002, 9.929678e+001
8.156987e+002, 9.929107e+001
8.161808e+002, 9.886426e+001
8.166629e+002, 9.824488e+001
8.171450e+002, 9.795677e+001
8.176271e+002, 9.804160e+001
8.181093e+002, 9.825977e+001
8.185914e+002, 9.848690e+001
8.190735e+002, 9.869370e+001
8.195556e+002, 9.881725e+001
8.200377e+002, 9.884266e+001
8.205198e+002, 9.886131e+001
8.210020e+002, 9.880775e+001
8.214841e+002, 9.887447e+001
8.219662e+002, 9.932437e+001
8.224483e+002, 9.979314e+001
8.229304e+002, 9.981904e+001
8.234125e+002, 9.941639e+001
8.238947e+002, 9.911536e+001
8.243768e+002, 9.907624e+001
8.248589e+002, 9.909397e+001
8.253410e+002, 9.912505e+001
8.258231e+002, 9.913766e+001
8.263052e+002, 9.910480e+001
8.267874e+002, 9.902180e+001
8.272695e+002, 9.888248e+001
8.277516e+002, 9.867392e+001
8.282337e+002, 9.845084e+001
8.287158e+002, 9.825266e+001
8.291979e+002, 9.810249e+001
8.296801e+002, 9.813005e+001
8.301622e+002, 9.834696e+001
8.306443e+002, 9.859331e+001
8.311264e+002, 9.882777e+001
8.316085e+002, 9.892393e+001
8.320906e+002, 9.860860e+001
8.325728e+002, 9.776305e+001
8.330549e+002, 9.738634e+001
8.335370e+002, 9.789099e+001
8.340191e+002, 9.827531e+001
8.345012e+002, 9.820532e+001
8.349833e+002, 9.802181e+001
8.354655e+002, 9.805119e+001
8.359476e+002, 9.823991e+001
8.364297e+002, 9.823500e+001
8.369118e+002, 9.770086e+001
8.373939e+002, 9.731988e+001
8.378760e+002, 9.766396e+001
8.383582e+002, 9.822813e+001
8.388403e+002, 9.841362e+001
8.393224e+002, 9.825498e+001
8.398045e+002, 9.808065e+001
8.402866e+002, 9.804537e+001
8.407687e+002, 9.808615e+001
8.412509e+002, 9.816044e+001
8.417330e+002, 9.824529e+001
8.422151e+002, 9.815012e+001
8.426972e+002, 9.785262e+001
8.431793e+002, 9.772555e+001
8.436614e+002, 9.795059e+001
8.441436e+002, 9.826511e+001
8.446257e+002, 9.838262e+001
8.451078e+002, 9.830464e+001
8.455899e+002, 9.810537e+001
8.460720e+002, 9.764252e+001
8.465541e+002, 9.726594e+001
8.470363e+002, 9.699161e+001
8.475184e+002, 9.682099e+001
8.480005e+002, 9.674006e+001
8.484826e+002, 9.676456e+001
8.489647e+002, 9.698474e+001
8.494468e+002, 9.750881e+001
8.499290e+002, 9.784370e+001
8.504111e+002, 9.757520e+001
8.508932e+002, 9.710794e+001
8.513753e+002, 9.680000e+001
8.518574e+002, 9.664559e+001
8.523395e+002, 9.656640e+001
8.528217e+002, 9.653676e+001
8.533038e+002, 9.657729e+001
8.537859e+002, 9.675251e+001
8.542680e+002, 9.697571e+001
8.547501e+002, 9.686943e+001
8.552322e+002, 9.643417e+001
8.557144e+002, 9.642256e+001
8.561965e+002, 9.710042e+001
8.566786e+002, 9.770195e+001
8.571607e+002, 9.761940e+001
8.576428e+002, 9.705126e+001
8.581249e+002, 9.662659e+001
8.586071e+002, 9.636843e+001
8.590892e+002, 9.620812e+001
8.595713e+002, 9.624727e+001
8.600534e+002, 9.626150e+001
8.605355e+002, 9.611581e+001
8.610176e+002, 9.593309e+001
8.614998e+002, 9.588552e+001
8.619819e+002, 9.598340e+001
8.624640e+002, 9.604160e+001
8.629461e+002, 9.594884e+001
8.634282e+002, 9.583188e+001
8.639103e+002, 9.576458e+001
8.643925e+002, 9.573412e+001
8.648746e+002, 9.576926e+001
8.653567e+002, 9.583230e+001
8.658388e+002, 9.576363e+001
8.663209e+002, 9.545672e+001
8.668030e+002, 9.508608e+001
8.672852e+002, 9.493754e+001
8.677673e+002, 9.496973e+001
8.682494e+002, 9.493322e+001
8.687315e+002, 9.480881e+001
8.692136e+002, 9.481629e+001
8.696957e+002, 9.507042e+001
8.701779e+002, 9.542030e+001
8.706600e+002, 9.568494e+001
8.711421e+002, 9.586572e+001
8.716242e+002, 9.587193e+001
8.721063e+002, 9.562981e+001
8.725884e+002, 9.534243e+001
8.730705e+002, 9.499312e+001
8.735526e+002, 9.465459e+001
8.740347e+002, 9.431137e+001
8.745168e+002, 9.402119e+001
8.749990e+002, 9.395566e+001
8.754811e+002, 9.427250e+001
8.759632e+002, 9.441409e+001
8.764453e+002, 9.395499e+001
8.769274e+002, 9.347356e+001
8.774095e+002, 9.348284e+001
8.778917e+002, 9.374156e+001
8.783738e+002, 9.378213e+001
8.788559e+002, 9.351517e+001
8.793380e+002, 9.323209e+001
8.798201e+002, 9.316953e+001
8.803022e+002, 9.320951e+001
8.807844e+002, 9.315005e+001
8.812665e+002, 9.302441e+001
8.817486e+002, 9.296699e+001
8.822307e+002, 9.299505e+001
8.827128e+002, 9.302113e+001
8.831949e+002, 9.299512e+001
8.836771e+002, 9.291072e+001
8.841592e+002, 9.272947e+001
8.846413e+002, 9.241958e+001
8.851234e+002, 9.225659e+001
8.856055e+002, 9.229271e+001
8.860876e+002, 9.233675e+001
8.865698e+002, 9.223613e+001
8.870519e+002, 9.220461e+001
8.875340e+002, 9.262719e+001
8.880161e+002, 9.344779e+001
8.884982e+002, 9.381271e+001
8.889803e+002, 9.326453e+001
8.894625e+002, 9.287209e+001
8.899446e+002, 9.289260e+001
8.904267e+002, 9.305533e+001
8.909088e+002, 9.327758e+001
8.913909e+002, 9.347099e+001
8.918730e+002, 9.345307e+001
8.923552e+002, 9.316184e+001
8.928373e+002, 9.296561e+001
8.933194e+002, 9.331612e+001
8.938015e+002, 9.369765e+001
8.942836e+002, 9.347361e+001
8.947657e+002, 9.287556e+001
8.952479e+002, 9.240300e+001
8.957300e+002, 9.216109e+001
8.962121e+002, 9.197730e+001
8.966942e+002, 9.172866e+001
8.971763e+002, 9.144857e+001
8.976584e+002, 9.119060e+001
8.981406e+002, 9.095855e+001
8.986227e+002, 9.078558e+001
8.991048e+002, 9.067532e+001
8.995869e+002, 9.062257e+001
9.000690e+002, 9.063498e+001
9.005511e+002, 9.067598e+001
9.010333e+002, 9.070278e+001
9.015154e+002, 9.071899e+001
9.019975e+002, 9.062968e+001
9.024796e+002, 9.036379e+001
9.029617e+002, 9.012334e+001
9.034438e+002, 8.993607e+001
9.039260e+002, 8.979616e+001
9.044081e+002, 8.971696e+001
9.048902e+002, 8.967995e+001
9.053723e+002, 8.965044e+001
9.058544e+002, 8.966173e+001
9.063365e+002, 8.957584e+001
9.068187e+002, 8.925014e+001
9.073008e+002, 8.893362e+001
9.077829e+002, 8.869089e+001
9.082650e+002, 8.859602e+001
9.087471e+002, 8.884006e+001
9.092292e+002, 8.937468e+001
9.097114e+002, 8.976729e+001
9.101935e+002, 8.970374e+001
9.106756e+002, 8.948279e+001
9.111577e+002, 8.932655e+001
9.116398e+002, 8.926431e+001
9.121219e+002, 8.943433e+001
9.126041e+002, 8.977534e+001
9.130862e+002, 8.994636e+001
9.135683e+002, 8.978565e+001
9.140504e+002, 8.958895e+001
9.145325e+002, 8.983435e+001
9.150146e+002, 9.040132e+001
9.154968e+002, 9.053575e+001
9.159789e+002, 9.022058e+001
9.164610e+002, 8.999210e+001
9.169431e+002, 8.998421e+001
9.174252e+002, 9.008862e+001
9.179073e+002, 9.021218e+001
9.183895e+002, 9.038041e+001
9.188716e+002, 9.071034e+001
9.193537e+002, 9.136790e+001
9.198358e+002, 9.176264e+001
9.203179e+002, 9.174803e+001
9.208000e+002, 9.167612e+001
9.212822e+002, 9.158210e+001
9.217643e+002, 9.156493e+001
9.222464e+002, 9.180470e+001
9.227285e+002, 9.228418e+001
9.232106e+002, 9.260184e+001
9.236927e+002, 9.266448e+001
9.241749e+002, 9.260957e+001
9.246570e+002, 9.228909e+001
9.251391e+002, 9.203069e+001
9.256212e+002, 9.207558e+001
9.261033e+002, 9.239037e+001
9.265854e+002, 9.291065e+001
9.270676e+002, 9.362485e+001
9.275497e+002, 9.429704e+001
9.280318e+002, 9.476204e+001
9.285139e+002, 9.511619e+001
9.289960e+002, 9.533491e+001
9.294781e+002, 9.556467e+001
9.299603e+002, 9.617642e+001
9.304424e+002, 9.714478e+001
9.309245e+002, 9.796587e+001
9.314066e+002, 9.829227e+001
9.318887e+002, 9.846407e+001
9.323708e+002, 9.907151e+001
9.328530e+002, 9.998685e+001
9.333351e+002, 1.006207e+002
9.338172e+002, 1.009641e+002
9.342993e+002, 1.014556e+002
9.347814e+002, 1.022539e+002
9.352635e+002, 1.032522e+002
9.357457e+002, 1.043697e+002
9.362278e+002, 1.055611e+002
9.367099e+002, 1.065190e+002
9.371920e+002, 1.071425e+002
9.376741e+002, 1.079805e+002
9.381563e+002, 1.091335e+002
9.386384e+002, 1.104286e+002
9.391205e+002, 1.118102e+002
9.396026e+002, 1.132617e+002
9.400847e+002, 1.147748e+002
9.405668e+002, 1.163651e+002
9.410490e+002, 1.179094e+002
9.415311e+002, 1.191615e+002
9.420132e+002, 1.207118e+002
9.424953e+002, 1.227924e+002
9.429774e+002, 1.251001e+002
9.434595e+002, 1.274241e+002
9.439417e+002, 1.297975e+002
9.444238e+002, 1.322733e+002
9.449059e+002, 1.347886e+002
9.453880e+002, 1.377079e+002
9.458701e+002, 1.412776e+002
9.463522e+002, 1.451878e+002
9.468344e+002, 1.492897e+002
9.473165e+002, 1.535378e+002
9.477986e+002, 1.577783e+002
9.482807e+002, 1.620717e+002
9.487628e+002, 1.668417e+002
9.492449e+002, 1.723958e+002
9.497271e+002, 1.782980e+002
9.502092e+002, 1.839479e+002
9.506913e+002, 1.898141e+002
9.511734e+002, 1.968770e+002
9.516555e+002, 2.048783e+002
9.521376e+002, 2.127369e+002
9.526198e+002, 2.201300e+002
9.531019e+002, 2.278383e+002
9.535840e+002, 2.366733e+002
9.540661e+002, 2.463540e+002
9.545482e+002, 2.564140e+002
9.550303e+002, 2.667752e+002
9.555124e+002, 2.768218e+002
9.559945e+002, 2.865239e+002
9.564766e+002, 2.963788e+002
9.569587e+002, 3.066967e+002
9.574409e+002, 3.173999e+002
9.579230e+002, 3.284716e+002
9.584051e+002, 3.399563e+002
9.588872e+002, 3.501197e+002
9.593693e+002, 3.590590e+002
9.598514e+002, 3.663800e+002
9.603336e+002, 3.718672e+002
9.608157e+002, 3.760368e+002
9.612978e+002, 3.793895e+002
9.617799e+002, 3.815731e+002
9.622620e+002, 3.815954e+002
9.627441e+002, 3.793370e+002
9.632263e+002, 3.752991e+002
9.637084e+002, 3.692589e+002
9.641905e+002, 3.617248e+002
9.646726e+002, 3.525973e+002
9.651547e+002, 3.423057e+002
9.656368e+002, 3.308619e+002
9.661190e+002, 3.184720e+002
9.666011e+002, 3.060291e+002
9.670832e+002, 2.936025e+002
9.675653e+002, 2.811351e+002
9.680474e+002, 2.682309e+002
9.685295e+002, 2.556750e+002
9.690117e+002, 2.438216e+002
9.694938e+002, 2.326820e+002
9.699759e+002, 2.224424e+002
9.704580e+002, 2.130198e+002
9.709401e+002, 2.038885e+002
9.714222e+002, 1.945018e+002
9.719044e+002, 1.859221e+002
9.723865e+002, 1.791453e+002
9.728686e+002, 1.732548e+002
9.733507e+002, 1.673899e+002
9.738328e+002, 1.615997e+002
9.743149e+002, 1.561917e+002
9.747971e+002, 1.512746e+002
9.752792e+002, 1.467933e+002
9.757613e+002, 1.428171e+002
9.762434e+002, 1.391689e+002
9.767255e+002, 1.356359e+002
9.772076e+002, 1.322460e+002
9.776898e+002, 1.289812e+002
9.781719e+002, 1.258639e+002
9.786540e+002, 1.230918e+002
9.791361e+002, 1.207411e+002
9.796182e+002, 1.186617e+002
9.801003e+002, 1.166969e+002
9.805825e+002, 1.148313e+002
9.810646e+002, 1.130337e+002
9.815467e+002, 1.113245e+002
9.820288e+002, 1.098990e+002
9.825109e+002, 1.088009e+002
9.829930e+002, 1.077044e+002
9.834752e+002, 1.064096e+002
9.839573e+002, 1.049593e+002
9.844394e+002, 1.033389e+002
9.849215e+002, 1.015460e+002
9.854036e+002, 1.003678e+002
9.858857e+002, 9.991846e+001
9.863679e+002, 9.942664e+001
9.868500e+002, 9.869997e+001
9.873321e+002, 9.783660e+001
9.878142e+002, 9.687002e+001
9.882963e+002, 9.586959e+001
9.887784e+002, 9.506552e+001
9.892606e+002, 9.453072e+001
9.897427e+002, 9.394707e+001
9.902248e+002, 9.331871e+001
9.907069e+002, 9.261420e+001
9.911890e+002, 9.160493e+001
9.916711e+002, 9.075733e+001
9.921533e+002, 9.069636e+001
9.926354e+002, 9.123756e+001
9.931175e+002, 9.127420e+001
9.935996e+002, 9.047587e+001
9.940817e+002, 8.977194e+001
9.945638e+002, 8.923232e+001
9.950460e+002, 8.871677e+001
9.955281e+002, 8.806652e+001
9.960102e+002, 8.748862e+001
9.964923e+002, 8.724892e+001
9.969744e+002, 8.731648e+001
9.974565e+002, 8.739469e+001
9.979387e+002, 8.753265e+001
9.984208e+002, 8.750343e+001
9.989029e+002, 8.712581e+001
9.993850e+002, 8.669359e+001
9.998671e+002, 8.631865e+001
1.000349e+003, 8.604649e+001
1.000831e+003, 8.597559e+001
1.001313e+003, 8.608662e+001
1.001796e+003, 8.613261e+001
1.002278e+003, 8.595842e+001
1.002760e+003, 8.577756e+001
1.003242e+003, 8.576390e+001
1.003724e+003, 8.574684e+001
1.004206e+003, 8.553077e+001
1.004688e+003, 8.519669e+001
1.005170e+003, 8.490276e+001
1.005653e+003, 8.469531e+001
1.006135e+003, 8.456930e+001
1.006617e+003, 8.451829e+001
1.007099e+003, 8.455063e+001
1.007581e+003, 8.473347e+001
1.008063e+003, 8.496707e+001
1.008545e+003, 8.514378e+001
1.009027e+003, 8.523584e+001
1.009509e+003, 8.519010e+001
1.009992e+003, 8.499955e+001
1.010474e+003, 8.480277e+001
1.010956e+003, 8.474112e+001
1.011438e+003, 8.472340e+001
1.011920e+003, 8.453651e+001
1.012402e+003, 8.430865e+001
1.012884e+003, 8.437916e+001
1.013366e+003, 8.473234e+001
1.013849e+003, 8.514588e+001
1.014331e+003, 8.551662e+001
1.014813e+003, 8.569711e+001
1.015295e+003, 8.544237e+001
1.015777e+003, 8.493894e+001
1.016259e+003, 8.465135e+001
1.016741e+003, 8.454019e+001
1.017223e+003, 8.441179e+001
1.017705e+003, 8.424650e+001
1.018188e+003, 8.418925e+001
1.018670e+003, 8.432020e+001
1.019152e+003, 8.449435e+001
1.019634e+003, 8.450438e+001
1.020116e+003, 8.438707e+001
1.020598e+003, 8.431560e+001
1.021080e+003, 8.428947e+001
1.021562e+003, 8.431872e+001
1.022044e+003, 8.441254e+001
1.022527e+003, 8.438443e+001
1.023009e+003, 8.409579e+001
1.023491e+003, 8.378820e+001
1.023973e+003, 8.391996e+001
1.024455e+003, 8.444058e+001
1.024937e+003, 8.438987e+001
1.025419e+003, 8.365263e+001
1.025901e+003, 8.338815e+001
1.026384e+003, 8.391837e+001
1.026866e+003, 8.443873e+001
1.027348e+003, 8.441952e+001
1.027830e+003, 8.414950e+001
1.028312e+003, 8.416698e+001
1.028794e+003, 8.448619e+001
1.029276e+003, 8.476383e+001
1.029758e+003, 8.502189e+001
1.030240e+003, 8.515543e+001
1.030723e+003, 8.510622e+001
1.031205e+003, 8.501682e+001
1.031687e+003, 8.495806e+001
1.032169e+003, 8.494392e+001
1.032651e+003, 8.500819e+001
1.033133e+003, 8.515945e+001
1.033615e+003, 8.531368e+001
1.034097e+003, 8.548308e+001
1.034579e+003, 8.562572e+001
1.035062e+003, 8.572036e+001
1.035544e+003, 8.580750e+001
1.036026e+003, 8.594106e+001
1.036508e+003, 8.606545e+001
1.036990e+003, 8.602773e+001
1.037472e+003, 8.575295e+001
1.037954e+003, 8.573690e+001
1.038436e+003, 8.613773e+001
1.038919e+003, 8.654440e+001
1.039401e+003, 8.690653e+001
1.039883e+003, 8.723206e+001
1.040365e+003, 8.753294e+001
1.040847e+003, 8.779927e+001
1.041329e+003, 8.798406e+001
1.041811e+003, 8.804990e+001
1.042293e+003, 8.824027e+001
1.042776e+003, 8.872269e+001
1.043258e+003, 8.910409e+001
1.043740e+003, 8.916695e+001
1.044222e+003, 8.925344e+001
1.044704e+003, 8.953342e+001
1.045186e+003, 9.000974e+001
1.045668e+003, 9.076805e+001
1.046150e+003, 9.190284e+001
1.046632e+003, 9.265445e+001
1.047115e+003, 9.261742e+001
1.047597e+003, 9.263716e+001
1.048079e+003, 9.271677e+001
1.048561e+003, 9.311601e+001
1.049043e+003, 9.416397e+001
1.049525e+003, 9.559702e+001
1.050007e+003, 9.698819e+001
1.050489e+003, 9.829439e+001
1.050971e+003, 9.940962e+001
1.051454e+003, 9.998792e+001
1.051936e+003, 1.008077e+002
1.052418e+003, 1.022896e+002
1.052900e+003, 1.039105e+002
1.053382e+003, 1.052303e+002
1.053864e+003, 1.064383e+002
1.054346e+003, 1.078970e+002
1.054828e+003, 1.096644e+002
1.055311e+003, 1.116292e+002
1.055793e+003, 1.139592e+002
1.056275e+003, 1.162162e+002
1.056757e+003, 1.179697e+002
1.057239e+003, 1.198683e+002
1.057721e+003, 1.224203e+002
1.058203e+003, 1.254425e+002
1.058685e+003, 1.286148e+002
1.059167e+003, 1.318823e+002
1.059650e+003, 1.352564e+002
1.060132e+003, 1.386803e+002
1.060614e+003, 1.422957e+002
1.061096e+003, 1.463871e+002
1.061578e+003, 1.504829e+002
1.062060e+003, 1.541245e+002
1.062542e+003, 1.575916e+002
1.063024e+003, 1.613754e+002
1.063506e+003, 1.655377e+002
1.063989e+003, 1.697277e+002
1.064471e+003, 1.739939e+002
1.064953e+003, 1.780435e+002
1.065435e+003, 1.818207e+002
1.065917e+003, 1.852749e+002
1.066399e+003, 1.886473e+002
1.066881e+003, 1.915320e+002
1.067363e+003, 1.932183e+002
1.067846e+003, 1.936741e+002
1.068328e+003, 1.936701e+002
1.068810e+003, 1.938250e+002
1.069292e+003, 1.929884e+002
1.069774e+003, 1.904491e+002
1.070256e+003, 1.869268e+002
1.070738e+003, 1.825807e+002
1.071220e+003, 1.778158e+002
1.071703e+003, 1.730348e+002
1.072185e+003, 1.683083e+002
1.072667e+003, 1.634706e+002
1.073149e+003, 1.583918e+002
1.073631e+003, 1.533717e+002
1.074113e+003, 1.484827e+002
1.074595e+003, 1.437693e+002
1.075077e+003, 1.392618e+002
1.075559e+003, 1.349497e+002
1.076042e+003, 1.307399e+002
1.076524e+003, 1.266767e+002
1.077006e+003, 1.229967e+002
1.077488e+003, 1.198483e+002
1.077970e+003, 1.168307e+002
1.078452e+003, 1.135927e+002
1.078934e+003, 1.105830e+002
1.079416e+003, 1.081846e+002
1.079898e+003, 1.061117e+002
1.080380e+003, 1.039704e+002
1.080863e+003, 1.018002e+002
1.081345e+003, 9.992219e+001
1.081827e+003, 9.849380e+001
1.082309e+003, 9.708976e+001
1.082791e+003, 9.539688e+001
1.083273e+003, 9.380157e+001
1.083755e+003, 9.265928e+001
1.084237e+003, 9.165090e+001
1.084720e+003, 9.032021e+001
1.085202e+003, 8.883434e+001
1.085684e+003, 8.778025e+001
1.086166e+003, 8.737032e+001
1.086648e+003, 8.680988e+001
1.087130e+003, 8.558010e+001
1.087612e+003, 8.434410e+001
1.088094e+003, 8.333051e+001
1.088577e+003, 8.255622e+001
1.089059e+003, 8.222281e+001
1.089541e+003, 8.207249e+001
1.090023e+003, 8.150443e+001
1.090505e+003, 8.038950e+001
1.090987e+003, 7.957924e+001
1.091469e+003, 7.984209e+001
1.091951e+003, 7.987064e+001
1.092433e+003, 7.880345e+001
1.092916e+003, 7.758004e+001
1.093398e+003, 7.685778e+001
1.093880e+003, 7.655405e+001
1.094362e+003, 7.656950e+001
1.094844e+003, 7.683543e+001
1.095326e+003, 7.681388e+001
1.095808e+003, 7.601526e+001
1.096290e+003, 7.538003e+001
1.096772e+003, 7.541626e+001
1.097255e+003, 7.549549e+001
1.097737e+003, 7.500098e+001
1.098219e+003, 7.443552e+001
1.098701e+003, 7.474150e+001
1.099183e+003, 7.577311e+001
1.099665e+003, 7.605441e+001
1.100147e+003, 7.478899e+001
1.100629e+003, 7.371244e+001
1.101112e+003, 7.339131e+001
1.101594e+003, 7.321943e+001
1.102076e+003, 7.293089e+001
1.102558e+003, 7.261378e+001
1.103040e+003, 7.237437e+001
1.103522e+003, 7.220421e+001
1.104004e+003, 7.204276e+001
1.104486e+003, 7.188077e+001
1.104969e+003, 7.172657e+001
1.105451e+003, 7.162412e+001
1.105933e+003, 7.147475e+001
1.106415e+003, 7.115817e+001
1.106897e+003, 7.085962e+001
1.107379e+003, 7.074924e+001
1.107861e+003, 7.076779e+001
1.108343e+003, 7.076320e+001
1.108825e+003, 7.072128e+001
1.109307e+003, 7.067271e+001
1.109790e+003, 7.054292e+001
1.110272e+003, 7.051672e+001
1.110754e+003, 7.089335e+001
1.111236e+003, 7.110716e+001
1.111718e+003, 7.064156e+001
1.112200e+003, 6.987901e+001
1.112682e+003, 6.942873e+001
1.113164e+003, 6.930747e+001
1.113647e+003, 6.932275e+001
1.114129e+003, 6.974230e+001
1.114611e+003, 6.984649e+001
1.115093e+003, 6.926990e+001
1.115575e+003, 6.880972e+001
1.116057e+003, 6.893623e+001
1.116539e+003, 6.922083e+001
1.117021e+003, 6.911805e+001
1.117504e+003, 6.870711e+001
1.117986e+003, 6.859307e+001
1.118468e+003, 6.899358e+001
1.118950e+003, 6.915874e+001
1.119432e+003, 6.892484e+001
1.119914e+003, 6.878362e+001
1.120396e+003, 6.898139e+001
1.120878e+003, 6.916468e+001
1.121360e+003, 6.899513e+001
1.121843e+003, 6.860467e+001
1.122325e+003, 6.839575e+001
1.122807e+003, 6.841827e+001
1.123289e+003, 6.830319e+001
1.123771e+003, 6.798380e+001
1.124253e+003, 6.776064e+001
1.124735e+003, 6.772100e+001
1.125217e+003, 6.771292e+001
1.125699e+003, 6.762872e+001
1.126182e+003, 6.754720e+001
1.126664e+003, 6.762417e+001
1.127146e+003, 6.784457e+001
1.127628e+003, 6.794270e+001
1.128110e+003, 6.792123e+001
1.128592e+003, 6.769451e+001
1.129074e+003, 6.720367e+001
1.129556e+003, 6.691637e+001
1.130039e+003, 6.708530e+001
1.130521e+003, 6.729340e+001
1.131003e+003, 6.702346e+001
1.131485e+003, 6.647336e+001
1.131967e+003, 6.638197e+001
1.132449e+003, 6.671996e+001
1.132931e+003, 6.696178e+001
1.133413e+003, 6.708064e+001
1.133896e+003, 6.725488e+001
1.134378e+003, 6.753886e+001
1.134860e+003, 6.770100e+001
1.135342e+003, 6.755023e+001
1.135824e+003, 6.723097e+001
1.136306e+003, 6.691347e+001
1.136788e+003, 6.666209e+001
1.137270e+003, 6.688638e+001
1.137752e+003, 6.743354e+001
1.138234e+003, 6.743714e+001
1.138717e+003, 6.683739e+001
1.139199e+003, 6.646947e+001
1.139681e+003, 6.676124e+001
1.140163e+003, 6.723521e+001
1.140645e+003, 6.741058e+001
1.141127e+003, 6.736311e+001
1.141609e+003, 6.720441e+001
1.142091e+003, 6.694605e+001
1.142574e+003, 6.646432e+001
1.143056e+003, 6.591192e+001
1.143538e+003, 6.589345e+001
1.144020e+003, 6.651682e+001
1.144502e+003, 6.699212e+001
1.144984e+003, 6.667431e+001
1.145466e+003, 6.618925e+001
1.145948e+003, 6.621211e+001
1.146431e+003, 6.643056e+001
1.146913e+003, 6.645530e+001
1.147395e+003, 6.637025e+001
1.147877e+003, 6.633892e+001
1.148359e+003, 6.640966e+001
1.148841e+003, 6.664735e+001
1.149323e+003, 6.712608e+001
1.149805e+003, 6.748262e+001
1.150287e+003, 6.746410e+001
1.150770e+003, 6.726815e+001
1.151252e+003, 6.691566e+001
1.151734e+003, 6.656093e+001
1.152216e+003, 6.635679e+001
1.152698e+003, 6.628630e+001
1.153180e+003, 6.630180e+001
1.153662e+003, 6.639204e+001
1.154144e+003, 6.641344e+001
1.154626e+003, 6.619627e+001
1.155109e+003, 6.607657e+001
1.155591e+003, 6.629231e+001
1.156073e+003, 6.649944e+001
1.156555e+003, 6.646395e+001
1.157037e+003, 6.630701e+001
1.157519e+003, 6.616708e+001
1.158001e+003, 6.606113e+001
1.158483e+003, 6.602764e+001
1.158966e+003, 6.616435e+001
1.159448e+003, 6.617000e+001
1.159930e+003, 6.582845e+001
1.160412e+003, 6.562767e+001
1.160894e+003, 6.584209e+001
1.161376e+003, 6.607364e+001
1.161858e+003, 6.599100e+001
1.162340e+003, 6.574183e+001
1.162822e+003, 6.566991e+001
1.163305e+003, 6.580933e+001
1.163787e+003, 6.571449e+001
1.164269e+003, 6.516173e+001
1.164751e+003, 6.509722e+001
1.165233e+003, 6.588029e+001
1.165715e+003, 6.643727e+001
1.166197e+003, 6.617435e+001
1.166679e+003, 6.569772e+001
1.167161e+003, 6.574280e+001
1.167644e+003, 6.615452e+001
1.168126e+003, 6.627675e+001
1.168608e+003, 6.609769e+001
1.169090e+003, 6.599387e+001
1.169572e+003, 6.598331e+001
1.170054e+003, 6.593166e+001
1.170536e+003, 6.579765e+001
1.171018e+003, 6.588052e+001
1.171500e+003, 6.642470e+001
1.171983e+003, 6.702780e+001
1.172465e+003, 6.699686e+001
1.172947e+003, 6.651665e+001
1.173429e+003, 6.609346e+001
1.173911e+003, 6.577634e+001
1.174393e+003, 6.585733e+001
1.174875e+003, 6.626630e+001
1.175357e+003, 6.649484e+001
1.175840e+003, 6.635737e+001
1.176322e+003, 6.607500e+001
1.176804e+003, 6.577235e+001
1.177286e+003, 6.554709e+001
1.177768e+003, 6.556952e+001
1.178250e+003, 6.571062e+001
1.178732e+003, 6.582475e+001
1.179214e+003, 6.589030e+001
1.179697e+003, 6.587720e+001
1.180179e+003, 6.579998e+001
1.180661e+003, 6.571479e+001
1.181143e+003, 6.563476e+001
1.181625e+003, 6.562932e+001
1.182107e+003, 6.575488e+001
1.182589e+003, 6.595177e+001
1.183071e+003, 6.627633e+001
1.183553e+003, 6.656760e+001
1.184036e+003, 6.667397e+001
1.184518e+003, 6.663227e+001
1.185000e+003, 6.652588e+001
1.185482e+003, 6.636812e+001
1.185964e+003, 6.615419e+001
1.186446e+003, 6.570865e+001
1.186928e+003, 6.548878e+001
1.187410e+003, 6.574890e+001
1.187892e+003, 6.602747e+001
1.188375e+003, 6.618625e+001
1.188857e+003, 6.622792e+001
1.189339e+003, 6.611608e+001
1.189821e+003, 6.590617e+001
1.190303e+003, 6.576351e+001
1.190785e+003, 6.570644e+001
1.191267e+003, 6.559562e+001
1.191749e+003, 6.535035e+001
1.192232e+003, 6.529465e+001
1.192714e+003, 6.553655e+001
1.193196e+003, 6.581108e+001
1.193678e+003, 6.599847e+001
1.194160e+003, 6.611526e+001
1.194642e+003, 6.617030e+001
1.195124e+003, 6.618262e+001
1.195606e+003, 6.623795e+001
1.196089e+003, 6.633254e+001
1.196571e+003, 6.637991e+001
1.197053e+003, 6.637420e+001
1.197535e+003, 6.626794e+001
1.198017e+003, 6.605710e+001
1.198499e+003, 6.587393e+001
1.198981e+003, 6.579868e+001
1.199463e+003, 6.581913e+001
1.199945e+003, 6.591418e+001
1.200427e+003, 6.609702e+001
1.200910e+003, 6.659377e+001
1.201392e+003, 6.711743e+001
1.201874e+003, 6.683085e+001
1.202356e+003, 6.599698e+001
1.202838e+003, 6.564407e+001
1.203320e+003, 6.599661e+001
1.203802e+003, 6.640868e+001
1.204284e+003, 6.653857e+001
1.204767e+003, 6.651280e+001
1.205249e+003, 6.623071e+001
1.205731e+003, 6.604229e+001
1.206213e+003, 6.643674e+001
1.206695e+003, 6.694752e+001
1.207177e+003, 6.696155e+001
1.207659e+003, 6.660320e+001
1.208141e+003, 6.630757e+001
1.208624e+003, 6.615230e+001
1.209106e+003, 6.619955e+001
1.209588e+003, 6.666929e+001
1.210070e+003, 6.703533e+001
1.210552e+003, 6.706992e+001
1.211034e+003, 6.712002e+001
1.211516e+003, 6.744990e+001
1.211998e+003, 6.779938e+001
1.212480e+003, 6.790842e+001
1.212963e+003, 6.781736e+001
1.213445e+003, 6.765665e+001
1.213927e+003, 6.737132e+001
1.214409e+003, 6.731312e+001
1.214891e+003, 6.755539e+001
1.215373e+003, 6.769937e+001
1.215855e+003, 6.761802e+001
1.216337e+003, 6.774024e+001
1.216819e+003, 6.835024e+001
1.217302e+003, 6.894672e+001
1.217784e+003, 6.886044e+001
1.218266e+003, 6.836785e+001
1.218748e+003, 6.837090e+001
1.219230e+003, 6.874996e+001
1.219712e+003, 6.891164e+001
1.220194e+003, 6.885032e+001
1.220676e+003, 6.873107e+001
1.221159e+003, 6.858781e+001
1.221641e+003, 6.833518e+001
1.222123e+003, 6.792133e+001
1.222605e+003, 6.750483e+001
1.223087e+003, 6.722004e+001
1.223569e+003, 6.704026e+001
1.224051e+003, 6.691718e+001
1.224533e+003, 6.689285e+001
1.225016e+003, 6.710623e+001
1.225498e+003, 6.742708e+001
1.225980e+003, 6.761070e+001
1.226462e+003, 6.762180e+001
1.226944e+003, 6.757040e+001
1.227426e+003, 6.747650e+001
1.227908e+003, 6.737203e+001
1.228390e+003, 6.720893e+001
1.228872e+003, 6.711442e+001
1.229354e+003, 6.720317e+001
1.229837e+003, 6.732126e+001
1.230319e+003, 6.736890e+001
1.230801e+003, 6.735216e+001
1.231283e+003, 6.727135e+001
1.231765e+003, 6.713042e+001
1.232247e+003, 6.706172e+001
1.232729e+003, 6.708701e+001
1.233211e+003, 6.712830e+001
1.233694e+003, 6.720293e+001
1.234176e+003, 6.722751e+001
1.234658e+003, 6.718393e+001
1.235140e+003, 6.702683e+001
1.235622e+003, 6.668621e+001
1.236104e+003, 6.636892e+001
1.236586e+003, 6.648223e+001
1.237068e+003, 6.689548e+001
1.237551e+003, 6.701884e+001
1.238033e+003, 6.694066e+001
1.238515e+003, 6.714128e+001
1.238997e+003, 6.756557e+001
1.239479e+003, 6.766473e+001
1.239961e+003, 6.732958e+001
1.240443e+003, 6.701902e+001
1.240925e+003, 6.700636e+001
1.241407e+003, 6.720668e+001
1.241890e+003, 6.776610e+001
1.242372e+003, 6.826039e+001
1.242854e+003, 6.820246e+001
1.243336e+003, 6.789237e+001
1.243818e+003, 6.758797e+001
1.244300e+003, 6.739194e+001
1.244782e+003, 6.753462e+001
1.245264e+003, 6.799789e+001
1.245746e+003, 6.809081e+001
1.246229e+003, 6.721101e+001
1.246711e+003, 6.673500e+001
1.247193e+003, 6.728869e+001
1.247675e+003, 6.774187e+001
1.248157e+003, 6.750794e+001
1.248639e+003, 6.730885e+001
1.249121e+003, 6.778437e+001
1.249603e+003, 6.849202e+001
1.250085e+003, 6.862322e+001
1.250568e+003, 6.820670e+001
1.251050e+003, 6.767873e+001
1.251532e+003, 6.698548e+001
1.252014e+003, 6.683637e+001
1.252496e+003, 6.730318e+001
1.252978e+003, 6.782435e+001
1.253460e+003, 6.822963e+001
1.253942e+003, 6.835683e+001
1.254425e+003, 6.807124e+001
1.254907e+003, 6.769584e+001
1.255389e+003, 6.772044e+001
1.255871e+003, 6.793547e+001
1.256353e+003, 6.798772e+001
1.256835e+003, 6.791463e+001
1.257317e+003, 6.770855e+001
1.257799e+003, 6.746164e+001
1.258281e+003, 6.736869e+001
1.258764e+003, 6.745849e+001
1.259246e+003, 6.763526e+001
1.259728e+003, 6.791617e+001
1.260210e+003, 6.805733e+001
1.260692e+003, 6.777809e+001
1.261174e+003, 6.755328e+001
1.261656e+003, 6.767207e+001
1.262138e+003, 6.786580e+001
1.262620e+003, 6.789442e+001
1.263103e+003, 6.787862e+001
1.263585e+003, 6.806097e+001
1.264067e+003, 6.840424e+001
1.264549e+003, 6.859426e+001
1.265031e+003, 6.867055e+001
1.265513e+003, 6.839684e+001
1.265995e+003, 6.763505e+001
1.266477e+003, 6.716499e+001
1.266960e+003, 6.719180e+001
1.267442e+003, 6.732976e+001
1.267924e+003, 6.737948e+001
1.268406e+003, 6.728600e+001
1.268888e+003, 6.691417e+001
1.269370e+003, 6.648361e+001
1.269852e+003, 6.656184e+001
1.270334e+003, 6.695816e+001
1.270817e+003, 6.721301e+001
1.271299e+003, 6.735367e+001
1.271781e+003, 6.759473e+001
1.272263e+003, 6.789596e+001
1.272745e+003, 6.790926e+001
1.273227e+003, 6.750072e+001
1.273709e+003, 6.719569e+001
1.274191e+003, 6.748193e+001
1.274673e+003, 6.770693e+001
1.275156e+003, 6.736444e+001
1.275638e+003, 6.705518e+001
1.276120e+003, 6.726144e+001
1.276602e+003, 6.765300e+001
1.277084e+003, 6.787318e+001
1.277566e+003, 6.793800e+001
1.278048e+003, 6.795029e+001
1.278530e+003, 6.789996e+001
1.279012e+003, 6.790031e+001
1.279495e+003, 6.796190e+001
1.279977e+003, 6.801440e+001
1.280459e+003, 6.803844e+001
1.280941e+003, 6.817191e+001
1.281423e+003, 6.848991e+001
1.281905e+003, 6.865987e+001
1.282387e+003, 6.838247e+001
1.282869e+003, 6.801600e+001
1.283352e+003, 6.821408e+001
1.283834e+003, 6.874831e+001
1.284316e+003, 6.912463e+001
1.284798e+003, 6.934661e+001
##END=



