##NAMES=Jeremejevite
##RRUFFID=R060617
##IDEAL CHEMISTRY=Al_6_(BO_3_)_5_F_3_
##LOCALITY=Ameib Farm, Usakos, Karibib District, Erongo Region, Namibia
##OWNER=RRUFF
##SOURCE=Michael Scott
##DESCRIPTION=Very pale blue hexagonal prism
##STATUS=The identification of this mineral is confirmed by single-crystal X-ray diffraction and chemical analysis.
##URL=rruff.info/R060617
##MEASURED CHEMISTRY=(Al_5.99_Fe^3+^_0.01_)_Σ=6_(BO_3_)_5_(F_2.85_(OH)_0.15_)_Σ=3_ ; B and H not measured but estimated by difference and charge balance
9.059570e+001, 6.373011e+002
9.107782e+001, 6.349255e+002
9.155994e+001, 6.341119e+002
9.204205e+001, 6.361887e+002
9.252417e+001, 6.389172e+002
9.300629e+001, 6.414850e+002
9.348840e+001, 6.403471e+002
9.397052e+001, 6.317828e+002
9.445264e+001, 6.151719e+002
9.493475e+001, 5.995816e+002
9.541687e+001, 5.838712e+002
9.589898e+001, 5.674846e+002
9.638110e+001, 5.518480e+002
9.686321e+001, 5.384223e+002
9.734533e+001, 5.274252e+002
9.782745e+001, 5.170994e+002
9.830956e+001, 5.066713e+002
9.879168e+001, 4.947480e+002
9.927380e+001, 4.843764e+002
9.975591e+001, 4.766884e+002
1.002380e+002, 4.709974e+002
1.007201e+002, 4.657533e+002
1.012023e+002, 4.601003e+002
1.016844e+002, 4.541224e+002
1.021665e+002, 4.483521e+002
1.026486e+002, 4.426984e+002
1.031307e+002, 4.371955e+002
1.036128e+002, 4.317020e+002
1.040950e+002, 4.260149e+002
1.045771e+002, 4.210630e+002
1.050592e+002, 4.176172e+002
1.055413e+002, 4.151295e+002
1.060234e+002, 4.129818e+002
1.065055e+002, 4.108741e+002
1.069877e+002, 4.088578e+002
1.074698e+002, 4.073481e+002
1.079519e+002, 4.076786e+002
1.084340e+002, 4.066987e+002
1.089161e+002, 4.026292e+002
1.093982e+002, 3.962044e+002
1.098804e+002, 3.892779e+002
1.103625e+002, 3.833549e+002
1.108446e+002, 3.785286e+002
1.113267e+002, 3.743609e+002
1.118088e+002, 3.706337e+002
1.122909e+002, 3.676293e+002
1.127731e+002, 3.658066e+002
1.132552e+002, 3.650765e+002
1.137373e+002, 3.647536e+002
1.142194e+002, 3.638711e+002
1.147015e+002, 3.620257e+002
1.151836e+002, 3.602516e+002
1.156658e+002, 3.587177e+002
1.161479e+002, 3.571709e+002
1.166300e+002, 3.552983e+002
1.171121e+002, 3.529663e+002
1.175942e+002, 3.504146e+002
1.180763e+002, 3.482664e+002
1.185584e+002, 3.467336e+002
1.190406e+002, 3.450619e+002
1.195227e+002, 3.429163e+002
1.200048e+002, 3.404475e+002
1.204869e+002, 3.379942e+002
1.209690e+002, 3.355389e+002
1.214511e+002, 3.333900e+002
1.219333e+002, 3.319779e+002
1.224154e+002, 3.315109e+002
1.228975e+002, 3.314109e+002
1.233796e+002, 3.314655e+002
1.238617e+002, 3.317715e+002
1.243438e+002, 3.313994e+002
1.248260e+002, 3.294104e+002
1.253081e+002, 3.266661e+002
1.257902e+002, 3.237593e+002
1.262723e+002, 3.207932e+002
1.267544e+002, 3.179313e+002
1.272365e+002, 3.155614e+002
1.277187e+002, 3.136814e+002
1.282008e+002, 3.123875e+002
1.286829e+002, 3.119335e+002
1.291650e+002, 3.119184e+002
1.296471e+002, 3.118412e+002
1.301292e+002, 3.114005e+002
1.306114e+002, 3.106107e+002
1.310935e+002, 3.096533e+002
1.315756e+002, 3.084969e+002
1.320577e+002, 3.071864e+002
1.325398e+002, 3.056349e+002
1.330219e+002, 3.039203e+002
1.335041e+002, 3.022109e+002
1.339862e+002, 3.006406e+002
1.344683e+002, 2.992118e+002
1.349504e+002, 2.979168e+002
1.354325e+002, 2.967845e+002
1.359146e+002, 2.957297e+002
1.363968e+002, 2.945981e+002
1.368789e+002, 2.934160e+002
1.373610e+002, 2.924745e+002
1.378431e+002, 2.921685e+002
1.383252e+002, 2.926456e+002
1.388073e+002, 2.931118e+002
1.392895e+002, 2.937546e+002
1.397716e+002, 2.942776e+002
1.402537e+002, 2.942587e+002
1.407358e+002, 2.935382e+002
1.412179e+002, 2.925334e+002
1.417000e+002, 2.918815e+002
1.421821e+002, 2.915647e+002
1.426643e+002, 2.909059e+002
1.431464e+002, 2.894178e+002
1.436285e+002, 2.873151e+002
1.441106e+002, 2.853563e+002
1.445927e+002, 2.837010e+002
1.450748e+002, 2.822700e+002
1.455570e+002, 2.809552e+002
1.460391e+002, 2.797574e+002
1.465212e+002, 2.786550e+002
1.470033e+002, 2.777212e+002
1.474854e+002, 2.769952e+002
1.479675e+002, 2.760340e+002
1.484497e+002, 2.743292e+002
1.489318e+002, 2.726164e+002
1.494139e+002, 2.713615e+002
1.498960e+002, 2.706514e+002
1.503781e+002, 2.701342e+002
1.508602e+002, 2.692679e+002
1.513424e+002, 2.677916e+002
1.518245e+002, 2.665176e+002
1.523066e+002, 2.654146e+002
1.527887e+002, 2.645504e+002
1.532708e+002, 2.639872e+002
1.537529e+002, 2.637493e+002
1.542351e+002, 2.637889e+002
1.547172e+002, 2.639806e+002
1.551993e+002, 2.639311e+002
1.556814e+002, 2.645969e+002
1.561635e+002, 2.663282e+002
1.566456e+002, 2.686946e+002
1.571278e+002, 2.711543e+002
1.576099e+002, 2.734284e+002
1.580920e+002, 2.756544e+002
1.585741e+002, 2.784591e+002
1.590562e+002, 2.826700e+002
1.595383e+002, 2.864554e+002
1.600205e+002, 2.894292e+002
1.605026e+002, 2.916431e+002
1.609847e+002, 2.931649e+002
1.614668e+002, 2.938994e+002
1.619489e+002, 2.940085e+002
1.624310e+002, 2.943071e+002
1.629131e+002, 2.945150e+002
1.633953e+002, 2.951342e+002
1.638774e+002, 2.962379e+002
1.643595e+002, 2.978711e+002
1.648416e+002, 3.005264e+002
1.653237e+002, 3.048658e+002
1.658058e+002, 3.104639e+002
1.662880e+002, 3.161716e+002
1.667701e+002, 3.217474e+002
1.672522e+002, 3.275197e+002
1.677343e+002, 3.338146e+002
1.682164e+002, 3.406328e+002
1.686985e+002, 3.479238e+002
1.691807e+002, 3.546142e+002
1.696628e+002, 3.619242e+002
1.701449e+002, 3.716957e+002
1.706270e+002, 3.846259e+002
1.711091e+002, 4.003927e+002
1.715912e+002, 4.178301e+002
1.720734e+002, 4.352711e+002
1.725555e+002, 4.581109e+002
1.730376e+002, 4.844149e+002
1.735197e+002, 5.170369e+002
1.740018e+002, 5.595282e+002
1.744839e+002, 6.119843e+002
1.749661e+002, 6.760349e+002
1.754482e+002, 7.612150e+002
1.759303e+002, 8.691867e+002
1.764124e+002, 1.001110e+003
1.768945e+002, 1.186074e+003
1.773766e+002, 1.393024e+003
1.778588e+002, 1.574801e+003
1.783409e+002, 1.704525e+003
1.788230e+002, 1.782536e+003
1.793051e+002, 1.755293e+003
1.797872e+002, 1.536711e+003
1.802693e+002, 1.298688e+003
1.807515e+002, 1.068383e+003
1.812336e+002, 8.580551e+002
1.817157e+002, 6.817440e+002
1.821978e+002, 5.524312e+002
1.826799e+002, 4.737347e+002
1.831620e+002, 4.141450e+002
1.836441e+002, 3.773692e+002
1.841263e+002, 3.513193e+002
1.846084e+002, 3.327771e+002
1.850905e+002, 3.204151e+002
1.855726e+002, 3.121557e+002
1.860547e+002, 3.063017e+002
1.865368e+002, 3.031626e+002
1.870190e+002, 3.026048e+002
1.875011e+002, 3.042006e+002
1.879832e+002, 3.084796e+002
1.884653e+002, 3.157426e+002
1.889474e+002, 3.260073e+002
1.894296e+002, 3.395956e+002
1.899117e+002, 3.584479e+002
1.903938e+002, 3.822809e+002
1.908759e+002, 4.030555e+002
1.913580e+002, 4.250789e+002
1.918401e+002, 4.411662e+002
1.923223e+002, 4.419206e+002
1.928044e+002, 4.250161e+002
1.932865e+002, 3.992446e+002
1.937686e+002, 3.674881e+002
1.942507e+002, 3.321128e+002
1.947328e+002, 3.017914e+002
1.952150e+002, 2.797549e+002
1.956971e+002, 2.643598e+002
1.961792e+002, 2.527328e+002
1.966613e+002, 2.454068e+002
1.971434e+002, 2.404424e+002
1.976255e+002, 2.367637e+002
1.981077e+002, 2.341046e+002
1.985898e+002, 2.319999e+002
1.990719e+002, 2.302550e+002
1.995540e+002, 2.288666e+002
2.000361e+002, 2.278492e+002
2.005182e+002, 2.272718e+002
2.010004e+002, 2.270185e+002
2.014825e+002, 2.269927e+002
2.019646e+002, 2.271893e+002
2.024467e+002, 2.275949e+002
2.029288e+002, 2.281235e+002
2.034109e+002, 2.287970e+002
2.038930e+002, 2.299634e+002
2.043752e+002, 2.312555e+002
2.048573e+002, 2.335637e+002
2.053394e+002, 2.372063e+002
2.058215e+002, 2.420848e+002
2.063036e+002, 2.480362e+002
2.067857e+002, 2.552551e+002
2.072679e+002, 2.638727e+002
2.077500e+002, 2.711913e+002
2.082321e+002, 2.799595e+002
2.087142e+002, 2.847364e+002
2.091963e+002, 2.823257e+002
2.096784e+002, 2.740099e+002
2.101606e+002, 2.631698e+002
2.106427e+002, 2.523628e+002
2.111248e+002, 2.413909e+002
2.116069e+002, 2.328788e+002
2.120890e+002, 2.275515e+002
2.125711e+002, 2.237230e+002
2.130533e+002, 2.211293e+002
2.135354e+002, 2.195329e+002
2.140175e+002, 2.185904e+002
2.144996e+002, 2.180697e+002
2.149817e+002, 2.180831e+002
2.154638e+002, 2.177021e+002
2.159460e+002, 2.165299e+002
2.164281e+002, 2.154055e+002
2.169102e+002, 2.146873e+002
2.173923e+002, 2.144009e+002
2.178744e+002, 2.144129e+002
2.183565e+002, 2.146101e+002
2.188387e+002, 2.150055e+002
2.193208e+002, 2.156488e+002
2.198029e+002, 2.168204e+002
2.202850e+002, 2.179848e+002
2.207671e+002, 2.187696e+002
2.212492e+002, 2.191884e+002
2.217314e+002, 2.195325e+002
2.222135e+002, 2.199949e+002
2.226956e+002, 2.206031e+002
2.231777e+002, 2.215416e+002
2.236598e+002, 2.230084e+002
2.241419e+002, 2.246545e+002
2.246240e+002, 2.260130e+002
2.251062e+002, 2.271081e+002
2.255883e+002, 2.286580e+002
2.260704e+002, 2.311723e+002
2.265525e+002, 2.347319e+002
2.270346e+002, 2.392188e+002
2.275167e+002, 2.438498e+002
2.279989e+002, 2.498930e+002
2.284810e+002, 2.582088e+002
2.289631e+002, 2.687985e+002
2.294452e+002, 2.821549e+002
2.299273e+002, 3.001249e+002
2.304094e+002, 3.211857e+002
2.308916e+002, 3.412108e+002
2.313737e+002, 3.655629e+002
2.318558e+002, 3.851660e+002
2.323379e+002, 3.885201e+002
2.328200e+002, 3.743353e+002
2.333021e+002, 3.528949e+002
2.337843e+002, 3.248686e+002
2.342664e+002, 2.945985e+002
2.347485e+002, 2.688301e+002
2.352306e+002, 2.494266e+002
2.357127e+002, 2.351217e+002
2.361948e+002, 2.246736e+002
2.366770e+002, 2.185205e+002
2.371591e+002, 2.142316e+002
2.376412e+002, 2.112995e+002
2.381233e+002, 2.092871e+002
2.386054e+002, 2.078853e+002
2.390875e+002, 2.071525e+002
2.395697e+002, 2.067702e+002
2.400518e+002, 2.062279e+002
2.405339e+002, 2.054466e+002
2.410160e+002, 2.047543e+002
2.414981e+002, 2.043616e+002
2.419802e+002, 2.040798e+002
2.424624e+002, 2.037054e+002
2.429445e+002, 2.031375e+002
2.434266e+002, 2.025534e+002
2.439087e+002, 2.022753e+002
2.443908e+002, 2.023928e+002
2.448729e+002, 2.025803e+002
2.453550e+002, 2.028407e+002
2.458372e+002, 2.030782e+002
2.463193e+002, 2.032049e+002
2.468014e+002, 2.031889e+002
2.472835e+002, 2.030726e+002
2.477656e+002, 2.028944e+002
2.482477e+002, 2.025637e+002
2.487299e+002, 2.023995e+002
2.492120e+002, 2.025367e+002
2.496941e+002, 2.027911e+002
2.501762e+002, 2.030278e+002
2.506583e+002, 2.032061e+002
2.511404e+002, 2.033736e+002
2.516226e+002, 2.036201e+002
2.521047e+002, 2.039958e+002
2.525868e+002, 2.043373e+002
2.530689e+002, 2.046953e+002
2.535510e+002, 2.049815e+002
2.540331e+002, 2.050622e+002
2.545153e+002, 2.049312e+002
2.549974e+002, 2.047866e+002
2.554795e+002, 2.049128e+002
2.559616e+002, 2.053037e+002
2.564437e+002, 2.060265e+002
2.569258e+002, 2.072232e+002
2.574080e+002, 2.085767e+002
2.578901e+002, 2.098576e+002
2.583722e+002, 2.110371e+002
2.588543e+002, 2.122780e+002
2.593364e+002, 2.137825e+002
2.598185e+002, 2.155268e+002
2.603007e+002, 2.176501e+002
2.607828e+002, 2.200293e+002
2.612649e+002, 2.228039e+002
2.617470e+002, 2.258708e+002
2.622291e+002, 2.293324e+002
2.627112e+002, 2.334706e+002
2.631934e+002, 2.385013e+002
2.636755e+002, 2.440283e+002
2.641576e+002, 2.522759e+002
2.646397e+002, 2.632346e+002
2.651218e+002, 2.762575e+002
2.656039e+002, 2.920236e+002
2.660861e+002, 3.098450e+002
2.665682e+002, 3.280441e+002
2.670503e+002, 3.457142e+002
2.675324e+002, 3.640344e+002
2.680145e+002, 3.723955e+002
2.684966e+002, 3.671852e+002
2.689788e+002, 3.576149e+002
2.694609e+002, 3.462207e+002
2.699430e+002, 3.341125e+002
2.704251e+002, 3.230445e+002
2.709072e+002, 3.148315e+002
2.713893e+002, 3.097402e+002
2.718715e+002, 3.007347e+002
2.723536e+002, 2.853915e+002
2.728357e+002, 2.694507e+002
2.733178e+002, 2.541637e+002
2.737999e+002, 2.401602e+002
2.742820e+002, 2.286179e+002
2.747642e+002, 2.204589e+002
2.752463e+002, 2.154850e+002
2.757284e+002, 2.116190e+002
2.762105e+002, 2.088647e+002
2.766926e+002, 2.068802e+002
2.771747e+002, 2.057884e+002
2.776568e+002, 2.053752e+002
2.781389e+002, 2.052223e+002
2.786211e+002, 2.051135e+002
2.791032e+002, 2.050750e+002
2.795853e+002, 2.052425e+002
2.800674e+002, 2.055538e+002
2.805495e+002, 2.060895e+002
2.810316e+002, 2.068576e+002
2.815138e+002, 2.078661e+002
2.819959e+002, 2.090894e+002
2.824780e+002, 2.104878e+002
2.829601e+002, 2.121823e+002
2.834422e+002, 2.144926e+002
2.839243e+002, 2.173751e+002
2.844065e+002, 2.208124e+002
2.848886e+002, 2.246783e+002
2.853707e+002, 2.291322e+002
2.858528e+002, 2.342867e+002
2.863349e+002, 2.401437e+002
2.868170e+002, 2.470099e+002
2.872992e+002, 2.557808e+002
2.877813e+002, 2.669444e+002
2.882634e+002, 2.780040e+002
2.887455e+002, 2.900765e+002
2.892276e+002, 3.011878e+002
2.897097e+002, 3.092118e+002
2.901919e+002, 3.137077e+002
2.906740e+002, 3.144293e+002
2.911561e+002, 3.101666e+002
2.916382e+002, 3.002603e+002
2.921203e+002, 2.903198e+002
2.926024e+002, 2.799278e+002
2.930846e+002, 2.702731e+002
2.935667e+002, 2.623871e+002
2.940488e+002, 2.563827e+002
2.945309e+002, 2.522143e+002
2.950130e+002, 2.500395e+002
2.954951e+002, 2.500100e+002
2.959773e+002, 2.508654e+002
2.964594e+002, 2.523692e+002
2.969415e+002, 2.548884e+002
2.974236e+002, 2.587203e+002
2.979057e+002, 2.638507e+002
2.983878e+002, 2.702129e+002
2.988700e+002, 2.781014e+002
2.993521e+002, 2.872811e+002
2.998342e+002, 2.959109e+002
3.003163e+002, 3.055227e+002
3.007984e+002, 3.131693e+002
3.012805e+002, 3.179922e+002
3.017627e+002, 3.196782e+002
3.022448e+002, 3.168506e+002
3.027269e+002, 3.081187e+002
3.032090e+002, 2.945953e+002
3.036911e+002, 2.800011e+002
3.041732e+002, 2.627709e+002
3.046554e+002, 2.469397e+002
3.051375e+002, 2.340054e+002
3.056196e+002, 2.238063e+002
3.061017e+002, 2.160495e+002
3.065838e+002, 2.108017e+002
3.070659e+002, 2.076733e+002
3.075481e+002, 2.062357e+002
3.080302e+002, 2.065922e+002
3.085123e+002, 2.075345e+002
3.089944e+002, 2.086973e+002
3.094765e+002, 2.101895e+002
3.099586e+002, 2.123361e+002
3.104408e+002, 2.153158e+002
3.109229e+002, 2.185059e+002
3.114050e+002, 2.209881e+002
3.118871e+002, 2.227557e+002
3.123692e+002, 2.246246e+002
3.128513e+002, 2.266807e+002
3.133335e+002, 2.289507e+002
3.138156e+002, 2.313887e+002
3.142977e+002, 2.339696e+002
3.147798e+002, 2.370123e+002
3.152619e+002, 2.408563e+002
3.157440e+002, 2.455264e+002
3.162262e+002, 2.506677e+002
3.167083e+002, 2.558542e+002
3.171904e+002, 2.617874e+002
3.176725e+002, 2.691419e+002
3.181546e+002, 2.779187e+002
3.186367e+002, 2.873804e+002
3.191188e+002, 2.968134e+002
3.196010e+002, 3.066686e+002
3.200831e+002, 3.185491e+002
3.205652e+002, 3.318154e+002
3.210473e+002, 3.476757e+002
3.215294e+002, 3.660470e+002
3.220115e+002, 3.873290e+002
3.224937e+002, 4.131616e+002
3.229758e+002, 4.438760e+002
3.234579e+002, 4.801140e+002
3.239400e+002, 5.224006e+002
3.244221e+002, 5.703148e+002
3.249042e+002, 6.236061e+002
3.253864e+002, 6.859186e+002
3.258685e+002, 7.531061e+002
3.263506e+002, 8.208007e+002
3.268327e+002, 8.898163e+002
3.273148e+002, 9.512532e+002
3.277969e+002, 9.927559e+002
3.282791e+002, 1.017954e+003
3.287612e+002, 1.014078e+003
3.292433e+002, 9.686230e+002
3.297254e+002, 8.973083e+002
3.302075e+002, 8.121061e+002
3.306896e+002, 7.150650e+002
3.311718e+002, 6.193992e+002
3.316539e+002, 5.365955e+002
3.321360e+002, 4.681678e+002
3.326181e+002, 4.105518e+002
3.331002e+002, 3.663815e+002
3.335823e+002, 3.312944e+002
3.340645e+002, 3.035888e+002
3.345466e+002, 2.827282e+002
3.350287e+002, 2.659640e+002
3.355108e+002, 2.519019e+002
3.359929e+002, 2.405457e+002
3.364750e+002, 2.312348e+002
3.369572e+002, 2.245445e+002
3.374393e+002, 2.189041e+002
3.379214e+002, 2.138708e+002
3.384035e+002, 2.093682e+002
3.388856e+002, 2.053147e+002
3.393677e+002, 2.016808e+002
3.398499e+002, 1.984512e+002
3.403320e+002, 1.956577e+002
3.408141e+002, 1.933632e+002
3.412962e+002, 1.913071e+002
3.417783e+002, 1.893623e+002
3.422604e+002, 1.876550e+002
3.427426e+002, 1.864252e+002
3.432247e+002, 1.857464e+002
3.437068e+002, 1.853581e+002
3.441889e+002, 1.849162e+002
3.446710e+002, 1.843893e+002
3.451531e+002, 1.839044e+002
3.456353e+002, 1.833074e+002
3.461174e+002, 1.828654e+002
3.465995e+002, 1.828689e+002
3.470816e+002, 1.832940e+002
3.475637e+002, 1.837943e+002
3.480458e+002, 1.840115e+002
3.485280e+002, 1.839172e+002
3.490101e+002, 1.843733e+002
3.494922e+002, 1.851760e+002
3.499743e+002, 1.866158e+002
3.504564e+002, 1.889075e+002
3.509385e+002, 1.919274e+002
3.514207e+002, 1.953167e+002
3.519028e+002, 1.987917e+002
3.523849e+002, 2.025977e+002
3.528670e+002, 2.079124e+002
3.533491e+002, 2.155505e+002
3.538312e+002, 2.236562e+002
3.543134e+002, 2.327279e+002
3.547955e+002, 2.418611e+002
3.552776e+002, 2.502135e+002
3.557597e+002, 2.574554e+002
3.562418e+002, 2.635160e+002
3.567239e+002, 2.682077e+002
3.572061e+002, 2.703152e+002
3.576882e+002, 2.735284e+002
3.581703e+002, 2.777745e+002
3.586524e+002, 2.830572e+002
3.591345e+002, 2.891957e+002
3.596166e+002, 2.962982e+002
3.600987e+002, 3.046775e+002
3.605808e+002, 3.146277e+002
3.610630e+002, 3.261093e+002
3.615451e+002, 3.397028e+002
3.620272e+002, 3.552031e+002
3.625093e+002, 3.727993e+002
3.629914e+002, 3.918305e+002
3.634735e+002, 4.131592e+002
3.639557e+002, 4.375483e+002
3.644378e+002, 4.652914e+002
3.649199e+002, 4.970908e+002
3.654020e+002, 5.356610e+002
3.658841e+002, 5.774011e+002
3.663662e+002, 6.325073e+002
3.668484e+002, 6.974384e+002
3.673305e+002, 7.773884e+002
3.678126e+002, 8.759609e+002
3.682947e+002, 9.942870e+002
3.687768e+002, 1.134430e+003
3.692589e+002, 1.302011e+003
3.697411e+002, 1.502814e+003
3.702232e+002, 1.716194e+003
3.707053e+002, 1.984498e+003
3.711874e+002, 2.229262e+003
3.716695e+002, 2.439512e+003
3.721516e+002, 2.594868e+003
3.726338e+002, 2.652885e+003
3.731159e+002, 2.563156e+003
3.735980e+002, 2.329547e+003
3.740801e+002, 2.063769e+003
3.745622e+002, 1.717088e+003
3.750443e+002, 1.398498e+003
3.755265e+002, 1.136122e+003
3.760086e+002, 9.241530e+002
3.764907e+002, 7.567537e+002
3.769728e+002, 6.330129e+002
3.774549e+002, 5.445406e+002
3.779370e+002, 4.743416e+002
3.784192e+002, 4.254899e+002
3.789013e+002, 3.867119e+002
3.793834e+002, 3.587580e+002
3.798655e+002, 3.371103e+002
3.803476e+002, 3.194727e+002
3.808297e+002, 3.053310e+002
3.813119e+002, 2.934238e+002
3.817940e+002, 2.830145e+002
3.822761e+002, 2.740577e+002
3.827582e+002, 2.653450e+002
3.832403e+002, 2.566855e+002
3.837224e+002, 2.483255e+002
3.842046e+002, 2.402514e+002
3.846867e+002, 2.325483e+002
3.851688e+002, 2.252913e+002
3.856509e+002, 2.185672e+002
3.861330e+002, 2.123836e+002
3.866151e+002, 2.066749e+002
3.870973e+002, 2.014083e+002
3.875794e+002, 1.967988e+002
3.880615e+002, 1.930920e+002
3.885436e+002, 1.900992e+002
3.890257e+002, 1.876327e+002
3.895078e+002, 1.856669e+002
3.899900e+002, 1.842040e+002
3.904721e+002, 1.832834e+002
3.909542e+002, 1.828852e+002
3.914363e+002, 1.829001e+002
3.919184e+002, 1.833409e+002
3.924005e+002, 1.841443e+002
3.928827e+002, 1.851682e+002
3.933648e+002, 1.863847e+002
3.938469e+002, 1.879499e+002
3.943290e+002, 1.899212e+002
3.948111e+002, 1.922792e+002
3.952932e+002, 1.952296e+002
3.957754e+002, 1.989154e+002
3.962575e+002, 2.022955e+002
3.967396e+002, 2.047195e+002
3.972217e+002, 2.060379e+002
3.977038e+002, 2.058351e+002
3.981859e+002, 2.034016e+002
3.986681e+002, 2.000444e+002
3.991501e+002, 1.960260e+002
3.996323e+002, 1.916780e+002
4.001144e+002, 1.880208e+002
4.005965e+002, 1.855550e+002
4.010786e+002, 1.841225e+002
4.015607e+002, 1.833997e+002
4.020428e+002, 1.834732e+002
4.025250e+002, 1.839551e+002
4.030071e+002, 1.847375e+002
4.034892e+002, 1.859131e+002
4.039713e+002, 1.875524e+002
4.044534e+002, 1.896733e+002
4.049355e+002, 1.923247e+002
4.054177e+002, 1.955262e+002
4.058998e+002, 1.991935e+002
4.063819e+002, 2.039613e+002
4.068640e+002, 2.104882e+002
4.073461e+002, 2.173120e+002
4.078282e+002, 2.239214e+002
4.083104e+002, 2.302556e+002
4.087925e+002, 2.363984e+002
4.092746e+002, 2.424816e+002
4.097567e+002, 2.484043e+002
4.102388e+002, 2.538001e+002
4.107209e+002, 2.580605e+002
4.112031e+002, 2.625466e+002
4.116852e+002, 2.667754e+002
4.121673e+002, 2.715920e+002
4.126494e+002, 2.774056e+002
4.131315e+002, 2.844789e+002
4.136136e+002, 2.934917e+002
4.140958e+002, 3.053561e+002
4.145779e+002, 3.203262e+002
4.150600e+002, 3.374221e+002
4.155421e+002, 3.592296e+002
4.160242e+002, 3.807284e+002
4.165063e+002, 4.021093e+002
4.169885e+002, 4.217107e+002
4.174706e+002, 4.363195e+002
4.179527e+002, 4.444666e+002
4.184348e+002, 4.457933e+002
4.189169e+002, 4.386605e+002
4.193990e+002, 4.213601e+002
4.198812e+002, 3.991502e+002
4.203633e+002, 3.702821e+002
4.208454e+002, 3.395070e+002
4.213275e+002, 3.107196e+002
4.218096e+002, 2.848304e+002
4.222917e+002, 2.620020e+002
4.227739e+002, 2.426986e+002
4.232560e+002, 2.268996e+002
4.237381e+002, 2.133107e+002
4.242202e+002, 2.018399e+002
4.247023e+002, 1.926398e+002
4.251844e+002, 1.860352e+002
4.256666e+002, 1.815847e+002
4.261487e+002, 1.777001e+002
4.266308e+002, 1.738077e+002
4.271129e+002, 1.700529e+002
4.275950e+002, 1.665524e+002
4.280771e+002, 1.632605e+002
4.285593e+002, 1.606986e+002
4.290414e+002, 1.594314e+002
4.295235e+002, 1.589847e+002
4.300056e+002, 1.581816e+002
4.304877e+002, 1.568180e+002
4.309698e+002, 1.555565e+002
4.314520e+002, 1.548789e+002
4.319341e+002, 1.545167e+002
4.324162e+002, 1.538616e+002
4.328983e+002, 1.527300e+002
4.333804e+002, 1.515628e+002
4.338625e+002, 1.509361e+002
4.343447e+002, 1.509540e+002
4.348268e+002, 1.506534e+002
4.353089e+002, 1.496824e+002
4.357910e+002, 1.486558e+002
4.362731e+002, 1.479717e+002
4.367552e+002, 1.475919e+002
4.372374e+002, 1.473050e+002
4.377195e+002, 1.469936e+002
4.382016e+002, 1.466720e+002
4.386837e+002, 1.464017e+002
4.391658e+002, 1.461371e+002
4.396479e+002, 1.459853e+002
4.401301e+002, 1.461093e+002
4.406122e+002, 1.462623e+002
4.410943e+002, 1.461884e+002
4.415764e+002, 1.458508e+002
4.420585e+002, 1.454071e+002
4.425406e+002, 1.450007e+002
4.430227e+002, 1.445918e+002
4.435049e+002, 1.445108e+002
4.439870e+002, 1.450970e+002
4.444691e+002, 1.456652e+002
4.449512e+002, 1.460046e+002
4.454333e+002, 1.461830e+002
4.459154e+002, 1.463365e+002
4.463976e+002, 1.465311e+002
4.468797e+002, 1.467428e+002
4.473618e+002, 1.469318e+002
4.478439e+002, 1.471245e+002
4.483260e+002, 1.472129e+002
4.488081e+002, 1.468921e+002
4.492903e+002, 1.466703e+002
4.497724e+002, 1.468658e+002
4.502545e+002, 1.474969e+002
4.507366e+002, 1.484007e+002
4.512187e+002, 1.495875e+002
4.517008e+002, 1.509704e+002
4.521830e+002, 1.520579e+002
4.526651e+002, 1.526081e+002
4.531472e+002, 1.534343e+002
4.536293e+002, 1.552161e+002
4.541114e+002, 1.575323e+002
4.545935e+002, 1.597990e+002
4.550757e+002, 1.617387e+002
4.555578e+002, 1.638912e+002
4.560399e+002, 1.665912e+002
4.565220e+002, 1.698535e+002
4.570041e+002, 1.738860e+002
4.574862e+002, 1.789169e+002
4.579684e+002, 1.843991e+002
4.584505e+002, 1.899281e+002
4.589326e+002, 1.955548e+002
4.594147e+002, 2.001852e+002
4.598968e+002, 2.043419e+002
4.603789e+002, 2.068831e+002
4.608611e+002, 2.066677e+002
4.613432e+002, 2.038107e+002
4.618253e+002, 1.990650e+002
4.623074e+002, 1.925630e+002
4.627895e+002, 1.848159e+002
4.632716e+002, 1.777882e+002
4.637538e+002, 1.714518e+002
4.642359e+002, 1.658065e+002
4.647180e+002, 1.607073e+002
4.652001e+002, 1.563255e+002
4.656822e+002, 1.529322e+002
4.661643e+002, 1.505199e+002
4.666465e+002, 1.488031e+002
4.671286e+002, 1.475060e+002
4.676107e+002, 1.466429e+002
4.680928e+002, 1.459701e+002
4.685749e+002, 1.455417e+002
4.690570e+002, 1.452505e+002
4.695392e+002, 1.451590e+002
4.700213e+002, 1.451653e+002
4.705034e+002, 1.451089e+002
4.709855e+002, 1.449139e+002
4.714676e+002, 1.447037e+002
4.719497e+002, 1.446767e+002
4.724319e+002, 1.448286e+002
4.729140e+002, 1.451824e+002
4.733961e+002, 1.457848e+002
4.738782e+002, 1.465728e+002
4.743603e+002, 1.474920e+002
4.748424e+002, 1.485560e+002
4.753246e+002, 1.498552e+002
4.758067e+002, 1.516068e+002
4.762888e+002, 1.535652e+002
4.767709e+002, 1.550820e+002
4.772530e+002, 1.560276e+002
4.777351e+002, 1.573196e+002
4.782173e+002, 1.595041e+002
4.786994e+002, 1.622555e+002
4.791815e+002, 1.649849e+002
4.796636e+002, 1.676006e+002
4.801457e+002, 1.704297e+002
4.806278e+002, 1.738335e+002
4.811100e+002, 1.775107e+002
4.815920e+002, 1.810625e+002
4.820742e+002, 1.844386e+002
4.825563e+002, 1.873059e+002
4.830384e+002, 1.894775e+002
4.835205e+002, 1.908675e+002
4.840026e+002, 1.910929e+002
4.844847e+002, 1.899278e+002
4.849669e+002, 1.879332e+002
4.854490e+002, 1.848968e+002
4.859311e+002, 1.812656e+002
4.864132e+002, 1.777403e+002
4.868953e+002, 1.745739e+002
4.873774e+002, 1.716763e+002
4.878596e+002, 1.689112e+002
4.883417e+002, 1.661636e+002
4.888238e+002, 1.638386e+002
4.893059e+002, 1.617165e+002
4.897880e+002, 1.601487e+002
4.902701e+002, 1.596211e+002
4.907523e+002, 1.597832e+002
4.912344e+002, 1.598727e+002
4.917165e+002, 1.594161e+002
4.921986e+002, 1.586336e+002
4.926807e+002, 1.581376e+002
4.931628e+002, 1.580233e+002
4.936450e+002, 1.579367e+002
4.941271e+002, 1.577854e+002
4.946092e+002, 1.576537e+002
4.950913e+002, 1.577095e+002
4.955734e+002, 1.579086e+002
4.960555e+002, 1.578749e+002
4.965377e+002, 1.569260e+002
4.970198e+002, 1.555809e+002
4.975019e+002, 1.554299e+002
4.979840e+002, 1.567358e+002
4.984661e+002, 1.581373e+002
4.989482e+002, 1.588446e+002
4.994304e+002, 1.592013e+002
4.999125e+002, 1.598289e+002
5.003946e+002, 1.607164e+002
5.008767e+002, 1.619838e+002
5.013588e+002, 1.637019e+002
5.018409e+002, 1.658435e+002
5.023231e+002, 1.684624e+002
5.028052e+002, 1.715682e+002
5.032873e+002, 1.748642e+002
5.037694e+002, 1.780107e+002
5.042515e+002, 1.810233e+002
5.047336e+002, 1.845714e+002
5.052158e+002, 1.888474e+002
5.056979e+002, 1.933725e+002
5.061800e+002, 1.982454e+002
5.066621e+002, 2.031838e+002
5.071442e+002, 2.077141e+002
5.076263e+002, 2.116782e+002
5.081085e+002, 2.153546e+002
5.085906e+002, 2.191898e+002
5.090727e+002, 2.233753e+002
5.095548e+002, 2.270342e+002
5.100369e+002, 2.307545e+002
5.105190e+002, 2.333389e+002
5.110012e+002, 2.344832e+002
5.114833e+002, 2.341231e+002
5.119654e+002, 2.321958e+002
5.124475e+002, 2.286274e+002
5.129296e+002, 2.235890e+002
5.134117e+002, 2.171156e+002
5.138939e+002, 2.090001e+002
5.143760e+002, 2.008049e+002
5.148581e+002, 1.923564e+002
5.153402e+002, 1.844333e+002
5.158223e+002, 1.777102e+002
5.163044e+002, 1.720950e+002
5.167866e+002, 1.669473e+002
5.172687e+002, 1.618814e+002
5.177508e+002, 1.571787e+002
5.182329e+002, 1.532249e+002
5.187150e+002, 1.500025e+002
5.191971e+002, 1.472083e+002
5.196793e+002, 1.446983e+002
5.201614e+002, 1.425288e+002
5.206435e+002, 1.409680e+002
5.211256e+002, 1.401824e+002
5.216077e+002, 1.393490e+002
5.220898e+002, 1.381450e+002
5.225720e+002, 1.369713e+002
5.230541e+002, 1.362817e+002
5.235362e+002, 1.360216e+002
5.240183e+002, 1.357157e+002
5.245004e+002, 1.349927e+002
5.249825e+002, 1.339875e+002
5.254647e+002, 1.333920e+002
5.259468e+002, 1.334991e+002
5.264289e+002, 1.336305e+002
5.269110e+002, 1.337150e+002
5.273931e+002, 1.338060e+002
5.278752e+002, 1.339020e+002
5.283574e+002, 1.340320e+002
5.288395e+002, 1.342980e+002
5.293216e+002, 1.347963e+002
5.298037e+002, 1.355085e+002
5.302858e+002, 1.363235e+002
5.307679e+002, 1.372026e+002
5.312501e+002, 1.382721e+002
5.317322e+002, 1.397512e+002
5.322143e+002, 1.413696e+002
5.326964e+002, 1.428651e+002
5.331785e+002, 1.441827e+002
5.336606e+002, 1.454773e+002
5.341428e+002, 1.469505e+002
5.346249e+002, 1.484578e+002
5.351070e+002, 1.497905e+002
5.355891e+002, 1.509438e+002
5.360712e+002, 1.516313e+002
5.365533e+002, 1.516308e+002
5.370355e+002, 1.509500e+002
5.375176e+002, 1.498234e+002
5.379997e+002, 1.480370e+002
5.384818e+002, 1.461083e+002
5.389639e+002, 1.440442e+002
5.394460e+002, 1.419737e+002
5.399282e+002, 1.400662e+002
5.404103e+002, 1.383524e+002
5.408924e+002, 1.367085e+002
5.413745e+002, 1.349990e+002
5.418566e+002, 1.332157e+002
5.423387e+002, 1.316427e+002
5.428209e+002, 1.302608e+002
5.433029e+002, 1.291489e+002
5.437850e+002, 1.285656e+002
5.442672e+002, 1.281460e+002
5.447493e+002, 1.274406e+002
5.452314e+002, 1.263422e+002
5.457135e+002, 1.252002e+002
5.461956e+002, 1.244137e+002
5.466777e+002, 1.239544e+002
5.471599e+002, 1.235461e+002
5.476420e+002, 1.232249e+002
5.481241e+002, 1.228484e+002
5.486062e+002, 1.221374e+002
5.490883e+002, 1.213538e+002
5.495704e+002, 1.209675e+002
5.500526e+002, 1.212079e+002
5.505347e+002, 1.215327e+002
5.510168e+002, 1.216525e+002
5.514989e+002, 1.216033e+002
5.519810e+002, 1.214415e+002
5.524631e+002, 1.211772e+002
5.529453e+002, 1.208601e+002
5.534274e+002, 1.205301e+002
5.539095e+002, 1.201858e+002
5.543916e+002, 1.198480e+002
5.548737e+002, 1.195696e+002
5.553558e+002, 1.192335e+002
5.558380e+002, 1.186338e+002
5.563201e+002, 1.180346e+002
5.568022e+002, 1.178231e+002
5.572843e+002, 1.180674e+002
5.577664e+002, 1.184474e+002
5.582485e+002, 1.186061e+002
5.587307e+002, 1.185368e+002
5.592128e+002, 1.184142e+002
5.596949e+002, 1.181748e+002
5.601770e+002, 1.179760e+002
5.606591e+002, 1.178910e+002
5.611412e+002, 1.178615e+002
5.616234e+002, 1.178277e+002
5.621055e+002, 1.177784e+002
5.625876e+002, 1.176878e+002
5.630697e+002, 1.174226e+002
5.635518e+002, 1.170907e+002
5.640339e+002, 1.171034e+002
5.645161e+002, 1.175614e+002
5.649982e+002, 1.180953e+002
5.654803e+002, 1.184631e+002
5.659624e+002, 1.186870e+002
5.664445e+002, 1.189047e+002
5.669266e+002, 1.191937e+002
5.674088e+002, 1.193672e+002
5.678909e+002, 1.192204e+002
5.683730e+002, 1.189895e+002
5.688551e+002, 1.189906e+002
5.693372e+002, 1.192656e+002
5.698193e+002, 1.196189e+002
5.703015e+002, 1.198527e+002
5.707836e+002, 1.199837e+002
5.712657e+002, 1.203208e+002
5.717478e+002, 1.210186e+002
5.722299e+002, 1.217273e+002
5.727120e+002, 1.224159e+002
5.731942e+002, 1.230785e+002
5.736763e+002, 1.236793e+002
5.741584e+002, 1.242312e+002
5.746405e+002, 1.248341e+002
5.751226e+002, 1.255821e+002
5.756047e+002, 1.264546e+002
5.760869e+002, 1.273716e+002
5.765690e+002, 1.283348e+002
5.770511e+002, 1.293297e+002
5.775332e+002, 1.303391e+002
5.780153e+002, 1.313746e+002
5.784974e+002, 1.325046e+002
5.789796e+002, 1.338090e+002
5.794617e+002, 1.348493e+002
5.799438e+002, 1.353584e+002
5.804259e+002, 1.355775e+002
5.809080e+002, 1.357728e+002
5.813901e+002, 1.359605e+002
5.818723e+002, 1.360305e+002
5.823544e+002, 1.358909e+002
5.828365e+002, 1.356258e+002
5.833186e+002, 1.355315e+002
5.838007e+002, 1.359884e+002
5.842828e+002, 1.360222e+002
5.847650e+002, 1.352563e+002
5.852471e+002, 1.343937e+002
5.857292e+002, 1.338670e+002
5.862113e+002, 1.336655e+002
5.866934e+002, 1.335735e+002
5.871755e+002, 1.334485e+002
5.876577e+002, 1.333633e+002
5.881398e+002, 1.334888e+002
5.886219e+002, 1.338372e+002
5.891040e+002, 1.343243e+002
5.895861e+002, 1.349993e+002
5.900682e+002, 1.357370e+002
5.905504e+002, 1.363720e+002
5.910325e+002, 1.369353e+002
5.915146e+002, 1.376361e+002
5.919967e+002, 1.386624e+002
5.924788e+002, 1.397430e+002
5.929609e+002, 1.406779e+002
5.934431e+002, 1.414689e+002
5.939252e+002, 1.421118e+002
5.944073e+002, 1.425930e+002
5.948894e+002, 1.430152e+002
5.953715e+002, 1.435105e+002
5.958536e+002, 1.440646e+002
5.963358e+002, 1.447735e+002
5.968179e+002, 1.456111e+002
5.973000e+002, 1.466061e+002
5.977821e+002, 1.477566e+002
5.982642e+002, 1.490792e+002
5.987463e+002, 1.505339e+002
5.992285e+002, 1.521217e+002
5.997106e+002, 1.540504e+002
6.001927e+002, 1.566818e+002
6.006748e+002, 1.600005e+002
6.011569e+002, 1.632606e+002
6.016390e+002, 1.662281e+002
6.021212e+002, 1.695430e+002
6.026033e+002, 1.738288e+002
6.030854e+002, 1.786183e+002
6.035675e+002, 1.831562e+002
6.040496e+002, 1.873436e+002
6.045317e+002, 1.913669e+002
6.050139e+002, 1.955925e+002
6.054960e+002, 1.996195e+002
6.059781e+002, 2.029612e+002
6.064602e+002, 2.055173e+002
6.069423e+002, 2.071833e+002
6.074244e+002, 2.078967e+002
6.079066e+002, 2.076290e+002
6.083887e+002, 2.062223e+002
6.088708e+002, 2.032163e+002
6.093529e+002, 1.996413e+002
6.098350e+002, 1.953142e+002
6.103171e+002, 1.906396e+002
6.107993e+002, 1.857706e+002
6.112814e+002, 1.808032e+002
6.117635e+002, 1.758708e+002
6.122456e+002, 1.710104e+002
6.127277e+002, 1.663081e+002
6.132098e+002, 1.618706e+002
6.136920e+002, 1.576631e+002
6.141741e+002, 1.538678e+002
6.146562e+002, 1.506016e+002
6.151383e+002, 1.476451e+002
6.156204e+002, 1.448268e+002
6.161025e+002, 1.421197e+002
6.165847e+002, 1.394014e+002
6.170668e+002, 1.361992e+002
6.175489e+002, 1.334228e+002
6.180310e+002, 1.318875e+002
6.185131e+002, 1.311624e+002
6.189952e+002, 1.304226e+002
6.194774e+002, 1.294126e+002
6.199595e+002, 1.282261e+002
6.204416e+002, 1.269329e+002
6.209237e+002, 1.255016e+002
6.214058e+002, 1.243795e+002
6.218879e+002, 1.239232e+002
6.223701e+002, 1.233444e+002
6.228522e+002, 1.222640e+002
6.233343e+002, 1.211106e+002
6.238164e+002, 1.203784e+002
6.242985e+002, 1.201440e+002
6.247806e+002, 1.200149e+002
6.252628e+002, 1.196830e+002
6.257448e+002, 1.192151e+002
6.262269e+002, 1.188253e+002
6.267090e+002, 1.185342e+002
6.271912e+002, 1.180707e+002
6.276733e+002, 1.171377e+002
6.281554e+002, 1.161231e+002
6.286375e+002, 1.158951e+002
6.291196e+002, 1.166649e+002
6.296017e+002, 1.170586e+002
6.300839e+002, 1.165616e+002
6.305660e+002, 1.159061e+002
6.310481e+002, 1.154440e+002
6.315302e+002, 1.152512e+002
6.320123e+002, 1.155408e+002
6.324944e+002, 1.164118e+002
6.329766e+002, 1.172935e+002
6.334587e+002, 1.170787e+002
6.339408e+002, 1.154654e+002
6.344229e+002, 1.142991e+002
6.349050e+002, 1.137494e+002
6.353871e+002, 1.134885e+002
6.358693e+002, 1.134101e+002
6.363514e+002, 1.134836e+002
6.368335e+002, 1.137015e+002
6.373156e+002, 1.141026e+002
6.377977e+002, 1.144574e+002
6.382798e+002, 1.145449e+002
6.387620e+002, 1.144897e+002
6.392441e+002, 1.145646e+002
6.397262e+002, 1.147921e+002
6.402083e+002, 1.149179e+002
6.406904e+002, 1.147406e+002
6.411725e+002, 1.143805e+002
6.416547e+002, 1.142397e+002
6.421368e+002, 1.144847e+002
6.426189e+002, 1.147158e+002
6.431010e+002, 1.148474e+002
6.435831e+002, 1.150397e+002
6.440652e+002, 1.154091e+002
6.445474e+002, 1.159257e+002
6.450295e+002, 1.165080e+002
6.455116e+002, 1.171207e+002
6.459937e+002, 1.177312e+002
6.464758e+002, 1.182419e+002
6.469579e+002, 1.186550e+002
6.474401e+002, 1.192409e+002
6.479222e+002, 1.201007e+002
6.484043e+002, 1.210074e+002
6.488864e+002, 1.218195e+002
6.493685e+002, 1.225409e+002
6.498506e+002, 1.231430e+002
6.503328e+002, 1.234269e+002
6.508149e+002, 1.238976e+002
6.512970e+002, 1.250288e+002
6.517791e+002, 1.263020e+002
6.522612e+002, 1.270607e+002
6.527433e+002, 1.272664e+002
6.532255e+002, 1.272677e+002
6.537076e+002, 1.272855e+002
6.541897e+002, 1.273780e+002
6.546718e+002, 1.278126e+002
6.551539e+002, 1.288054e+002
6.556360e+002, 1.296108e+002
6.561182e+002, 1.301968e+002
6.566003e+002, 1.304952e+002
6.570824e+002, 1.301738e+002
6.575645e+002, 1.295016e+002
6.580466e+002, 1.292596e+002
6.585287e+002, 1.297800e+002
6.590109e+002, 1.307715e+002
6.594930e+002, 1.319061e+002
6.599751e+002, 1.332908e+002
6.604572e+002, 1.352089e+002
6.609393e+002, 1.377139e+002
6.614214e+002, 1.408454e+002
6.619036e+002, 1.446415e+002
6.623857e+002, 1.491136e+002
6.628678e+002, 1.542869e+002
6.633499e+002, 1.613843e+002
6.638320e+002, 1.675560e+002
6.643141e+002, 1.734628e+002
6.647963e+002, 1.776946e+002
6.652784e+002, 1.792559e+002
6.657605e+002, 1.781022e+002
6.662426e+002, 1.744488e+002
6.667247e+002, 1.678380e+002
6.672068e+002, 1.597605e+002
6.676890e+002, 1.526632e+002
6.681711e+002, 1.465344e+002
6.686532e+002, 1.409299e+002
6.691353e+002, 1.356901e+002
6.696174e+002, 1.311771e+002
6.700995e+002, 1.280109e+002
6.705817e+002, 1.260717e+002
6.710638e+002, 1.239805e+002
6.715459e+002, 1.211792e+002
6.720280e+002, 1.188840e+002
6.725101e+002, 1.178182e+002
6.729922e+002, 1.172734e+002
6.734744e+002, 1.164734e+002
6.739565e+002, 1.153446e+002
6.744386e+002, 1.142679e+002
6.749207e+002, 1.135239e+002
6.754028e+002, 1.130527e+002
6.758849e+002, 1.126786e+002
6.763671e+002, 1.124279e+002
6.768492e+002, 1.121481e+002
6.773313e+002, 1.116942e+002
6.778134e+002, 1.113361e+002
6.782955e+002, 1.113771e+002
6.787776e+002, 1.116983e+002
6.792598e+002, 1.118742e+002
6.797419e+002, 1.118247e+002
6.802240e+002, 1.115873e+002
6.807061e+002, 1.110383e+002
6.811882e+002, 1.103722e+002
6.816703e+002, 1.098453e+002
6.821525e+002, 1.095237e+002
6.826346e+002, 1.094710e+002
6.831167e+002, 1.098017e+002
6.835988e+002, 1.103716e+002
6.840809e+002, 1.104134e+002
6.845630e+002, 1.095200e+002
6.850452e+002, 1.089907e+002
6.855273e+002, 1.093598e+002
6.860094e+002, 1.098239e+002
6.864915e+002, 1.098656e+002
6.869736e+002, 1.096130e+002
6.874557e+002, 1.095252e+002
6.879379e+002, 1.098532e+002
6.884200e+002, 1.102568e+002
6.889021e+002, 1.103805e+002
6.893842e+002, 1.103565e+002
6.898663e+002, 1.104862e+002
6.903484e+002, 1.108257e+002
6.908306e+002, 1.112971e+002
6.913127e+002, 1.118633e+002
6.917948e+002, 1.124960e+002
6.922769e+002, 1.130658e+002
6.927590e+002, 1.136095e+002
6.932411e+002, 1.140256e+002
6.937233e+002, 1.140798e+002
6.942054e+002, 1.142230e+002
6.946875e+002, 1.148315e+002
6.951696e+002, 1.157534e+002
6.956517e+002, 1.165784e+002
6.961339e+002, 1.171398e+002
6.966160e+002, 1.175061e+002
6.970981e+002, 1.178088e+002
6.975802e+002, 1.179850e+002
6.980623e+002, 1.177219e+002
6.985444e+002, 1.169440e+002
6.990266e+002, 1.161677e+002
6.995087e+002, 1.157787e+002
6.999908e+002, 1.156554e+002
7.004729e+002, 1.153429e+002
7.009550e+002, 1.147514e+002
7.014371e+002, 1.140991e+002
7.019193e+002, 1.130967e+002
7.024014e+002, 1.123033e+002
7.028835e+002, 1.122304e+002
7.033656e+002, 1.126107e+002
7.038477e+002, 1.128427e+002
7.043298e+002, 1.126630e+002
7.048120e+002, 1.123130e+002
7.052941e+002, 1.120453e+002
7.057762e+002, 1.118583e+002
7.062583e+002, 1.117645e+002
7.067404e+002, 1.117829e+002
7.072225e+002, 1.117737e+002
7.077046e+002, 1.116417e+002
7.081867e+002, 1.114385e+002
7.086688e+002, 1.113168e+002
7.091509e+002, 1.114104e+002
7.096331e+002, 1.112404e+002
7.101152e+002, 1.105917e+002
7.105973e+002, 1.098464e+002
7.110794e+002, 1.091150e+002
7.115615e+002, 1.084815e+002
7.120436e+002, 1.081078e+002
7.125258e+002, 1.080426e+002
7.130079e+002, 1.080275e+002
7.134900e+002, 1.077223e+002
7.139721e+002, 1.071916e+002
7.144542e+002, 1.068268e+002
7.149363e+002, 1.066838e+002
7.154185e+002, 1.063988e+002
7.159006e+002, 1.056498e+002
7.163827e+002, 1.048333e+002
7.168648e+002, 1.047080e+002
7.173469e+002, 1.054098e+002
7.178290e+002, 1.059005e+002
7.183112e+002, 1.060268e+002
7.187933e+002, 1.059950e+002
7.192754e+002, 1.057108e+002
7.197575e+002, 1.054156e+002
7.202396e+002, 1.055648e+002
7.207217e+002, 1.062072e+002
7.212039e+002, 1.067358e+002
7.216860e+002, 1.063702e+002
7.221681e+002, 1.054518e+002
7.226502e+002, 1.054727e+002
7.231323e+002, 1.065761e+002
7.236144e+002, 1.073960e+002
7.240966e+002, 1.073482e+002
7.245787e+002, 1.070754e+002
7.250608e+002, 1.074092e+002
7.255429e+002, 1.083345e+002
7.260250e+002, 1.088910e+002
7.265071e+002, 1.086055e+002
7.269893e+002, 1.084550e+002
7.274714e+002, 1.088076e+002
7.279535e+002, 1.094718e+002
7.284356e+002, 1.102766e+002
7.289177e+002, 1.111623e+002
7.293998e+002, 1.120993e+002
7.298820e+002, 1.131063e+002
7.303641e+002, 1.140747e+002
7.308462e+002, 1.146087e+002
7.313283e+002, 1.146753e+002
7.318104e+002, 1.153091e+002
7.322925e+002, 1.169004e+002
7.327747e+002, 1.186522e+002
7.332568e+002, 1.199335e+002
7.337389e+002, 1.208161e+002
7.342210e+002, 1.217421e+002
7.347031e+002, 1.226771e+002
7.351852e+002, 1.236955e+002
7.356674e+002, 1.250982e+002
7.361495e+002, 1.263634e+002
7.366316e+002, 1.269644e+002
7.371137e+002, 1.270509e+002
7.375958e+002, 1.271508e+002
7.380779e+002, 1.275352e+002
7.385601e+002, 1.279635e+002
7.390422e+002, 1.280869e+002
7.395243e+002, 1.279250e+002
7.400064e+002, 1.276298e+002
7.404885e+002, 1.271788e+002
7.409706e+002, 1.267675e+002
7.414528e+002, 1.265611e+002
7.419349e+002, 1.264251e+002
7.424170e+002, 1.259970e+002
7.428991e+002, 1.250832e+002
7.433812e+002, 1.245646e+002
7.438633e+002, 1.248846e+002
7.443455e+002, 1.252297e+002
7.448276e+002, 1.251636e+002
7.453097e+002, 1.248435e+002
7.457918e+002, 1.245168e+002
7.462739e+002, 1.242665e+002
7.467560e+002, 1.240890e+002
7.472382e+002, 1.240179e+002
7.477203e+002, 1.240121e+002
7.482024e+002, 1.238535e+002
7.486845e+002, 1.235307e+002
7.491666e+002, 1.235877e+002
7.496487e+002, 1.242745e+002
7.501309e+002, 1.252450e+002
7.506130e+002, 1.261539e+002
7.510951e+002, 1.269993e+002
7.515772e+002, 1.276922e+002
7.520593e+002, 1.278013e+002
7.525414e+002, 1.283239e+002
7.530236e+002, 1.297039e+002
7.535057e+002, 1.314280e+002
7.539878e+002, 1.329203e+002
7.544699e+002, 1.342661e+002
7.549520e+002, 1.360890e+002
7.554341e+002, 1.388697e+002
7.559163e+002, 1.420435e+002
7.563984e+002, 1.447026e+002
7.568805e+002, 1.470418e+002
7.573626e+002, 1.499680e+002
7.578447e+002, 1.536694e+002
7.583268e+002, 1.574219e+002
7.588090e+002, 1.607650e+002
7.592911e+002, 1.637326e+002
7.597732e+002, 1.664613e+002
7.602553e+002, 1.690827e+002
7.607374e+002, 1.712266e+002
7.612195e+002, 1.731747e+002
7.617017e+002, 1.743878e+002
7.621838e+002, 1.746686e+002
7.626659e+002, 1.740310e+002
7.631480e+002, 1.724410e+002
7.636301e+002, 1.698755e+002
7.641122e+002, 1.667191e+002
7.645944e+002, 1.629574e+002
7.650765e+002, 1.589387e+002
7.655586e+002, 1.553372e+002
7.660407e+002, 1.520346e+002
7.665228e+002, 1.483021e+002
7.670049e+002, 1.438126e+002
7.674871e+002, 1.391607e+002
7.679692e+002, 1.351231e+002
7.684513e+002, 1.316773e+002
7.689334e+002, 1.286971e+002
7.694155e+002, 1.263610e+002
7.698976e+002, 1.241845e+002
7.703798e+002, 1.220176e+002
7.708619e+002, 1.199905e+002
7.713440e+002, 1.182844e+002
7.718261e+002, 1.168516e+002
7.723082e+002, 1.154232e+002
7.727903e+002, 1.137785e+002
7.732725e+002, 1.122834e+002
7.737546e+002, 1.113150e+002
7.742367e+002, 1.106163e+002
7.747188e+002, 1.097733e+002
7.752009e+002, 1.087539e+002
7.756830e+002, 1.077751e+002
7.761652e+002, 1.069710e+002
7.766473e+002, 1.063196e+002
7.771294e+002, 1.057972e+002
7.776115e+002, 1.054308e+002
7.780936e+002, 1.049927e+002
7.785757e+002, 1.043798e+002
7.790579e+002, 1.038599e+002
7.795400e+002, 1.036461e+002
7.800221e+002, 1.035905e+002
7.805042e+002, 1.034823e+002
7.809863e+002, 1.033429e+002
7.814684e+002, 1.030091e+002
7.819506e+002, 1.021518e+002
7.824327e+002, 1.013781e+002
7.829148e+002, 1.010913e+002
7.833969e+002, 1.011509e+002
7.838790e+002, 1.013679e+002
7.843611e+002, 1.016539e+002
7.848433e+002, 1.018602e+002
7.853254e+002, 1.018198e+002
7.858075e+002, 1.016138e+002
7.862896e+002, 1.014981e+002
7.867717e+002, 1.014753e+002
7.872538e+002, 1.013573e+002
7.877360e+002, 1.010370e+002
7.882181e+002, 1.008042e+002
7.887002e+002, 1.009957e+002
7.891823e+002, 1.015373e+002
7.896644e+002, 1.017878e+002
7.901465e+002, 1.015248e+002
7.906286e+002, 1.013066e+002
7.911107e+002, 1.012832e+002
7.915928e+002, 1.012157e+002
7.920750e+002, 1.008124e+002
7.925571e+002, 1.002705e+002
7.930392e+002, 1.000640e+002
7.935213e+002, 1.004030e+002
7.940034e+002, 1.007523e+002
7.944855e+002, 1.006538e+002
7.949677e+002, 1.002418e+002
7.954498e+002, 9.964455e+001
7.959319e+002, 9.892924e+001
7.964140e+002, 9.847422e+001
7.968961e+002, 9.844571e+001
7.973782e+002, 9.861217e+001
7.978604e+002, 9.865843e+001
7.983425e+002, 9.857724e+001
7.988246e+002, 9.854644e+001
7.993067e+002, 9.860070e+001
7.997888e+002, 9.864097e+001
8.002709e+002, 9.868164e+001
8.007531e+002, 9.866717e+001
8.012352e+002, 9.855549e+001
8.017173e+002, 9.834908e+001
8.021994e+002, 9.806863e+001
8.026815e+002, 9.769733e+001
8.031636e+002, 9.728677e+001
8.036458e+002, 9.669644e+001
8.041279e+002, 9.619097e+001
8.046100e+002, 9.617329e+001
8.050921e+002, 9.656186e+001
8.055742e+002, 9.695776e+001
8.060563e+002, 9.714656e+001
8.065385e+002, 9.720975e+001
8.070206e+002, 9.727052e+001
8.075027e+002, 9.732608e+001
8.079848e+002, 9.730869e+001
8.084669e+002, 9.719066e+001
8.089490e+002, 9.714642e+001
8.094312e+002, 9.731841e+001
8.099133e+002, 9.751446e+001
8.103954e+002, 9.742172e+001
8.108775e+002, 9.697965e+001
8.113596e+002, 9.663835e+001
8.118417e+002, 9.637500e+001
8.123239e+002, 9.624048e+001
8.128060e+002, 9.631072e+001
8.132881e+002, 9.647253e+001
8.137702e+002, 9.665176e+001
8.142523e+002, 9.682340e+001
8.147344e+002, 9.695848e+001
8.152166e+002, 9.704523e+001
8.156987e+002, 9.708432e+001
8.161808e+002, 9.708578e+001
8.166629e+002, 9.703625e+001
8.171450e+002, 9.684691e+001
8.176271e+002, 9.653784e+001
8.181093e+002, 9.635400e+001
8.185914e+002, 9.644373e+001
8.190735e+002, 9.668614e+001
8.195556e+002, 9.686758e+001
8.200377e+002, 9.699777e+001
8.205198e+002, 9.698974e+001
8.210020e+002, 9.677797e+001
8.214841e+002, 9.654874e+001
8.219662e+002, 9.637653e+001
8.224483e+002, 9.621646e+001
8.229304e+002, 9.594541e+001
8.234125e+002, 9.557656e+001
8.238947e+002, 9.549524e+001
8.243768e+002, 9.618027e+001
8.248589e+002, 9.668619e+001
8.253410e+002, 9.636919e+001
8.258231e+002, 9.581216e+001
8.263052e+002, 9.576463e+001
8.267874e+002, 9.615381e+001
8.272695e+002, 9.632573e+001
8.277516e+002, 9.588462e+001
8.282337e+002, 9.521250e+001
8.287158e+002, 9.478806e+001
8.291979e+002, 9.459327e+001
8.296801e+002, 9.460322e+001
8.301622e+002, 9.481634e+001
8.306443e+002, 9.502116e+001
8.311264e+002, 9.512735e+001
8.316085e+002, 9.511940e+001
8.320906e+002, 9.493991e+001
8.325728e+002, 9.453675e+001
8.330549e+002, 9.434480e+001
8.335370e+002, 9.448752e+001
8.340191e+002, 9.466837e+001
8.345012e+002, 9.487215e+001
8.349833e+002, 9.504383e+001
8.354655e+002, 9.519508e+001
8.359476e+002, 9.528726e+001
8.364297e+002, 9.514905e+001
8.369118e+002, 9.451844e+001
8.373939e+002, 9.398476e+001
8.378760e+002, 9.398138e+001
8.383582e+002, 9.417178e+001
8.388403e+002, 9.409959e+001
8.393224e+002, 9.384230e+001
8.398045e+002, 9.385703e+001
8.402866e+002, 9.436230e+001
8.407687e+002, 9.491460e+001
8.412509e+002, 9.478566e+001
8.417330e+002, 9.413203e+001
8.422151e+002, 9.389941e+001
8.426972e+002, 9.412791e+001
8.431793e+002, 9.438673e+001
8.436614e+002, 9.454987e+001
8.441436e+002, 9.459950e+001
8.446257e+002, 9.448441e+001
8.451078e+002, 9.420974e+001
8.455899e+002, 9.403745e+001
8.460720e+002, 9.398849e+001
8.465541e+002, 9.401463e+001
8.470363e+002, 9.426954e+001
8.475184e+002, 9.444553e+001
8.480005e+002, 9.423170e+001
8.484826e+002, 9.381127e+001
8.489647e+002, 9.364050e+001
8.494468e+002, 9.390421e+001
8.499290e+002, 9.410954e+001
8.504111e+002, 9.388498e+001
8.508932e+002, 9.355775e+001
8.513753e+002, 9.351088e+001
8.518574e+002, 9.362937e+001
8.523395e+002, 9.354633e+001
8.528217e+002, 9.317973e+001
8.533038e+002, 9.287534e+001
8.537859e+002, 9.302645e+001
8.542680e+002, 9.345651e+001
8.547501e+002, 9.359490e+001
8.552322e+002, 9.344273e+001
8.557144e+002, 9.327791e+001
8.561965e+002, 9.314400e+001
8.566786e+002, 9.306303e+001
8.571607e+002, 9.307832e+001
8.576428e+002, 9.313741e+001
8.581249e+002, 9.302627e+001
8.586071e+002, 9.225594e+001
8.590892e+002, 9.239112e+001
8.595713e+002, 9.480447e+001
8.600534e+002, 9.649500e+001
8.605355e+002, 9.575597e+001
8.610176e+002, 9.409068e+001
8.614998e+002, 9.340279e+001
8.619819e+002, 9.386304e+001
8.624640e+002, 9.413303e+001
8.629461e+002, 9.344827e+001
8.634282e+002, 9.264008e+001
8.639103e+002, 9.217738e+001
8.643925e+002, 9.199843e+001
8.648746e+002, 9.207790e+001
8.653567e+002, 9.235860e+001
8.658388e+002, 9.273756e+001
8.663209e+002, 9.318372e+001
8.668030e+002, 9.347680e+001
8.672852e+002, 9.309641e+001
8.677673e+002, 9.222079e+001
8.682494e+002, 9.188821e+001
8.687315e+002, 9.217802e+001
8.692136e+002, 9.233183e+001
8.696957e+002, 9.201008e+001
8.701779e+002, 9.150208e+001
8.706600e+002, 9.117841e+001
8.711421e+002, 9.103899e+001
8.716242e+002, 9.100710e+001
8.721063e+002, 9.125442e+001
8.725884e+002, 9.130623e+001
8.730705e+002, 9.083604e+001
8.735526e+002, 9.037939e+001
8.740347e+002, 9.026713e+001
8.745168e+002, 9.041497e+001
8.749990e+002, 9.061964e+001
8.754811e+002, 9.089954e+001
8.759632e+002, 9.107621e+001
8.764453e+002, 9.113736e+001
8.769274e+002, 9.102422e+001
8.774095e+002, 9.051041e+001
8.778917e+002, 8.986074e+001
8.783738e+002, 8.958448e+001
8.788559e+002, 8.974696e+001
8.793380e+002, 8.984100e+001
8.798201e+002, 8.933957e+001
8.803022e+002, 8.870083e+001
8.807844e+002, 8.878802e+001
8.812665e+002, 8.939506e+001
8.817486e+002, 8.979333e+001
8.822307e+002, 8.986410e+001
8.827128e+002, 8.972088e+001
8.831949e+002, 8.941724e+001
8.836771e+002, 8.901743e+001
8.841592e+002, 8.865767e+001
8.846413e+002, 8.834569e+001
8.851234e+002, 8.797176e+001
8.856055e+002, 8.739426e+001
8.860876e+002, 8.712460e+001
8.865698e+002, 8.755115e+001
8.870519e+002, 8.814232e+001
8.875340e+002, 8.831392e+001
8.880161e+002, 8.808531e+001
8.884982e+002, 8.778970e+001
8.889803e+002, 8.723770e+001
8.894625e+002, 8.689944e+001
8.899446e+002, 8.698462e+001
8.904267e+002, 8.718576e+001
8.909088e+002, 8.734172e+001
8.913909e+002, 8.743929e+001
8.918730e+002, 8.749091e+001
8.923552e+002, 8.750056e+001
8.928373e+002, 8.747374e+001
8.933194e+002, 8.745364e+001
8.938015e+002, 8.736645e+001
8.942836e+002, 8.702200e+001
8.947657e+002, 8.658013e+001
8.952479e+002, 8.642839e+001
8.957300e+002, 8.660658e+001
8.962121e+002, 8.678030e+001
8.966942e+002, 8.669699e+001
8.971763e+002, 8.647119e+001
8.976584e+002, 8.630617e+001
8.981406e+002, 8.620341e+001
8.986227e+002, 8.621132e+001
8.991048e+002, 8.634937e+001
8.995869e+002, 8.638876e+001
9.000690e+002, 8.619322e+001
9.005511e+002, 8.592132e+001
9.010333e+002, 8.580447e+001
9.015154e+002, 8.584731e+001
9.019975e+002, 8.594660e+001
9.024796e+002, 8.617805e+001
9.029617e+002, 8.632512e+001
9.034438e+002, 8.626381e+001
9.039260e+002, 8.618889e+001
9.044081e+002, 8.627901e+001
9.048902e+002, 8.645272e+001
9.053723e+002, 8.649063e+001
9.058544e+002, 8.632625e+001
9.063365e+002, 8.615115e+001
9.068187e+002, 8.592915e+001
9.073008e+002, 8.579707e+001
9.077829e+002, 8.586207e+001
9.082650e+002, 8.605598e+001
9.087471e+002, 8.632777e+001
9.092292e+002, 8.663806e+001
9.097114e+002, 8.687095e+001
9.101935e+002, 8.692469e+001
9.106756e+002, 8.692268e+001
9.111577e+002, 8.701557e+001
9.116398e+002, 8.713252e+001
9.121219e+002, 8.707458e+001
9.126041e+002, 8.688868e+001
9.130862e+002, 8.691179e+001
9.135683e+002, 8.730431e+001
9.140504e+002, 8.773450e+001
9.145325e+002, 8.770381e+001
9.150146e+002, 8.731384e+001
9.154968e+002, 8.714900e+001
9.159789e+002, 8.721488e+001
9.164610e+002, 8.739887e+001
9.169431e+002, 8.771690e+001
9.174252e+002, 8.793681e+001
9.179073e+002, 8.782350e+001
9.183895e+002, 8.749959e+001
9.188716e+002, 8.740426e+001
9.193537e+002, 8.754512e+001
9.198358e+002, 8.791163e+001
9.203179e+002, 8.877068e+001
9.208000e+002, 8.946799e+001
9.212822e+002, 8.959019e+001
9.217643e+002, 8.952029e+001
9.222464e+002, 8.972365e+001
9.227285e+002, 9.018533e+001
9.232106e+002, 9.040785e+001
9.236927e+002, 9.000054e+001
9.241749e+002, 8.978130e+001
9.246570e+002, 9.014256e+001
9.251391e+002, 9.063093e+001
9.256212e+002, 9.078661e+001
9.261033e+002, 9.081210e+001
9.265854e+002, 9.124226e+001
9.270676e+002, 9.224571e+001
9.275497e+002, 9.321592e+001
9.280318e+002, 9.373318e+001
9.285139e+002, 9.403944e+001
9.289960e+002, 9.430360e+001
9.294781e+002, 9.457383e+001
9.299603e+002, 9.492729e+001
9.304424e+002, 9.537456e+001
9.309245e+002, 9.586555e+001
9.314066e+002, 9.636077e+001
9.318887e+002, 9.692463e+001
9.323708e+002, 9.776148e+001
9.328530e+002, 9.875610e+001
9.333351e+002, 9.936025e+001
9.338172e+002, 9.956998e+001
9.342993e+002, 9.984612e+001
9.347814e+002, 1.003522e+002
9.352635e+002, 1.009990e+002
9.357457e+002, 1.016537e+002
9.362278e+002, 1.023850e+002
9.367099e+002, 1.037109e+002
9.371920e+002, 1.058761e+002
9.376741e+002, 1.075245e+002
9.381563e+002, 1.082821e+002
9.386384e+002, 1.089988e+002
9.391205e+002, 1.100776e+002
9.396026e+002, 1.114663e+002
9.400847e+002, 1.131053e+002
9.405668e+002, 1.150262e+002
9.410490e+002, 1.169920e+002
9.415311e+002, 1.188931e+002
9.420132e+002, 1.209948e+002
9.424953e+002, 1.234613e+002
9.429774e+002, 1.260441e+002
9.434595e+002, 1.284948e+002
9.439417e+002, 1.309274e+002
9.444238e+002, 1.335909e+002
9.449059e+002, 1.364866e+002
9.453880e+002, 1.398150e+002
9.458701e+002, 1.439104e+002
9.463522e+002, 1.482043e+002
9.468344e+002, 1.520624e+002
9.473165e+002, 1.559898e+002
9.477986e+002, 1.606908e+002
9.482807e+002, 1.662027e+002
9.487628e+002, 1.721677e+002
9.492449e+002, 1.785083e+002
9.497271e+002, 1.849459e+002
9.502092e+002, 1.909406e+002
9.506913e+002, 1.970546e+002
9.511734e+002, 2.042472e+002
9.516555e+002, 2.124206e+002
9.521376e+002, 2.210471e+002
9.526198e+002, 2.299453e+002
9.531019e+002, 2.392781e+002
9.535840e+002, 2.493162e+002
9.540661e+002, 2.598456e+002
9.545482e+002, 2.703958e+002
9.550303e+002, 2.809918e+002
9.555124e+002, 2.918207e+002
9.559945e+002, 3.029669e+002
9.564766e+002, 3.141457e+002
9.569587e+002, 3.252787e+002
9.574409e+002, 3.363046e+002
9.579230e+002, 3.471694e+002
9.584051e+002, 3.579261e+002
9.588872e+002, 3.674561e+002
9.593693e+002, 3.759227e+002
9.598514e+002, 3.825879e+002
9.603336e+002, 3.872111e+002
9.608157e+002, 3.902266e+002
9.612978e+002, 3.921566e+002
9.617799e+002, 3.925410e+002
9.622620e+002, 3.900238e+002
9.627441e+002, 3.841516e+002
9.632263e+002, 3.767944e+002
9.637084e+002, 3.675000e+002
9.641905e+002, 3.573448e+002
9.646726e+002, 3.464111e+002
9.651547e+002, 3.349615e+002
9.656368e+002, 3.232699e+002
9.661190e+002, 3.112258e+002
9.666011e+002, 2.982851e+002
9.670832e+002, 2.835448e+002
9.675653e+002, 2.695341e+002
9.680474e+002, 2.568448e+002
9.685295e+002, 2.449450e+002
9.690117e+002, 2.336751e+002
9.694938e+002, 2.229693e+002
9.699759e+002, 2.128664e+002
9.704580e+002, 2.033431e+002
9.709401e+002, 1.943557e+002
9.714222e+002, 1.858285e+002
9.719044e+002, 1.779830e+002
9.723865e+002, 1.709182e+002
9.728686e+002, 1.646340e+002
9.733507e+002, 1.595536e+002
9.738328e+002, 1.551993e+002
9.743149e+002, 1.504092e+002
9.747971e+002, 1.449259e+002
9.752792e+002, 1.398795e+002
9.757613e+002, 1.364959e+002
9.762434e+002, 1.337086e+002
9.767255e+002, 1.299303e+002
9.772076e+002, 1.257144e+002
9.776898e+002, 1.221501e+002
9.781719e+002, 1.193447e+002
9.786540e+002, 1.171645e+002
9.791361e+002, 1.155276e+002
9.796182e+002, 1.140006e+002
9.801003e+002, 1.119905e+002
9.805825e+002, 1.096663e+002
9.810646e+002, 1.076006e+002
9.815467e+002, 1.057953e+002
9.820288e+002, 1.042767e+002
9.825109e+002, 1.030560e+002
9.829930e+002, 1.019184e+002
9.834752e+002, 1.007248e+002
9.839573e+002, 9.956026e+001
9.844394e+002, 9.862111e+001
9.849215e+002, 9.791150e+001
9.854036e+002, 9.706297e+001
9.858857e+002, 9.606188e+001
9.863679e+002, 9.498001e+001
9.868500e+002, 9.379057e+001
9.873321e+002, 9.264440e+001
9.878142e+002, 9.162294e+001
9.882963e+002, 9.077711e+001
9.887784e+002, 9.031327e+001
9.892606e+002, 9.042776e+001
9.897427e+002, 9.021854e+001
9.902248e+002, 8.951318e+001
9.907069e+002, 8.880903e+001
9.911890e+002, 8.820699e+001
9.916711e+002, 8.772427e+001
9.921533e+002, 8.744762e+001
9.926354e+002, 8.732198e+001
9.931175e+002, 8.701176e+001
9.935996e+002, 8.624950e+001
9.940817e+002, 8.578698e+001
9.945638e+002, 8.596774e+001
9.950460e+002, 8.604874e+001
9.955281e+002, 8.562948e+001
9.960102e+002, 8.504910e+001
9.964923e+002, 8.466344e+001
9.969744e+002, 8.447160e+001
9.974565e+002, 8.431547e+001
9.979387e+002, 8.424716e+001
9.984208e+002, 8.407760e+001
9.989029e+002, 8.365663e+001
9.993850e+002, 8.322826e+001
9.998671e+002, 8.291474e+001
1.000349e+003, 8.271021e+001
1.000831e+003, 8.262402e+001
1.001313e+003, 8.263932e+001
1.001796e+003, 8.264156e+001
1.002278e+003, 8.261579e+001
1.002760e+003, 8.251708e+001
1.003242e+003, 8.222392e+001
1.003724e+003, 8.193149e+001
1.004206e+003, 8.177065e+001
1.004688e+003, 8.177087e+001
1.005170e+003, 8.205251e+001
1.005653e+003, 8.259035e+001
1.006135e+003, 8.292248e+001
1.006617e+003, 8.266982e+001
1.007099e+003, 8.220943e+001
1.007581e+003, 8.173013e+001
1.008063e+003, 8.136921e+001
1.008545e+003, 8.144405e+001
1.009027e+003, 8.180974e+001
1.009509e+003, 8.200109e+001
1.009992e+003, 8.186346e+001
1.010474e+003, 8.165527e+001
1.010956e+003, 8.159695e+001
1.011438e+003, 8.160699e+001
1.011920e+003, 8.156458e+001
1.012402e+003, 8.149414e+001
1.012884e+003, 8.140869e+001
1.013366e+003, 8.134429e+001
1.013849e+003, 8.147568e+001
1.014331e+003, 8.187319e+001
1.014813e+003, 8.226850e+001
1.015295e+003, 8.232572e+001
1.015777e+003, 8.218609e+001
1.016259e+003, 8.225451e+001
1.016741e+003, 8.245643e+001
1.017223e+003, 8.233820e+001
1.017705e+003, 8.188249e+001
1.018188e+003, 8.172414e+001
1.018670e+003, 8.220704e+001
1.019152e+003, 8.282433e+001
1.019634e+003, 8.285886e+001
1.020116e+003, 8.242907e+001
1.020598e+003, 8.208593e+001
1.021080e+003, 8.182962e+001
1.021562e+003, 8.162528e+001
1.022044e+003, 8.146399e+001
1.022527e+003, 8.141785e+001
1.023009e+003, 8.153548e+001
1.023491e+003, 8.176431e+001
1.023973e+003, 8.207967e+001
1.024455e+003, 8.245346e+001
1.024937e+003, 8.231042e+001
1.025419e+003, 8.155334e+001
1.025901e+003, 8.113534e+001
1.026384e+003, 8.128086e+001
1.026866e+003, 8.156977e+001
1.027348e+003, 8.176976e+001
1.027830e+003, 8.188838e+001
1.028312e+003, 8.191619e+001
1.028794e+003, 8.184412e+001
1.029276e+003, 8.195647e+001
1.029758e+003, 8.236105e+001
1.030240e+003, 8.254932e+001
1.030723e+003, 8.232809e+001
1.031205e+003, 8.210025e+001
1.031687e+003, 8.210156e+001
1.032169e+003, 8.230074e+001
1.032651e+003, 8.266570e+001
1.033133e+003, 8.323466e+001
1.033615e+003, 8.364425e+001
1.034097e+003, 8.389550e+001
1.034579e+003, 8.397018e+001
1.035062e+003, 8.375019e+001
1.035544e+003, 8.352267e+001
1.036026e+003, 8.346592e+001
1.036508e+003, 8.353687e+001
1.036990e+003, 8.365549e+001
1.037472e+003, 8.383067e+001
1.037954e+003, 8.399937e+001
1.038436e+003, 8.414063e+001
1.038919e+003, 8.430859e+001
1.039401e+003, 8.458770e+001
1.039883e+003, 8.481271e+001
1.040365e+003, 8.474675e+001
1.040847e+003, 8.459336e+001
1.041329e+003, 8.481227e+001
1.041811e+003, 8.549079e+001
1.042293e+003, 8.608318e+001
1.042776e+003, 8.658169e+001
1.043258e+003, 8.699496e+001
1.043740e+003, 8.721813e+001
1.044222e+003, 8.746394e+001
1.044704e+003, 8.782974e+001
1.045186e+003, 8.832729e+001
1.045668e+003, 8.900835e+001
1.046150e+003, 8.991268e+001
1.046632e+003, 9.071870e+001
1.047115e+003, 9.121505e+001
1.047597e+003, 9.185326e+001
1.048079e+003, 9.284754e+001
1.048561e+003, 9.391374e+001
1.049043e+003, 9.483293e+001
1.049525e+003, 9.569250e+001
1.050007e+003, 9.672313e+001
1.050489e+003, 9.796833e+001
1.050971e+003, 9.908176e+001
1.051454e+003, 9.958957e+001
1.051936e+003, 1.005044e+002
1.052418e+003, 1.024309e+002
1.052900e+003, 1.045758e+002
1.053382e+003, 1.063725e+002
1.053864e+003, 1.079690e+002
1.054346e+003, 1.096120e+002
1.054828e+003, 1.113355e+002
1.055311e+003, 1.134696e+002
1.055793e+003, 1.163509e+002
1.056275e+003, 1.193196e+002
1.056757e+003, 1.221613e+002
1.057239e+003, 1.249991e+002
1.057721e+003, 1.278218e+002
1.058203e+003, 1.307361e+002
1.058685e+003, 1.338912e+002
1.059167e+003, 1.373152e+002
1.059650e+003, 1.410884e+002
1.060132e+003, 1.455139e+002
1.060614e+003, 1.499233e+002
1.061096e+003, 1.538007e+002
1.061578e+003, 1.578436e+002
1.062060e+003, 1.627731e+002
1.062542e+003, 1.681844e+002
1.063024e+003, 1.734542e+002
1.063506e+003, 1.784507e+002
1.063989e+003, 1.830432e+002
1.064471e+003, 1.871137e+002
1.064953e+003, 1.909046e+002
1.065435e+003, 1.948946e+002
1.065917e+003, 1.982711e+002
1.066399e+003, 2.003910e+002
1.066881e+003, 2.014897e+002
1.067363e+003, 2.021015e+002
1.067846e+003, 2.022162e+002
1.068328e+003, 2.010784e+002
1.068810e+003, 1.980790e+002
1.069292e+003, 1.943552e+002
1.069774e+003, 1.901323e+002
1.070256e+003, 1.856645e+002
1.070738e+003, 1.812315e+002
1.071220e+003, 1.766154e+002
1.071703e+003, 1.713701e+002
1.072185e+003, 1.655255e+002
1.072667e+003, 1.594544e+002
1.073149e+003, 1.529595e+002
1.073631e+003, 1.470484e+002
1.074113e+003, 1.424587e+002
1.074595e+003, 1.383389e+002
1.075077e+003, 1.341751e+002
1.075559e+003, 1.300370e+002
1.076042e+003, 1.259635e+002
1.076524e+003, 1.220293e+002
1.077006e+003, 1.184836e+002
1.077488e+003, 1.154761e+002
1.077970e+003, 1.126164e+002
1.078452e+003, 1.096383e+002
1.078934e+003, 1.068197e+002
1.079416e+003, 1.043566e+002
1.079898e+003, 1.021349e+002
1.080380e+003, 9.995980e+001
1.080863e+003, 9.787184e+001
1.081345e+003, 9.609177e+001
1.081827e+003, 9.473489e+001
1.082309e+003, 9.347471e+001
1.082791e+003, 9.213181e+001
1.083273e+003, 9.086940e+001
1.083755e+003, 8.987888e+001
1.084237e+003, 8.895444e+001
1.084720e+003, 8.774400e+001
1.085202e+003, 8.642540e+001
1.085684e+003, 8.561331e+001
1.086166e+003, 8.555165e+001
1.086648e+003, 8.515630e+001
1.087130e+003, 8.352684e+001
1.087612e+003, 8.199940e+001
1.088094e+003, 8.145094e+001
1.088577e+003, 8.115071e+001
1.089059e+003, 8.040276e+001
1.089541e+003, 7.934593e+001
1.090023e+003, 7.836990e+001
1.090505e+003, 7.754839e+001
1.090987e+003, 7.691331e+001
1.091469e+003, 7.668046e+001
1.091951e+003, 7.635976e+001
1.092433e+003, 7.560889e+001
1.092916e+003, 7.481859e+001
1.093398e+003, 7.436578e+001
1.093880e+003, 7.406799e+001
1.094362e+003, 7.352745e+001
1.094844e+003, 7.272029e+001
1.095326e+003, 7.212437e+001
1.095808e+003, 7.200252e+001
1.096290e+003, 7.195088e+001
1.096772e+003, 7.198425e+001
1.097255e+003, 7.188957e+001
1.097737e+003, 7.138745e+001
1.098219e+003, 7.076132e+001
1.098701e+003, 7.040649e+001
1.099183e+003, 7.032283e+001
1.099665e+003, 7.021436e+001
1.100147e+003, 7.002801e+001
1.100629e+003, 6.978017e+001
1.101112e+003, 6.931144e+001
1.101594e+003, 6.897681e+001
1.102076e+003, 6.917742e+001
1.102558e+003, 6.942586e+001
1.103040e+003, 6.908280e+001
1.103522e+003, 6.831660e+001
1.104004e+003, 6.790543e+001
1.104486e+003, 6.811877e+001
1.104969e+003, 6.818037e+001
1.105451e+003, 6.776086e+001
1.105933e+003, 6.742084e+001
1.106415e+003, 6.739719e+001
1.106897e+003, 6.748920e+001
1.107379e+003, 6.759258e+001
1.107861e+003, 6.766830e+001
1.108343e+003, 6.762605e+001
1.108825e+003, 6.742879e+001
1.109307e+003, 6.729166e+001
1.109790e+003, 6.732233e+001
1.110272e+003, 6.728734e+001
1.110754e+003, 6.709732e+001
1.111236e+003, 6.687476e+001
1.111718e+003, 6.672662e+001
1.112200e+003, 6.657726e+001
1.112682e+003, 6.624567e+001
1.113164e+003, 6.571169e+001
1.113647e+003, 6.542265e+001
1.114129e+003, 6.544344e+001
1.114611e+003, 6.561252e+001
1.115093e+003, 6.621456e+001
1.115575e+003, 6.655444e+001
1.116057e+003, 6.613034e+001
1.116539e+003, 6.548956e+001
1.117021e+003, 6.527278e+001
1.117504e+003, 6.541921e+001
1.117986e+003, 6.547952e+001
1.118468e+003, 6.542416e+001
1.118950e+003, 6.534693e+001
1.119432e+003, 6.521204e+001
1.119914e+003, 6.512882e+001
1.120396e+003, 6.513941e+001
1.120878e+003, 6.520790e+001
1.121360e+003, 6.535728e+001
1.121843e+003, 6.550061e+001
1.122325e+003, 6.533479e+001
1.122807e+003, 6.474661e+001
1.123289e+003, 6.460172e+001
1.123771e+003, 6.512473e+001
1.124253e+003, 6.527801e+001
1.124735e+003, 6.470519e+001
1.125217e+003, 6.413661e+001
1.125699e+003, 6.403025e+001
1.126182e+003, 6.422285e+001
1.126664e+003, 6.448622e+001
1.127146e+003, 6.480132e+001
1.127628e+003, 6.474464e+001
1.128110e+003, 6.424478e+001
1.128592e+003, 6.406973e+001
1.129074e+003, 6.437312e+001
1.129556e+003, 6.458819e+001
1.130039e+003, 6.445399e+001
1.130521e+003, 6.414156e+001
1.131003e+003, 6.381628e+001
1.131485e+003, 6.351440e+001
1.131967e+003, 6.339910e+001
1.132449e+003, 6.345623e+001
1.132931e+003, 6.342000e+001
1.133413e+003, 6.327795e+001
1.133896e+003, 6.311948e+001
1.134378e+003, 6.297261e+001
1.134860e+003, 6.314861e+001
1.135342e+003, 6.395763e+001
1.135824e+003, 6.487204e+001
1.136306e+003, 6.482171e+001
1.136788e+003, 6.407047e+001
1.137270e+003, 6.360548e+001
1.137752e+003, 6.339627e+001
1.138234e+003, 6.321944e+001
1.138717e+003, 6.303270e+001
1.139199e+003, 6.286454e+001
1.139681e+003, 6.272835e+001
1.140163e+003, 6.269993e+001
1.140645e+003, 6.295315e+001
1.141127e+003, 6.328606e+001
1.141609e+003, 6.331918e+001
1.142091e+003, 6.314859e+001
1.142574e+003, 6.288448e+001
1.143056e+003, 6.262595e+001
1.143538e+003, 6.269784e+001
1.144020e+003, 6.314180e+001
1.144502e+003, 6.341328e+001
1.144984e+003, 6.305013e+001
1.145466e+003, 6.254292e+001
1.145948e+003, 6.231982e+001
1.146431e+003, 6.231834e+001
1.146913e+003, 6.262183e+001
1.147395e+003, 6.301165e+001
1.147877e+003, 6.301897e+001
1.148359e+003, 6.269385e+001
1.148841e+003, 6.263242e+001
1.149323e+003, 6.315848e+001
1.149805e+003, 6.351754e+001
1.150287e+003, 6.294832e+001
1.150770e+003, 6.236674e+001
1.151252e+003, 6.253228e+001
1.151734e+003, 6.295618e+001
1.152216e+003, 6.317090e+001
1.152698e+003, 6.316102e+001
1.153180e+003, 6.296445e+001
1.153662e+003, 6.259267e+001
1.154144e+003, 6.243554e+001
1.154626e+003, 6.282400e+001
1.155109e+003, 6.316228e+001
1.155591e+003, 6.328650e+001
1.156073e+003, 6.326626e+001
1.156555e+003, 6.301811e+001
1.157037e+003, 6.273481e+001
1.157519e+003, 6.272115e+001
1.158001e+003, 6.293036e+001
1.158483e+003, 6.292398e+001
1.158966e+003, 6.247235e+001
1.159448e+003, 6.220918e+001
1.159930e+003, 6.226074e+001
1.160412e+003, 6.238693e+001
1.160894e+003, 6.259960e+001
1.161376e+003, 6.278011e+001
1.161858e+003, 6.282409e+001
1.162340e+003, 6.278344e+001
1.162822e+003, 6.277491e+001
1.163305e+003, 6.280653e+001
1.163787e+003, 6.277480e+001
1.164269e+003, 6.263473e+001
1.164751e+003, 6.256397e+001
1.165233e+003, 6.259281e+001
1.165715e+003, 6.267556e+001
1.166197e+003, 6.280135e+001
1.166679e+003, 6.296176e+001
1.167161e+003, 6.319822e+001
1.167644e+003, 6.340857e+001
1.168126e+003, 6.304113e+001
1.168608e+003, 6.205906e+001
1.169090e+003, 6.173410e+001
1.169572e+003, 6.214087e+001
1.170054e+003, 6.241162e+001
1.170536e+003, 6.230679e+001
1.171018e+003, 6.219685e+001
1.171500e+003, 6.234800e+001
1.171983e+003, 6.255287e+001
1.172465e+003, 6.241894e+001
1.172947e+003, 6.208930e+001
1.173429e+003, 6.205993e+001
1.173911e+003, 6.226182e+001
1.174393e+003, 6.252311e+001
1.174875e+003, 6.275691e+001
1.175357e+003, 6.263250e+001
1.175840e+003, 6.206069e+001
1.176322e+003, 6.156881e+001
1.176804e+003, 6.163208e+001
1.177286e+003, 6.189273e+001
1.177768e+003, 6.190022e+001
1.178250e+003, 6.182582e+001
1.178732e+003, 6.194062e+001
1.179214e+003, 6.216236e+001
1.179697e+003, 6.231825e+001
1.180179e+003, 6.237609e+001
1.180661e+003, 6.235676e+001
1.181143e+003, 6.226137e+001
1.181625e+003, 6.215294e+001
1.182107e+003, 6.206633e+001
1.182589e+003, 6.198359e+001
1.183071e+003, 6.187304e+001
1.183553e+003, 6.177903e+001
1.184036e+003, 6.176698e+001
1.184518e+003, 6.179380e+001
1.185000e+003, 6.175151e+001
1.185482e+003, 6.163424e+001
1.185964e+003, 6.161536e+001
1.186446e+003, 6.182944e+001
1.186928e+003, 6.199029e+001
1.187410e+003, 6.207165e+001
1.187892e+003, 6.206539e+001
1.188375e+003, 6.182907e+001
1.188857e+003, 6.162776e+001
1.189339e+003, 6.176444e+001
1.189821e+003, 6.211010e+001
1.190303e+003, 6.228340e+001
1.190785e+003, 6.224773e+001
1.191267e+003, 6.226798e+001
1.191749e+003, 6.241417e+001
1.192232e+003, 6.240295e+001
1.192714e+003, 6.213276e+001
1.193196e+003, 6.186007e+001
1.193678e+003, 6.169756e+001
1.194160e+003, 6.164187e+001
1.194642e+003, 6.170846e+001
1.195124e+003, 6.185644e+001
1.195606e+003, 6.189181e+001
1.196089e+003, 6.182425e+001
1.196571e+003, 6.199506e+001
1.197053e+003, 6.239887e+001
1.197535e+003, 6.262285e+001
1.198017e+003, 6.256646e+001
1.198499e+003, 6.237664e+001
1.198981e+003, 6.213858e+001
1.199463e+003, 6.188854e+001
1.199945e+003, 6.147635e+001
1.200427e+003, 6.123930e+001
1.200910e+003, 6.233470e+001
1.201392e+003, 6.393570e+001
1.201874e+003, 6.405054e+001
1.202356e+003, 6.295658e+001
1.202838e+003, 6.202840e+001
1.203320e+003, 6.166816e+001
1.203802e+003, 6.159482e+001
1.204284e+003, 6.169915e+001
1.204767e+003, 6.187329e+001
1.205249e+003, 6.205782e+001
1.205731e+003, 6.225373e+001
1.206213e+003, 6.247077e+001
1.206695e+003, 6.269147e+001
1.207177e+003, 6.297921e+001
1.207659e+003, 6.323600e+001
1.208141e+003, 6.318057e+001
1.208624e+003, 6.273626e+001
1.209106e+003, 6.237698e+001
1.209588e+003, 6.210453e+001
1.210070e+003, 6.209681e+001
1.210552e+003, 6.271343e+001
1.211034e+003, 6.321889e+001
1.211516e+003, 6.306153e+001
1.211998e+003, 6.278053e+001
1.212480e+003, 6.298166e+001
1.212963e+003, 6.349519e+001
1.213445e+003, 6.364422e+001
1.213927e+003, 6.330231e+001
1.214409e+003, 6.321960e+001
1.214891e+003, 6.340088e+001
1.215373e+003, 6.392268e+001
1.215855e+003, 6.495611e+001
1.216337e+003, 6.551579e+001
1.216819e+003, 6.501243e+001
1.217302e+003, 6.414126e+001
1.217784e+003, 6.372360e+001
1.218266e+003, 6.366032e+001
1.218748e+003, 6.372249e+001
1.219230e+003, 6.386590e+001
1.219712e+003, 6.384411e+001
1.220194e+003, 6.367567e+001
1.220676e+003, 6.353389e+001
1.221159e+003, 6.344859e+001
1.221641e+003, 6.328963e+001
1.222123e+003, 6.297921e+001
1.222605e+003, 6.275495e+001
1.223087e+003, 6.297919e+001
1.223569e+003, 6.328985e+001
1.224051e+003, 6.322023e+001
1.224533e+003, 6.302299e+001
1.225016e+003, 6.308321e+001
1.225498e+003, 6.326009e+001
1.225980e+003, 6.320205e+001
1.226462e+003, 6.288472e+001
1.226944e+003, 6.256274e+001
1.227426e+003, 6.225590e+001
1.227908e+003, 6.215667e+001
1.228390e+003, 6.251270e+001
1.228872e+003, 6.285093e+001
1.229354e+003, 6.296764e+001
1.229837e+003, 6.299487e+001
1.230319e+003, 6.303702e+001
1.230801e+003, 6.306436e+001
1.231283e+003, 6.301528e+001
1.231765e+003, 6.289198e+001
1.232247e+003, 6.274481e+001
1.232729e+003, 6.247649e+001
1.233211e+003, 6.253736e+001
1.233694e+003, 6.310956e+001
1.234176e+003, 6.340122e+001
1.234658e+003, 6.311853e+001
1.235140e+003, 6.275843e+001
1.235622e+003, 6.268469e+001
1.236104e+003, 6.271898e+001
1.236586e+003, 6.250117e+001
1.237068e+003, 6.215741e+001
1.237551e+003, 6.233186e+001
1.238033e+003, 6.286425e+001
1.238515e+003, 6.299194e+001
1.238997e+003, 6.273283e+001
1.239479e+003, 6.259194e+001
1.239961e+003, 6.270122e+001
1.240443e+003, 6.281307e+001
1.240925e+003, 6.277057e+001
1.241407e+003, 6.268071e+001
1.241890e+003, 6.261756e+001
1.242372e+003, 6.258729e+001
1.242854e+003, 6.259683e+001
1.243336e+003, 6.264184e+001
1.243818e+003, 6.271004e+001
1.244300e+003, 6.281203e+001
1.244782e+003, 6.300476e+001
1.245264e+003, 6.328237e+001
1.245746e+003, 6.345257e+001
1.246229e+003, 6.344477e+001
1.246711e+003, 6.336436e+001
1.247193e+003, 6.313987e+001
1.247675e+003, 6.296513e+001
1.248157e+003, 6.288009e+001
1.248639e+003, 6.290631e+001
1.249121e+003, 6.317576e+001
1.249603e+003, 6.344383e+001
1.250085e+003, 6.318821e+001
1.250568e+003, 6.246583e+001
1.251050e+003, 6.232214e+001
1.251532e+003, 6.282144e+001
1.252014e+003, 6.323206e+001
1.252496e+003, 6.350385e+001
1.252978e+003, 6.351215e+001
1.253460e+003, 6.322132e+001
1.253942e+003, 6.295166e+001
1.254425e+003, 6.292775e+001
1.254907e+003, 6.299876e+001
1.255389e+003, 6.295937e+001
1.255871e+003, 6.286947e+001
1.256353e+003, 6.279876e+001
1.256835e+003, 6.278561e+001
1.257317e+003, 6.302510e+001
1.257799e+003, 6.335061e+001
1.258281e+003, 6.323940e+001
1.258764e+003, 6.270372e+001
1.259246e+003, 6.250064e+001
1.259728e+003, 6.309481e+001
1.260210e+003, 6.350268e+001
1.260692e+003, 6.307076e+001
1.261174e+003, 6.260436e+001
1.261656e+003, 6.240953e+001
1.262138e+003, 6.240224e+001
1.262620e+003, 6.263009e+001
1.263103e+003, 6.292833e+001
1.263585e+003, 6.305779e+001
1.264067e+003, 6.302546e+001
1.264549e+003, 6.287153e+001
1.265031e+003, 6.247923e+001
1.265513e+003, 6.239244e+001
1.265995e+003, 6.270385e+001
1.266477e+003, 6.291891e+001
1.266960e+003, 6.292675e+001
1.267442e+003, 6.281462e+001
1.267924e+003, 6.262044e+001
1.268406e+003, 6.243018e+001
1.268888e+003, 6.236210e+001
1.269370e+003, 6.233857e+001
1.269852e+003, 6.212247e+001
1.270334e+003, 6.183120e+001
1.270817e+003, 6.176604e+001
1.271299e+003, 6.188679e+001
1.271781e+003, 6.211881e+001
1.272263e+003, 6.237179e+001
1.272745e+003, 6.235646e+001
1.273227e+003, 6.196139e+001
1.273709e+003, 6.172456e+001
1.274191e+003, 6.212218e+001
1.274673e+003, 6.254153e+001
1.275156e+003, 6.268084e+001
1.275638e+003, 6.273573e+001
1.276120e+003, 6.283475e+001
1.276602e+003, 6.292353e+001
1.277084e+003, 6.294555e+001
1.277566e+003, 6.289440e+001
1.278048e+003, 6.274395e+001
1.278530e+003, 6.246780e+001
1.279012e+003, 6.235361e+001
1.279495e+003, 6.246000e+001
1.279977e+003, 6.246450e+001
1.280459e+003, 6.226900e+001
1.280941e+003, 6.240475e+001
1.281423e+003, 6.311532e+001
1.281905e+003, 6.371537e+001
1.282387e+003, 6.364323e+001
1.282869e+003, 6.327287e+001
1.283352e+003, 6.322438e+001
1.283834e+003, 6.335793e+001
1.284316e+003, 6.337005e+001
1.284798e+003, 6.326376e+001
##END=



