##NAMES=Jeremejevite
##RRUFFID=R060617
##IDEAL CHEMISTRY=Al_6_(BO_3_)_5_F_3_
##LOCALITY=Ameib Farm, Usakos, Karibib District, Erongo Region, Namibia
##OWNER=RRUFF
##SOURCE=Michael Scott
##DESCRIPTION=Very pale blue hexagonal prism
##STATUS=The identification of this mineral is confirmed by single-crystal X-ray diffraction and chemical analysis.
##URL=rruff.info/R060617
##MEASURED CHEMISTRY=(Al_5.99_Fe^3+^_0.01_)_Σ=6_(BO_3_)_5_(F_2.85_(OH)_0.15_)_Σ=3_ ; B and H not measured but estimated by difference and charge balance
107.059, 74.528
107.541, 67.822
108.023, 64.109
108.506, 64.827
108.988, 68.737
109.470, 71.952
109.952, 73.494
110.434, 75.003
110.916, 77.245
111.398, 79.136
111.880, 82.928
112.363, 90.501
112.845, 101.599
113.327, 109.950
113.809, 112.235
114.291, 112.257
114.773, 113.596
115.255, 118.556
115.737, 123.790
116.219, 127.819
116.702, 130.176
117.184, 132.893
117.666, 137.298
118.148, 142.623
118.630, 147.299
119.112, 149.081
119.594, 150.870
120.076, 155.099
120.559, 163.698
121.041, 172.477
121.523, 178.578
122.005, 182.372
122.487, 185.611
122.969, 190.243
123.451, 194.826
123.933, 197.353
124.415, 196.525
124.898, 193.668
125.380, 189.135
125.862, 182.796
126.344, 177.934
126.826, 178.722
127.308, 183.762
127.790, 188.978
128.272, 193.536
128.755, 196.841
129.237, 196.734
129.719, 192.108
130.201, 186.654
130.683, 187.311
131.165, 193.716
131.647, 198.589
132.129, 194.007
132.611, 181.975
133.094, 177.074
133.576, 183.958
134.058, 198.030
134.540, 206.219
135.022, 207.891
135.504, 206.760
135.986, 205.136
136.468, 202.768
136.951, 203.071
137.433, 208.239
137.915, 217.883
138.397, 223.847
138.879, 225.375
139.361, 224.363
139.843, 222.926
140.325, 220.348
140.807, 219.522
141.290, 222.607
141.772, 231.969
142.254, 236.406
142.736, 234.031
143.218, 227.273
143.700, 222.520
144.182, 219.273
144.664, 218.651
145.146, 221.948
145.629, 233.842
146.111, 240.974
146.593, 239.888
147.075, 231.344
147.557, 228.092
148.039, 234.734
148.521, 243.359
149.003, 247.765
149.486, 242.536
149.968, 239.209
150.450, 241.105
150.932, 250.290
151.414, 253.964
151.896, 247.577
152.378, 237.179
152.860, 229.991
153.342, 225.905
153.825, 225.426
154.307, 229.456
154.789, 240.676
155.271, 250.352
155.753, 258.226
156.235, 263.717
156.717, 265.467
157.199, 258.540
157.682, 251.003
158.164, 246.719
158.646, 246.053
159.128, 249.118
159.610, 258.412
160.092, 272.394
160.574, 284.337
161.056, 289.515
161.538, 292.721
162.020, 297.751
162.503, 308.096
162.985, 318.415
163.467, 326.221
163.949, 331.438
164.431, 336.470
164.913, 339.183
165.395, 343.173
165.878, 352.812
166.360, 374.097
166.842, 398.674
167.324, 419.230
167.806, 433.579
168.288, 453.701
168.770, 491.504
169.252, 540.392
169.734, 588.158
170.217, 623.023
170.699, 656.633
171.181, 697.311
171.663, 741.611
172.145, 804.466
172.627, 872.140
173.109, 960.226
173.591, 1122.139
174.073, 1361.937
174.556, 1704.445
175.038, 2226.101
175.520, 3141.745
176.002, 4002.107
176.484, 4275.523
176.966, 4001.857
177.448, 3482.158
177.930, 2778.698
178.413, 2000.667
178.895, 1368.011
179.377, 979.756
179.859, 764.549
180.341, 617.009
180.823, 539.547
181.305, 498.116
181.787, 471.545
182.269, 457.334
182.751, 445.535
183.234, 431.944
183.716, 417.844
184.198, 405.760
184.680, 395.150
185.162, 389.289
185.644, 394.597
186.126, 409.819
186.609, 425.774
187.091, 433.960
187.573, 437.936
188.055, 451.583
188.537, 475.096
189.019, 509.642
189.501, 569.277
189.983, 654.227
190.465, 719.360
190.947, 732.321
191.430, 697.298
191.912, 645.827
192.394, 575.777
192.876, 498.945
193.358, 445.922
193.840, 417.951
194.322, 402.105
194.805, 390.203
195.287, 382.298
195.769, 377.315
196.251, 375.891
196.733, 377.041
197.215, 376.629
197.697, 374.247
198.179, 371.976
198.661, 371.266
199.143, 372.013
199.626, 375.801
200.108, 384.804
200.590, 397.949
201.072, 405.307
201.554, 405.680
202.036, 403.069
202.518, 400.783
203.000, 397.983
203.483, 400.135
203.965, 408.478
204.447, 423.048
204.929, 445.828
205.411, 478.440
205.893, 516.982
206.375, 562.347
206.857, 623.329
207.339, 659.382
207.822, 646.694
208.304, 574.270
208.786, 514.180
209.268, 466.697
209.750, 430.625
210.232, 405.260
210.714, 392.646
211.196, 384.763
211.678, 378.415
212.161, 374.039
212.643, 369.427
213.125, 364.307
213.607, 358.990
214.089, 354.212
214.571, 349.432
215.053, 346.240
215.536, 346.004
216.018, 350.091
216.500, 353.010
216.982, 354.304
217.464, 354.050
217.946, 352.079
218.428, 346.985
218.910, 342.451
219.392, 341.191
219.874, 344.195
220.357, 348.084
220.839, 352.776
221.321, 358.154
221.803, 362.433
222.285, 364.854
222.767, 367.138
223.249, 370.856
223.731, 377.034
224.214, 382.444
224.696, 386.182
225.178, 388.201
225.660, 391.389
226.142, 394.832
226.624, 400.386
227.106, 409.120
227.588, 418.343
228.070, 436.200
228.553, 464.799
229.035, 504.503
229.517, 554.417
229.999, 635.520
230.481, 709.466
230.963, 727.239
231.445, 662.260
231.927, 587.273
232.410, 516.739
232.892, 448.316
233.374, 397.977
233.856, 370.470
234.338, 357.806
234.820, 349.165
235.302, 347.332
235.784, 345.061
236.266, 339.603
236.749, 329.239
237.231, 322.207
237.713, 319.187
238.195, 319.139
238.677, 320.512
239.159, 324.491
239.641, 328.041
240.123, 329.977
240.605, 329.568
241.088, 329.720
241.570, 331.152
242.052, 332.870
242.534, 332.465
243.016, 328.176
243.498, 324.378
243.980, 323.057
244.462, 325.776
244.945, 327.255
245.427, 327.197
245.909, 325.948
246.391, 324.167
246.873, 320.755
247.355, 318.404
247.837, 318.701
248.319, 323.614
248.801, 326.666
249.284, 327.449
249.766, 326.356
250.248, 324.211
250.730, 319.559
251.212, 316.034
251.694, 315.864
252.176, 320.928
252.658, 324.876
253.141, 327.205
253.623, 328.260
254.105, 329.009
254.587, 328.347
255.069, 329.099
255.551, 333.722
256.033, 345.430
256.515, 352.599
256.997, 352.690
257.480, 347.596
257.962, 344.983
258.444, 343.887
258.926, 346.815
259.408, 356.776
259.890, 378.494
260.372, 394.187
260.854, 399.429
261.336, 397.280
261.819, 402.423
262.301, 415.207
262.783, 434.637
263.265, 458.452
263.747, 483.700
264.229, 525.173
264.711, 594.015
265.194, 681.082
265.676, 742.711
266.158, 780.018
266.640, 789.727
267.122, 758.975
267.604, 669.044
268.086, 608.336
268.568, 595.666
269.050, 621.307
269.533, 637.484
270.015, 648.043
270.497, 641.206
270.979, 601.428
271.461, 518.692
271.943, 448.211
272.425, 398.656
272.907, 367.708
273.389, 343.904
273.872, 328.091
274.354, 318.173
274.836, 302.576
275.318, 296.710
275.800, 303.170
276.282, 306.638
276.764, 307.275
277.246, 296.599
277.728, 300.531
278.211, 298.609
278.693, 296.447
279.175, 302.434
279.657, 293.404
280.139, 298.463
280.621, 303.287
281.103, 303.720
281.585, 298.614
282.068, 294.827
282.550, 298.883
283.032, 310.759
283.514, 322.959
283.996, 334.027
284.478, 344.504
284.960, 355.496
285.442, 366.848
285.924, 380.289
286.407, 396.586
286.889, 415.896
287.371, 441.988
287.853, 481.168
288.335, 523.287
288.817, 541.389
289.299, 534.663
289.781, 515.927
290.263, 489.683
290.746, 457.969
291.228, 432.350
291.710, 415.704
292.192, 405.916
292.674, 398.835
293.156, 394.428
293.638, 393.865
294.121, 398.734
294.603, 408.302
295.085, 419.801
295.567, 431.305
296.049, 446.200
296.531, 471.103
297.013, 505.788
297.495, 545.363
297.977, 589.526
298.460, 636.111
298.942, 681.675
299.424, 733.649
299.906, 772.491
300.388, 769.636
300.870, 728.086
301.352, 668.929
301.834, 592.431
302.316, 511.021
302.799, 444.259
303.281, 397.552
303.763, 365.564
304.245, 347.039
304.727, 340.190
305.209, 338.247
305.691, 341.404
306.173, 345.397
306.655, 344.251
307.138, 334.941
307.620, 324.386
308.102, 317.567
308.584, 314.075
309.066, 312.451
309.548, 312.279
310.030, 313.402
310.512, 315.391
310.995, 317.619
311.477, 322.187
311.959, 332.927
312.441, 347.180
312.923, 358.938
313.405, 362.117
313.887, 363.596
314.369, 367.824
314.852, 375.124
315.334, 386.329
315.816, 403.265
316.298, 424.315
316.780, 446.297
317.262, 464.954
317.744, 486.744
318.226, 516.587
318.708, 557.617
319.190, 597.987
319.673, 627.874
320.155, 655.811
320.637, 694.960
321.119, 744.131
321.601, 809.437
322.083, 890.647
322.565, 985.543
323.047, 1106.874
323.530, 1245.049
324.012, 1414.362
324.494, 1632.905
324.976, 1949.566
325.458, 2273.208
325.940, 2620.263
326.422, 3038.771
326.904, 3250.178
327.387, 3161.483
327.869, 2889.658
328.351, 2557.077
328.833, 2053.478
329.315, 1611.085
329.797, 1277.698
330.279, 1057.436
330.761, 877.320
331.243, 750.291
331.725, 655.311
332.208, 574.770
332.690, 507.233
333.172, 456.942
333.654, 428.612
334.136, 421.330
334.618, 410.002
335.100, 391.541
335.582, 373.357
336.065, 361.723
336.547, 358.978
337.029, 356.379
337.511, 352.915
337.993, 348.686
338.475, 344.066
338.957, 339.461
339.439, 333.497
339.922, 323.234
340.404, 307.098
340.886, 299.495
341.368, 305.040
341.850, 317.942
342.332, 321.144
342.814, 313.523
343.296, 304.707
343.778, 300.319
344.261, 300.208
344.743, 301.721
345.225, 305.314
345.707, 309.162
346.189, 309.115
346.671, 305.402
347.153, 302.672
347.635, 304.957
348.117, 310.424
348.600, 312.515
349.082, 310.152
349.564, 306.765
350.046, 306.939
350.528, 309.905
351.010, 312.724
351.492, 312.631
351.974, 311.879
352.457, 314.373
352.939, 320.415
353.421, 327.972
353.903, 336.627
354.385, 345.384
354.867, 352.044
355.349, 352.547
355.831, 352.541
356.314, 357.019
356.796, 365.972
357.278, 377.889
357.760, 390.383
358.242, 405.538
358.724, 425.758
359.206, 452.470
359.688, 483.938
360.170, 520.570
360.652, 561.832
361.135, 604.218
361.617, 642.401
362.099, 683.127
362.581, 732.007
363.063, 792.669
363.545, 858.570
364.027, 919.162
364.509, 981.470
364.992, 1069.923
365.474, 1183.898
365.956, 1330.596
366.438, 1510.551
366.920, 1705.295
367.402, 1965.872
367.884, 2241.526
368.366, 2587.533
368.849, 3132.076
369.331, 4061.731
369.813, 5002.889
370.295, 5921.298
370.777, 7028.493
371.259, 7454.792
371.741, 6939.366
372.223, 5896.554
372.705, 4853.181
373.188, 3728.445
373.670, 2774.573
374.152, 2081.447
374.634, 1650.129
375.116, 1317.782
375.598, 1098.608
376.080, 950.297
376.562, 834.198
377.044, 753.023
377.527, 689.864
378.009, 644.497
378.491, 613.950
378.973, 584.694
379.455, 556.161
379.937, 531.562
380.419, 514.846
380.901, 505.470
381.384, 494.820
381.866, 481.398
382.348, 466.375
382.830, 452.221
383.312, 438.855
383.794, 424.435
384.276, 404.450
384.758, 382.734
385.241, 370.144
385.723, 369.383
386.205, 372.252
386.687, 369.722
387.169, 363.475
387.651, 358.380
388.133, 356.982
388.615, 357.921
389.097, 360.501
389.579, 364.848
390.062, 368.408
390.544, 368.696
391.026, 367.362
391.508, 366.714
391.990, 365.638
392.472, 367.172
392.954, 372.868
393.436, 382.747
393.919, 396.053
394.401, 419.162
394.883, 441.961
395.365, 456.739
395.847, 459.754
396.329, 457.267
396.811, 450.324
397.293, 438.806
397.776, 422.544
398.258, 392.091
398.740, 364.295
399.222, 346.742
399.704, 343.938
400.186, 343.243
400.668, 346.207
401.150, 350.806
401.632, 353.310
402.115, 351.820
402.597, 351.129
403.079, 352.191
403.561, 354.807
404.043, 361.093
404.525, 371.591
405.007, 385.077
405.489, 400.641
405.971, 418.703
406.454, 436.130
406.936, 451.333
407.418, 465.421
407.900, 483.841
408.382, 506.716
408.864, 532.143
409.346, 562.180
409.828, 595.575
410.310, 617.261
410.793, 621.132
411.275, 620.118
411.757, 635.989
412.239, 667.239
412.721, 704.219
413.203, 732.542
413.685, 764.736
414.167, 829.214
414.650, 933.204
415.132, 1042.960
415.614, 1149.531
416.096, 1239.012
416.578, 1286.804
417.060, 1274.411
417.542, 1220.799
418.024, 1126.083
418.507, 992.691
418.989, 861.213
419.471, 743.128
419.953, 642.003
420.435, 562.920
420.917, 519.097
421.399, 483.311
421.881, 447.216
422.363, 412.409
422.846, 387.202
423.328, 380.725
423.810, 377.951
424.292, 372.194
424.774, 362.232
425.256, 350.485
425.738, 332.687
426.220, 314.542
426.703, 305.873
427.185, 312.751
427.667, 319.550
428.149, 322.439
428.631, 321.347
429.113, 316.961
429.595, 307.188
430.077, 297.527
430.559, 293.960
431.042, 297.503
431.524, 299.867
432.006, 298.856
432.488, 296.005
432.970, 296.564
433.452, 300.802
433.934, 304.936
434.416, 306.738
434.898, 306.405
435.381, 303.914
435.863, 298.259
436.345, 293.821
436.827, 298.046
437.309, 308.757
437.791, 318.238
438.273, 323.870
438.755, 325.799
439.237, 323.231
439.720, 316.121
440.202, 308.063
440.684, 299.026
441.166, 291.281
441.648, 287.756
442.130, 294.062
442.612, 299.772
443.095, 297.735
443.577, 290.322
444.059, 287.054
444.541, 298.474
445.023, 309.389
445.505, 310.481
445.987, 292.952
446.469, 281.515
446.951, 282.708
447.434, 290.428
447.916, 294.865
448.398, 291.565
448.880, 290.826
449.362, 296.681
449.844, 309.690
450.326, 316.535
450.808, 314.628
451.290, 310.499
451.773, 310.154
452.255, 314.643
452.737, 317.161
453.219, 315.569
453.701, 312.299
454.183, 314.370
454.665, 322.052
455.147, 330.687
455.629, 335.812
456.112, 339.202
456.594, 349.134
457.076, 366.978
457.558, 386.948
458.040, 405.230
458.522, 420.608
459.004, 430.063
459.486, 431.755
459.969, 427.200
460.451, 415.807
460.933, 398.305
461.415, 380.796
461.897, 366.546
462.379, 354.223
462.861, 342.602
463.343, 330.425
463.826, 320.736
464.308, 317.042
464.790, 316.685
465.272, 314.119
465.754, 303.478
466.236, 294.507
466.718, 291.237
467.200, 295.438
467.682, 298.560
468.164, 300.105
468.647, 300.687
469.129, 300.653
469.611, 299.014
470.093, 298.774
470.575, 300.890
471.057, 304.643
471.539, 306.586
472.021, 305.687
472.504, 306.026
472.986, 310.974
473.468, 320.482
473.950, 327.071
474.432, 329.900
474.914, 331.499
475.396, 335.881
475.878, 342.454
476.361, 347.432
476.843, 347.555
477.325, 346.307
477.807, 349.440
478.289, 356.772
478.771, 366.333
479.253, 377.277
479.735, 389.427
480.217, 402.764
480.699, 417.911
481.182, 432.899
481.664, 447.795
482.146, 461.654
482.628, 472.949
483.110, 484.242
483.592, 490.049
484.074, 487.172
484.556, 474.710
485.039, 459.499
485.521, 436.357
486.003, 414.424
486.485, 400.887
486.967, 405.048
487.449, 402.966
487.931, 389.419
488.413, 369.191
488.896, 356.888
489.378, 355.260
489.860, 355.023
490.342, 351.661
490.824, 344.949
491.306, 341.842
491.788, 342.938
492.270, 345.573
492.752, 346.774
493.235, 346.697
493.717, 346.604
494.199, 347.295
494.681, 347.644
495.163, 344.751
495.645, 339.272
496.127, 334.937
496.609, 335.132
497.091, 337.403
497.574, 338.458
498.056, 337.349
498.538, 337.857
499.020, 345.437
499.502, 355.195
499.984, 360.521
500.466, 353.593
500.948, 347.680
501.431, 346.849
501.913, 351.023
502.395, 357.918
502.877, 364.893
503.359, 376.573
503.841, 394.778
504.323, 418.479
504.805, 429.424
505.288, 449.830
505.770, 467.938
506.252, 483.873
506.734, 491.123
507.216, 509.588
507.698, 524.597
508.180, 538.539
508.662, 556.009
509.144, 577.049
509.626, 599.043
510.109, 623.946
510.591, 648.560
511.073, 661.675
511.555, 662.075
512.037, 649.745
512.519, 617.933
513.001, 573.171
513.484, 531.178
513.966, 499.282
514.448, 472.844
514.930, 448.981
515.412, 427.562
515.894, 408.091
516.376, 390.435
516.858, 374.609
517.340, 360.321
517.823, 346.516
518.305, 335.977
518.787, 330.364
519.269, 328.136
519.751, 326.563
520.233, 328.578
520.715, 326.933
521.197, 317.808
521.679, 301.595
522.162, 292.842
522.644, 292.992
523.126, 297.441
523.608, 304.438
524.090, 314.173
524.572, 319.580
525.054, 319.115
525.536, 315.849
526.018, 313.929
526.501, 313.254
526.983, 313.158
527.465, 312.650
527.947, 312.889
528.429, 316.562
528.911, 323.330
529.393, 329.089
529.875, 327.972
530.357, 326.175
530.840, 330.170
531.322, 343.630
531.804, 357.746
532.286, 370.961
532.768, 382.172
533.250, 389.784
533.732, 385.935
534.214, 386.257
534.697, 399.367
535.179, 424.704
535.661, 434.649
536.143, 420.555
536.625, 402.435
537.107, 392.721
537.589, 393.900
538.071, 391.646
538.554, 384.924
539.036, 375.378
539.518, 364.727
540.000, 352.898
540.482, 342.374
540.964, 334.398
541.446, 327.888
541.928, 319.562
542.411, 309.867
542.893, 302.783
543.375, 304.761
543.857, 309.274
544.339, 307.180
544.821, 295.540
545.303, 284.662
545.785, 280.729
546.267, 280.864
546.750, 281.223
547.232, 280.146
547.714, 279.763
548.196, 281.449
548.678, 284.722
549.160, 286.299
549.642, 285.663
550.124, 283.864
550.606, 281.293
551.089, 277.951
551.571, 273.337
552.053, 266.265
552.535, 260.082
553.017, 259.882
553.499, 265.866
553.981, 269.276
554.463, 266.757
554.945, 262.519
555.428, 267.483
555.910, 279.784
556.392, 288.174
556.874, 281.982
557.356, 270.197
557.838, 263.848
558.320, 263.621
558.802, 265.977
559.284, 272.109
559.767, 278.031
560.249, 279.653
560.731, 271.334
561.213, 265.258
561.695, 265.674
562.177, 270.294
562.659, 274.087
563.141, 275.984
563.624, 277.979
564.106, 281.380
564.588, 286.165
565.070, 286.056
565.552, 279.192
566.034, 271.596
566.516, 266.960
566.998, 265.287
567.481, 267.958
567.963, 276.489
568.445, 285.021
568.927, 284.066
569.409, 275.870
569.891, 269.072
570.373, 266.405
570.855, 267.146
571.338, 271.681
571.820, 279.296
572.302, 287.014
572.784, 293.711
573.266, 299.499
573.748, 304.768
574.230, 309.841
574.712, 312.871
575.194, 310.840
575.677, 307.844
576.159, 307.990
576.641, 314.338
577.123, 318.847
577.605, 319.795
578.087, 318.822
578.569, 320.569
579.051, 325.846
579.533, 330.855
580.016, 334.727
580.498, 337.207
580.980, 335.800
581.462, 330.316
581.944, 324.299
582.426, 320.369
582.908, 318.091
583.390, 316.558
583.872, 315.600
584.355, 315.341
584.837, 316.595
585.319, 318.465
585.801, 319.552
586.283, 316.829
586.765, 315.688
587.247, 320.073
587.729, 328.769
588.211, 333.990
588.694, 330.194
589.176, 327.136
589.658, 328.741
590.140, 336.136
590.622, 342.598
591.104, 348.399
591.586, 352.823
592.068, 354.024
592.550, 351.829
593.033, 353.396
593.515, 361.105
593.997, 370.774
594.479, 376.035
594.961, 377.314
595.443, 376.615
595.925, 372.199
596.407, 367.991
596.890, 368.185
597.372, 372.592
597.854, 379.098
598.336, 388.805
598.818, 398.751
599.300, 406.087
599.782, 408.025
600.264, 414.345
600.747, 429.691
601.229, 448.498
601.711, 464.883
602.193, 474.820
602.675, 490.903
603.157, 516.255
603.639, 547.985
604.121, 577.412
604.604, 604.574
605.086, 631.321
605.568, 662.177
606.050, 693.301
606.532, 711.992
607.014, 718.286
607.496, 714.141
607.978, 696.112
608.460, 670.576
608.943, 645.599
609.425, 623.354
609.907, 599.648
610.389, 569.606
610.871, 538.064
611.353, 510.290
611.835, 491.650
612.317, 472.568
612.799, 449.347
613.282, 424.388
613.764, 405.370
614.246, 394.867
614.728, 385.739
615.210, 375.154
615.692, 363.296
616.174, 354.096
616.656, 347.757
617.138, 342.412
617.621, 335.961
618.103, 329.156
618.585, 324.961
619.067, 324.305
619.549, 323.742
620.031, 318.437
620.513, 311.215
620.995, 306.791
621.477, 311.727
621.960, 315.002
622.442, 309.234
622.924, 297.584
623.406, 290.047
623.888, 293.216
624.370, 295.884
624.852, 294.100
625.334, 287.587
625.817, 283.724
626.299, 282.495
626.781, 284.016
627.263, 290.772
627.745, 302.679
628.227, 305.760
628.709, 297.433
629.191, 286.832
629.674, 286.958
630.156, 293.639
630.638, 295.314
631.120, 284.385
631.602, 273.253
632.084, 274.063
632.566, 282.871
633.048, 289.943
633.531, 291.608
634.013, 290.519
634.495, 286.115
634.977, 278.349
635.459, 274.758
635.941, 279.481
636.423, 283.778
636.905, 282.089
637.387, 271.821
637.870, 268.754
638.352, 274.539
638.834, 283.042
639.316, 288.515
639.798, 290.897
640.280, 288.635
640.762, 279.574
641.244, 270.018
641.726, 268.380
642.209, 272.445
642.691, 277.359
643.173, 281.625
643.655, 285.456
644.137, 288.875
644.619, 291.933
645.101, 294.694
645.583, 297.869
646.065, 300.071
646.548, 300.735
647.030, 299.716
647.512, 297.798
647.994, 294.132
648.476, 291.089
648.958, 290.471
649.440, 292.276
649.922, 297.176
650.404, 306.180
650.887, 314.905
651.369, 317.463
651.851, 315.253
652.333, 312.043
652.815, 308.304
653.297, 305.026
653.779, 301.812
654.261, 299.555
654.744, 300.653
655.226, 312.589
655.708, 321.625
656.190, 320.690
656.672, 309.426
657.154, 302.142
657.636, 299.243
658.118, 299.819
658.601, 304.273
659.083, 313.221
659.565, 319.870
660.047, 323.522
660.529, 327.655
661.011, 335.734
661.493, 347.267
661.975, 361.214
662.458, 377.877
662.940, 395.377
663.422, 417.448
663.904, 438.155
664.386, 447.466
664.868, 433.792
665.350, 416.190
665.832, 400.802
666.314, 386.889
666.797, 370.944
667.279, 347.729
667.761, 329.238
668.243, 320.132
668.725, 319.925
669.207, 319.124
669.689, 318.129
670.171, 314.666
670.653, 305.248
671.136, 291.720
671.618, 281.116
672.100, 273.865
672.582, 270.289
673.064, 272.110
673.546, 277.224
674.028, 282.860
674.510, 288.604
674.992, 294.400
675.475, 303.268
675.957, 311.281
676.439, 312.439
676.921, 295.845
677.403, 286.321
677.885, 290.478
678.367, 302.827
678.849, 306.417
679.331, 299.642
679.814, 291.789
680.296, 285.721
680.778, 281.657
681.260, 280.855
681.742, 283.068
682.224, 285.062
682.706, 282.989
683.188, 280.333
683.671, 281.555
684.153, 287.241
684.635, 293.077
685.117, 298.912
685.599, 303.001
686.081, 296.467
686.563, 289.217
687.045, 302.580
687.528, 310.939
688.010, 314.563
688.492, 299.274
688.974, 308.408
689.456, 307.754
689.938, 306.699
690.420, 319.271
690.902, 306.732
691.385, 319.088
691.867, 319.686
692.349, 323.174
692.831, 329.615
693.313, 331.643
693.795, 330.564
694.277, 331.111
694.759, 336.956
695.241, 343.181
695.724, 347.189
696.206, 348.641
696.688, 352.686
697.170, 362.475
697.652, 370.117
698.134, 369.988
698.616, 361.302
699.098, 357.010
699.580, 357.860
700.063, 359.174
700.545, 354.404
701.027, 346.762
701.509, 344.035
701.991, 348.112
702.473, 355.214
702.955, 363.612
703.437, 372.925
703.919, 382.546
704.402, 394.742
704.884, 404.432
705.366, 409.991
705.848, 412.544
706.330, 413.619
706.812, 411.655
707.294, 412.577
707.776, 420.138
708.258, 430.263
708.741, 428.546
709.223, 415.439
709.705, 400.344
710.187, 388.420
710.669, 377.483
711.151, 362.221
711.633, 343.570
712.115, 329.805
712.598, 330.401
713.080, 333.374
713.562, 330.505
714.044, 319.690
714.526, 310.850
715.008, 305.025
715.490, 301.189
715.972, 298.933
716.455, 298.587
716.937, 298.626
717.419, 299.506
717.901, 299.229
718.383, 293.954
718.865, 285.289
719.347, 279.343
719.829, 277.293
720.311, 277.987
720.794, 281.749
721.276, 287.187
721.758, 292.237
722.240, 297.689
722.722, 300.921
723.204, 299.578
723.686, 295.680
724.168, 293.869
724.651, 294.702
725.133, 296.581
725.615, 299.781
726.097, 303.460
726.579, 303.614
727.061, 300.355
727.543, 298.527
728.025, 301.926
728.507, 307.804
728.990, 311.940
729.472, 314.591
729.954, 317.418
730.436, 322.269
730.918, 326.842
731.400, 329.357
731.882, 329.292
732.364, 330.108
732.846, 332.005
733.329, 334.816
733.811, 338.782
734.293, 344.311
734.775, 348.349
735.257, 350.678
735.739, 352.508
736.221, 353.968
736.703, 355.929
737.185, 361.550
737.668, 372.235
738.150, 382.644
738.632, 389.684
739.114, 393.704
739.596, 395.039
740.078, 390.791
740.560, 387.938
741.042, 388.174
741.524, 390.266
742.007, 392.644
742.489, 395.192
742.971, 397.997
743.453, 400.421
743.935, 403.910
744.417, 413.577
744.899, 428.236
745.381, 439.300
745.864, 440.873
746.346, 439.367
746.828, 442.815
747.310, 448.952
747.792, 450.930
748.274, 442.384
748.756, 432.688
749.238, 426.579
749.721, 423.472
750.203, 415.568
750.685, 400.474
751.167, 385.292
751.649, 372.040
752.131, 361.109
752.613, 358.499
753.095, 364.294
753.578, 369.667
754.060, 364.132
754.542, 355.880
755.024, 357.627
755.506, 370.377
755.988, 383.523
756.470, 391.281
756.952, 397.890
757.434, 406.502
757.917, 418.830
758.399, 428.920
758.881, 436.029
759.363, 442.066
759.845, 448.596
760.327, 455.700
760.809, 463.755
761.291, 473.884
761.773, 480.003
762.256, 472.499
762.738, 457.020
763.220, 444.094
763.702, 436.667
764.184, 430.822
764.666, 426.632
765.148, 421.884
765.630, 413.676
766.112, 396.956
766.595, 383.342
767.077, 373.486
767.559, 366.810
768.041, 363.382
768.523, 363.519
769.005, 361.074
769.487, 353.540
769.969, 344.769
770.451, 342.310
770.934, 343.452
771.416, 340.951
771.898, 327.201
772.380, 313.332
772.862, 304.843
773.344, 300.892
773.826, 299.436
774.308, 304.039
774.791, 305.648
775.273, 300.719
775.755, 291.734
776.237, 289.352
776.719, 294.158
777.201, 297.536
777.683, 293.567
778.165, 287.026
778.648, 288.049
779.130, 295.046
779.612, 300.707
780.094, 300.396
780.576, 297.952
781.058, 294.787
781.540, 291.099
782.022, 288.868
782.505, 288.232
782.987, 289.077
783.469, 292.301
783.951, 297.638
784.433, 298.405
784.915, 294.290
785.397, 289.931
785.879, 289.584
786.361, 290.873
786.844, 288.625
787.326, 282.889
787.808, 279.022
788.290, 281.889
788.772, 286.490
789.254, 289.693
789.736, 290.934
790.218, 291.999
790.700, 295.311
791.183, 295.097
791.665, 284.290
792.147, 262.421
792.629, 254.326
793.111, 261.442
793.593, 271.704
794.075, 274.071
794.557, 272.366
795.039, 273.344
795.522, 278.515
796.004, 281.460
796.486, 276.663
796.968, 269.850
797.450, 266.084
797.932, 268.230
798.414, 266.497
798.896, 258.695
799.378, 250.570
799.861, 247.630
800.343, 249.623
800.825, 254.208
801.307, 261.627
801.789, 268.414
802.271, 269.122
802.753, 267.562
803.235, 269.798
803.718, 279.662
804.200, 286.741
804.682, 286.576
805.164, 282.215
805.646, 276.551
806.128, 267.491
806.610, 263.039
807.092, 264.842
807.575, 268.905
808.057, 269.717
808.539, 268.115
809.021, 268.238
809.503, 271.328
809.985, 274.770
810.467, 278.022
810.949, 279.483
811.432, 276.821
811.914, 262.225
812.396, 254.154
812.878, 260.034
813.360, 270.894
813.842, 276.079
814.324, 274.312
814.806, 272.693
815.288, 271.736
815.771, 272.371
816.253, 278.283
816.735, 286.920
817.217, 290.913
817.699, 285.882
818.181, 280.251
818.663, 279.243
819.145, 281.141
819.627, 283.555
820.110, 289.325
820.592, 290.707
821.074, 285.197
821.556, 276.995
822.038, 273.051
822.520, 273.432
823.002, 273.499
823.484, 271.811
823.966, 270.592
824.449, 274.706
824.931, 281.012
825.413, 283.454
825.895, 276.155
826.377, 269.814
826.859, 267.203
827.341, 268.299
827.823, 273.617
828.305, 288.013
828.788, 293.713
829.270, 285.977
829.752, 272.142
830.234, 264.957
830.716, 263.295
831.198, 262.041
831.680, 259.727
832.162, 257.394
832.645, 254.749
833.127, 253.065
833.609, 254.318
834.091, 263.734
834.573, 269.976
835.055, 270.128
835.537, 267.583
836.019, 268.237
836.502, 272.750
836.984, 274.464
837.466, 271.606
837.948, 266.610
838.430, 260.753
838.912, 255.661
839.394, 255.400
839.876, 265.743
840.359, 273.708
840.841, 271.087
841.323, 262.877
841.805, 256.324
842.287, 249.366
842.769, 250.055
843.251, 262.700
843.733, 277.911
844.215, 278.904
844.698, 268.012
845.180, 262.093
845.662, 266.642
846.144, 272.790
846.626, 271.445
847.108, 266.493
847.590, 263.384
848.072, 265.787
848.554, 266.947
849.037, 264.904
849.519, 262.026
850.001, 260.980
850.483, 261.863
850.965, 264.018
851.447, 267.593
851.929, 271.683
852.411, 276.898
852.893, 281.475
853.376, 281.530
853.858, 274.611
854.340, 267.379
854.822, 261.738
855.304, 258.072
855.786, 257.025
856.268, 259.843
856.750, 262.260
857.232, 264.095
857.715, 265.698
858.197, 268.514
858.679, 271.663
859.161, 269.320
859.643, 259.218
860.125, 252.896
860.607, 265.703
861.089, 283.919
861.571, 292.897
862.054, 285.346
862.536, 280.274
863.018, 281.631
863.500, 283.363
863.982, 279.119
864.464, 268.385
864.946, 265.765
865.429, 272.503
865.911, 281.382
866.393, 288.000
866.875, 291.558
867.357, 289.738
867.839, 281.532
868.321, 275.109
868.803, 275.280
869.285, 276.750
869.768, 275.597
870.250, 270.815
870.732, 271.687
871.214, 280.145
871.696, 286.481
872.178, 280.393
872.660, 267.287
873.142, 260.596
873.625, 260.624
874.107, 262.346
874.589, 263.223
875.071, 264.335
875.553, 267.362
876.035, 272.601
876.517, 273.287
876.999, 267.664
877.481, 261.072
877.964, 255.103
878.446, 250.369
878.928, 250.634
879.410, 255.515
879.892, 261.261
880.374, 266.557
880.856, 270.945
881.338, 274.353
881.820, 276.629
882.303, 276.921
882.785, 272.970
883.267, 269.675
883.749, 268.265
884.231, 268.425
884.713, 268.995
885.195, 269.973
885.677, 271.633
886.159, 275.199
886.642, 278.273
887.124, 276.293
887.606, 271.645
888.088, 270.045
888.570, 258.795
889.052, 276.650
889.534, 287.439
890.016, 291.544
890.498, 268.939
890.981, 280.824
891.463, 278.887
891.945, 276.383
892.427, 293.122
892.909, 274.402
893.391, 290.835
893.873, 290.667
894.356, 291.112
894.838, 293.827
895.320, 295.121
895.802, 295.123
896.284, 294.110
896.766, 292.101
897.248, 288.381
897.730, 281.946
898.212, 276.625
898.695, 277.596
899.177, 283.035
899.659, 289.809
900.141, 297.995
900.623, 303.000
901.105, 297.645
901.587, 290.883
902.069, 291.536
902.552, 302.853
903.034, 308.000
903.516, 305.097
903.998, 300.743
904.480, 302.038
904.962, 306.069
905.444, 298.797
905.926, 280.708
906.408, 268.319
906.891, 280.340
907.373, 295.508
907.855, 297.189
908.337, 284.211
908.819, 278.764
909.301, 285.677
909.783, 291.511
910.265, 289.889
910.747, 283.382
911.230, 281.804
911.712, 284.480
912.194, 287.141
912.676, 286.597
913.158, 285.904
913.640, 287.357
914.122, 290.441
914.604, 293.499
915.086, 295.059
915.569, 299.246
916.051, 309.453
916.533, 319.918
917.015, 314.630
917.497, 296.659
917.979, 287.896
918.461, 298.241
918.943, 310.721
919.425, 308.340
919.908, 299.453
920.390, 295.281
920.872, 300.766
921.354, 308.162
921.836, 319.176
922.318, 329.432
922.800, 326.148
923.282, 312.720
923.765, 298.604
924.247, 321.215
924.729, 334.911
925.211, 340.170
925.693, 311.726
926.175, 326.803
926.657, 324.439
927.139, 321.359
927.622, 332.958
928.104, 343.030
928.586, 342.688
929.068, 333.382
929.550, 327.345
930.032, 324.629
930.514, 326.572
930.996, 340.689
931.479, 354.638
931.961, 354.588
932.443, 343.405
932.925, 335.601
933.407, 333.495
933.889, 336.815
934.371, 349.080
934.853, 364.524
935.335, 365.010
935.818, 352.033
936.300, 344.313
936.782, 349.921
937.264, 359.568
937.746, 364.593
938.228, 367.713
938.710, 373.197
939.192, 384.933
939.674, 395.009
940.157, 402.717
940.639, 409.316
941.121, 416.414
941.603, 423.843
942.085, 430.152
942.567, 435.141
943.049, 439.252
943.531, 438.555
944.013, 440.046
944.496, 453.312
944.978, 482.601
945.460, 501.032
945.942, 497.886
946.424, 498.142
946.906, 517.005
947.388, 550.756
947.870, 577.662
948.352, 598.204
948.835, 617.254
949.317, 637.901
949.799, 658.077
950.281, 673.271
950.763, 686.061
951.245, 707.443
951.727, 742.413
952.209, 778.087
952.692, 811.508
953.174, 844.953
953.656, 883.321
954.138, 926.080
954.620, 969.973
955.102, 1015.050
955.584, 1059.335
956.066, 1100.129
956.549, 1139.940
957.031, 1182.407
957.513, 1232.997
957.995, 1273.377
958.477, 1299.737
958.959, 1323.765
959.441, 1359.558
959.923, 1401.347
960.406, 1432.411
960.888, 1451.624
961.370, 1457.682
961.852, 1442.804
962.334, 1420.336
962.816, 1399.864
963.298, 1380.897
963.780, 1350.515
964.262, 1306.837
964.745, 1256.644
965.227, 1199.670
965.709, 1139.671
966.191, 1085.994
966.673, 1037.322
967.155, 992.133
967.637, 951.856
968.119, 911.734
968.601, 869.824
969.084, 827.103
969.566, 786.210
970.048, 746.461
970.530, 708.358
971.012, 671.235
971.494, 639.038
971.976, 623.071
972.458, 613.127
972.940, 589.148
973.423, 545.307
973.905, 511.804
974.387, 509.151
974.869, 511.160
975.351, 503.899
975.833, 487.853
976.315, 475.897
976.797, 468.206
977.279, 461.182
977.762, 454.964
978.244, 446.555
978.726, 427.879
979.208, 403.814
979.690, 389.026
980.172, 397.979
980.654, 403.211
981.136, 399.265
981.619, 390.113
982.101, 381.781
982.583, 374.354
983.065, 368.645
983.547, 364.926
984.029, 362.504
984.511, 361.016
984.993, 360.454
985.476, 361.661
985.958, 367.051
986.440, 365.110
986.922, 352.189
987.404, 339.340
987.886, 334.125
988.368, 334.964
988.850, 335.877
989.333, 336.831
989.815, 337.591
990.297, 339.968
990.779, 340.183
991.261, 332.869
991.743, 321.769
992.225, 320.064
992.707, 331.291
993.189, 337.741
993.672, 335.071
994.154, 327.703
994.636, 320.183
995.118, 313.118
995.600, 307.581
996.082, 303.044
996.564, 302.174
997.046, 309.242
997.528, 317.572
998.011, 323.399
998.493, 326.798
998.975, 325.671
999.457, 319.832
999.939, 313.511
1000.421, 308.874
1000.903, 305.881
1001.385, 304.993
1001.867, 305.875
1002.350, 307.146
1002.832, 309.401
1003.314, 310.562
1003.796, 309.689
1004.278, 308.111
1004.760, 309.175
1005.242, 312.177
1005.724, 313.467
1006.206, 311.842
1006.689, 309.395
1007.171, 307.612
1007.653, 305.727
1008.135, 302.632
1008.617, 297.396
1009.099, 294.638
1009.581, 294.421
1010.063, 296.434
1010.546, 302.651
1011.028, 310.089
1011.510, 312.116
1011.992, 309.549
1012.474, 306.581
1012.956, 303.639
1013.438, 302.316
1013.920, 303.137
1014.402, 305.863
1014.885, 310.972
1015.367, 318.517
1015.849, 324.150
1016.331, 327.053
1016.813, 327.291
1017.295, 323.385
1017.777, 317.641
1018.259, 312.094
1018.742, 305.639
1019.224, 306.043
1019.706, 317.924
1020.188, 328.514
1020.670, 329.376
1021.152, 322.661
1021.634, 316.211
1022.116, 310.358
1022.598, 306.671
1023.081, 306.206
1023.563, 307.925
1024.045, 313.585
1024.527, 320.513
1025.009, 322.423
1025.491, 317.557
1025.973, 315.665
1026.455, 318.220
1026.938, 323.642
1027.420, 335.684
1027.902, 346.805
1028.384, 342.327
1028.866, 316.748
1029.348, 300.866
1029.830, 310.077
1030.312, 321.143
1030.794, 324.328
1031.277, 320.900
1031.759, 316.649
1032.241, 311.979
1032.723, 310.528
1033.205, 316.398
1033.687, 323.493
1034.169, 328.950
1034.651, 332.438
1035.134, 333.353
1035.616, 331.006
1036.098, 328.092
1036.580, 324.618
1037.062, 321.022
1037.544, 317.677
1038.026, 314.466
1038.508, 309.541
1038.990, 302.964
1039.473, 302.035
1039.955, 316.990
1040.437, 330.168
1040.919, 335.105
1041.401, 333.217
1041.883, 328.140
1042.365, 320.325
1042.847, 315.139
1043.329, 314.376
1043.812, 317.257
1044.294, 326.912
1044.776, 338.022
1045.258, 343.108
1045.740, 336.244
1046.222, 337.363
1046.704, 349.189
1047.186, 360.978
1047.669, 362.010
1048.151, 357.512
1048.633, 360.074
1049.115, 368.555
1049.597, 373.982
1050.079, 367.780
1050.561, 363.326
1051.043, 364.505
1051.526, 370.070
1052.008, 378.973
1052.490, 390.915
1052.972, 398.166
1053.454, 397.799
1053.936, 399.152
1054.418, 413.404
1054.900, 431.792
1055.382, 445.556
1055.865, 453.092
1056.347, 459.889
1056.829, 465.460
1057.311, 471.719
1057.793, 478.866
1058.275, 487.978
1058.757, 502.016
1059.239, 519.830
1059.721, 538.192
1060.204, 560.702
1060.686, 576.814
1061.168, 579.028
1061.650, 579.119
1062.132, 590.396
1062.614, 612.400
1063.096, 634.802
1063.578, 657.054
1064.061, 680.096
1064.543, 711.237
1065.025, 738.145
1065.507, 749.500
1065.989, 746.148
1066.471, 744.920
1066.953, 746.556
1067.435, 747.897
1067.917, 749.154
1068.400, 747.342
1068.882, 739.166
1069.364, 724.334
1069.846, 700.287
1070.328, 660.098
1070.810, 631.726
1071.292, 628.908
1071.774, 626.719
1072.256, 609.064
1072.739, 578.814
1073.221, 555.589
1073.703, 538.300
1074.185, 520.045
1074.667, 489.436
1075.149, 464.992
1075.631, 464.940
1076.113, 473.869
1076.595, 461.951
1077.078, 422.797
1077.560, 401.815
1078.042, 404.718
1078.524, 412.703
1079.006, 410.118
1079.488, 400.872
1079.970, 386.515
1080.452, 367.757
1080.935, 356.164
1081.417, 354.838
1081.899, 357.129
1082.381, 363.367
1082.863, 369.032
1083.345, 361.945
1083.827, 346.714
1084.309, 335.353
1084.792, 331.551
1085.274, 330.795
1085.756, 334.466
1086.238, 337.769
1086.720, 337.480
1087.202, 333.737
1087.684, 326.549
1088.166, 316.719
1088.648, 307.327
1089.130, 314.517
1089.613, 317.678
1090.095, 317.034
1090.577, 301.173
1091.059, 304.962
1091.541, 300.875
1092.023, 296.467
1092.505, 303.021
1092.987, 289.373
1093.470, 295.749
1093.952, 294.134
1094.434, 296.179
1094.916, 288.664
1095.398, 280.456
1095.880, 283.500
1096.362, 286.154
1096.844, 284.795
1097.327, 282.669
1097.809, 287.493
1098.291, 297.193
1098.773, 305.665
1099.255, 312.017
1099.737, 315.005
1100.219, 311.497
1100.701, 306.733
1101.183, 303.603
1101.666, 302.117
1102.148, 303.597
1102.630, 307.773
1103.112, 309.319
1103.594, 303.166
1104.076, 296.484
1104.558, 295.747
1105.040, 297.585
1105.522, 296.313
1106.005, 289.850
1106.487, 286.548
1106.969, 286.934
1107.451, 288.924
1107.933, 292.845
1108.415, 295.985
1108.897, 293.750
1109.379, 287.063
1109.862, 281.137
1110.344, 275.931
1110.826, 273.823
1111.308, 276.205
1111.790, 279.872
1112.272, 279.817
1112.754, 277.229
1113.236, 275.008
1113.719, 273.612
1114.201, 272.169
1114.683, 266.896
1115.165, 265.797
1115.647, 274.803
1116.129, 289.605
1116.611, 290.582
1117.093, 280.059
1117.575, 274.304
1118.057, 280.924
1118.540, 288.203
1119.022, 289.531
1119.504, 286.991
1119.986, 281.859
1120.468, 273.674
1120.950, 269.150
1121.432, 277.017
1121.914, 281.876
1122.397, 283.891
1122.879, 274.534
1123.361, 279.858
1123.843, 279.299
1124.325, 278.499
1124.807, 285.891
1125.289, 278.187
1125.771, 285.449
1126.254, 286.739
1126.736, 286.642
1127.218, 290.351
1127.700, 281.165
1128.182, 261.421
1128.664, 251.348
1129.146, 265.126
1129.628, 276.409
1130.110, 279.788
1130.593, 279.909
1131.075, 287.184
1131.557, 296.985
1132.039, 293.479
1132.521, 272.802
1133.003, 259.066
1133.485, 271.018
1133.967, 283.085
1134.449, 284.245
1134.932, 277.649
1135.414, 273.502
1135.896, 271.777
1136.378, 272.558
1136.860, 277.144
1137.342, 280.732
1137.824, 279.197
1138.306, 276.380
1138.789, 275.278
1139.271, 275.906
1139.753, 279.309
1140.235, 285.409
1140.717, 288.073
1141.199, 279.935
1141.681, 271.799
1142.163, 273.537
1142.646, 280.514
1143.128, 285.840
1143.610, 290.625
1144.092, 286.983
1144.574, 273.427
1145.056, 260.974
1145.538, 259.448
1146.020, 262.818
1146.502, 265.125
1146.984, 266.344
1147.467, 267.405
1147.949, 269.288
1148.431, 268.722
1148.913, 264.550
1149.395, 260.239
1149.877, 260.524
1150.359, 263.179
1150.841, 264.758
1151.324, 264.959
1151.806, 264.869
1152.288, 264.412
1152.770, 264.201
1153.252, 264.336
1153.734, 264.861
1154.216, 265.889
1154.698, 267.376
1155.181, 268.885
1155.663, 270.001
1156.145, 273.394
1156.627, 285.082
1157.109, 293.164
1157.591, 291.436
1158.073, 283.408
1158.555, 282.276
1159.037, 285.693
1159.520, 283.933
1160.002, 269.362
1160.484, 259.841
1160.966, 271.270
1161.448, 283.345
1161.930, 280.464
1162.412, 264.460
1162.894, 258.093
1163.376, 260.426
1163.859, 263.784
1164.341, 264.850
1164.823, 265.149
1165.305, 263.388
1165.787, 262.720
1166.269, 267.608
1166.751, 278.696
1167.233, 285.760
1167.716, 288.630
1168.198, 289.517
1168.680, 292.347
1169.162, 291.349
1169.644, 277.452
1170.126, 258.155
1170.608, 249.205
1171.090, 251.645
1171.573, 259.241
1172.055, 272.137
1172.537, 283.116
1173.019, 283.753
1173.501, 281.437
1173.983, 283.019
1174.465, 287.675
1174.947, 289.051
1175.429, 286.239
1175.911, 284.089
1176.394, 283.346
1176.876, 283.956
1177.358, 287.817
1177.840, 291.655
1178.322, 291.405
1178.804, 286.685
1179.286, 283.063
1179.768, 280.604
1180.251, 279.447
1180.733, 279.659
1181.215, 281.111
1181.697, 285.106
1182.179, 289.496
1182.661, 291.207
1183.143, 289.325
1183.625, 286.882
1184.108, 284.262
1184.590, 280.294
1185.072, 273.837
1185.554, 266.779
1186.036, 260.089
1186.518, 255.647
1187.000, 257.840
1187.482, 273.468
1187.964, 278.103
1188.447, 266.692
1188.929, 255.141
1189.411, 252.520
1189.893, 255.775
1190.375, 259.956
1190.857, 264.726
1191.339, 269.322
1191.821, 275.808
1192.303, 277.287
1192.786, 270.999
1193.268, 265.265
1193.750, 268.505
1194.232, 276.289
1194.714, 278.166
1195.196, 275.246
1195.678, 271.129
1196.160, 261.787
1196.643, 260.391
1197.125, 271.563
1197.607, 283.971
1198.089, 284.463
1198.571, 278.205
1199.053, 279.466
1199.535, 286.732
1200.017, 289.546
1200.500, 279.342
1200.982, 270.352
1201.464, 263.825
1201.946, 261.208
1202.428, 266.713
1202.910, 277.044
1203.392, 284.514
1203.874, 288.530
1204.356, 289.372
1204.839, 284.604
1205.321, 279.542
1205.803, 273.970
1206.285, 270.680
1206.767, 277.598
1207.249, 289.366
1207.731, 290.531
1208.213, 279.376
1208.695, 271.280
1209.178, 274.462
1209.660, 279.134
1210.142, 283.782
1210.624, 287.152
1211.106, 284.007
1211.588, 278.013
1212.070, 280.774
1212.552, 295.496
1213.034, 303.955
1213.517, 294.461
1213.999, 284.047
1214.481, 276.964
1214.963, 273.572
1215.445, 276.739
1215.927, 283.953
1216.409, 288.756
1216.891, 289.419
1217.374, 289.198
1217.856, 287.666
1218.338, 287.720
1218.820, 292.109
1219.302, 297.400
1219.784, 291.311
1220.266, 279.402
1220.748, 276.876
1221.230, 292.843
1221.713, 300.606
1222.195, 288.128
1222.677, 276.823
1223.159, 279.433
1223.641, 289.234
1224.123, 285.971
1224.605, 274.990
1225.087, 270.052
1225.569, 279.980
1226.052, 284.426
1226.534, 277.432
1227.016, 270.445
1227.498, 269.384
1227.980, 273.932
1228.462, 287.718
1228.944, 306.036
1229.426, 316.914
1229.909, 313.259
1230.391, 307.070
1230.873, 298.740
1231.355, 290.215
1231.837, 282.319
1232.319, 275.659
1232.801, 272.079
1233.283, 271.030
1233.766, 271.093
1234.248, 272.706
1234.730, 274.123
1235.212, 275.421
1235.694, 276.105
1236.176, 274.026
1236.658, 271.969
1237.140, 276.810
1237.622, 286.170
1238.104, 293.461
1238.587, 297.557
1239.069, 297.400
1239.551, 291.896
1240.033, 285.515
1240.515, 280.140
1240.997, 277.655
1241.479, 284.554
1241.961, 297.061
1242.444, 302.298
1242.926, 293.153
1243.408, 289.260
1243.890, 292.886
1244.372, 297.094
1244.854, 294.674
1245.336, 289.995
1245.818, 287.965
1246.301, 288.432
1246.783, 290.513
1247.265, 294.908
1247.747, 298.158
1248.229, 300.063
1248.711, 300.177
1249.193, 295.971
1249.675, 291.507
1250.157, 291.741
1250.640, 295.207
1251.122, 295.830
1251.604, 292.472
1252.086, 291.507
1252.568, 293.712
1253.050, 297.502
1253.532, 306.607
1254.014, 312.163
1254.496, 301.165
1254.979, 281.138
1255.461, 274.845
##END=



