##NAMES=Jordanite
##RRUFFID=R070723
##IDEAL CHEMISTRY=Pb^2+^_14_(As^3+^,Sb^3+^)_6_S^2-^_23_
##LOCALITY=Lengenbach quarry, Binntal, Wallis (Valais), Switzerland
##OWNER=RRUFF
##SOURCE=Michael Scott
##DESCRIPTION=Lead-gray metallic pseudohexagonal crystal in dolomite vug
##STATUS=The identification of this mineral has been confirmed by single-crystal X-ray diffraction.
##URL=rruff.info/R070723
80.11163, 0.0000000E+00
80.59375, 127.2617
81.07587, 93.80186
81.55798, 8.730447
82.04010, -109.6542
82.52222, -176.8948
83.00433, -126.0263
83.48645, -36.54037
83.96857, 30.89149
84.45068, 52.54530
84.93280, 53.89436
85.41492, 42.64310
85.89703, 18.32458
86.37915, -11.30372
86.86127, -51.65862
87.34338, -94.05482
87.82550, -122.9962
88.30762, -124.5204
88.78973, -111.4934
89.27185, -95.87125
89.75397, -78.67889
90.23608, -61.39449
90.71819, -41.88741
91.20031, -21.44711
91.68243, -9.328017
92.16454, -26.87274
92.64666, -59.92796
93.12878, -73.32371
93.61089, -44.61557
94.09301, 11.53855
94.57513, 69.59933
95.05724, 134.4882
95.53936, 182.6867
96.02148, 181.2355
96.50359, 130.9818
96.98571, 60.08820
97.46783, -37.84965
97.94994, -159.2729
98.43206, -219.5348
98.91418, -193.8163
99.39629, -109.2683
99.87841, -47.22813
100.3605, -8.374064
100.8426, 8.295209
101.3248, -9.341686
101.8069, -79.34483
102.2890, -114.6472
102.7711, -80.81242
103.2532, 34.82655
103.7353, 99.53482
104.2175, 94.24589
104.6996, 52.00631
105.1817, 30.65136
105.6638, 46.78352
106.1459, 61.60476
106.6280, 58.81084
107.1102, 16.12607
107.5923, -8.964039
108.0744, -8.902020
108.5565, 12.76542
109.0386, 29.88060
109.5207, 34.91481
110.0029, 39.81808
110.4850, 52.08253
110.9671, 77.47499
111.4492, 104.8513
111.9313, 134.4869
112.4134, 168.0654
112.8956, 195.0600
113.3777, 229.8944
113.8598, 253.8418
114.3419, 242.2417
114.8240, 109.9031
115.3061, -1.989446
115.7883, -16.85300
116.2704, 137.8664
116.7525, 274.6460
117.2346, 314.8625
117.7167, 280.5446
118.1988, 245.1095
118.6810, 228.0156
119.1631, 229.1653
119.6452, 248.2815
120.1273, 305.6904
120.6094, 365.9765
121.0915, 411.1360
121.5737, 441.0834
122.0558, 453.6873
122.5379, 435.3210
123.0200, 398.9119
123.5021, 367.7859
123.9842, 351.8380
124.4664, 347.4839
124.9485, 353.3521
125.4306, 372.6493
125.9127, 392.2709
126.3948, 402.2181
126.8769, 402.0097
127.3591, 389.2581
127.8412, 345.7371
128.3233, 287.7870
128.8054, 255.9414
129.2875, 265.9835
129.7696, 301.3866
130.2518, 343.1283
130.7339, 393.3210
131.2160, 419.9758
131.6981, 364.7858
132.1802, 241.1722
132.6623, 153.5460
133.1445, 152.1627
133.6266, 223.7723
134.1087, 282.1532
134.5908, 324.5443
135.0729, 361.6434
135.5550, 416.9769
136.0372, 494.3647
136.5193, 558.4210
137.0014, 590.5203
137.4835, 589.1718
137.9656, 573.0632
138.4477, 537.4464
138.9299, 490.5545
139.4120, 460.6718
139.8941, 450.2953
140.3762, 450.9091
140.8583, 461.4484
141.3404, 492.2220
141.8225, 498.9416
142.3047, 460.0375
142.7868, 373.0533
143.2689, 339.6722
143.7510, 390.0592
144.2331, 467.8734
144.7152, 498.5084
145.1974, 451.1133
145.6795, 405.4554
146.1616, 384.9410
146.6437, 400.2024
147.1258, 413.8332
147.6079, 423.6486
148.0901, 431.9479
148.5722, 444.8696
149.0543, 475.6313
149.5364, 499.6114
150.0185, 505.8232
150.5006, 469.3622
150.9828, 444.6174
151.4649, 442.8112
151.9470, 460.7900
152.4291, 462.1814
152.9112, 430.7424
153.3933, 390.4766
153.8755, 357.9634
154.3576, 318.8009
154.8397, 303.2385
155.3218, 330.1506
155.8039, 409.9519
156.2860, 465.5485
156.7682, 465.6942
157.2503, 438.6289
157.7324, 419.3596
158.2145, 429.1479
158.6966, 438.1024
159.1787, 431.0540
159.6609, 394.9821
160.1430, 368.1954
160.6251, 373.4227
161.1072, 397.3852
161.5893, 409.3607
162.0714, 376.4852
162.5536, 339.9872
163.0357, 329.3756
163.5178, 384.2504
163.9999, 429.9727
164.4820, 419.6519
164.9641, 362.4669
165.4463, 316.4347
165.9284, 318.9201
166.4105, 344.7780
166.8926, 366.9186
167.3747, 370.2049
167.8568, 370.3308
168.3390, 379.3367
168.8211, 398.0443
169.3032, 415.1602
169.7853, 421.8603
170.2674, 421.9833
170.7495, 422.2334
171.2317, 428.0965
171.7138, 434.4993
172.1959, 434.8950
172.6780, 426.5825
173.1601, 419.3056
173.6422, 426.9846
174.1244, 444.2981
174.6065, 453.8070
175.0886, 441.8326
175.5707, 416.6198
176.0528, 387.6033
176.5349, 349.6853
177.0171, 319.1886
177.4992, 322.8303
177.9813, 356.9388
178.4634, 390.2787
178.9455, 389.2344
179.4276, 368.9944
179.9098, 365.2903
180.3919, 401.4821
180.8740, 454.1551
181.3561, 490.8877
181.8382, 511.7319
182.3203, 510.1933
182.8025, 452.6259
183.2846, 357.6389
183.7667, 298.4722
184.2488, 343.9732
184.7309, 450.5312
185.2130, 484.9841
185.6951, 435.1153
186.1773, 355.8257
186.6594, 313.7018
187.1415, 307.0654
187.6236, 315.0616
188.1057, 331.6967
188.5878, 355.0928
189.0700, 376.2898
189.5521, 392.6320
190.0342, 408.7761
190.5163, 436.1614
190.9984, 474.9730
191.4805, 512.4616
191.9627, 544.3367
192.4448, 569.5572
192.9269, 573.0497
193.4090, 545.3461
193.8911, 498.2714
194.3732, 464.5104
194.8554, 443.6859
195.3375, 436.4923
195.8196, 454.9343
196.3017, 500.1018
196.7838, 520.6176
197.2659, 494.0224
197.7481, 429.2920
198.2302, 386.8524
198.7123, 369.8755
199.1944, 365.9310
199.6765, 363.8001
200.1586, 364.5760
200.6408, 358.2087
201.1229, 331.8780
201.6050, 284.9970
202.0871, 276.6374
202.5692, 317.6247
203.0513, 380.4150
203.5335, 420.8057
204.0156, 436.5288
204.4977, 439.4216
204.9798, 428.0417
205.4619, 397.8340
205.9440, 390.7766
206.4262, 419.1523
206.9083, 463.3514
207.3904, 469.0581
207.8725, 423.8162
208.3546, 374.2592
208.8367, 346.6644
209.3189, 343.8189
209.8010, 352.1903
210.2831, 373.9299
210.7652, 405.5913
211.2473, 434.1662
211.7294, 463.5492
212.2116, 482.3448
212.6937, 476.0841
213.1758, 431.8310
213.6579, 406.2246
214.1400, 416.4338
214.6221, 458.5004
215.1043, 470.1001
215.5864, 438.8917
216.0685, 395.3278
216.5506, 369.0867
217.0327, 363.0445
217.5148, 366.7107
217.9970, 381.0452
218.4791, 407.0201
218.9612, 425.3960
219.4433, 436.0954
219.9254, 439.0810
220.4075, 432.7222
220.8897, 412.3177
221.3718, 392.0931
221.8539, 374.8661
222.3360, 358.4804
222.8181, 356.7372
223.3002, 381.9208
223.7824, 414.0262
224.2645, 411.7715
224.7466, 348.6423
225.2287, 296.9362
225.7108, 290.2277
226.1929, 355.7860
226.6750, 388.8185
227.1572, 374.9277
227.6393, 332.5838
228.1214, 308.0079
228.6035, 302.9510
229.0856, 313.3608
229.5677, 342.1526
230.0499, 408.0584
230.5320, 447.9520
231.0141, 451.9040
231.4962, 427.4249
231.9783, 403.6360
232.4604, 376.9511
232.9426, 355.8869
233.4247, 346.2819
233.9068, 354.2289
234.3889, 361.7477
234.8710, 368.8186
235.3531, 374.8541
235.8353, 373.6338
236.3174, 362.7094
236.7995, 347.3396
237.2816, 329.9254
237.7637, 303.6767
238.2458, 289.0784
238.7280, 294.4718
239.2101, 319.3553
239.6922, 328.7719
240.1743, 313.9043
240.6564, 292.3276
241.1385, 279.0574
241.6207, 271.2090
242.1028, 277.5569
242.5849, 307.5827
243.0670, 365.3143
243.5491, 394.0988
244.0313, 380.7484
244.5134, 349.4991
244.9955, 327.7231
245.4776, 318.0811
245.9597, 313.4532
246.4418, 313.6895
246.9240, 320.5016
247.4061, 322.3105
247.8882, 318.7440
248.3703, 310.4668
248.8524, 295.6789
249.3345, 261.4630
249.8167, 243.4588
250.2988, 258.4651
250.7809, 321.3412
251.2630, 357.0026
251.7451, 354.0334
252.2272, 330.3336
252.7094, 317.1651
253.1915, 316.7783
253.6736, 323.2471
254.1557, 337.3159
254.6378, 366.5589
255.1199, 379.6150
255.6021, 373.0508
256.0842, 351.9255
256.5663, 324.4459
257.0484, 281.5514
257.5305, 247.9800
258.0126, 236.3300
258.4948, 255.1572
258.9769, 272.4879
259.4590, 291.3425
259.9411, 307.3939
260.4232, 306.9135
260.9053, 280.9899
261.3875, 254.8335
261.8696, 241.1119
262.3517, 242.8782
262.8338, 249.9377
263.3159, 268.9420
263.7980, 291.2171
264.2802, 282.6006
264.7623, 228.7661
265.2444, 172.4983
265.7265, 136.9349
266.2086, 123.9509
266.6907, 129.0156
267.1729, 159.4039
267.6550, 206.0907
268.1371, 232.7307
268.6192, 231.2884
269.1013, 227.1943
269.5834, 244.4415
270.0656, 293.7303
270.5477, 309.9180
271.0298, 268.9291
271.5119, 191.2594
271.9940, 169.8325
272.4761, 220.2232
272.9583, 287.5886
273.4404, 333.8504
273.9225, 356.7638
274.4046, 370.3479
274.8867, 378.7239
275.3688, 379.4264
275.8510, 354.8153
276.3331, 296.6060
276.8152, 238.4234
277.2973, 207.5529
277.7794, 205.3433
278.2615, 219.7778
278.7437, 258.5363
279.2258, 311.0191
279.7079, 322.5880
280.1900, 284.8165
280.6721, 238.8070
281.1542, 223.1462
281.6364, 239.1049
282.1185, 255.0087
282.6006, 264.5152
283.0827, 268.7016
283.5648, 269.5419
284.0469, 265.6198
284.5291, 265.6878
285.0112, 284.7206
285.4933, 321.7548
285.9754, 344.5523
286.4575, 341.3412
286.9396, 318.7077
287.4217, 292.9811
287.9038, 261.9589
288.3860, 243.7588
288.8681, 268.1408
289.3502, 329.2114
289.8323, 375.6002
290.3144, 390.5503
290.7965, 380.9187
291.2787, 360.9379
291.7608, 329.6302
292.2429, 297.9255
292.7250, 272.4783
293.2071, 254.1515
293.6892, 247.5614
294.1714, 257.0559
294.6535, 278.0236
295.1356, 305.4751
295.6177, 340.1228
296.0998, 367.8664
296.5819, 377.8091
297.0641, 370.6913
297.5462, 347.1241
298.0283, 283.2247
298.5104, 215.7965
298.9925, 223.9787
299.4746, 308.5482
299.9568, 387.6815
300.4389, 374.0282
300.9210, 299.9471
301.4031, 240.0036
301.8852, 226.4105
302.3673, 238.3957
302.8495, 254.9606
303.3316, 275.7678
303.8137, 292.0128
304.2958, 299.1976
304.7779, 296.4257
305.2600, 281.7825
305.7422, 242.5612
306.2243, 198.8468
306.7064, 166.1666
307.1885, 144.5081
307.6706, 139.7153
308.1527, 171.5151
308.6349, 219.1922
309.1170, 253.4424
309.5991, 255.7832
310.0812, 246.8320
310.5633, 237.3007
311.0454, 227.6188
311.5276, 225.7702
312.0097, 250.7042
312.4918, 281.2133
312.9739, 293.8475
313.4560, 268.2881
313.9381, 232.3089
314.4203, 192.9930
314.9024, 151.5176
315.3845, 127.8482
315.8666, 152.5375
316.3487, 190.3920
316.8308, 208.1655
317.3130, 172.6559
317.7951, 136.8149
318.2772, 120.6481
318.7593, 123.2363
319.2414, 133.2710
319.7235, 158.7920
320.2057, 184.2438
320.6878, 197.3030
321.1699, 173.4218
321.6520, 159.0028
322.1341, 172.9223
322.6162, 211.9012
323.0984, 241.4792
323.5805, 253.5633
324.0626, 255.0092
324.5447, 250.4402
325.0268, 223.4229
325.5089, 209.0760
325.9911, 224.7979
326.4732, 265.7533
326.9553, 281.9940
327.4374, 224.4643
327.9195, 172.2687
328.4016, 171.3015
328.8838, 302.0313
329.3659, 383.0989
329.8480, 387.5516
330.3301, 326.7120
330.8122, 270.1058
331.2943, 194.5914
331.7765, 145.6202
332.2586, 154.4767
332.7407, 275.6868
333.2228, 355.4275
333.7049, 372.9382
334.1870, 342.1657
334.6692, 321.6500
335.1513, 318.1554
335.6334, 313.7557
336.1155, 293.7565
336.5976, 243.9033
337.0797, 225.5909
337.5619, 253.0370
338.0440, 309.4568
338.5261, 348.2529
339.0082, 369.4998
339.4903, 373.0213
339.9724, 347.2986
340.4546, 284.8047
340.9367, 264.1987
341.4188, 306.4704
341.9009, 371.8533
342.3830, 369.7060
342.8651, 293.6468
343.3473, 211.6357
343.8294, 152.7824
344.3115, 116.9020
344.7936, 114.0607
345.2757, 151.8726
345.7578, 205.3852
346.2400, 236.7114
346.7221, 246.4681
347.2042, 252.1436
347.6863, 263.7048
348.1684, 278.2538
348.6505, 286.8676
349.1327, 289.2711
349.6148, 285.5154
350.0969, 264.9200
350.5790, 234.7959
351.0611, 223.4401
351.5432, 270.6974
352.0254, 336.5320
352.5075, 350.0182
352.9896, 304.1204
353.4717, 251.0343
353.9538, 239.8732
354.4359, 256.3006
354.9181, 272.6464
355.4002, 287.3001
355.8823, 290.3017
356.3644, 260.3738
356.8465, 197.0859
357.3286, 149.3557
357.8108, 167.0291
358.2929, 214.0174
358.7750, 243.3567
359.2571, 212.6332
359.7392, 180.7763
360.2213, 184.7883
360.7035, 222.5492
361.1856, 257.9589
361.6677, 283.0555
362.1498, 294.9202
362.6319, 291.3827
363.1140, 242.7720
363.5962, 208.0514
364.0783, 220.5845
364.5604, 271.0584
365.0425, 293.5961
365.5246, 232.3588
366.0067, 164.3303
366.4889, 136.8646
366.9710, 196.0790
367.4531, 248.3150
367.9352, 295.0983
368.4173, 331.7517
368.8994, 336.6436
369.3815, 274.4722
369.8636, 211.2390
370.3458, 176.2443
370.8279, 187.0832
371.3100, 195.6614
371.7921, 201.0294
372.2742, 204.3930
372.7563, 208.1367
373.2385, 209.6928
373.7206, 215.9564
374.2027, 234.8003
374.6848, 276.3506
375.1669, 284.3880
375.6490, 243.2493
376.1312, 184.9149
376.6133, 164.6978
377.0954, 191.2298
377.5775, 221.2715
378.0596, 240.4294
378.5417, 248.6000
379.0239, 250.9966
379.5060, 246.2458
379.9881, 239.7722
380.4702, 238.3166
380.9523, 241.7412
381.4344, 246.4211
381.9166, 251.2703
382.3987, 256.4485
382.8808, 266.6408
383.3629, 282.6121
383.8450, 290.2021
384.3271, 260.7345
384.8093, 209.3303
385.2914, 184.8569
385.7735, 213.2413
386.2556, 264.6919
386.7377, 307.4149
387.2198, 340.0418
387.7020, 352.8162
388.1841, 325.6311
388.6662, 278.2402
389.1483, 234.4848
389.6304, 193.4447
390.1125, 169.0688
390.5947, 183.5504
391.0768, 225.5932
391.5589, 259.5105
392.0410, 262.4258
392.5231, 253.4783
393.0052, 246.7560
393.4874, 246.8313
393.9695, 243.8448
394.4516, 231.5089
394.9337, 213.7288
395.4158, 197.6573
395.8979, 180.9515
396.3801, 169.9531
396.8622, 169.0317
397.3443, 181.9290
397.8264, 192.4932
398.3085, 200.7175
398.7906, 204.7594
399.2728, 202.1360
399.7549, 183.1705
400.2370, 168.2890
400.7191, 159.5332
401.2012, 156.5154
401.6833, 166.5707
402.1655, 198.8739
402.6476, 235.0273
403.1297, 261.3206
403.6118, 281.9783
404.0939, 279.3928
404.5760, 235.8214
405.0582, 165.6063
405.5403, 158.1587
406.0224, 234.6916
406.5045, 312.4271
406.9866, 324.4520
407.4688, 265.8853
407.9509, 230.9648
408.4330, 235.2468
408.9151, 259.6602
409.3972, 265.8228
409.8793, 253.6443
410.3615, 234.5599
410.8436, 200.5031
411.3257, 162.9731
411.8078, 170.2000
412.2899, 233.1402
412.7720, 304.7344
413.2542, 327.5736
413.7363, 312.4665
414.2184, 291.5764
414.7005, 274.7593
415.1826, 262.7796
415.6647, 260.8094
416.1469, 269.1937
416.6290, 271.8501
417.1111, 246.6759
417.5932, 211.5738
418.0753, 190.6944
418.5574, 217.1125
419.0396, 237.1459
419.5217, 201.7752
420.0038, 123.9995
420.4859, 88.23435
420.9680, 181.7817
421.4501, 296.3421
421.9323, 354.4672
422.4144, 296.2845
422.8965, 246.6460
423.3786, 228.1595
423.8607, 233.8635
424.3428, 243.2579
424.8250, 266.9963
425.3071, 283.2484
425.7892, 284.9661
426.2713, 271.3757
426.7534, 243.3648
427.2355, 183.6238
427.7177, 120.0689
428.1998, 97.27383
428.6819, 132.0627
429.1640, 170.2228
429.6461, 198.9029
430.1282, 217.8231
430.6104, 231.5060
431.0925, 238.5131
431.5746, 243.8640
432.0567, 256.2610
432.5388, 276.2524
433.0209, 280.4889
433.5031, 256.5725
433.9852, 219.9805
434.4673, 211.6039
434.9494, 230.8563
435.4315, 253.4376
435.9136, 266.9295
436.3958, 270.2686
436.8779, 256.8805
437.3600, 220.4899
437.8421, 183.0942
438.3242, 176.5200
438.8063, 189.9787
439.2885, 193.2091
439.7706, 139.5239
440.2527, 86.91067
440.7348, 101.6716
441.2169, 196.1101
441.6990, 280.6438
442.1812, 302.9075
442.6633, 288.0743
443.1454, 266.5884
443.6275, 238.9867
444.1096, 214.8999
444.5917, 198.9305
445.0739, 190.5697
445.5560, 182.6854
446.0381, 170.6533
446.5202, 160.8244
447.0023, 156.9777
447.4844, 160.5546
447.9666, 168.7696
448.4487, 184.0009
448.9308, 203.6892
449.4129, 221.9597
449.8950, 242.4720
450.3771, 255.0283
450.8592, 254.8381
451.3413, 240.4490
451.8235, 218.4429
452.3056, 180.4623
452.7877, 148.0726
453.2698, 159.5266
453.7519, 219.9377
454.2340, 264.3941
454.7162, 270.2070
455.1983, 246.5047
455.6804, 221.5864
456.1625, 194.9410
456.6446, 174.7322
457.1267, 164.0936
457.6089, 165.0035
458.0910, 188.0755
458.5731, 249.9523
459.0552, 307.8244
459.5373, 299.0197
460.0194, 240.0686
460.5016, 185.3500
460.9837, 168.5460
461.4658, 168.6682
461.9479, 166.5123
462.4300, 158.3437
462.9121, 156.6947
463.3943, 183.8277
463.8764, 216.8287
464.3585, 225.6317
464.8406, 154.5897
465.3227, 103.6492
465.8048, 121.5240
466.2870, 208.5222
466.7691, 265.3016
467.2512, 259.1256
467.7333, 234.7894
468.2154, 218.8614
468.6975, 207.8795
469.1797, 212.0937
469.6618, 241.2507
470.1439, 283.3666
470.6260, 308.4807
471.1081, 317.8729
471.5902, 306.6877
472.0724, 259.5074
472.5545, 170.9917
473.0366, 138.7228
473.5187, 175.3550
474.0008, 233.4218
474.4829, 258.0449
474.9651, 250.9704
475.4472, 230.4662
475.9293, 187.3619
476.4114, 144.4500
476.8935, 165.9825
477.3756, 245.9041
477.8578, 310.6747
478.3399, 287.1751
478.8220, 219.9119
479.3041, 173.3293
479.7862, 160.3593
480.2683, 168.4815
480.7505, 209.3815
481.2326, 264.1003
481.7147, 293.0395
482.1968, 261.6052
482.6789, 215.5341
483.1610, 168.0369
483.6432, 116.4404
484.1253, 99.69839
484.6074, 183.0711
485.0895, 277.3668
485.5716, 305.7349
486.0537, 161.4535
486.5359, 71.08028
487.0180, 76.03826
487.5001, 153.8094
487.9822, 199.6829
488.4643, 200.7590
488.9464, 190.4333
489.4286, 182.5012
489.9107, 176.1302
490.3928, 177.8630
490.8749, 189.9144
491.3570, 206.2107
491.8391, 220.1235
492.3213, 231.5416
492.8034, 235.8457
493.2855, 228.0204
493.7676, 213.2461
494.2497, 201.9322
494.7318, 194.2561
495.2140, 194.7011
495.6961, 221.7273
496.1782, 256.5041
496.6603, 261.6095
497.1424, 216.6599
497.6245, 168.8846
498.1067, 153.4942
498.5888, 163.4775
499.0709, 182.0526
499.5530, 217.7243
500.0351, 247.4023
500.5172, 255.7687
500.9994, 238.4814
501.4815, 222.8339
501.9636, 227.5338
502.4457, 230.2012
502.9278, 210.3097
503.4099, 101.9145
503.8921, 53.79916
504.3742, 109.9640
504.8563, 239.4554
505.3384, 312.1621
505.8205, 311.4425
506.3026, 285.9598
506.7848, 254.2360
507.2669, 214.1258
507.7490, 179.1698
508.2311, 145.9929
508.7132, 125.7224
509.1953, 144.6388
509.6775, 198.1418
510.1596, 234.2129
510.6417, 230.2133
511.1238, 201.6396
511.6059, 168.8418
512.0880, 133.6199
512.5701, 116.8536
513.0522, 151.9842
513.5344, 206.6232
514.0165, 237.3882
514.4986, 229.4589
514.9807, 218.3715
515.4628, 231.1043
515.9449, 254.8807
516.4271, 267.8325
516.9092, 241.4926
517.3913, 223.1354
517.8734, 242.1706
518.3555, 301.8058
518.8376, 330.8451
519.3198, 296.1364
519.8019, 246.3282
520.2840, 210.1793
520.7661, 196.1500
521.2482, 178.8986
521.7303, 152.0703
522.2125, 124.3489
522.6946, 116.3066
523.1767, 130.4442
523.6588, 153.7997
524.1409, 191.5889
524.6230, 237.5918
525.1052, 239.9880
525.5873, 193.5420
526.0694, 144.9624
526.5515, 147.8287
527.0336, 185.9665
527.5157, 212.7003
527.9979, 213.3552
528.4800, 203.9601
528.9621, 202.9447
529.4442, 206.0538
529.9263, 200.6454
530.4084, 163.7804
530.8906, 127.8276
531.3727, 115.8950
531.8548, 131.4064
532.3369, 157.6454
532.8190, 211.2002
533.3011, 262.1711
533.7833, 282.5448
534.2654, 228.8716
534.7475, 192.7379
535.2296, 187.1850
535.7117, 205.4351
536.1938, 225.5717
536.6760, 255.0592
537.1581, 272.9844
537.6402, 268.9911
538.1223, 241.6383
538.6044, 206.4877
539.0865, 157.9722
539.5687, 116.9369
540.0508, 116.8173
540.5329, 151.2222
541.0150, 171.6297
541.4971, 157.8069
541.9792, 134.0775
542.4614, 141.9164
542.9435, 175.6367
543.4256, 208.7688
543.9077, 229.8737
544.3898, 240.2430
544.8719, 233.3350
545.3541, 203.8941
545.8362, 193.1957
546.3183, 246.4072
546.8004, 318.4967
547.2825, 360.7906
547.7646, 343.3939
548.2468, 315.4266
548.7289, 274.8897
549.2110, 228.2524
549.6931, 203.4859
550.1752, 213.0515
550.6573, 227.5535
551.1395, 235.6192
551.6216, 236.1629
552.1037, 236.6396
552.5858, 237.5872
553.0679, 237.3352
553.5500, 233.8963
554.0322, 227.3555
554.5143, 219.1261
554.9964, 210.1390
555.4785, 198.8418
555.9606, 177.0800
556.4427, 147.9407
556.9249, 128.8736
557.4070, 136.9968
557.8891, 157.5232
558.3712, 175.5279
558.8533, 189.6795
559.3354, 199.7650
559.8176, 200.9030
560.2997, 200.0821
560.7818, 204.4974
561.2639, 242.7406
561.7460, 256.2061
562.2281, 202.4610
562.7103, 108.6928
563.1924, 79.60703
563.6745, 171.9859
564.1566, 254.3455
564.6387, 275.1764
565.1208, 226.8503
565.6030, 195.8500
566.0851, 188.7930
566.5672, 184.4555
567.0493, 149.5919
567.5314, 87.58106
568.0135, 65.41525
568.4957, 103.9126
568.9778, 173.2945
569.4599, 236.7434
569.9420, 292.0327
570.4241, 326.9762
570.9063, 334.7518
571.3884, 319.7094
571.8705, 272.7621
572.3526, 194.6213
572.8347, 137.1063
573.3168, 148.1725
573.7990, 180.9681
574.2811, 195.4108
574.7632, 162.9619
575.2453, 141.0662
575.7274, 146.7449
576.2095, 167.2925
576.6917, 177.4244
577.1738, 171.1898
577.6559, 164.1243
578.1380, 159.2511
578.6201, 156.7291
579.1022, 161.1066
579.5844, 174.7978
580.0665, 186.4271
580.5486, 184.2410
581.0307, 170.6746
581.5128, 163.2198
581.9949, 164.2779
582.4771, 170.1826
582.9592, 175.8359
583.4413, 182.7551
583.9234, 194.6983
584.4055, 234.9071
584.8876, 263.4861
585.3698, 232.3560
585.8519, 154.9203
586.3340, 103.4889
586.8161, 137.3442
587.2982, 184.6151
587.7803, 203.1659
588.2625, 173.1387
588.7446, 155.1713
589.2267, 161.8445
589.7088, 175.0530
590.1909, 172.8149
590.6730, 143.7983
591.1552, 131.9212
591.6373, 150.8301
592.1194, 187.6363
592.6015, 203.2119
593.0836, 196.5283
593.5657, 185.6580
594.0479, 179.6948
594.5300, 176.9526
595.0121, 172.4003
595.4942, 165.8054
595.9763, 160.6785
596.4584, 162.4597
596.9406, 166.5976
597.4227, 165.6106
597.9048, 148.5355
598.3869, 142.0875
598.8690, 171.7507
599.3511, 219.1548
599.8333, 249.1500
600.3154, 247.9402
600.7975, 234.4724
601.2796, 203.5081
601.7617, 156.1733
602.2438, 146.9150
602.7260, 198.7747
603.2081, 248.8130
603.6902, 250.9610
604.1723, 200.4138
604.6544, 166.8874
605.1365, 156.2202
605.6187, 155.5468
606.1008, 147.1131
606.5829, 133.7247
607.0650, 126.6981
607.5471, 127.0192
608.0292, 138.3565
608.5114, 178.3633
608.9935, 236.2669
609.4756, 274.6047
609.9577, 260.3659
610.4398, 229.8999
610.9219, 205.7162
611.4041, 191.5246
611.8862, 169.5163
612.3683, 107.8492
612.8504, 55.42471
613.3325, 51.36084
613.8146, 131.8761
614.2968, 191.0329
614.7789, 225.4747
615.2610, 235.1034
615.7431, 206.0836
616.2252, 132.1285
616.7073, 84.56248
617.1895, 99.91870
617.6716, 155.6355
618.1537, 191.9395
618.6358, 210.2184
619.1179, 221.1839
619.6000, 231.9822
620.0822, 240.1547
620.5643, 243.3645
621.0464, 241.7584
621.5285, 232.6781
622.0106, 206.5830
622.4927, 175.8033
622.9749, 153.6376
623.4570, 136.4016
623.9391, 136.1927
624.4212, 167.7124
624.9033, 216.0241
625.3854, 242.9611
625.8676, 242.6951
626.3497, 233.1174
626.8318, 217.9663
627.3139, 198.0233
627.7960, 178.4503
628.2781, 158.2059
628.7603, 146.8688
629.2424, 164.4413
629.7245, 196.4203
630.2066, 199.9564
630.6887, 163.5961
631.1708, 127.0577
631.6530, 127.8005
632.1351, 150.8988
632.6172, 173.8600
633.0993, 200.0365
633.5814, 212.4667
634.0635, 188.4006
634.5457, 142.0097
635.0278, 128.2482
635.5099, 194.6999
635.9920, 246.5771
636.4741, 247.0868
636.9562, 191.6866
637.4384, 169.5110
637.9205, 190.2409
638.4026, 216.5719
638.8847, 212.1771
639.3668, 181.6105
639.8489, 169.7217
640.3311, 184.5238
640.8132, 207.2774
641.2953, 219.2312
641.7774, 222.2107
642.2595, 220.4286
642.7416, 213.8506
643.2238, 204.6813
643.7059, 192.8013
644.1880, 179.2396
644.6701, 167.0191
645.1522, 155.5414
645.6343, 147.2821
646.1165, 142.4427
646.5986, 140.3112
647.0807, 147.7820
647.5628, 170.5192
648.0449, 194.7297
648.5270, 210.4388
649.0092, 217.2211
649.4913, 220.3501
649.9734, 219.3094
650.4555, 217.4232
650.9376, 222.5227
651.4197, 231.3031
651.9019, 231.4317
652.3840, 214.1731
652.8661, 192.0688
653.3482, 172.5025
653.8303, 157.2712
654.3124, 151.8623
654.7946, 177.9156
655.2767, 197.2864
655.7588, 178.6184
656.2408, 113.4719
656.7230, 96.84998
657.2051, 172.8366
657.6872, 253.4154
658.1693, 283.8125
658.6514, 251.1340
659.1335, 225.2186
659.6157, 207.2059
660.0978, 196.8645
660.5799, 194.8336
661.0620, 200.5124
661.5441, 212.4558
662.0262, 236.1433
662.5084, 256.4042
662.9905, 249.0802
663.4726, 222.8492
663.9547, 201.1975
664.4368, 202.1922
664.9189, 204.9374
665.4011, 197.9140
665.8832, 181.0113
666.3653, 164.4853
666.8474, 139.7131
667.3295, 125.1629
667.8116, 133.9577
668.2938, 176.9442
668.7759, 193.0945
669.2580, 175.3376
669.7401, 146.7669
670.2222, 128.8169
670.7043, 121.3601
671.1865, 126.4959
671.6686, 150.3502
672.1507, 172.2407
672.6328, 156.9623
673.1149, 119.3368
673.5970, 94.94126
674.0792, 101.4754
674.5613, 123.1733
675.0434, 162.2042
675.5255, 212.6948
676.0076, 245.5921
676.4897, 243.7475
676.9719, 233.5099
677.4540, 224.9310
677.9361, 218.9177
678.4182, 202.2755
678.9003, 167.3235
679.3824, 138.0857
679.8646, 139.0289
680.3467, 167.1774
680.8288, 187.2245
681.3109, 195.1384
681.7930, 198.0048
682.2751, 205.6448
682.7573, 214.1858
683.2394, 215.1814
683.7215, 196.8454
684.2036, 182.4220
684.6857, 195.2313
685.1678, 221.5016
685.6500, 229.7065
686.1321, 181.3540
686.6142, 147.5547
687.0963, 154.5193
687.5784, 196.6293
688.0605, 220.7417
688.5427, 223.4940
689.0248, 216.4835
689.5069, 200.0371
689.9890, 176.2728
690.4711, 169.6668
690.9532, 181.3030
691.4354, 200.2450
691.9175, 227.6587
692.3996, 252.3831
692.8817, 251.9093
693.3638, 211.7055
693.8459, 177.0881
694.3281, 188.5398
694.8102, 216.1030
695.2923, 219.9411
695.7744, 152.9604
696.2565, 110.9069
696.7386, 117.3304
697.2208, 153.5126
697.7029, 168.3049
698.1850, 153.5784
698.6671, 146.7760
699.1492, 164.9641
699.6313, 199.9228
700.1135, 226.4670
700.5956, 244.3244
701.0777, 248.7510
701.5598, 220.6971
702.0419, 185.4161
702.5240, 177.7529
703.0062, 201.7137
703.4883, 225.1105
703.9704, 232.6216
704.4525, 233.1051
704.9346, 233.1268
705.4167, 232.3636
705.8989, 233.9382
706.3810, 243.7572
706.8631, 250.8098
707.3452, 239.6691
707.8273, 207.3993
708.3094, 173.6955
708.7916, 136.7139
709.2737, 108.5049
709.7558, 121.5768
710.2379, 165.7348
710.7200, 200.6729
711.2021, 194.2256
711.6843, 181.1589
712.1664, 200.3761
712.6485, 242.1308
713.1306, 264.3294
713.6127, 230.0268
714.0948, 191.5308
714.5770, 172.9648
715.0591, 175.6550
715.5412, 180.4448
716.0233, 190.9582
716.5054, 197.0562
716.9875, 185.5601
717.4697, 156.8076
717.9518, 156.4516
718.4339, 190.9389
718.9160, 225.5872
719.3981, 216.3194
719.8802, 181.7982
720.3624, 157.2175
720.8445, 149.9926
721.3266, 155.7445
721.8087, 192.3701
722.2908, 234.4453
722.7729, 244.2745
723.2551, 163.8383
723.7372, 112.6828
724.2193, 119.6037
724.7014, 163.9208
725.1835, 187.3040
725.6656, 184.0675
726.1478, 184.0363
726.6299, 202.9523
727.1120, 230.5633
727.5941, 229.9047
728.0762, 204.1904
728.5583, 184.5743
729.0405, 193.1720
729.5226, 216.5632
730.0047, 250.5403
730.4868, 294.4420
730.9689, 316.2910
731.4510, 285.9011
731.9332, 242.6227
732.4153, 212.2768
732.8974, 201.1243
733.3795, 184.6180
733.8616, 158.2761
734.3438, 133.7234
734.8259, 122.8162
735.3080, 125.3692
735.7901, 133.4841
736.2722, 146.1669
736.7543, 163.9413
737.2365, 194.2091
737.7186, 229.1893
738.2007, 252.5447
738.6828, 254.1731
739.1649, 248.4746
739.6470, 240.5913
740.1292, 230.9096
740.6113, 220.1499
741.0934, 193.7422
741.5755, 186.2011
742.0576, 216.1605
742.5397, 269.9143
743.0219, 281.3611
743.5040, 243.8635
743.9861, 204.9831
744.4682, 193.1326
744.9503, 196.6488
745.4324, 178.1775
745.9146, 140.3249
746.3967, 110.2504
746.8788, 101.9228
747.3609, 112.6240
747.8430, 150.7385
748.3251, 223.8588
748.8073, 268.7887
749.2894, 256.5897
749.7715, 222.3906
750.2536, 182.4400
750.7357, 120.2612
751.2178, 111.2195
751.7000, 173.6308
752.1821, 246.2496
752.6642, 250.3505
753.1463, 199.1336
753.6284, 159.7883
754.1105, 146.0226
754.5927, 141.4532
755.0748, 127.2456
755.5569, 111.7195
756.0390, 107.7956
756.5211, 131.0742
757.0032, 154.0223
757.4854, 167.3248
757.9675, 175.3068
758.4496, 189.2773
758.9317, 219.6568
759.4138, 232.0269
759.8959, 211.4709
760.3781, 171.4976
760.8602, 155.1739
761.3423, 161.2457
761.8244, 169.9894
762.3065, 170.7905
762.7886, 168.4451
763.2708, 169.0294
763.7529, 172.1721
764.2350, 175.1101
764.7171, 167.1237
765.1992, 166.6519
765.6813, 191.7583
766.1635, 248.9298
766.6456, 272.8622
767.1277, 247.6626
767.6098, 214.9735
768.0919, 199.9863
768.5740, 202.4311
769.0562, 207.6205
769.5383, 215.4606
770.0204, 224.8670
770.5025, 243.4255
770.9846, 260.0746
771.4667, 250.0702
771.9489, 200.2779
772.4310, 166.5454
772.9131, 198.6658
773.3952, 250.1083
773.8773, 273.4054
774.3594, 240.2935
774.8416, 215.2278
775.3237, 201.4841
775.8058, 193.8106
776.2879, 186.5016
776.7700, 179.6023
777.2521, 164.3768
777.7343, 133.2263
778.2164, 105.9876
778.6985, 123.9758
779.1806, 166.8679
779.6627, 188.7857
780.1448, 139.4447
780.6270, 97.05866
781.1091, 99.96327
781.5912, 136.8840
782.0733, 175.3898
782.5554, 222.1380
783.0375, 256.1921
783.5197, 272.9966
784.0018, 273.3711
784.4839, 253.8837
784.9660, 213.6543
785.4481, 181.1718
785.9302, 172.4977
786.4124, 179.4179
786.8945, 193.8247
787.3766, 213.5573
787.8587, 226.9404
788.3408, 214.4808
788.8229, 205.2050
789.3051, 223.8380
789.7872, 274.8317
790.2693, 293.1953
790.7514, 262.9723
791.2335, 223.2802
791.7156, 190.7993
792.1978, 165.3891
792.6799, 154.1198
793.1620, 157.1226
793.6441, 171.7851
794.1262, 215.0872
794.6083, 260.8442
795.0905, 259.5403
795.5726, 199.6329
796.0547, 156.6202
796.5368, 193.0401
797.0189, 244.8096
797.5010, 258.7046
797.9832, 213.2710
798.4653, 174.9012
798.9474, 138.7370
799.4295, 117.3700
799.9116, 133.0362
800.3937, 182.1832
800.8759, 213.2786
801.3580, 218.9117
801.8401, 210.1209
802.3222, 186.5607
802.8043, 160.0422
803.2864, 149.4091
803.7686, 168.7329
804.2507, 187.7057
804.7328, 199.5603
805.2149, 204.0441
805.6970, 199.7629
806.1791, 177.5097
806.6613, 171.9024
807.1434, 194.1405
807.6255, 223.8971
808.1076, 218.5218
808.5897, 185.1193
809.0718, 168.3414
809.5540, 194.4403
810.0361, 222.1910
810.5182, 199.4161
811.0003, 150.7408
811.4824, 124.1576
811.9645, 155.3252
812.4467, 187.5930
812.9288, 215.3478
813.4109, 233.2211
813.8930, 220.7016
814.3751, 166.0012
814.8572, 130.3334
815.3394, 138.2666
815.8215, 169.6105
816.3036, 176.2581
816.7857, 164.1334
817.2678, 160.5447
817.7499, 193.7355
818.2321, 227.4480
818.7142, 231.1636
819.1963, 211.9663
819.6784, 203.4906
820.1605, 236.9845
820.6426, 251.5430
821.1247, 216.4288
821.6068, 147.0954
822.0889, 152.3931
822.5710, 240.3047
823.0532, 308.4775
823.5353, 277.1701
824.0174, 199.6613
824.4995, 173.6720
824.9816, 193.1470
825.4637, 218.3185
825.9459, 240.4281
826.4280, 251.2457
826.9101, 239.0241
827.3922, 202.5446
827.8743, 185.8616
828.3564, 201.0395
828.8386, 214.2848
829.3207, 202.7298
829.8028, 172.9422
830.2849, 184.6559
830.7670, 237.0363
831.2491, 280.5024
831.7313, 267.9045
832.2134, 233.5616
832.6955, 217.7449
833.1776, 222.8658
833.6597, 218.6973
834.1418, 180.4732
834.6240, 143.1152
835.1061, 123.0255
835.5882, 120.5464
836.0703, 134.7780
836.5524, 171.0304
837.0345, 203.3435
837.5167, 204.2601
837.9988, 186.9584
838.4809, 196.1154
838.9630, 233.5503
839.4451, 264.3242
839.9272, 256.2556
840.4094, 237.2440
840.8915, 230.2851
841.3736, 242.0303
841.8557, 247.1708
842.3378, 242.0834
842.8199, 233.0005
843.3021, 221.3436
843.7842, 206.7366
844.2663, 202.9431
844.7484, 210.4683
845.2305, 224.4388
845.7126, 250.0900
846.1948, 275.2756
846.6769, 278.1881
847.1590, 252.5995
847.6411, 235.7475
848.1232, 260.4423
848.6053, 285.5011
849.0875, 280.7994
849.5696, 238.0906
850.0517, 193.4521
850.5338, 139.2494
851.0159, 104.1091
851.4980, 132.5232
851.9802, 201.9559
852.4623, 234.6344
852.9444, 221.5544
853.4265, 198.1120
853.9086, 179.0123
854.3907, 169.4606
854.8729, 177.9692
855.3550, 217.3398
855.8371, 237.8369
856.3192, 226.8628
856.8013, 209.2599
857.2834, 205.5019
857.7656, 215.9414
858.2477, 217.3107
858.7298, 207.6669
859.2119, 196.6163
859.6940, 191.2991
860.1761, 191.0000
860.6583, 197.3037
861.1404, 212.8247
861.6225, 221.1131
862.1046, 207.0015
862.5867, 189.9013
863.0688, 186.8919
863.5510, 207.4765
864.0331, 199.3181
864.5152, 151.7610
864.9973, 110.6835
865.4794, 134.3033
865.9615, 196.6901
866.4437, 221.9597
866.9258, 199.3472
867.4079, 176.3355
867.8900, 190.7097
868.3721, 213.9368
868.8542, 219.8837
869.3364, 193.6744
869.8185, 185.3049
870.3006, 199.1707
870.7827, 223.9831
871.2648, 262.2485
871.7469, 309.5483
872.2291, 307.8222
872.7112, 251.1376
873.1933, 193.8609
873.6754, 182.1217
874.1575, 195.2700
874.6396, 217.1793
875.1218, 250.1533
875.6039, 264.3565
876.0860, 232.0091
876.5681, 197.2695
877.0502, 185.9473
877.5323, 201.3495
878.0145, 209.6678
878.4966, 210.3070
878.9787, 207.9352
879.4608, 206.8966
879.9429, 205.3322
880.4250, 199.8473
880.9072, 190.0858
881.3893, 178.7744
881.8714, 163.8024
882.3535, 150.6214
882.8356, 140.8293
883.3177, 132.9531
883.7999, 143.2348
884.2820, 178.5496
884.7641, 211.0133
885.2462, 215.3813
885.7283, 202.3901
886.2104, 208.9344
886.6926, 234.5861
887.1747, 253.9262
887.6568, 246.9713
888.1389, 230.4359
888.6210, 209.6953
889.1031, 184.1893
889.5853, 185.3809
890.0674, 231.2026
890.5495, 271.0099
891.0316, 280.2358
891.5137, 261.9875
891.9958, 227.7605
892.4780, 178.9692
892.9601, 142.8984
893.4422, 143.2261
893.9243, 159.7551
894.4064, 180.2831
894.8885, 202.8652
895.3707, 218.0971
895.8528, 210.8486
896.3349, 212.7795
896.8170, 241.5620
897.2991, 288.2913
897.7813, 298.3609
898.2634, 271.6496
898.7455, 241.5952
899.2276, 229.3277
899.7097, 222.0485
900.1918, 199.2009
900.6740, 166.7428
901.1561, 146.9640
901.6382, 155.1502
902.1203, 169.6244
902.6024, 186.6247
903.0845, 204.3527
903.5667, 216.3551
904.0488, 222.6874
904.5309, 222.3737
905.0130, 212.6640
905.4951, 199.1624
905.9772, 189.7664
906.4594, 183.7119
906.9415, 178.8842
907.4236, 176.3995
907.9057, 172.6761
908.3878, 168.4458
908.8699, 161.5334
909.3521, 142.9993
909.8342, 103.5063
910.3163, 92.59106
910.7984, 128.1317
911.2805, 182.0080
911.7626, 209.7132
912.2448, 218.0598
912.7269, 224.0393
913.2090, 240.2484
913.6911, 243.3049
914.1732, 201.2660
914.6553, 148.1778
915.1375, 134.5337
915.6196, 182.4832
916.1017, 210.2878
916.5838, 206.7504
917.0659, 192.7105
917.5480, 194.8270
918.0302, 208.9277
918.5123, 224.7975
918.9944, 242.5427
919.4765, 251.8650
919.9586, 238.6996
920.4407, 218.2122
920.9229, 204.3246
921.4050, 196.3515
921.8871, 202.4586
922.3692, 231.4130
922.8513, 255.6099
923.3334, 242.6487
923.8156, 202.9057
924.2977, 177.4593
924.7798, 169.8209
925.2619, 158.9445
925.7440, 108.7278
926.2261, 64.53934
926.7083, 70.68561
927.1904, 143.8061
927.6725, 186.1073
928.1546, 189.2288
928.6367, 177.0699
929.1188, 155.3098
929.6010, 128.8237
930.0831, 129.8681
930.5652, 155.6230
931.0473, 176.0222
931.5294, 159.2880
932.0115, 140.2922
932.4937, 151.9342
932.9758, 190.5107
933.4579, 203.5705
933.9400, 168.3640
934.4221, 145.7000
934.9042, 160.5841
935.3864, 197.5052
935.8685, 204.0744
936.3506, 185.6407
936.8327, 175.1474
937.3148, 203.0857
937.7969, 230.2131
938.2791, 218.7774
938.7612, 186.0116
939.2433, 173.3319
939.7254, 201.3760
940.2075, 222.4060
940.6896, 227.3364
941.1718, 225.7088
941.6539, 239.3042
942.1360, 263.6904
942.6181, 272.9627
943.1002, 254.7874
943.5823, 235.2954
944.0645, 241.6669
944.5466, 255.8319
945.0287, 255.3470
945.5108, 228.2711
945.9929, 197.0666
946.4750, 151.7846
946.9572, 118.3455
947.4393, 135.9645
947.9214, 192.5485
948.4035, 219.2732
948.8856, 207.5618
949.3677, 195.8528
949.8499, 225.9381
950.3320, 259.9528
950.8141, 260.6985
951.2962, 213.6178
951.7783, 192.4910
952.2604, 209.4700
952.7426, 230.1062
953.2247, 233.6100
953.7068, 223.9832
954.1889, 220.3512
954.6710, 221.8077
955.1531, 220.2809
955.6353, 201.3854
956.1174, 186.0733
956.5995, 197.1233
957.0816, 228.4192
957.5637, 234.3931
958.0458, 202.5247
958.5280, 171.4716
959.0101, 150.0195
959.4922, 138.7064
959.9743, 140.1516
960.4564, 153.1646
960.9385, 174.3588
961.4207, 213.4664
961.9028, 245.4908
962.3849, 260.1801
962.8670, 257.6826
963.3491, 235.6592
963.8312, 177.1608
964.3134, 145.2644
964.7955, 149.3909
965.2776, 173.1836
965.7597, 201.8562
966.2418, 232.3604
966.7239, 258.6546
967.2061, 280.1793
967.6882, 293.2984
968.1703, 296.5338
968.6524, 289.8521
969.1345, 270.3498
969.6166, 233.1383
970.0988, 210.4544
970.5809, 202.9876
971.0630, 206.4148
971.5451, 226.1576
972.0272, 251.1684
972.5093, 256.2620
972.9915, 243.2706
973.4736, 236.7055
973.9557, 266.1963
974.4378, 285.7100
974.9199, 269.6658
975.4020, 226.1762
975.8842, 188.8797
976.3663, 156.9796
976.8484, 140.0529
977.3305, 146.2743
977.8126, 163.8452
978.2947, 172.2066
978.7769, 178.9020
979.2590, 200.2774
979.7411, 280.4205
980.2232, 324.9400
980.7053, 297.8645
981.1874, 242.5292
981.6696, 220.0739
982.1517, 231.5017
982.6338, 225.5071
983.1159, 191.0217
983.5980, 161.1792
984.0801, 179.2269
984.5623, 215.3462
985.0444, 233.8525
985.5264, 221.8252
986.0085, 220.3519
986.4907, 248.9644
986.9728, 267.6307
987.4549, 238.6175
987.9370, 170.6193
988.4191, 166.5025
988.9012, 222.3128
989.3834, 272.7821
989.8655, 272.1059
990.3476, 251.8942
990.8297, 228.9776
991.3118, 205.9487
991.7939, 191.6261
992.2761, 185.0607
992.7582, 190.8937
993.2403, 215.9215
993.7224, 247.0804
994.2045, 253.1827
994.6866, 240.5174
995.1688, 228.8314
995.6509, 223.7718
996.1330, 223.4723
996.6151, 227.2124
997.0972, 235.3728
997.5793, 252.0154
998.0615, 290.3607
998.5436, 285.1060
999.0257, 224.3326
999.5078, 157.1977
999.9899, 130.7902
1000.472, 134.1931
1000.954, 157.5266
1001.436, 199.8716
1001.918, 227.6815
1002.401, 221.5700
1002.883, 201.4119
1003.365, 166.8438
1003.847, 123.1813
1004.329, 139.3316
1004.811, 217.3952
1005.293, 266.3496
1005.775, 202.7410
1006.257, 123.4822
1006.740, 155.5370
1007.222, 253.5411
1007.704, 307.0367
1008.186, 241.4140
1008.668, 188.7164
1009.150, 162.9826
1009.632, 156.3262
1010.114, 158.5307
1010.596, 169.4376
1011.079, 192.3849
1011.561, 231.9374
1012.043, 261.1183
1012.525, 247.7151
1013.007, 221.4490
1013.489, 211.2489
1013.971, 224.8007
1014.453, 221.0434
1014.936, 191.8239
1015.418, 171.6061
1015.900, 198.6814
1016.382, 246.3213
1016.864, 243.4105
1017.346, 199.9306
1017.828, 169.6613
1018.310, 193.0963
1018.792, 217.9187
1019.275, 226.9830
1019.757, 222.7798
1020.239, 205.0475
1020.721, 172.2238
1021.203, 158.7212
1021.685, 176.0419
1022.167, 206.2103
1022.649, 241.9169
1023.132, 272.3012
1023.614, 280.0684
1024.096, 247.1475
1024.578, 224.7017
1025.060, 217.3128
1025.542, 219.0162
1026.024, 233.1839
1026.506, 254.7218
1026.989, 245.8948
1027.471, 207.9390
1027.953, 169.0030
1028.435, 131.9988
1028.917, 113.6830
1029.399, 142.1781
1029.881, 204.1532
1030.363, 220.1959
1030.845, 172.5565
1031.328, 149.7093
1031.810, 187.3606
1032.292, 240.7959
1032.774, 229.1241
1033.256, 180.7305
1033.738, 153.6154
1034.220, 181.3154
1034.702, 201.0160
1035.184, 188.0877
1035.667, 170.9593
1036.149, 172.7108
1036.631, 193.4802
1037.113, 219.7889
1037.595, 251.7259
1038.077, 275.6469
1038.559, 283.4580
1039.041, 276.7962
1039.524, 246.1139
1040.006, 195.4724
1040.488, 173.7428
1040.970, 191.5046
1041.452, 218.6871
1041.934, 252.1096
1042.416, 281.7581
1042.898, 281.8652
1043.380, 262.1963
1043.863, 250.6550
1044.345, 267.9090
1044.827, 273.9245
1045.309, 232.9439
1045.791, 187.9758
1046.273, 184.4924
1046.755, 228.9683
1047.237, 245.6044
1047.719, 230.4725
1048.202, 208.3279
1048.684, 195.9263
1049.166, 189.4133
1049.648, 184.7503
1050.130, 185.3933
1050.612, 185.4268
1051.094, 198.1503
1051.576, 212.4228
1052.059, 228.9975
1052.541, 242.8174
1053.023, 238.8352
1053.505, 221.9112
1053.987, 207.2617
1054.469, 199.2142
1054.951, 195.6746
1055.433, 200.0565
1055.916, 205.6156
1056.398, 205.1187
1056.880, 196.8691
1057.362, 195.2811
1057.844, 201.7383
1058.326, 201.5704
1058.808, 166.5880
1059.290, 129.9264
1059.772, 132.0491
1060.255, 170.8543
1060.737, 209.0305
1061.219, 247.3495
1061.701, 273.8289
1062.183, 287.1158
1062.665, 284.9143
1063.147, 250.0505
1063.629, 194.6912
1064.111, 158.3933
1064.594, 153.9840
1065.076, 165.1696
1065.558, 203.0415
1066.040, 238.6968
1066.522, 243.8439
1067.004, 211.4109
1067.486, 201.7664
1067.968, 216.1543
1068.450, 235.1208
1068.933, 251.1015
1069.415, 259.4780
1069.897, 248.5950
1070.379, 223.9521
1070.861, 211.1213
1071.343, 219.6258
1071.825, 229.9551
1072.307, 240.4535
1072.790, 248.1279
1073.272, 246.2953
1073.754, 237.4245
1074.236, 226.0665
1074.718, 210.0166
1075.200, 204.9737
1075.682, 245.4221
1076.164, 274.0478
1076.646, 241.7041
1077.129, 148.6010
1077.611, 130.6762
1078.093, 187.9333
1078.575, 244.2051
1079.057, 250.2117
1079.539, 236.7153
1080.021, 221.4977
1080.503, 208.0295
1080.985, 205.8322
1081.468, 220.3592
1081.950, 235.1662
1082.432, 251.1974
1082.914, 259.7805
1083.396, 243.7501
1083.878, 214.2224
1084.360, 189.9360
1084.842, 172.9314
1085.325, 170.8226
1085.807, 207.9705
1086.289, 237.3316
1086.771, 233.7240
1087.253, 206.5761
1087.735, 202.5129
1088.217, 219.6484
1088.699, 244.0175
1089.182, 283.8575
1089.664, 308.4145
1090.146, 277.4050
1090.628, 226.8293
1091.110, 210.9594
1091.592, 246.2670
1092.074, 258.5690
1092.556, 242.8166
1093.038, 217.9895
1093.521, 195.0043
1094.003, 177.2050
1094.485, 165.8734
1094.967, 162.3174
1095.449, 179.1306
1095.931, 245.5428
1096.413, 288.9452
1096.895, 288.5369
1097.377, 258.7032
1097.860, 214.9615
1098.342, 167.6523
1098.824, 156.4073
1099.306, 206.2585
1099.788, 245.8575
1100.270, 236.4103
1100.752, 206.7255
1101.234, 172.2227
1101.717, 131.9311
1102.199, 135.0754
1102.681, 180.8220
1103.163, 210.7612
1103.645, 156.7475
1104.127, 99.54121
1104.609, 119.5818
1105.091, 186.9171
1105.573, 217.4154
1106.056, 189.1074
1106.538, 180.6850
1107.020, 206.1260
1107.502, 237.0206
1107.984, 233.1846
1108.466, 214.9562
1108.948, 218.4900
1109.430, 249.6247
1109.912, 264.0300
1110.395, 236.0631
1110.877, 212.3762
1111.359, 210.2509
1111.841, 223.4877
1112.323, 239.8236
1112.805, 255.7598
1113.287, 257.4829
1113.769, 230.3918
1114.252, 205.9718
1114.734, 192.9381
1115.216, 193.1679
1115.698, 215.1609
1116.180, 262.9500
1116.662, 268.8731
1117.144, 231.9709
1117.626, 196.2586
1118.109, 193.4675
1118.591, 204.0233
1119.073, 220.5363
1119.555, 237.5903
1120.037, 237.4978
1120.519, 213.5980
1121.001, 196.2626
1121.483, 190.9182
1121.965, 192.6702
1122.448, 199.6311
1122.930, 207.8602
1123.412, 210.1483
1123.894, 204.0789
1124.376, 204.9266
1124.858, 221.7795
1125.340, 230.6920
1125.822, 212.6518
1126.304, 185.9260
1126.787, 213.8796
1127.269, 277.0632
1127.751, 317.2801
1128.233, 301.5193
1128.715, 275.3405
1129.197, 239.6319
1129.679, 210.0401
1130.161, 203.3602
1130.644, 218.2808
1131.126, 228.1662
1131.608, 232.6251
1132.090, 240.7513
1132.572, 272.2928
1133.054, 295.8102
1133.536, 285.4863
1134.018, 252.6112
1134.500, 225.5356
1134.983, 203.1039
1135.465, 197.8279
1135.947, 214.5078
1136.429, 235.4383
1136.911, 247.6478
1137.393, 250.8729
1137.875, 241.6886
1138.357, 217.6275
1138.839, 200.9512
1139.322, 191.2534
1139.804, 191.7285
1140.286, 207.8834
1140.768, 229.8295
1141.250, 242.4791
1141.732, 247.8989
1142.214, 250.1582
1142.696, 250.8638
1143.179, 246.9788
1143.661, 237.5079
1144.143, 225.4208
1144.625, 211.3894
1145.107, 196.7976
1145.589, 182.1129
1146.071, 169.4983
1146.553, 170.8123
1147.036, 206.5273
1147.518, 239.4032
1148.000, 266.1678
1148.482, 278.0302
1148.964, 245.3165
1149.446, 178.9405
1149.928, 155.3291
1150.410, 188.7790
1150.892, 219.9061
1151.375, 193.6344
1151.857, 167.3686
1152.339, 185.0040
1152.821, 235.3883
1153.303, 255.7797
1153.785, 246.6091
1154.267, 248.5076
1154.749, 284.4800
1155.231, 314.1060
1155.714, 286.8502
1156.196, 241.3652
1156.678, 226.7740
1157.160, 253.8230
1157.642, 256.2207
1158.124, 230.8768
1158.606, 203.9995
1159.088, 192.6294
1159.571, 188.4463
1160.053, 178.7783
1160.535, 168.8624
1161.017, 172.4864
1161.499, 196.4904
1161.981, 224.0176
1162.463, 257.3044
1162.945, 283.4134
1163.427, 282.6932
1163.910, 268.4680
1164.392, 256.0660
1164.874, 247.9613
1165.356, 256.8300
1165.838, 312.2680
1166.320, 339.4348
1166.802, 315.2559
1167.284, 266.2477
1167.766, 226.6011
1168.249, 200.4163
1168.731, 203.6129
1169.213, 247.5345
1169.695, 270.8119
1170.177, 228.0162
1170.659, 190.7327
1171.141, 191.0999
1171.623, 219.6782
1172.106, 253.6319
1172.588, 287.8792
1173.070, 302.8305
1173.552, 277.9334
1174.034, 254.8594
1174.516, 253.7553
1174.998, 258.1969
1175.480, 257.7618
1175.963, 252.3599
1176.445, 232.2642
1176.927, 200.3096
1177.409, 184.9879
1177.891, 231.1897
1178.373, 268.4605
1178.855, 245.3463
1179.337, 198.7772
1179.819, 185.3285
1180.302, 205.9644
1180.784, 216.9919
1181.266, 213.3195
1181.748, 218.2817
1182.230, 272.1343
1182.712, 321.7455
1183.194, 318.2758
1183.676, 275.6726
1184.158, 251.9306
1184.641, 247.9930
1185.123, 250.3014
1185.605, 257.1467
1186.087, 263.1010
1186.569, 269.3329
1187.051, 267.7624
1187.533, 241.8435
1188.015, 188.7622
1188.498, 173.1042
1188.980, 199.4885
1189.462, 230.3338
1189.944, 255.2908
1190.426, 268.1471
1190.908, 254.3148
1191.390, 226.2691
1191.872, 201.8131
1192.354, 182.5926
1192.837, 168.1341
1193.319, 156.9382
1193.801, 157.2322
1194.283, 186.1948
1194.765, 221.7236
1195.247, 228.9610
1195.729, 247.7248
1196.211, 260.8571
1196.693, 255.5743
1197.176, 269.4699
1197.658, 254.8607
1198.140, 238.3248
1198.622, 252.1620
1199.104, 277.7176
1199.586, 290.9516
1200.068, 290.2047
1200.550, 275.0448
1201.033, 232.3091
1201.515, 203.9337
1201.997, 199.3158
1202.479, 206.5074
1202.961, 214.2118
1203.443, 219.5837
1203.925, 215.4198
1204.407, 200.0087
1204.890, 192.0169
1205.372, 198.7643
1205.854, 203.4532
1206.336, 197.8563
1206.818, 191.0960
1207.300, 206.5410
1207.782, 233.2795
1208.264, 248.8527
1208.746, 245.4856
1209.229, 239.8545
1209.711, 233.1805
1210.193, 227.8537
1210.675, 228.3912
1211.157, 228.8338
1211.639, 201.7868
1212.121, 162.6369
1212.603, 152.3527
1213.085, 218.6844
1213.568, 254.9689
1214.050, 230.3746
1214.532, 208.0718
1215.014, 257.7725
1215.496, 344.9698
1215.978, 354.6120
1216.460, 303.5367
1216.942, 264.5813
1217.425, 291.5665
1217.907, 297.4460
1218.389, 258.1376
1218.871, 211.2352
1219.353, 201.9534
1219.835, 219.7993
1220.317, 237.1254
1220.799, 252.3253
1221.281, 269.6011
1221.764, 297.1824
1222.246, 319.5856
1222.728, 339.4728
1223.210, 344.0198
1223.692, 292.3982
1224.174, 211.5372
1224.656, 176.4514
1225.138, 199.1975
1225.620, 233.1361
1226.103, 285.4268
1226.585, 313.4434
1227.067, 298.7521
1227.549, 258.3331
1228.031, 215.3103
1228.513, 179.1770
1228.995, 184.0914
1229.477, 250.6492
1229.960, 292.8089
1230.442, 268.5930
1230.924, 237.6914
1231.406, 228.9303
1231.888, 229.8529
1232.370, 187.9945
1232.852, 127.2015
1233.334, 117.3156
1233.816, 215.3569
1234.299, 283.6586
1234.781, 282.6352
1235.263, 267.3208
1235.745, 279.5043
1236.227, 251.1166
1236.709, 271.5408
1237.191, 203.5796
1237.673, 151.2735
1238.156, 128.8611
1238.638, 137.6432
1239.120, 193.0514
1239.602, 247.9412
1240.084, 252.7638
1240.566, 225.6681
1241.048, 215.9300
1241.530, 220.1436
1242.012, 217.6532
1242.495, 181.9607
1242.977, 168.3487
1243.459, 191.5355
1243.941, 223.9851
1244.423, 235.4082
1244.905, 232.1020
1245.387, 224.7695
1245.869, 215.0667
1246.351, 208.5105
1246.834, 203.5609
1247.316, 208.8124
1247.798, 229.1572
1248.280, 252.9240
1248.762, 258.4384
1249.244, 258.3156
1249.726, 285.4437
1250.208, 342.2526
1250.691, 363.5578
1251.173, 318.0436
1251.655, 280.7647
1252.137, 272.7325
1252.619, 275.1710
1253.101, 247.0641
1253.583, 214.3364
1254.065, 229.9790
1254.547, 309.5580
1255.030, 342.3257
1255.512, 304.4436
1255.994, 264.4278
1256.476, 243.5515
1256.958, 238.0844
1257.440, 247.3371
1257.922, 265.9394
1258.404, 289.6389
1258.886, 323.1816
1259.369, 330.0095
1259.851, 305.1837
1260.333, 271.1936
1260.815, 229.8305
1261.297, 197.2819
1261.779, 195.1305
1262.261, 215.4015
1262.743, 251.7601
1263.226, 315.4066
1263.708, 338.4372
1264.190, 315.9226
1264.672, 285.8370
1265.154, 267.3609
1265.636, 255.7913
1266.118, 250.1759
1266.600, 246.9230
1267.083, 239.2782
1267.565, 224.1987
1268.047, 215.5977
1268.529, 213.3694
1269.011, 219.6918
1269.493, 247.4516
1269.975, 272.8205
1270.457, 277.5954
1270.939, 266.0720
1271.422, 248.6614
1271.904, 225.1834
1272.386, 187.8704
1272.868, 136.4221
1273.350, 109.9372
1273.832, 164.9967
1274.314, 223.4626
1274.796, 230.8481
1275.278, 212.5081
1275.761, 203.4132
1276.243, 203.9225
1276.725, 235.2203
1277.207, 297.5196
1277.689, 335.1545
1278.171, 290.1232
1278.653, 237.9004
1279.135, 207.9086
1279.618, 195.7933
1280.100, 196.4412
1280.582, 208.4878
1281.064, 227.7720
1281.546, 253.7517
1282.028, 273.6885
1282.510, 282.0049
1282.992, 280.5115
1283.474, 267.5094
1283.957, 249.3025
1284.439, 241.1401
1284.921, 236.3820
1285.403, 208.0171
1285.885, 151.1755
1286.367, 125.0948
1286.849, 172.7686
1287.331, 218.0929
1287.813, 242.7889
1288.296, 252.1934
1288.778, 257.0845
1289.260, 252.7868
1289.742, 220.4917
1290.224, 152.4693
1290.706, 130.7763
1291.188, 179.4603
1291.670, 223.9690
1292.153, 239.0906
1292.635, 241.6543
1293.117, 253.2831
1293.599, 269.4018
1294.081, 288.4271
1294.563, 312.5712
1295.045, 298.0979
1295.527, 234.4678
1296.010, 196.8502
1296.492, 219.4205
1296.974, 263.5034
1297.456, 314.2648
1297.938, 345.7199
1298.420, 306.3608
1298.902, 197.1118
1299.384, 171.7220
1299.866, 229.5992
1300.349, 277.1534
1300.831, 269.0909
##END=



