##NAMES=Kaersutite
##RRUFFID=R141092
##IDEAL CHEMISTRY=NaCa_2_(Mg_3_AlTi^4+^)(Si_6_Al_2_)O_22_O_2_
##LOCALITY=Rothenberg, Bell, Eifel, Germany
##OWNER=RRUFF
##SOURCE=Ch. and H. Sch√§fer
##DESCRIPTION=Rusty brown blades embedded in matrix
##STATUS=The identification of this mineral has been confirmed only by single crystal X-ray diffraction.
##URL=rruff.info/R141092
8.930109e+001, 0.000000e+000
8.978320e+001, 3.515094e+001
9.026532e+001, 3.497078e+001
9.074744e+001, 3.498130e+001
9.122955e+001, 3.526013e+001
9.171167e+001, 3.566096e+001
9.219379e+001, 3.615263e+001
9.267590e+001, 3.670056e+001
9.315802e+001, 3.687770e+001
9.364014e+001, 3.594258e+001
9.412225e+001, 3.434251e+001
9.460437e+001, 3.340280e+001
9.508649e+001, 3.377277e+001
9.556860e+001, 3.479962e+001
9.605072e+001, 3.492513e+001
9.653284e+001, 3.413397e+001
9.701495e+001, 3.310436e+001
9.749707e+001, 3.235701e+001
9.797919e+001, 3.187793e+001
9.846130e+001, 3.179898e+001
9.894342e+001, 3.235609e+001
9.942554e+001, 3.346858e+001
9.990765e+001, 3.399148e+001
1.003898e+002, 3.386019e+001
1.008719e+002, 3.334692e+001
1.013540e+002, 3.272971e+001
1.018361e+002, 3.188230e+001
1.023182e+002, 3.134485e+001
1.028004e+002, 3.140510e+001
1.032825e+002, 3.226319e+001
1.037646e+002, 3.280734e+001
1.042467e+002, 3.293753e+001
1.047288e+002, 3.282049e+001
1.052109e+002, 3.281181e+001
1.056931e+002, 3.280404e+001
1.061752e+002, 3.303608e+001
1.066573e+002, 3.364811e+001
1.071394e+002, 3.503228e+001
1.076215e+002, 3.612276e+001
1.081036e+002, 3.691894e+001
1.085858e+002, 3.742658e+001
1.090679e+002, 3.761285e+001
1.095500e+002, 3.710088e+001
1.100321e+002, 3.655142e+001
1.105142e+002, 3.631768e+001
1.109963e+002, 3.657005e+001
1.114785e+002, 3.693291e+001
1.119606e+002, 3.743270e+001
1.124427e+002, 3.806041e+001
1.129248e+002, 3.858184e+001
1.134069e+002, 3.887226e+001
1.138890e+002, 3.909238e+001
1.143712e+002, 3.937490e+001
1.148533e+002, 3.969114e+001
1.153354e+002, 4.011974e+001
1.158175e+002, 4.078202e+001
1.162996e+002, 4.172451e+001
1.167817e+002, 4.246290e+001
1.172639e+002, 4.276371e+001
1.177460e+002, 4.279071e+001
1.182281e+002, 4.275046e+001
1.187102e+002, 4.277271e+001
1.191923e+002, 4.271457e+001
1.196744e+002, 4.242115e+001
1.201566e+002, 4.180529e+001
1.206387e+002, 4.128194e+001
1.211208e+002, 4.111671e+001
1.216029e+002, 4.122994e+001
1.220850e+002, 4.146709e+001
1.225671e+002, 4.170926e+001
1.230493e+002, 4.205173e+001
1.235314e+002, 4.271496e+001
1.240135e+002, 4.394890e+001
1.244956e+002, 4.497059e+001
1.249777e+002, 4.473157e+001
1.254598e+002, 4.352052e+001
1.259420e+002, 4.243106e+001
1.264241e+002, 4.228530e+001
1.269062e+002, 4.273235e+001
1.273883e+002, 4.312559e+001
1.278704e+002, 4.328941e+001
1.283525e+002, 4.339602e+001
1.288347e+002, 4.376916e+001
1.293168e+002, 4.439348e+001
1.297989e+002, 4.496194e+001
1.302810e+002, 4.519072e+001
1.307631e+002, 4.514523e+001
1.312452e+002, 4.510659e+001
1.317274e+002, 4.516819e+001
1.322095e+002, 4.527193e+001
1.326916e+002, 4.520341e+001
1.331737e+002, 4.493047e+001
1.336558e+002, 4.471311e+001
1.341379e+002, 4.485963e+001
1.346201e+002, 4.536459e+001
1.351022e+002, 4.584998e+001
1.355843e+002, 4.619090e+001
1.360664e+002, 4.641032e+001
1.365485e+002, 4.665400e+001
1.370306e+002, 4.691266e+001
1.375128e+002, 4.722261e+001
1.379949e+002, 4.769462e+001
1.384770e+002, 4.839077e+001
1.389591e+002, 4.894751e+001
1.394412e+002, 4.924337e+001
1.399233e+002, 4.926411e+001
1.404055e+002, 4.916588e+001
1.408876e+002, 4.891525e+001
1.413697e+002, 4.857637e+001
1.418518e+002, 4.823739e+001
1.423339e+002, 4.787052e+001
1.428160e+002, 4.756858e+001
1.432982e+002, 4.740100e+001
1.437803e+002, 4.746883e+001
1.442624e+002, 4.733594e+001
1.447445e+002, 4.689518e+001
1.452266e+002, 4.628664e+001
1.457087e+002, 4.585012e+001
1.461909e+002, 4.563766e+001
1.466730e+002, 4.552172e+001
1.471551e+002, 4.546845e+001
1.476372e+002, 4.562289e+001
1.481193e+002, 4.559126e+001
1.486014e+002, 4.522565e+001
1.490836e+002, 4.465443e+001
1.495657e+002, 4.431290e+001
1.500478e+002, 4.453187e+001
1.505299e+002, 4.472209e+001
1.510120e+002, 4.462591e+001
1.514941e+002, 4.367121e+001
1.519763e+002, 4.310409e+001
1.524584e+002, 4.315987e+001
1.529405e+002, 4.370632e+001
1.534226e+002, 4.407134e+001
1.539047e+002, 4.407557e+001
1.543868e+002, 4.396921e+001
1.548690e+002, 4.388840e+001
1.553511e+002, 4.386338e+001
1.558332e+002, 4.384865e+001
1.563153e+002, 4.383391e+001
1.567974e+002, 4.382135e+001
1.572795e+002, 4.382857e+001
1.577617e+002, 4.391258e+001
1.582438e+002, 4.399044e+001
1.587259e+002, 4.400233e+001
1.592080e+002, 4.393139e+001
1.596901e+002, 4.379725e+001
1.601722e+002, 4.350618e+001
1.606544e+002, 4.307737e+001
1.611365e+002, 4.286140e+001
1.616186e+002, 4.315073e+001
1.621007e+002, 4.363925e+001
1.625828e+002, 4.405143e+001
1.630649e+002, 4.439725e+001
1.635471e+002, 4.456145e+001
1.640292e+002, 4.435986e+001
1.645113e+002, 4.378666e+001
1.649934e+002, 4.336950e+001
1.654755e+002, 4.346504e+001
1.659576e+002, 4.384320e+001
1.664398e+002, 4.421677e+001
1.669219e+002, 4.449318e+001
1.674040e+002, 4.471990e+001
1.678861e+002, 4.493210e+001
1.683682e+002, 4.513478e+001
1.688503e+002, 4.528516e+001
1.693325e+002, 4.529995e+001
1.698146e+002, 4.525067e+001
1.702967e+002, 4.525249e+001
1.707788e+002, 4.545793e+001
1.712609e+002, 4.568078e+001
1.717430e+002, 4.570983e+001
1.722252e+002, 4.551011e+001
1.727073e+002, 4.532331e+001
1.731894e+002, 4.543208e+001
1.736715e+002, 4.570641e+001
1.741536e+002, 4.585239e+001
1.746357e+002, 4.559534e+001
1.751179e+002, 4.519032e+001
1.756000e+002, 4.494425e+001
1.760821e+002, 4.489503e+001
1.765642e+002, 4.494284e+001
1.770463e+002, 4.505824e+001
1.775284e+002, 4.520779e+001
1.780106e+002, 4.528758e+001
1.784927e+002, 4.512044e+001
1.789748e+002, 4.487487e+001
1.794569e+002, 4.486391e+001
1.799390e+002, 4.515023e+001
1.804211e+002, 4.554366e+001
1.809033e+002, 4.589304e+001
1.813854e+002, 4.618509e+001
1.818675e+002, 4.634986e+001
1.823496e+002, 4.629381e+001
1.828317e+002, 4.608491e+001
1.833138e+002, 4.584513e+001
1.837960e+002, 4.555216e+001
1.842781e+002, 4.533484e+001
1.847602e+002, 4.544574e+001
1.852423e+002, 4.585168e+001
1.857244e+002, 4.626595e+001
1.862065e+002, 4.653310e+001
1.866887e+002, 4.667090e+001
1.871708e+002, 4.672039e+001
1.876529e+002, 4.664132e+001
1.881350e+002, 4.656838e+001
1.886171e+002, 4.680247e+001
1.890992e+002, 4.733626e+001
1.895814e+002, 4.782518e+001
1.900635e+002, 4.804540e+001
1.905456e+002, 4.802339e+001
1.910277e+002, 4.790114e+001
1.915098e+002, 4.765673e+001
1.919919e+002, 4.737921e+001
1.924741e+002, 4.723944e+001
1.929562e+002, 4.723808e+001
1.934383e+002, 4.735728e+001
1.939204e+002, 4.768754e+001
1.944025e+002, 4.820533e+001
1.948846e+002, 4.848962e+001
1.953668e+002, 4.845274e+001
1.958489e+002, 4.819875e+001
1.963310e+002, 4.792544e+001
1.968131e+002, 4.761828e+001
1.972952e+002, 4.740198e+001
1.977773e+002, 4.739245e+001
1.982595e+002, 4.759603e+001
1.987416e+002, 4.781129e+001
1.992237e+002, 4.805451e+001
1.997058e+002, 4.826166e+001
2.001879e+002, 4.818240e+001
2.006700e+002, 4.774500e+001
2.011522e+002, 4.734319e+001
2.016343e+002, 4.728571e+001
2.021164e+002, 4.761082e+001
2.025985e+002, 4.789286e+001
2.030806e+002, 4.807605e+001
2.035627e+002, 4.818395e+001
2.040449e+002, 4.830843e+001
2.045270e+002, 4.847892e+001
2.050091e+002, 4.856792e+001
2.054912e+002, 4.840616e+001
2.059733e+002, 4.790942e+001
2.064554e+002, 4.768853e+001
2.069376e+002, 4.789258e+001
2.074197e+002, 4.839954e+001
2.079018e+002, 4.875220e+001
2.083839e+002, 4.891577e+001
2.088660e+002, 4.901477e+001
2.093481e+002, 4.910942e+001
2.098303e+002, 4.917949e+001
2.103124e+002, 4.935839e+001
2.107945e+002, 4.973198e+001
2.112766e+002, 5.021379e+001
2.117587e+002, 5.042721e+001
2.122408e+002, 5.026886e+001
2.127230e+002, 5.006026e+001
2.132051e+002, 5.003102e+001
2.136872e+002, 5.025317e+001
2.141693e+002, 5.039312e+001
2.146514e+002, 5.036190e+001
2.151335e+002, 5.022050e+001
2.156157e+002, 5.029323e+001
2.160978e+002, 5.071108e+001
2.165799e+002, 5.109954e+001
2.170620e+002, 5.116031e+001
2.175441e+002, 5.069957e+001
2.180262e+002, 5.049762e+001
2.185084e+002, 5.075090e+001
2.189905e+002, 5.132849e+001
2.194726e+002, 5.154091e+001
2.199547e+002, 5.124262e+001
2.204368e+002, 5.083540e+001
2.209189e+002, 5.056157e+001
2.214011e+002, 5.042263e+001
2.218832e+002, 5.042316e+001
2.223653e+002, 5.063319e+001
2.228474e+002, 5.098567e+001
2.233295e+002, 5.116987e+001
2.238116e+002, 5.109577e+001
2.242938e+002, 5.099057e+001
2.247759e+002, 5.101307e+001
2.252580e+002, 5.127979e+001
2.257401e+002, 5.138842e+001
2.262222e+002, 5.128920e+001
2.267043e+002, 5.101087e+001
2.271865e+002, 5.062593e+001
2.276686e+002, 4.998003e+001
2.281507e+002, 4.946716e+001
2.286328e+002, 4.940040e+001
2.291149e+002, 5.016846e+001
2.295970e+002, 5.044546e+001
2.300792e+002, 4.996233e+001
2.305613e+002, 4.892981e+001
2.310434e+002, 4.817996e+001
2.315255e+002, 4.778017e+001
2.320076e+002, 4.757569e+001
2.324897e+002, 4.752533e+001
2.329719e+002, 4.776785e+001
2.334540e+002, 4.785498e+001
2.339361e+002, 4.775762e+001
2.344182e+002, 4.749430e+001
2.349003e+002, 4.710239e+001
2.353824e+002, 4.644930e+001
2.358646e+002, 4.585714e+001
2.363467e+002, 4.549438e+001
2.368288e+002, 4.545784e+001
2.373109e+002, 4.543229e+001
2.377930e+002, 4.538634e+001
2.382751e+002, 4.534878e+001
2.387573e+002, 4.542204e+001
2.392394e+002, 4.569118e+001
2.397215e+002, 4.594660e+001
2.402036e+002, 4.609736e+001
2.406857e+002, 4.612060e+001
2.411678e+002, 4.608447e+001
2.416500e+002, 4.596640e+001
2.421321e+002, 4.579537e+001
2.426142e+002, 4.563085e+001
2.430963e+002, 4.541956e+001
2.435784e+002, 4.529656e+001
2.440605e+002, 4.534079e+001
2.445427e+002, 4.565242e+001
2.450248e+002, 4.588170e+001
2.455069e+002, 4.605414e+001
2.459890e+002, 4.613468e+001
2.464711e+002, 4.602208e+001
2.469532e+002, 4.558694e+001
2.474354e+002, 4.517184e+001
2.479175e+002, 4.491399e+001
2.483996e+002, 4.485416e+001
2.488817e+002, 4.481377e+001
2.493638e+002, 4.477999e+001
2.498459e+002, 4.477381e+001
2.503281e+002, 4.485041e+001
2.508102e+002, 4.509322e+001
2.512923e+002, 4.527427e+001
2.517744e+002, 4.529734e+001
2.522565e+002, 4.511005e+001
2.527386e+002, 4.499816e+001
2.532208e+002, 4.502939e+001
2.537029e+002, 4.508622e+001
2.541850e+002, 4.496488e+001
2.546671e+002, 4.455936e+001
2.551492e+002, 4.417832e+001
2.556313e+002, 4.390532e+001
2.561135e+002, 4.374017e+001
2.565956e+002, 4.368274e+001
2.570777e+002, 4.373890e+001
2.575598e+002, 4.389571e+001
2.580419e+002, 4.417822e+001
2.585240e+002, 4.470757e+001
2.590062e+002, 4.507295e+001
2.594883e+002, 4.509753e+001
2.599704e+002, 4.474681e+001
2.604525e+002, 4.459774e+001
2.609346e+002, 4.474404e+001
2.614167e+002, 4.497785e+001
2.618989e+002, 4.507256e+001
2.623810e+002, 4.501977e+001
2.628631e+002, 4.483366e+001
2.633452e+002, 4.441947e+001
2.638273e+002, 4.377728e+001
2.643094e+002, 4.361256e+001
2.647916e+002, 4.413771e+001
2.652737e+002, 4.479678e+001
2.657558e+002, 4.501653e+001
2.662379e+002, 4.464044e+001
2.667200e+002, 4.433735e+001
2.672021e+002, 4.425385e+001
2.676843e+002, 4.436621e+001
2.681664e+002, 4.442829e+001
2.686485e+002, 4.441570e+001
2.691306e+002, 4.440229e+001
2.696127e+002, 4.447561e+001
2.700948e+002, 4.467621e+001
2.705770e+002, 4.475706e+001
2.710591e+002, 4.459503e+001
2.715412e+002, 4.428522e+001
2.720233e+002, 4.434432e+001
2.725054e+002, 4.488851e+001
2.729875e+002, 4.548127e+001
2.734697e+002, 4.581297e+001
2.739518e+002, 4.586057e+001
2.744339e+002, 4.579039e+001
2.749160e+002, 4.556044e+001
2.753981e+002, 4.526215e+001
2.758802e+002, 4.519677e+001
2.763624e+002, 4.541151e+001
2.768445e+002, 4.568031e+001
2.773266e+002, 4.587876e+001
2.778087e+002, 4.600638e+001
2.782908e+002, 4.605437e+001
2.787729e+002, 4.598046e+001
2.792551e+002, 4.587566e+001
2.797372e+002, 4.597995e+001
2.802193e+002, 4.632615e+001
2.807014e+002, 4.667277e+001
2.811835e+002, 4.686133e+001
2.816656e+002, 4.689547e+001
2.821478e+002, 4.702530e+001
2.826299e+002, 4.726995e+001
2.831120e+002, 4.759504e+001
2.835941e+002, 4.800346e+001
2.840762e+002, 4.850695e+001
2.845583e+002, 4.887739e+001
2.850405e+002, 4.892163e+001
2.855226e+002, 4.868869e+001
2.860047e+002, 4.863867e+001
2.864868e+002, 4.879126e+001
2.869689e+002, 4.906980e+001
2.874510e+002, 4.943864e+001
2.879332e+002, 4.988834e+001
2.884153e+002, 5.022774e+001
2.888974e+002, 5.031348e+001
2.893795e+002, 5.022227e+001
2.898616e+002, 5.023868e+001
2.903438e+002, 5.036995e+001
2.908259e+002, 5.055788e+001
2.913080e+002, 5.073296e+001
2.917901e+002, 5.090324e+001
2.922722e+002, 5.113628e+001
2.927543e+002, 5.150922e+001
2.932365e+002, 5.193134e+001
2.937186e+002, 5.218814e+001
2.942007e+002, 5.227648e+001
2.946828e+002, 5.225923e+001
2.951649e+002, 5.205332e+001
2.956470e+002, 5.176197e+001
2.961292e+002, 5.175805e+001
2.966113e+002, 5.229382e+001
2.970934e+002, 5.299181e+001
2.975755e+002, 5.316565e+001
2.980576e+002, 5.286428e+001
2.985397e+002, 5.260205e+001
2.990219e+002, 5.284814e+001
2.995040e+002, 5.340290e+001
2.999861e+002, 5.383435e+001
3.004682e+002, 5.404753e+001
3.009503e+002, 5.413713e+001
3.014324e+002, 5.415333e+001
3.019146e+002, 5.412295e+001
3.023967e+002, 5.415821e+001
3.028788e+002, 5.449122e+001
3.033609e+002, 5.488330e+001
3.038430e+002, 5.490937e+001
3.043251e+002, 5.441611e+001
3.048073e+002, 5.392020e+001
3.052894e+002, 5.391127e+001
3.057715e+002, 5.427168e+001
3.062536e+002, 5.471537e+001
3.067357e+002, 5.511165e+001
3.072178e+002, 5.550685e+001
3.077000e+002, 5.600673e+001
3.081821e+002, 5.664505e+001
3.086642e+002, 5.712297e+001
3.091463e+002, 5.703620e+001
3.096284e+002, 5.667264e+001
3.101105e+002, 5.648029e+001
3.105927e+002, 5.668904e+001
3.110748e+002, 5.710897e+001
3.115569e+002, 5.771247e+001
3.120390e+002, 5.849093e+001
3.125211e+002, 5.913519e+001
3.130032e+002, 5.937421e+001
3.134854e+002, 5.943311e+001
3.139675e+002, 5.954755e+001
3.144496e+002, 5.982469e+001
3.149317e+002, 6.015064e+001
3.154138e+002, 6.048855e+001
3.158959e+002, 6.083630e+001
3.163781e+002, 6.118813e+001
3.168602e+002, 6.156397e+001
3.173423e+002, 6.192743e+001
3.178244e+002, 6.224933e+001
3.183065e+002, 6.250253e+001
3.187886e+002, 6.274337e+001
3.192708e+002, 6.302422e+001
3.197529e+002, 6.330986e+001
3.202350e+002, 6.350197e+001
3.207171e+002, 6.336063e+001
3.211992e+002, 6.327378e+001
3.216813e+002, 6.347717e+001
3.221635e+002, 6.420122e+001
3.226456e+002, 6.475313e+001
3.231277e+002, 6.488172e+001
3.236098e+002, 6.477370e+001
3.240919e+002, 6.474166e+001
3.245740e+002, 6.495419e+001
3.250562e+002, 6.513943e+001
3.255383e+002, 6.516495e+001
3.260204e+002, 6.493624e+001
3.265025e+002, 6.491445e+001
3.269846e+002, 6.551482e+001
3.274667e+002, 6.617925e+001
3.279489e+002, 6.631796e+001
3.284310e+002, 6.519054e+001
3.289131e+002, 6.436522e+001
3.293952e+002, 6.415791e+001
3.298773e+002, 6.458495e+001
3.303594e+002, 6.497771e+001
3.308416e+002, 6.554896e+001
3.313237e+002, 6.590370e+001
3.318058e+002, 6.567573e+001
3.322879e+002, 6.402531e+001
3.327700e+002, 6.326989e+001
3.332521e+002, 6.404584e+001
3.337343e+002, 6.592986e+001
3.342164e+002, 6.683547e+001
3.346985e+002, 6.637141e+001
3.351806e+002, 6.552501e+001
3.356627e+002, 6.473331e+001
3.361448e+002, 6.389834e+001
3.366270e+002, 6.348360e+001
3.371091e+002, 6.368000e+001
3.375912e+002, 6.417117e+001
3.380733e+002, 6.427357e+001
3.385554e+002, 6.386390e+001
3.390375e+002, 6.346273e+001
3.395197e+002, 6.328742e+001
3.400018e+002, 6.335188e+001
3.404839e+002, 6.342064e+001
3.409660e+002, 6.350045e+001
3.414481e+002, 6.356696e+001
3.419302e+002, 6.357528e+001
3.424124e+002, 6.352004e+001
3.428945e+002, 6.347934e+001
3.433766e+002, 6.348824e+001
3.438587e+002, 6.352938e+001
3.443408e+002, 6.354510e+001
3.448229e+002, 6.354362e+001
3.453051e+002, 6.345515e+001
3.457872e+002, 6.304181e+001
3.462693e+002, 6.239967e+001
3.467514e+002, 6.221781e+001
3.472335e+002, 6.277858e+001
3.477156e+002, 6.369239e+001
3.481978e+002, 6.425261e+001
3.486799e+002, 6.447066e+001
3.491620e+002, 6.448164e+001
3.496441e+002, 6.426736e+001
3.501262e+002, 6.392038e+001
3.506083e+002, 6.366699e+001
3.510905e+002, 6.354567e+001
3.515726e+002, 6.347091e+001
3.520547e+002, 6.336165e+001
3.525368e+002, 6.321936e+001
3.530189e+002, 6.304858e+001
3.535010e+002, 6.277337e+001
3.539832e+002, 6.250724e+001
3.544653e+002, 6.244865e+001
3.549474e+002, 6.261454e+001
3.554295e+002, 6.271974e+001
3.559116e+002, 6.239045e+001
3.563937e+002, 6.188535e+001
3.568759e+002, 6.159820e+001
3.573580e+002, 6.194003e+001
3.578401e+002, 6.232137e+001
3.583222e+002, 6.226588e+001
3.588043e+002, 6.184638e+001
3.592864e+002, 6.150014e+001
3.597686e+002, 6.157287e+001
3.602507e+002, 6.175928e+001
3.607328e+002, 6.179950e+001
3.612149e+002, 6.160379e+001
3.616970e+002, 6.130963e+001
3.621791e+002, 6.083994e+001
3.626613e+002, 6.030683e+001
3.631434e+002, 5.996878e+001
3.636255e+002, 6.012129e+001
3.641076e+002, 6.031574e+001
3.645897e+002, 6.033680e+001
3.650718e+002, 6.011507e+001
3.655540e+002, 5.987672e+001
3.660361e+002, 5.961430e+001
3.665182e+002, 5.937196e+001
3.670003e+002, 5.920272e+001
3.674824e+002, 5.932874e+001
3.679645e+002, 5.930727e+001
3.684467e+002, 5.886776e+001
3.689288e+002, 5.797961e+001
3.694109e+002, 5.762008e+001
3.698930e+002, 5.821783e+001
3.703751e+002, 5.901583e+001
3.708572e+002, 5.950957e+001
3.713394e+002, 5.952378e+001
3.718215e+002, 5.951831e+001
3.723036e+002, 5.949643e+001
3.727857e+002, 5.947820e+001
3.732678e+002, 5.954230e+001
3.737499e+002, 5.972898e+001
3.742321e+002, 5.992570e+001
3.747142e+002, 6.004312e+001
3.751963e+002, 6.000901e+001
3.756784e+002, 6.021185e+001
3.761605e+002, 6.068557e+001
3.766426e+002, 6.135334e+001
3.771248e+002, 6.220275e+001
3.776069e+002, 6.334063e+001
3.780890e+002, 6.404697e+001
3.785711e+002, 6.383332e+001
3.790532e+002, 6.290549e+001
3.795353e+002, 6.290784e+001
3.800175e+002, 6.398451e+001
3.804996e+002, 6.526958e+001
3.809817e+002, 6.592419e+001
3.814638e+002, 6.601456e+001
3.819459e+002, 6.607848e+001
3.824280e+002, 6.615385e+001
3.829102e+002, 6.635216e+001
3.833923e+002, 6.698223e+001
3.838744e+002, 6.800925e+001
3.843565e+002, 6.902782e+001
3.848386e+002, 6.984869e+001
3.853207e+002, 7.046298e+001
3.858029e+002, 7.078068e+001
3.862850e+002, 7.076439e+001
3.867671e+002, 7.062312e+001
3.872492e+002, 7.050425e+001
3.877313e+002, 7.042265e+001
3.882134e+002, 7.041550e+001
3.886956e+002, 7.066745e+001
3.891777e+002, 7.089271e+001
3.896598e+002, 7.070042e+001
3.901419e+002, 7.012204e+001
3.906240e+002, 6.972692e+001
3.911061e+002, 7.005160e+001
3.915883e+002, 7.065862e+001
3.920704e+002, 7.111526e+001
3.925525e+002, 7.147839e+001
3.930346e+002, 7.142970e+001
3.935167e+002, 7.048440e+001
3.939988e+002, 6.897266e+001
3.944810e+002, 6.781223e+001
3.949631e+002, 6.767681e+001
3.954452e+002, 6.769562e+001
3.959273e+002, 6.744473e+001
3.964094e+002, 6.683135e+001
3.968915e+002, 6.608784e+001
3.973737e+002, 6.506264e+001
3.978558e+002, 6.399231e+001
3.983379e+002, 6.316844e+001
3.988200e+002, 6.287441e+001
3.993021e+002, 6.255743e+001
3.997842e+002, 6.207434e+001
4.002664e+002, 6.142569e+001
4.007485e+002, 6.091117e+001
4.012306e+002, 6.070133e+001
4.017127e+002, 6.046428e+001
4.021948e+002, 5.995092e+001
4.026769e+002, 5.889195e+001
4.031591e+002, 5.815604e+001
4.036412e+002, 5.789904e+001
4.041233e+002, 5.794603e+001
4.046054e+002, 5.783875e+001
4.050875e+002, 5.750743e+001
4.055696e+002, 5.723682e+001
4.060518e+002, 5.724633e+001
4.065339e+002, 5.755657e+001
4.070160e+002, 5.731105e+001
4.074981e+002, 5.634334e+001
4.079802e+002, 5.530046e+001
4.084623e+002, 5.508293e+001
4.089445e+002, 5.567069e+001
4.094266e+002, 5.597931e+001
4.099087e+002, 5.561219e+001
4.103908e+002, 5.488494e+001
4.108729e+002, 5.456728e+001
4.113550e+002, 5.464780e+001
4.118372e+002, 5.477837e+001
4.123193e+002, 5.473948e+001
4.128014e+002, 5.456295e+001
4.132835e+002, 5.428272e+001
4.137656e+002, 5.386193e+001
4.142477e+002, 5.349544e+001
4.147299e+002, 5.345706e+001
4.152120e+002, 5.364184e+001
4.156941e+002, 5.379940e+001
4.161762e+002, 5.389287e+001
4.166583e+002, 5.385307e+001
4.171404e+002, 5.348772e+001
4.176226e+002, 5.281296e+001
4.181047e+002, 5.233580e+001
4.185868e+002, 5.263352e+001
4.190689e+002, 5.313164e+001
4.195510e+002, 5.326416e+001
4.200331e+002, 5.253461e+001
4.205153e+002, 5.188099e+001
4.209974e+002, 5.175250e+001
4.214795e+002, 5.197863e+001
4.219616e+002, 5.213422e+001
4.224437e+002, 5.202694e+001
4.229258e+002, 5.190070e+001
4.234080e+002, 5.192069e+001
4.238901e+002, 5.223121e+001
4.243722e+002, 5.220340e+001
4.248543e+002, 5.145089e+001
4.253364e+002, 5.050217e+001
4.258185e+002, 4.988078e+001
4.263007e+002, 4.983232e+001
4.267828e+002, 4.974187e+001
4.272649e+002, 4.947452e+001
4.277470e+002, 4.907743e+001
4.282291e+002, 4.889347e+001
4.287112e+002, 4.909442e+001
4.291934e+002, 4.920973e+001
4.296755e+002, 4.890242e+001
4.301576e+002, 4.803463e+001
4.306397e+002, 4.747874e+001
4.311218e+002, 4.733368e+001
4.316039e+002, 4.738365e+001
4.320861e+002, 4.732201e+001
4.325682e+002, 4.714730e+001
4.330503e+002, 4.685010e+001
4.335324e+002, 4.633080e+001
4.340145e+002, 4.570310e+001
4.344966e+002, 4.544521e+001
4.349788e+002, 4.557032e+001
4.354609e+002, 4.567713e+001
4.359430e+002, 4.530793e+001
4.364251e+002, 4.464915e+001
4.369072e+002, 4.423108e+001
4.373893e+002, 4.417754e+001
4.378715e+002, 4.430800e+001
4.383536e+002, 4.450221e+001
4.388357e+002, 4.472531e+001
4.393178e+002, 4.487996e+001
4.397999e+002, 4.488183e+001
4.402820e+002, 4.481315e+001
4.407642e+002, 4.476978e+001
4.412463e+002, 4.475624e+001
4.417284e+002, 4.465017e+001
4.422105e+002, 4.418171e+001
4.426926e+002, 4.368005e+001
4.431747e+002, 4.347245e+001
4.436569e+002, 4.401058e+001
4.441390e+002, 4.441545e+001
4.446211e+002, 4.433020e+001
4.451032e+002, 4.389294e+001
4.455853e+002, 4.350609e+001
4.460674e+002, 4.307076e+001
4.465496e+002, 4.284938e+001
4.470317e+002, 4.304613e+001
4.475138e+002, 4.392804e+001
4.479959e+002, 4.434571e+001
4.484780e+002, 4.402910e+001
4.489601e+002, 4.344161e+001
4.494423e+002, 4.301077e+001
4.499244e+002, 4.274038e+001
4.504065e+002, 4.265047e+001
4.508886e+002, 4.286440e+001
4.513707e+002, 4.325307e+001
4.518528e+002, 4.316059e+001
4.523350e+002, 4.236136e+001
4.528171e+002, 4.176554e+001
4.532992e+002, 4.203708e+001
4.537813e+002, 4.319388e+001
4.542634e+002, 4.384208e+001
4.547455e+002, 4.388240e+001
4.552277e+002, 4.365175e+001
4.557098e+002, 4.348977e+001
4.561919e+002, 4.340977e+001
4.566740e+002, 4.351709e+001
4.571561e+002, 4.396300e+001
4.576382e+002, 4.451427e+001
4.581204e+002, 4.474955e+001
4.586025e+002, 4.469698e+001
4.590846e+002, 4.454452e+001
4.595667e+002, 4.429979e+001
4.600488e+002, 4.407846e+001
4.605309e+002, 4.405870e+001
4.610131e+002, 4.430061e+001
4.614952e+002, 4.457854e+001
4.619773e+002, 4.480935e+001
4.624594e+002, 4.495679e+001
4.629415e+002, 4.496941e+001
4.634236e+002, 4.453578e+001
4.639058e+002, 4.423467e+001
4.643879e+002, 4.442528e+001
4.648700e+002, 4.505009e+001
4.653521e+002, 4.554751e+001
4.658342e+002, 4.579459e+001
4.663163e+002, 4.586985e+001
4.667985e+002, 4.578465e+001
4.672806e+002, 4.529026e+001
4.677627e+002, 4.510630e+001
4.682448e+002, 4.548297e+001
4.687269e+002, 4.607384e+001
4.692090e+002, 4.639341e+001
4.696912e+002, 4.634092e+001
4.701733e+002, 4.620132e+001
4.706554e+002, 4.602180e+001
4.711375e+002, 4.580495e+001
4.716196e+002, 4.553746e+001
4.721017e+002, 4.515215e+001
4.725839e+002, 4.490368e+001
4.730660e+002, 4.507305e+001
4.735481e+002, 4.566571e+001
4.740302e+002, 4.593865e+001
4.745123e+002, 4.576381e+001
4.749944e+002, 4.545123e+001
4.754766e+002, 4.551214e+001
4.759587e+002, 4.588295e+001
4.764408e+002, 4.615127e+001
4.769229e+002, 4.607531e+001
4.774050e+002, 4.584349e+001
4.778871e+002, 4.572913e+001
4.783693e+002, 4.573217e+001
4.788514e+002, 4.584924e+001
4.793335e+002, 4.616609e+001
4.798156e+002, 4.655970e+001
4.802977e+002, 4.686907e+001
4.807798e+002, 4.703733e+001
4.812620e+002, 4.721493e+001
4.817441e+002, 4.755438e+001
4.822262e+002, 4.794280e+001
4.827083e+002, 4.821382e+001
4.831904e+002, 4.823230e+001
4.836725e+002, 4.820028e+001
4.841547e+002, 4.814259e+001
4.846368e+002, 4.807113e+001
4.851189e+002, 4.811070e+001
4.856010e+002, 4.826712e+001
4.860831e+002, 4.855201e+001
4.865652e+002, 4.899378e+001
4.870474e+002, 4.978689e+001
4.875295e+002, 5.031747e+001
4.880116e+002, 5.048691e+001
4.884937e+002, 5.046083e+001
4.889758e+002, 5.046075e+001
4.894579e+002, 5.048912e+001
4.899401e+002, 5.052929e+001
4.904222e+002, 5.054466e+001
4.909043e+002, 5.057246e+001
4.913864e+002, 5.084983e+001
4.918685e+002, 5.142067e+001
4.923506e+002, 5.194537e+001
4.928328e+002, 5.215016e+001
4.933149e+002, 5.210046e+001
4.937970e+002, 5.211570e+001
4.942791e+002, 5.223755e+001
4.947612e+002, 5.233465e+001
4.952433e+002, 5.214904e+001
4.957255e+002, 5.181641e+001
4.962076e+002, 5.169056e+001
4.966897e+002, 5.207378e+001
4.971718e+002, 5.254956e+001
4.976539e+002, 5.272471e+001
4.981360e+002, 5.264776e+001
4.986182e+002, 5.250682e+001
4.991003e+002, 5.236414e+001
4.995824e+002, 5.221668e+001
5.000645e+002, 5.201397e+001
5.005466e+002, 5.168386e+001
5.010287e+002, 5.159425e+001
5.015109e+002, 5.212476e+001
5.019930e+002, 5.282417e+001
5.024751e+002, 5.323540e+001
5.029572e+002, 5.316426e+001
5.034393e+002, 5.295543e+001
5.039214e+002, 5.251081e+001
5.044036e+002, 5.194848e+001
5.048857e+002, 5.169011e+001
5.053678e+002, 5.189333e+001
5.058499e+002, 5.212657e+001
5.063320e+002, 5.223057e+001
5.068141e+002, 5.220199e+001
5.072963e+002, 5.207390e+001
5.077784e+002, 5.180801e+001
5.082605e+002, 5.154097e+001
5.087426e+002, 5.141593e+001
5.092247e+002, 5.142548e+001
5.097068e+002, 5.149125e+001
5.101890e+002, 5.166498e+001
5.106711e+002, 5.176399e+001
5.111532e+002, 5.132452e+001
5.116353e+002, 5.046886e+001
5.121174e+002, 4.979687e+001
5.125995e+002, 4.980904e+001
5.130817e+002, 5.006688e+001
5.135638e+002, 4.997550e+001
5.140459e+002, 4.954336e+001
5.145280e+002, 4.923438e+001
5.150101e+002, 4.947784e+001
5.154922e+002, 4.991352e+001
5.159744e+002, 5.020262e+001
5.164565e+002, 5.022984e+001
5.169386e+002, 5.019874e+001
5.174207e+002, 5.011710e+001
5.179028e+002, 5.003117e+001
5.183849e+002, 5.001647e+001
5.188671e+002, 5.010550e+001
5.193492e+002, 5.024666e+001
5.198313e+002, 5.042814e+001
5.203134e+002, 5.064877e+001
5.207955e+002, 5.094656e+001
5.212776e+002, 5.147179e+001
5.217598e+002, 5.185157e+001
5.222419e+002, 5.178203e+001
5.227240e+002, 5.110991e+001
5.232061e+002, 5.082436e+001
5.236882e+002, 5.100434e+001
5.241703e+002, 5.143427e+001
5.246525e+002, 5.191581e+001
5.251346e+002, 5.243911e+001
5.256167e+002, 5.281260e+001
5.260988e+002, 5.300501e+001
5.265809e+002, 5.299103e+001
5.270630e+002, 5.250930e+001
5.275452e+002, 5.167520e+001
5.280273e+002, 5.113311e+001
5.285094e+002, 5.154710e+001
5.289915e+002, 5.230878e+001
5.294736e+002, 5.278804e+001
5.299557e+002, 5.293914e+001
5.304379e+002, 5.281611e+001
5.309200e+002, 5.218682e+001
5.314021e+002, 5.142567e+001
5.318842e+002, 5.091026e+001
5.323663e+002, 5.095840e+001
5.328484e+002, 5.093254e+001
5.333306e+002, 5.054504e+001
5.338127e+002, 4.998531e+001
5.342948e+002, 4.966595e+001
5.347769e+002, 4.985555e+001
5.352590e+002, 5.001011e+001
5.357411e+002, 4.998243e+001
5.362233e+002, 4.978086e+001
5.367054e+002, 4.972261e+001
5.371875e+002, 4.997161e+001
5.376696e+002, 5.004967e+001
5.381517e+002, 4.947641e+001
5.386339e+002, 4.816846e+001
5.391160e+002, 4.748350e+001
5.395981e+002, 4.762584e+001
5.400802e+002, 4.803572e+001
5.405623e+002, 4.794983e+001
5.410444e+002, 4.745164e+001
5.415266e+002, 4.701942e+001
5.420087e+002, 4.683680e+001
5.424908e+002, 4.675389e+001
5.429729e+002, 4.655440e+001
5.434550e+002, 4.626811e+001
5.439371e+002, 4.600855e+001
5.444193e+002, 4.588350e+001
5.449014e+002, 4.578040e+001
5.453835e+002, 4.554637e+001
5.458656e+002, 4.515471e+001
5.463477e+002, 4.493639e+001
5.468298e+002, 4.529897e+001
5.473120e+002, 4.573792e+001
5.477941e+002, 4.583058e+001
5.482762e+002, 4.512913e+001
5.487583e+002, 4.460269e+001
5.492404e+002, 4.438245e+001
5.497225e+002, 4.436019e+001
5.502047e+002, 4.437317e+001
5.506868e+002, 4.448751e+001
5.511689e+002, 4.450274e+001
5.516510e+002, 4.433150e+001
5.521331e+002, 4.401276e+001
5.526152e+002, 4.382716e+001
5.530974e+002, 4.380499e+001
5.535795e+002, 4.376879e+001
5.540616e+002, 4.352073e+001
5.545437e+002, 4.312858e+001
5.550258e+002, 4.309185e+001
5.555079e+002, 4.350169e+001
5.559901e+002, 4.381005e+001
5.564722e+002, 4.322752e+001
5.569543e+002, 4.214145e+001
5.574364e+002, 4.136422e+001
5.579185e+002, 4.120961e+001
5.584006e+002, 4.130605e+001
5.588828e+002, 4.143832e+001
5.593649e+002, 4.159247e+001
5.598470e+002, 4.173974e+001
5.603291e+002, 4.193403e+001
5.608112e+002, 4.205705e+001
5.612933e+002, 4.206908e+001
5.617755e+002, 4.196685e+001
5.622576e+002, 4.173577e+001
5.627397e+002, 4.107292e+001
5.632218e+002, 4.052954e+001
5.637039e+002, 4.038972e+001
5.641860e+002, 4.080696e+001
5.646682e+002, 4.128382e+001
5.651503e+002, 4.199534e+001
5.656324e+002, 4.255546e+001
5.661145e+002, 4.224831e+001
5.665966e+002, 4.092072e+001
5.670787e+002, 4.023329e+001
5.675609e+002, 4.076408e+001
5.680430e+002, 4.185714e+001
5.685251e+002, 4.205730e+001
5.690072e+002, 4.145543e+001
5.694893e+002, 4.076071e+001
5.699714e+002, 4.030732e+001
5.704536e+002, 4.001240e+001
5.709357e+002, 3.978800e+001
5.714178e+002, 3.962673e+001
5.718999e+002, 3.945311e+001
5.723820e+002, 3.918968e+001
5.728641e+002, 3.890965e+001
5.733463e+002, 3.867439e+001
5.738284e+002, 3.848195e+001
5.743105e+002, 3.836216e+001
5.747926e+002, 3.840833e+001
5.752747e+002, 3.850084e+001
5.757568e+002, 3.848714e+001
5.762390e+002, 3.822452e+001
5.767211e+002, 3.803056e+001
5.772032e+002, 3.797312e+001
5.776853e+002, 3.800653e+001
5.781674e+002, 3.795977e+001
5.786495e+002, 3.778553e+001
5.791317e+002, 3.767554e+001
5.796138e+002, 3.776919e+001
5.800959e+002, 3.802082e+001
5.805780e+002, 3.799719e+001
5.810601e+002, 3.767373e+001
5.815422e+002, 3.734575e+001
5.820244e+002, 3.733290e+001
5.825065e+002, 3.750056e+001
5.829886e+002, 3.750225e+001
5.834707e+002, 3.727404e+001
5.839528e+002, 3.697807e+001
5.844349e+002, 3.666964e+001
5.849171e+002, 3.640973e+001
5.853992e+002, 3.629034e+001
5.858813e+002, 3.645802e+001
5.863634e+002, 3.664845e+001
5.868455e+002, 3.676746e+001
5.873276e+002, 3.682656e+001
5.878098e+002, 3.685192e+001
5.882919e+002, 3.683413e+001
5.887740e+002, 3.679699e+001
5.892561e+002, 3.676387e+001
5.897382e+002, 3.673616e+001
5.902203e+002, 3.660080e+001
5.907025e+002, 3.629835e+001
5.911846e+002, 3.599738e+001
5.916667e+002, 3.584097e+001
5.921488e+002, 3.584744e+001
5.926309e+002, 3.569103e+001
5.931130e+002, 3.532166e+001
5.935952e+002, 3.493320e+001
5.940773e+002, 3.475242e+001
5.945594e+002, 3.475233e+001
5.950415e+002, 3.484478e+001
5.955236e+002, 3.505003e+001
5.960057e+002, 3.525732e+001
5.964879e+002, 3.534130e+001
5.969700e+002, 3.533043e+001
5.974521e+002, 3.528962e+001
5.979342e+002, 3.525938e+001
5.984163e+002, 3.519761e+001
5.988984e+002, 3.500974e+001
5.993806e+002, 3.472528e+001
5.998627e+002, 3.461800e+001
6.003448e+002, 3.504206e+001
6.008269e+002, 3.540514e+001
6.013090e+002, 3.535289e+001
6.017911e+002, 3.466214e+001
6.022733e+002, 3.448340e+001
6.027554e+002, 3.508873e+001
6.032375e+002, 3.582262e+001
6.037196e+002, 3.600163e+001
6.042017e+002, 3.555573e+001
6.046838e+002, 3.533044e+001
6.051660e+002, 3.549538e+001
6.056481e+002, 3.575122e+001
6.061302e+002, 3.547024e+001
6.066123e+002, 3.480098e+001
6.070944e+002, 3.445387e+001
6.075765e+002, 3.492918e+001
6.080587e+002, 3.561492e+001
6.085408e+002, 3.576424e+001
6.090229e+002, 3.550386e+001
6.095050e+002, 3.529388e+001
6.099871e+002, 3.546268e+001
6.104692e+002, 3.568222e+001
6.109514e+002, 3.573127e+001
6.114335e+002, 3.558363e+001
6.119156e+002, 3.549897e+001
6.123977e+002, 3.560615e+001
6.128798e+002, 3.573311e+001
6.133619e+002, 3.578685e+001
6.138441e+002, 3.578207e+001
6.143262e+002, 3.564142e+001
6.148083e+002, 3.526598e+001
6.152904e+002, 3.488771e+001
6.157725e+002, 3.488009e+001
6.162546e+002, 3.527605e+001
6.167368e+002, 3.544408e+001
6.172189e+002, 3.518688e+001
6.177010e+002, 3.477904e+001
6.181831e+002, 3.467598e+001
6.186652e+002, 3.484735e+001
6.191473e+002, 3.518096e+001
6.196295e+002, 3.587543e+001
6.201116e+002, 3.653119e+001
6.205937e+002, 3.665294e+001
6.210758e+002, 3.633376e+001
6.215579e+002, 3.604252e+001
6.220400e+002, 3.607786e+001
6.225222e+002, 3.615809e+001
6.230043e+002, 3.606454e+001
6.234864e+002, 3.570085e+001
6.239685e+002, 3.561901e+001
6.244506e+002, 3.621687e+001
6.249327e+002, 3.682378e+001
6.254149e+002, 3.694865e+001
6.258970e+002, 3.632481e+001
6.263791e+002, 3.605267e+001
6.268612e+002, 3.627508e+001
6.273433e+002, 3.667725e+001
6.278254e+002, 3.677758e+001
6.283076e+002, 3.659477e+001
6.287897e+002, 3.656078e+001
6.292718e+002, 3.686531e+001
6.297539e+002, 3.723595e+001
6.302360e+002, 3.713329e+001
6.307181e+002, 3.670955e+001
6.312003e+002, 3.644824e+001
6.316824e+002, 3.679667e+001
6.321645e+002, 3.724151e+001
6.326466e+002, 3.732136e+001
6.331287e+002, 3.709896e+001
6.336108e+002, 3.702128e+001
6.340930e+002, 3.744582e+001
6.345751e+002, 3.788319e+001
6.350572e+002, 3.804396e+001
6.355393e+002, 3.783270e+001
6.360214e+002, 3.780070e+001
6.365035e+002, 3.804626e+001
6.369857e+002, 3.835158e+001
6.374678e+002, 3.852977e+001
6.379499e+002, 3.854671e+001
6.384320e+002, 3.868550e+001
6.389141e+002, 3.897868e+001
6.393962e+002, 3.934749e+001
6.398784e+002, 3.976272e+001
6.403605e+002, 4.018002e+001
6.408426e+002, 4.039113e+001
6.413247e+002, 4.022760e+001
6.418068e+002, 4.003515e+001
6.422889e+002, 4.023842e+001
6.427711e+002, 4.070067e+001
6.432532e+002, 4.111617e+001
6.437353e+002, 4.116820e+001
6.442174e+002, 4.131089e+001
6.446995e+002, 4.183297e+001
6.451816e+002, 4.267684e+001
6.456638e+002, 4.343320e+001
6.461459e+002, 4.402587e+001
6.466280e+002, 4.452961e+001
6.471101e+002, 4.491984e+001
6.475922e+002, 4.517473e+001
6.480743e+002, 4.569926e+001
6.485565e+002, 4.660886e+001
6.490386e+002, 4.747874e+001
6.495207e+002, 4.781624e+001
6.500028e+002, 4.771873e+001
6.504849e+002, 4.813079e+001
6.509670e+002, 4.917031e+001
6.514492e+002, 5.033125e+001
6.519313e+002, 5.096425e+001
6.524134e+002, 5.134627e+001
6.528955e+002, 5.202235e+001
6.533776e+002, 5.328886e+001
6.538597e+002, 5.454263e+001
6.543419e+002, 5.536145e+001
6.548240e+002, 5.593817e+001
6.553061e+002, 5.655389e+001
6.557882e+002, 5.722479e+001
6.562703e+002, 5.801097e+001
6.567524e+002, 5.893113e+001
6.572346e+002, 5.997674e+001
6.577167e+002, 6.119407e+001
6.581988e+002, 6.281001e+001
6.586809e+002, 6.405965e+001
6.591630e+002, 6.451224e+001
6.596451e+002, 6.436930e+001
6.601273e+002, 6.491926e+001
6.606094e+002, 6.620627e+001
6.610915e+002, 6.746004e+001
6.615736e+002, 6.809852e+001
6.620557e+002, 6.837182e+001
6.625378e+002, 6.871924e+001
6.630200e+002, 6.916438e+001
6.635021e+002, 6.974910e+001
6.639842e+002, 7.082986e+001
6.644663e+002, 7.188154e+001
6.649484e+002, 7.236425e+001
6.654305e+002, 7.203216e+001
6.659127e+002, 7.160124e+001
6.663948e+002, 7.120705e+001
6.668769e+002, 7.081278e+001
6.673590e+002, 7.039320e+001
6.678411e+002, 7.003695e+001
6.683232e+002, 6.947256e+001
6.688054e+002, 6.865347e+001
6.692875e+002, 6.765659e+001
6.697696e+002, 6.658763e+001
6.702517e+002, 6.544467e+001
6.707338e+002, 6.432229e+001
6.712159e+002, 6.327665e+001
6.716981e+002, 6.224696e+001
6.721802e+002, 6.110769e+001
6.726623e+002, 5.989806e+001
6.731444e+002, 5.871694e+001
6.736265e+002, 5.756187e+001
6.741086e+002, 5.651665e+001
6.745908e+002, 5.571167e+001
6.750729e+002, 5.511336e+001
6.755550e+002, 5.445261e+001
6.760371e+002, 5.364367e+001
6.765192e+002, 5.275728e+001
6.770013e+002, 5.176864e+001
6.774835e+002, 5.065261e+001
6.779656e+002, 4.968581e+001
6.784477e+002, 4.885225e+001
6.789298e+002, 4.818177e+001
6.794119e+002, 4.776101e+001
6.798940e+002, 4.758722e+001
6.803762e+002, 4.728165e+001
6.808583e+002, 4.680245e+001
6.813404e+002, 4.635022e+001
6.818225e+002, 4.622705e+001
6.823046e+002, 4.626522e+001
6.827867e+002, 4.605976e+001
6.832689e+002, 4.543533e+001
6.837510e+002, 4.488393e+001
6.842331e+002, 4.502095e+001
6.847152e+002, 4.535975e+001
6.851973e+002, 4.527788e+001
6.856794e+002, 4.398295e+001
6.861616e+002, 4.300441e+001
6.866437e+002, 4.283251e+001
6.871258e+002, 4.308665e+001
6.876079e+002, 4.310157e+001
6.880900e+002, 4.278096e+001
6.885721e+002, 4.247755e+001
6.890543e+002, 4.229633e+001
6.895364e+002, 4.217687e+001
6.900185e+002, 4.190983e+001
6.905006e+002, 4.150170e+001
6.909827e+002, 4.112434e+001
6.914648e+002, 4.089650e+001
6.919470e+002, 4.073309e+001
6.924291e+002, 4.041066e+001
6.929112e+002, 3.998687e+001
6.933933e+002, 3.978186e+001
6.938754e+002, 4.030787e+001
6.943575e+002, 4.084497e+001
6.948397e+002, 4.088403e+001
6.953218e+002, 4.034882e+001
6.958039e+002, 3.982330e+001
6.962860e+002, 3.925243e+001
6.967681e+002, 3.884167e+001
6.972502e+002, 3.871512e+001
6.977324e+002, 3.892734e+001
6.982145e+002, 3.918098e+001
6.986966e+002, 3.949701e+001
6.991787e+002, 3.979612e+001
6.996608e+002, 4.002318e+001
7.001429e+002, 4.016992e+001
7.006251e+002, 4.019753e+001
7.011072e+002, 4.009416e+001
7.015893e+002, 3.990725e+001
7.020714e+002, 3.961307e+001
7.025535e+002, 3.928667e+001
7.030356e+002, 3.902570e+001
7.035178e+002, 3.879297e+001
7.039999e+002, 3.874824e+001
7.044820e+002, 3.913921e+001
7.049641e+002, 3.970348e+001
7.054462e+002, 4.003687e+001
7.059283e+002, 4.009813e+001
7.064105e+002, 3.994448e+001
7.068926e+002, 3.944844e+001
7.073747e+002, 3.881998e+001
7.078568e+002, 3.860365e+001
7.083389e+002, 3.883068e+001
7.088210e+002, 3.902964e+001
7.093032e+002, 3.901123e+001
7.097853e+002, 3.889558e+001
7.102674e+002, 3.897594e+001
7.107495e+002, 3.919362e+001
7.112316e+002, 3.929830e+001
7.117137e+002, 3.880329e+001
7.121959e+002, 3.843190e+001
7.126780e+002, 3.899169e+001
7.131601e+002, 4.031500e+001
7.136422e+002, 4.110479e+001
7.141243e+002, 4.060091e+001
7.146064e+002, 3.986983e+001
7.150886e+002, 3.931799e+001
7.155707e+002, 3.894624e+001
7.160528e+002, 3.862080e+001
7.165349e+002, 3.835550e+001
7.170170e+002, 3.809495e+001
7.174991e+002, 3.771941e+001
7.179813e+002, 3.727921e+001
7.184634e+002, 3.722263e+001
7.189455e+002, 3.757589e+001
7.194276e+002, 3.796992e+001
7.199097e+002, 3.811302e+001
7.203918e+002, 3.809400e+001
7.208740e+002, 3.804631e+001
7.213561e+002, 3.800813e+001
7.218382e+002, 3.782025e+001
7.223203e+002, 3.705271e+001
7.228024e+002, 3.630627e+001
7.232845e+002, 3.612363e+001
7.237667e+002, 3.700775e+001
7.242488e+002, 3.768009e+001
7.247309e+002, 3.822643e+001
7.252130e+002, 3.847468e+001
7.256951e+002, 3.803539e+001
7.261772e+002, 3.683183e+001
7.266594e+002, 3.620297e+001
7.271415e+002, 3.647480e+001
7.276236e+002, 3.705283e+001
7.281057e+002, 3.711161e+001
7.285878e+002, 3.682307e+001
7.290699e+002, 3.663977e+001
7.295521e+002, 3.676497e+001
7.300342e+002, 3.695079e+001
7.305163e+002, 3.713416e+001
7.309984e+002, 3.724434e+001
7.314805e+002, 3.715506e+001
7.319626e+002, 3.635462e+001
7.324448e+002, 3.595119e+001
7.329269e+002, 3.639117e+001
7.334090e+002, 3.729403e+001
7.338911e+002, 3.754302e+001
7.343732e+002, 3.694997e+001
7.348553e+002, 3.647643e+001
7.353375e+002, 3.647203e+001
7.358196e+002, 3.674584e+001
7.363017e+002, 3.683987e+001
7.367838e+002, 3.676573e+001
7.372659e+002, 3.659446e+001
7.377480e+002, 3.615940e+001
7.382302e+002, 3.579800e+001
7.387123e+002, 3.591453e+001
7.391944e+002, 3.641943e+001
7.396765e+002, 3.685543e+001
7.401586e+002, 3.705420e+001
7.406407e+002, 3.715000e+001
7.411229e+002, 3.716448e+001
7.416050e+002, 3.710573e+001
7.420871e+002, 3.707857e+001
7.425692e+002, 3.704377e+001
7.430513e+002, 3.713456e+001
7.435334e+002, 3.751081e+001
7.440156e+002, 3.811401e+001
7.444977e+002, 3.842822e+001
7.449798e+002, 3.845584e+001
7.454619e+002, 3.834320e+001
7.459440e+002, 3.810841e+001
7.464261e+002, 3.784874e+001
7.469083e+002, 3.762854e+001
7.473904e+002, 3.745174e+001
7.478725e+002, 3.751564e+001
7.483546e+002, 3.820459e+001
7.488367e+002, 3.895104e+001
7.493188e+002, 3.933833e+001
7.498010e+002, 3.919589e+001
7.502831e+002, 3.922421e+001
7.507652e+002, 3.955096e+001
7.512473e+002, 3.985111e+001
7.517294e+002, 3.979284e+001
7.522115e+002, 3.938400e+001
7.526937e+002, 3.919678e+001
7.531758e+002, 3.926579e+001
7.536579e+002, 3.955077e+001
7.541400e+002, 4.033571e+001
7.546221e+002, 4.120630e+001
7.551042e+002, 4.138354e+001
7.555864e+002, 4.053828e+001
7.560685e+002, 3.973532e+001
7.565506e+002, 3.952156e+001
7.570327e+002, 3.964377e+001
7.575148e+002, 3.985992e+001
7.579969e+002, 4.032732e+001
7.584791e+002, 4.058795e+001
7.589612e+002, 4.056742e+001
7.594433e+002, 4.042253e+001
7.599254e+002, 4.028820e+001
7.604075e+002, 4.015441e+001
7.608896e+002, 4.030179e+001
7.613718e+002, 4.086251e+001
7.618539e+002, 4.142539e+001
7.623360e+002, 4.132228e+001
7.628181e+002, 4.083021e+001
7.633002e+002, 4.053028e+001
7.637823e+002, 4.063869e+001
7.642645e+002, 4.089360e+001
7.647466e+002, 4.130382e+001
7.652287e+002, 4.172216e+001
7.657108e+002, 4.193475e+001
7.661929e+002, 4.175772e+001
7.666750e+002, 4.157408e+001
7.671572e+002, 4.139174e+001
7.676393e+002, 4.123738e+001
7.681214e+002, 4.115004e+001
7.686035e+002, 4.112895e+001
7.690856e+002, 4.122127e+001
7.695677e+002, 4.148610e+001
7.700499e+002, 4.178064e+001
7.705320e+002, 4.192056e+001
7.710141e+002, 4.191156e+001
7.714962e+002, 4.176616e+001
7.719783e+002, 4.122293e+001
7.724604e+002, 4.082531e+001
7.729426e+002, 4.103801e+001
7.734247e+002, 4.159538e+001
7.739068e+002, 4.187290e+001
7.743889e+002, 4.156562e+001
7.748710e+002, 4.130363e+001
7.753531e+002, 4.120087e+001
7.758353e+002, 4.120914e+001
7.763174e+002, 4.119789e+001
7.767995e+002, 4.116712e+001
7.772816e+002, 4.112716e+001
7.777637e+002, 4.108460e+001
7.782458e+002, 4.103272e+001
7.787280e+002, 4.094690e+001
7.792101e+002, 4.083982e+001
7.796922e+002, 4.075315e+001
7.801743e+002, 4.072865e+001
7.806564e+002, 4.070759e+001
7.811385e+002, 4.061897e+001
7.816207e+002, 4.049735e+001
7.821028e+002, 4.050101e+001
7.825849e+002, 4.068534e+001
7.830670e+002, 4.092467e+001
7.835491e+002, 4.125445e+001
7.840313e+002, 4.159732e+001
7.845134e+002, 4.158192e+001
7.849955e+002, 4.120115e+001
7.854776e+002, 4.089061e+001
7.859597e+002, 4.099055e+001
7.864418e+002, 4.118209e+001
7.869240e+002, 4.083472e+001
7.874061e+002, 4.010571e+001
7.878882e+002, 3.957682e+001
7.883703e+002, 3.959393e+001
7.888524e+002, 3.984249e+001
7.893345e+002, 4.039131e+001
7.898167e+002, 4.113296e+001
7.902988e+002, 4.128539e+001
7.907809e+002, 4.045744e+001
7.912630e+002, 3.975201e+001
7.917451e+002, 3.958290e+001
7.922272e+002, 3.982290e+001
7.927094e+002, 3.989931e+001
7.931915e+002, 3.981753e+001
7.936736e+002, 3.972587e+001
7.941557e+002, 3.968263e+001
7.946378e+002, 3.969326e+001
7.951199e+002, 3.987149e+001
7.956021e+002, 4.014347e+001
7.960842e+002, 4.018613e+001
7.965663e+002, 3.947323e+001
7.970484e+002, 3.886963e+001
7.975305e+002, 3.883961e+001
7.980126e+002, 3.931741e+001
7.984948e+002, 3.974819e+001
7.989769e+002, 4.017631e+001
7.994590e+002, 4.043498e+001
7.999411e+002, 4.040605e+001
8.004232e+002, 4.016422e+001
8.009053e+002, 3.995582e+001
8.013875e+002, 3.978704e+001
8.018696e+002, 3.971778e+001
8.023517e+002, 3.984861e+001
8.028338e+002, 4.004993e+001
8.033159e+002, 4.023756e+001
8.037980e+002, 4.039466e+001
8.042802e+002, 4.044469e+001
8.047623e+002, 4.026947e+001
8.052444e+002, 4.007262e+001
8.057265e+002, 3.983768e+001
8.062086e+002, 3.960765e+001
8.066907e+002, 3.985821e+001
8.071729e+002, 4.073212e+001
8.076550e+002, 4.147620e+001
8.081371e+002, 4.171563e+001
8.086192e+002, 4.158017e+001
8.091013e+002, 4.129990e+001
8.095834e+002, 4.091779e+001
8.100656e+002, 4.067833e+001
8.105477e+002, 4.091991e+001
8.110298e+002, 4.118957e+001
8.115119e+002, 4.111253e+001
8.119940e+002, 4.073729e+001
8.124761e+002, 4.051849e+001
8.129583e+002, 4.068900e+001
8.134404e+002, 4.081466e+001
8.139225e+002, 4.073942e+001
8.144046e+002, 4.050782e+001
8.148867e+002, 4.035056e+001
8.153688e+002, 4.026454e+001
8.158510e+002, 4.034090e+001
8.163331e+002, 4.072704e+001
8.168152e+002, 4.124809e+001
8.172973e+002, 4.171863e+001
8.177794e+002, 4.209066e+001
8.182615e+002, 4.216117e+001
8.187437e+002, 4.138573e+001
8.192258e+002, 4.071488e+001
8.197079e+002, 4.069962e+001
8.201900e+002, 4.125041e+001
8.206721e+002, 4.155944e+001
8.211542e+002, 4.151263e+001
8.216364e+002, 4.148112e+001
8.221185e+002, 4.160649e+001
8.226006e+002, 4.182574e+001
8.230827e+002, 4.196049e+001
8.235648e+002, 4.200861e+001
8.240469e+002, 4.195932e+001
8.245291e+002, 4.173810e+001
8.250112e+002, 4.147171e+001
8.254933e+002, 4.131799e+001
8.259754e+002, 4.122408e+001
8.264575e+002, 4.101936e+001
8.269396e+002, 4.031253e+001
8.274218e+002, 3.988913e+001
8.279039e+002, 4.004872e+001
8.283860e+002, 4.062234e+001
8.288681e+002, 4.107640e+001
8.293502e+002, 4.142435e+001
8.298323e+002, 4.158452e+001
8.303145e+002, 4.148607e+001
8.307966e+002, 4.123751e+001
8.312787e+002, 4.104380e+001
8.317608e+002, 4.087565e+001
8.322429e+002, 4.064936e+001
8.327250e+002, 4.017993e+001
8.332072e+002, 3.978608e+001
8.336893e+002, 3.966974e+001
8.341714e+002, 3.975655e+001
8.346535e+002, 3.985583e+001
8.351356e+002, 3.998174e+001
8.356177e+002, 4.005803e+001
8.360999e+002, 4.004341e+001
8.365820e+002, 3.999856e+001
8.370641e+002, 4.013099e+001
8.375462e+002, 4.041021e+001
8.380283e+002, 4.045007e+001
8.385104e+002, 3.998108e+001
8.389926e+002, 3.949184e+001
8.394747e+002, 3.959465e+001
8.399568e+002, 4.004477e+001
8.404389e+002, 4.041808e+001
8.409210e+002, 4.064545e+001
8.414031e+002, 4.068325e+001
8.418853e+002, 4.043354e+001
8.423674e+002, 4.003195e+001
8.428495e+002, 3.957664e+001
8.433316e+002, 3.896074e+001
8.438137e+002, 3.891829e+001
8.442958e+002, 3.972882e+001
8.447780e+002, 4.073236e+001
8.452601e+002, 4.087367e+001
8.457422e+002, 4.044805e+001
8.462243e+002, 4.016355e+001
8.467064e+002, 4.021585e+001
8.471885e+002, 4.042751e+001
8.476707e+002, 4.086629e+001
8.481528e+002, 4.133123e+001
8.486349e+002, 4.157454e+001
8.491170e+002, 4.137948e+001
8.495991e+002, 4.133349e+001
8.500812e+002, 4.151090e+001
8.505634e+002, 4.173773e+001
8.510455e+002, 4.179316e+001
8.515276e+002, 4.170625e+001
8.520097e+002, 4.173004e+001
8.524918e+002, 4.191965e+001
8.529739e+002, 4.205715e+001
8.534561e+002, 4.180538e+001
8.539382e+002, 4.146266e+001
8.544203e+002, 4.139348e+001
8.549024e+002, 4.176527e+001
8.553845e+002, 4.205623e+001
8.558666e+002, 4.190351e+001
8.563488e+002, 4.187946e+001
8.568309e+002, 4.252594e+001
8.573130e+002, 4.405076e+001
8.577951e+002, 4.454143e+001
8.582772e+002, 4.386818e+001
8.587593e+002, 4.299012e+001
8.592415e+002, 4.274707e+001
8.597236e+002, 4.286313e+001
8.602057e+002, 4.284826e+001
8.606878e+002, 4.266274e+001
8.611699e+002, 4.259376e+001
8.616520e+002, 4.282107e+001
8.621342e+002, 4.317430e+001
8.626163e+002, 4.360791e+001
8.630984e+002, 4.412359e+001
8.635805e+002, 4.448616e+001
8.640626e+002, 4.469592e+001
8.645447e+002, 4.474654e+001
8.650269e+002, 4.462182e+001
8.655090e+002, 4.433775e+001
8.659911e+002, 4.388170e+001
8.664732e+002, 4.328707e+001
8.669553e+002, 4.276809e+001
8.674374e+002, 4.238734e+001
8.679196e+002, 4.219460e+001
8.684017e+002, 4.227119e+001
8.688838e+002, 4.259130e+001
8.693659e+002, 4.299922e+001
8.698480e+002, 4.365041e+001
8.703301e+002, 4.409205e+001
8.708123e+002, 4.417235e+001
8.712944e+002, 4.396039e+001
8.717765e+002, 4.361174e+001
8.722586e+002, 4.315251e+001
8.727407e+002, 4.283072e+001
8.732228e+002, 4.280492e+001
8.737050e+002, 4.291564e+001
8.741871e+002, 4.309060e+001
8.746692e+002, 4.326831e+001
8.751513e+002, 4.331632e+001
8.756334e+002, 4.306611e+001
8.761155e+002, 4.283424e+001
8.765977e+002, 4.262982e+001
8.770798e+002, 4.250386e+001
8.775619e+002, 4.258922e+001
8.780440e+002, 4.290539e+001
8.785261e+002, 4.315713e+001
8.790082e+002, 4.328328e+001
8.794904e+002, 4.333462e+001
8.799725e+002, 4.335025e+001
8.804546e+002, 4.334841e+001
8.809367e+002, 4.336663e+001
8.814188e+002, 4.344277e+001
8.819009e+002, 4.347799e+001
8.823831e+002, 4.341621e+001
8.828652e+002, 4.330759e+001
8.833473e+002, 4.319324e+001
8.838294e+002, 4.304439e+001
8.843115e+002, 4.302245e+001
8.847936e+002, 4.316923e+001
8.852758e+002, 4.330923e+001
8.857579e+002, 4.324848e+001
8.862400e+002, 4.304840e+001
8.867221e+002, 4.281156e+001
8.872042e+002, 4.254512e+001
8.876863e+002, 4.237477e+001
8.881685e+002, 4.252512e+001
8.886506e+002, 4.267873e+001
8.891327e+002, 4.252978e+001
8.896148e+002, 4.198450e+001
8.900969e+002, 4.184842e+001
8.905790e+002, 4.226802e+001
8.910612e+002, 4.271498e+001
8.915433e+002, 4.286730e+001
8.920254e+002, 4.279299e+001
8.925075e+002, 4.266652e+001
8.929896e+002, 4.251100e+001
8.934717e+002, 4.251509e+001
8.939539e+002, 4.302549e+001
8.944360e+002, 4.352901e+001
8.949181e+002, 4.362218e+001
8.954002e+002, 4.336686e+001
8.958823e+002, 4.324188e+001
8.963644e+002, 4.338706e+001
8.968466e+002, 4.344999e+001
8.973287e+002, 4.330767e+001
8.978108e+002, 4.304740e+001
8.982929e+002, 4.292654e+001
8.987750e+002, 4.291489e+001
8.992571e+002, 4.279448e+001
8.997393e+002, 4.234517e+001
9.002214e+002, 4.196541e+001
9.007035e+002, 4.208962e+001
9.011856e+002, 4.249067e+001
9.016677e+002, 4.278459e+001
9.021498e+002, 4.273667e+001
9.026320e+002, 4.281440e+001
9.031141e+002, 4.319347e+001
9.035962e+002, 4.353320e+001
9.040783e+002, 4.319711e+001
9.045604e+002, 4.226178e+001
9.050425e+002, 4.187221e+001
9.055247e+002, 4.226574e+001
9.060068e+002, 4.276249e+001
9.064889e+002, 4.270430e+001
9.069710e+002, 4.240007e+001
9.074531e+002, 4.217854e+001
9.079352e+002, 4.209549e+001
9.084174e+002, 4.208799e+001
9.088995e+002, 4.209190e+001
9.093816e+002, 4.223078e+001
9.098637e+002, 4.265975e+001
9.103458e+002, 4.338251e+001
9.108279e+002, 4.380459e+001
9.113101e+002, 4.392495e+001
9.117922e+002, 4.379541e+001
9.122743e+002, 4.317453e+001
9.127564e+002, 4.251147e+001
9.132385e+002, 4.237086e+001
9.137206e+002, 4.270191e+001
9.142028e+002, 4.298263e+001
9.146849e+002, 4.295024e+001
9.151670e+002, 4.297414e+001
9.156491e+002, 4.319342e+001
9.161312e+002, 4.354555e+001
9.166133e+002, 4.378312e+001
9.170955e+002, 4.390563e+001
9.175776e+002, 4.401984e+001
9.180597e+002, 4.419544e+001
9.185418e+002, 4.433939e+001
9.190239e+002, 4.433604e+001
9.195060e+002, 4.421505e+001
9.199882e+002, 4.403490e+001
9.204703e+002, 4.358609e+001
9.209524e+002, 4.339024e+001
9.214345e+002, 4.370433e+001
9.219166e+002, 4.416188e+001
9.223987e+002, 4.428396e+001
9.228809e+002, 4.404380e+001
9.233630e+002, 4.390363e+001
9.238451e+002, 4.392855e+001
9.243272e+002, 4.397471e+001
9.248093e+002, 4.380028e+001
9.252914e+002, 4.359599e+001
9.257736e+002, 4.367078e+001
9.262557e+002, 4.413179e+001
9.267378e+002, 4.446373e+001
9.272199e+002, 4.439433e+001
9.277020e+002, 4.426944e+001
9.281841e+002, 4.424741e+001
9.286663e+002, 4.432893e+001
9.291484e+002, 4.449519e+001
9.296305e+002, 4.475474e+001
9.301126e+002, 4.494342e+001
9.305947e+002, 4.491820e+001
9.310768e+002, 4.478971e+001
9.315590e+002, 4.473122e+001
9.320411e+002, 4.470340e+001
9.325232e+002, 4.454224e+001
9.330053e+002, 4.394047e+001
9.334874e+002, 4.350273e+001
9.339695e+002, 4.338873e+001
9.344517e+002, 4.352422e+001
9.349338e+002, 4.379271e+001
9.354159e+002, 4.419777e+001
9.358980e+002, 4.444975e+001
9.363801e+002, 4.443461e+001
9.368622e+002, 4.432141e+001
9.373444e+002, 4.425965e+001
9.378265e+002, 4.424804e+001
9.383086e+002, 4.428645e+001
9.387907e+002, 4.439145e+001
9.392728e+002, 4.451865e+001
9.397549e+002, 4.473845e+001
9.402371e+002, 4.489793e+001
9.407192e+002, 4.482557e+001
9.412013e+002, 4.451006e+001
9.416834e+002, 4.436093e+001
9.421655e+002, 4.439678e+001
9.426476e+002, 4.448938e+001
9.431298e+002, 4.448881e+001
9.436119e+002, 4.451587e+001
9.440940e+002, 4.474895e+001
9.445761e+002, 4.518835e+001
9.450582e+002, 4.553929e+001
9.455403e+002, 4.567723e+001
9.460225e+002, 4.578753e+001
9.465046e+002, 4.595958e+001
9.469867e+002, 4.614040e+001
9.474688e+002, 4.603582e+001
9.479509e+002, 4.567214e+001
9.484330e+002, 4.543358e+001
9.489152e+002, 4.549809e+001
9.493973e+002, 4.573460e+001
9.498794e+002, 4.619881e+001
9.503615e+002, 4.670380e+001
9.508436e+002, 4.691876e+001
9.513257e+002, 4.623835e+001
9.518079e+002, 4.605448e+001
9.522900e+002, 4.669260e+001
9.527721e+002, 4.750817e+001
9.532542e+002, 4.761104e+001
9.537363e+002, 4.712280e+001
9.542184e+002, 4.702985e+001
9.547006e+002, 4.747626e+001
9.551827e+002, 4.790641e+001
9.556648e+002, 4.775701e+001
9.561469e+002, 4.747135e+001
9.566290e+002, 4.741789e+001
9.571111e+002, 4.765153e+001
9.575933e+002, 4.805109e+001
9.580754e+002, 4.870666e+001
9.585575e+002, 4.932696e+001
9.590396e+002, 4.973960e+001
9.595217e+002, 5.001784e+001
9.600038e+002, 5.045307e+001
9.604860e+002, 5.100988e+001
9.609681e+002, 5.150568e+001
9.614502e+002, 5.181352e+001
9.619323e+002, 5.205633e+001
9.624144e+002, 5.228551e+001
9.628965e+002, 5.250108e+001
9.633787e+002, 5.270112e+001
9.638608e+002, 5.290287e+001
9.643429e+002, 5.305817e+001
9.648250e+002, 5.317848e+001
9.653071e+002, 5.321178e+001
9.657892e+002, 5.313976e+001
9.662714e+002, 5.291870e+001
9.667535e+002, 5.233384e+001
9.672356e+002, 5.128290e+001
9.677177e+002, 5.042128e+001
9.681998e+002, 5.018040e+001
9.686819e+002, 5.021940e+001
9.691641e+002, 5.038015e+001
9.696462e+002, 5.068327e+001
9.701283e+002, 5.059196e+001
9.706104e+002, 5.001241e+001
9.710925e+002, 4.955711e+001
9.715746e+002, 4.970933e+001
9.720568e+002, 5.014306e+001
9.725389e+002, 5.029068e+001
9.730210e+002, 5.020750e+001
9.735031e+002, 5.007135e+001
9.739852e+002, 4.993501e+001
9.744673e+002, 4.977919e+001
9.749495e+002, 4.953606e+001
9.754316e+002, 4.930451e+001
9.759137e+002, 4.923717e+001
9.763958e+002, 4.933064e+001
9.768779e+002, 4.970808e+001
9.773600e+002, 5.046605e+001
9.778422e+002, 5.117357e+001
9.783243e+002, 5.132360e+001
9.788064e+002, 5.117901e+001
9.792885e+002, 5.106280e+001
9.797706e+002, 5.104782e+001
9.802527e+002, 5.095860e+001
9.807349e+002, 5.062302e+001
9.812170e+002, 5.040530e+001
9.816991e+002, 5.056706e+001
9.821812e+002, 5.103798e+001
9.826633e+002, 5.126813e+001
9.831454e+002, 5.127285e+001
9.836276e+002, 5.123122e+001
9.841097e+002, 5.120288e+001
9.845918e+002, 5.120974e+001
9.850739e+002, 5.129555e+001
9.855560e+002, 5.142811e+001
9.860381e+002, 5.150733e+001
9.865203e+002, 5.139375e+001
9.870024e+002, 5.154063e+001
9.874845e+002, 5.211304e+001
9.879666e+002, 5.275548e+001
9.884487e+002, 5.291808e+001
9.889308e+002, 5.272796e+001
9.894130e+002, 5.249446e+001
9.898951e+002, 5.223433e+001
9.903772e+002, 5.222340e+001
9.908593e+002, 5.294346e+001
9.913414e+002, 5.371908e+001
9.918235e+002, 5.403035e+001
9.923057e+002, 5.385519e+001
9.927878e+002, 5.365374e+001
9.932699e+002, 5.338862e+001
9.937520e+002, 5.330759e+001
9.942341e+002, 5.357815e+001
9.947162e+002, 5.409175e+001
9.951984e+002, 5.477867e+001
9.956805e+002, 5.555558e+001
9.961626e+002, 5.617537e+001
9.966447e+002, 5.640684e+001
9.971268e+002, 5.665889e+001
9.976089e+002, 5.710567e+001
9.980911e+002, 5.755532e+001
9.985732e+002, 5.764994e+001
9.990553e+002, 5.739552e+001
9.995374e+002, 5.748861e+001
1.000020e+003, 5.805261e+001
1.000502e+003, 5.860289e+001
1.000984e+003, 5.853849e+001
1.001466e+003, 5.833729e+001
1.001948e+003, 5.850915e+001
1.002430e+003, 5.914881e+001
1.002912e+003, 5.964408e+001
1.003394e+003, 5.984055e+001
1.003876e+003, 6.012500e+001
1.004359e+003, 6.079460e+001
1.004841e+003, 6.158353e+001
1.005323e+003, 6.150459e+001
1.005805e+003, 6.076161e+001
1.006287e+003, 6.018221e+001
1.006769e+003, 6.015194e+001
1.007251e+003, 6.034031e+001
1.007733e+003, 6.095749e+001
1.008216e+003, 6.150187e+001
1.008698e+003, 6.124593e+001
1.009180e+003, 5.991097e+001
1.009662e+003, 5.878970e+001
1.010144e+003, 5.794502e+001
1.010626e+003, 5.733514e+001
1.011108e+003, 5.716312e+001
1.011590e+003, 5.709837e+001
1.012072e+003, 5.652464e+001
1.012555e+003, 5.543677e+001
1.013037e+003, 5.459991e+001
1.013519e+003, 5.458386e+001
1.014001e+003, 5.450583e+001
1.014483e+003, 5.400828e+001
1.014965e+003, 5.326401e+001
1.015447e+003, 5.300841e+001
1.015929e+003, 5.316275e+001
1.016411e+003, 5.284397e+001
1.016894e+003, 5.159680e+001
1.017376e+003, 5.018516e+001
1.017858e+003, 4.913997e+001
1.018340e+003, 4.839682e+001
1.018822e+003, 4.791048e+001
1.019304e+003, 4.775830e+001
1.019786e+003, 4.764044e+001
1.020268e+003, 4.758046e+001
1.020751e+003, 4.749369e+001
1.021233e+003, 4.725903e+001
1.021715e+003, 4.695973e+001
1.022197e+003, 4.687212e+001
1.022679e+003, 4.695617e+001
1.023161e+003, 4.695443e+001
1.023643e+003, 4.671590e+001
1.024125e+003, 4.638694e+001
1.024607e+003, 4.588972e+001
1.025090e+003, 4.539196e+001
1.025572e+003, 4.531175e+001
1.026054e+003, 4.568506e+001
1.026536e+003, 4.593472e+001
1.027018e+003, 4.594513e+001
1.027500e+003, 4.585429e+001
1.027982e+003, 4.580162e+001
1.028464e+003, 4.573464e+001
1.028947e+003, 4.555582e+001
1.029429e+003, 4.519959e+001
1.029911e+003, 4.504342e+001
1.030393e+003, 4.522518e+001
1.030875e+003, 4.538219e+001
1.031357e+003, 4.530801e+001
1.031839e+003, 4.507963e+001
1.032321e+003, 4.491800e+001
1.032803e+003, 4.483241e+001
1.033286e+003, 4.485480e+001
1.033768e+003, 4.504040e+001
1.034250e+003, 4.529331e+001
1.034732e+003, 4.575376e+001
1.035214e+003, 4.616608e+001
1.035696e+003, 4.612852e+001
1.036178e+003, 4.553089e+001
1.036660e+003, 4.508534e+001
1.037143e+003, 4.484469e+001
1.037625e+003, 4.468831e+001
1.038107e+003, 4.446244e+001
1.038589e+003, 4.427135e+001
1.039071e+003, 4.423342e+001
1.039553e+003, 4.435712e+001
1.040035e+003, 4.463955e+001
1.040517e+003, 4.530298e+001
1.041000e+003, 4.578600e+001
1.041482e+003, 4.593874e+001
1.041964e+003, 4.580279e+001
1.042446e+003, 4.533253e+001
1.042928e+003, 4.462895e+001
1.043410e+003, 4.413188e+001
1.043892e+003, 4.401515e+001
1.044374e+003, 4.399161e+001
1.044856e+003, 4.402285e+001
1.045339e+003, 4.397452e+001
1.045821e+003, 4.365878e+001
1.046303e+003, 4.298671e+001
1.046785e+003, 4.281230e+001
1.047267e+003, 4.319312e+001
1.047749e+003, 4.356372e+001
1.048231e+003, 4.349625e+001
1.048713e+003, 4.323811e+001
1.049195e+003, 4.305594e+001
1.049677e+003, 4.294584e+001
1.050160e+003, 4.289380e+001
1.050642e+003, 4.305142e+001
1.051124e+003, 4.302876e+001
1.051606e+003, 4.271785e+001
1.052088e+003, 4.231009e+001
1.052570e+003, 4.205315e+001
1.053052e+003, 4.192067e+001
1.053534e+003, 4.186291e+001
1.054017e+003, 4.187826e+001
1.054499e+003, 4.180486e+001
1.054981e+003, 4.137153e+001
1.055463e+003, 4.097303e+001
1.055945e+003, 4.090290e+001
1.056427e+003, 4.109892e+001
1.056909e+003, 4.123192e+001
1.057391e+003, 4.130105e+001
1.057874e+003, 4.132239e+001
1.058356e+003, 4.130339e+001
1.058838e+003, 4.123608e+001
1.059320e+003, 4.110449e+001
1.059802e+003, 4.092149e+001
1.060284e+003, 4.069602e+001
1.060766e+003, 4.039539e+001
1.061248e+003, 4.012109e+001
1.061730e+003, 3.981953e+001
1.062213e+003, 3.965554e+001
1.062695e+003, 3.985673e+001
1.063177e+003, 4.028239e+001
1.063659e+003, 4.040030e+001
1.064141e+003, 4.026274e+001
1.064623e+003, 4.011947e+001
1.065105e+003, 4.017345e+001
1.065587e+003, 4.015609e+001
1.066070e+003, 3.994641e+001
1.066552e+003, 3.960698e+001
1.067034e+003, 3.915211e+001
1.067516e+003, 3.857017e+001
1.067998e+003, 3.830281e+001
1.068480e+003, 3.842144e+001
1.068962e+003, 3.867271e+001
1.069444e+003, 3.900320e+001
1.069927e+003, 3.923225e+001
1.070409e+003, 3.911928e+001
1.070891e+003, 3.865516e+001
1.071373e+003, 3.837366e+001
1.071855e+003, 3.832738e+001
1.072337e+003, 3.837627e+001
1.072819e+003, 3.853970e+001
1.073301e+003, 3.867112e+001
1.073783e+003, 3.837918e+001
1.074266e+003, 3.787944e+001
1.074748e+003, 3.765152e+001
1.075230e+003, 3.795192e+001
1.075712e+003, 3.816306e+001
1.076194e+003, 3.793855e+001
1.076676e+003, 3.779031e+001
1.077158e+003, 3.811490e+001
1.077640e+003, 3.883760e+001
1.078122e+003, 3.920458e+001
1.078604e+003, 3.923476e+001
1.079087e+003, 3.909007e+001
1.079569e+003, 3.864941e+001
1.080051e+003, 3.828632e+001
1.080533e+003, 3.833082e+001
1.081015e+003, 3.856848e+001
1.081497e+003, 3.857836e+001
1.081979e+003, 3.827228e+001
1.082461e+003, 3.817072e+001
1.082944e+003, 3.833794e+001
1.083426e+003, 3.853341e+001
1.083908e+003, 3.860468e+001
1.084390e+003, 3.852311e+001
1.084872e+003, 3.813744e+001
1.085354e+003, 3.748856e+001
1.085836e+003, 3.711836e+001
1.086318e+003, 3.722428e+001
1.086801e+003, 3.736485e+001
1.087283e+003, 3.744889e+001
1.087765e+003, 3.749597e+001
1.088247e+003, 3.752596e+001
1.088729e+003, 3.755000e+001
1.089211e+003, 3.761856e+001
1.089693e+003, 3.777009e+001
1.090175e+003, 3.781939e+001
1.090657e+003, 3.759319e+001
1.091140e+003, 3.732893e+001
1.091622e+003, 3.712010e+001
1.092104e+003, 3.698002e+001
1.092586e+003, 3.710031e+001
1.093068e+003, 3.745026e+001
1.093550e+003, 3.765337e+001
1.094032e+003, 3.748304e+001
1.094514e+003, 3.720010e+001
1.094997e+003, 3.688629e+001
1.095479e+003, 3.662719e+001
1.095961e+003, 3.655794e+001
1.096443e+003, 3.679187e+001
1.096925e+003, 3.676155e+001
1.097407e+003, 3.640704e+001
1.097889e+003, 3.616102e+001
1.098371e+003, 3.651986e+001
1.098854e+003, 3.707371e+001
1.099336e+003, 3.732246e+001
1.099818e+003, 3.730570e+001
1.100300e+003, 3.722298e+001
1.100782e+003, 3.700416e+001
1.101264e+003, 3.694627e+001
1.101746e+003, 3.716462e+001
1.102228e+003, 3.739853e+001
1.102710e+003, 3.719584e+001
1.103193e+003, 3.675529e+001
1.103675e+003, 3.659562e+001
1.104157e+003, 3.677854e+001
1.104639e+003, 3.694593e+001
1.105121e+003, 3.688939e+001
1.105603e+003, 3.685692e+001
1.106085e+003, 3.701954e+001
1.106567e+003, 3.723724e+001
1.107049e+003, 3.699454e+001
1.107531e+003, 3.635587e+001
1.108014e+003, 3.582477e+001
1.108496e+003, 3.548815e+001
1.108978e+003, 3.543401e+001
1.109460e+003, 3.612775e+001
1.109942e+003, 3.682517e+001
1.110424e+003, 3.677051e+001
1.110906e+003, 3.592176e+001
1.111388e+003, 3.548623e+001
1.111871e+003, 3.549357e+001
1.112353e+003, 3.547719e+001
1.112835e+003, 3.508869e+001
1.113317e+003, 3.470913e+001
1.113799e+003, 3.482850e+001
1.114281e+003, 3.522369e+001
1.114763e+003, 3.552741e+001
1.115245e+003, 3.559785e+001
1.115728e+003, 3.576505e+001
1.116210e+003, 3.608331e+001
1.116692e+003, 3.632045e+001
1.117174e+003, 3.624744e+001
1.117656e+003, 3.597749e+001
1.118138e+003, 3.562415e+001
1.118620e+003, 3.524352e+001
1.119102e+003, 3.503528e+001
1.119584e+003, 3.522905e+001
1.120067e+003, 3.538422e+001
1.120549e+003, 3.543225e+001
1.121031e+003, 3.541698e+001
1.121513e+003, 3.543248e+001
1.121995e+003, 3.543275e+001
1.122477e+003, 3.519210e+001
1.122959e+003, 3.469585e+001
1.123441e+003, 3.433063e+001
1.123924e+003, 3.436173e+001
1.124406e+003, 3.451008e+001
1.124888e+003, 3.467804e+001
1.125370e+003, 3.485243e+001
1.125852e+003, 3.504910e+001
1.126334e+003, 3.524971e+001
1.126816e+003, 3.522337e+001
1.127298e+003, 3.489741e+001
1.127781e+003, 3.444450e+001
1.128263e+003, 3.374572e+001
1.128745e+003, 3.316991e+001
1.129227e+003, 3.313308e+001
1.129709e+003, 3.359718e+001
1.130191e+003, 3.372258e+001
1.130673e+003, 3.348847e+001
1.131155e+003, 3.323981e+001
1.131637e+003, 3.304227e+001
1.132120e+003, 3.302188e+001
1.132602e+003, 3.348045e+001
1.133084e+003, 3.412904e+001
1.133566e+003, 3.456065e+001
1.134048e+003, 3.473173e+001
1.134530e+003, 3.465750e+001
1.135012e+003, 3.428302e+001
1.135494e+003, 3.388137e+001
1.135976e+003, 3.367564e+001
1.136458e+003, 3.351835e+001
1.136941e+003, 3.301131e+001
1.137423e+003, 3.237546e+001
1.137905e+003, 3.214887e+001
1.138387e+003, 3.296326e+001
1.138869e+003, 3.345938e+001
1.139351e+003, 3.350300e+001
1.139833e+003, 3.336177e+001
1.140315e+003, 3.328738e+001
1.140798e+003, 3.322948e+001
1.141280e+003, 3.301120e+001
1.141762e+003, 3.266618e+001
1.142244e+003, 3.245031e+001
1.142726e+003, 3.257667e+001
1.143208e+003, 3.270552e+001
1.143690e+003, 3.277580e+001
1.144172e+003, 3.279152e+001
1.144655e+003, 3.277246e+001
1.145137e+003, 3.270656e+001
1.145619e+003, 3.245443e+001
1.146101e+003, 3.199661e+001
1.146583e+003, 3.178799e+001
1.147065e+003, 3.244134e+001
1.147547e+003, 3.300397e+001
1.148029e+003, 3.301506e+001
1.148511e+003, 3.263734e+001
1.148994e+003, 3.222072e+001
1.149476e+003, 3.179981e+001
1.149958e+003, 3.175532e+001
1.150440e+003, 3.225700e+001
1.150922e+003, 3.271873e+001
1.151404e+003, 3.257558e+001
1.151886e+003, 3.235034e+001
1.152368e+003, 3.253535e+001
1.152851e+003, 3.305430e+001
1.153333e+003, 3.301961e+001
1.153815e+003, 3.242721e+001
1.154297e+003, 3.201259e+001
1.154779e+003, 3.211579e+001
1.155261e+003, 3.234567e+001
1.155743e+003, 3.239743e+001
1.156225e+003, 3.234655e+001
1.156708e+003, 3.224734e+001
1.157190e+003, 3.207819e+001
1.157672e+003, 3.210316e+001
1.158154e+003, 3.235161e+001
1.158636e+003, 3.254073e+001
1.159118e+003, 3.247564e+001
1.159600e+003, 3.231224e+001
1.160082e+003, 3.222869e+001
1.160564e+003, 3.216853e+001
1.161047e+003, 3.202019e+001
1.161529e+003, 3.164776e+001
1.162011e+003, 3.149829e+001
1.162493e+003, 3.161366e+001
1.162975e+003, 3.178394e+001
1.163457e+003, 3.186907e+001
1.163939e+003, 3.189666e+001
1.164421e+003, 3.185336e+001
1.164903e+003, 3.178365e+001
1.165385e+003, 3.182566e+001
1.165868e+003, 3.217385e+001
1.166350e+003, 3.231450e+001
1.166832e+003, 3.217557e+001
1.167314e+003, 3.191361e+001
1.167796e+003, 3.161207e+001
1.168278e+003, 3.133979e+001
1.168760e+003, 3.124252e+001
1.169242e+003, 3.130674e+001
1.169725e+003, 3.139706e+001
1.170207e+003, 3.155816e+001
1.170689e+003, 3.160098e+001
1.171171e+003, 3.145130e+001
1.171653e+003, 3.126052e+001
1.172135e+003, 3.120731e+001
1.172617e+003, 3.128783e+001
1.173099e+003, 3.155489e+001
1.173582e+003, 3.200606e+001
1.174064e+003, 3.234373e+001
1.174546e+003, 3.235807e+001
1.175028e+003, 3.236538e+001
1.175510e+003, 3.243361e+001
1.175992e+003, 3.255174e+001
1.176474e+003, 3.280857e+001
1.176956e+003, 3.308764e+001
1.177438e+003, 3.297081e+001
1.177921e+003, 3.232425e+001
1.178403e+003, 3.179836e+001
1.178885e+003, 3.175502e+001
1.179367e+003, 3.177416e+001
1.179849e+003, 3.163876e+001
1.180331e+003, 3.147893e+001
1.180813e+003, 3.186605e+001
1.181295e+003, 3.260328e+001
1.181778e+003, 3.290149e+001
1.182260e+003, 3.242154e+001
1.182742e+003, 3.193815e+001
1.183224e+003, 3.180110e+001
1.183706e+003, 3.176436e+001
1.184188e+003, 3.170551e+001
1.184670e+003, 3.162723e+001
1.185152e+003, 3.148243e+001
1.185635e+003, 3.131607e+001
1.186117e+003, 3.138984e+001
1.186599e+003, 3.201323e+001
1.187081e+003, 3.245063e+001
1.187563e+003, 3.218653e+001
1.188045e+003, 3.170954e+001
1.188527e+003, 3.130584e+001
1.189009e+003, 3.099870e+001
1.189491e+003, 3.119111e+001
1.189974e+003, 3.180441e+001
1.190456e+003, 3.226186e+001
1.190938e+003, 3.216269e+001
1.191420e+003, 3.199383e+001
1.191902e+003, 3.210579e+001
1.192384e+003, 3.217525e+001
1.192866e+003, 3.179336e+001
1.193348e+003, 3.094164e+001
1.193830e+003, 3.055826e+001
1.194313e+003, 3.061979e+001
1.194795e+003, 3.082691e+001
1.195277e+003, 3.109615e+001
1.195759e+003, 3.135688e+001
1.196241e+003, 3.153284e+001
1.196723e+003, 3.169888e+001
1.197205e+003, 3.200661e+001
1.197687e+003, 3.246794e+001
1.198169e+003, 3.253563e+001
1.198652e+003, 3.220083e+001
1.199134e+003, 3.190156e+001
1.199616e+003, 3.195086e+001
1.200098e+003, 3.210983e+001
1.200580e+003, 3.232139e+001
1.201062e+003, 3.251176e+001
1.201544e+003, 3.260844e+001
1.202026e+003, 3.261674e+001
1.202509e+003, 3.213606e+001
1.202991e+003, 3.112326e+001
1.203473e+003, 3.056448e+001
1.203955e+003, 3.174339e+001
1.204437e+003, 3.304518e+001
1.204919e+003, 3.340555e+001
1.205401e+003, 3.311969e+001
1.205883e+003, 3.280132e+001
1.206365e+003, 3.244537e+001
1.206848e+003, 3.214987e+001
1.207330e+003, 3.192187e+001
1.207812e+003, 3.184922e+001
1.208294e+003, 3.225716e+001
1.208776e+003, 3.260285e+001
1.209258e+003, 3.235322e+001
1.209740e+003, 3.175770e+001
1.210222e+003, 3.151359e+001
1.210705e+003, 3.162240e+001
1.211187e+003, 3.180937e+001
1.211669e+003, 3.204459e+001
1.212151e+003, 3.217910e+001
1.212633e+003, 3.195783e+001
1.213115e+003, 3.171014e+001
1.213597e+003, 3.169888e+001
1.214079e+003, 3.186722e+001
1.214562e+003, 3.201437e+001
1.215044e+003, 3.214202e+001
1.215526e+003, 3.236695e+001
1.216008e+003, 3.276714e+001
1.216490e+003, 3.299150e+001
1.216972e+003, 3.255096e+001
1.217454e+003, 3.201072e+001
1.217936e+003, 3.180637e+001
1.218418e+003, 3.188525e+001
1.218901e+003, 3.205668e+001
1.219383e+003, 3.230767e+001
1.219865e+003, 3.229142e+001
1.220347e+003, 3.183870e+001
1.220829e+003, 3.138420e+001
1.221311e+003, 3.114571e+001
1.221793e+003, 3.114092e+001
1.222275e+003, 3.146382e+001
1.222757e+003, 3.203410e+001
1.223240e+003, 3.225515e+001
1.223722e+003, 3.215611e+001
1.224204e+003, 3.212150e+001
1.224686e+003, 3.232219e+001
1.225168e+003, 3.249223e+001
1.225650e+003, 3.236027e+001
1.226132e+003, 3.221657e+001
1.226614e+003, 3.234884e+001
1.227096e+003, 3.269341e+001
1.227579e+003, 3.259708e+001
1.228061e+003, 3.211353e+001
1.228543e+003, 3.171800e+001
1.229025e+003, 3.163934e+001
1.229507e+003, 3.158206e+001
1.229989e+003, 3.123152e+001
1.230471e+003, 3.097073e+001
1.230953e+003, 3.112478e+001
1.231436e+003, 3.164163e+001
1.231918e+003, 3.208806e+001
1.232400e+003, 3.245369e+001
1.232882e+003, 3.265011e+001
1.233364e+003, 3.256337e+001
1.233846e+003, 3.245346e+001
1.234328e+003, 3.243017e+001
1.234810e+003, 3.244746e+001
1.235292e+003, 3.245882e+001
1.235775e+003, 3.247689e+001
1.236257e+003, 3.266939e+001
1.236739e+003, 3.298713e+001
1.237221e+003, 3.317028e+001
1.237703e+003, 3.304685e+001
1.238185e+003, 3.286565e+001
1.238667e+003, 3.268388e+001
1.239149e+003, 3.251396e+001
1.239632e+003, 3.234111e+001
1.240114e+003, 3.218719e+001
1.240596e+003, 3.221503e+001
1.241078e+003, 3.237874e+001
1.241560e+003, 3.248558e+001
1.242042e+003, 3.241996e+001
1.242524e+003, 3.231910e+001
1.243006e+003, 3.214563e+001
1.243489e+003, 3.204255e+001
1.243971e+003, 3.216264e+001
1.244453e+003, 3.244768e+001
1.244935e+003, 3.264410e+001
1.245417e+003, 3.278198e+001
1.245899e+003, 3.296744e+001
1.246381e+003, 3.349496e+001
1.246863e+003, 3.367197e+001
1.247345e+003, 3.327839e+001
1.247828e+003, 3.278868e+001
1.248310e+003, 3.264435e+001
1.248792e+003, 3.270692e+001
1.249274e+003, 3.248760e+001
1.249756e+003, 3.213036e+001
1.250238e+003, 3.213416e+001
1.250720e+003, 3.331051e+001
1.251202e+003, 3.381594e+001
1.251684e+003, 3.329663e+001
1.252167e+003, 3.262917e+001
1.252649e+003, 3.259633e+001
1.253131e+003, 3.293596e+001
1.253613e+003, 3.320842e+001
1.254095e+003, 3.340413e+001
1.254577e+003, 3.352751e+001
1.255059e+003, 3.360173e+001
1.255541e+003, 3.352209e+001
1.256023e+003, 3.321460e+001
1.256506e+003, 3.298899e+001
1.256988e+003, 3.319215e+001
1.257470e+003, 3.359214e+001
1.257952e+003, 3.399770e+001
1.258434e+003, 3.431733e+001
1.258916e+003, 3.423733e+001
1.259398e+003, 3.345478e+001
1.259880e+003, 3.315741e+001
1.260363e+003, 3.348263e+001
1.260845e+003, 3.387273e+001
1.261327e+003, 3.379208e+001
1.261809e+003, 3.359298e+001
1.262291e+003, 3.362160e+001
1.262773e+003, 3.383256e+001
1.263255e+003, 3.411326e+001
1.263737e+003, 3.454780e+001
1.264219e+003, 3.453366e+001
1.264702e+003, 3.399883e+001
1.265184e+003, 3.348903e+001
1.265666e+003, 3.347581e+001
1.266148e+003, 3.360297e+001
1.266630e+003, 3.360857e+001
1.267112e+003, 3.355153e+001
1.267594e+003, 3.355542e+001
1.268076e+003, 3.361784e+001
1.268559e+003, 3.384362e+001
1.269041e+003, 3.423565e+001
1.269523e+003, 3.447272e+001
1.270005e+003, 3.419133e+001
1.270487e+003, 3.384727e+001
1.270969e+003, 3.355147e+001
1.271451e+003, 3.345268e+001
1.271933e+003, 3.392793e+001
1.272416e+003, 3.490085e+001
1.272898e+003, 3.537358e+001
1.273380e+003, 3.530937e+001
1.273862e+003, 3.508054e+001
1.274344e+003, 3.485664e+001
1.274826e+003, 3.453929e+001
1.275308e+003, 3.391312e+001
1.275790e+003, 3.338163e+001
1.276272e+003, 3.360028e+001
1.276755e+003, 3.434245e+001
1.277237e+003, 3.477538e+001
1.277719e+003, 3.487180e+001
1.278201e+003, 3.485118e+001
1.278683e+003, 3.469154e+001
1.279165e+003, 3.458849e+001
1.279647e+003, 3.458221e+001
1.280129e+003, 3.462948e+001
1.280611e+003, 3.472224e+001
1.281094e+003, 3.481559e+001
1.281576e+003, 3.477344e+001
1.282058e+003, 3.462946e+001
1.282540e+003, 3.458060e+001
1.283022e+003, 3.475946e+001
1.283504e+003, 3.487477e+001
1.283986e+003, 3.488427e+001
1.284468e+003, 3.487374e+001
1.284950e+003, 3.497018e+001
1.285433e+003, 3.506921e+001
1.285915e+003, 3.497876e+001
1.286397e+003, 3.476269e+001
1.286879e+003, 3.470198e+001
1.287361e+003, 3.488223e+001
1.287843e+003, 3.492066e+001
1.288325e+003, 3.476053e+001
1.288807e+003, 3.465475e+001
1.289290e+003, 3.486754e+001
1.289772e+003, 3.518658e+001
1.290254e+003, 3.552526e+001
1.290736e+003, 3.579333e+001
1.291218e+003, 3.576720e+001
1.291700e+003, 3.540100e+001
1.292182e+003, 3.542396e+001
1.292664e+003, 3.588231e+001
1.293146e+003, 3.631758e+001
1.293629e+003, 3.644944e+001
1.294111e+003, 3.641987e+001
1.294593e+003, 3.613321e+001
1.295075e+003, 3.584904e+001
1.295557e+003, 3.594508e+001
1.296039e+003, 3.636606e+001
1.296521e+003, 3.668129e+001
1.297003e+003, 3.686803e+001
1.297486e+003, 3.695734e+001
1.297968e+003, 3.686828e+001
1.298450e+003, 3.682199e+001
1.298932e+003, 3.688433e+001
1.299414e+003, 3.699114e+001
1.299896e+003, 3.709200e+001
1.300378e+003, 3.717678e+001
1.300860e+003, 3.717176e+001
1.301343e+003, 3.711474e+001
1.301825e+003, 3.717271e+001
##END=



