##NAMES=Kainite
##RRUFFID=R070152
##IDEAL CHEMISTRY=KMg(S^6+^O_4_)Cl&#183;3H_2_O
##LOCALITY=Hansa mine, Hannover, Lower Saxony, Germany
##OWNER=RRUFF
##SOURCE=James Shigley
##DESCRIPTION=Lavendar granular massive
##STATUS=The identification of this mineral has been confirmed by single-crystal X-ray diffraction.
##URL=rruff.info/R070152
167.1108, 3451.984
167.5929, 3495.357
168.0750, 3530.058
168.5572, 3559.247
169.0393, 3594.148
169.5214, 3642.715
170.0035, 3696.858
170.4856, 3737.763
170.9677, 3765.926
171.4499, 3782.474
171.9320, 3779.601
172.4141, 3763.190
172.8962, 3756.362
173.3783, 3773.971
173.8604, 3801.345
174.3426, 3809.334
174.8247, 3791.458
175.3068, 3771.225
175.7889, 3761.315
176.2710, 3760.279
176.7531, 3761.797
177.2353, 3765.717
177.7174, 3768.890
178.1995, 3766.035
178.6816, 3755.193
179.1637, 3744.968
179.6458, 3740.786
180.1279, 3741.952
180.6101, 3744.746
181.0922, 3749.463
181.5743, 3753.813
182.0564, 3753.776
182.5385, 3747.915
183.0206, 3744.913
183.5028, 3753.018
183.9849, 3770.390
184.4670, 3784.259
184.9491, 3788.758
185.4312, 3790.747
185.9133, 3798.885
186.3955, 3813.878
186.8776, 3827.566
187.3597, 3834.970
187.8418, 3836.366
188.3239, 3833.147
188.8060, 3821.498
189.2882, 3809.719
189.7703, 3804.478
190.2524, 3805.855
190.7345, 3812.314
191.2166, 3823.692
191.6987, 3839.702
192.1809, 3858.158
192.6630, 3879.923
193.1451, 3902.983
193.6272, 3929.341
194.1093, 3957.942
194.5914, 3977.868
195.0736, 3977.654
195.5557, 3960.325
196.0378, 3945.554
196.5199, 3933.970
197.0020, 3927.886
197.4841, 3928.594
197.9663, 3935.509
198.4484, 3945.673
198.9305, 3963.274
199.4126, 3984.742
199.8947, 3988.452
200.3768, 3957.918
200.8590, 3930.296
201.3411, 3934.633
201.8232, 3961.303
202.3053, 3981.569
202.7874, 3970.626
203.2695, 3936.823
203.7517, 3920.626
204.2338, 3933.643
204.7159, 3946.739
205.1980, 3937.782
205.6801, 3916.893
206.1622, 3906.770
206.6444, 3928.180
207.1265, 3969.057
207.6086, 3986.702
208.0907, 3967.517
208.5728, 3949.610
209.0549, 3953.438
209.5371, 3970.111
210.0192, 3985.543
210.5013, 3991.872
210.9834, 3993.386
211.4655, 4003.896
211.9476, 4033.374
212.4298, 4048.798
212.9119, 4024.611
213.3940, 3983.014
213.8761, 3952.090
214.3582, 3945.683
214.8403, 3951.813
215.3225, 3948.270
215.8046, 3933.094
216.2867, 3913.696
216.7688, 3882.760
217.2509, 3853.276
217.7330, 3840.489
218.2152, 3851.730
218.6973, 3873.285
219.1794, 3883.980
219.6615, 3880.118
220.1436, 3879.966
220.6257, 3894.851
221.1079, 3912.790
221.5900, 3924.434
222.0721, 3927.221
222.5542, 3926.364
223.0363, 3928.818
223.5184, 3935.594
224.0006, 3938.272
224.4827, 3924.156
224.9648, 3912.513
225.4469, 3919.773
225.9290, 3947.840
226.4111, 3979.231
226.8933, 3996.264
227.3754, 3998.487
227.8575, 4000.872
228.3396, 4007.513
228.8217, 4013.192
229.3038, 4012.284
229.7859, 4005.589
230.2681, 4001.775
230.7502, 4007.134
231.2323, 4021.383
231.7144, 4042.600
232.1965, 4080.624
232.6786, 4113.263
233.1608, 4123.928
233.6429, 4117.109
234.1250, 4110.314
234.6071, 4113.897
235.0892, 4126.396
235.5714, 4141.652
236.0535, 4161.909
236.5356, 4181.006
237.0177, 4192.339
237.4998, 4200.107
237.9819, 4213.535
238.4641, 4240.934
238.9462, 4275.527
239.4283, 4300.543
239.9104, 4311.529
240.3925, 4324.405
240.8746, 4348.113
241.3568, 4378.517
241.8389, 4411.711
242.3210, 4449.632
242.8031, 4485.700
243.2852, 4510.303
243.7673, 4522.396
244.2495, 4528.048
244.7316, 4523.776
245.2137, 4516.909
245.6958, 4515.986
246.1779, 4524.282
246.6600, 4534.493
247.1422, 4541.374
247.6243, 4544.938
248.1064, 4540.830
248.5885, 4523.254
249.0706, 4500.093
249.5527, 4480.220
250.0349, 4464.646
250.5170, 4449.087
250.9991, 4426.242
251.4812, 4398.910
251.9633, 4384.621
252.4454, 4393.369
252.9276, 4408.517
253.4097, 4412.862
253.8918, 4406.912
254.3739, 4398.339
254.8560, 4391.551
255.3381, 4384.804
255.8203, 4374.599
256.3024, 4361.313
256.7845, 4342.286
257.2666, 4303.348
257.7487, 4252.212
258.2308, 4224.159
258.7130, 4251.255
259.1951, 4297.761
259.6772, 4315.230
260.1593, 4299.048
260.6414, 4270.080
261.1235, 4236.938
261.6057, 4202.453
262.0878, 4174.989
262.5699, 4156.380
263.0520, 4144.831
263.5341, 4141.416
264.0162, 4145.364
264.4984, 4148.998
264.9805, 4147.692
265.4626, 4143.458
265.9447, 4143.014
266.4268, 4153.257
266.9089, 4157.076
267.3911, 4140.433
267.8732, 4110.151
268.3553, 4084.046
268.8374, 4067.961
269.3195, 4061.107
269.8016, 4065.220
270.2838, 4084.830
270.7659, 4098.610
271.2480, 4096.569
271.7301, 4086.917
272.2122, 4080.259
272.6943, 4079.117
273.1765, 4082.816
273.6586, 4091.723
274.1407, 4108.000
274.6228, 4119.724
275.1049, 4123.591
275.5870, 4124.555
276.0692, 4126.197
276.5513, 4129.039
277.0334, 4132.429
277.5155, 4135.372
277.9976, 4137.753
278.4797, 4144.878
278.9619, 4158.402
279.4440, 4174.373
279.9261, 4195.850
280.4082, 4218.850
280.8903, 4231.388
281.3724, 4224.332
281.8546, 4203.104
282.3367, 4199.684
282.8188, 4239.459
283.3009, 4265.957
283.7830, 4258.990
284.2651, 4236.472
284.7473, 4222.584
285.2294, 4227.134
285.7115, 4242.002
286.1936, 4250.091
286.6757, 4242.757
287.1578, 4241.651
287.6400, 4255.071
288.1221, 4268.806
288.6042, 4270.952
289.0863, 4260.034
289.5684, 4243.469
290.0505, 4228.111
290.5327, 4210.264
291.0148, 4210.047
291.4969, 4245.747
291.9790, 4280.764
292.4611, 4300.016
292.9432, 4304.852
293.4254, 4303.936
293.9075, 4303.700
294.3896, 4303.648
294.8717, 4298.145
295.3538, 4283.192
295.8359, 4267.342
296.3181, 4255.151
296.8002, 4242.727
297.2823, 4225.223
297.7644, 4200.303
298.2465, 4169.063
298.7286, 4130.409
299.2108, 4075.082
299.6929, 4036.828
300.1750, 4039.485
300.6571, 4051.010
301.1392, 4047.000
301.6213, 4022.565
302.1035, 3991.017
302.5855, 3965.656
303.0677, 3946.653
303.5498, 3928.552
304.0319, 3910.887
304.5140, 3893.996
304.9961, 3877.859
305.4782, 3862.604
305.9604, 3848.742
306.4425, 3835.931
306.9246, 3824.796
307.4067, 3817.448
307.8888, 3814.717
308.3709, 3813.927
308.8531, 3815.151
309.3352, 3816.950
309.8173, 3816.505
310.2994, 3811.137
310.7815, 3805.150
311.2636, 3802.637
311.7458, 3803.573
312.2279, 3808.178
312.7100, 3820.221
313.1921, 3833.291
313.6742, 3834.465
314.1563, 3817.981
314.6385, 3805.375
315.1206, 3812.584
315.6027, 3830.751
316.0848, 3838.863
316.5669, 3829.906
317.0490, 3815.650
317.5312, 3812.124
318.0133, 3820.623
318.4954, 3827.070
318.9775, 3825.377
319.4596, 3823.672
319.9417, 3829.677
320.4239, 3843.578
320.9060, 3861.153
321.3881, 3880.265
321.8702, 3900.512
322.3523, 3912.763
322.8344, 3906.274
323.3166, 3904.560
323.7987, 3921.986
324.2808, 3949.622
324.7629, 3969.130
325.2450, 3971.269
325.7271, 3963.862
326.2093, 3967.609
326.6914, 4003.347
327.1735, 4021.690
327.6556, 4008.925
328.1377, 3987.283
328.6198, 3978.048
329.1020, 3983.682
329.5841, 3987.485
330.0662, 3966.848
330.5483, 3913.490
331.0304, 3877.679
331.5125, 3865.931
331.9947, 3865.135
332.4768, 3878.363
332.9589, 3898.848
333.4410, 3913.811
333.9231, 3914.068
334.4052, 3903.397
334.8874, 3896.652
335.3695, 3896.561
335.8516, 3895.341
336.3337, 3885.764
336.8158, 3876.561
337.2979, 3879.660
337.7801, 3899.523
338.2622, 3919.783
338.7443, 3915.801
339.2264, 3886.028
339.7085, 3870.381
340.1906, 3886.693
340.6728, 3908.668
341.1549, 3915.369
341.6370, 3908.018
342.1191, 3898.743
342.6012, 3893.411
343.0833, 3890.689
343.5655, 3887.240
344.0476, 3882.290
344.5297, 3879.766
345.0118, 3887.186
345.4939, 3898.764
345.9760, 3898.712
346.4582, 3877.273
346.9403, 3852.134
347.4224, 3831.787
347.9045, 3817.243
348.3866, 3814.203
348.8687, 3828.017
349.3509, 3848.855
349.8330, 3855.937
350.3151, 3844.844
350.7972, 3835.448
351.2793, 3829.303
351.7614, 3827.543
352.2436, 3836.657
352.7257, 3855.616
353.2078, 3867.098
353.6899, 3850.671
354.1720, 3801.351
354.6541, 3778.453
355.1363, 3801.096
355.6184, 3824.655
356.1005, 3831.938
356.5826, 3827.844
357.0647, 3823.695
357.5468, 3825.504
358.0290, 3830.140
358.5111, 3828.026
358.9932, 3811.133
359.4753, 3801.396
359.9574, 3805.668
360.4395, 3813.200
360.9217, 3815.127
361.4038, 3810.598
361.8859, 3805.839
362.3680, 3808.295
362.8501, 3818.357
363.3322, 3825.374
363.8144, 3830.054
364.2965, 3830.244
364.7786, 3824.050
365.2607, 3813.316
365.7428, 3801.144
366.2249, 3788.349
366.7071, 3775.724
367.1892, 3762.855
367.6713, 3748.833
368.1534, 3743.039
368.6355, 3754.144
369.1176, 3771.800
369.5998, 3785.482
370.0819, 3795.733
370.5640, 3795.752
371.0461, 3770.313
371.5282, 3733.806
372.0103, 3720.457
372.4925, 3738.734
372.9746, 3761.846
373.4567, 3763.405
373.9388, 3744.045
374.4209, 3734.309
374.9030, 3745.959
375.3852, 3757.990
375.8673, 3755.406
376.3494, 3742.460
376.8315, 3732.397
377.3136, 3732.005
377.7957, 3738.067
378.2779, 3742.196
378.7600, 3749.863
379.2421, 3747.385
379.7242, 3722.387
380.2063, 3694.999
380.6884, 3682.820
381.1706, 3687.490
381.6527, 3699.385
382.1348, 3710.125
382.6169, 3720.031
383.0990, 3722.445
383.5811, 3709.282
384.0633, 3696.935
384.5454, 3685.516
385.0275, 3678.729
385.5096, 3684.927
385.9917, 3709.929
386.4738, 3737.750
386.9560, 3736.158
387.4381, 3697.633
387.9202, 3670.249
388.4023, 3671.208
388.8844, 3681.363
389.3665, 3687.534
389.8487, 3689.388
390.3308, 3691.853
390.8129, 3700.254
391.2950, 3710.785
391.7771, 3712.939
392.2592, 3704.185
392.7414, 3699.906
393.2235, 3717.072
393.7056, 3745.334
394.1877, 3752.462
394.6698, 3716.665
395.1519, 3686.732
395.6341, 3695.842
396.1162, 3728.344
396.5983, 3751.043
397.0804, 3753.115
397.5625, 3746.231
398.0446, 3747.483
398.5268, 3762.289
399.0089, 3767.072
399.4910, 3751.752
399.9731, 3735.572
400.4552, 3731.888
400.9373, 3737.641
401.4194, 3740.943
401.9016, 3733.589
402.3837, 3719.036
402.8658, 3711.365
403.3479, 3711.278
403.8300, 3717.977
404.3121, 3742.282
404.7943, 3765.541
405.2764, 3767.290
405.7585, 3746.282
406.2406, 3725.467
406.7227, 3731.290
407.2048, 3762.475
407.6870, 3787.061
408.1691, 3805.170
408.6512, 3815.046
409.1333, 3811.293
409.6154, 3800.195
410.0975, 3792.601
410.5797, 3791.948
411.0618, 3795.864
411.5439, 3805.140
412.0260, 3818.366
412.5081, 3824.407
412.9902, 3816.944
413.4724, 3805.387
413.9545, 3803.959
414.4366, 3812.653
414.9187, 3823.609
415.4008, 3840.827
415.8829, 3855.966
416.3651, 3858.334
416.8472, 3849.929
417.3293, 3843.717
417.8114, 3848.402
418.2935, 3862.313
418.7756, 3876.372
419.2578, 3889.741
419.7399, 3904.358
420.2220, 3927.280
420.7041, 3947.570
421.1862, 3948.354
421.6683, 3929.688
422.1505, 3914.615
422.6326, 3933.271
423.1147, 3988.819
423.5968, 4024.426
424.0789, 4013.999
424.5610, 4016.843
425.0432, 4065.905
425.5253, 4138.138
426.0074, 4197.321
426.4895, 4228.123
426.9716, 4247.461
427.4537, 4275.938
427.9359, 4313.220
428.4180, 4348.390
428.9001, 4375.965
429.3822, 4405.019
429.8643, 4445.675
430.3464, 4496.949
430.8286, 4553.276
431.3107, 4620.523
431.7928, 4687.293
432.2749, 4737.984
432.7570, 4775.968
433.2391, 4820.719
433.7213, 4882.500
434.2034, 4959.030
434.6855, 5043.162
435.1676, 5142.195
435.6497, 5237.666
436.1318, 5338.827
436.6140, 5429.203
437.0961, 5485.003
437.5782, 5510.709
438.0603, 5541.371
438.5424, 5612.467
439.0245, 5719.452
439.5067, 5793.595
439.9888, 5829.038
440.4709, 5836.539
440.9530, 5819.112
441.4351, 5779.080
441.9172, 5714.310
442.3994, 5623.888
442.8815, 5524.647
443.3636, 5432.554
443.8457, 5346.495
444.3278, 5257.075
444.8099, 5158.153
445.2921, 5065.587
445.7742, 4990.949
446.2563, 4932.166
446.7384, 4886.226
447.2205, 4860.422
447.7026, 4840.490
448.1848, 4813.884
448.6669, 4785.805
449.1490, 4772.922
449.6311, 4782.357
450.1132, 4798.934
450.5953, 4800.339
451.0775, 4783.432
451.5596, 4758.642
452.0417, 4728.184
452.5238, 4688.371
453.0059, 4628.689
453.4880, 4558.568
453.9702, 4499.629
454.4523, 4465.104
454.9344, 4443.330
455.4165, 4402.428
455.8986, 4330.195
456.3807, 4272.977
456.8629, 4246.745
457.3450, 4231.510
457.8271, 4219.381
458.3092, 4208.848
458.7913, 4198.099
459.2734, 4183.612
459.7556, 4168.977
460.2377, 4161.220
460.7198, 4160.633
461.2019, 4163.595
461.6840, 4170.324
462.1661, 4178.177
462.6483, 4182.505
463.1304, 4184.136
463.6125, 4180.352
464.0946, 4169.243
464.5767, 4153.046
465.0588, 4132.426
465.5410, 4108.372
466.0231, 4084.433
466.5052, 4063.188
466.9873, 4044.544
467.4694, 4028.179
467.9515, 4020.036
468.4337, 4006.239
468.9158, 3981.754
469.3979, 3953.208
469.8800, 3926.708
470.3621, 3903.132
470.8442, 3879.948
471.3264, 3850.732
471.8085, 3817.612
472.2906, 3802.779
472.7727, 3816.521
473.2548, 3825.805
473.7369, 3808.977
474.2191, 3779.089
474.7012, 3751.438
475.1833, 3728.410
475.6654, 3707.948
476.1475, 3686.978
476.6296, 3668.125
477.1118, 3659.594
477.5939, 3663.206
478.0760, 3665.510
478.5581, 3653.727
479.0402, 3627.999
479.5223, 3605.882
480.0045, 3583.712
480.4866, 3569.003
480.9687, 3569.354
481.4508, 3575.894
481.9329, 3576.285
482.4150, 3567.693
482.8972, 3558.849
483.3793, 3562.948
483.8614, 3582.002
484.3435, 3586.803
484.8256, 3563.948
485.3077, 3545.123
485.7899, 3548.434
486.2720, 3561.182
486.7541, 3561.976
487.2362, 3540.127
487.7183, 3522.573
488.2004, 3544.162
488.6826, 3591.907
489.1647, 3614.379
489.6468, 3597.993
490.1289, 3574.609
490.6110, 3573.165
491.0931, 3593.237
491.5753, 3606.414
492.0574, 3607.296
492.5395, 3607.475
493.0216, 3616.650
493.5037, 3626.247
493.9858, 3619.152
494.4680, 3591.760
494.9501, 3563.013
495.4322, 3560.746
495.9143, 3590.870
496.3964, 3597.432
496.8785, 3552.352
497.3607, 3516.219
497.8428, 3513.988
498.3249, 3529.540
498.8070, 3540.579
499.2891, 3539.708
499.7712, 3535.000
500.2533, 3534.542
500.7354, 3537.410
501.2176, 3538.979
501.6997, 3538.369
502.1818, 3537.143
502.6639, 3536.942
503.1460, 3537.308
503.6281, 3535.533
504.1103, 3524.159
504.5924, 3518.985
505.0745, 3535.946
505.5566, 3559.461
506.0387, 3564.114
506.5208, 3544.926
507.0030, 3519.930
507.4851, 3509.295
507.9672, 3513.816
508.4493, 3518.786
508.9314, 3531.696
509.4135, 3535.112
509.8957, 3513.287
510.3778, 3485.414
510.8599, 3474.900
511.3420, 3487.923
511.8241, 3508.601
512.3063, 3525.481
512.7884, 3538.193
513.2705, 3544.195
513.7526, 3542.128
514.2347, 3538.807
514.7169, 3538.955
515.1990, 3541.293
515.6811, 3540.813
516.1632, 3533.957
516.6453, 3529.871
517.1274, 3534.224
517.6096, 3541.288
518.0917, 3543.798
518.5738, 3541.246
519.0559, 3538.906
519.5380, 3541.621
520.0201, 3548.648
520.5023, 3553.231
520.9844, 3554.594
521.4665, 3554.661
521.9486, 3551.477
522.4307, 3548.868
522.9128, 3550.825
523.3950, 3557.476
523.8771, 3564.379
524.3592, 3567.799
524.8413, 3569.566
525.3234, 3574.066
525.8055, 3581.519
526.2877, 3588.417
526.7698, 3593.119
527.2519, 3596.256
527.7340, 3598.804
528.2161, 3600.026
528.6982, 3602.879
529.1804, 3611.687
529.6625, 3619.143
530.1446, 3620.113
530.6267, 3614.680
531.1088, 3603.558
531.5909, 3586.438
532.0731, 3567.740
532.5552, 3558.896
533.0373, 3562.520
533.5194, 3567.937
534.0015, 3577.611
534.4836, 3585.249
534.9658, 3584.535
535.4479, 3578.426
535.9300, 3576.920
536.4121, 3587.327
536.8942, 3600.322
537.3763, 3605.996
537.8585, 3605.748
538.3406, 3604.417
538.8227, 3603.099
539.3048, 3603.164
539.7869, 3607.645
540.2690, 3618.374
540.7512, 3618.484
541.2333, 3597.466
541.7154, 3578.828
542.1975, 3568.440
542.6796, 3566.321
543.1617, 3574.359
543.6439, 3592.308
544.1260, 3612.083
544.6081, 3625.896
545.0902, 3633.656
545.5723, 3630.706
546.0544, 3609.093
546.5366, 3594.594
547.0187, 3610.460
547.5008, 3637.950
547.9829, 3649.697
548.4650, 3640.563
548.9471, 3624.471
549.4292, 3597.012
549.9113, 3571.917
550.3934, 3572.816
550.8755, 3597.809
551.3577, 3617.882
551.8398, 3611.863
552.3219, 3589.413
552.8040, 3587.649
553.2861, 3623.411
553.7682, 3650.963
554.2504, 3665.329
554.7325, 3673.663
555.2146, 3678.954
555.6967, 3682.106
556.1788, 3684.018
556.6609, 3684.473
557.1431, 3684.929
557.6252, 3687.034
558.1073, 3690.890
558.5894, 3699.430
559.0715, 3716.673
559.5536, 3730.596
560.0358, 3725.474
560.5179, 3699.510
561.0000, 3681.752
561.4821, 3676.772
561.9642, 3675.283
562.4464, 3675.391
562.9285, 3675.847
563.4106, 3675.543
563.8927, 3674.047
564.3748, 3670.910
564.8569, 3664.920
565.3391, 3656.309
565.8212, 3649.846
566.3033, 3645.191
566.7854, 3643.479
567.2675, 3647.663
567.7496, 3653.823
568.2318, 3660.364
568.7139, 3668.368
569.1960, 3665.325
569.6781, 3631.905
570.1602, 3593.101
570.6423, 3579.828
571.1245, 3589.997
571.6066, 3603.277
572.0887, 3609.444
572.5708, 3610.097
573.0529, 3608.569
573.5350, 3604.369
574.0172, 3598.990
574.4993, 3595.180
574.9814, 3587.462
575.4635, 3566.823
575.9456, 3541.752
576.4277, 3529.514
576.9099, 3539.241
577.3920, 3553.867
577.8741, 3553.622
578.3562, 3542.442
578.8383, 3535.317
579.3204, 3534.534
579.8026, 3538.348
580.2847, 3547.940
580.7668, 3561.236
581.2489, 3564.337
581.7310, 3547.607
582.2131, 3535.235
582.6953, 3533.591
583.1774, 3535.724
583.6595, 3534.596
584.1416, 3530.974
584.6237, 3532.282
585.1058, 3545.973
585.5880, 3563.867
586.0701, 3565.298
586.5522, 3548.788
587.0343, 3526.274
587.5164, 3492.607
587.9985, 3464.006
588.4807, 3461.523
588.9628, 3480.121
589.4449, 3491.729
589.9270, 3485.745
590.4091, 3478.254
590.8912, 3479.937
591.3734, 3484.755
591.8555, 3481.754
592.3376, 3469.056
592.8197, 3454.364
593.3018, 3444.343
593.7839, 3439.326
594.2661, 3445.344
594.7482, 3472.078
595.2303, 3490.001
595.7124, 3480.753
596.1945, 3465.982
596.6766, 3465.257
597.1588, 3478.735
597.6409, 3487.829
598.1230, 3477.643
598.6051, 3464.471
599.0872, 3467.348
599.5693, 3481.859
600.0515, 3492.309
600.5336, 3492.978
601.0157, 3487.559
601.4978, 3478.845
601.9799, 3463.807
602.4620, 3467.571
602.9442, 3518.373
603.4263, 3553.978
603.9084, 3547.255
604.3905, 3524.370
604.8726, 3515.342
605.3547, 3525.842
605.8369, 3539.033
606.3190, 3542.624
606.8011, 3541.275
607.2832, 3543.627
607.7653, 3549.685
608.2474, 3555.275
608.7296, 3558.419
609.2117, 3560.530
609.6938, 3563.989
610.1759, 3568.862
610.6580, 3574.976
611.1401, 3583.600
611.6223, 3591.928
612.1044, 3595.884
612.5865, 3599.935
613.0686, 3612.419
613.5507, 3635.662
614.0328, 3658.615
614.5150, 3668.151
614.9971, 3668.580
615.4792, 3673.704
615.9613, 3684.280
616.4434, 3699.309
616.9255, 3720.272
617.4077, 3743.182
617.8898, 3758.395
618.3719, 3759.657
618.8540, 3770.226
619.3361, 3793.673
619.8182, 3824.020
620.3004, 3864.533
620.7825, 3907.806
621.2646, 3940.624
621.7467, 3958.077
622.2288, 3970.026
622.7109, 3986.884
623.1931, 4008.514
623.6752, 4036.096
624.1573, 4072.203
624.6394, 4102.180
625.1215, 4113.845
625.6036, 4116.812
626.0858, 4134.695
626.5679, 4173.351
627.0500, 4207.564
627.5321, 4233.989
628.0142, 4254.684
628.4963, 4268.345
628.9785, 4277.712
629.4606, 4289.698
629.9427, 4307.315
630.4248, 4320.318
630.9069, 4315.541
631.3890, 4293.297
631.8712, 4255.131
632.3533, 4196.916
632.8354, 4135.369
633.3175, 4073.929
633.7996, 4018.002
634.2817, 3980.286
634.7639, 3968.201
635.2460, 3950.253
635.7281, 3914.159
636.2102, 3875.812
636.6923, 3844.586
637.1744, 3820.398
637.6566, 3803.109
638.1387, 3792.545
638.6208, 3780.105
639.1029, 3749.841
639.5850, 3702.481
640.0671, 3667.502
640.5493, 3648.582
641.0314, 3634.879
641.5135, 3625.689
641.9956, 3615.786
642.4777, 3593.136
642.9598, 3552.126
643.4420, 3519.596
643.9241, 3505.729
644.4062, 3497.867
644.8883, 3485.095
645.3704, 3471.736
645.8525, 3471.917
646.3347, 3490.818
646.8168, 3509.586
647.2989, 3498.538
647.7810, 3459.854
648.2631, 3434.750
648.7452, 3428.149
649.2274, 3421.138
649.7095, 3402.570
650.1916, 3379.924
650.6737, 3366.911
651.1558, 3365.638
651.6379, 3362.735
652.1201, 3354.412
652.6022, 3345.299
653.0843, 3337.729
653.5664, 3331.614
654.0485, 3327.263
654.5306, 3324.524
655.0128, 3320.775
655.4949, 3311.312
655.9770, 3297.417
656.4591, 3287.862
656.9412, 3281.937
657.4233, 3285.160
657.9055, 3306.234
658.3876, 3331.136
658.8697, 3337.229
659.3518, 3323.195
659.8339, 3307.424
660.3160, 3286.647
660.7982, 3269.848
661.2803, 3263.781
661.7624, 3263.232
662.2445, 3261.324
662.7266, 3256.159
663.2087, 3249.159
663.6909, 3239.646
664.1730, 3229.856
664.6551, 3229.750
665.1372, 3240.362
665.6193, 3244.004
666.1014, 3232.279
666.5836, 3216.452
667.0657, 3209.447
667.5478, 3212.041
668.0299, 3216.725
668.5120, 3232.343
668.9941, 3239.165
669.4763, 3220.751
669.9584, 3197.327
670.4405, 3192.254
670.9226, 3206.092
671.4047, 3220.064
671.8868, 3219.343
672.3690, 3212.892
672.8511, 3223.595
673.3332, 3247.832
673.8153, 3246.736
674.2974, 3206.284
674.7795, 3162.702
675.2617, 3150.396
675.7438, 3166.610
676.2259, 3178.248
676.7080, 3180.886
677.1901, 3185.021
677.6722, 3192.229
678.1544, 3200.674
678.6365, 3213.658
679.1186, 3226.771
679.6007, 3226.711
680.0828, 3201.973
680.5649, 3174.661
681.0471, 3174.054
681.5292, 3189.523
682.0113, 3189.823
682.4934, 3170.818
682.9755, 3152.368
683.4576, 3148.371
683.9398, 3154.190
684.4219, 3155.675
684.9040, 3151.431
685.3861, 3145.743
685.8682, 3139.497
686.3503, 3130.912
686.8325, 3112.928
687.3146, 3093.878
687.7967, 3089.979
688.2788, 3107.876
688.7609, 3126.159
689.2430, 3130.498
689.7252, 3128.493
690.2073, 3130.525
690.6894, 3135.778
691.1715, 3137.769
691.6536, 3133.599
692.1357, 3124.976
692.6179, 3112.876
693.1000, 3096.023
693.5821, 3089.745
694.0642, 3097.228
694.5463, 3109.246
695.0284, 3132.352
695.5106, 3151.911
695.9927, 3145.148
696.4748, 3109.981
696.9569, 3090.760
697.4390, 3113.875
697.9211, 3141.851
698.4033, 3154.023
698.8854, 3154.059
699.3675, 3147.049
699.8496, 3135.363
700.3317, 3122.878
700.8138, 3112.203
701.2960, 3104.125
701.7781, 3102.643
702.2602, 3108.422
702.7423, 3111.732
703.2244, 3108.707
703.7065, 3106.166
704.1887, 3112.834
704.6708, 3127.077
705.1529, 3130.513
705.6350, 3112.946
706.1171, 3099.066
706.5992, 3096.454
707.0814, 3096.046
707.5635, 3089.707
708.0456, 3079.180
708.5277, 3070.505
709.0098, 3065.528
709.4919, 3067.247
709.9741, 3086.097
710.4562, 3113.874
710.9383, 3125.187
711.4204, 3117.749
711.9025, 3104.030
712.3846, 3090.199
712.8668, 3076.628
713.3489, 3063.494
713.8310, 3047.994
714.3131, 3041.780
714.7952, 3051.227
715.2773, 3062.694
715.7595, 3077.729
716.2416, 3089.131
716.7237, 3083.171
717.2058, 3057.477
717.6879, 3042.140
718.1700, 3060.486
718.6522, 3086.955
719.1343, 3103.003
719.6164, 3108.404
720.0985, 3099.766
720.5806, 3078.212
721.0627, 3061.333
721.5449, 3069.556
722.0270, 3095.385
722.5091, 3102.165
722.9912, 3086.692
723.4733, 3068.396
723.9554, 3047.501
724.4376, 3031.747
724.9197, 3030.957
725.4018, 3042.750
725.8839, 3048.764
726.3660, 3045.359
726.8481, 3040.937
727.3303, 3031.267
727.8124, 3025.990
728.2945, 3036.931
728.7766, 3058.366
729.2587, 3075.686
729.7408, 3082.631
730.2230, 3082.167
730.7051, 3069.815
731.1872, 3053.957
731.6693, 3063.258
732.1514, 3097.318
732.6335, 3117.490
733.1157, 3103.214
733.5978, 3073.894
734.0799, 3063.351
734.5620, 3076.741
735.0441, 3075.856
735.5262, 3042.529
736.0084, 3021.939
736.4905, 3038.918
736.9726, 3065.801
737.4547, 3077.368
737.9368, 3072.479
738.4189, 3062.809
738.9011, 3043.266
739.3832, 3029.531
739.8653, 3035.561
740.3474, 3051.337
740.8295, 3064.919
741.3116, 3073.300
741.7938, 3075.667
742.2759, 3070.448
742.7580, 3061.694
743.2401, 3057.976
743.7222, 3059.042
744.2043, 3059.900
744.6865, 3060.375
745.1686, 3057.606
745.6507, 3046.811
746.1328, 3034.009
746.6149, 3036.238
747.0970, 3066.635
747.5791, 3082.380
748.0612, 3071.647
748.5433, 3060.410
749.0255, 3062.447
749.5076, 3068.375
749.9897, 3061.861
750.4718, 3040.669
750.9539, 3027.281
751.4360, 3043.735
751.9182, 3066.512
752.4003, 3070.892
752.8824, 3062.262
753.3645, 3051.355
753.8466, 3041.925
754.3287, 3040.219
754.8109, 3054.443
755.2930, 3076.700
755.7751, 3076.055
756.2572, 3048.575
756.7393, 3027.076
757.2214, 3015.325
757.7036, 3013.452
758.1857, 3026.813
758.6678, 3049.295
759.1499, 3059.280
759.6320, 3051.758
760.1141, 3043.405
760.5963, 3028.905
761.0784, 3020.753
761.5605, 3031.071
762.0426, 3050.086
762.5247, 3063.220
763.0068, 3066.695
763.4890, 3064.352
763.9711, 3055.408
764.4532, 3044.554
764.9353, 3039.002
765.4174, 3036.896
765.8995, 3030.692
766.3817, 3018.831
766.8638, 3009.595
767.3459, 3011.616
767.8280, 3021.940
768.3101, 3027.804
768.7922, 3028.790
769.2744, 3026.265
769.7565, 3015.578
770.2386, 3010.745
770.7207, 3029.928
771.2028, 3061.483
771.6849, 3066.066
772.1671, 3024.289
772.6492, 2999.068
773.1313, 3012.753
773.6134, 3028.976
774.0955, 3030.155
774.5776, 3019.628
775.0598, 3000.922
775.5419, 2975.871
776.0240, 2957.865
776.5061, 2961.401
776.9882, 2973.356
777.4703, 2978.250
777.9525, 2977.183
778.4346, 2973.005
778.9167, 2966.739
779.3988, 2960.352
779.8809, 2955.645
780.3630, 2952.096
780.8452, 2945.586
781.3273, 2933.818
781.8094, 2938.260
782.2915, 2970.326
782.7736, 2999.323
783.2557, 3007.732
783.7379, 2998.843
784.2200, 2978.104
784.7021, 2935.247
785.1842, 2909.063
785.6663, 2917.882
786.1484, 2924.782
786.6306, 2906.677
787.1127, 2881.765
787.5948, 2874.784
788.0769, 2888.400
788.5590, 2903.692
789.0411, 2912.147
789.5233, 2915.952
790.0054, 2914.036
790.4875, 2910.107
790.9696, 2913.138
791.4517, 2922.927
791.9338, 2928.984
792.4160, 2923.757
792.8981, 2912.693
793.3802, 2906.725
793.8623, 2905.730
794.3444, 2906.215
794.8265, 2909.117
795.3087, 2906.672
795.7908, 2893.416
796.2729, 2875.015
796.7550, 2859.901
797.2371, 2846.646
797.7192, 2844.556
798.2014, 2860.777
798.6835, 2879.290
799.1656, 2907.163
799.6477, 2928.216
800.1298, 2922.347
800.6119, 2895.188
801.0941, 2876.846
801.5762, 2882.215
802.0583, 2889.493
802.5404, 2887.026
803.0225, 2880.687
803.5046, 2874.514
803.9868, 2870.433
804.4689, 2872.183
804.9510, 2881.407
805.4331, 2892.247
805.9152, 2902.428
806.3973, 2908.130
806.8795, 2890.327
807.3616, 2852.122
807.8437, 2832.109
808.3258, 2843.677
808.8079, 2868.788
809.2900, 2890.250
809.7722, 2907.769
810.2543, 2917.972
810.7364, 2917.492
811.2185, 2919.988
811.7006, 2932.118
812.1827, 2940.907
812.6649, 2933.374
813.1470, 2917.436
813.6291, 2912.253
814.1112, 2923.265
814.5933, 2930.148
815.0754, 2923.524
815.5576, 2919.177
816.0397, 2931.285
816.5218, 2946.901
817.0039, 2945.609
817.4860, 2926.678
817.9681, 2912.403
818.4503, 2918.809
818.9324, 2931.405
819.4145, 2934.635
819.8966, 2934.741
820.3787, 2944.027
820.8608, 2962.678
821.3430, 2982.251
821.8251, 2997.949
822.3072, 3011.387
822.7893, 3026.078
823.2714, 3041.404
823.7535, 3050.570
824.2357, 3052.500
824.7178, 3059.052
825.1999, 3074.816
825.6820, 3097.094
826.1641, 3123.619
826.6462, 3154.240
827.1284, 3182.398
827.6105, 3204.329
828.0926, 3230.990
828.5747, 3269.466
829.0568, 3307.736
829.5389, 3333.579
830.0211, 3354.568
830.5032, 3390.942
830.9853, 3453.699
831.4674, 3505.223
831.9495, 3523.695
832.4316, 3541.894
832.9138, 3584.783
833.3959, 3637.493
833.8780, 3679.573
834.3601, 3706.659
834.8422, 3722.845
835.3243, 3732.335
835.8065, 3730.312
836.2886, 3706.117
836.7707, 3668.715
837.2528, 3637.145
837.7349, 3611.637
838.2170, 3576.996
838.6992, 3524.299
839.1813, 3463.770
839.6634, 3412.181
840.1455, 3368.199
840.6276, 3317.765
841.1097, 3259.991
841.5919, 3205.700
842.0740, 3157.998
842.5561, 3116.729
843.0382, 3081.589
843.5203, 3052.437
844.0024, 3026.422
844.4846, 3004.829
844.9667, 2983.072
845.4488, 2958.714
845.9309, 2936.335
846.4130, 2917.236
846.8951, 2902.410
847.3773, 2894.629
847.8594, 2895.491
848.3415, 2897.060
848.8236, 2907.782
849.3057, 2907.733
849.7878, 2877.566
850.2700, 2839.329
850.7521, 2814.925
851.2342, 2806.760
851.7163, 2809.518
852.1984, 2828.256
852.6805, 2843.158
853.1627, 2838.660
853.6448, 2822.773
854.1269, 2797.386
854.6090, 2770.408
855.0911, 2763.684
855.5732, 2784.903
856.0554, 2808.334
856.5375, 2801.874
857.0196, 2778.645
857.5017, 2771.462
857.9838, 2778.023
858.4659, 2785.377
858.9481, 2790.573
859.4302, 2798.330
859.9123, 2814.067
860.3944, 2829.906
860.8765, 2820.771
861.3586, 2782.707
861.8408, 2755.837
862.3229, 2742.684
862.8050, 2738.497
863.2871, 2743.566
863.7692, 2753.464
864.2513, 2764.063
864.7335, 2775.822
865.2156, 2777.075
865.6977, 2758.258
866.1798, 2743.554
866.6619, 2729.924
867.1440, 2726.675
867.6262, 2752.393
868.1083, 2789.906
868.5904, 2798.605
869.0725, 2763.455
869.5546, 2739.583
870.0367, 2750.945
870.5189, 2767.010
871.0010, 2772.843
871.4831, 2772.737
871.9652, 2771.657
872.4473, 2771.043
872.9294, 2772.554
873.4116, 2779.149
873.8937, 2783.807
874.3758, 2779.247
874.8579, 2770.372
875.3400, 2763.193
875.8221, 2757.922
876.3043, 2753.502
876.7864, 2749.398
877.2685, 2744.318
877.7506, 2735.821
878.2327, 2726.083
878.7148, 2719.605
879.1970, 2716.272
879.6791, 2715.338
880.1612, 2716.716
880.6433, 2722.715
881.1254, 2735.911
881.6075, 2749.809
882.0897, 2747.362
882.5718, 2727.838
883.0539, 2726.035
883.5360, 2746.675
884.0181, 2760.170
884.5002, 2754.061
884.9824, 2742.850
885.4645, 2742.672
885.9466, 2751.810
886.4287, 2754.831
886.9108, 2745.622
887.3929, 2744.692
887.8751, 2761.842
888.3572, 2776.180
888.8393, 2776.097
889.3214, 2766.984
889.8035, 2756.173
890.2856, 2742.717
890.7678, 2734.971
891.2499, 2737.051
891.7320, 2740.292
892.2141, 2743.409
892.6962, 2745.971
893.1783, 2748.134
893.6605, 2749.475
894.1426, 2749.240
894.6247, 2747.701
895.1068, 2742.803
895.5889, 2728.251
896.0710, 2715.608
896.5532, 2715.622
897.0353, 2721.632
897.5174, 2722.661
897.9995, 2718.094
898.4816, 2716.377
898.9637, 2723.232
899.4459, 2732.390
899.9280, 2742.762
900.4101, 2748.930
900.8922, 2735.408
901.3743, 2710.523
901.8564, 2703.812
902.3386, 2724.444
902.8207, 2748.465
903.3028, 2751.140
903.7849, 2742.686
904.2670, 2743.669
904.7491, 2751.905
905.2313, 2760.639
905.7134, 2768.234
906.1955, 2770.192
906.6776, 2763.537
907.1597, 2753.261
907.6418, 2747.984
908.1240, 2747.006
908.6061, 2740.418
909.0882, 2727.617
909.5703, 2724.501
910.0524, 2737.506
910.5345, 2747.613
911.0167, 2737.083
911.4988, 2713.900
911.9809, 2705.553
912.4630, 2717.165
912.9451, 2717.520
913.4272, 2697.614
913.9094, 2689.670
914.3915, 2713.280
914.8736, 2743.713
915.3557, 2752.145
915.8378, 2739.820
916.3199, 2727.719
916.8021, 2708.970
917.2842, 2703.088
917.7663, 2724.420
918.2484, 2743.550
918.7305, 2741.408
919.2126, 2730.493
919.6948, 2731.427
920.1769, 2746.698
920.6590, 2750.988
921.1411, 2732.235
921.6232, 2715.548
922.1053, 2701.817
922.5875, 2697.127
923.0696, 2711.833
923.5517, 2737.546
924.0338, 2755.433
924.5159, 2761.082
924.9980, 2764.506
925.4802, 2772.474
925.9623, 2775.226
926.4444, 2760.337
926.9265, 2742.233
927.4086, 2740.005
927.8907, 2750.610
928.3729, 2754.778
928.8550, 2742.550
929.3371, 2732.337
929.8192, 2736.860
930.3013, 2747.562
930.7834, 2760.745
931.2656, 2772.272
931.7477, 2774.609
932.2298, 2767.846
932.7119, 2761.233
933.1940, 2761.375
933.6761, 2761.288
934.1583, 2750.919
934.6404, 2737.301
935.1225, 2732.538
935.6046, 2734.601
936.0867, 2735.329
936.5688, 2732.035
937.0510, 2726.256
937.5331, 2717.461
938.0152, 2709.808
938.4973, 2712.372
938.9794, 2721.403
939.4615, 2725.895
939.9437, 2725.688
940.4258, 2728.770
940.9079, 2738.651
941.3900, 2747.385
941.8721, 2743.227
942.3542, 2731.956
942.8364, 2735.157
943.3185, 2749.667
943.8006, 2751.794
944.2827, 2738.101
944.7648, 2724.814
945.2469, 2721.646
945.7290, 2722.261
946.2111, 2714.432
946.6932, 2700.173
947.1754, 2701.304
947.6575, 2718.588
948.1396, 2726.750
948.6217, 2718.985
949.1038, 2712.072
949.5859, 2719.460
950.0681, 2731.648
950.5502, 2724.103
951.0323, 2694.069
951.5144, 2681.470
951.9965, 2690.762
952.4786, 2694.313
952.9608, 2682.104
953.4429, 2668.903
953.9250, 2667.215
954.4071, 2674.622
954.8892, 2684.071
955.3713, 2698.437
955.8535, 2702.373
956.3356, 2690.605
956.8177, 2681.682
957.2998, 2681.437
957.7819, 2687.405
958.2640, 2699.320
958.7462, 2715.190
959.2283, 2723.475
959.7104, 2722.169
960.1925, 2717.587
960.6746, 2706.464
961.1567, 2697.851
961.6389, 2695.860
962.1210, 2697.466
962.6031, 2700.306
963.0852, 2704.085
963.5673, 2704.429
964.0494, 2695.169
964.5316, 2692.993
965.0137, 2705.897
965.4958, 2717.113
965.9779, 2713.714
966.4600, 2708.218
966.9421, 2722.140
967.4243, 2755.335
967.9064, 2766.486
968.3885, 2740.087
968.8706, 2712.889
969.3527, 2673.132
969.8348, 2650.465
970.3170, 2671.620
970.7991, 2713.357
971.2812, 2746.451
971.7633, 2769.311
972.2454, 2773.252
972.7275, 2737.224
973.2097, 2710.683
973.6918, 2707.765
974.1739, 2713.005
974.6560, 2718.558
975.1381, 2724.814
975.6202, 2734.824
976.1024, 2749.292
976.5845, 2758.034
977.0666, 2750.866
977.5487, 2748.787
978.0308, 2759.744
978.5129, 2776.291
978.9951, 2800.775
979.4772, 2823.983
979.9593, 2826.814
980.4414, 2804.946
980.9235, 2788.510
981.4056, 2788.783
981.8878, 2792.054
982.3699, 2794.939
982.8520, 2797.118
983.3341, 2796.043
983.8162, 2794.858
984.2983, 2801.897
984.7805, 2819.756
985.2626, 2831.136
985.7447, 2825.315
986.2268, 2817.688
986.7089, 2812.956
987.1910, 2811.347
987.6732, 2816.047
988.1553, 2823.087
988.6374, 2824.439
989.1195, 2818.296
989.6016, 2806.330
990.0837, 2776.947
990.5659, 2756.845
991.0480, 2767.501
991.5301, 2787.381
992.0122, 2797.930
992.4943, 2799.630
992.9764, 2798.212
993.4586, 2794.762
993.9407, 2792.319
994.4228, 2793.155
994.9049, 2794.188
995.3870, 2791.209
995.8691, 2789.618
996.3513, 2799.010
996.8334, 2813.625
997.3155, 2817.258
997.7976, 2804.531
998.2797, 2793.321
998.7618, 2788.336
999.2440, 2791.067
999.7261, 2810.541
1000.208, 2831.761
1000.690, 2835.725
1001.172, 2828.895
1001.655, 2830.924
1002.137, 2847.602
1002.619, 2865.959
1003.101, 2888.181
1003.583, 2900.699
1004.065, 2884.266
1004.547, 2863.647
1005.029, 2865.795
1005.511, 2885.177
1005.994, 2901.284
1006.476, 2908.255
1006.958, 2920.737
1007.440, 2950.527
1007.922, 2981.253
1008.404, 2997.484
1008.886, 3015.511
1009.368, 3053.930
1009.851, 3106.899
1010.333, 3156.454
1010.815, 3197.583
1011.297, 3245.807
1011.779, 3307.831
1012.261, 3378.267
1012.743, 3450.982
1013.225, 3534.023
1013.707, 3640.709
1014.190, 3762.149
1014.672, 3874.902
1015.154, 3972.376
1015.636, 4089.264
1016.118, 4251.331
1016.600, 4419.719
1017.082, 4562.304
1017.564, 4717.624
1018.047, 4925.252
1018.529, 5169.649
1019.011, 5413.887
1019.493, 5650.917
1019.975, 5893.258
1020.457, 6151.354
1020.939, 6406.980
1021.421, 6674.491
1021.903, 6914.914
1022.386, 7123.236
1022.868, 7273.932
1023.350, 7329.977
1023.832, 7285.087
1024.314, 7158.365
1024.796, 6931.159
1025.278, 6656.724
1025.760, 6312.456
1026.243, 5965.154
1026.725, 5654.217
1027.207, 5373.804
1027.689, 5107.695
1028.171, 4855.685
1028.653, 4642.125
1029.135, 4459.110
1029.617, 4333.876
1030.099, 4296.878
1030.582, 4290.999
1031.064, 4277.659
1031.546, 4280.278
1032.028, 4337.157
1032.510, 4447.529
1032.992, 4563.976
1033.474, 4671.501
1033.956, 4800.142
1034.438, 4950.196
1034.921, 5124.856
1035.403, 5340.578
1035.885, 5570.070
1036.367, 5776.890
1036.849, 5965.238
1037.331, 6173.684
1037.813, 6419.833
1038.295, 6657.148
1038.778, 6906.543
1039.260, 7118.657
1039.742, 7315.824
1040.224, 7436.069
1040.706, 7419.231
1041.188, 7275.874
1041.670, 7049.846
1042.152, 6718.978
1042.635, 6356.317
1043.117, 5939.771
1043.599, 5533.667
1044.081, 5147.123
1044.563, 4788.741
1045.045, 4459.833
1045.527, 4168.064
1046.009, 3934.729
1046.491, 3770.118
1046.974, 3616.656
1047.456, 3470.655
1047.938, 3346.675
1048.420, 3252.364
1048.902, 3169.349
1049.384, 3081.031
1049.866, 3001.302
1050.348, 2962.582
1050.830, 2966.913
1051.313, 2949.977
1051.795, 2907.202
1052.277, 2866.709
1052.759, 2832.448
1053.241, 2806.061
1053.723, 2788.517
1054.205, 2779.775
1054.687, 2781.810
1055.169, 2792.306
1055.652, 2794.827
1056.134, 2789.394
1056.616, 2770.741
1057.098, 2737.406
1057.580, 2711.806
1058.062, 2704.076
1058.544, 2706.756
1059.026, 2713.336
1059.509, 2720.866
1059.991, 2721.516
1060.473, 2715.088
1060.955, 2696.137
1061.437, 2666.481
1061.919, 2646.155
1062.401, 2641.558
1062.883, 2639.193
1063.365, 2625.960
1063.848, 2613.574
1064.330, 2628.990
1064.812, 2659.943
1065.294, 2674.633
1065.776, 2674.162
1066.258, 2667.583
1066.740, 2657.774
1067.222, 2645.539
1067.704, 2630.812
1068.187, 2616.865
1068.669, 2603.093
1069.151, 2595.678
1069.633, 2612.002
1070.115, 2638.320
1070.597, 2645.817
1071.079, 2634.667
1071.561, 2623.586
1072.044, 2620.426
1072.526, 2620.208
1073.008, 2621.979
1073.490, 2622.071
1073.972, 2615.611
1074.454, 2606.837
1074.936, 2596.898
1075.418, 2590.134
1075.901, 2597.595
1076.383, 2621.313
1076.865, 2639.899
1077.347, 2642.873
1077.829, 2639.124
1078.311, 2625.302
1078.793, 2614.083
1079.275, 2622.374
1079.757, 2635.873
1080.240, 2628.053
1080.722, 2599.574
1081.204, 2583.539
1081.686, 2587.932
1082.168, 2604.113
1082.650, 2652.886
1083.132, 2685.901
1083.614, 2665.351
1084.096, 2631.652
1084.579, 2625.878
1085.061, 2642.993
1085.543, 2657.312
1086.025, 2670.069
1086.507, 2675.089
1086.989, 2664.126
1087.471, 2660.647
1087.953, 2676.542
1088.436, 2689.840
1088.918, 2680.308
1089.400, 2664.106
1089.882, 2675.347
1090.364, 2715.266
1090.846, 2743.747
1091.328, 2760.910
1091.810, 2763.162
1092.292, 2745.615
1092.775, 2733.969
1093.257, 2740.816
1093.739, 2758.471
1094.221, 2779.165
1094.703, 2800.956
1095.185, 2816.204
1095.667, 2825.254
1096.149, 2829.822
1096.631, 2830.873
1097.114, 2843.363
1097.596, 2871.420
1098.078, 2898.347
1098.560, 2912.364
1099.042, 2912.513
1099.524, 2888.031
1100.006, 2852.496
1100.488, 2841.120
1100.971, 2847.473
1101.453, 2854.566
1101.935, 2856.384
1102.417, 2842.084
1102.899, 2806.044
1103.381, 2772.044
1103.863, 2765.727
1104.345, 2768.234
1104.828, 2763.477
1105.310, 2752.582
1105.792, 2733.236
1106.274, 2710.512
1106.756, 2695.004
1107.238, 2688.842
1107.720, 2685.316
1108.202, 2682.434
1108.684, 2679.707
1109.167, 2679.224
1109.649, 2676.296
1110.131, 2663.564
1110.613, 2649.388
1111.095, 2645.586
1111.577, 2650.613
1112.059, 2652.362
1112.541, 2646.445
1113.023, 2644.711
1113.506, 2652.076
1113.988, 2658.615
1114.470, 2661.461
1114.952, 2663.301
1115.434, 2667.628
1115.916, 2670.934
1116.398, 2666.149
1116.880, 2653.096
1117.363, 2637.079
1117.845, 2613.535
1118.327, 2605.731
1118.809, 2618.895
1119.291, 2639.718
1119.773, 2665.790
1120.255, 2681.545
1120.737, 2666.768
1121.219, 2634.971
1121.702, 2630.728
1122.184, 2650.052
1122.666, 2655.027
1123.148, 2645.977
1123.630, 2643.072
1124.112, 2650.235
1124.594, 2651.826
1125.076, 2637.413
1125.558, 2621.595
1126.041, 2625.289
1126.523, 2637.839
1127.005, 2639.324
1127.487, 2636.546
1127.969, 2648.709
1128.451, 2668.778
1128.933, 2667.247
1129.415, 2637.216
1129.898, 2611.052
1130.380, 2609.305
1130.862, 2614.910
1131.344, 2622.282
1131.826, 2626.919
1132.308, 2621.250
1132.790, 2613.142
1133.272, 2612.162
1133.755, 2619.003
1134.237, 2632.109
1134.719, 2655.859
1135.201, 2670.617
1135.683, 2670.616
1136.165, 2665.094
1136.647, 2652.652
1137.129, 2639.516
1137.611, 2628.012
1138.094, 2619.243
1138.576, 2615.773
1139.058, 2617.431
1139.540, 2616.316
1140.022, 2609.020
1140.504, 2617.036
1140.986, 2646.845
1141.468, 2665.582
1141.950, 2659.843
1142.433, 2650.942
1142.915, 2658.359
1143.397, 2672.676
1143.879, 2670.494
1144.361, 2657.424
1144.843, 2662.747
1145.325, 2682.225
1145.807, 2696.335
1146.290, 2701.176
1146.772, 2694.849
1147.254, 2676.973
1147.736, 2664.209
1148.218, 2678.763
1148.700, 2695.866
1149.182, 2684.245
1149.664, 2662.274
1150.146, 2648.560
1150.629, 2644.390
1151.111, 2653.504
1151.593, 2671.763
1152.075, 2677.549
1152.557, 2656.283
1153.039, 2645.394
1153.521, 2669.160
1154.003, 2691.103
1154.485, 2699.160
1154.968, 2696.351
1155.450, 2673.748
1155.932, 2647.434
1156.414, 2652.010
1156.896, 2688.693
1157.378, 2708.549
1157.860, 2706.405
1158.342, 2701.492
1158.825, 2692.781
1159.307, 2690.242
1159.789, 2698.820
1160.271, 2709.770
1160.753, 2716.425
1161.235, 2717.302
1161.717, 2705.653
1162.199, 2684.665
1162.682, 2674.562
1163.164, 2674.000
1163.646, 2676.398
1164.128, 2679.959
1164.610, 2683.591
1165.092, 2686.404
1165.574, 2680.772
1166.056, 2652.942
1166.538, 2626.762
1167.021, 2631.998
1167.503, 2649.670
1167.985, 2661.417
1168.467, 2667.781
1168.949, 2671.535
1169.431, 2673.635
1169.913, 2673.751
1170.395, 2669.139
1170.877, 2675.565
1171.360, 2708.260
1171.842, 2737.572
1172.324, 2751.043
1172.806, 2762.263
1173.288, 2783.907
1173.770, 2804.337
1174.252, 2803.829
1174.734, 2787.213
1175.217, 2792.781
1175.699, 2827.589
1176.181, 2848.993
1176.663, 2854.503
1177.145, 2855.041
1177.627, 2852.941
1178.109, 2852.922
1178.591, 2858.541
1179.073, 2863.117
1179.556, 2855.440
1180.038, 2841.323
1180.520, 2835.856
1181.002, 2835.487
1181.484, 2828.528
1181.966, 2818.939
1182.448, 2824.271
1182.930, 2845.696
1183.412, 2861.708
1183.895, 2859.099
1184.377, 2857.450
1184.859, 2870.583
1185.341, 2887.096
1185.823, 2900.940
1186.305, 2913.446
1186.787, 2927.542
1187.269, 2941.000
1187.752, 2943.549
1188.234, 2933.544
1188.716, 2953.478
1189.198, 3025.639
1189.680, 3080.033
1190.162, 3108.984
1190.644, 3132.216
1191.126, 3154.293
1191.609, 3178.118
1192.091, 3206.275
1192.573, 3236.399
1193.055, 3261.309
1193.537, 3284.839
1194.019, 3332.390
1194.501, 3396.036
1194.983, 3440.017
1195.465, 3462.277
1195.948, 3472.751
1196.430, 3476.143
1196.912, 3480.952
1197.394, 3494.155
1197.876, 3504.574
1198.358, 3509.597
1198.840, 3499.761
1199.322, 3459.384
1199.804, 3405.855
1200.287, 3352.629
1200.769, 3303.925
1201.251, 3264.544
1201.733, 3235.315
1202.215, 3206.173
1202.697, 3175.115
1203.179, 3144.614
1203.661, 3106.155
1204.144, 3086.916
1204.626, 3103.043
1205.108, 3121.896
1205.590, 3116.823
1206.072, 3102.844
1206.554, 3110.187
1207.036, 3133.487
1207.518, 3139.255
1208.000, 3131.537
1208.483, 3140.011
1208.965, 3161.469
1209.447, 3161.498
1209.929, 3132.710
1210.411, 3102.887
1210.893, 3090.264
1211.375, 3075.040
1211.857, 3037.622
1212.339, 2992.881
1212.822, 2948.890
1213.304, 2907.761
1213.786, 2869.426
1214.268, 2835.937
1214.750, 2813.905
1215.232, 2803.045
1215.714, 2784.997
1216.196, 2744.327
1216.679, 2725.034
1217.161, 2740.623
1217.643, 2746.236
1218.125, 2727.563
1218.607, 2706.556
1219.089, 2697.377
1219.571, 2692.273
1220.053, 2680.192
1220.536, 2662.649
1221.018, 2638.620
1221.500, 2614.117
1221.982, 2618.276
1222.464, 2642.676
1222.946, 2651.345
1223.428, 2639.913
1223.910, 2631.681
1224.392, 2637.766
1224.875, 2642.169
1225.357, 2629.590
1225.839, 2618.232
1226.321, 2619.151
1226.803, 2625.175
1227.285, 2637.352
1227.767, 2646.843
1228.249, 2637.105
1228.731, 2614.061
1229.214, 2607.449
1229.696, 2622.832
1230.178, 2623.948
1230.660, 2605.144
1231.142, 2600.637
1231.624, 2618.025
1232.106, 2627.995
1232.588, 2617.488
1233.071, 2600.927
1233.553, 2591.446
1234.035, 2585.456
1234.517, 2575.765
1234.999, 2566.199
1235.481, 2562.443
1235.963, 2564.686
##END=



