##NAMES=Kalicinite
##RRUFFID=R130026
##IDEAL CHEMISTRY=KH(CO_3_)
##LOCALITY=Lab-grown by bacteria in 15% potassium carbonate
##OWNER=RRUFF
##SOURCE=Dr. Flavia Pinzari
##DESCRIPTION=Colorless prismatic or elongated tabular crystals with striations parallel to the elongated direction.
##STATUS=The identification of this mineral has been confirmed only by single crystal X-ray diffraction.
##URL=rruff.info/R130026
8.975323e+001, 0.000000e+000
9.023535e+001, 7.202745e+002
9.071747e+001, 7.145941e+002
9.119958e+001, 7.098168e+002
9.168170e+001, 7.180146e+002
9.216382e+001, 7.249258e+002
9.264594e+001, 7.293574e+002
9.312805e+001, 7.334985e+002
9.361017e+001, 7.385021e+002
9.409229e+001, 7.419958e+002
9.457440e+001, 7.419903e+002
9.505651e+001, 7.437900e+002
9.553863e+001, 7.469872e+002
9.602074e+001, 7.523850e+002
9.650286e+001, 7.607879e+002
9.698498e+001, 7.719904e+002
9.746709e+001, 7.841135e+002
9.794921e+001, 7.983431e+002
9.843133e+001, 8.134534e+002
9.891344e+001, 8.316186e+002
9.939556e+001, 8.535001e+002
9.987768e+001, 8.786322e+002
1.003598e+002, 9.060557e+002
1.008419e+002, 9.356711e+002
1.013240e+002, 9.673650e+002
1.018061e+002, 9.990903e+002
1.022883e+002, 1.033204e+003
1.027704e+002, 1.065946e+003
1.032525e+002, 1.094351e+003
1.037346e+002, 1.118828e+003
1.042167e+002, 1.137672e+003
1.046988e+002, 1.148315e+003
1.051810e+002, 1.152731e+003
1.056631e+002, 1.152560e+003
1.061452e+002, 1.147240e+003
1.066273e+002, 1.137670e+003
1.071094e+002, 1.127409e+003
1.075915e+002, 1.115408e+003
1.080737e+002, 1.103919e+003
1.085558e+002, 1.095109e+003
1.090379e+002, 1.087723e+003
1.095200e+002, 1.078991e+003
1.100021e+002, 1.066951e+003
1.104842e+002, 1.052051e+003
1.109664e+002, 1.031365e+003
1.114485e+002, 1.004450e+003
1.119306e+002, 9.728304e+002
1.124127e+002, 9.357488e+002
1.128948e+002, 8.938672e+002
1.133769e+002, 8.490207e+002
1.138591e+002, 8.040992e+002
1.143412e+002, 7.569874e+002
1.148233e+002, 7.133142e+002
1.153054e+002, 6.729210e+002
1.157875e+002, 6.356049e+002
1.162696e+002, 6.010027e+002
1.167517e+002, 5.688426e+002
1.172339e+002, 5.394919e+002
1.177160e+002, 5.147027e+002
1.181981e+002, 4.945500e+002
1.186802e+002, 4.770463e+002
1.191623e+002, 4.621718e+002
1.196444e+002, 4.496312e+002
1.201266e+002, 4.385476e+002
1.206087e+002, 4.287094e+002
1.210908e+002, 4.202814e+002
1.215729e+002, 4.129589e+002
1.220550e+002, 4.068423e+002
1.225371e+002, 4.016411e+002
1.230193e+002, 3.972479e+002
1.235014e+002, 3.936725e+002
1.239835e+002, 3.907154e+002
1.244656e+002, 3.884672e+002
1.249477e+002, 3.867658e+002
1.254298e+002, 3.854719e+002
1.259120e+002, 3.844061e+002
1.263941e+002, 3.839140e+002
1.268762e+002, 3.849188e+002
1.273583e+002, 3.882833e+002
1.278404e+002, 3.918278e+002
1.283225e+002, 3.945104e+002
1.288047e+002, 3.970116e+002
1.292868e+002, 4.002294e+002
1.297689e+002, 4.047639e+002
1.302510e+002, 4.105493e+002
1.307331e+002, 4.166266e+002
1.312152e+002, 4.231428e+002
1.316974e+002, 4.298795e+002
1.321795e+002, 4.373420e+002
1.326616e+002, 4.450703e+002
1.331437e+002, 4.522033e+002
1.336258e+002, 4.582162e+002
1.341079e+002, 4.633761e+002
1.345901e+002, 4.647902e+002
1.350722e+002, 4.624657e+002
1.355543e+002, 4.573053e+002
1.360364e+002, 4.492357e+002
1.365185e+002, 4.385016e+002
1.370006e+002, 4.261425e+002
1.374828e+002, 4.132023e+002
1.379649e+002, 3.994100e+002
1.384470e+002, 3.861968e+002
1.389291e+002, 3.732923e+002
1.394112e+002, 3.610982e+002
1.398933e+002, 3.500427e+002
1.403755e+002, 3.402657e+002
1.408576e+002, 3.316666e+002
1.413397e+002, 3.245357e+002
1.418218e+002, 3.187234e+002
1.423039e+002, 3.132350e+002
1.427860e+002, 3.075166e+002
1.432681e+002, 3.017664e+002
1.437503e+002, 2.966462e+002
1.442324e+002, 2.922832e+002
1.447145e+002, 2.887406e+002
1.451966e+002, 2.860569e+002
1.456787e+002, 2.842262e+002
1.461608e+002, 2.826113e+002
1.466430e+002, 2.806564e+002
1.471251e+002, 2.783114e+002
1.476072e+002, 2.760812e+002
1.480893e+002, 2.737039e+002
1.485714e+002, 2.716959e+002
1.490535e+002, 2.705320e+002
1.495357e+002, 2.702803e+002
1.500178e+002, 2.703992e+002
1.504999e+002, 2.699715e+002
1.509820e+002, 2.683244e+002
1.514641e+002, 2.676605e+002
1.519462e+002, 2.686509e+002
1.524284e+002, 2.702280e+002
1.529105e+002, 2.715433e+002
1.533926e+002, 2.722767e+002
1.538747e+002, 2.727376e+002
1.543568e+002, 2.736992e+002
1.548389e+002, 2.756387e+002
1.553211e+002, 2.775624e+002
1.558032e+002, 2.792646e+002
1.562853e+002, 2.809692e+002
1.567674e+002, 2.829130e+002
1.572495e+002, 2.852114e+002
1.577316e+002, 2.878511e+002
1.582138e+002, 2.908192e+002
1.586959e+002, 2.941690e+002
1.591780e+002, 2.977259e+002
1.596601e+002, 3.012314e+002
1.601422e+002, 3.048867e+002
1.606243e+002, 3.091870e+002
1.611065e+002, 3.144338e+002
1.615886e+002, 3.205580e+002
1.620707e+002, 3.268766e+002
1.625528e+002, 3.332198e+002
1.630349e+002, 3.398569e+002
1.635170e+002, 3.467932e+002
1.639991e+002, 3.540645e+002
1.644813e+002, 3.619157e+002
1.649634e+002, 3.706116e+002
1.654455e+002, 3.800478e+002
1.659276e+002, 3.898347e+002
1.664097e+002, 3.997115e+002
1.668918e+002, 4.101590e+002
1.673740e+002, 4.218514e+002
1.678561e+002, 4.349611e+002
1.683382e+002, 4.484037e+002
1.688203e+002, 4.608512e+002
1.693024e+002, 4.733207e+002
1.697845e+002, 4.873690e+002
1.702667e+002, 5.039196e+002
1.707488e+002, 5.221378e+002
1.712309e+002, 5.400339e+002
1.717130e+002, 5.570830e+002
1.721951e+002, 5.748356e+002
1.726772e+002, 5.939284e+002
1.731594e+002, 6.140693e+002
1.736415e+002, 6.350516e+002
1.741236e+002, 6.568348e+002
1.746057e+002, 6.792820e+002
1.750878e+002, 7.012728e+002
1.755699e+002, 7.223099e+002
1.760521e+002, 7.434716e+002
1.765342e+002, 7.655255e+002
1.770163e+002, 7.878729e+002
1.774984e+002, 8.093066e+002
1.779805e+002, 8.290915e+002
1.784626e+002, 8.472604e+002
1.789448e+002, 8.640670e+002
1.794269e+002, 8.804903e+002
1.799090e+002, 8.946652e+002
1.803911e+002, 9.061211e+002
1.808732e+002, 9.147967e+002
1.813553e+002, 9.206829e+002
1.818375e+002, 9.238486e+002
1.823196e+002, 9.243375e+002
1.828017e+002, 9.207139e+002
1.832838e+002, 9.129919e+002
1.837659e+002, 9.022695e+002
1.842480e+002, 8.888646e+002
1.847301e+002, 8.729009e+002
1.852123e+002, 8.544607e+002
1.856944e+002, 8.335443e+002
1.861765e+002, 8.097621e+002
1.866586e+002, 7.851169e+002
1.871407e+002, 7.593683e+002
1.876228e+002, 7.331908e+002
1.881050e+002, 7.067618e+002
1.885871e+002, 6.802620e+002
1.890692e+002, 6.542286e+002
1.895513e+002, 6.291907e+002
1.900334e+002, 6.052661e+002
1.905155e+002, 5.820829e+002
1.909977e+002, 5.594584e+002
1.914798e+002, 5.377574e+002
1.919619e+002, 5.173546e+002
1.924440e+002, 4.983133e+002
1.929261e+002, 4.803017e+002
1.934082e+002, 4.631672e+002
1.938904e+002, 4.467810e+002
1.943725e+002, 4.312513e+002
1.948546e+002, 4.165155e+002
1.953367e+002, 4.026243e+002
1.958188e+002, 3.896642e+002
1.963009e+002, 3.777475e+002
1.967831e+002, 3.666049e+002
1.972652e+002, 3.560766e+002
1.977473e+002, 3.460294e+002
1.982294e+002, 3.364273e+002
1.987115e+002, 3.269724e+002
1.991936e+002, 3.178244e+002
1.996758e+002, 3.098839e+002
2.001579e+002, 3.038427e+002
2.006400e+002, 2.981073e+002
2.011221e+002, 2.916903e+002
2.016042e+002, 2.848610e+002
2.020863e+002, 2.783785e+002
2.025685e+002, 2.727888e+002
2.030506e+002, 2.680458e+002
2.035327e+002, 2.635990e+002
2.040148e+002, 2.597921e+002
2.044969e+002, 2.559617e+002
2.049790e+002, 2.517270e+002
2.054612e+002, 2.472673e+002
2.059433e+002, 2.429974e+002
2.064254e+002, 2.393185e+002
2.069075e+002, 2.362628e+002
2.073896e+002, 2.331682e+002
2.078717e+002, 2.298088e+002
2.083539e+002, 2.266151e+002
2.088360e+002, 2.238192e+002
2.093181e+002, 2.213382e+002
2.098002e+002, 2.189315e+002
2.102823e+002, 2.163783e+002
2.107644e+002, 2.136704e+002
2.112466e+002, 2.110309e+002
2.117287e+002, 2.082604e+002
2.122108e+002, 2.057371e+002
2.126929e+002, 2.036812e+002
2.131750e+002, 2.020324e+002
2.136571e+002, 2.005376e+002
2.141393e+002, 1.989676e+002
2.146214e+002, 1.972881e+002
2.151035e+002, 1.957824e+002
2.155856e+002, 1.945728e+002
2.160677e+002, 1.933842e+002
2.165498e+002, 1.920383e+002
2.170320e+002, 1.905643e+002
2.175141e+002, 1.891148e+002
2.179962e+002, 1.878343e+002
2.184783e+002, 1.867436e+002
2.189604e+002, 1.857174e+002
2.194425e+002, 1.850239e+002
2.199247e+002, 1.841700e+002
2.204068e+002, 1.826244e+002
2.208889e+002, 1.804766e+002
2.213710e+002, 1.785201e+002
2.218531e+002, 1.775456e+002
2.223352e+002, 1.776263e+002
2.228174e+002, 1.771114e+002
2.232995e+002, 1.755873e+002
2.237816e+002, 1.737805e+002
2.242637e+002, 1.722112e+002
2.247458e+002, 1.709054e+002
2.252279e+002, 1.696527e+002
2.257100e+002, 1.682818e+002
2.261922e+002, 1.668124e+002
2.266743e+002, 1.653857e+002
2.271564e+002, 1.639416e+002
2.276385e+002, 1.625894e+002
2.281206e+002, 1.615088e+002
2.286027e+002, 1.607184e+002
2.290849e+002, 1.599328e+002
2.295670e+002, 1.589812e+002
2.300491e+002, 1.578752e+002
2.305312e+002, 1.566412e+002
2.310133e+002, 1.549771e+002
2.314954e+002, 1.533599e+002
2.319776e+002, 1.524670e+002
2.324597e+002, 1.524066e+002
2.329418e+002, 1.523103e+002
2.334239e+002, 1.513999e+002
2.339060e+002, 1.501333e+002
2.343881e+002, 1.492350e+002
2.348703e+002, 1.491207e+002
2.353524e+002, 1.492538e+002
2.358345e+002, 1.487993e+002
2.363166e+002, 1.475734e+002
2.367987e+002, 1.465138e+002
2.372808e+002, 1.464343e+002
2.377630e+002, 1.466868e+002
2.382451e+002, 1.465344e+002
2.387272e+002, 1.456542e+002
2.392093e+002, 1.444124e+002
2.396914e+002, 1.433762e+002
2.401735e+002, 1.425793e+002
2.406557e+002, 1.418714e+002
2.411378e+002, 1.412165e+002
2.416199e+002, 1.406077e+002
2.421020e+002, 1.400589e+002
2.425841e+002, 1.395907e+002
2.430662e+002, 1.391412e+002
2.435484e+002, 1.385617e+002
2.440305e+002, 1.377401e+002
2.445126e+002, 1.371075e+002
2.449947e+002, 1.369992e+002
2.454768e+002, 1.370057e+002
2.459589e+002, 1.367671e+002
2.464410e+002, 1.361551e+002
2.469232e+002, 1.353385e+002
2.474053e+002, 1.345706e+002
2.478874e+002, 1.338208e+002
2.483695e+002, 1.332106e+002
2.488516e+002, 1.329369e+002
2.493337e+002, 1.326916e+002
2.498159e+002, 1.321904e+002
2.502980e+002, 1.313535e+002
2.507801e+002, 1.304021e+002
2.512622e+002, 1.297181e+002
2.517443e+002, 1.294588e+002
2.522264e+002, 1.291234e+002
2.527086e+002, 1.286594e+002
2.531907e+002, 1.281214e+002
2.536728e+002, 1.274947e+002
2.541549e+002, 1.267955e+002
2.546370e+002, 1.261252e+002
2.551191e+002, 1.256466e+002
2.556013e+002, 1.254589e+002
2.560834e+002, 1.252642e+002
2.565655e+002, 1.249652e+002
2.570476e+002, 1.247211e+002
2.575297e+002, 1.246991e+002
2.580118e+002, 1.248975e+002
2.584940e+002, 1.251187e+002
2.589761e+002, 1.250679e+002
2.594582e+002, 1.245422e+002
2.599403e+002, 1.242651e+002
2.604224e+002, 1.245822e+002
2.609045e+002, 1.248302e+002
2.613867e+002, 1.244922e+002
2.618688e+002, 1.235801e+002
2.623509e+002, 1.225668e+002
2.628330e+002, 1.220134e+002
2.633151e+002, 1.221120e+002
2.637972e+002, 1.219760e+002
2.642794e+002, 1.213427e+002
2.647615e+002, 1.207415e+002
2.652436e+002, 1.205481e+002
2.657257e+002, 1.207167e+002
2.662078e+002, 1.208845e+002
2.666899e+002, 1.206686e+002
2.671721e+002, 1.199637e+002
2.676542e+002, 1.195669e+002
2.681363e+002, 1.198055e+002
2.686184e+002, 1.199905e+002
2.691005e+002, 1.196943e+002
2.695826e+002, 1.190050e+002
2.700648e+002, 1.183336e+002
2.705469e+002, 1.180296e+002
2.710290e+002, 1.181125e+002
2.715111e+002, 1.180418e+002
2.719932e+002, 1.175921e+002
2.724753e+002, 1.172418e+002
2.729575e+002, 1.173209e+002
2.734396e+002, 1.176881e+002
2.739217e+002, 1.179162e+002
2.744038e+002, 1.176797e+002
2.748859e+002, 1.170388e+002
2.753680e+002, 1.167563e+002
2.758501e+002, 1.171108e+002
2.763322e+002, 1.174292e+002
2.768144e+002, 1.175313e+002
2.772965e+002, 1.174278e+002
2.777786e+002, 1.171297e+002
2.782607e+002, 1.166103e+002
2.787428e+002, 1.159485e+002
2.792249e+002, 1.154894e+002
2.797071e+002, 1.153419e+002
2.801892e+002, 1.152207e+002
2.806713e+002, 1.151303e+002
2.811534e+002, 1.150102e+002
2.816355e+002, 1.147195e+002
2.821176e+002, 1.141750e+002
2.825998e+002, 1.134984e+002
2.830819e+002, 1.130084e+002
2.835640e+002, 1.126797e+002
2.840461e+002, 1.125328e+002
2.845282e+002, 1.127968e+002
2.850103e+002, 1.131889e+002
2.854925e+002, 1.132316e+002
2.859746e+002, 1.127370e+002
2.864567e+002, 1.120459e+002
2.869388e+002, 1.117517e+002
2.874209e+002, 1.119669e+002
2.879030e+002, 1.121541e+002
2.883852e+002, 1.122931e+002
2.888673e+002, 1.123361e+002
2.893494e+002, 1.121938e+002
2.898315e+002, 1.118412e+002
2.903136e+002, 1.113966e+002
2.907957e+002, 1.109622e+002
2.912779e+002, 1.105237e+002
2.917600e+002, 1.102456e+002
2.922421e+002, 1.101918e+002
2.927242e+002, 1.102788e+002
2.932063e+002, 1.105651e+002
2.936884e+002, 1.110455e+002
2.941706e+002, 1.112815e+002
2.946527e+002, 1.107137e+002
2.951348e+002, 1.093390e+002
2.956169e+002, 1.084989e+002
2.960990e+002, 1.086967e+002
2.965811e+002, 1.091139e+002
2.970633e+002, 1.090748e+002
2.975454e+002, 1.085864e+002
2.980275e+002, 1.081365e+002
2.985096e+002, 1.081493e+002
2.989917e+002, 1.084971e+002
2.994738e+002, 1.083923e+002
2.999560e+002, 1.072507e+002
3.004381e+002, 1.061971e+002
3.009202e+002, 1.060186e+002
3.014023e+002, 1.065523e+002
3.018844e+002, 1.070270e+002
3.023665e+002, 1.070411e+002
3.028487e+002, 1.067160e+002
3.033308e+002, 1.064440e+002
3.038129e+002, 1.061972e+002
3.042950e+002, 1.060340e+002
3.047771e+002, 1.059814e+002
3.052592e+002, 1.060320e+002
3.057414e+002, 1.062070e+002
3.062235e+002, 1.065709e+002
3.067056e+002, 1.069579e+002
3.071877e+002, 1.070139e+002
3.076698e+002, 1.066923e+002
3.081519e+002, 1.063385e+002
3.086341e+002, 1.060585e+002
3.091162e+002, 1.058197e+002
3.095983e+002, 1.055484e+002
3.100804e+002, 1.052110e+002
3.105625e+002, 1.049082e+002
3.110446e+002, 1.048240e+002
3.115268e+002, 1.049663e+002
3.120089e+002, 1.050294e+002
3.124910e+002, 1.049121e+002
3.129731e+002, 1.047035e+002
3.134552e+002, 1.044744e+002
3.139373e+002, 1.042314e+002
3.144195e+002, 1.040648e+002
3.149016e+002, 1.041626e+002
3.153837e+002, 1.044801e+002
3.158658e+002, 1.044270e+002
3.163479e+002, 1.036749e+002
3.168300e+002, 1.027330e+002
3.173121e+002, 1.019331e+002
3.177943e+002, 1.012994e+002
3.182764e+002, 1.008995e+002
3.187585e+002, 1.008117e+002
3.192406e+002, 1.010134e+002
3.197227e+002, 1.012767e+002
3.202048e+002, 1.018690e+002
3.206870e+002, 1.022619e+002
3.211691e+002, 1.020068e+002
3.216512e+002, 1.012710e+002
3.221333e+002, 1.006319e+002
3.226154e+002, 1.003503e+002
3.230975e+002, 1.003459e+002
3.235797e+002, 1.004508e+002
3.240618e+002, 1.008001e+002
3.245439e+002, 1.009635e+002
3.250260e+002, 1.006598e+002
3.255081e+002, 1.000855e+002
3.259902e+002, 9.960708e+001
3.264724e+002, 9.934238e+001
3.269545e+002, 9.918941e+001
3.274366e+002, 9.898055e+001
3.279187e+002, 9.868721e+001
3.284008e+002, 9.849807e+001
3.288829e+002, 9.858233e+001
3.293651e+002, 9.872707e+001
3.298472e+002, 9.867361e+001
3.303293e+002, 9.837707e+001
3.308114e+002, 9.796408e+001
3.312935e+002, 9.746815e+001
3.317756e+002, 9.688487e+001
3.322578e+002, 9.673206e+001
3.327399e+002, 9.751486e+001
3.332220e+002, 9.836245e+001
3.337041e+002, 9.855472e+001
3.341862e+002, 9.813564e+001
3.346683e+002, 9.769792e+001
3.351505e+002, 9.764831e+001
3.356326e+002, 9.794051e+001
3.361147e+002, 9.816846e+001
3.365968e+002, 9.841116e+001
3.370789e+002, 9.852199e+001
3.375610e+002, 9.838351e+001
3.380432e+002, 9.806515e+001
3.385253e+002, 9.770292e+001
3.390074e+002, 9.733607e+001
3.394895e+002, 9.701943e+001
3.399716e+002, 9.693738e+001
3.404537e+002, 9.727426e+001
3.409359e+002, 9.747697e+001
3.414180e+002, 9.736372e+001
3.419001e+002, 9.708727e+001
3.423822e+002, 9.681925e+001
3.428643e+002, 9.660928e+001
3.433464e+002, 9.646764e+001
3.438286e+002, 9.643297e+001
3.443107e+002, 9.659997e+001
3.447928e+002, 9.656898e+001
3.452749e+002, 9.606648e+001
3.457570e+002, 9.555345e+001
3.462391e+002, 9.549370e+001
3.467213e+002, 9.586205e+001
3.472034e+002, 9.617487e+001
3.476855e+002, 9.596816e+001
3.481676e+002, 9.520489e+001
3.486497e+002, 9.468760e+001
3.491318e+002, 9.446351e+001
3.496140e+002, 9.438980e+001
3.500961e+002, 9.449227e+001
3.505782e+002, 9.470165e+001
3.510603e+002, 9.489833e+001
3.515424e+002, 9.502257e+001
3.520245e+002, 9.505779e+001
3.525067e+002, 9.492301e+001
3.529888e+002, 9.425952e+001
3.534709e+002, 9.387059e+001
3.539530e+002, 9.407505e+001
3.544351e+002, 9.451723e+001
3.549172e+002, 9.482233e+001
3.553994e+002, 9.485325e+001
3.558815e+002, 9.464113e+001
3.563636e+002, 9.419861e+001
3.568457e+002, 9.317005e+001
3.573278e+002, 9.267405e+001
3.578099e+002, 9.318192e+001
3.582920e+002, 9.381728e+001
3.587741e+002, 9.395370e+001
3.592563e+002, 9.356684e+001
3.597384e+002, 9.303568e+001
3.602205e+002, 9.271616e+001
3.607026e+002, 9.262173e+001
3.611847e+002, 9.261858e+001
3.616668e+002, 9.284514e+001
3.621490e+002, 9.301387e+001
3.626311e+002, 9.301749e+001
3.631132e+002, 9.289301e+001
3.635953e+002, 9.271008e+001
3.640774e+002, 9.250431e+001
3.645595e+002, 9.229230e+001
3.650417e+002, 9.215148e+001
3.655238e+002, 9.220857e+001
3.660059e+002, 9.215823e+001
3.664880e+002, 9.181094e+001
3.669701e+002, 9.142268e+001
3.674522e+002, 9.129994e+001
3.679344e+002, 9.152396e+001
3.684165e+002, 9.184332e+001
3.688986e+002, 9.181466e+001
3.693807e+002, 9.119836e+001
3.698628e+002, 9.089644e+001
3.703449e+002, 9.121690e+001
3.708271e+002, 9.160378e+001
3.713092e+002, 9.181104e+001
3.717913e+002, 9.181173e+001
3.722734e+002, 9.167243e+001
3.727555e+002, 9.139377e+001
3.732376e+002, 9.098635e+001
3.737198e+002, 9.080273e+001
3.742019e+002, 9.108219e+001
3.746840e+002, 9.129781e+001
3.751661e+002, 9.118350e+001
3.756482e+002, 9.091610e+001
3.761303e+002, 9.081557e+001
3.766125e+002, 9.109402e+001
3.770946e+002, 9.148899e+001
3.775767e+002, 9.132278e+001
3.780588e+002, 9.030032e+001
3.785409e+002, 8.955616e+001
3.790230e+002, 8.966898e+001
3.795052e+002, 9.001492e+001
3.799873e+002, 9.011269e+001
3.804694e+002, 8.986763e+001
3.809515e+002, 8.954002e+001
3.814336e+002, 8.939061e+001
3.819157e+002, 8.941525e+001
3.823979e+002, 8.944447e+001
3.828800e+002, 8.950832e+001
3.833621e+002, 8.950388e+001
3.838442e+002, 8.929968e+001
3.843263e+002, 8.896057e+001
3.848084e+002, 8.871566e+001
3.852906e+002, 8.877984e+001
3.857727e+002, 8.900935e+001
3.862548e+002, 8.906596e+001
3.867369e+002, 8.891225e+001
3.872190e+002, 8.871855e+001
3.877011e+002, 8.853492e+001
3.881833e+002, 8.838432e+001
3.886654e+002, 8.832547e+001
3.891475e+002, 8.844040e+001
3.896296e+002, 8.851994e+001
3.901117e+002, 8.828164e+001
3.905938e+002, 8.778291e+001
3.910760e+002, 8.749401e+001
3.915581e+002, 8.762460e+001
3.920402e+002, 8.796872e+001
3.925223e+002, 8.832848e+001
3.930044e+002, 8.874105e+001
3.934865e+002, 8.883836e+001
3.939687e+002, 8.811775e+001
3.944508e+002, 8.710693e+001
3.949329e+002, 8.677367e+001
3.954150e+002, 8.731117e+001
3.958971e+002, 8.788465e+001
3.963792e+002, 8.767547e+001
3.968614e+002, 8.676067e+001
3.973435e+002, 8.619790e+001
3.978256e+002, 8.630186e+001
3.983077e+002, 8.652801e+001
3.987898e+002, 8.655892e+001
3.992719e+002, 8.641354e+001
3.997540e+002, 8.615937e+001
4.002361e+002, 8.578190e+001
4.007183e+002, 8.539444e+001
4.012004e+002, 8.537415e+001
4.016825e+002, 8.603590e+001
4.021646e+002, 8.645457e+001
4.026467e+002, 8.622899e+001
4.031288e+002, 8.578807e+001
4.036110e+002, 8.568078e+001
4.040931e+002, 8.601538e+001
4.045752e+002, 8.642519e+001
4.050573e+002, 8.647963e+001
4.055394e+002, 8.610526e+001
4.060215e+002, 8.570557e+001
4.065037e+002, 8.511613e+001
4.069858e+002, 8.466044e+001
4.074679e+002, 8.457153e+001
4.079500e+002, 8.475120e+001
4.084321e+002, 8.494666e+001
4.089142e+002, 8.500533e+001
4.093964e+002, 8.494569e+001
4.098785e+002, 8.485130e+001
4.103606e+002, 8.456603e+001
4.108427e+002, 8.445844e+001
4.113248e+002, 8.480644e+001
4.118069e+002, 8.520688e+001
4.122891e+002, 8.519499e+001
4.127712e+002, 8.468645e+001
4.132533e+002, 8.406723e+001
4.137354e+002, 8.388206e+001
4.142175e+002, 8.427106e+001
4.146996e+002, 8.452902e+001
4.151818e+002, 8.453156e+001
4.156639e+002, 8.451421e+001
4.161460e+002, 8.459634e+001
4.166281e+002, 8.473357e+001
4.171102e+002, 8.480219e+001
4.175923e+002, 8.471288e+001
4.180745e+002, 8.450805e+001
4.185566e+002, 8.431519e+001
4.190387e+002, 8.409702e+001
4.195208e+002, 8.398086e+001
4.200029e+002, 8.416178e+001
4.204850e+002, 8.437345e+001
4.209672e+002, 8.433134e+001
4.214493e+002, 8.396180e+001
4.219314e+002, 8.352546e+001
4.224135e+002, 8.325935e+001
4.228956e+002, 8.316135e+001
4.233777e+002, 8.319842e+001
4.238599e+002, 8.350350e+001
4.243420e+002, 8.374978e+001
4.248241e+002, 8.358080e+001
4.253062e+002, 8.312476e+001
4.257883e+002, 8.285108e+001
4.262704e+002, 8.314088e+001
4.267526e+002, 8.364256e+001
4.272347e+002, 8.380077e+001
4.277168e+002, 8.359499e+001
4.281989e+002, 8.338067e+001
4.286810e+002, 8.334567e+001
4.291631e+002, 8.342446e+001
4.296453e+002, 8.345096e+001
4.301274e+002, 8.338911e+001
4.306095e+002, 8.335559e+001
4.310916e+002, 8.347109e+001
4.315737e+002, 8.364590e+001
4.320558e+002, 8.367297e+001
4.325380e+002, 8.348566e+001
4.330201e+002, 8.325462e+001
4.335022e+002, 8.319876e+001
4.339843e+002, 8.335315e+001
4.344664e+002, 8.337534e+001
4.349485e+002, 8.310938e+001
4.354307e+002, 8.283003e+001
4.359128e+002, 8.276821e+001
4.363949e+002, 8.286358e+001
4.368770e+002, 8.287625e+001
4.373591e+002, 8.265704e+001
4.378412e+002, 8.227080e+001
4.383234e+002, 8.196818e+001
4.388055e+002, 8.172403e+001
4.392876e+002, 8.160050e+001
4.397697e+002, 8.176505e+001
4.402518e+002, 8.196125e+001
4.407339e+002, 8.185220e+001
4.412160e+002, 8.142177e+001
4.416982e+002, 8.104590e+001
4.421803e+002, 8.121106e+001
4.426624e+002, 8.204285e+001
4.431445e+002, 8.250024e+001
4.436266e+002, 8.224801e+001
4.441087e+002, 8.196228e+001
4.445909e+002, 8.187339e+001
4.450730e+002, 8.188508e+001
4.455551e+002, 8.180274e+001
4.460372e+002, 8.151954e+001
4.465193e+002, 8.113133e+001
4.470014e+002, 8.084846e+001
4.474836e+002, 8.069415e+001
4.479657e+002, 8.057729e+001
4.484478e+002, 8.041457e+001
4.489299e+002, 8.033403e+001
4.494120e+002, 8.049574e+001
4.498941e+002, 8.087081e+001
4.503763e+002, 8.119229e+001
4.508584e+002, 8.120482e+001
4.513405e+002, 8.098425e+001
4.518226e+002, 8.087447e+001
4.523047e+002, 8.094674e+001
4.527868e+002, 8.096657e+001
4.532690e+002, 8.063158e+001
4.537511e+002, 8.019566e+001
4.542332e+002, 8.007885e+001
4.547153e+002, 8.054815e+001
4.551974e+002, 8.100339e+001
4.556795e+002, 8.081232e+001
4.561617e+002, 8.014169e+001
4.566438e+002, 7.970881e+001
4.571259e+002, 7.971389e+001
4.576080e+002, 8.003269e+001
4.580901e+002, 8.069245e+001
4.585722e+002, 8.170844e+001
4.590544e+002, 8.229128e+001
4.595365e+002, 8.202954e+001
4.600186e+002, 8.147078e+001
4.605007e+002, 8.100174e+001
4.609828e+002, 8.066230e+001
4.614649e+002, 8.045961e+001
4.619471e+002, 8.041080e+001
4.624292e+002, 8.048864e+001
4.629113e+002, 8.058113e+001
4.633934e+002, 8.092638e+001
4.638755e+002, 8.097718e+001
4.643576e+002, 8.032915e+001
4.648398e+002, 7.954176e+001
4.653219e+002, 7.926163e+001
4.658040e+002, 7.957210e+001
4.662861e+002, 8.000591e+001
4.667682e+002, 8.003472e+001
4.672503e+002, 7.959922e+001
4.677325e+002, 7.932823e+001
4.682146e+002, 7.931312e+001
4.686967e+002, 7.936880e+001
4.691788e+002, 7.950396e+001
4.696609e+002, 7.966464e+001
4.701430e+002, 7.976823e+001
4.706252e+002, 7.977588e+001
4.711073e+002, 7.975372e+001
4.715894e+002, 7.984224e+001
4.720715e+002, 8.008907e+001
4.725536e+002, 8.023821e+001
4.730357e+002, 8.021253e+001
4.735179e+002, 8.010789e+001
4.740000e+002, 7.996024e+001
4.744821e+002, 7.977857e+001
4.749642e+002, 7.957518e+001
4.754463e+002, 7.932959e+001
4.759284e+002, 7.907844e+001
4.764106e+002, 7.891253e+001
4.768927e+002, 7.884659e+001
4.773748e+002, 7.877262e+001
4.778569e+002, 7.858594e+001
4.783390e+002, 7.839513e+001
4.788211e+002, 7.840417e+001
4.793033e+002, 7.870256e+001
4.797854e+002, 7.889970e+001
4.802675e+002, 7.864389e+001
4.807496e+002, 7.819344e+001
4.812317e+002, 7.806281e+001
4.817138e+002, 7.835258e+001
4.821959e+002, 7.872173e+001
4.826780e+002, 7.890555e+001
4.831602e+002, 7.889019e+001
4.836423e+002, 7.869677e+001
4.841244e+002, 7.806641e+001
4.846065e+002, 7.754983e+001
4.850886e+002, 7.748624e+001
4.855707e+002, 7.766286e+001
4.860529e+002, 7.766382e+001
4.865350e+002, 7.733611e+001
4.870171e+002, 7.692616e+001
4.874992e+002, 7.686476e+001
4.879813e+002, 7.737151e+001
4.884634e+002, 7.762224e+001
4.889456e+002, 7.745152e+001
4.894277e+002, 7.722843e+001
4.899098e+002, 7.709419e+001
4.903919e+002, 7.705480e+001
4.908740e+002, 7.709486e+001
4.913561e+002, 7.722045e+001
4.918383e+002, 7.737598e+001
4.923204e+002, 7.739564e+001
4.928025e+002, 7.722614e+001
4.932846e+002, 7.706858e+001
4.937667e+002, 7.694698e+001
4.942488e+002, 7.686567e+001
4.947310e+002, 7.682363e+001
4.952131e+002, 7.682369e+001
4.956952e+002, 7.688200e+001
4.961773e+002, 7.706104e+001
4.966594e+002, 7.730244e+001
4.971415e+002, 7.744997e+001
4.976237e+002, 7.749751e+001
4.981058e+002, 7.746296e+001
4.985879e+002, 7.733137e+001
4.990700e+002, 7.712740e+001
4.995521e+002, 7.687131e+001
5.000342e+002, 7.646511e+001
5.005164e+002, 7.624760e+001
5.009985e+002, 7.659828e+001
5.014806e+002, 7.719408e+001
5.019627e+002, 7.742127e+001
5.024448e+002, 7.715096e+001
5.029269e+002, 7.675083e+001
5.034091e+002, 7.656911e+001
5.038912e+002, 7.661472e+001
5.043733e+002, 7.657661e+001
5.048554e+002, 7.643414e+001
5.053375e+002, 7.624232e+001
5.058196e+002, 7.590749e+001
5.063018e+002, 7.556948e+001
5.067839e+002, 7.548814e+001
5.072660e+002, 7.574490e+001
5.077481e+002, 7.610454e+001
5.082302e+002, 7.618977e+001
5.087123e+002, 7.590193e+001
5.091945e+002, 7.569667e+001
5.096766e+002, 7.554808e+001
5.101587e+002, 7.550936e+001
5.106408e+002, 7.577251e+001
5.111229e+002, 7.613796e+001
5.116050e+002, 7.618439e+001
5.120872e+002, 7.563105e+001
5.125693e+002, 7.489457e+001
5.130514e+002, 7.485241e+001
5.135335e+002, 7.564238e+001
5.140156e+002, 7.603458e+001
5.144977e+002, 7.540168e+001
5.149799e+002, 7.464941e+001
5.154620e+002, 7.457722e+001
5.159441e+002, 7.510124e+001
5.164262e+002, 7.561079e+001
5.169083e+002, 7.593510e+001
5.173904e+002, 7.605850e+001
5.178726e+002, 7.587366e+001
5.183547e+002, 7.540662e+001
5.188368e+002, 7.497403e+001
5.193189e+002, 7.469125e+001
5.198010e+002, 7.457193e+001
5.202831e+002, 7.472350e+001
5.207653e+002, 7.531519e+001
5.212474e+002, 7.563644e+001
5.217295e+002, 7.543656e+001
5.222116e+002, 7.501025e+001
5.226937e+002, 7.453069e+001
5.231758e+002, 7.405910e+001
5.236580e+002, 7.366786e+001
5.241401e+002, 7.340096e+001
5.246222e+002, 7.327280e+001
5.251043e+002, 7.336987e+001
5.255864e+002, 7.392420e+001
5.260685e+002, 7.437733e+001
5.265507e+002, 7.482008e+001
5.270328e+002, 7.505674e+001
5.275149e+002, 7.478121e+001
5.279970e+002, 7.405611e+001
5.284791e+002, 7.337389e+001
5.289612e+002, 7.320634e+001
5.294434e+002, 7.346415e+001
5.299255e+002, 7.360390e+001
5.304076e+002, 7.359603e+001
5.308897e+002, 7.353764e+001
5.313718e+002, 7.336698e+001
5.318539e+002, 7.321719e+001
5.323361e+002, 7.328942e+001
5.328182e+002, 7.365896e+001
5.333003e+002, 7.392850e+001
5.337824e+002, 7.371928e+001
5.342645e+002, 7.324883e+001
5.347466e+002, 7.297865e+001
5.352288e+002, 7.297250e+001
5.357109e+002, 7.310433e+001
5.361930e+002, 7.333029e+001
5.366751e+002, 7.361811e+001
5.371572e+002, 7.377183e+001
5.376393e+002, 7.348177e+001
5.381215e+002, 7.344649e+001
5.386036e+002, 7.433313e+001
5.390857e+002, 7.536849e+001
5.395678e+002, 7.542402e+001
5.400499e+002, 7.435123e+001
5.405320e+002, 7.305995e+001
5.410142e+002, 7.251730e+001
5.414963e+002, 7.274795e+001
5.419784e+002, 7.287121e+001
5.424604e+002, 7.271031e+001
5.429426e+002, 7.265157e+001
5.434247e+002, 7.298908e+001
5.439068e+002, 7.336348e+001
5.443889e+002, 7.323977e+001
5.448710e+002, 7.250865e+001
5.453531e+002, 7.180725e+001
5.458353e+002, 7.197135e+001
5.463174e+002, 7.291002e+001
5.467995e+002, 7.353457e+001
5.472816e+002, 7.374403e+001
5.477637e+002, 7.373043e+001
5.482458e+002, 7.338164e+001
5.487280e+002, 7.293576e+001
5.492101e+002, 7.280186e+001
5.496922e+002, 7.312679e+001
5.501743e+002, 7.360258e+001
5.506564e+002, 7.407224e+001
5.511385e+002, 7.454906e+001
5.516207e+002, 7.509035e+001
5.521028e+002, 7.571113e+001
5.525849e+002, 7.629899e+001
5.530670e+002, 7.677286e+001
5.535491e+002, 7.713261e+001
5.540313e+002, 7.724125e+001
5.545134e+002, 7.699121e+001
5.549955e+002, 7.666151e+001
5.554776e+002, 7.629279e+001
5.559597e+002, 7.590181e+001
5.564418e+002, 7.549665e+001
5.569240e+002, 7.508257e+001
5.574061e+002, 7.468627e+001
5.578882e+002, 7.432645e+001
5.583703e+002, 7.400284e+001
5.588524e+002, 7.376842e+001
5.593345e+002, 7.366911e+001
5.598167e+002, 7.359916e+001
5.602988e+002, 7.364465e+001
5.607809e+002, 7.364162e+001
5.612630e+002, 7.332328e+001
5.617451e+002, 7.259322e+001
5.622272e+002, 7.187617e+001
5.627094e+002, 7.152080e+001
5.631915e+002, 7.147568e+001
5.636736e+002, 7.162761e+001
5.641557e+002, 7.201170e+001
5.646378e+002, 7.234753e+001
5.651199e+002, 7.242628e+001
5.656021e+002, 7.228474e+001
5.660842e+002, 7.213270e+001
5.665663e+002, 7.191006e+001
5.670484e+002, 7.176299e+001
5.675305e+002, 7.180281e+001
5.680126e+002, 7.191727e+001
5.684948e+002, 7.200657e+001
5.689769e+002, 7.203397e+001
5.694590e+002, 7.191880e+001
5.699411e+002, 7.154906e+001
5.704232e+002, 7.094946e+001
5.709053e+002, 7.061906e+001
5.713875e+002, 7.073924e+001
5.718696e+002, 7.089905e+001
5.723517e+002, 7.102162e+001
5.728338e+002, 7.116192e+001
5.733159e+002, 7.143740e+001
5.737980e+002, 7.183424e+001
5.742802e+002, 7.212298e+001
5.747623e+002, 7.199821e+001
5.752444e+002, 7.158606e+001
5.757265e+002, 7.147073e+001
5.762086e+002, 7.175193e+001
5.766907e+002, 7.190180e+001
5.771729e+002, 7.154229e+001
5.776550e+002, 7.097694e+001
5.781371e+002, 7.070298e+001
5.786192e+002, 7.077814e+001
5.791013e+002, 7.092022e+001
5.795834e+002, 7.113648e+001
5.800656e+002, 7.129703e+001
5.805477e+002, 7.118327e+001
5.810298e+002, 7.082851e+001
5.815119e+002, 7.051866e+001
5.819940e+002, 7.043717e+001
5.824761e+002, 7.052837e+001
5.829583e+002, 7.060391e+001
5.834404e+002, 7.068526e+001
5.839225e+002, 7.071362e+001
5.844046e+002, 7.071420e+001
5.848867e+002, 7.064277e+001
5.853688e+002, 7.040468e+001
5.858510e+002, 7.006126e+001
5.863331e+002, 6.979099e+001
5.868152e+002, 6.971355e+001
5.872973e+002, 6.976351e+001
5.877794e+002, 6.981661e+001
5.882615e+002, 6.988413e+001
5.887437e+002, 6.987083e+001
5.892258e+002, 6.971159e+001
5.897079e+002, 6.950808e+001
5.901900e+002, 6.928382e+001
5.906721e+002, 6.906790e+001
5.911542e+002, 6.907007e+001
5.916364e+002, 6.957887e+001
5.921185e+002, 7.014135e+001
5.926006e+002, 7.039924e+001
5.930827e+002, 7.039136e+001
5.935648e+002, 7.020110e+001
5.940469e+002, 6.984337e+001
5.945291e+002, 6.947503e+001
5.950112e+002, 6.932325e+001
5.954933e+002, 6.944532e+001
5.959754e+002, 6.953004e+001
5.964575e+002, 6.963338e+001
5.969396e+002, 6.964532e+001
5.974218e+002, 6.943809e+001
5.979039e+002, 6.914791e+001
5.983860e+002, 6.891949e+001
5.988681e+002, 6.880965e+001
5.993502e+002, 6.889832e+001
5.998323e+002, 6.944492e+001
6.003145e+002, 7.041949e+001
6.007966e+002, 7.088855e+001
6.012787e+002, 7.063502e+001
6.017608e+002, 7.024938e+001
6.022429e+002, 7.002906e+001
6.027250e+002, 6.990018e+001
6.032072e+002, 6.975386e+001
6.036893e+002, 6.955384e+001
6.041714e+002, 6.940251e+001
6.046535e+002, 6.937798e+001
6.051356e+002, 6.942118e+001
6.056177e+002, 6.939537e+001
6.060999e+002, 6.930774e+001
6.065820e+002, 6.940811e+001
6.070641e+002, 6.993793e+001
6.075462e+002, 7.073305e+001
6.080283e+002, 7.104781e+001
6.085104e+002, 7.054331e+001
6.089926e+002, 7.001348e+001
6.094747e+002, 6.930081e+001
6.099568e+002, 6.872612e+001
6.104389e+002, 6.861136e+001
6.109210e+002, 6.885941e+001
6.114031e+002, 6.909710e+001
6.118853e+002, 6.910006e+001
6.123674e+002, 6.893066e+001
6.128495e+002, 6.865607e+001
6.133316e+002, 6.825085e+001
6.138137e+002, 6.805275e+001
6.142958e+002, 6.826988e+001
6.147780e+002, 6.855411e+001
6.152601e+002, 6.844142e+001
6.157422e+002, 6.802644e+001
6.162243e+002, 6.792734e+001
6.167064e+002, 6.853233e+001
6.171885e+002, 6.922852e+001
6.176707e+002, 6.970410e+001
6.181528e+002, 6.997124e+001
6.186349e+002, 7.002692e+001
6.191170e+002, 6.987844e+001
6.195991e+002, 6.966387e+001
6.200812e+002, 6.952693e+001
6.205634e+002, 6.946047e+001
6.210455e+002, 6.957280e+001
6.215276e+002, 6.988503e+001
6.220097e+002, 7.036800e+001
6.224918e+002, 7.118520e+001
6.229739e+002, 7.206968e+001
6.234561e+002, 7.276122e+001
6.239382e+002, 7.320422e+001
6.244203e+002, 7.348940e+001
6.249023e+002, 7.345419e+001
6.253845e+002, 7.334705e+001
6.258666e+002, 7.398729e+001
6.263487e+002, 7.546547e+001
6.268308e+002, 7.675839e+001
6.273129e+002, 7.721905e+001
6.277950e+002, 7.740321e+001
6.282772e+002, 7.844486e+001
6.287593e+002, 8.046360e+001
6.292414e+002, 8.251045e+001
6.297235e+002, 8.433325e+001
6.302056e+002, 8.624793e+001
6.306877e+002, 8.839428e+001
6.311699e+002, 9.082743e+001
6.316520e+002, 9.367844e+001
6.321341e+002, 9.699507e+001
6.326162e+002, 1.005919e+002
6.330983e+002, 1.043149e+002
6.335804e+002, 1.083981e+002
6.340626e+002, 1.115138e+002
6.345447e+002, 1.138704e+002
6.350268e+002, 1.148471e+002
6.355089e+002, 1.142496e+002
6.359910e+002, 1.122410e+002
6.364731e+002, 1.088677e+002
6.369553e+002, 1.039337e+002
6.374374e+002, 9.864228e+001
6.379195e+002, 9.353725e+001
6.384016e+002, 8.879716e+001
6.388837e+002, 8.469104e+001
6.393658e+002, 8.127060e+001
6.398480e+002, 7.847067e+001
6.403301e+002, 7.630607e+001
6.408122e+002, 7.466917e+001
6.412943e+002, 7.318433e+001
6.417764e+002, 7.176903e+001
6.422585e+002, 7.066153e+001
6.427407e+002, 6.988232e+001
6.432228e+002, 6.939099e+001
6.437049e+002, 6.934270e+001
6.441870e+002, 6.955154e+001
6.446691e+002, 6.958853e+001
6.451512e+002, 6.920986e+001
6.456334e+002, 6.865150e+001
6.461155e+002, 6.827343e+001
6.465976e+002, 6.807507e+001
6.470797e+002, 6.796558e+001
6.475618e+002, 6.796054e+001
6.480439e+002, 6.798412e+001
6.485261e+002, 6.798179e+001
6.490082e+002, 6.796274e+001
6.494903e+002, 6.796107e+001
6.499724e+002, 6.805819e+001
6.504545e+002, 6.805118e+001
6.509366e+002, 6.776802e+001
6.514188e+002, 6.738808e+001
6.519009e+002, 6.709242e+001
6.523830e+002, 6.691994e+001
6.528651e+002, 6.689645e+001
6.533472e+002, 6.706880e+001
6.538293e+002, 6.734410e+001
6.543115e+002, 6.736044e+001
6.547936e+002, 6.700980e+001
6.552757e+002, 6.666063e+001
6.557578e+002, 6.620583e+001
6.562399e+002, 6.590463e+001
6.567220e+002, 6.599555e+001
6.572042e+002, 6.637137e+001
6.576863e+002, 6.670936e+001
6.581684e+002, 6.693956e+001
6.586505e+002, 6.700725e+001
6.591326e+002, 6.668707e+001
6.596147e+002, 6.616787e+001
6.600969e+002, 6.606502e+001
6.605790e+002, 6.652370e+001
6.610611e+002, 6.697458e+001
6.615432e+002, 6.687978e+001
6.620253e+002, 6.630997e+001
6.625074e+002, 6.603047e+001
6.629896e+002, 6.620549e+001
6.634717e+002, 6.646251e+001
6.639538e+002, 6.684849e+001
6.644359e+002, 6.724702e+001
6.649180e+002, 6.756416e+001
6.654001e+002, 6.780582e+001
6.658823e+002, 6.805359e+001
6.663644e+002, 6.840622e+001
6.668465e+002, 6.871445e+001
6.673286e+002, 6.855090e+001
6.678107e+002, 6.794092e+001
6.682928e+002, 6.781392e+001
6.687750e+002, 6.847310e+001
6.692571e+002, 6.943035e+001
6.697392e+002, 7.026542e+001
6.702213e+002, 7.099535e+001
6.707034e+002, 7.177243e+001
6.711855e+002, 7.259658e+001
6.716677e+002, 7.346941e+001
6.721498e+002, 7.423373e+001
6.726319e+002, 7.513125e+001
6.731140e+002, 7.656396e+001
6.735961e+002, 7.847046e+001
6.740782e+002, 8.038132e+001
6.745604e+002, 8.201678e+001
6.750425e+002, 8.327787e+001
6.755246e+002, 8.386506e+001
6.760067e+002, 8.377141e+001
6.764888e+002, 8.301656e+001
6.769709e+002, 8.137107e+001
6.774531e+002, 7.929472e+001
6.779352e+002, 7.692183e+001
6.784173e+002, 7.441115e+001
6.788994e+002, 7.236180e+001
6.793815e+002, 7.102666e+001
6.798636e+002, 7.003449e+001
6.803458e+002, 6.932169e+001
6.808279e+002, 6.875314e+001
6.813100e+002, 6.804131e+001
6.817921e+002, 6.717711e+001
6.822742e+002, 6.649340e+001
6.827563e+002, 6.629482e+001
6.832385e+002, 6.646571e+001
6.837206e+002, 6.639771e+001
6.842027e+002, 6.582965e+001
6.846848e+002, 6.559402e+001
6.851669e+002, 6.612539e+001
6.856490e+002, 6.673518e+001
6.861312e+002, 6.709652e+001
6.866133e+002, 6.720788e+001
6.870954e+002, 6.714220e+001
6.875775e+002, 6.692180e+001
6.880596e+002, 6.653899e+001
6.885417e+002, 6.579594e+001
6.890239e+002, 6.491652e+001
6.895060e+002, 6.448851e+001
6.899881e+002, 6.460758e+001
6.904702e+002, 6.484642e+001
6.909523e+002, 6.487984e+001
6.914344e+002, 6.474672e+001
6.919166e+002, 6.464085e+001
6.923987e+002, 6.455776e+001
6.928808e+002, 6.451198e+001
6.933629e+002, 6.455973e+001
6.938450e+002, 6.459193e+001
6.943271e+002, 6.455247e+001
6.948093e+002, 6.444160e+001
6.952914e+002, 6.426256e+001
6.957735e+002, 6.399193e+001
6.962556e+002, 6.373079e+001
6.967377e+002, 6.358478e+001
6.972198e+002, 6.354114e+001
6.977020e+002, 6.357820e+001
6.981841e+002, 6.369967e+001
6.986662e+002, 6.379966e+001
6.991483e+002, 6.380434e+001
6.996304e+002, 6.373006e+001
7.001125e+002, 6.363645e+001
7.005947e+002, 6.342831e+001
7.010768e+002, 6.335246e+001
7.015589e+002, 6.356687e+001
7.020410e+002, 6.377165e+001
7.025231e+002, 6.375758e+001
7.030052e+002, 6.359367e+001
7.034874e+002, 6.343968e+001
7.039695e+002, 6.335906e+001
7.044516e+002, 6.336095e+001
7.049337e+002, 6.350131e+001
7.054158e+002, 6.374487e+001
7.058979e+002, 6.391743e+001
7.063801e+002, 6.399736e+001
7.068622e+002, 6.404963e+001
7.073442e+002, 6.414294e+001
7.078264e+002, 6.421007e+001
7.083085e+002, 6.404906e+001
7.087906e+002, 6.349775e+001
7.092727e+002, 6.314275e+001
7.097548e+002, 6.313176e+001
7.102369e+002, 6.321814e+001
7.107191e+002, 6.328178e+001
7.112012e+002, 6.333062e+001
7.116833e+002, 6.342743e+001
7.121654e+002, 6.359196e+001
7.126475e+002, 6.370949e+001
7.131296e+002, 6.354122e+001
7.136118e+002, 6.318195e+001
7.140939e+002, 6.325080e+001
7.145760e+002, 6.386028e+001
7.150581e+002, 6.427415e+001
7.155402e+002, 6.406174e+001
7.160223e+002, 6.356708e+001
7.165045e+002, 6.340223e+001
7.169866e+002, 6.364795e+001
7.174687e+002, 6.370617e+001
7.179508e+002, 6.324481e+001
7.184329e+002, 6.288699e+001
7.189150e+002, 6.310126e+001
7.193972e+002, 6.354844e+001
7.198793e+002, 6.367448e+001
7.203614e+002, 6.336726e+001
7.208435e+002, 6.303900e+001
7.213256e+002, 6.312643e+001
7.218077e+002, 6.351143e+001
7.222899e+002, 6.373833e+001
7.227720e+002, 6.380076e+001
7.232541e+002, 6.374643e+001
7.237362e+002, 6.351151e+001
7.242183e+002, 6.328508e+001
7.247004e+002, 6.337102e+001
7.251826e+002, 6.375890e+001
7.256647e+002, 6.385907e+001
7.261468e+002, 6.324787e+001
7.266289e+002, 6.281592e+001
7.271110e+002, 6.297799e+001
7.275931e+002, 6.343254e+001
7.280753e+002, 6.385586e+001
7.285574e+002, 6.419908e+001
7.290395e+002, 6.461061e+001
7.295216e+002, 6.527526e+001
7.300037e+002, 6.593918e+001
7.304858e+002, 6.590612e+001
7.309680e+002, 6.514594e+001
7.314501e+002, 6.456473e+001
7.319322e+002, 6.436729e+001
7.324143e+002, 6.431258e+001
7.328964e+002, 6.426567e+001
7.333785e+002, 6.420206e+001
7.338607e+002, 6.401031e+001
7.343428e+002, 6.357813e+001
7.348249e+002, 6.319418e+001
7.353070e+002, 6.283006e+001
7.357891e+002, 6.260419e+001
7.362712e+002, 6.270344e+001
7.367534e+002, 6.302430e+001
7.372355e+002, 6.329691e+001
7.377176e+002, 6.339394e+001
7.381997e+002, 6.334264e+001
7.386818e+002, 6.307430e+001
7.391639e+002, 6.263847e+001
7.396461e+002, 6.256769e+001
7.401282e+002, 6.297992e+001
7.406103e+002, 6.342347e+001
7.410924e+002, 6.371215e+001
7.415745e+002, 6.382602e+001
7.420566e+002, 6.365551e+001
7.425388e+002, 6.304657e+001
7.430209e+002, 6.270601e+001
7.435030e+002, 6.280939e+001
7.439851e+002, 6.307095e+001
7.444672e+002, 6.350286e+001
7.449493e+002, 6.393131e+001
7.454315e+002, 6.408688e+001
7.459136e+002, 6.390869e+001
7.463957e+002, 6.362585e+001
7.468778e+002, 6.343820e+001
7.473599e+002, 6.332211e+001
7.478420e+002, 6.318036e+001
7.483242e+002, 6.300925e+001
7.488063e+002, 6.299669e+001
7.492884e+002, 6.326907e+001
7.497705e+002, 6.356627e+001
7.502526e+002, 6.357296e+001
7.507347e+002, 6.327037e+001
7.512169e+002, 6.299603e+001
7.516990e+002, 6.271403e+001
7.521811e+002, 6.250433e+001
7.526632e+002, 6.236805e+001
7.531453e+002, 6.232249e+001
7.536274e+002, 6.243599e+001
7.541096e+002, 6.266429e+001
7.545917e+002, 6.285430e+001
7.550738e+002, 6.293276e+001
7.555559e+002, 6.290523e+001
7.560380e+002, 6.259491e+001
7.565201e+002, 6.215165e+001
7.570023e+002, 6.245253e+001
7.574844e+002, 6.370692e+001
7.579665e+002, 6.459795e+001
7.584486e+002, 6.407418e+001
7.589307e+002, 6.260032e+001
7.594128e+002, 6.173882e+001
7.598950e+002, 6.184587e+001
7.603771e+002, 6.192910e+001
7.608592e+002, 6.186641e+001
7.613413e+002, 6.190856e+001
7.618234e+002, 6.229298e+001
7.623055e+002, 6.281757e+001
7.627877e+002, 6.317003e+001
7.632698e+002, 6.326224e+001
7.637519e+002, 6.321837e+001
7.642340e+002, 6.305286e+001
7.647161e+002, 6.284970e+001
7.651982e+002, 6.273979e+001
7.656804e+002, 6.271946e+001
7.661625e+002, 6.272060e+001
7.666446e+002, 6.271174e+001
7.671267e+002, 6.280013e+001
7.676088e+002, 6.320230e+001
7.680909e+002, 6.395735e+001
7.685731e+002, 6.402483e+001
7.690552e+002, 6.280047e+001
7.695373e+002, 6.187556e+001
7.700194e+002, 6.158290e+001
7.705015e+002, 6.171291e+001
7.709836e+002, 6.244336e+001
7.714658e+002, 6.355022e+001
7.719479e+002, 6.403480e+001
7.724300e+002, 6.316016e+001
7.729121e+002, 6.208758e+001
7.733942e+002, 6.145916e+001
7.738763e+002, 6.122872e+001
7.743585e+002, 6.153332e+001
7.748406e+002, 6.224699e+001
7.753227e+002, 6.268027e+001
7.758048e+002, 6.234248e+001
7.762869e+002, 6.161793e+001
7.767690e+002, 6.149890e+001
7.772512e+002, 6.213429e+001
7.777333e+002, 6.234441e+001
7.782154e+002, 6.183329e+001
7.786975e+002, 6.130140e+001
7.791796e+002, 6.114100e+001
7.796617e+002, 6.119255e+001
7.801439e+002, 6.117828e+001
7.806260e+002, 6.105530e+001
7.811081e+002, 6.103929e+001
7.815902e+002, 6.131305e+001
7.820723e+002, 6.157791e+001
7.825544e+002, 6.158587e+001
7.830366e+002, 6.147196e+001
7.835187e+002, 6.149381e+001
7.840008e+002, 6.170462e+001
7.844829e+002, 6.192589e+001
7.849650e+002, 6.199776e+001
7.854471e+002, 6.195186e+001
7.859293e+002, 6.188529e+001
7.864114e+002, 6.179897e+001
7.868935e+002, 6.161609e+001
7.873756e+002, 6.127006e+001
7.878577e+002, 6.096569e+001
7.883398e+002, 6.089094e+001
7.888220e+002, 6.102922e+001
7.893040e+002, 6.124180e+001
7.897861e+002, 6.157271e+001
7.902682e+002, 6.191293e+001
7.907504e+002, 6.241888e+001
7.912325e+002, 6.278017e+001
7.917146e+002, 6.272925e+001
7.921967e+002, 6.239109e+001
7.926788e+002, 6.200788e+001
7.931609e+002, 6.164708e+001
7.936431e+002, 6.143174e+001
7.941252e+002, 6.159127e+001
7.946073e+002, 6.191948e+001
7.950894e+002, 6.203536e+001
7.955715e+002, 6.193455e+001
7.960536e+002, 6.172735e+001
7.965358e+002, 6.144788e+001
7.970179e+002, 6.119466e+001
7.975000e+002, 6.110532e+001
7.979821e+002, 6.118406e+001
7.984642e+002, 6.132821e+001
7.989464e+002, 6.162408e+001
7.994285e+002, 6.182948e+001
7.999106e+002, 6.176061e+001
8.003927e+002, 6.167738e+001
8.008748e+002, 6.183765e+001
8.013569e+002, 6.217635e+001
8.018391e+002, 6.234978e+001
8.023212e+002, 6.218202e+001
8.028033e+002, 6.195900e+001
8.032854e+002, 6.180600e+001
8.037675e+002, 6.169407e+001
8.042496e+002, 6.155492e+001
8.047318e+002, 6.141908e+001
8.052139e+002, 6.139585e+001
8.056960e+002, 6.154457e+001
8.061781e+002, 6.184275e+001
8.066602e+002, 6.238293e+001
8.071423e+002, 6.312044e+001
8.076245e+002, 6.333752e+001
8.081066e+002, 6.290453e+001
8.085887e+002, 6.247174e+001
8.090708e+002, 6.233134e+001
8.095529e+002, 6.233164e+001
8.100350e+002, 6.223679e+001
8.105172e+002, 6.201403e+001
8.109993e+002, 6.192245e+001
8.114814e+002, 6.209168e+001
8.119635e+002, 6.222532e+001
8.124456e+002, 6.219046e+001
8.129277e+002, 6.212198e+001
8.134099e+002, 6.217571e+001
8.138920e+002, 6.232911e+001
8.143741e+002, 6.242179e+001
8.148562e+002, 6.235827e+001
8.153383e+002, 6.223729e+001
8.158204e+002, 6.205936e+001
8.163026e+002, 6.192797e+001
8.167847e+002, 6.219793e+001
8.172668e+002, 6.284188e+001
8.177489e+002, 6.327940e+001
8.182310e+002, 6.316299e+001
8.187131e+002, 6.274546e+001
8.191953e+002, 6.249916e+001
8.196774e+002, 6.243734e+001
8.201595e+002, 6.245997e+001
8.206416e+002, 6.255215e+001
8.211237e+002, 6.276167e+001
8.216058e+002, 6.327271e+001
8.220880e+002, 6.379144e+001
8.225701e+002, 6.392803e+001
8.230522e+002, 6.369669e+001
8.235343e+002, 6.360188e+001
8.240164e+002, 6.369696e+001
8.244985e+002, 6.400259e+001
8.249807e+002, 6.469118e+001
8.254628e+002, 6.549044e+001
8.259449e+002, 6.609163e+001
8.264270e+002, 6.649589e+001
8.269091e+002, 6.682003e+001
8.273912e+002, 6.706966e+001
8.278734e+002, 6.756468e+001
8.283555e+002, 6.887373e+001
8.288376e+002, 7.083165e+001
8.293197e+002, 7.292470e+001
8.298018e+002, 7.510078e+001
8.302839e+002, 7.672807e+001
8.307661e+002, 7.748413e+001
8.312482e+002, 7.752176e+001
8.317303e+002, 7.708442e+001
8.322124e+002, 7.617905e+001
8.326945e+002, 7.475173e+001
8.331766e+002, 7.218240e+001
8.336588e+002, 7.000352e+001
8.341409e+002, 6.882793e+001
8.346230e+002, 6.794823e+001
8.351051e+002, 6.670238e+001
8.355872e+002, 6.518600e+001
8.360693e+002, 6.400648e+001
8.365515e+002, 6.341268e+001
8.370336e+002, 6.308588e+001
8.375157e+002, 6.300425e+001
8.379978e+002, 6.299337e+001
8.384799e+002, 6.285311e+001
8.389620e+002, 6.258874e+001
8.394442e+002, 6.226224e+001
8.399263e+002, 6.190188e+001
8.404084e+002, 6.163029e+001
8.408905e+002, 6.168377e+001
8.413726e+002, 6.199394e+001
8.418547e+002, 6.215825e+001
8.423369e+002, 6.216248e+001
8.428190e+002, 6.215126e+001
8.433011e+002, 6.219136e+001
8.437832e+002, 6.218105e+001
8.442653e+002, 6.195033e+001
8.447474e+002, 6.151051e+001
8.452296e+002, 6.139145e+001
8.457117e+002, 6.192576e+001
8.461938e+002, 6.229478e+001
8.466759e+002, 6.238670e+001
8.471580e+002, 6.233656e+001
8.476401e+002, 6.218489e+001
8.481223e+002, 6.196527e+001
8.486044e+002, 6.172449e+001
8.490865e+002, 6.146093e+001
8.495686e+002, 6.123830e+001
8.500507e+002, 6.101498e+001
8.505328e+002, 6.090966e+001
8.510150e+002, 6.120294e+001
8.514971e+002, 6.168428e+001
8.519792e+002, 6.180689e+001
8.524613e+002, 6.143812e+001
8.529434e+002, 6.100478e+001
8.534255e+002, 6.088996e+001
8.539077e+002, 6.106586e+001
8.543898e+002, 6.161885e+001
8.548719e+002, 6.254964e+001
8.553540e+002, 6.285708e+001
8.558361e+002, 6.222198e+001
8.563182e+002, 6.143372e+001
8.568004e+002, 6.099577e+001
8.572825e+002, 6.091733e+001
8.577646e+002, 6.129439e+001
8.582467e+002, 6.279081e+001
8.587288e+002, 6.328480e+001
8.592109e+002, 6.172841e+001
8.596931e+002, 6.042279e+001
8.601752e+002, 6.038365e+001
8.606573e+002, 6.091491e+001
8.611394e+002, 6.118365e+001
8.616215e+002, 6.109626e+001
8.621036e+002, 6.099642e+001
8.625858e+002, 6.095802e+001
8.630679e+002, 6.102199e+001
8.635500e+002, 6.140501e+001
8.640321e+002, 6.180789e+001
8.645142e+002, 6.171344e+001
8.649963e+002, 6.117276e+001
8.654785e+002, 6.069168e+001
8.659606e+002, 6.056519e+001
8.664427e+002, 6.062877e+001
8.669248e+002, 6.065870e+001
8.674069e+002, 6.066022e+001
8.678890e+002, 6.066842e+001
8.683712e+002, 6.068613e+001
8.688533e+002, 6.065148e+001
8.693354e+002, 6.051024e+001
8.698175e+002, 6.040902e+001
8.702996e+002, 6.056912e+001
8.707817e+002, 6.099401e+001
8.712639e+002, 6.127989e+001
8.717459e+002, 6.142903e+001
8.722280e+002, 6.143459e+001
8.727101e+002, 6.110852e+001
8.731923e+002, 6.081124e+001
8.736744e+002, 6.074072e+001
8.741565e+002, 6.086861e+001
8.746386e+002, 6.117408e+001
8.751207e+002, 6.182760e+001
8.756028e+002, 6.211620e+001
8.760850e+002, 6.143599e+001
8.765671e+002, 6.064289e+001
8.770492e+002, 6.036366e+001
8.775313e+002, 6.042393e+001
8.780134e+002, 6.048323e+001
8.784955e+002, 6.045118e+001
8.789777e+002, 6.040661e+001
8.794598e+002, 6.041034e+001
8.799419e+002, 6.043732e+001
8.804240e+002, 6.042952e+001
8.809061e+002, 6.040853e+001
8.813882e+002, 6.049290e+001
8.818704e+002, 6.069010e+001
8.823525e+002, 6.078318e+001
8.828346e+002, 6.061721e+001
8.833167e+002, 6.033874e+001
8.837988e+002, 6.025236e+001
8.842809e+002, 6.037595e+001
8.847631e+002, 6.058291e+001
8.852452e+002, 6.097672e+001
8.857273e+002, 6.119741e+001
8.862094e+002, 6.110630e+001
8.866915e+002, 6.080174e+001
8.871736e+002, 6.024421e+001
8.876558e+002, 5.947666e+001
8.881379e+002, 5.914056e+001
8.886200e+002, 5.950825e+001
8.891021e+002, 5.994822e+001
8.895842e+002, 6.056859e+001
8.900663e+002, 6.102576e+001
8.905485e+002, 6.097268e+001
8.910306e+002, 6.060759e+001
8.915127e+002, 6.033237e+001
8.919948e+002, 6.025800e+001
8.924769e+002, 6.022146e+001
8.929590e+002, 6.010401e+001
8.934412e+002, 5.998485e+001
8.939233e+002, 5.993319e+001
8.944054e+002, 5.995015e+001
8.948875e+002, 6.007073e+001
8.953696e+002, 6.027688e+001
8.958517e+002, 6.043435e+001
8.963339e+002, 6.043856e+001
8.968160e+002, 6.034737e+001
8.972981e+002, 6.025114e+001
8.977802e+002, 6.015650e+001
8.982623e+002, 6.014744e+001
8.987444e+002, 6.024083e+001
8.992266e+002, 6.031030e+001
8.997087e+002, 6.030755e+001
9.001908e+002, 6.020750e+001
9.006729e+002, 5.991983e+001
9.011550e+002, 5.941839e+001
9.016371e+002, 5.933538e+001
9.021193e+002, 5.991255e+001
9.026014e+002, 6.046225e+001
9.030835e+002, 6.096591e+001
9.035656e+002, 6.129554e+001
9.040477e+002, 6.126032e+001
9.045298e+002, 6.099912e+001
9.050120e+002, 6.089002e+001
9.054941e+002, 6.108593e+001
9.059762e+002, 6.111024e+001
9.064583e+002, 6.061531e+001
9.069404e+002, 6.016379e+001
9.074225e+002, 6.018087e+001
9.079047e+002, 6.040715e+001
9.083868e+002, 6.044206e+001
9.088689e+002, 6.024845e+001
9.093510e+002, 6.011956e+001
9.098331e+002, 6.028728e+001
9.103152e+002, 6.049755e+001
9.107974e+002, 6.045570e+001
9.112795e+002, 6.028606e+001
9.117616e+002, 6.022620e+001
9.122437e+002, 6.027848e+001
9.127258e+002, 6.028475e+001
9.132079e+002, 6.016964e+001
9.136901e+002, 6.009736e+001
9.141722e+002, 6.034809e+001
9.146543e+002, 6.084093e+001
9.151364e+002, 6.111101e+001
9.156185e+002, 6.115316e+001
9.161006e+002, 6.110829e+001
9.165828e+002, 6.100362e+001
9.170649e+002, 6.084376e+001
9.175470e+002, 6.059966e+001
9.180291e+002, 6.033057e+001
9.185112e+002, 6.025601e+001
9.189933e+002, 6.043693e+001
9.194755e+002, 6.066755e+001
9.199576e+002, 6.108117e+001
9.204397e+002, 6.135210e+001
9.209218e+002, 6.129409e+001
9.214039e+002, 6.106641e+001
9.218860e+002, 6.075433e+001
9.223682e+002, 6.037659e+001
9.228503e+002, 6.024077e+001
9.233324e+002, 6.061625e+001
9.238145e+002, 6.093099e+001
9.242966e+002, 6.092680e+001
9.247787e+002, 6.089027e+001
9.252609e+002, 6.114777e+001
9.257430e+002, 6.152573e+001
9.262251e+002, 6.158290e+001
9.267072e+002, 6.117996e+001
9.271893e+002, 6.082330e+001
9.276714e+002, 6.096051e+001
9.281536e+002, 6.120409e+001
9.286357e+002, 6.112666e+001
9.291178e+002, 6.087087e+001
9.295999e+002, 6.072956e+001
9.300820e+002, 6.074126e+001
9.305641e+002, 6.076520e+001
9.310463e+002, 6.070759e+001
9.315284e+002, 6.064060e+001
9.320105e+002, 6.068346e+001
9.324926e+002, 6.081592e+001
9.329747e+002, 6.102694e+001
9.334568e+002, 6.129597e+001
9.339390e+002, 6.124690e+001
9.344211e+002, 6.071259e+001
9.349032e+002, 6.010806e+001
9.353853e+002, 5.988100e+001
9.358674e+002, 5.998309e+001
9.363495e+002, 6.016757e+001
9.368317e+002, 6.049459e+001
9.373138e+002, 6.060813e+001
9.377959e+002, 6.032380e+001
9.382780e+002, 6.015336e+001
9.387601e+002, 6.046822e+001
9.392422e+002, 6.099641e+001
9.397244e+002, 6.126262e+001
9.402065e+002, 6.123763e+001
9.406886e+002, 6.111737e+001
9.411707e+002, 6.079235e+001
9.416528e+002, 6.052364e+001
9.421349e+002, 6.028280e+001
9.426171e+002, 6.018331e+001
9.430992e+002, 6.045314e+001
9.435813e+002, 6.091189e+001
9.440634e+002, 6.108348e+001
9.445455e+002, 6.080792e+001
9.450276e+002, 6.050814e+001
9.455098e+002, 6.025071e+001
9.459919e+002, 6.010511e+001
9.464740e+002, 6.014721e+001
9.469561e+002, 6.031563e+001
9.474382e+002, 6.055844e+001
9.479203e+002, 6.084520e+001
9.484025e+002, 6.113062e+001
9.488846e+002, 6.142518e+001
9.493667e+002, 6.161964e+001
9.498488e+002, 6.153593e+001
9.503309e+002, 6.132836e+001
9.508130e+002, 6.130853e+001
9.512952e+002, 6.138862e+001
9.517773e+002, 6.109678e+001
9.522594e+002, 6.032652e+001
9.527415e+002, 5.978364e+001
9.532236e+002, 6.029557e+001
9.537057e+002, 6.132359e+001
9.541878e+002, 6.147803e+001
9.546699e+002, 6.089898e+001
9.551520e+002, 6.049781e+001
9.556342e+002, 6.040211e+001
9.561163e+002, 6.042944e+001
9.565984e+002, 6.049317e+001
9.570805e+002, 6.056056e+001
9.575626e+002, 6.056804e+001
9.580447e+002, 6.051841e+001
9.585269e+002, 6.057018e+001
9.590090e+002, 6.077014e+001
9.594911e+002, 6.085662e+001
9.599732e+002, 6.071410e+001
9.604553e+002, 6.059274e+001
9.609374e+002, 6.074339e+001
9.614196e+002, 6.101382e+001
9.619017e+002, 6.094824e+001
9.623838e+002, 6.035738e+001
9.628659e+002, 6.001466e+001
9.633480e+002, 6.007588e+001
9.638301e+002, 6.017673e+001
9.643123e+002, 6.017649e+001
9.647944e+002, 6.020903e+001
9.652765e+002, 6.047636e+001
9.657586e+002, 6.089534e+001
9.662407e+002, 6.107372e+001
9.667228e+002, 6.081648e+001
9.672050e+002, 6.061755e+001
9.676871e+002, 6.077854e+001
9.681692e+002, 6.081274e+001
9.686513e+002, 6.018449e+001
9.691334e+002, 5.940719e+001
9.696155e+002, 5.920478e+001
9.700977e+002, 5.961762e+001
9.705798e+002, 6.012087e+001
9.710619e+002, 6.059269e+001
9.715440e+002, 6.092178e+001
9.720261e+002, 6.095585e+001
9.725082e+002, 6.087684e+001
9.729904e+002, 6.086348e+001
9.734725e+002, 6.090445e+001
9.739546e+002, 6.090710e+001
9.744367e+002, 6.085394e+001
9.749188e+002, 6.087243e+001
9.754009e+002, 6.114146e+001
9.758831e+002, 6.144962e+001
9.763652e+002, 6.151281e+001
9.768473e+002, 6.139862e+001
9.773294e+002, 6.119957e+001
9.778115e+002, 6.096264e+001
9.782936e+002, 6.081734e+001
9.787758e+002, 6.082401e+001
9.792579e+002, 6.091024e+001
9.797400e+002, 6.099266e+001
9.802221e+002, 6.108000e+001
9.807042e+002, 6.119625e+001
9.811863e+002, 6.134186e+001
9.816685e+002, 6.157029e+001
9.821506e+002, 6.189068e+001
9.826327e+002, 6.203707e+001
9.831148e+002, 6.181675e+001
9.835969e+002, 6.140923e+001
9.840790e+002, 6.113520e+001
9.845612e+002, 6.099522e+001
9.850433e+002, 6.098460e+001
9.855254e+002, 6.113478e+001
9.860075e+002, 6.120640e+001
9.864896e+002, 6.109135e+001
9.869717e+002, 6.104696e+001
9.874539e+002, 6.135028e+001
9.879360e+002, 6.182061e+001
9.884181e+002, 6.187041e+001
9.889002e+002, 6.136869e+001
9.893823e+002, 6.088683e+001
9.898644e+002, 6.029292e+001
9.903466e+002, 5.997662e+001
9.908287e+002, 6.011426e+001
9.913108e+002, 6.052014e+001
9.917929e+002, 6.111570e+001
9.922750e+002, 6.184708e+001
9.927571e+002, 6.238789e+001
9.932393e+002, 6.273439e+001
9.937214e+002, 6.289772e+001
9.942035e+002, 6.286438e+001
9.946856e+002, 6.266595e+001
9.951677e+002, 6.204881e+001
9.956498e+002, 6.145727e+001
9.961320e+002, 6.143082e+001
9.966141e+002, 6.191899e+001
9.970962e+002, 6.237525e+001
9.975783e+002, 6.275539e+001
9.980604e+002, 6.299818e+001
9.985425e+002, 6.305171e+001
9.990247e+002, 6.299873e+001
9.995068e+002, 6.276408e+001
9.999889e+002, 6.252107e+001
1.000471e+003, 6.257810e+001
1.000953e+003, 6.292643e+001
1.001435e+003, 6.311624e+001
1.001917e+003, 6.277974e+001
1.002399e+003, 6.251990e+001
1.002882e+003, 6.275288e+001
1.003364e+003, 6.313463e+001
1.003846e+003, 6.338048e+001
1.004328e+003, 6.351046e+001
1.004810e+003, 6.362922e+001
1.005292e+003, 6.376158e+001
1.005774e+003, 6.385771e+001
1.006256e+003, 6.383693e+001
1.006739e+003, 6.383504e+001
1.007221e+003, 6.395883e+001
1.007703e+003, 6.419414e+001
1.008185e+003, 6.454735e+001
1.008667e+003, 6.499125e+001
1.009149e+003, 6.548788e+001
1.009631e+003, 6.601257e+001
1.010113e+003, 6.647054e+001
1.010595e+003, 6.662856e+001
1.011078e+003, 6.683202e+001
1.011560e+003, 6.777605e+001
1.012042e+003, 6.912305e+001
1.012524e+003, 7.001604e+001
1.013006e+003, 7.046823e+001
1.013488e+003, 7.105759e+001
1.013970e+003, 7.204202e+001
1.014452e+003, 7.327514e+001
1.014935e+003, 7.461848e+001
1.015417e+003, 7.606999e+001
1.015899e+003, 7.762234e+001
1.016381e+003, 7.928115e+001
1.016863e+003, 8.097005e+001
1.017345e+003, 8.270583e+001
1.017827e+003, 8.484511e+001
1.018309e+003, 8.757338e+001
1.018791e+003, 9.072838e+001
1.019274e+003, 9.410505e+001
1.019756e+003, 9.770667e+001
1.020238e+003, 1.014680e+002
1.020720e+003, 1.054056e+002
1.021202e+003, 1.103279e+002
1.021684e+003, 1.163924e+002
1.022166e+003, 1.232702e+002
1.022648e+003, 1.307372e+002
1.023130e+003, 1.391213e+002
1.023613e+003, 1.491696e+002
1.024095e+003, 1.607870e+002
1.024577e+003, 1.719249e+002
1.025059e+003, 1.823878e+002
1.025541e+003, 1.939477e+002
1.026023e+003, 2.074132e+002
1.026505e+003, 2.201421e+002
1.026987e+003, 2.307126e+002
1.027469e+003, 2.391509e+002
1.027952e+003, 2.456908e+002
1.028434e+003, 2.504725e+002
1.028916e+003, 2.507167e+002
1.029398e+003, 2.461712e+002
1.029880e+003, 2.377459e+002
1.030362e+003, 2.247871e+002
1.030844e+003, 2.097309e+002
1.031326e+003, 1.934238e+002
1.031809e+003, 1.768153e+002
1.032291e+003, 1.617087e+002
1.032773e+003, 1.481516e+002
1.033255e+003, 1.358584e+002
1.033737e+003, 1.246529e+002
1.034219e+003, 1.151027e+002
1.034701e+003, 1.076835e+002
1.035183e+003, 1.013760e+002
1.035666e+003, 9.563957e+001
1.036148e+003, 9.055843e+001
1.036630e+003, 8.636890e+001
1.037112e+003, 8.315512e+001
1.037594e+003, 8.037862e+001
1.038076e+003, 7.814228e+001
1.038558e+003, 7.620802e+001
1.039040e+003, 7.465231e+001
1.039522e+003, 7.326972e+001
1.040005e+003, 7.191238e+001
1.040487e+003, 7.064063e+001
1.040969e+003, 6.960234e+001
1.041451e+003, 6.882265e+001
1.041933e+003, 6.812122e+001
1.042415e+003, 6.745824e+001
1.042897e+003, 6.691981e+001
1.043379e+003, 6.671378e+001
1.043861e+003, 6.644661e+001
1.044344e+003, 6.573772e+001
1.044826e+003, 6.483278e+001
1.045308e+003, 6.421765e+001
1.045790e+003, 6.395164e+001
1.046272e+003, 6.378788e+001
1.046754e+003, 6.375922e+001
1.047236e+003, 6.374981e+001
1.047718e+003, 6.397364e+001
1.048201e+003, 6.397129e+001
1.048683e+003, 6.317334e+001
1.049165e+003, 6.201904e+001
1.049647e+003, 6.133853e+001
1.050129e+003, 6.125883e+001
1.050611e+003, 6.126426e+001
1.051093e+003, 6.140096e+001
1.051575e+003, 6.141220e+001
1.052057e+003, 6.113137e+001
1.052540e+003, 6.078426e+001
1.053022e+003, 6.046853e+001
1.053504e+003, 6.023024e+001
1.053986e+003, 6.016100e+001
1.054468e+003, 6.027772e+001
1.054950e+003, 6.034859e+001
1.055432e+003, 6.012154e+001
1.055914e+003, 6.009801e+001
1.056396e+003, 6.070164e+001
1.056879e+003, 6.132661e+001
1.057361e+003, 6.166601e+001
1.057843e+003, 6.163856e+001
1.058325e+003, 6.095955e+001
1.058807e+003, 5.962274e+001
1.059289e+003, 5.882531e+001
1.059771e+003, 5.926269e+001
1.060253e+003, 5.989246e+001
1.060736e+003, 6.069633e+001
1.061218e+003, 6.117820e+001
1.061700e+003, 6.064637e+001
1.062182e+003, 5.967981e+001
1.062664e+003, 5.928439e+001
1.063146e+003, 5.958339e+001
1.063628e+003, 5.985492e+001
1.064110e+003, 5.989074e+001
1.064593e+003, 5.977694e+001
1.065075e+003, 5.934496e+001
1.065557e+003, 5.897863e+001
1.066039e+003, 5.899123e+001
1.066521e+003, 5.925836e+001
1.067003e+003, 5.967517e+001
1.067485e+003, 6.016062e+001
1.067967e+003, 6.033929e+001
1.068449e+003, 5.985619e+001
1.068932e+003, 5.941833e+001
1.069414e+003, 5.927791e+001
1.069896e+003, 5.936616e+001
1.070378e+003, 5.983727e+001
1.070860e+003, 6.038540e+001
1.071342e+003, 6.058333e+001
1.071824e+003, 6.041023e+001
1.072306e+003, 6.016200e+001
1.072788e+003, 5.989664e+001
1.073271e+003, 5.968725e+001
1.073753e+003, 5.968650e+001
1.074235e+003, 5.962945e+001
1.074717e+003, 5.916582e+001
1.075199e+003, 5.862745e+001
1.075681e+003, 5.854472e+001
1.076163e+003, 5.885447e+001
1.076645e+003, 5.895282e+001
1.077127e+003, 5.852541e+001
1.077610e+003, 5.821977e+001
1.078092e+003, 5.850645e+001
1.078574e+003, 5.883045e+001
1.079056e+003, 5.862663e+001
1.079538e+003, 5.837840e+001
1.080020e+003, 5.884379e+001
1.080502e+003, 5.983148e+001
1.080984e+003, 6.048887e+001
1.081467e+003, 6.055052e+001
1.081949e+003, 6.028200e+001
1.082431e+003, 5.938438e+001
1.082913e+003, 5.867770e+001
1.083395e+003, 5.886273e+001
1.083877e+003, 5.934737e+001
1.084359e+003, 5.951976e+001
1.084841e+003, 5.941172e+001
1.085323e+003, 5.925852e+001
1.085806e+003, 5.909485e+001
1.086288e+003, 5.916019e+001
1.086770e+003, 5.984529e+001
1.087252e+003, 6.042443e+001
1.087734e+003, 6.047798e+001
1.088216e+003, 6.029321e+001
1.088698e+003, 6.005610e+001
1.089180e+003, 5.983123e+001
1.089662e+003, 5.970016e+001
1.090145e+003, 5.967880e+001
1.090627e+003, 5.965108e+001
1.091109e+003, 5.956852e+001
1.091591e+003, 5.947712e+001
1.092073e+003, 5.928147e+001
1.092555e+003, 5.919573e+001
1.093037e+003, 5.960798e+001
1.093519e+003, 6.014887e+001
1.094002e+003, 6.014307e+001
1.094484e+003, 5.953216e+001
1.094966e+003, 5.895532e+001
1.095448e+003, 5.857328e+001
1.095930e+003, 5.831578e+001
1.096412e+003, 5.817551e+001
1.096894e+003, 5.813611e+001
1.097376e+003, 5.826152e+001
1.097859e+003, 5.843445e+001
1.098341e+003, 5.847560e+001
1.098823e+003, 5.839922e+001
1.099305e+003, 5.841913e+001
1.099787e+003, 5.866625e+001
1.100269e+003, 5.884001e+001
1.100751e+003, 5.887358e+001
1.101233e+003, 5.880339e+001
1.101715e+003, 5.850587e+001
1.102198e+003, 5.822158e+001
1.102680e+003, 5.828406e+001
1.103162e+003, 5.858838e+001
1.103644e+003, 5.868154e+001
1.104126e+003, 5.843159e+001
1.104608e+003, 5.818532e+001
1.105090e+003, 5.779875e+001
1.105572e+003, 5.769350e+001
1.106054e+003, 5.824318e+001
1.106537e+003, 5.892132e+001
1.107019e+003, 5.940266e+001
1.107501e+003, 5.965996e+001
1.107983e+003, 5.961528e+001
1.108465e+003, 5.917236e+001
1.108947e+003, 5.895929e+001
1.109429e+003, 5.946097e+001
1.109911e+003, 5.958246e+001
1.110394e+003, 5.852639e+001
1.110876e+003, 5.764031e+001
1.111358e+003, 5.806363e+001
1.111840e+003, 5.902034e+001
1.112322e+003, 5.910687e+001
1.112804e+003, 5.824166e+001
1.113286e+003, 5.793431e+001
1.113768e+003, 5.862904e+001
1.114250e+003, 5.914870e+001
1.114733e+003, 5.944321e+001
1.115215e+003, 5.950968e+001
1.115697e+003, 5.923305e+001
1.116179e+003, 5.882751e+001
1.116661e+003, 5.846843e+001
1.117143e+003, 5.818707e+001
1.117625e+003, 5.824623e+001
1.118107e+003, 5.897686e+001
1.118589e+003, 5.921687e+001
1.119072e+003, 5.853432e+001
1.119554e+003, 5.825077e+001
1.120036e+003, 5.907248e+001
1.120518e+003, 5.994823e+001
1.121000e+003, 5.995835e+001
1.121482e+003, 5.934396e+001
1.121964e+003, 5.875789e+001
1.122446e+003, 5.812083e+001
1.122929e+003, 5.805474e+001
1.123411e+003, 5.877136e+001
1.123893e+003, 5.933906e+001
1.124375e+003, 5.955130e+001
1.124857e+003, 5.960323e+001
1.125339e+003, 5.960622e+001
1.125821e+003, 5.953992e+001
1.126303e+003, 5.932675e+001
1.126786e+003, 5.899080e+001
1.127268e+003, 5.902361e+001
1.127750e+003, 5.947457e+001
1.128232e+003, 5.990442e+001
1.128714e+003, 6.030030e+001
1.129196e+003, 6.024617e+001
1.129678e+003, 5.947631e+001
1.130160e+003, 5.864273e+001
1.130642e+003, 5.851973e+001
1.131125e+003, 5.888565e+001
1.131607e+003, 5.892950e+001
1.132089e+003, 5.867965e+001
1.132571e+003, 5.867570e+001
1.133053e+003, 5.894057e+001
1.133535e+003, 5.909583e+001
1.134017e+003, 5.902632e+001
1.134499e+003, 5.899849e+001
1.134981e+003, 5.923141e+001
1.135464e+003, 5.956374e+001
1.135946e+003, 5.968584e+001
1.136428e+003, 5.965856e+001
1.136910e+003, 5.973631e+001
1.137392e+003, 5.988921e+001
1.137874e+003, 5.992858e+001
1.138356e+003, 5.984169e+001
1.138838e+003, 5.982339e+001
1.139321e+003, 5.997394e+001
1.139803e+003, 6.013408e+001
1.140285e+003, 6.013219e+001
1.140767e+003, 6.001539e+001
1.141249e+003, 5.988126e+001
1.141731e+003, 5.969701e+001
1.142213e+003, 5.931205e+001
1.142695e+003, 5.880838e+001
1.143177e+003, 5.838541e+001
1.143660e+003, 5.815406e+001
1.144142e+003, 5.845164e+001
1.144624e+003, 5.980271e+001
1.145106e+003, 6.109311e+001
1.145588e+003, 6.093899e+001
1.146070e+003, 6.022927e+001
1.146552e+003, 6.008710e+001
1.147034e+003, 6.025042e+001
1.147516e+003, 6.007727e+001
1.147999e+003, 5.954006e+001
1.148481e+003, 5.903815e+001
1.148963e+003, 5.871152e+001
1.149445e+003, 5.860525e+001
1.149927e+003, 5.889361e+001
1.150409e+003, 5.924648e+001
1.150891e+003, 5.941607e+001
1.151373e+003, 5.953021e+001
1.151856e+003, 5.984063e+001
1.152338e+003, 6.018716e+001
1.152820e+003, 6.012230e+001
1.153302e+003, 5.955532e+001
1.153784e+003, 5.910310e+001
1.154266e+003, 5.896412e+001
1.154748e+003, 5.898200e+001
1.155230e+003, 5.919652e+001
1.155713e+003, 5.945157e+001
1.156195e+003, 5.969143e+001
1.156677e+003, 5.988980e+001
1.157159e+003, 6.001463e+001
1.157641e+003, 6.007221e+001
1.158123e+003, 6.010486e+001
1.158605e+003, 6.003818e+001
1.159087e+003, 6.011744e+001
1.159569e+003, 6.063987e+001
1.160052e+003, 6.091787e+001
1.160534e+003, 6.051402e+001
1.161016e+003, 6.009858e+001
1.161498e+003, 6.023943e+001
1.161980e+003, 6.067341e+001
1.162462e+003, 6.080829e+001
1.162944e+003, 6.060255e+001
1.163426e+003, 6.056508e+001
1.163908e+003, 6.080566e+001
1.164391e+003, 6.085884e+001
1.164873e+003, 6.054407e+001
1.165355e+003, 6.040516e+001
1.165837e+003, 6.074950e+001
1.166319e+003, 6.126274e+001
1.166801e+003, 6.161023e+001
1.167283e+003, 6.177811e+001
1.167765e+003, 6.164938e+001
1.168247e+003, 6.120778e+001
1.168730e+003, 6.102079e+001
1.169212e+003, 6.112323e+001
1.169694e+003, 6.102034e+001
1.170176e+003, 6.056923e+001
1.170658e+003, 6.030844e+001
1.171140e+003, 6.062637e+001
1.171622e+003, 6.122438e+001
1.172104e+003, 6.174148e+001
1.172587e+003, 6.210303e+001
1.173069e+003, 6.194501e+001
1.173551e+003, 6.141284e+001
1.174033e+003, 6.099566e+001
1.174515e+003, 6.077964e+001
1.174997e+003, 6.083634e+001
1.175479e+003, 6.117002e+001
1.175961e+003, 6.150148e+001
1.176443e+003, 6.160375e+001
1.176926e+003, 6.158513e+001
1.177408e+003, 6.152956e+001
1.177890e+003, 6.147627e+001
1.178372e+003, 6.146877e+001
1.178854e+003, 6.151498e+001
1.179336e+003, 6.167611e+001
1.179818e+003, 6.190590e+001
1.180300e+003, 6.199758e+001
1.180782e+003, 6.185642e+001
1.181265e+003, 6.165467e+001
1.181747e+003, 6.142593e+001
1.182229e+003, 6.125788e+001
1.182711e+003, 6.108735e+001
1.183193e+003, 6.111446e+001
1.183675e+003, 6.173680e+001
1.184157e+003, 6.260891e+001
1.184639e+003, 6.308453e+001
1.185122e+003, 6.308301e+001
1.185604e+003, 6.299979e+001
1.186086e+003, 6.291307e+001
1.186568e+003, 6.277008e+001
1.187050e+003, 6.238164e+001
1.187532e+003, 6.215961e+001
1.188014e+003, 6.247219e+001
1.188496e+003, 6.285717e+001
1.188979e+003, 6.283002e+001
1.189461e+003, 6.255448e+001
1.189943e+003, 6.252269e+001
1.190425e+003, 6.280368e+001
1.190907e+003, 6.291445e+001
1.191389e+003, 6.279958e+001
1.191871e+003, 6.264381e+001
1.192353e+003, 6.240038e+001
1.192835e+003, 6.238093e+001
1.193318e+003, 6.283018e+001
1.193800e+003, 6.330721e+001
1.194282e+003, 6.323451e+001
1.194764e+003, 6.278453e+001
1.195246e+003, 6.265845e+001
1.195728e+003, 6.284123e+001
1.196210e+003, 6.291608e+001
1.196692e+003, 6.287289e+001
1.197174e+003, 6.291933e+001
1.197657e+003, 6.310564e+001
1.198139e+003, 6.335950e+001
1.198621e+003, 6.363679e+001
1.199103e+003, 6.395186e+001
1.199585e+003, 6.446367e+001
1.200067e+003, 6.491654e+001
1.200549e+003, 6.455857e+001
1.201031e+003, 6.384205e+001
1.201514e+003, 6.382351e+001
1.201996e+003, 6.439139e+001
1.202478e+003, 6.493656e+001
1.202960e+003, 6.525505e+001
1.203442e+003, 6.529050e+001
1.203924e+003, 6.488383e+001
1.204406e+003, 6.457478e+001
1.204888e+003, 6.493143e+001
1.205370e+003, 6.538473e+001
1.205853e+003, 6.546635e+001
1.206335e+003, 6.536443e+001
1.206817e+003, 6.525531e+001
1.207299e+003, 6.520282e+001
1.207781e+003, 6.532005e+001
1.208263e+003, 6.564418e+001
1.208745e+003, 6.586160e+001
1.209227e+003, 6.587228e+001
1.209709e+003, 6.580537e+001
1.210192e+003, 6.552778e+001
1.210674e+003, 6.536766e+001
1.211156e+003, 6.550393e+001
1.211638e+003, 6.582421e+001
1.212120e+003, 6.626358e+001
1.212602e+003, 6.678825e+001
1.213084e+003, 6.728844e+001
1.213566e+003, 6.782126e+001
1.214049e+003, 6.798446e+001
1.214531e+003, 6.762157e+001
1.215013e+003, 6.755915e+001
1.215495e+003, 6.803671e+001
1.215977e+003, 6.841026e+001
1.216459e+003, 6.833163e+001
1.216941e+003, 6.800854e+001
1.217423e+003, 6.763097e+001
1.217906e+003, 6.731725e+001
1.218388e+003, 6.753836e+001
1.218870e+003, 6.816426e+001
1.219352e+003, 6.859201e+001
1.219834e+003, 6.878320e+001
1.220316e+003, 6.865396e+001
1.220798e+003, 6.825829e+001
1.221280e+003, 6.797386e+001
1.221762e+003, 6.799617e+001
1.222245e+003, 6.838915e+001
1.222727e+003, 6.949770e+001
1.223209e+003, 7.072586e+001
1.223691e+003, 7.141512e+001
1.224173e+003, 7.179154e+001
1.224655e+003, 7.199467e+001
1.225137e+003, 7.218456e+001
1.225619e+003, 7.276287e+001
1.226101e+003, 7.364436e+001
1.226584e+003, 7.396980e+001
1.227066e+003, 7.321723e+001
1.227548e+003, 7.255386e+001
1.228030e+003, 7.251163e+001
1.228512e+003, 7.246601e+001
1.228994e+003, 7.188290e+001
1.229476e+003, 7.146439e+001
1.229958e+003, 7.206559e+001
1.230441e+003, 7.305608e+001
1.230923e+003, 7.320832e+001
1.231405e+003, 7.255921e+001
1.231887e+003, 7.238020e+001
1.232369e+003, 7.275495e+001
1.232851e+003, 7.340968e+001
1.233333e+003, 7.451661e+001
1.233815e+003, 7.523051e+001
1.234297e+003, 7.524934e+001
1.234780e+003, 7.499920e+001
1.235262e+003, 7.474685e+001
1.235744e+003, 7.458191e+001
1.236226e+003, 7.469192e+001
1.236708e+003, 7.500405e+001
1.237190e+003, 7.519401e+001
1.237672e+003, 7.530723e+001
1.238154e+003, 7.562304e+001
1.238636e+003, 7.609006e+001
1.239119e+003, 7.631527e+001
1.239601e+003, 7.621326e+001
1.240083e+003, 7.606597e+001
1.240565e+003, 7.603447e+001
1.241047e+003, 7.611016e+001
1.241529e+003, 7.636256e+001
1.242011e+003, 7.663703e+001
1.242493e+003, 7.682325e+001
1.242975e+003, 7.691209e+001
1.243458e+003, 7.682853e+001
1.243940e+003, 7.667181e+001
1.244422e+003, 7.663913e+001
1.244904e+003, 7.675893e+001
1.245386e+003, 7.691856e+001
1.245868e+003, 7.705717e+001
1.246350e+003, 7.729298e+001
1.246832e+003, 7.786963e+001
1.247315e+003, 7.823975e+001
1.247797e+003, 7.804622e+001
1.248279e+003, 7.778979e+001
1.248761e+003, 7.776617e+001
1.249243e+003, 7.796595e+001
1.249725e+003, 7.844667e+001
1.250207e+003, 7.916794e+001
1.250689e+003, 7.935874e+001
1.251172e+003, 7.892955e+001
1.251654e+003, 7.899622e+001
1.252136e+003, 7.966197e+001
1.252618e+003, 8.028960e+001
1.253100e+003, 8.068710e+001
1.253582e+003, 8.090544e+001
1.254064e+003, 8.096556e+001
1.254546e+003, 8.100191e+001
1.255028e+003, 8.113722e+001
1.255510e+003, 8.142435e+001
1.255993e+003, 8.212329e+001
1.256475e+003, 8.295711e+001
1.256957e+003, 8.334554e+001
1.257439e+003, 8.341454e+001
1.257921e+003, 8.357619e+001
1.258403e+003, 8.391824e+001
1.258885e+003, 8.432805e+001
1.259367e+003, 8.479089e+001
1.259850e+003, 8.518694e+001
1.260332e+003, 8.537582e+001
1.260814e+003, 8.559636e+001
1.261296e+003, 8.591695e+001
1.261778e+003, 8.635982e+001
1.262260e+003, 8.705778e+001
1.262742e+003, 8.781996e+001
1.263224e+003, 8.829537e+001
1.263707e+003, 8.853623e+001
1.264189e+003, 8.897339e+001
1.264671e+003, 8.969714e+001
1.265153e+003, 9.032162e+001
1.265635e+003, 9.084660e+001
1.266117e+003, 9.124467e+001
1.266599e+003, 9.150021e+001
1.267081e+003, 9.163225e+001
1.267563e+003, 9.161320e+001
1.268046e+003, 9.184398e+001
1.268528e+003, 9.291727e+001
1.269010e+003, 9.437964e+001
1.269492e+003, 9.517618e+001
1.269974e+003, 9.553088e+001
1.270456e+003, 9.588979e+001
1.270938e+003, 9.634890e+001
1.271420e+003, 9.720937e+001
1.271902e+003, 9.833622e+001
1.272385e+003, 9.900741e+001
1.272867e+003, 9.894453e+001
1.273349e+003, 9.899065e+001
1.273831e+003, 9.981194e+001
1.274313e+003, 1.006430e+002
1.274795e+003, 1.011195e+002
1.275277e+003, 1.014636e+002
1.275759e+003, 1.016488e+002
1.276242e+003, 1.019248e+002
1.276724e+003, 1.026951e+002
1.277206e+003, 1.037705e+002
1.277688e+003, 1.045386e+002
1.278170e+003, 1.050092e+002
1.278652e+003, 1.050126e+002
1.279134e+003, 1.043194e+002
1.279616e+003, 1.040215e+002
1.280099e+003, 1.042953e+002
1.280581e+003, 1.046696e+002
1.281063e+003, 1.049997e+002
1.281545e+003, 1.051544e+002
1.282027e+003, 1.050337e+002
1.282509e+003, 1.046603e+002
1.282991e+003, 1.039914e+002
1.283473e+003, 1.031445e+002
1.283955e+003, 1.023951e+002
##END=



