##NAMES=Kasolite
##RRUFFID=R060479
##IDEAL CHEMISTRY=Pb^2+^(U^6+^O_2_)SiO_4_&#183;H_2_O
##LOCALITY=Musonoi Extension, Shaba Province, Zaire
##OWNER=RRUFF
##SOURCE=Michael Scott
##DESCRIPTION=Yellowish-orange prismatic single crystals
##STATUS=The identification of this mineral has been confirmed by single-crystal X-ray diffraction.
##URL=rruff.info/R060479
9.112140e+001, 0.000000e+000
9.160352e+001, 7.452177e+002
9.208563e+001, 7.157450e+002
9.256775e+001, 7.117364e+002
9.304987e+001, 7.445310e+002
9.353198e+001, 7.891028e+002
9.401410e+001, 8.282327e+002
9.449622e+001, 8.610702e+002
9.497833e+001, 8.911368e+002
9.546045e+001, 9.220774e+002
9.594257e+001, 9.539410e+002
9.642468e+001, 9.810701e+002
9.690680e+001, 1.005797e+003
9.738892e+001, 1.026412e+003
9.787103e+001, 1.043276e+003
9.835315e+001, 1.054877e+003
9.883527e+001, 1.060106e+003
9.931738e+001, 1.061116e+003
9.979950e+001, 1.059134e+003
1.002816e+002, 1.048126e+003
1.007637e+002, 1.027745e+003
1.012458e+002, 9.994561e+002
1.017280e+002, 9.638788e+002
1.022101e+002, 9.205908e+002
1.026922e+002, 8.722043e+002
1.031743e+002, 8.197758e+002
1.036564e+002, 7.625853e+002
1.041385e+002, 7.082508e+002
1.046207e+002, 6.582211e+002
1.051028e+002, 6.127304e+002
1.055849e+002, 5.723199e+002
1.060670e+002, 5.379954e+002
1.065491e+002, 5.086229e+002
1.070313e+002, 4.822086e+002
1.075134e+002, 4.586234e+002
1.079955e+002, 4.374713e+002
1.084776e+002, 4.185787e+002
1.089597e+002, 4.020165e+002
1.094418e+002, 3.873068e+002
1.099240e+002, 3.747849e+002
1.104061e+002, 3.636785e+002
1.108882e+002, 3.537665e+002
1.113703e+002, 3.449831e+002
1.118524e+002, 3.370947e+002
1.123345e+002, 3.295039e+002
1.128167e+002, 3.222714e+002
1.132988e+002, 3.153125e+002
1.137809e+002, 3.084445e+002
1.142630e+002, 3.018573e+002
1.147451e+002, 2.957715e+002
1.152272e+002, 2.903994e+002
1.157094e+002, 2.856590e+002
1.161915e+002, 2.808990e+002
1.166736e+002, 2.757805e+002
1.171557e+002, 2.709276e+002
1.176378e+002, 2.666395e+002
1.181199e+002, 2.628279e+002
1.186021e+002, 2.591589e+002
1.190842e+002, 2.553156e+002
1.195663e+002, 2.513036e+002
1.200484e+002, 2.478618e+002
1.205305e+002, 2.452043e+002
1.210126e+002, 2.429463e+002
1.214948e+002, 2.407860e+002
1.219769e+002, 2.386829e+002
1.224590e+002, 2.367054e+002
1.229411e+002, 2.350585e+002
1.234232e+002, 2.336457e+002
1.239053e+002, 2.321479e+002
1.243875e+002, 2.303094e+002
1.248696e+002, 2.282958e+002
1.253517e+002, 2.265539e+002
1.258338e+002, 2.250609e+002
1.263159e+002, 2.240101e+002
1.267980e+002, 2.236668e+002
1.272802e+002, 2.238907e+002
1.277623e+002, 2.240359e+002
1.282444e+002, 2.234432e+002
1.287265e+002, 2.220113e+002
1.292086e+002, 2.209449e+002
1.296907e+002, 2.206967e+002
1.301729e+002, 2.205906e+002
1.306550e+002, 2.202870e+002
1.311371e+002, 2.197656e+002
1.316192e+002, 2.192747e+002
1.321013e+002, 2.192106e+002
1.325834e+002, 2.199666e+002
1.330656e+002, 2.203698e+002
1.335477e+002, 2.199011e+002
1.340298e+002, 2.194229e+002
1.345119e+002, 2.196267e+002
1.349940e+002, 2.207338e+002
1.354761e+002, 2.224463e+002
1.359583e+002, 2.240915e+002
1.364404e+002, 2.257172e+002
1.369225e+002, 2.271992e+002
1.374046e+002, 2.282236e+002
1.378867e+002, 2.291645e+002
1.383688e+002, 2.305985e+002
1.388510e+002, 2.328572e+002
1.393331e+002, 2.356630e+002
1.398152e+002, 2.380900e+002
1.402973e+002, 2.400054e+002
1.407794e+002, 2.418448e+002
1.412615e+002, 2.436635e+002
1.417437e+002, 2.455032e+002
1.422258e+002, 2.476006e+002
1.427079e+002, 2.501134e+002
1.431900e+002, 2.529677e+002
1.436721e+002, 2.559271e+002
1.441542e+002, 2.589956e+002
1.446364e+002, 2.621576e+002
1.451185e+002, 2.655000e+002
1.456006e+002, 2.690865e+002
1.460827e+002, 2.724545e+002
1.465648e+002, 2.753569e+002
1.470469e+002, 2.779287e+002
1.475291e+002, 2.802113e+002
1.480112e+002, 2.820985e+002
1.484933e+002, 2.838320e+002
1.489754e+002, 2.859771e+002
1.494575e+002, 2.887756e+002
1.499396e+002, 2.916255e+002
1.504218e+002, 2.944760e+002
1.509039e+002, 2.972334e+002
1.513860e+002, 2.997371e+002
1.518681e+002, 3.018685e+002
1.523502e+002, 3.036867e+002
1.528323e+002, 3.055892e+002
1.533145e+002, 3.075757e+002
1.537966e+002, 3.096668e+002
1.542787e+002, 3.119337e+002
1.547608e+002, 3.143195e+002
1.552429e+002, 3.167159e+002
1.557250e+002, 3.190324e+002
1.562072e+002, 3.212399e+002
1.566893e+002, 3.237347e+002
1.571714e+002, 3.267365e+002
1.576535e+002, 3.297682e+002
1.581356e+002, 3.327674e+002
1.586177e+002, 3.356594e+002
1.590999e+002, 3.382878e+002
1.595820e+002, 3.404678e+002
1.600641e+002, 3.421150e+002
1.605462e+002, 3.438579e+002
1.610283e+002, 3.456703e+002
1.615104e+002, 3.475793e+002
1.619926e+002, 3.498026e+002
1.624747e+002, 3.523499e+002
1.629568e+002, 3.546436e+002
1.634389e+002, 3.560566e+002
1.639210e+002, 3.566157e+002
1.644031e+002, 3.565283e+002
1.648853e+002, 3.557649e+002
1.653674e+002, 3.543845e+002
1.658495e+002, 3.524427e+002
1.663316e+002, 3.498853e+002
1.668137e+002, 3.468862e+002
1.672958e+002, 3.435607e+002
1.677780e+002, 3.399508e+002
1.682601e+002, 3.361104e+002
1.687422e+002, 3.319095e+002
1.692243e+002, 3.274554e+002
1.697064e+002, 3.232714e+002
1.701885e+002, 3.195399e+002
1.706707e+002, 3.159545e+002
1.711528e+002, 3.122683e+002
1.716349e+002, 3.085165e+002
1.721170e+002, 3.048290e+002
1.725991e+002, 3.012131e+002
1.730812e+002, 2.976519e+002
1.735634e+002, 2.945322e+002
1.740455e+002, 2.922806e+002
1.745276e+002, 2.901674e+002
1.750097e+002, 2.878466e+002
1.754918e+002, 2.853476e+002
1.759739e+002, 2.829602e+002
1.764561e+002, 2.810972e+002
1.769382e+002, 2.799973e+002
1.774203e+002, 2.785570e+002
1.779024e+002, 2.764011e+002
1.783845e+002, 2.742364e+002
1.788666e+002, 2.723736e+002
1.793488e+002, 2.708927e+002
1.798309e+002, 2.697337e+002
1.803130e+002, 2.688510e+002
1.807951e+002, 2.683281e+002
1.812772e+002, 2.679460e+002
1.817593e+002, 2.679012e+002
1.822415e+002, 2.678556e+002
1.827236e+002, 2.675882e+002
1.832057e+002, 2.670394e+002
1.836878e+002, 2.662470e+002
1.841699e+002, 2.652251e+002
1.846520e+002, 2.636170e+002
1.851342e+002, 2.625534e+002
1.856163e+002, 2.624296e+002
1.860984e+002, 2.627075e+002
1.865805e+002, 2.628433e+002
1.870626e+002, 2.626781e+002
1.875447e+002, 2.623423e+002
1.880269e+002, 2.620848e+002
1.885090e+002, 2.620113e+002
1.889911e+002, 2.616227e+002
1.894732e+002, 2.603456e+002
1.899553e+002, 2.587481e+002
1.904374e+002, 2.579247e+002
1.909196e+002, 2.583490e+002
1.914017e+002, 2.592809e+002
1.918838e+002, 2.596142e+002
1.923659e+002, 2.593183e+002
1.928480e+002, 2.590610e+002
1.933301e+002, 2.592279e+002
1.938123e+002, 2.596992e+002
1.942944e+002, 2.600299e+002
1.947765e+002, 2.600632e+002
1.952586e+002, 2.599609e+002
1.957407e+002, 2.599383e+002
1.962228e+002, 2.599980e+002
1.967050e+002, 2.599813e+002
1.971871e+002, 2.597136e+002
1.976692e+002, 2.592096e+002
1.981513e+002, 2.588002e+002
1.986334e+002, 2.586416e+002
1.991155e+002, 2.585257e+002
1.995977e+002, 2.582499e+002
2.000798e+002, 2.578201e+002
2.005619e+002, 2.574859e+002
2.010440e+002, 2.574778e+002
2.015261e+002, 2.578157e+002
2.020082e+002, 2.583676e+002
2.024904e+002, 2.595405e+002
2.029725e+002, 2.606295e+002
2.034546e+002, 2.612409e+002
2.039367e+002, 2.613463e+002
2.044188e+002, 2.612183e+002
2.049009e+002, 2.611298e+002
2.053831e+002, 2.610052e+002
2.058652e+002, 2.611726e+002
2.063473e+002, 2.618103e+002
2.068294e+002, 2.625836e+002
2.073115e+002, 2.633413e+002
2.077936e+002, 2.640391e+002
2.082758e+002, 2.646888e+002
2.087579e+002, 2.652796e+002
2.092400e+002, 2.656943e+002
2.097221e+002, 2.663229e+002
2.102042e+002, 2.675457e+002
2.106863e+002, 2.686825e+002
2.111685e+002, 2.690941e+002
2.116506e+002, 2.687360e+002
2.121327e+002, 2.682400e+002
2.126148e+002, 2.685624e+002
2.130969e+002, 2.703510e+002
2.135790e+002, 2.716163e+002
2.140612e+002, 2.719723e+002
2.145433e+002, 2.720823e+002
2.150254e+002, 2.723224e+002
2.155075e+002, 2.728191e+002
2.159896e+002, 2.737476e+002
2.164717e+002, 2.754369e+002
2.169539e+002, 2.784988e+002
2.174360e+002, 2.808495e+002
2.179181e+002, 2.820070e+002
2.184002e+002, 2.826656e+002
2.188823e+002, 2.834673e+002
2.193644e+002, 2.845643e+002
2.198466e+002, 2.858095e+002
2.203287e+002, 2.869664e+002
2.208108e+002, 2.879673e+002
2.212929e+002, 2.893052e+002
2.217750e+002, 2.913281e+002
2.222571e+002, 2.936191e+002
2.227393e+002, 2.957048e+002
2.232214e+002, 2.974937e+002
2.237035e+002, 2.990236e+002
2.241856e+002, 3.002155e+002
2.246677e+002, 3.010965e+002
2.251498e+002, 3.020024e+002
2.256320e+002, 3.030786e+002
2.261141e+002, 3.042182e+002
2.265962e+002, 3.052910e+002
2.270783e+002, 3.063249e+002
2.275604e+002, 3.071456e+002
2.280425e+002, 3.075175e+002
2.285247e+002, 3.075225e+002
2.290068e+002, 3.073999e+002
2.294889e+002, 3.072990e+002
2.299710e+002, 3.071285e+002
2.304531e+002, 3.066505e+002
2.309352e+002, 3.057603e+002
2.314174e+002, 3.047242e+002
2.318995e+002, 3.039970e+002
2.323816e+002, 3.033593e+002
2.328637e+002, 3.021281e+002
2.333458e+002, 2.998209e+002
2.338279e+002, 2.966515e+002
2.343101e+002, 2.932398e+002
2.347922e+002, 2.895725e+002
2.352743e+002, 2.857309e+002
2.357564e+002, 2.817697e+002
2.362385e+002, 2.777070e+002
2.367206e+002, 2.735404e+002
2.372028e+002, 2.692897e+002
2.376849e+002, 2.649580e+002
2.381670e+002, 2.604248e+002
2.386491e+002, 2.553658e+002
2.391312e+002, 2.506206e+002
2.396133e+002, 2.465422e+002
2.400955e+002, 2.429404e+002
2.405776e+002, 2.394263e+002
2.410597e+002, 2.357645e+002
2.415418e+002, 2.320242e+002
2.420239e+002, 2.286487e+002
2.425060e+002, 2.259278e+002
2.429882e+002, 2.231769e+002
2.434703e+002, 2.199531e+002
2.439524e+002, 2.166090e+002
2.444345e+002, 2.136742e+002
2.449166e+002, 2.114985e+002
2.453987e+002, 2.099132e+002
2.458809e+002, 2.081739e+002
2.463630e+002, 2.062120e+002
2.468451e+002, 2.041614e+002
2.473272e+002, 2.017671e+002
2.478093e+002, 1.993780e+002
2.482914e+002, 1.975764e+002
2.487736e+002, 1.967319e+002
2.492557e+002, 1.964755e+002
2.497378e+002, 1.952802e+002
2.502199e+002, 1.917723e+002
2.507020e+002, 1.890056e+002
2.511841e+002, 1.880571e+002
2.516663e+002, 1.878348e+002
2.521484e+002, 1.869288e+002
2.526305e+002, 1.846354e+002
2.531126e+002, 1.815367e+002
2.535947e+002, 1.794246e+002
2.540768e+002, 1.793083e+002
2.545590e+002, 1.790848e+002
2.550411e+002, 1.786785e+002
2.555232e+002, 1.780796e+002
2.560053e+002, 1.772473e+002
2.564874e+002, 1.761684e+002
2.569695e+002, 1.749335e+002
2.574517e+002, 1.737633e+002
2.579338e+002, 1.724707e+002
2.584159e+002, 1.714953e+002
2.588980e+002, 1.709995e+002
2.593801e+002, 1.707504e+002
2.598622e+002, 1.705193e+002
2.603444e+002, 1.702253e+002
2.608265e+002, 1.699038e+002
2.613086e+002, 1.696223e+002
2.617907e+002, 1.694092e+002
2.622728e+002, 1.691905e+002
2.627549e+002, 1.687816e+002
2.632371e+002, 1.684536e+002
2.637192e+002, 1.685998e+002
2.642013e+002, 1.693059e+002
2.646834e+002, 1.701294e+002
2.651655e+002, 1.703859e+002
2.656476e+002, 1.697228e+002
2.661298e+002, 1.693171e+002
2.666119e+002, 1.691005e+002
2.670940e+002, 1.692000e+002
2.675761e+002, 1.699405e+002
2.680582e+002, 1.713515e+002
2.685403e+002, 1.727718e+002
2.690225e+002, 1.733529e+002
2.695046e+002, 1.728032e+002
2.699867e+002, 1.727386e+002
2.704688e+002, 1.734669e+002
2.709509e+002, 1.745263e+002
2.714330e+002, 1.755573e+002
2.719152e+002, 1.765091e+002
2.723973e+002, 1.774744e+002
2.728794e+002, 1.785282e+002
2.733615e+002, 1.796851e+002
2.738436e+002, 1.809019e+002
2.743257e+002, 1.823331e+002
2.748079e+002, 1.837212e+002
2.752900e+002, 1.847266e+002
2.757721e+002, 1.853743e+002
2.762542e+002, 1.861668e+002
2.767363e+002, 1.875823e+002
2.772184e+002, 1.895249e+002
2.777006e+002, 1.911053e+002
2.781827e+002, 1.920450e+002
2.786648e+002, 1.928284e+002
2.791469e+002, 1.937535e+002
2.796290e+002, 1.948139e+002
2.801111e+002, 1.959181e+002
2.805933e+002, 1.970051e+002
2.810754e+002, 1.981037e+002
2.815575e+002, 1.993286e+002
2.820396e+002, 2.010893e+002
2.825217e+002, 2.024854e+002
2.830038e+002, 2.027933e+002
2.834860e+002, 2.021750e+002
2.839681e+002, 2.015103e+002
2.844502e+002, 2.012800e+002
2.849323e+002, 2.011507e+002
2.854144e+002, 2.004335e+002
2.858965e+002, 1.989400e+002
2.863787e+002, 1.973548e+002
2.868608e+002, 1.961553e+002
2.873429e+002, 1.952009e+002
2.878250e+002, 1.939400e+002
2.883071e+002, 1.921285e+002
2.887892e+002, 1.900080e+002
2.892714e+002, 1.879229e+002
2.897535e+002, 1.858803e+002
2.902356e+002, 1.838475e+002
2.907177e+002, 1.818470e+002
2.911998e+002, 1.798447e+002
2.916819e+002, 1.776831e+002
2.921641e+002, 1.752348e+002
2.926462e+002, 1.727991e+002
2.931283e+002, 1.706941e+002
2.936104e+002, 1.688887e+002
2.940925e+002, 1.672269e+002
2.945746e+002, 1.657558e+002
2.950568e+002, 1.643758e+002
2.955389e+002, 1.628242e+002
2.960210e+002, 1.609731e+002
2.965031e+002, 1.592465e+002
2.969852e+002, 1.581441e+002
2.974673e+002, 1.574732e+002
2.979495e+002, 1.567327e+002
2.984316e+002, 1.557751e+002
2.989137e+002, 1.546539e+002
2.993958e+002, 1.533649e+002
2.998779e+002, 1.518423e+002
3.003600e+002, 1.504780e+002
3.008422e+002, 1.497371e+002
3.013243e+002, 1.493099e+002
3.018064e+002, 1.486549e+002
3.022885e+002, 1.473797e+002
3.027706e+002, 1.460856e+002
3.032527e+002, 1.456371e+002
3.037349e+002, 1.461086e+002
3.042170e+002, 1.463245e+002
3.046991e+002, 1.454344e+002
3.051812e+002, 1.441038e+002
3.056633e+002, 1.432391e+002
3.061454e+002, 1.430298e+002
3.066276e+002, 1.431024e+002
3.071097e+002, 1.432534e+002
3.075918e+002, 1.434692e+002
3.080739e+002, 1.434938e+002
3.085560e+002, 1.431962e+002
3.090381e+002, 1.426925e+002
3.095203e+002, 1.420993e+002
3.100024e+002, 1.414029e+002
3.104845e+002, 1.407591e+002
3.109666e+002, 1.402281e+002
3.114487e+002, 1.398237e+002
3.119308e+002, 1.396455e+002
3.124130e+002, 1.397974e+002
3.128951e+002, 1.400686e+002
3.133772e+002, 1.403161e+002
3.138593e+002, 1.405294e+002
3.143414e+002, 1.406108e+002
3.148235e+002, 1.404161e+002
3.153057e+002, 1.400569e+002
3.157878e+002, 1.397927e+002
3.162699e+002, 1.396099e+002
3.167520e+002, 1.396144e+002
3.172341e+002, 1.401862e+002
3.177162e+002, 1.410131e+002
3.181984e+002, 1.413612e+002
3.186805e+002, 1.406416e+002
3.191626e+002, 1.394405e+002
3.196447e+002, 1.387601e+002
3.201268e+002, 1.387316e+002
3.206089e+002, 1.385710e+002
3.210911e+002, 1.377399e+002
3.215732e+002, 1.365143e+002
3.220553e+002, 1.352227e+002
3.225374e+002, 1.338503e+002
3.230195e+002, 1.325508e+002
3.235016e+002, 1.315577e+002
3.239838e+002, 1.308681e+002
3.244659e+002, 1.301056e+002
3.249480e+002, 1.290646e+002
3.254301e+002, 1.279229e+002
3.259122e+002, 1.268959e+002
3.263943e+002, 1.259887e+002
3.268765e+002, 1.251829e+002
3.273586e+002, 1.245197e+002
3.278407e+002, 1.239653e+002
3.283228e+002, 1.233354e+002
3.288049e+002, 1.225374e+002
3.292870e+002, 1.217223e+002
3.297692e+002, 1.211081e+002
3.302513e+002, 1.206720e+002
3.307334e+002, 1.201032e+002
3.312155e+002, 1.190550e+002
3.316976e+002, 1.177861e+002
3.321797e+002, 1.169082e+002
3.326619e+002, 1.165283e+002
3.331440e+002, 1.164209e+002
3.336261e+002, 1.166033e+002
3.341082e+002, 1.169347e+002
3.345903e+002, 1.170550e+002
3.350724e+002, 1.166379e+002
3.355546e+002, 1.160597e+002
3.360367e+002, 1.158539e+002
3.365188e+002, 1.160590e+002
3.370009e+002, 1.162588e+002
3.374830e+002, 1.162052e+002
3.379651e+002, 1.159891e+002
3.384473e+002, 1.157894e+002
3.389294e+002, 1.156442e+002
3.394115e+002, 1.154880e+002
3.398936e+002, 1.151788e+002
3.403757e+002, 1.147598e+002
3.408578e+002, 1.146092e+002
3.413400e+002, 1.150336e+002
3.418221e+002, 1.156232e+002
3.423042e+002, 1.157546e+002
3.427863e+002, 1.153805e+002
3.432684e+002, 1.148716e+002
3.437505e+002, 1.142697e+002
3.442327e+002, 1.136709e+002
3.447148e+002, 1.133639e+002
3.451969e+002, 1.134924e+002
3.456790e+002, 1.136994e+002
3.461611e+002, 1.135548e+002
3.466432e+002, 1.131134e+002
3.471254e+002, 1.126211e+002
3.476075e+002, 1.120717e+002
3.480896e+002, 1.115395e+002
3.485717e+002, 1.111811e+002
3.490538e+002, 1.110168e+002
3.495359e+002, 1.107698e+002
3.500181e+002, 1.101096e+002
3.505002e+002, 1.091847e+002
3.509823e+002, 1.086524e+002
3.514644e+002, 1.088459e+002
3.519465e+002, 1.091904e+002
3.524286e+002, 1.095063e+002
3.529108e+002, 1.097142e+002
3.533929e+002, 1.093523e+002
3.538750e+002, 1.079874e+002
3.543571e+002, 1.061195e+002
3.548392e+002, 1.050193e+002
3.553214e+002, 1.049303e+002
3.558035e+002, 1.049196e+002
3.562856e+002, 1.046572e+002
3.567677e+002, 1.042509e+002
3.572498e+002, 1.039399e+002
3.577319e+002, 1.038192e+002
3.582141e+002, 1.036457e+002
3.586962e+002, 1.029487e+002
3.591783e+002, 1.015607e+002
3.596604e+002, 1.007180e+002
3.601425e+002, 1.011355e+002
3.606246e+002, 1.018022e+002
3.611068e+002, 1.017098e+002
3.615889e+002, 1.007917e+002
3.620710e+002, 9.971420e+001
3.625531e+002, 9.904024e+001
3.630352e+002, 9.876087e+001
3.635173e+002, 9.826518e+001
3.639995e+002, 9.730684e+001
3.644816e+002, 9.639385e+001
3.649637e+002, 9.574589e+001
3.654458e+002, 9.533723e+001
3.659279e+002, 9.512188e+001
3.664100e+002, 9.511238e+001
3.668922e+002, 9.519572e+001
3.673743e+002, 9.498945e+001
3.678564e+002, 9.413042e+001
3.683385e+002, 9.351233e+001
3.688206e+002, 9.347754e+001
3.693027e+002, 9.364483e+001
3.697849e+002, 9.353659e+001
3.702670e+002, 9.302934e+001
3.707491e+002, 9.241161e+001
3.712312e+002, 9.211415e+001
3.717133e+002, 9.237141e+001
3.721954e+002, 9.221194e+001
3.726776e+002, 9.115825e+001
3.731597e+002, 9.011964e+001
3.736418e+002, 8.965415e+001
3.741239e+002, 8.974397e+001
3.746060e+002, 9.007821e+001
3.750881e+002, 9.044479e+001
3.755703e+002, 9.083672e+001
3.760524e+002, 9.105526e+001
3.765345e+002, 9.092796e+001
3.770166e+002, 9.083078e+001
3.774987e+002, 9.086813e+001
3.779808e+002, 9.098323e+001
3.784630e+002, 9.110168e+001
3.789451e+002, 9.118978e+001
3.794272e+002, 9.123328e+001
3.799093e+002, 9.118964e+001
3.803914e+002, 9.096043e+001
3.808735e+002, 9.080860e+001
3.813557e+002, 9.065993e+001
3.818378e+002, 9.063830e+001
3.823199e+002, 9.094056e+001
3.828020e+002, 9.153281e+001
3.832841e+002, 9.210045e+001
3.837662e+002, 9.224586e+001
3.842484e+002, 9.187672e+001
3.847305e+002, 9.173287e+001
3.852126e+002, 9.201015e+001
3.856947e+002, 9.233497e+001
3.861768e+002, 9.256625e+001
3.866589e+002, 9.275805e+001
3.871411e+002, 9.305127e+001
3.876232e+002, 9.355378e+001
3.881053e+002, 9.418612e+001
3.885874e+002, 9.464791e+001
3.890695e+002, 9.483568e+001
3.895516e+002, 9.504227e+001
3.900338e+002, 9.533083e+001
3.905159e+002, 9.566980e+001
3.909980e+002, 9.601245e+001
3.914801e+002, 9.634843e+001
3.919622e+002, 9.674857e+001
3.924443e+002, 9.733913e+001
3.929265e+002, 9.814530e+001
3.934086e+002, 9.889165e+001
3.938907e+002, 9.950561e+001
3.943728e+002, 1.000841e+002
3.948549e+002, 1.007630e+002
3.953370e+002, 1.014792e+002
3.958192e+002, 1.019819e+002
3.963013e+002, 1.017901e+002
3.967834e+002, 1.012698e+002
3.972655e+002, 1.017549e+002
3.977476e+002, 1.036099e+002
3.982297e+002, 1.055240e+002
3.987119e+002, 1.069445e+002
3.991940e+002, 1.079732e+002
3.996761e+002, 1.086065e+002
4.001582e+002, 1.086704e+002
4.006403e+002, 1.087264e+002
4.011224e+002, 1.094425e+002
4.016046e+002, 1.107811e+002
4.020867e+002, 1.119777e+002
4.025688e+002, 1.126876e+002
4.030509e+002, 1.132939e+002
4.035330e+002, 1.142724e+002
4.040151e+002, 1.156270e+002
4.044973e+002, 1.170091e+002
4.049794e+002, 1.183384e+002
4.054615e+002, 1.195763e+002
4.059436e+002, 1.206213e+002
4.064257e+002, 1.214377e+002
4.069078e+002, 1.222062e+002
4.073900e+002, 1.230269e+002
4.078721e+002, 1.239145e+002
4.083542e+002, 1.249278e+002
4.088363e+002, 1.262765e+002
4.093184e+002, 1.275657e+002
4.098005e+002, 1.284577e+002
4.102827e+002, 1.290534e+002
4.107648e+002, 1.297341e+002
4.112469e+002, 1.307226e+002
4.117290e+002, 1.317818e+002
4.122111e+002, 1.323087e+002
4.126932e+002, 1.320845e+002
4.131754e+002, 1.319657e+002
4.136575e+002, 1.322527e+002
4.141396e+002, 1.326320e+002
4.146217e+002, 1.327798e+002
4.151038e+002, 1.326409e+002
4.155859e+002, 1.323609e+002
4.160681e+002, 1.321127e+002
4.165502e+002, 1.319299e+002
4.170323e+002, 1.313151e+002
4.175144e+002, 1.300901e+002
4.179965e+002, 1.286976e+002
4.184786e+002, 1.272049e+002
4.189608e+002, 1.256905e+002
4.194429e+002, 1.242946e+002
4.199250e+002, 1.231015e+002
4.204071e+002, 1.219825e+002
4.208892e+002, 1.205766e+002
4.213713e+002, 1.187644e+002
4.218535e+002, 1.168249e+002
4.223356e+002, 1.146475e+002
4.228177e+002, 1.124321e+002
4.232998e+002, 1.103347e+002
4.237819e+002, 1.083700e+002
4.242640e+002, 1.064776e+002
4.247462e+002, 1.045804e+002
4.252283e+002, 1.026594e+002
4.257104e+002, 1.009077e+002
4.261925e+002, 9.951488e+001
4.266746e+002, 9.809389e+001
4.271567e+002, 9.643017e+001
4.276389e+002, 9.468787e+001
4.281210e+002, 9.314532e+001
4.286031e+002, 9.194503e+001
4.290852e+002, 9.096217e+001
4.295673e+002, 8.998100e+001
4.300494e+002, 8.902123e+001
4.305316e+002, 8.798838e+001
4.310137e+002, 8.665382e+001
4.314958e+002, 8.539009e+001
4.319779e+002, 8.452281e+001
4.324600e+002, 8.404072e+001
4.329421e+002, 8.357333e+001
4.334243e+002, 8.284483e+001
4.339064e+002, 8.189867e+001
4.343885e+002, 8.078853e+001
4.348706e+002, 7.921452e+001
4.353527e+002, 7.818063e+001
4.358348e+002, 7.914990e+001
4.363170e+002, 8.096423e+001
4.367991e+002, 8.158928e+001
4.372812e+002, 8.003343e+001
4.377633e+002, 7.783025e+001
4.382454e+002, 7.628673e+001
4.387275e+002, 7.533927e+001
4.392097e+002, 7.460942e+001
4.396918e+002, 7.401761e+001
4.401739e+002, 7.352345e+001
4.406560e+002, 7.305793e+001
4.411381e+002, 7.260464e+001
4.416202e+002, 7.226530e+001
4.421024e+002, 7.222020e+001
4.425845e+002, 7.222175e+001
4.430666e+002, 7.193221e+001
4.435487e+002, 7.134002e+001
4.440308e+002, 7.076944e+001
4.445129e+002, 7.048650e+001
4.449951e+002, 7.045068e+001
4.454772e+002, 7.024775e+001
4.459593e+002, 6.967109e+001
4.464414e+002, 6.919377e+001
4.469235e+002, 6.899626e+001
4.474056e+002, 6.897781e+001
4.478878e+002, 6.900581e+001
4.483699e+002, 6.903258e+001
4.488520e+002, 6.904173e+001
4.493341e+002, 6.900478e+001
4.498162e+002, 6.889928e+001
4.502983e+002, 6.881007e+001
4.507805e+002, 6.870793e+001
4.512626e+002, 6.864592e+001
4.517447e+002, 6.874925e+001
4.522268e+002, 6.892202e+001
4.527089e+002, 6.889870e+001
4.531910e+002, 6.846890e+001
4.536732e+002, 6.777250e+001
4.541553e+002, 6.743068e+001
4.546374e+002, 6.776209e+001
4.551195e+002, 6.790730e+001
4.556016e+002, 6.762735e+001
4.560837e+002, 6.719649e+001
4.565659e+002, 6.678631e+001
4.570480e+002, 6.644887e+001
4.575301e+002, 6.624977e+001
4.580122e+002, 6.632784e+001
4.584943e+002, 6.667567e+001
4.589764e+002, 6.688554e+001
4.594586e+002, 6.694602e+001
4.599407e+002, 6.685308e+001
4.604228e+002, 6.632409e+001
4.609049e+002, 6.570187e+001
4.613870e+002, 6.570910e+001
4.618691e+002, 6.696613e+001
4.623513e+002, 6.834412e+001
4.628334e+002, 6.818581e+001
4.633155e+002, 6.656402e+001
4.637976e+002, 6.544750e+001
4.642797e+002, 6.565246e+001
4.647618e+002, 6.638281e+001
4.652440e+002, 6.664025e+001
4.657261e+002, 6.642690e+001
4.662082e+002, 6.614399e+001
4.666903e+002, 6.583504e+001
4.671724e+002, 6.557696e+001
4.676545e+002, 6.548055e+001
4.681367e+002, 6.554893e+001
4.686188e+002, 6.569138e+001
4.691009e+002, 6.587550e+001
4.695830e+002, 6.607661e+001
4.700651e+002, 6.617422e+001
4.705472e+002, 6.607826e+001
4.710294e+002, 6.600701e+001
4.715115e+002, 6.603763e+001
4.719936e+002, 6.611404e+001
4.724757e+002, 6.618331e+001
4.729578e+002, 6.622649e+001
4.734399e+002, 6.621552e+001
4.739221e+002, 6.610528e+001
4.744042e+002, 6.586681e+001
4.748863e+002, 6.569685e+001
4.753684e+002, 6.554412e+001
4.758505e+002, 6.550211e+001
4.763326e+002, 6.562309e+001
4.768148e+002, 6.587560e+001
4.772969e+002, 6.623604e+001
4.777790e+002, 6.669566e+001
4.782611e+002, 6.717719e+001
4.787432e+002, 6.751082e+001
4.792253e+002, 6.766880e+001
4.797075e+002, 6.775126e+001
4.801896e+002, 6.750658e+001
4.806717e+002, 6.740678e+001
4.811538e+002, 6.779671e+001
4.816359e+002, 6.860658e+001
4.821180e+002, 6.947674e+001
4.826002e+002, 7.023377e+001
4.830823e+002, 7.085200e+001
4.835644e+002, 7.118195e+001
4.840465e+002, 7.109251e+001
4.845286e+002, 7.119626e+001
4.850107e+002, 7.191746e+001
4.854929e+002, 7.290519e+001
4.859750e+002, 7.375310e+001
4.864571e+002, 7.439587e+001
4.869392e+002, 7.500317e+001
4.874213e+002, 7.574546e+001
4.879034e+002, 7.651686e+001
4.883856e+002, 7.704749e+001
4.888677e+002, 7.727934e+001
4.893498e+002, 7.740746e+001
4.898319e+002, 7.750076e+001
4.903140e+002, 7.761113e+001
4.907961e+002, 7.810861e+001
4.912783e+002, 7.941847e+001
4.917604e+002, 8.066732e+001
4.922425e+002, 8.153658e+001
4.927246e+002, 8.205545e+001
4.932067e+002, 8.221274e+001
4.936888e+002, 8.200414e+001
4.941710e+002, 8.167587e+001
4.946531e+002, 8.158790e+001
4.951352e+002, 8.172630e+001
4.956173e+002, 8.219370e+001
4.960994e+002, 8.338514e+001
4.965815e+002, 8.447468e+001
4.970637e+002, 8.507365e+001
4.975458e+002, 8.525038e+001
4.980279e+002, 8.520383e+001
4.985100e+002, 8.503323e+001
4.989921e+002, 8.477244e+001
4.994742e+002, 8.448086e+001
4.999564e+002, 8.409397e+001
5.004385e+002, 8.384441e+001
5.009206e+002, 8.383909e+001
5.014027e+002, 8.391933e+001
5.018848e+002, 8.406702e+001
5.023669e+002, 8.423708e+001
5.028491e+002, 8.428252e+001
5.033312e+002, 8.414571e+001
5.038133e+002, 8.380299e+001
5.042954e+002, 8.308076e+001
5.047775e+002, 8.186347e+001
5.052596e+002, 8.083135e+001
5.057418e+002, 8.039833e+001
5.062239e+002, 8.029372e+001
5.067060e+002, 8.013161e+001
5.071881e+002, 7.989084e+001
5.076702e+002, 7.960546e+001
5.081523e+002, 7.932017e+001
5.086345e+002, 7.899248e+001
5.091166e+002, 7.849761e+001
5.095987e+002, 7.781445e+001
5.100808e+002, 7.718607e+001
5.105629e+002, 7.682707e+001
5.110450e+002, 7.671460e+001
5.115272e+002, 7.653465e+001
5.120093e+002, 7.621230e+001
5.124914e+002, 7.591911e+001
5.129735e+002, 7.571041e+001
5.134556e+002, 7.555637e+001
5.139377e+002, 7.543020e+001
5.144199e+002, 7.532015e+001
5.149020e+002, 7.519360e+001
5.153841e+002, 7.499534e+001
5.158662e+002, 7.469625e+001
5.163483e+002, 7.452847e+001
5.168304e+002, 7.469473e+001
5.173126e+002, 7.477950e+001
5.177947e+002, 7.464629e+001
5.182768e+002, 7.436386e+001
5.187589e+002, 7.398180e+001
5.192410e+002, 7.350712e+001
5.197231e+002, 7.313107e+001
5.202053e+002, 7.325131e+001
5.206874e+002, 7.392426e+001
5.211695e+002, 7.422126e+001
5.216516e+002, 7.367281e+001
5.221337e+002, 7.317133e+001
5.226158e+002, 7.352007e+001
5.230980e+002, 7.440833e+001
5.235801e+002, 7.492581e+001
5.240622e+002, 7.448592e+001
5.245443e+002, 7.380003e+001
5.250264e+002, 7.366162e+001
5.255085e+002, 7.397645e+001
5.259907e+002, 7.416652e+001
5.264728e+002, 7.398401e+001
5.269549e+002, 7.369768e+001
5.274370e+002, 7.373042e+001
5.279191e+002, 7.413936e+001
5.284012e+002, 7.448376e+001
5.288834e+002, 7.477748e+001
5.293655e+002, 7.494517e+001
5.298476e+002, 7.485774e+001
5.303297e+002, 7.459343e+001
5.308118e+002, 7.432836e+001
5.312939e+002, 7.414238e+001
5.317761e+002, 7.410589e+001
5.322582e+002, 7.444210e+001
5.327403e+002, 7.560061e+001
5.332224e+002, 7.629073e+001
5.337045e+002, 7.622665e+001
5.341866e+002, 7.598140e+001
5.346688e+002, 7.573103e+001
5.351509e+002, 7.559090e+001
5.356330e+002, 7.577379e+001
5.361151e+002, 7.650814e+001
5.365972e+002, 7.754224e+001
5.370793e+002, 7.821023e+001
5.375615e+002, 7.845815e+001
5.380436e+002, 7.853932e+001
5.385257e+002, 7.830523e+001
5.390078e+002, 7.810376e+001
5.394899e+002, 7.826379e+001
5.399720e+002, 7.878188e+001
5.404542e+002, 7.936831e+001
5.409363e+002, 8.000595e+001
5.414184e+002, 8.056739e+001
5.419005e+002, 8.076415e+001
5.423826e+002, 8.061450e+001
5.428647e+002, 8.061328e+001
5.433469e+002, 8.106252e+001
5.438290e+002, 8.178142e+001
5.443111e+002, 8.230009e+001
5.447932e+002, 8.252750e+001
5.452753e+002, 8.279579e+001
5.457574e+002, 8.319931e+001
5.462396e+002, 8.362900e+001
5.467217e+002, 8.395516e+001
5.472038e+002, 8.420381e+001
5.476859e+002, 8.453506e+001
5.481680e+002, 8.508212e+001
5.486501e+002, 8.576588e+001
5.491323e+002, 8.623382e+001
5.496144e+002, 8.640990e+001
5.500965e+002, 8.648385e+001
5.505786e+002, 8.646859e+001
5.510607e+002, 8.638303e+001
5.515428e+002, 8.625969e+001
5.520250e+002, 8.608741e+001
5.525071e+002, 8.580833e+001
5.529892e+002, 8.538998e+001
5.534713e+002, 8.482999e+001
5.539534e+002, 8.405297e+001
5.544355e+002, 8.299283e+001
5.549177e+002, 8.206409e+001
5.553998e+002, 8.155842e+001
5.558819e+002, 8.117451e+001
5.563640e+002, 8.046060e+001
5.568461e+002, 7.936018e+001
5.573282e+002, 7.834953e+001
5.578104e+002, 7.780941e+001
5.582925e+002, 7.733677e+001
5.587746e+002, 7.632619e+001
5.592567e+002, 7.482060e+001
5.597388e+002, 7.350259e+001
5.602209e+002, 7.280265e+001
5.607031e+002, 7.253477e+001
5.611852e+002, 7.210261e+001
5.616673e+002, 7.143234e+001
5.621494e+002, 7.068003e+001
5.626315e+002, 6.965396e+001
5.631136e+002, 6.869767e+001
5.635958e+002, 6.809769e+001
5.640779e+002, 6.781253e+001
5.645600e+002, 6.762090e+001
5.650421e+002, 6.737206e+001
5.655242e+002, 6.708772e+001
5.660063e+002, 6.683881e+001
5.664885e+002, 6.662946e+001
5.669706e+002, 6.644674e+001
5.674527e+002, 6.629278e+001
5.679348e+002, 6.616337e+001
5.684169e+002, 6.612711e+001
5.688990e+002, 6.614904e+001
5.693812e+002, 6.600212e+001
5.698633e+002, 6.527470e+001
5.703454e+002, 6.446445e+001
5.708275e+002, 6.446670e+001
5.713096e+002, 6.521882e+001
5.717917e+002, 6.571781e+001
5.722739e+002, 6.549183e+001
5.727560e+002, 6.487477e+001
5.732381e+002, 6.447694e+001
5.737202e+002, 6.440100e+001
5.742023e+002, 6.412281e+001
5.746844e+002, 6.330558e+001
5.751666e+002, 6.251944e+001
5.756487e+002, 6.226419e+001
5.761308e+002, 6.237075e+001
5.766129e+002, 6.232564e+001
5.770950e+002, 6.185344e+001
5.775771e+002, 6.115683e+001
5.780593e+002, 6.069743e+001
5.785414e+002, 6.059475e+001
5.790235e+002, 6.040284e+001
5.795056e+002, 6.008012e+001
5.799877e+002, 5.967959e+001
5.804698e+002, 5.919850e+001
5.809520e+002, 5.865781e+001
5.814341e+002, 5.809578e+001
5.819162e+002, 5.753376e+001
5.823983e+002, 5.694813e+001
5.828804e+002, 5.630161e+001
5.833625e+002, 5.559692e+001
5.838447e+002, 5.487841e+001
5.843268e+002, 5.413458e+001
5.848089e+002, 5.343250e+001
5.852910e+002, 5.288302e+001
5.857731e+002, 5.246796e+001
5.862552e+002, 5.199803e+001
5.867374e+002, 5.132762e+001
5.872195e+002, 5.073420e+001
5.877016e+002, 5.046041e+001
5.881837e+002, 5.033864e+001
5.886658e+002, 5.004734e+001
5.891479e+002, 4.949752e+001
5.896301e+002, 4.889888e+001
5.901122e+002, 4.852191e+001
5.905943e+002, 4.840178e+001
5.910764e+002, 4.816763e+001
5.915585e+002, 4.767310e+001
5.920406e+002, 4.723198e+001
5.925228e+002, 4.690615e+001
5.930049e+002, 4.667827e+001
5.934870e+002, 4.656998e+001
5.939691e+002, 4.657915e+001
5.944512e+002, 4.654631e+001
5.949333e+002, 4.622249e+001
5.954155e+002, 4.571017e+001
5.958976e+002, 4.554361e+001
5.963797e+002, 4.586211e+001
5.968618e+002, 4.601976e+001
5.973439e+002, 4.549331e+001
5.978260e+002, 4.460162e+001
5.983082e+002, 4.416852e+001
5.987903e+002, 4.442762e+001
5.992724e+002, 4.455536e+001
5.997545e+002, 4.411580e+001
6.002366e+002, 4.351972e+001
6.007188e+002, 4.323359e+001
6.012009e+002, 4.326019e+001
6.016830e+002, 4.331183e+001
6.021651e+002, 4.319631e+001
6.026472e+002, 4.295074e+001
6.031293e+002, 4.270461e+001
6.036115e+002, 4.240980e+001
6.040936e+002, 4.220696e+001
6.045757e+002, 4.221747e+001
6.050578e+002, 4.221518e+001
6.055399e+002, 4.197167e+001
6.060220e+002, 4.158211e+001
6.065042e+002, 4.139582e+001
6.069863e+002, 4.174055e+001
6.074684e+002, 4.219134e+001
6.079505e+002, 4.196259e+001
6.084326e+002, 4.107264e+001
6.089147e+002, 4.028014e+001
6.093969e+002, 3.972382e+001
6.098790e+002, 3.943749e+001
6.103611e+002, 3.962437e+001
6.108432e+002, 4.022998e+001
6.113253e+002, 4.052217e+001
6.118074e+002, 4.002362e+001
6.122896e+002, 3.961182e+001
6.127717e+002, 3.994645e+001
6.132538e+002, 4.062542e+001
6.137359e+002, 4.092002e+001
6.142180e+002, 4.062750e+001
6.147001e+002, 4.012798e+001
6.151823e+002, 3.986723e+001
6.156644e+002, 3.985933e+001
6.161465e+002, 3.979433e+001
6.166286e+002, 3.959168e+001
6.171107e+002, 3.944428e+001
6.175928e+002, 3.954537e+001
6.180750e+002, 3.964158e+001
6.185571e+002, 3.935497e+001
6.190392e+002, 3.864183e+001
6.195213e+002, 3.809083e+001
6.200034e+002, 3.830827e+001
6.204855e+002, 3.896687e+001
6.209677e+002, 3.934139e+001
6.214498e+002, 3.939563e+001
6.219319e+002, 3.933348e+001
6.224140e+002, 3.922539e+001
6.228961e+002, 3.909359e+001
6.233782e+002, 3.898479e+001
6.238604e+002, 3.890496e+001
6.243425e+002, 3.882651e+001
6.248246e+002, 3.881486e+001
6.253067e+002, 3.874392e+001
6.257888e+002, 3.841768e+001
6.262709e+002, 3.796785e+001
6.267531e+002, 3.772933e+001
6.272352e+002, 3.787193e+001
6.277173e+002, 3.819283e+001
6.281994e+002, 3.828944e+001
6.286815e+002, 3.808508e+001
6.291636e+002, 3.810455e+001
6.296458e+002, 3.868235e+001
6.301279e+002, 3.908236e+001
6.306100e+002, 3.883348e+001
6.310921e+002, 3.820453e+001
6.315742e+002, 3.763509e+001
6.320563e+002, 3.718202e+001
6.325385e+002, 3.696230e+001
6.330206e+002, 3.726421e+001
6.335027e+002, 3.780785e+001
6.339848e+002, 3.798796e+001
6.344669e+002, 3.772337e+001
6.349490e+002, 3.741339e+001
6.354312e+002, 3.734724e+001
6.359133e+002, 3.747290e+001
6.363954e+002, 3.754252e+001
6.368775e+002, 3.732351e+001
6.373596e+002, 3.736997e+001
6.378417e+002, 3.807941e+001
6.383239e+002, 3.875007e+001
6.388060e+002, 3.873467e+001
6.392881e+002, 3.820424e+001
6.397702e+002, 3.786814e+001
6.402523e+002, 3.821595e+001
6.407344e+002, 3.882599e+001
6.412166e+002, 3.878664e+001
6.416987e+002, 3.805762e+001
6.421808e+002, 3.760103e+001
6.426629e+002, 3.767118e+001
6.431450e+002, 3.794855e+001
6.436271e+002, 3.822573e+001
6.441093e+002, 3.848826e+001
6.445914e+002, 3.866275e+001
6.450735e+002, 3.870730e+001
6.455556e+002, 3.869737e+001
6.460377e+002, 3.863210e+001
6.465198e+002, 3.854864e+001
6.470020e+002, 3.848228e+001
6.474841e+002, 3.844889e+001
6.479662e+002, 3.849324e+001
6.484483e+002, 3.867356e+001
6.489304e+002, 3.895785e+001
6.494125e+002, 3.911727e+001
6.498947e+002, 3.907523e+001
6.503768e+002, 3.904848e+001
6.508589e+002, 3.902243e+001
6.513410e+002, 3.906443e+001
6.518231e+002, 3.924855e+001
6.523052e+002, 3.955579e+001
6.527874e+002, 3.988604e+001
6.532695e+002, 4.025795e+001
6.537516e+002, 4.056222e+001
6.542337e+002, 4.057719e+001
6.547158e+002, 4.037904e+001
6.551979e+002, 4.035601e+001
6.556801e+002, 4.064495e+001
6.561622e+002, 4.098034e+001
6.566443e+002, 4.106566e+001
6.571264e+002, 4.088583e+001
6.576085e+002, 4.073429e+001
6.580906e+002, 4.046317e+001
6.585728e+002, 4.039875e+001
6.590549e+002, 4.079581e+001
6.595370e+002, 4.133058e+001
6.600191e+002, 4.163653e+001
6.605012e+002, 4.168721e+001
6.609833e+002, 4.175941e+001
6.614655e+002, 4.210551e+001
6.619476e+002, 4.263208e+001
6.624297e+002, 4.307402e+001
6.629118e+002, 4.344397e+001
6.633939e+002, 4.359821e+001
6.638760e+002, 4.334001e+001
6.643582e+002, 4.302828e+001
6.648403e+002, 4.313621e+001
6.653224e+002, 4.362675e+001
6.658045e+002, 4.407717e+001
6.662866e+002, 4.440222e+001
6.667687e+002, 4.469030e+001
6.672509e+002, 4.497040e+001
6.677330e+002, 4.525144e+001
6.682151e+002, 4.556931e+001
6.686972e+002, 4.592306e+001
6.691793e+002, 4.621332e+001
6.696614e+002, 4.629624e+001
6.701436e+002, 4.620506e+001
6.706257e+002, 4.644200e+001
6.711078e+002, 4.720370e+001
6.715899e+002, 4.788890e+001
6.720720e+002, 4.841363e+001
6.725541e+002, 4.874096e+001
6.730363e+002, 4.866773e+001
6.735184e+002, 4.825943e+001
6.740005e+002, 4.815618e+001
6.744826e+002, 4.887788e+001
6.749647e+002, 4.983152e+001
6.754468e+002, 5.050269e+001
6.759290e+002, 5.091473e+001
6.764111e+002, 5.106181e+001
6.768932e+002, 5.093294e+001
6.773753e+002, 5.090856e+001
6.778574e+002, 5.148483e+001
6.783395e+002, 5.269659e+001
6.788217e+002, 5.361726e+001
6.793038e+002, 5.401851e+001
6.797859e+002, 5.440866e+001
6.802680e+002, 5.487770e+001
6.807501e+002, 5.536413e+001
6.812322e+002, 5.575897e+001
6.817144e+002, 5.608276e+001
6.821965e+002, 5.654343e+001
6.826786e+002, 5.747964e+001
6.831607e+002, 5.848867e+001
6.836428e+002, 5.868507e+001
6.841249e+002, 5.820156e+001
6.846071e+002, 5.826179e+001
6.850892e+002, 5.934535e+001
6.855713e+002, 6.068904e+001
6.860534e+002, 6.142818e+001
6.865355e+002, 6.151739e+001
6.870176e+002, 6.169733e+001
6.874998e+002, 6.198417e+001
6.879819e+002, 6.232974e+001
6.884640e+002, 6.269453e+001
6.889461e+002, 6.312830e+001
6.894282e+002, 6.372609e+001
6.899103e+002, 6.446742e+001
6.903925e+002, 6.520382e+001
6.908746e+002, 6.582347e+001
6.913567e+002, 6.635516e+001
6.918388e+002, 6.679632e+001
6.923209e+002, 6.713447e+001
6.928030e+002, 6.774798e+001
6.932852e+002, 6.885680e+001
6.937673e+002, 7.005067e+001
6.942494e+002, 7.091184e+001
6.947315e+002, 7.145796e+001
6.952136e+002, 7.199512e+001
6.956957e+002, 7.235280e+001
6.961779e+002, 7.292764e+001
6.966600e+002, 7.407266e+001
6.971421e+002, 7.537768e+001
6.976242e+002, 7.633910e+001
6.981063e+002, 7.693673e+001
6.985884e+002, 7.755282e+001
6.990706e+002, 7.850660e+001
6.995527e+002, 7.963652e+001
7.000348e+002, 8.040731e+001
7.005169e+002, 8.071638e+001
7.009990e+002, 8.136204e+001
7.014811e+002, 8.273464e+001
7.019633e+002, 8.415637e+001
7.024454e+002, 8.494540e+001
7.029275e+002, 8.529524e+001
7.034096e+002, 8.586552e+001
7.038917e+002, 8.676296e+001
7.043738e+002, 8.786445e+001
7.048560e+002, 8.935381e+001
7.053381e+002, 9.089332e+001
7.058202e+002, 9.196272e+001
7.063023e+002, 9.261622e+001
7.067844e+002, 9.345281e+001
7.072665e+002, 9.490208e+001
7.077487e+002, 9.673743e+001
7.082308e+002, 9.834361e+001
7.087129e+002, 9.972305e+001
7.091950e+002, 1.008134e+002
7.096771e+002, 1.012069e+002
7.101592e+002, 1.018430e+002
7.106414e+002, 1.035846e+002
7.111235e+002, 1.059484e+002
7.116056e+002, 1.078742e+002
7.120877e+002, 1.089721e+002
7.125698e+002, 1.101300e+002
7.130519e+002, 1.118017e+002
7.135341e+002, 1.137388e+002
7.140162e+002, 1.157023e+002
7.144983e+002, 1.176421e+002
7.149804e+002, 1.195627e+002
7.154625e+002, 1.214828e+002
7.159446e+002, 1.233452e+002
7.164268e+002, 1.249910e+002
7.169089e+002, 1.263244e+002
7.173910e+002, 1.279010e+002
7.178731e+002, 1.298653e+002
7.183552e+002, 1.319252e+002
7.188373e+002, 1.339782e+002
7.193195e+002, 1.360269e+002
7.198016e+002, 1.380125e+002
7.202837e+002, 1.398761e+002
7.207658e+002, 1.420267e+002
7.212479e+002, 1.447820e+002
7.217300e+002, 1.478326e+002
7.222122e+002, 1.509603e+002
7.226943e+002, 1.540960e+002
7.231764e+002, 1.570931e+002
7.236585e+002, 1.598852e+002
7.241406e+002, 1.626442e+002
7.246227e+002, 1.656070e+002
7.251049e+002, 1.688039e+002
7.255870e+002, 1.720753e+002
7.260691e+002, 1.753109e+002
7.265512e+002, 1.787857e+002
7.270333e+002, 1.827216e+002
7.275154e+002, 1.868479e+002
7.279976e+002, 1.907571e+002
7.284797e+002, 1.944254e+002
7.289618e+002, 1.984832e+002
7.294439e+002, 2.034257e+002
7.299260e+002, 2.086524e+002
7.304081e+002, 2.135463e+002
7.308903e+002, 2.182773e+002
7.313724e+002, 2.232379e+002
7.318545e+002, 2.285523e+002
7.323366e+002, 2.342089e+002
7.328187e+002, 2.402278e+002
7.333008e+002, 2.465991e+002
7.337830e+002, 2.533757e+002
7.342651e+002, 2.608521e+002
7.347472e+002, 2.680953e+002
7.352293e+002, 2.742071e+002
7.357114e+002, 2.806010e+002
7.361935e+002, 2.883560e+002
7.366757e+002, 2.972939e+002
7.371578e+002, 3.065871e+002
7.376399e+002, 3.159933e+002
7.381220e+002, 3.256846e+002
7.386041e+002, 3.355169e+002
7.390862e+002, 3.457892e+002
7.395684e+002, 3.568433e+002
7.400505e+002, 3.687383e+002
7.405326e+002, 3.815356e+002
7.410147e+002, 3.953191e+002
7.414968e+002, 4.099491e+002
7.419789e+002, 4.250372e+002
7.424611e+002, 4.404427e+002
7.429432e+002, 4.567438e+002
7.434253e+002, 4.740206e+002
7.439074e+002, 4.921284e+002
7.443895e+002, 5.106614e+002
7.448716e+002, 5.299951e+002
7.453538e+002, 5.510278e+002
7.458359e+002, 5.743107e+002
7.463180e+002, 5.979807e+002
7.468001e+002, 6.205453e+002
7.472822e+002, 6.433972e+002
7.477643e+002, 6.679407e+002
7.482465e+002, 6.940951e+002
7.487286e+002, 7.218778e+002
7.492107e+002, 7.512115e+002
7.496928e+002, 7.812248e+002
7.501749e+002, 8.106498e+002
7.506570e+002, 8.394766e+002
7.511392e+002, 8.689891e+002
7.516213e+002, 8.990837e+002
7.521034e+002, 9.304330e+002
7.525855e+002, 9.636737e+002
7.530676e+002, 9.981458e+002
7.535497e+002, 1.032883e+003
7.540319e+002, 1.067873e+003
7.545140e+002, 1.102917e+003
7.549961e+002, 1.138790e+003
7.554782e+002, 1.173826e+003
7.559603e+002, 1.207168e+003
7.564424e+002, 1.238733e+003
7.569246e+002, 1.269166e+003
7.574067e+002, 1.298353e+003
7.578888e+002, 1.324867e+003
7.583709e+002, 1.348357e+003
7.588530e+002, 1.367755e+003
7.593351e+002, 1.379076e+003
7.598173e+002, 1.381848e+003
7.602994e+002, 1.380516e+003
7.607815e+002, 1.376178e+003
7.612636e+002, 1.367643e+003
7.617457e+002, 1.354486e+003
7.622278e+002, 1.336200e+003
7.627100e+002, 1.311190e+003
7.631921e+002, 1.275926e+003
7.636742e+002, 1.239481e+003
7.641563e+002, 1.203959e+003
7.646384e+002, 1.168245e+003
7.651205e+002, 1.130776e+003
7.656027e+002, 1.092158e+003
7.660848e+002, 1.054475e+003
7.665669e+002, 1.018626e+003
7.670490e+002, 9.829506e+002
7.675311e+002, 9.444885e+002
7.680132e+002, 9.040392e+002
7.684954e+002, 8.660561e+002
7.689775e+002, 8.308079e+002
7.694596e+002, 7.975789e+002
7.699417e+002, 7.661263e+002
7.704238e+002, 7.360827e+002
7.709059e+002, 7.068429e+002
7.713881e+002, 6.786150e+002
7.718702e+002, 6.507776e+002
7.723523e+002, 6.217691e+002
7.728344e+002, 5.948357e+002
7.733165e+002, 5.718847e+002
7.737986e+002, 5.512719e+002
7.742808e+002, 5.310085e+002
7.747629e+002, 5.109325e+002
7.752450e+002, 4.920155e+002
7.757271e+002, 4.753140e+002
7.762092e+002, 4.598618e+002
7.766913e+002, 4.442297e+002
7.771735e+002, 4.286326e+002
7.776556e+002, 4.141214e+002
7.781377e+002, 4.008876e+002
7.786198e+002, 3.885451e+002
7.791019e+002, 3.768204e+002
7.795840e+002, 3.657171e+002
7.800662e+002, 3.553966e+002
7.805483e+002, 3.461918e+002
7.810304e+002, 3.371367e+002
7.815125e+002, 3.279515e+002
7.819946e+002, 3.191653e+002
7.824767e+002, 3.106729e+002
7.829589e+002, 3.028183e+002
7.834410e+002, 2.964485e+002
7.839231e+002, 2.919852e+002
7.844052e+002, 2.877314e+002
7.848873e+002, 2.825765e+002
7.853694e+002, 2.771236e+002
7.858516e+002, 2.718502e+002
7.863337e+002, 2.669670e+002
7.868158e+002, 2.630796e+002
7.872979e+002, 2.604199e+002
7.877800e+002, 2.582683e+002
7.882621e+002, 2.556595e+002
7.887443e+002, 2.526283e+002
7.892264e+002, 2.497484e+002
7.897085e+002, 2.468053e+002
7.901906e+002, 2.446532e+002
7.906727e+002, 2.440796e+002
7.911548e+002, 2.438624e+002
7.916370e+002, 2.428646e+002
7.921191e+002, 2.411430e+002
7.926012e+002, 2.390669e+002
7.930833e+002, 2.361520e+002
7.935654e+002, 2.335465e+002
7.940475e+002, 2.322380e+002
7.945297e+002, 2.310773e+002
7.950118e+002, 2.287690e+002
7.954939e+002, 2.254207e+002
7.959760e+002, 2.220305e+002
7.964581e+002, 2.191787e+002
7.969402e+002, 2.163152e+002
7.974224e+002, 2.123850e+002
7.979045e+002, 2.075945e+002
7.983866e+002, 2.035167e+002
7.988687e+002, 2.003674e+002
7.993508e+002, 1.972978e+002
7.998329e+002, 1.939679e+002
8.003151e+002, 1.903167e+002
8.007972e+002, 1.861876e+002
8.012793e+002, 1.812597e+002
8.017614e+002, 1.770841e+002
8.022435e+002, 1.739943e+002
8.027256e+002, 1.711616e+002
8.032078e+002, 1.684530e+002
8.036899e+002, 1.658188e+002
8.041720e+002, 1.631975e+002
8.046541e+002, 1.605987e+002
8.051362e+002, 1.580524e+002
8.056183e+002, 1.555254e+002
8.061005e+002, 1.531369e+002
8.065826e+002, 1.511406e+002
8.070647e+002, 1.493652e+002
8.075468e+002, 1.473747e+002
8.080289e+002, 1.451159e+002
8.085110e+002, 1.429476e+002
8.089932e+002, 1.411313e+002
8.094753e+002, 1.395378e+002
8.099574e+002, 1.377908e+002
8.104395e+002, 1.358240e+002
8.109216e+002, 1.339654e+002
8.114037e+002, 1.322559e+002
8.118859e+002, 1.306270e+002
8.123680e+002, 1.290732e+002
8.128501e+002, 1.275689e+002
8.133322e+002, 1.260473e+002
8.138143e+002, 1.244806e+002
8.142964e+002, 1.231072e+002
8.147786e+002, 1.221221e+002
8.152607e+002, 1.211866e+002
8.157428e+002, 1.201362e+002
8.162249e+002, 1.189989e+002
8.167070e+002, 1.178423e+002
8.171891e+002, 1.166747e+002
8.176713e+002, 1.154143e+002
8.181534e+002, 1.139115e+002
8.186355e+002, 1.124237e+002
8.191176e+002, 1.116460e+002
8.195997e+002, 1.114430e+002
8.200818e+002, 1.106415e+002
8.205640e+002, 1.089686e+002
8.210461e+002, 1.072707e+002
8.215282e+002, 1.061103e+002
8.220103e+002, 1.053985e+002
8.224924e+002, 1.049050e+002
8.229745e+002, 1.048800e+002
8.234567e+002, 1.045035e+002
8.239388e+002, 1.036909e+002
8.244209e+002, 1.026251e+002
8.249030e+002, 1.010749e+002
8.253851e+002, 9.945490e+001
8.258672e+002, 9.833831e+001
8.263494e+002, 9.779481e+001
8.268315e+002, 9.730954e+001
8.273136e+002, 9.681078e+001
8.277957e+002, 9.611372e+001
8.282778e+002, 9.481226e+001
8.287599e+002, 9.328697e+001
8.292421e+002, 9.235294e+001
8.297242e+002, 9.207289e+001
8.302063e+002, 9.167553e+001
8.306884e+002, 9.050536e+001
8.311705e+002, 8.899372e+001
8.316526e+002, 8.837368e+001
8.321348e+002, 8.869534e+001
8.326169e+002, 8.836251e+001
8.330990e+002, 8.698487e+001
8.335811e+002, 8.562601e+001
8.340632e+002, 8.500806e+001
8.345453e+002, 8.474306e+001
8.350275e+002, 8.389767e+001
8.355096e+002, 8.208512e+001
8.359917e+002, 8.087099e+001
8.364738e+002, 8.101805e+001
8.369559e+002, 8.087072e+001
8.374380e+002, 7.926662e+001
8.379202e+002, 7.738618e+001
8.384023e+002, 7.675321e+001
8.388844e+002, 7.738345e+001
8.393665e+002, 7.783395e+001
8.398486e+002, 7.728101e+001
8.403307e+002, 7.626897e+001
8.408129e+002, 7.506612e+001
8.412950e+002, 7.390097e+001
8.417771e+002, 7.337455e+001
8.422592e+002, 7.347421e+001
8.427413e+002, 7.351244e+001
8.432234e+002, 7.304790e+001
8.437056e+002, 7.233337e+001
8.441877e+002, 7.184874e+001
8.446698e+002, 7.159756e+001
8.451519e+002, 7.162489e+001
8.456340e+002, 7.212758e+001
8.461161e+002, 7.233372e+001
8.465983e+002, 7.173708e+001
8.470804e+002, 7.084727e+001
8.475625e+002, 7.037746e+001
8.480446e+002, 7.034872e+001
8.485267e+002, 7.033700e+001
8.490089e+002, 7.036125e+001
8.494910e+002, 7.035410e+001
8.499731e+002, 7.026064e+001
8.504552e+002, 7.015549e+001
8.509373e+002, 7.008963e+001
8.514194e+002, 7.007423e+001
8.519016e+002, 7.010147e+001
8.523837e+002, 7.014986e+001
8.528658e+002, 7.030953e+001
8.533479e+002, 7.079973e+001
8.538300e+002, 7.139622e+001
8.543121e+002, 7.163525e+001
8.547943e+002, 7.156775e+001
8.552764e+002, 7.161511e+001
8.557585e+002, 7.195963e+001
8.562406e+002, 7.235645e+001
8.567227e+002, 7.241181e+001
8.572048e+002, 7.218662e+001
8.576870e+002, 7.260278e+001
8.581691e+002, 7.388145e+001
8.586512e+002, 7.491120e+001
8.591333e+002, 7.534683e+001
8.596154e+002, 7.556271e+001
8.600975e+002, 7.583846e+001
8.605797e+002, 7.617020e+001
8.610618e+002, 7.652539e+001
8.615439e+002, 7.668808e+001
8.620260e+002, 7.723044e+001
8.625081e+002, 7.854659e+001
8.629902e+002, 7.992589e+001
8.634724e+002, 8.092762e+001
8.639545e+002, 8.171099e+001
8.644366e+002, 8.260625e+001
8.649187e+002, 8.369506e+001
8.654008e+002, 8.472663e+001
8.658829e+002, 8.538374e+001
8.663651e+002, 8.602377e+001
8.668472e+002, 8.717950e+001
8.673293e+002, 8.863535e+001
8.678114e+002, 8.984230e+001
8.682935e+002, 9.070611e+001
8.687756e+002, 9.157177e+001
8.692578e+002, 9.270496e+001
8.697399e+002, 9.400438e+001
8.702220e+002, 9.520340e+001
8.707041e+002, 9.629050e+001
8.711862e+002, 9.746353e+001
8.716683e+002, 9.873409e+001
8.721505e+002, 1.001201e+002
8.726326e+002, 1.017188e+002
8.731147e+002, 1.033270e+002
8.735968e+002, 1.045715e+002
8.740789e+002, 1.053388e+002
8.745610e+002, 1.063438e+002
8.750432e+002, 1.079480e+002
8.755253e+002, 1.092921e+002
8.760074e+002, 1.100209e+002
8.764895e+002, 1.105388e+002
8.769716e+002, 1.110647e+002
8.774537e+002, 1.116918e+002
8.779359e+002, 1.126211e+002
8.784180e+002, 1.139974e+002
8.789001e+002, 1.155051e+002
8.793822e+002, 1.170786e+002
8.798643e+002, 1.185951e+002
8.803464e+002, 1.198228e+002
8.808286e+002, 1.208864e+002
8.813107e+002, 1.220420e+002
8.817928e+002, 1.234090e+002
8.822749e+002, 1.252420e+002
8.827570e+002, 1.279626e+002
8.832391e+002, 1.312920e+002
8.837213e+002, 1.342189e+002
8.842034e+002, 1.367899e+002
8.846855e+002, 1.398849e+002
8.851676e+002, 1.437537e+002
8.856497e+002, 1.478022e+002
8.861318e+002, 1.515464e+002
8.866140e+002, 1.551677e+002
8.870961e+002, 1.593131e+002
8.875782e+002, 1.642310e+002
8.880603e+002, 1.690387e+002
8.885424e+002, 1.733587e+002
8.890245e+002, 1.780707e+002
8.895067e+002, 1.836815e+002
8.899888e+002, 1.897764e+002
8.904709e+002, 1.958017e+002
8.909530e+002, 2.017638e+002
8.914351e+002, 2.083322e+002
8.919172e+002, 2.163276e+002
8.923994e+002, 2.241497e+002
8.928815e+002, 2.309813e+002
8.933636e+002, 2.374665e+002
8.938457e+002, 2.439931e+002
8.943278e+002, 2.507777e+002
8.948099e+002, 2.582254e+002
8.952921e+002, 2.665711e+002
8.957742e+002, 2.751008e+002
8.962563e+002, 2.828825e+002
8.967384e+002, 2.905102e+002
8.972205e+002, 2.991772e+002
8.977026e+002, 3.085846e+002
8.981848e+002, 3.172935e+002
8.986669e+002, 3.248911e+002
8.991490e+002, 3.317772e+002
8.996311e+002, 3.384152e+002
9.001132e+002, 3.446540e+002
9.005953e+002, 3.498295e+002
9.010775e+002, 3.538925e+002
9.015596e+002, 3.573890e+002
9.020417e+002, 3.604181e+002
9.025238e+002, 3.628228e+002
9.030059e+002, 3.647993e+002
9.034880e+002, 3.657941e+002
9.039702e+002, 3.646054e+002
9.044523e+002, 3.609117e+002
9.049344e+002, 3.562876e+002
9.054165e+002, 3.503292e+002
9.058986e+002, 3.439550e+002
9.063807e+002, 3.372992e+002
9.068629e+002, 3.302943e+002
9.073450e+002, 3.229330e+002
9.078271e+002, 3.151703e+002
9.083092e+002, 3.069731e+002
9.087913e+002, 2.981369e+002
9.092734e+002, 2.891196e+002
9.097556e+002, 2.800406e+002
9.102377e+002, 2.708765e+002
9.107198e+002, 2.612986e+002
9.112019e+002, 2.516985e+002
9.116840e+002, 2.428772e+002
9.121661e+002, 2.350621e+002
9.126483e+002, 2.276924e+002
9.131304e+002, 2.202997e+002
9.136125e+002, 2.130680e+002
9.140946e+002, 2.063509e+002
9.145767e+002, 2.000879e+002
9.150588e+002, 1.941416e+002
9.155410e+002, 1.884755e+002
9.160231e+002, 1.831493e+002
9.165052e+002, 1.781650e+002
9.169873e+002, 1.735603e+002
9.174694e+002, 1.693772e+002
9.179515e+002, 1.656172e+002
9.184337e+002, 1.620711e+002
9.189158e+002, 1.587258e+002
9.193979e+002, 1.556268e+002
9.198800e+002, 1.528655e+002
9.203621e+002, 1.502207e+002
9.208442e+002, 1.474006e+002
9.213264e+002, 1.444591e+002
9.218085e+002, 1.420840e+002
9.222906e+002, 1.406510e+002
9.227727e+002, 1.391608e+002
9.232548e+002, 1.372808e+002
9.237369e+002, 1.356496e+002
9.242191e+002, 1.348255e+002
9.247012e+002, 1.343290e+002
9.251833e+002, 1.333924e+002
9.256654e+002, 1.319077e+002
9.261475e+002, 1.305405e+002
9.266296e+002, 1.293326e+002
9.271118e+002, 1.284805e+002
9.275939e+002, 1.283572e+002
9.280760e+002, 1.284440e+002
9.285581e+002, 1.281330e+002
9.290402e+002, 1.274863e+002
9.295223e+002, 1.269634e+002
9.300045e+002, 1.267759e+002
9.304866e+002, 1.266776e+002
9.309687e+002, 1.263389e+002
9.314508e+002, 1.260070e+002
9.319329e+002, 1.261616e+002
9.324150e+002, 1.266671e+002
9.328972e+002, 1.271029e+002
9.333793e+002, 1.273325e+002
9.338614e+002, 1.273223e+002
9.343435e+002, 1.270040e+002
9.348256e+002, 1.265119e+002
9.353077e+002, 1.261708e+002
9.357899e+002, 1.259731e+002
9.362720e+002, 1.258744e+002
9.367541e+002, 1.259047e+002
9.372362e+002, 1.256373e+002
9.377183e+002, 1.248591e+002
9.382004e+002, 1.236735e+002
9.386826e+002, 1.221755e+002
9.391647e+002, 1.203509e+002
9.396468e+002, 1.187984e+002
9.401289e+002, 1.177514e+002
9.406110e+002, 1.164031e+002
9.410931e+002, 1.143995e+002
9.415753e+002, 1.123467e+002
9.420574e+002, 1.109392e+002
9.425395e+002, 1.097497e+002
9.430216e+002, 1.074828e+002
9.435037e+002, 1.035507e+002
9.439858e+002, 1.003555e+002
9.444680e+002, 9.873717e+001
9.449501e+002, 9.709954e+001
9.454322e+002, 9.476943e+001
9.459143e+002, 9.217359e+001
9.463964e+002, 8.972574e+001
9.468785e+002, 8.744659e+001
9.473607e+002, 8.520443e+001
9.478428e+002, 8.288765e+001
9.483249e+002, 8.069956e+001
9.488070e+002, 7.883130e+001
9.492891e+002, 7.707745e+001
9.497712e+002, 7.515147e+001
9.502534e+002, 7.322214e+001
9.507355e+002, 7.181300e+001
9.512176e+002, 7.097710e+001
9.516997e+002, 6.995751e+001
9.521818e+002, 6.802597e+001
9.526639e+002, 6.581755e+001
9.531461e+002, 6.418436e+001
9.536282e+002, 6.296373e+001
9.541103e+002, 6.181023e+001
9.545924e+002, 6.068428e+001
9.550745e+002, 5.970678e+001
9.555566e+002, 5.893520e+001
9.560388e+002, 5.819566e+001
9.565209e+002, 5.719309e+001
9.570030e+002, 5.601245e+001
9.574851e+002, 5.514485e+001
9.579672e+002, 5.458345e+001
9.584493e+002, 5.386275e+001
9.589315e+002, 5.285213e+001
9.594136e+002, 5.185942e+001
9.598957e+002, 5.113145e+001
9.603778e+002, 5.052874e+001
9.608599e+002, 4.962817e+001
9.613420e+002, 4.827832e+001
9.618242e+002, 4.747224e+001
9.623063e+002, 4.748346e+001
9.627884e+002, 4.736958e+001
9.632705e+002, 4.677509e+001
9.637526e+002, 4.600322e+001
9.642347e+002, 4.532994e+001
9.647169e+002, 4.474641e+001
9.651990e+002, 4.417788e+001
9.656811e+002, 4.364585e+001
9.661632e+002, 4.309751e+001
9.666453e+002, 4.243287e+001
9.671274e+002, 4.186751e+001
9.676096e+002, 4.165170e+001
9.680917e+002, 4.148962e+001
9.685738e+002, 4.092562e+001
9.690559e+002, 3.996076e+001
9.695380e+002, 3.922062e+001
9.700201e+002, 3.890261e+001
9.705023e+002, 3.876237e+001
9.709844e+002, 3.892641e+001
9.714665e+002, 3.903975e+001
9.719486e+002, 3.878100e+001
9.724307e+002, 3.825706e+001
9.729128e+002, 3.768227e+001
9.733950e+002, 3.711831e+001
9.738771e+002, 3.665540e+001
9.743592e+002, 3.639278e+001
9.748413e+002, 3.620242e+001
9.753234e+002, 3.602949e+001
9.758055e+002, 3.582310e+001
9.762877e+002, 3.541290e+001
9.767698e+002, 3.488794e+001
9.772519e+002, 3.464025e+001
9.777340e+002, 3.486360e+001
9.782161e+002, 3.511284e+001
9.786982e+002, 3.488520e+001
9.791804e+002, 3.436559e+001
9.796625e+002, 3.378531e+001
9.801446e+002, 3.322911e+001
9.806267e+002, 3.303462e+001
9.811088e+002, 3.322430e+001
9.815909e+002, 3.335013e+001
9.820731e+002, 3.310772e+001
9.825552e+002, 3.260501e+001
9.830373e+002, 3.187618e+001
9.835194e+002, 3.101441e+001
9.840015e+002, 3.081244e+001
9.844836e+002, 3.128839e+001
9.849658e+002, 3.158448e+001
9.854479e+002, 3.142610e+001
9.859300e+002, 3.104809e+001
9.864121e+002, 3.063549e+001
9.868942e+002, 3.022393e+001
9.873763e+002, 2.997903e+001
9.878585e+002, 2.994742e+001
9.883406e+002, 2.974541e+001
9.888227e+002, 2.927811e+001
9.893048e+002, 2.889852e+001
9.897869e+002, 2.875937e+001
9.902690e+002, 2.876297e+001
9.907512e+002, 2.881481e+001
9.912333e+002, 2.890897e+001
9.917154e+002, 2.898265e+001
9.921975e+002, 2.914580e+001
9.926796e+002, 2.904408e+001
9.931617e+002, 2.846737e+001
9.936439e+002, 2.788167e+001
9.941260e+002, 2.750230e+001
9.946081e+002, 2.723943e+001
9.950902e+002, 2.692467e+001
9.955723e+002, 2.654823e+001
9.960544e+002, 2.640442e+001
9.965366e+002, 2.671199e+001
9.970187e+002, 2.695438e+001
9.975008e+002, 2.712527e+001
9.979829e+002, 2.713046e+001
9.984650e+002, 2.679557e+001
9.989471e+002, 2.630453e+001
9.994293e+002, 2.597336e+001
9.999114e+002, 2.584905e+001
1.000393e+003, 2.573407e+001
1.000876e+003, 2.556052e+001
1.001358e+003, 2.540414e+001
1.001840e+003, 2.517112e+001
1.002322e+003, 2.507711e+001
1.002804e+003, 2.558075e+001
1.003286e+003, 2.631849e+001
1.003768e+003, 2.636567e+001
1.004250e+003, 2.542655e+001
1.004733e+003, 2.461143e+001
1.005215e+003, 2.466013e+001
1.005697e+003, 2.489869e+001
1.006179e+003, 2.488312e+001
1.006661e+003, 2.471918e+001
1.007143e+003, 2.452449e+001
1.007625e+003, 2.433403e+001
1.008107e+003, 2.415831e+001
1.008589e+003, 2.399853e+001
1.009072e+003, 2.390942e+001
1.009554e+003, 2.409875e+001
1.010036e+003, 2.425123e+001
1.010518e+003, 2.381808e+001
1.011000e+003, 2.311749e+001
1.011482e+003, 2.281973e+001
1.011964e+003, 2.297082e+001
1.012446e+003, 2.317558e+001
1.012929e+003, 2.322754e+001
1.013411e+003, 2.316873e+001
1.013893e+003, 2.294082e+001
1.014375e+003, 2.269256e+001
1.014857e+003, 2.288396e+001
1.015339e+003, 2.332716e+001
1.015821e+003, 2.326993e+001
1.016303e+003, 2.260417e+001
1.016785e+003, 2.194668e+001
1.017268e+003, 2.171924e+001
1.017750e+003, 2.171408e+001
1.018232e+003, 2.159146e+001
1.018714e+003, 2.139396e+001
1.019196e+003, 2.125868e+001
1.019678e+003, 2.120513e+001
1.020160e+003, 2.142370e+001
1.020642e+003, 2.196374e+001
1.021125e+003, 2.240759e+001
1.021607e+003, 2.242228e+001
1.022089e+003, 2.211856e+001
1.022571e+003, 2.167402e+001
1.023053e+003, 2.110263e+001
1.023535e+003, 2.074803e+001
1.024017e+003, 2.062706e+001
1.024499e+003, 2.062430e+001
1.024981e+003, 2.072010e+001
1.025464e+003, 2.081129e+001
1.025946e+003, 2.081771e+001
1.026428e+003, 2.072317e+001
1.026910e+003, 2.040077e+001
1.027392e+003, 1.978639e+001
1.027874e+003, 1.963065e+001
1.028356e+003, 2.008074e+001
1.028838e+003, 2.038014e+001
1.029321e+003, 2.022710e+001
1.029803e+003, 1.995544e+001
1.030285e+003, 1.989691e+001
1.030767e+003, 1.998985e+001
1.031249e+003, 1.994563e+001
1.031731e+003, 1.970701e+001
1.032213e+003, 1.955669e+001
1.032695e+003, 1.954289e+001
1.033177e+003, 1.950249e+001
1.033660e+003, 1.932563e+001
1.034142e+003, 1.919167e+001
1.034624e+003, 1.935686e+001
1.035106e+003, 1.973108e+001
1.035588e+003, 1.973445e+001
1.036070e+003, 1.919373e+001
1.036552e+003, 1.868212e+001
1.037034e+003, 1.808194e+001
1.037516e+003, 1.773861e+001
1.037999e+003, 1.788758e+001
1.038481e+003, 1.824784e+001
1.038963e+003, 1.860596e+001
1.039445e+003, 1.893126e+001
1.039927e+003, 1.897702e+001
1.040409e+003, 1.843605e+001
1.040891e+003, 1.815958e+001
1.041373e+003, 1.836638e+001
1.041855e+003, 1.856421e+001
1.042338e+003, 1.857893e+001
1.042820e+003, 1.849484e+001
1.043302e+003, 1.840063e+001
1.043784e+003, 1.828879e+001
1.044266e+003, 1.809204e+001
1.044748e+003, 1.761410e+001
1.045230e+003, 1.738029e+001
1.045712e+003, 1.760095e+001
1.046195e+003, 1.785071e+001
1.046677e+003, 1.800429e+001
1.047159e+003, 1.807286e+001
1.047641e+003, 1.812755e+001
1.048123e+003, 1.813321e+001
1.048605e+003, 1.784115e+001
1.049087e+003, 1.681277e+001
1.049569e+003, 1.623465e+001
1.050052e+003, 1.657959e+001
1.050534e+003, 1.705236e+001
1.051016e+003, 1.746110e+001
1.051498e+003, 1.768979e+001
1.051980e+003, 1.749781e+001
1.052462e+003, 1.698192e+001
1.052944e+003, 1.672332e+001
1.053426e+003, 1.693319e+001
1.053908e+003, 1.718195e+001
1.054391e+003, 1.750787e+001
1.054873e+003, 1.769477e+001
1.055355e+003, 1.750172e+001
1.055837e+003, 1.720280e+001
1.056319e+003, 1.715164e+001
1.056801e+003, 1.730839e+001
1.057283e+003, 1.732841e+001
1.057765e+003, 1.710368e+001
1.058248e+003, 1.680461e+001
1.058730e+003, 1.634131e+001
1.059212e+003, 1.597414e+001
1.059694e+003, 1.582997e+001
1.060176e+003, 1.587331e+001
1.060658e+003, 1.619235e+001
1.061140e+003, 1.666775e+001
1.061622e+003, 1.681613e+001
1.062104e+003, 1.632931e+001
1.062587e+003, 1.601866e+001
1.063069e+003, 1.643838e+001
1.063551e+003, 1.681882e+001
1.064033e+003, 1.660206e+001
1.064515e+003, 1.617759e+001
1.064997e+003, 1.598417e+001
1.065479e+003, 1.603031e+001
1.065961e+003, 1.614613e+001
1.066443e+003, 1.632300e+001
1.066926e+003, 1.642133e+001
1.067408e+003, 1.643327e+001
1.067890e+003, 1.629432e+001
1.068372e+003, 1.578102e+001
1.068854e+003, 1.522860e+001
1.069336e+003, 1.499702e+001
1.069818e+003, 1.507750e+001
1.070300e+003, 1.532988e+001
1.070782e+003, 1.577858e+001
1.071265e+003, 1.607848e+001
1.071747e+003, 1.594194e+001
1.072229e+003, 1.577043e+001
1.072711e+003, 1.585246e+001
1.073193e+003, 1.599237e+001
1.073675e+003, 1.597185e+001
1.074157e+003, 1.580911e+001
1.074639e+003, 1.560779e+001
1.075122e+003, 1.538256e+001
1.075604e+003, 1.523201e+001
1.076086e+003, 1.526891e+001
1.076568e+003, 1.531301e+001
1.077050e+003, 1.523663e+001
1.077532e+003, 1.513173e+001
1.078014e+003, 1.512576e+001
1.078496e+003, 1.516997e+001
1.078979e+003, 1.510220e+001
1.079461e+003, 1.487292e+001
1.079943e+003, 1.469272e+001
1.080425e+003, 1.473973e+001
1.080907e+003, 1.476240e+001
1.081389e+003, 1.455078e+001
1.081871e+003, 1.431095e+001
1.082353e+003, 1.419274e+001
1.082835e+003, 1.422119e+001
1.083318e+003, 1.446248e+001
1.083800e+003, 1.492513e+001
1.084282e+003, 1.526578e+001
1.084764e+003, 1.529412e+001
1.085246e+003, 1.521843e+001
1.085728e+003, 1.508036e+001
1.086210e+003, 1.494029e+001
1.086692e+003, 1.487615e+001
1.087175e+003, 1.483675e+001
1.087657e+003, 1.470833e+001
1.088139e+003, 1.447923e+001
1.088621e+003, 1.429116e+001
1.089103e+003, 1.414233e+001
1.089585e+003, 1.412712e+001
1.090067e+003, 1.440284e+001
1.090549e+003, 1.471232e+001
1.091031e+003, 1.495266e+001
1.091514e+003, 1.504330e+001
1.091996e+003, 1.478665e+001
1.092478e+003, 1.422700e+001
1.092960e+003, 1.385516e+001
1.093442e+003, 1.390087e+001
1.093924e+003, 1.403310e+001
1.094406e+003, 1.422467e+001
1.094888e+003, 1.435922e+001
1.095370e+003, 1.434509e+001
1.095853e+003, 1.423965e+001
1.096335e+003, 1.406341e+001
1.096817e+003, 1.386066e+001
1.097299e+003, 1.379998e+001
1.097781e+003, 1.397043e+001
1.098263e+003, 1.417035e+001
1.098745e+003, 1.449784e+001
1.099227e+003, 1.464830e+001
1.099709e+003, 1.424674e+001
1.100192e+003, 1.375062e+001
1.100674e+003, 1.375719e+001
1.101156e+003, 1.410437e+001
1.101638e+003, 1.406620e+001
1.102120e+003, 1.331221e+001
1.102602e+003, 1.291504e+001
1.103084e+003, 1.349625e+001
1.103566e+003, 1.401696e+001
1.104049e+003, 1.398663e+001
1.104531e+003, 1.379795e+001
1.105013e+003, 1.384893e+001
1.105495e+003, 1.400316e+001
1.105977e+003, 1.384019e+001
1.106459e+003, 1.323301e+001
1.106941e+003, 1.283832e+001
1.107423e+003, 1.279498e+001
1.107906e+003, 1.293452e+001
1.108388e+003, 1.347591e+001
1.108870e+003, 1.391803e+001
1.109352e+003, 1.379004e+001
1.109834e+003, 1.340163e+001
1.110316e+003, 1.333864e+001
1.110798e+003, 1.365445e+001
1.111280e+003, 1.379210e+001
1.111762e+003, 1.354288e+001
1.112245e+003, 1.336322e+001
1.112727e+003, 1.336872e+001
1.113209e+003, 1.338626e+001
1.113691e+003, 1.338568e+001
1.114173e+003, 1.331715e+001
1.114655e+003, 1.304343e+001
1.115137e+003, 1.259509e+001
1.115619e+003, 1.238234e+001
1.116102e+003, 1.253305e+001
1.116584e+003, 1.269670e+001
1.117066e+003, 1.289318e+001
1.117548e+003, 1.306771e+001
1.118030e+003, 1.323332e+001
1.118512e+003, 1.333217e+001
1.118994e+003, 1.325813e+001
1.119476e+003, 1.307935e+001
1.119958e+003, 1.309450e+001
1.120441e+003, 1.345333e+001
1.120923e+003, 1.350969e+001
1.121405e+003, 1.309621e+001
1.121887e+003, 1.275126e+001
1.122369e+003, 1.264625e+001
1.122851e+003, 1.257999e+001
1.123333e+003, 1.239157e+001
1.123815e+003, 1.215082e+001
1.124297e+003, 1.199748e+001
1.124780e+003, 1.192430e+001
1.125262e+003, 1.207594e+001
1.125744e+003, 1.258456e+001
1.126226e+003, 1.276665e+001
1.126708e+003, 1.235846e+001
1.127190e+003, 1.214879e+001
1.127672e+003, 1.268077e+001
1.128154e+003, 1.336674e+001
1.128636e+003, 1.331841e+001
1.129119e+003, 1.263146e+001
1.129601e+003, 1.206089e+001
1.130083e+003, 1.158291e+001
1.130565e+003, 1.151735e+001
1.131047e+003, 1.194681e+001
1.131529e+003, 1.231719e+001
1.132011e+003, 1.240007e+001
1.132493e+003, 1.238630e+001
1.132976e+003, 1.246744e+001
1.133458e+003, 1.260156e+001
1.133940e+003, 1.268746e+001
1.134422e+003, 1.272084e+001
1.134904e+003, 1.262889e+001
1.135386e+003, 1.241288e+001
1.135868e+003, 1.213640e+001
1.136350e+003, 1.181989e+001
1.136833e+003, 1.157851e+001
1.137315e+003, 1.149708e+001
1.137797e+003, 1.150952e+001
1.138279e+003, 1.147968e+001
1.138761e+003, 1.145585e+001
1.139243e+003, 1.167133e+001
1.139725e+003, 1.205145e+001
1.140207e+003, 1.226443e+001
1.140689e+003, 1.227455e+001
1.141172e+003, 1.227841e+001
1.141654e+003, 1.236805e+001
1.142136e+003, 1.235189e+001
1.142618e+003, 1.188190e+001
1.143100e+003, 1.133814e+001
1.143582e+003, 1.150917e+001
1.144064e+003, 1.203421e+001
1.144546e+003, 1.212702e+001
1.145029e+003, 1.185535e+001
1.145511e+003, 1.168846e+001
1.145993e+003, 1.175897e+001
1.146475e+003, 1.187896e+001
1.146957e+003, 1.192458e+001
1.147439e+003, 1.195859e+001
1.147921e+003, 1.208058e+001
1.148403e+003, 1.219454e+001
1.148885e+003, 1.215434e+001
1.149368e+003, 1.203301e+001
1.149850e+003, 1.200198e+001
1.150332e+003, 1.204051e+001
1.150814e+003, 1.192586e+001
1.151296e+003, 1.152985e+001
1.151778e+003, 1.120397e+001
1.152260e+003, 1.118298e+001
1.152742e+003, 1.127786e+001
1.153224e+003, 1.147955e+001
1.153707e+003, 1.163285e+001
1.154189e+003, 1.142016e+001
1.154671e+003, 1.107468e+001
1.155153e+003, 1.125572e+001
1.155635e+003, 1.210511e+001
1.156117e+003, 1.256299e+001
1.156599e+003, 1.186343e+001
1.157081e+003, 1.134036e+001
1.157563e+003, 1.158906e+001
1.158046e+003, 1.194032e+001
1.158528e+003, 1.205394e+001
1.159010e+003, 1.197389e+001
1.159492e+003, 1.168969e+001
1.159974e+003, 1.125595e+001
1.160456e+003, 1.106137e+001
1.160938e+003, 1.129836e+001
1.161420e+003, 1.146267e+001
1.161903e+003, 1.145674e+001
1.162385e+003, 1.148988e+001
1.162867e+003, 1.169914e+001
1.163349e+003, 1.187278e+001
1.163831e+003, 1.183268e+001
1.164313e+003, 1.164343e+001
1.164795e+003, 1.144942e+001
1.165277e+003, 1.123891e+001
1.165760e+003, 1.110557e+001
1.166242e+003, 1.101059e+001
1.166724e+003, 1.116131e+001
1.167206e+003, 1.170990e+001
1.167688e+003, 1.210856e+001
1.168170e+003, 1.205078e+001
1.168652e+003, 1.177129e+001
1.169134e+003, 1.155747e+001
1.169616e+003, 1.139567e+001
1.170099e+003, 1.121740e+001
1.170581e+003, 1.102172e+001
1.171063e+003, 1.086725e+001
1.171545e+003, 1.075697e+001
1.172027e+003, 1.069214e+001
1.172509e+003, 1.067147e+001
1.172991e+003, 1.082040e+001
1.173473e+003, 1.126439e+001
1.173956e+003, 1.175765e+001
1.174438e+003, 1.185781e+001
1.174920e+003, 1.166484e+001
1.175402e+003, 1.141582e+001
1.175884e+003, 1.116988e+001
1.176366e+003, 1.119293e+001
1.176848e+003, 1.145239e+001
1.177330e+003, 1.155910e+001
1.177813e+003, 1.135535e+001
1.178295e+003, 1.116035e+001
1.178777e+003, 1.131780e+001
1.179259e+003, 1.154267e+001
1.179741e+003, 1.146287e+001
1.180223e+003, 1.123562e+001
1.180705e+003, 1.098014e+001
1.181187e+003, 1.080272e+001
1.181669e+003, 1.098910e+001
1.182151e+003, 1.148162e+001
1.182634e+003, 1.172002e+001
1.183116e+003, 1.136348e+001
1.183598e+003, 1.104600e+001
1.184080e+003, 1.121694e+001
1.184562e+003, 1.146106e+001
1.185044e+003, 1.150881e+001
1.185526e+003, 1.148080e+001
1.186008e+003, 1.151211e+001
1.186490e+003, 1.158183e+001
1.186973e+003, 1.162396e+001
1.187455e+003, 1.163066e+001
1.187937e+003, 1.155138e+001
1.188419e+003, 1.125671e+001
1.188901e+003, 1.105308e+001
1.189383e+003, 1.107927e+001
1.189865e+003, 1.111562e+001
1.190347e+003, 1.103965e+001
1.190830e+003, 1.092694e+001
1.191312e+003, 1.084072e+001
1.191794e+003, 1.078853e+001
1.192276e+003, 1.081854e+001
1.192758e+003, 1.099478e+001
1.193240e+003, 1.102587e+001
1.193722e+003, 1.085692e+001
1.194204e+003, 1.069019e+001
1.194687e+003, 1.053493e+001
1.195169e+003, 1.053461e+001
1.195651e+003, 1.083412e+001
1.196133e+003, 1.118286e+001
1.196615e+003, 1.114283e+001
1.197097e+003, 1.080603e+001
1.197579e+003, 1.075188e+001
1.198061e+003, 1.096621e+001
1.198543e+003, 1.121549e+001
1.199026e+003, 1.146508e+001
1.199508e+003, 1.153920e+001
1.199990e+003, 1.138548e+001
1.200472e+003, 1.117774e+001
1.200954e+003, 1.104524e+001
1.201436e+003, 1.097968e+001
1.201918e+003, 1.095939e+001
1.202400e+003, 1.100179e+001
1.202883e+003, 1.123687e+001
1.203365e+003, 1.152865e+001
1.203847e+003, 1.153438e+001
1.204329e+003, 1.127816e+001
1.204811e+003, 1.101998e+001
1.205293e+003, 1.085822e+001
1.205775e+003, 1.073033e+001
1.206257e+003, 1.047968e+001
1.206740e+003, 1.040630e+001
1.207222e+003, 1.096559e+001
1.207704e+003, 1.156939e+001
1.208186e+003, 1.168876e+001
1.208668e+003, 1.148922e+001
1.209150e+003, 1.117650e+001
1.209632e+003, 1.083429e+001
1.210114e+003, 1.065747e+001
1.210596e+003, 1.075835e+001
1.211078e+003, 1.079693e+001
1.211561e+003, 1.061842e+001
1.212043e+003, 1.048966e+001
1.212525e+003, 1.044913e+001
1.213007e+003, 1.053293e+001
1.213489e+003, 1.086635e+001
1.213971e+003, 1.125927e+001
1.214453e+003, 1.141855e+001
1.214935e+003, 1.135212e+001
1.215417e+003, 1.118509e+001
1.215900e+003, 1.084425e+001
1.216382e+003, 1.071432e+001
1.216864e+003, 1.089201e+001
1.217346e+003, 1.091255e+001
1.217828e+003, 1.058604e+001
1.218310e+003, 1.033155e+001
1.218792e+003, 1.050312e+001
1.219274e+003, 1.079950e+001
1.219757e+003, 1.061430e+001
1.220239e+003, 1.007294e+001
1.220721e+003, 9.734836e+000
1.221203e+003, 9.593375e+000
1.221685e+003, 9.640226e+000
1.222167e+003, 9.856226e+000
1.222649e+003, 1.023831e+001
1.223131e+003, 1.074946e+001
1.223614e+003, 1.101966e+001
1.224096e+003, 1.067770e+001
1.224578e+003, 1.025875e+001
1.225060e+003, 1.038417e+001
1.225542e+003, 1.073480e+001
1.226024e+003, 1.102102e+001
1.226506e+003, 1.120929e+001
1.226988e+003, 1.123724e+001
1.227470e+003, 1.115743e+001
1.227953e+003, 1.111574e+001
1.228435e+003, 1.115275e+001
1.228917e+003, 1.121659e+001
1.229399e+003, 1.128326e+001
1.229881e+003, 1.137916e+001
1.230363e+003, 1.166547e+001
1.230845e+003, 1.181021e+001
1.231327e+003, 1.153656e+001
1.231810e+003, 1.107707e+001
1.232292e+003, 1.059588e+001
1.232774e+003, 1.017054e+001
1.233256e+003, 1.013991e+001
1.233738e+003, 1.066240e+001
1.234220e+003, 1.089609e+001
1.234702e+003, 1.079064e+001
1.235184e+003, 1.051231e+001
1.235667e+003, 9.997773e+000
1.236149e+003, 9.696705e+000
1.236631e+003, 9.869636e+000
1.237113e+003, 1.024408e+001
1.237595e+003, 1.052794e+001
1.238077e+003, 1.070115e+001
1.238559e+003, 1.065003e+001
1.239041e+003, 1.043426e+001
1.239523e+003, 1.044309e+001
1.240005e+003, 1.059696e+001
1.240488e+003, 1.029753e+001
1.240970e+003, 9.548770e+000
1.241452e+003, 9.155695e+000
1.241934e+003, 9.516223e+000
1.242416e+003, 1.010945e+001
1.242898e+003, 1.064337e+001
1.243380e+003, 1.096201e+001
1.243862e+003, 1.070050e+001
1.244344e+003, 1.031952e+001
1.244827e+003, 1.047845e+001
1.245309e+003, 1.083055e+001
1.245791e+003, 1.057556e+001
1.246273e+003, 9.810308e+000
1.246755e+003, 9.584322e+000
1.247237e+003, 1.038809e+001
1.247719e+003, 1.095492e+001
1.248201e+003, 1.078903e+001
1.248684e+003, 1.064785e+001
1.249166e+003, 1.079347e+001
1.249648e+003, 1.098003e+001
1.250130e+003, 1.112942e+001
1.250612e+003, 1.117396e+001
1.251094e+003, 1.096113e+001
1.251576e+003, 1.056560e+001
1.252058e+003, 1.052670e+001
1.252541e+003, 1.093709e+001
1.253023e+003, 1.100004e+001
1.253505e+003, 1.066604e+001
1.253987e+003, 1.026603e+001
1.254469e+003, 9.869501e+000
1.254951e+003, 9.797277e+000
1.255433e+003, 1.025236e+001
1.255915e+003, 1.078144e+001
1.256397e+003, 1.077761e+001
1.256880e+003, 1.055382e+001
1.257362e+003, 1.077469e+001
1.257844e+003, 1.120443e+001
1.258326e+003, 1.143731e+001
1.258808e+003, 1.145111e+001
1.259290e+003, 1.120709e+001
1.259772e+003, 1.078600e+001
1.260254e+003, 1.049632e+001
1.260737e+003, 1.047036e+001
1.261219e+003, 1.053015e+001
1.261701e+003, 1.066187e+001
1.262183e+003, 1.074900e+001
1.262665e+003, 1.068861e+001
1.263147e+003, 1.061262e+001
1.263629e+003, 1.059979e+001
1.264111e+003, 1.064209e+001
1.264594e+003, 1.080818e+001
1.265076e+003, 1.102989e+001
1.265558e+003, 1.090139e+001
1.266040e+003, 1.024500e+001
1.266522e+003, 9.901485e+000
1.267004e+003, 9.969951e+000
1.267486e+003, 9.968146e+000
1.267968e+003, 9.749298e+000
1.268450e+003, 9.770722e+000
1.268932e+003, 1.030889e+001
1.269415e+003, 1.089488e+001
1.269897e+003, 1.099339e+001
1.270379e+003, 1.078026e+001
1.270861e+003, 1.057846e+001
1.271343e+003, 1.045234e+001
1.271825e+003, 1.070742e+001
1.272307e+003, 1.119136e+001
1.272789e+003, 1.146401e+001
1.273271e+003, 1.145795e+001
1.273754e+003, 1.118287e+001
1.274236e+003, 1.066182e+001
1.274718e+003, 1.044733e+001
1.275200e+003, 1.123779e+001
1.275682e+003, 1.192922e+001
1.276164e+003, 1.187286e+001
1.276646e+003, 1.147670e+001
1.277128e+003, 1.069211e+001
1.277611e+003, 9.997528e+000
1.278093e+003, 1.004990e+001
1.278575e+003, 1.062763e+001
1.279057e+003, 1.093035e+001
1.279539e+003, 1.089604e+001
1.280021e+003, 1.089752e+001
1.280503e+003, 1.098004e+001
1.280985e+003, 1.094192e+001
1.281468e+003, 1.070817e+001
1.281950e+003, 1.058101e+001
1.282432e+003, 1.068057e+001
1.282914e+003, 1.087518e+001
1.283396e+003, 1.107050e+001
1.283878e+003, 1.123203e+001
1.284360e+003, 1.128890e+001
1.284842e+003, 1.126020e+001
1.285324e+003, 1.120202e+001
##END=



