##NAMES=Kasolite
##RRUFFID=R060479
##IDEAL CHEMISTRY=Pb^2+^(U^6+^O_2_)SiO_4_&#183;H_2_O
##LOCALITY=Musonoi Extension, Shaba Province, Zaire
##OWNER=RRUFF
##SOURCE=Michael Scott
##DESCRIPTION=Yellowish-orange prismatic single crystals
##STATUS=The identification of this mineral has been confirmed by single-crystal X-ray diffraction.
##URL=rruff.info/R060479
9.001007e+001, 0.000000e+000
9.049219e+001, 1.838949e+001
9.097430e+001, 1.840529e+001
9.145642e+001, 1.841326e+001
9.193854e+001, 1.841124e+001
9.242065e+001, 1.838122e+001
9.290277e+001, 1.828595e+001
9.338489e+001, 1.815046e+001
9.386700e+001, 1.803411e+001
9.434912e+001, 1.797219e+001
9.483124e+001, 1.793897e+001
9.531335e+001, 1.788568e+001
9.579547e+001, 1.781194e+001
9.627759e+001, 1.771833e+001
9.675970e+001, 1.757795e+001
9.724182e+001, 1.739770e+001
9.772394e+001, 1.726266e+001
9.820605e+001, 1.725895e+001
9.868817e+001, 1.736752e+001
9.917029e+001, 1.735137e+001
9.965240e+001, 1.719449e+001
1.001345e+002, 1.693343e+001
1.006166e+002, 1.659824e+001
1.010988e+002, 1.615020e+001
1.015809e+002, 1.578397e+001
1.020630e+002, 1.566124e+001
1.025451e+002, 1.586363e+001
1.030272e+002, 1.587563e+001
1.035093e+002, 1.557718e+001
1.039915e+002, 1.507365e+001
1.044736e+002, 1.482620e+001
1.049557e+002, 1.498868e+001
1.054378e+002, 1.518771e+001
1.059199e+002, 1.515278e+001
1.064020e+002, 1.471606e+001
1.068842e+002, 1.435380e+001
1.073663e+002, 1.411187e+001
1.078484e+002, 1.399230e+001
1.083305e+002, 1.397684e+001
1.088126e+002, 1.420340e+001
1.092947e+002, 1.445588e+001
1.097769e+002, 1.453535e+001
1.102590e+002, 1.425901e+001
1.107411e+002, 1.399447e+001
1.112232e+002, 1.381028e+001
1.117053e+002, 1.372742e+001
1.121874e+002, 1.363747e+001
1.126696e+002, 1.349538e+001
1.131517e+002, 1.335281e+001
1.136338e+002, 1.327668e+001
1.141159e+002, 1.341914e+001
1.145980e+002, 1.351318e+001
1.150801e+002, 1.342890e+001
1.155623e+002, 1.303416e+001
1.160444e+002, 1.274786e+001
1.165265e+002, 1.278395e+001
1.170086e+002, 1.300799e+001
1.174907e+002, 1.314014e+001
1.179728e+002, 1.297846e+001
1.184550e+002, 1.275750e+001
1.189371e+002, 1.262767e+001
1.194192e+002, 1.265900e+001
1.199013e+002, 1.272666e+001
1.203834e+002, 1.278930e+001
1.208655e+002, 1.284261e+001
1.213477e+002, 1.286975e+001
1.218298e+002, 1.292201e+001
1.223119e+002, 1.292174e+001
1.227940e+002, 1.277096e+001
1.232761e+002, 1.223281e+001
1.237582e+002, 1.171919e+001
1.242404e+002, 1.172997e+001
1.247225e+002, 1.221530e+001
1.252046e+002, 1.256046e+001
1.256867e+002, 1.204038e+001
1.261688e+002, 1.106163e+001
1.266509e+002, 1.036583e+001
1.271331e+002, 1.044479e+001
1.276152e+002, 1.090226e+001
1.280973e+002, 1.117256e+001
1.285794e+002, 1.124812e+001
1.290615e+002, 1.122829e+001
1.295436e+002, 1.119033e+001
1.300258e+002, 1.113650e+001
1.305079e+002, 1.107811e+001
1.309900e+002, 1.103561e+001
1.314721e+002, 1.099389e+001
1.319542e+002, 1.087470e+001
1.324363e+002, 1.064614e+001
1.329185e+002, 1.043272e+001
1.334006e+002, 1.046552e+001
1.338827e+002, 1.074480e+001
1.343648e+002, 1.101105e+001
1.348469e+002, 1.111704e+001
1.353290e+002, 1.107336e+001
1.358112e+002, 1.103185e+001
1.362933e+002, 1.100275e+001
1.367754e+002, 1.098229e+001
1.372575e+002, 1.094081e+001
1.377396e+002, 1.085954e+001
1.382217e+002, 1.084415e+001
1.387039e+002, 1.103196e+001
1.391860e+002, 1.148267e+001
1.396681e+002, 1.170661e+001
1.401502e+002, 1.161484e+001
1.406323e+002, 1.126369e+001
1.411144e+002, 1.085946e+001
1.415966e+002, 1.034038e+001
1.420787e+002, 9.884243e+000
1.425608e+002, 9.618177e+000
1.430429e+002, 9.552347e+000
1.435250e+002, 9.668519e+000
1.440071e+002, 1.009692e+001
1.444893e+002, 1.080610e+001
1.449714e+002, 1.102343e+001
1.454535e+002, 1.042797e+001
1.459356e+002, 9.650346e+000
1.464177e+002, 9.309875e+000
1.468998e+002, 9.708327e+000
1.473820e+002, 1.005717e+001
1.478641e+002, 1.018086e+001
1.483462e+002, 1.002806e+001
1.488283e+002, 1.001047e+001
1.493104e+002, 1.028497e+001
1.497925e+002, 1.062108e+001
1.502747e+002, 1.075117e+001
1.507568e+002, 1.041285e+001
1.512389e+002, 1.013653e+001
1.517210e+002, 1.005852e+001
1.522031e+002, 1.026058e+001
1.526852e+002, 1.040082e+001
1.531674e+002, 1.041586e+001
1.536495e+002, 1.037994e+001
1.541316e+002, 1.040070e+001
1.546137e+002, 1.037647e+001
1.550958e+002, 1.050414e+001
1.555779e+002, 1.089185e+001
1.560601e+002, 1.171504e+001
1.565422e+002, 1.240042e+001
1.570243e+002, 1.276152e+001
1.575064e+002, 1.293202e+001
1.579885e+002, 1.317078e+001
1.584706e+002, 1.340647e+001
1.589528e+002, 1.381578e+001
1.594349e+002, 1.448146e+001
1.599170e+002, 1.544079e+001
1.603991e+002, 1.661345e+001
1.608812e+002, 1.803469e+001
1.613633e+002, 1.966043e+001
1.618455e+002, 2.137487e+001
1.623276e+002, 2.291598e+001
1.628097e+002, 2.465708e+001
1.632918e+002, 2.691064e+001
1.637739e+002, 3.012423e+001
1.642560e+002, 3.331477e+001
1.647382e+002, 3.573082e+001
1.652203e+002, 3.766011e+001
1.657024e+002, 4.020366e+001
1.661845e+002, 4.431622e+001
1.666666e+002, 4.910463e+001
1.671487e+002, 5.371361e+001
1.676309e+002, 5.768373e+001
1.681130e+002, 6.171618e+001
1.685951e+002, 6.620727e+001
1.690772e+002, 7.112905e+001
1.695593e+002, 7.620612e+001
1.700414e+002, 8.132836e+001
1.705236e+002, 8.652068e+001
1.710057e+002, 9.174641e+001
1.714878e+002, 9.716183e+001
1.719699e+002, 1.025545e+002
1.724520e+002, 1.076997e+002
1.729341e+002, 1.126243e+002
1.734163e+002, 1.173727e+002
1.738984e+002, 1.221436e+002
1.743805e+002, 1.267778e+002
1.748626e+002, 1.308732e+002
1.753447e+002, 1.340030e+002
1.758268e+002, 1.367539e+002
1.763090e+002, 1.397646e+002
1.767911e+002, 1.430107e+002
1.772732e+002, 1.463503e+002
1.777553e+002, 1.489314e+002
1.782374e+002, 1.508069e+002
1.787195e+002, 1.527996e+002
1.792017e+002, 1.553501e+002
1.796838e+002, 1.582219e+002
1.801659e+002, 1.610126e+002
1.806480e+002, 1.637428e+002
1.811301e+002, 1.664717e+002
1.816122e+002, 1.692381e+002
1.820944e+002, 1.720849e+002
1.825765e+002, 1.750821e+002
1.830586e+002, 1.782914e+002
1.835407e+002, 1.816669e+002
1.840228e+002, 1.853145e+002
1.845049e+002, 1.892269e+002
1.849871e+002, 1.932652e+002
1.854692e+002, 1.972021e+002
1.859513e+002, 2.010862e+002
1.864334e+002, 2.049636e+002
1.869155e+002, 2.089540e+002
1.873976e+002, 2.129871e+002
1.878798e+002, 2.169707e+002
1.883619e+002, 2.209481e+002
1.888440e+002, 2.246623e+002
1.893261e+002, 2.275446e+002
1.898082e+002, 2.296723e+002
1.902903e+002, 2.316947e+002
1.907725e+002, 2.340321e+002
1.912546e+002, 2.366151e+002
1.917367e+002, 2.388391e+002
1.922188e+002, 2.406710e+002
1.927009e+002, 2.422015e+002
1.931830e+002, 2.433626e+002
1.936652e+002, 2.441445e+002
1.941473e+002, 2.451631e+002
1.946294e+002, 2.469591e+002
1.951115e+002, 2.494430e+002
1.955936e+002, 2.514082e+002
1.960757e+002, 2.526662e+002
1.965579e+002, 2.535909e+002
1.970400e+002, 2.550619e+002
1.975221e+002, 2.571679e+002
1.980042e+002, 2.588931e+002
1.984863e+002, 2.592103e+002
1.989684e+002, 2.580872e+002
1.994506e+002, 2.584301e+002
1.999327e+002, 2.607675e+002
2.004148e+002, 2.642194e+002
2.008969e+002, 2.668383e+002
2.013790e+002, 2.685206e+002
2.018611e+002, 2.700858e+002
2.023433e+002, 2.720556e+002
2.028254e+002, 2.744783e+002
2.033075e+002, 2.767050e+002
2.037896e+002, 2.785491e+002
2.042717e+002, 2.802634e+002
2.047538e+002, 2.825972e+002
2.052360e+002, 2.857386e+002
2.057181e+002, 2.887862e+002
2.062002e+002, 2.910480e+002
2.066823e+002, 2.923285e+002
2.071644e+002, 2.940936e+002
2.076465e+002, 2.965711e+002
2.081287e+002, 2.995303e+002
2.086108e+002, 3.023711e+002
2.090929e+002, 3.050529e+002
2.095750e+002, 3.077311e+002
2.100571e+002, 3.105878e+002
2.105392e+002, 3.138023e+002
2.110214e+002, 3.163700e+002
2.115035e+002, 3.179671e+002
2.119856e+002, 3.189381e+002
2.124677e+002, 3.205723e+002
2.129498e+002, 3.230866e+002
2.134319e+002, 3.258051e+002
2.139140e+002, 3.283856e+002
2.143962e+002, 3.308463e+002
2.148783e+002, 3.331189e+002
2.153604e+002, 3.350764e+002
2.158425e+002, 3.368594e+002
2.163246e+002, 3.389644e+002
2.168067e+002, 3.415206e+002
2.172889e+002, 3.441786e+002
2.177710e+002, 3.467619e+002
2.182531e+002, 3.492751e+002
2.187352e+002, 3.516798e+002
2.192173e+002, 3.538629e+002
2.196994e+002, 3.559560e+002
2.201816e+002, 3.585305e+002
2.206637e+002, 3.619023e+002
2.211458e+002, 3.652605e+002
2.216279e+002, 3.680556e+002
2.221100e+002, 3.701653e+002
2.225921e+002, 3.720808e+002
2.230743e+002, 3.738120e+002
2.235564e+002, 3.753812e+002
2.240385e+002, 3.769859e+002
2.245206e+002, 3.786512e+002
2.250027e+002, 3.802731e+002
2.254848e+002, 3.818474e+002
2.259670e+002, 3.835673e+002
2.264491e+002, 3.847411e+002
2.269312e+002, 3.851454e+002
2.274133e+002, 3.849575e+002
2.278954e+002, 3.850589e+002
2.283775e+002, 3.856416e+002
2.288597e+002, 3.862360e+002
2.293418e+002, 3.865808e+002
2.298239e+002, 3.867145e+002
2.303060e+002, 3.865001e+002
2.307881e+002, 3.858811e+002
2.312702e+002, 3.848897e+002
2.317524e+002, 3.837089e+002
2.322345e+002, 3.823124e+002
2.327166e+002, 3.807676e+002
2.331987e+002, 3.791483e+002
2.336808e+002, 3.775573e+002
2.341629e+002, 3.756371e+002
2.346451e+002, 3.732227e+002
2.351272e+002, 3.704380e+002
2.356093e+002, 3.678296e+002
2.360914e+002, 3.656384e+002
2.365735e+002, 3.632960e+002
2.370556e+002, 3.604374e+002
2.375378e+002, 3.567309e+002
2.380199e+002, 3.532596e+002
2.385020e+002, 3.501957e+002
2.389841e+002, 3.474086e+002
2.394662e+002, 3.444686e+002
2.399483e+002, 3.412939e+002
2.404305e+002, 3.380950e+002
2.409126e+002, 3.349024e+002
2.413947e+002, 3.314902e+002
2.418768e+002, 3.286103e+002
2.423589e+002, 3.264306e+002
2.428410e+002, 3.248065e+002
2.433232e+002, 3.231857e+002
2.438053e+002, 3.215290e+002
2.442874e+002, 3.199342e+002
2.447695e+002, 3.184849e+002
2.452516e+002, 3.172832e+002
2.457337e+002, 3.159527e+002
2.462159e+002, 3.144276e+002
2.466980e+002, 3.127560e+002
2.471801e+002, 3.110953e+002
2.476622e+002, 3.092499e+002
2.481443e+002, 3.076733e+002
2.486264e+002, 3.067038e+002
2.491086e+002, 3.068615e+002
2.495907e+002, 3.063141e+002
2.500728e+002, 3.046849e+002
2.505549e+002, 3.024355e+002
2.510370e+002, 3.008840e+002
2.515191e+002, 3.006177e+002
2.520013e+002, 3.001258e+002
2.524834e+002, 2.985648e+002
2.529655e+002, 2.951518e+002
2.534476e+002, 2.928207e+002
2.539297e+002, 2.919633e+002
2.544118e+002, 2.920197e+002
2.548940e+002, 2.917507e+002
2.553761e+002, 2.911133e+002
2.558582e+002, 2.902182e+002
2.563403e+002, 2.890202e+002
2.568224e+002, 2.872965e+002
2.573046e+002, 2.860202e+002
2.577867e+002, 2.853311e+002
2.582688e+002, 2.850008e+002
2.587509e+002, 2.846417e+002
2.592330e+002, 2.843388e+002
2.597151e+002, 2.838253e+002
2.601973e+002, 2.828475e+002
2.606794e+002, 2.811618e+002
2.611615e+002, 2.802280e+002
2.616436e+002, 2.803355e+002
2.621257e+002, 2.809552e+002
2.626078e+002, 2.811752e+002
2.630900e+002, 2.808134e+002
2.635721e+002, 2.805031e+002
2.640542e+002, 2.805127e+002
2.645363e+002, 2.809254e+002
2.650184e+002, 2.810811e+002
2.655005e+002, 2.807721e+002
2.659827e+002, 2.804616e+002
2.664648e+002, 2.809157e+002
2.669469e+002, 2.824289e+002
2.674290e+002, 2.838470e+002
2.679111e+002, 2.847974e+002
2.683932e+002, 2.852419e+002
2.688754e+002, 2.857241e+002
2.693575e+002, 2.862258e+002
2.698396e+002, 2.867798e+002
2.703217e+002, 2.873632e+002
2.708038e+002, 2.878904e+002
2.712859e+002, 2.887579e+002
2.717681e+002, 2.901919e+002
2.722502e+002, 2.921537e+002
2.727323e+002, 2.937678e+002
2.732144e+002, 2.949170e+002
2.736965e+002, 2.958947e+002
2.741786e+002, 2.970032e+002
2.746608e+002, 2.982805e+002
2.751429e+002, 2.995462e+002
2.756250e+002, 3.007799e+002
2.761071e+002, 3.019683e+002
2.765892e+002, 3.030382e+002
2.770714e+002, 3.039527e+002
2.775535e+002, 3.048076e+002
2.780356e+002, 3.057131e+002
2.785177e+002, 3.066846e+002
2.789998e+002, 3.075078e+002
2.794819e+002, 3.080565e+002
2.799641e+002, 3.084391e+002
2.804462e+002, 3.092548e+002
2.809283e+002, 3.106597e+002
2.814104e+002, 3.118296e+002
2.818925e+002, 3.119851e+002
2.823746e+002, 3.111148e+002
2.828568e+002, 3.102495e+002
2.833389e+002, 3.095928e+002
2.838210e+002, 3.090325e+002
2.843031e+002, 3.083116e+002
2.847852e+002, 3.074500e+002
2.852673e+002, 3.063015e+002
2.857495e+002, 3.046557e+002
2.862316e+002, 3.025540e+002
2.867137e+002, 3.004641e+002
2.871958e+002, 2.984306e+002
2.876779e+002, 2.964647e+002
2.881600e+002, 2.946817e+002
2.886422e+002, 2.930860e+002
2.891243e+002, 2.912998e+002
2.896064e+002, 2.890336e+002
2.900885e+002, 2.863565e+002
2.905706e+002, 2.837124e+002
2.910527e+002, 2.811169e+002
2.915349e+002, 2.786052e+002
2.920170e+002, 2.762082e+002
2.924991e+002, 2.739442e+002
2.929812e+002, 2.718199e+002
2.934633e+002, 2.698764e+002
2.939454e+002, 2.680911e+002
2.944276e+002, 2.663976e+002
2.949097e+002, 2.647918e+002
2.953918e+002, 2.633570e+002
2.958739e+002, 2.623719e+002
2.963560e+002, 2.617346e+002
2.968381e+002, 2.609094e+002
2.973203e+002, 2.594616e+002
2.978024e+002, 2.576992e+002
2.982845e+002, 2.561937e+002
2.987666e+002, 2.549501e+002
2.992487e+002, 2.539860e+002
2.997308e+002, 2.535675e+002
3.002130e+002, 2.534680e+002
3.006951e+002, 2.530342e+002
3.011772e+002, 2.515340e+002
3.016593e+002, 2.497836e+002
3.021414e+002, 2.490992e+002
3.026235e+002, 2.494638e+002
3.031057e+002, 2.499378e+002
3.035878e+002, 2.496993e+002
3.040699e+002, 2.490228e+002
3.045520e+002, 2.484109e+002
3.050341e+002, 2.479847e+002
3.055162e+002, 2.477354e+002
3.059984e+002, 2.478141e+002
3.064805e+002, 2.481530e+002
3.069626e+002, 2.482897e+002
3.074447e+002, 2.477247e+002
3.079268e+002, 2.468246e+002
3.084089e+002, 2.460711e+002
3.088911e+002, 2.456306e+002
3.093732e+002, 2.453034e+002
3.098553e+002, 2.448891e+002
3.103374e+002, 2.444444e+002
3.108195e+002, 2.441532e+002
3.113016e+002, 2.440480e+002
3.117838e+002, 2.441830e+002
3.122659e+002, 2.447258e+002
3.127480e+002, 2.459984e+002
3.132301e+002, 2.469706e+002
3.137122e+002, 2.467445e+002
3.141943e+002, 2.457764e+002
3.146765e+002, 2.450318e+002
3.151586e+002, 2.451250e+002
3.156407e+002, 2.454516e+002
3.161228e+002, 2.456490e+002
3.166049e+002, 2.456541e+002
3.170870e+002, 2.456045e+002
3.175692e+002, 2.454648e+002
3.180513e+002, 2.453299e+002
3.185334e+002, 2.453345e+002
3.190155e+002, 2.457915e+002
3.194976e+002, 2.461671e+002
3.199797e+002, 2.462059e+002
3.204619e+002, 2.458715e+002
3.209440e+002, 2.454466e+002
3.214261e+002, 2.448234e+002
3.219082e+002, 2.442311e+002
3.223903e+002, 2.438901e+002
3.228724e+002, 2.444065e+002
3.233546e+002, 2.446094e+002
3.238367e+002, 2.438791e+002
3.243188e+002, 2.422662e+002
3.248009e+002, 2.412908e+002
3.252830e+002, 2.417160e+002
3.257651e+002, 2.425448e+002
3.262473e+002, 2.431341e+002
3.267294e+002, 2.433617e+002
3.272115e+002, 2.434318e+002
3.276936e+002, 2.433020e+002
3.281757e+002, 2.430144e+002
3.286578e+002, 2.427551e+002
3.291400e+002, 2.424433e+002
3.296221e+002, 2.422389e+002
3.301042e+002, 2.422194e+002
3.305863e+002, 2.425484e+002
3.310684e+002, 2.427944e+002
3.315505e+002, 2.428991e+002
3.320327e+002, 2.429259e+002
3.325148e+002, 2.430161e+002
3.329969e+002, 2.431999e+002
3.334790e+002, 2.433880e+002
3.339611e+002, 2.435187e+002
3.344432e+002, 2.435208e+002
3.349254e+002, 2.437359e+002
3.354075e+002, 2.442679e+002
3.358896e+002, 2.449089e+002
3.363717e+002, 2.453876e+002
3.368538e+002, 2.456938e+002
3.373359e+002, 2.458356e+002
3.378180e+002, 2.457695e+002
3.383001e+002, 2.455015e+002
3.387823e+002, 2.453142e+002
3.392644e+002, 2.452398e+002
3.397465e+002, 2.451985e+002
3.402286e+002, 2.450916e+002
3.407107e+002, 2.448966e+002
3.411928e+002, 2.448153e+002
3.416750e+002, 2.449229e+002
3.421571e+002, 2.451693e+002
3.426392e+002, 2.453574e+002
3.431213e+002, 2.454915e+002
3.436034e+002, 2.455674e+002
3.440855e+002, 2.456431e+002
3.445677e+002, 2.457092e+002
3.450498e+002, 2.454472e+002
3.455319e+002, 2.447063e+002
3.460140e+002, 2.438104e+002
3.464961e+002, 2.434876e+002
3.469782e+002, 2.437130e+002
3.474604e+002, 2.438297e+002
3.479425e+002, 2.433623e+002
3.484246e+002, 2.424669e+002
3.489067e+002, 2.416855e+002
3.493888e+002, 2.410315e+002
3.498709e+002, 2.405647e+002
3.503531e+002, 2.405400e+002
3.508352e+002, 2.408163e+002
3.513173e+002, 2.408717e+002
3.517994e+002, 2.402397e+002
3.522815e+002, 2.393237e+002
3.527636e+002, 2.388470e+002
3.532458e+002, 2.388071e+002
3.537279e+002, 2.388012e+002
3.542100e+002, 2.385097e+002
3.546921e+002, 2.380135e+002
3.551742e+002, 2.374619e+002
3.556563e+002, 2.369523e+002
3.561385e+002, 2.363389e+002
3.566206e+002, 2.353338e+002
3.571027e+002, 2.340299e+002
3.575848e+002, 2.329202e+002
3.580669e+002, 2.324975e+002
3.585490e+002, 2.322984e+002
3.590312e+002, 2.318714e+002
3.595133e+002, 2.310435e+002
3.599954e+002, 2.301652e+002
3.604775e+002, 2.294494e+002
3.609596e+002, 2.288305e+002
3.614417e+002, 2.281785e+002
3.619239e+002, 2.272729e+002
3.624060e+002, 2.264456e+002
3.628881e+002, 2.259460e+002
3.633702e+002, 2.258807e+002
3.638523e+002, 2.257085e+002
3.643344e+002, 2.251807e+002
3.648166e+002, 2.244792e+002
3.652987e+002, 2.238055e+002
3.657808e+002, 2.233984e+002
3.662629e+002, 2.228503e+002
3.667450e+002, 2.218376e+002
3.672271e+002, 2.203670e+002
3.677093e+002, 2.194570e+002
3.681914e+002, 2.195469e+002
3.686735e+002, 2.200270e+002
3.691556e+002, 2.205101e+002
3.696377e+002, 2.213185e+002
3.701198e+002, 2.216793e+002
3.706020e+002, 2.213461e+002
3.710841e+002, 2.205104e+002
3.715662e+002, 2.198536e+002
3.720483e+002, 2.193474e+002
3.725304e+002, 2.190562e+002
3.730125e+002, 2.189759e+002
3.734947e+002, 2.190050e+002
3.739768e+002, 2.196563e+002
3.744589e+002, 2.215426e+002
3.749410e+002, 2.235676e+002
3.754231e+002, 2.237707e+002
3.759052e+002, 2.214747e+002
3.763874e+002, 2.192685e+002
3.768695e+002, 2.179254e+002
3.773516e+002, 2.174196e+002
3.778337e+002, 2.171180e+002
3.783158e+002, 2.170442e+002
3.787979e+002, 2.171091e+002
3.792801e+002, 2.172857e+002
3.797622e+002, 2.175883e+002
3.802443e+002, 2.177488e+002
3.807264e+002, 2.176658e+002
3.812085e+002, 2.174513e+002
3.816906e+002, 2.174156e+002
3.821728e+002, 2.175594e+002
3.826549e+002, 2.177321e+002
3.831370e+002, 2.177873e+002
3.836191e+002, 2.177719e+002
3.841012e+002, 2.178684e+002
3.845833e+002, 2.180882e+002
3.850655e+002, 2.184340e+002
3.855476e+002, 2.189998e+002
3.860297e+002, 2.197203e+002
3.865118e+002, 2.203347e+002
3.869939e+002, 2.206426e+002
3.874760e+002, 2.208070e+002
3.879582e+002, 2.209928e+002
3.884403e+002, 2.212064e+002
3.889224e+002, 2.216354e+002
3.894045e+002, 2.227561e+002
3.898866e+002, 2.241031e+002
3.903687e+002, 2.250063e+002
3.908509e+002, 2.249420e+002
3.913330e+002, 2.246879e+002
3.918151e+002, 2.247039e+002
3.922972e+002, 2.249749e+002
3.927793e+002, 2.254300e+002
3.932614e+002, 2.260674e+002
3.937436e+002, 2.268504e+002
3.942257e+002, 2.278379e+002
3.947078e+002, 2.292320e+002
3.951899e+002, 2.303295e+002
3.956720e+002, 2.306231e+002
3.961541e+002, 2.305038e+002
3.966363e+002, 2.306015e+002
3.971184e+002, 2.310224e+002
3.976005e+002, 2.317241e+002
3.980826e+002, 2.327906e+002
3.985647e+002, 2.342802e+002
3.990468e+002, 2.356380e+002
3.995290e+002, 2.367643e+002
4.000111e+002, 2.377632e+002
4.004932e+002, 2.387126e+002
4.009753e+002, 2.393577e+002
4.014574e+002, 2.403115e+002
4.019395e+002, 2.417755e+002
4.024217e+002, 2.436199e+002
4.029038e+002, 2.451821e+002
4.033859e+002, 2.462761e+002
4.038680e+002, 2.473642e+002
4.043501e+002, 2.487398e+002
4.048322e+002, 2.505925e+002
4.053144e+002, 2.519688e+002
4.057965e+002, 2.526456e+002
4.062786e+002, 2.530922e+002
4.067607e+002, 2.541120e+002
4.072428e+002, 2.558166e+002
4.077249e+002, 2.574865e+002
4.082071e+002, 2.588456e+002
4.086892e+002, 2.599528e+002
4.091713e+002, 2.611571e+002
4.096534e+002, 2.624799e+002
4.101355e+002, 2.637975e+002
4.106176e+002, 2.649563e+002
4.110998e+002, 2.659944e+002
4.115819e+002, 2.671575e+002
4.120640e+002, 2.686016e+002
4.125461e+002, 2.700079e+002
4.130282e+002, 2.708485e+002
4.135103e+002, 2.711750e+002
4.139925e+002, 2.713231e+002
4.144746e+002, 2.714760e+002
4.149567e+002, 2.715808e+002
4.154388e+002, 2.715763e+002
4.159209e+002, 2.714649e+002
4.164030e+002, 2.711814e+002
4.168852e+002, 2.706357e+002
4.173673e+002, 2.698870e+002
4.178494e+002, 2.690329e+002
4.183315e+002, 2.680216e+002
4.188136e+002, 2.669904e+002
4.192957e+002, 2.660684e+002
4.197779e+002, 2.652340e+002
4.202600e+002, 2.642688e+002
4.207421e+002, 2.630321e+002
4.212242e+002, 2.616607e+002
4.217063e+002, 2.602918e+002
4.221884e+002, 2.589794e+002
4.226706e+002, 2.575775e+002
4.231527e+002, 2.559512e+002
4.236348e+002, 2.542137e+002
4.241169e+002, 2.525724e+002
4.245990e+002, 2.509879e+002
4.250811e+002, 2.495445e+002
4.255633e+002, 2.483398e+002
4.260454e+002, 2.474316e+002
4.265275e+002, 2.462984e+002
4.270096e+002, 2.446146e+002
4.274917e+002, 2.429424e+002
4.279738e+002, 2.417811e+002
4.284560e+002, 2.414754e+002
4.289381e+002, 2.409385e+002
4.294202e+002, 2.399501e+002
4.299023e+002, 2.386758e+002
4.303844e+002, 2.376496e+002
4.308665e+002, 2.369490e+002
4.313487e+002, 2.362942e+002
4.318308e+002, 2.355960e+002
4.323129e+002, 2.348682e+002
4.327950e+002, 2.338334e+002
4.332771e+002, 2.323683e+002
4.337592e+002, 2.309370e+002
4.342414e+002, 2.302464e+002
4.347235e+002, 2.302327e+002
4.352056e+002, 2.301036e+002
4.356877e+002, 2.295846e+002
4.361698e+002, 2.288178e+002
4.366519e+002, 2.280405e+002
4.371341e+002, 2.272582e+002
4.376162e+002, 2.265420e+002
4.380983e+002, 2.259500e+002
4.385804e+002, 2.254513e+002
4.390625e+002, 2.249855e+002
4.395446e+002, 2.245323e+002
4.400268e+002, 2.241475e+002
4.405089e+002, 2.238874e+002
4.409910e+002, 2.237304e+002
4.414731e+002, 2.236356e+002
4.419552e+002, 2.237914e+002
4.424373e+002, 2.238358e+002
4.429195e+002, 2.233898e+002
4.434016e+002, 2.224630e+002
4.438837e+002, 2.217613e+002
4.443658e+002, 2.218116e+002
4.448479e+002, 2.220668e+002
4.453300e+002, 2.220912e+002
4.458122e+002, 2.214814e+002
4.462943e+002, 2.210459e+002
4.467764e+002, 2.210627e+002
4.472585e+002, 2.213527e+002
4.477406e+002, 2.214592e+002
4.482227e+002, 2.210614e+002
4.487049e+002, 2.207708e+002
4.491870e+002, 2.208801e+002
4.496691e+002, 2.215510e+002
4.501512e+002, 2.216197e+002
4.506333e+002, 2.207755e+002
4.511154e+002, 2.196744e+002
4.515976e+002, 2.188856e+002
4.520797e+002, 2.183990e+002
4.525618e+002, 2.183407e+002
4.530439e+002, 2.189154e+002
4.535260e+002, 2.198401e+002
4.540081e+002, 2.202260e+002
4.544903e+002, 2.200114e+002
4.549724e+002, 2.196718e+002
4.554545e+002, 2.194540e+002
4.559366e+002, 2.193403e+002
4.564187e+002, 2.191491e+002
4.569008e+002, 2.188447e+002
4.573830e+002, 2.186262e+002
4.578651e+002, 2.188369e+002
4.583472e+002, 2.193454e+002
4.588293e+002, 2.197295e+002
4.593114e+002, 2.198714e+002
4.597935e+002, 2.197987e+002
4.602757e+002, 2.193860e+002
4.607578e+002, 2.187198e+002
4.612399e+002, 2.182363e+002
4.617220e+002, 2.184795e+002
4.622041e+002, 2.188819e+002
4.626862e+002, 2.188602e+002
4.631684e+002, 2.182479e+002
4.636505e+002, 2.176009e+002
4.641326e+002, 2.170679e+002
4.646147e+002, 2.167176e+002
4.650968e+002, 2.166342e+002
4.655789e+002, 2.171204e+002
4.660611e+002, 2.176064e+002
4.665432e+002, 2.179532e+002
4.670253e+002, 2.181607e+002
4.675074e+002, 2.182789e+002
4.679895e+002, 2.182519e+002
4.684716e+002, 2.181890e+002
4.689538e+002, 2.181228e+002
4.694359e+002, 2.179576e+002
4.699180e+002, 2.180141e+002
4.704001e+002, 2.184444e+002
4.708822e+002, 2.189876e+002
4.713643e+002, 2.192057e+002
4.718465e+002, 2.189254e+002
4.723286e+002, 2.188207e+002
4.728107e+002, 2.191103e+002
4.732928e+002, 2.197174e+002
4.737749e+002, 2.202903e+002
4.742570e+002, 2.208570e+002
4.747392e+002, 2.212150e+002
4.752213e+002, 2.211293e+002
4.757034e+002, 2.206612e+002
4.761855e+002, 2.201452e+002
4.766676e+002, 2.195345e+002
4.771497e+002, 2.191680e+002
4.776319e+002, 2.197654e+002
4.781140e+002, 2.210454e+002
4.785961e+002, 2.220797e+002
4.790782e+002, 2.221583e+002
4.795603e+002, 2.219715e+002
4.800424e+002, 2.224019e+002
4.805246e+002, 2.233755e+002
4.810067e+002, 2.242731e+002
4.814888e+002, 2.245112e+002
4.819709e+002, 2.246056e+002
4.824530e+002, 2.250911e+002
4.829352e+002, 2.263441e+002
4.834173e+002, 2.272976e+002
4.838994e+002, 2.271736e+002
4.843815e+002, 2.265608e+002
4.848636e+002, 2.263581e+002
4.853457e+002, 2.272658e+002
4.858279e+002, 2.280903e+002
4.863100e+002, 2.284273e+002
4.867921e+002, 2.282727e+002
4.872742e+002, 2.283603e+002
4.877563e+002, 2.288093e+002
4.882384e+002, 2.293884e+002
4.887206e+002, 2.299907e+002
4.892027e+002, 2.306730e+002
4.896848e+002, 2.312060e+002
4.901669e+002, 2.314901e+002
4.906490e+002, 2.317345e+002
4.911311e+002, 2.324057e+002
4.916133e+002, 2.336131e+002
4.920954e+002, 2.344300e+002
4.925775e+002, 2.344267e+002
4.930596e+002, 2.338493e+002
4.935417e+002, 2.335639e+002
4.940238e+002, 2.335678e+002
4.945060e+002, 2.338229e+002
4.949881e+002, 2.345194e+002
4.954702e+002, 2.354280e+002
4.959523e+002, 2.359683e+002
4.964344e+002, 2.360172e+002
4.969165e+002, 2.358805e+002
4.973987e+002, 2.357430e+002
4.978808e+002, 2.356488e+002
4.983629e+002, 2.356854e+002
4.988450e+002, 2.361487e+002
4.993271e+002, 2.365382e+002
4.998092e+002, 2.364675e+002
5.002914e+002, 2.360054e+002
5.007735e+002, 2.355387e+002
5.012556e+002, 2.352696e+002
5.017377e+002, 2.350022e+002
5.022198e+002, 2.345841e+002
5.027019e+002, 2.338498e+002
5.031841e+002, 2.333542e+002
5.036662e+002, 2.334069e+002
5.041483e+002, 2.336364e+002
5.046304e+002, 2.335999e+002
5.051125e+002, 2.330496e+002
5.055946e+002, 2.326557e+002
5.060768e+002, 2.326688e+002
5.065589e+002, 2.329301e+002
5.070410e+002, 2.325542e+002
5.075231e+002, 2.313020e+002
5.080052e+002, 2.300798e+002
5.084873e+002, 2.293335e+002
5.089695e+002, 2.290739e+002
5.094516e+002, 2.290677e+002
5.099337e+002, 2.293653e+002
5.104158e+002, 2.296887e+002
5.108979e+002, 2.296183e+002
5.113800e+002, 2.292627e+002
5.118622e+002, 2.291472e+002
5.123443e+002, 2.295330e+002
5.128264e+002, 2.300424e+002
5.133085e+002, 2.301362e+002
5.137906e+002, 2.299120e+002
5.142728e+002, 2.297176e+002
5.147549e+002, 2.298615e+002
5.152370e+002, 2.300498e+002
5.157191e+002, 2.299763e+002
5.162012e+002, 2.296032e+002
5.166833e+002, 2.293223e+002
5.171655e+002, 2.293227e+002
5.176476e+002, 2.294925e+002
5.181297e+002, 2.297381e+002
5.186118e+002, 2.301636e+002
5.190939e+002, 2.305130e+002
5.195760e+002, 2.307971e+002
5.200582e+002, 2.309726e+002
5.205403e+002, 2.309379e+002
5.210224e+002, 2.304249e+002
5.215045e+002, 2.300790e+002
5.219866e+002, 2.301321e+002
5.224688e+002, 2.305826e+002
5.229509e+002, 2.308824e+002
5.234330e+002, 2.310253e+002
5.239151e+002, 2.310301e+002
5.243972e+002, 2.308132e+002
5.248793e+002, 2.303643e+002
5.253615e+002, 2.301901e+002
5.258436e+002, 2.303534e+002
5.263257e+002, 2.307414e+002
5.268078e+002, 2.313351e+002
5.272899e+002, 2.320571e+002
5.277720e+002, 2.325257e+002
5.282542e+002, 2.324937e+002
5.287363e+002, 2.321963e+002
5.292184e+002, 2.319075e+002
5.297005e+002, 2.316254e+002
5.301826e+002, 2.313271e+002
5.306647e+002, 2.309445e+002
5.311469e+002, 2.305765e+002
5.316290e+002, 2.302449e+002
5.321111e+002, 2.299005e+002
5.325932e+002, 2.298847e+002
5.330753e+002, 2.306165e+002
5.335574e+002, 2.316260e+002
5.340396e+002, 2.324131e+002
5.345217e+002, 2.329002e+002
5.350038e+002, 2.331621e+002
5.354859e+002, 2.330844e+002
5.359680e+002, 2.327877e+002
5.364501e+002, 2.326397e+002
5.369323e+002, 2.326525e+002
5.374144e+002, 2.327937e+002
5.378965e+002, 2.330527e+002
5.383786e+002, 2.334265e+002
5.388607e+002, 2.340018e+002
5.393428e+002, 2.348905e+002
5.398250e+002, 2.356118e+002
5.403071e+002, 2.354229e+002
5.407892e+002, 2.344726e+002
5.412713e+002, 2.343332e+002
5.417534e+002, 2.354562e+002
5.422355e+002, 2.368598e+002
5.427177e+002, 2.370013e+002
5.431998e+002, 2.362436e+002
5.436819e+002, 2.357387e+002
5.441640e+002, 2.361886e+002
5.446461e+002, 2.370153e+002
5.451282e+002, 2.379445e+002
5.456104e+002, 2.388838e+002
5.460925e+002, 2.393061e+002
5.465746e+002, 2.381159e+002
5.470567e+002, 2.368954e+002
5.475388e+002, 2.368493e+002
5.480209e+002, 2.385842e+002
5.485031e+002, 2.400045e+002
5.489852e+002, 2.406007e+002
5.494673e+002, 2.407154e+002
5.499494e+002, 2.406995e+002
5.504315e+002, 2.403943e+002
5.509136e+002, 2.402210e+002
5.513958e+002, 2.402513e+002
5.518779e+002, 2.404315e+002
5.523600e+002, 2.406348e+002
5.528421e+002, 2.409030e+002
5.533242e+002, 2.410417e+002
5.538063e+002, 2.408858e+002
5.542885e+002, 2.404974e+002
5.547706e+002, 2.404756e+002
5.552527e+002, 2.408665e+002
5.557348e+002, 2.411474e+002
5.562169e+002, 2.407079e+002
5.566990e+002, 2.398131e+002
5.571812e+002, 2.391361e+002
5.576633e+002, 2.388025e+002
5.581454e+002, 2.386335e+002
5.586275e+002, 2.386099e+002
5.591096e+002, 2.386106e+002
5.595917e+002, 2.384195e+002
5.600739e+002, 2.375335e+002
5.605560e+002, 2.368320e+002
5.610381e+002, 2.370134e+002
5.615202e+002, 2.378363e+002
5.620023e+002, 2.382377e+002
5.624844e+002, 2.376105e+002
5.629666e+002, 2.367893e+002
5.634487e+002, 2.360652e+002
5.639308e+002, 2.353890e+002
5.644129e+002, 2.351158e+002
5.648950e+002, 2.355593e+002
5.653771e+002, 2.360589e+002
5.658593e+002, 2.359904e+002
5.663414e+002, 2.351431e+002
5.668235e+002, 2.346424e+002
5.673056e+002, 2.346628e+002
5.677877e+002, 2.349666e+002
5.682698e+002, 2.351882e+002
5.687520e+002, 2.353266e+002
5.692341e+002, 2.353008e+002
5.697162e+002, 2.349148e+002
5.701983e+002, 2.344631e+002
5.706804e+002, 2.346750e+002
5.711625e+002, 2.354349e+002
5.716447e+002, 2.359270e+002
5.721268e+002, 2.352938e+002
5.726089e+002, 2.343277e+002
5.730910e+002, 2.338730e+002
5.735731e+002, 2.340974e+002
5.740552e+002, 2.342271e+002
5.745374e+002, 2.338503e+002
5.750195e+002, 2.332394e+002
5.755016e+002, 2.326477e+002
5.759837e+002, 2.320399e+002
5.764658e+002, 2.315510e+002
5.769479e+002, 2.312131e+002
5.774301e+002, 2.309835e+002
5.779122e+002, 2.307757e+002
5.783943e+002, 2.305416e+002
5.788764e+002, 2.304258e+002
5.793585e+002, 2.305889e+002
5.798406e+002, 2.309252e+002
5.803228e+002, 2.306489e+002
5.808049e+002, 2.296989e+002
5.812870e+002, 2.285311e+002
5.817691e+002, 2.272459e+002
5.822512e+002, 2.259647e+002
5.827333e+002, 2.252295e+002
5.832155e+002, 2.251115e+002
5.836975e+002, 2.251633e+002
5.841796e+002, 2.250876e+002
5.846617e+002, 2.248673e+002
5.851439e+002, 2.244602e+002
5.856260e+002, 2.238004e+002
5.861081e+002, 2.230596e+002
5.865902e+002, 2.222724e+002
5.870723e+002, 2.214838e+002
5.875544e+002, 2.207937e+002
5.880366e+002, 2.202864e+002
5.885187e+002, 2.198027e+002
5.890008e+002, 2.191889e+002
5.894829e+002, 2.184701e+002
5.899650e+002, 2.181566e+002
5.904471e+002, 2.186827e+002
5.909293e+002, 2.190336e+002
5.914114e+002, 2.186133e+002
5.918935e+002, 2.172437e+002
5.923756e+002, 2.163537e+002
5.928577e+002, 2.159921e+002
5.933398e+002, 2.159736e+002
5.938220e+002, 2.163016e+002
5.943041e+002, 2.168936e+002
5.947862e+002, 2.170299e+002
5.952683e+002, 2.164629e+002
5.957504e+002, 2.157190e+002
5.962325e+002, 2.154778e+002
5.967147e+002, 2.156065e+002
5.971968e+002, 2.157568e+002
5.976789e+002, 2.158289e+002
5.981610e+002, 2.158268e+002
5.986431e+002, 2.157269e+002
5.991252e+002, 2.155472e+002
5.996074e+002, 2.153652e+002
6.000895e+002, 2.152595e+002
6.005716e+002, 2.151131e+002
6.010537e+002, 2.148986e+002
6.015358e+002, 2.146434e+002
6.020179e+002, 2.141319e+002
6.025001e+002, 2.130086e+002
6.029822e+002, 2.119789e+002
6.034643e+002, 2.116433e+002
6.039464e+002, 2.122477e+002
6.044285e+002, 2.125471e+002
6.049106e+002, 2.123982e+002
6.053928e+002, 2.120554e+002
6.058749e+002, 2.118461e+002
6.063570e+002, 2.117730e+002
6.068391e+002, 2.119102e+002
6.073212e+002, 2.124200e+002
6.078033e+002, 2.129695e+002
6.082855e+002, 2.129509e+002
6.087676e+002, 2.125025e+002
6.092497e+002, 2.121376e+002
6.097318e+002, 2.122871e+002
6.102139e+002, 2.125230e+002
6.106960e+002, 2.124066e+002
6.111782e+002, 2.119391e+002
6.116603e+002, 2.117424e+002
6.121424e+002, 2.125543e+002
6.126245e+002, 2.133263e+002
6.131066e+002, 2.133252e+002
6.135887e+002, 2.118927e+002
6.140709e+002, 2.111243e+002
6.145530e+002, 2.113670e+002
6.150351e+002, 2.119617e+002
6.155172e+002, 2.121889e+002
6.159993e+002, 2.119315e+002
6.164814e+002, 2.118930e+002
6.169636e+002, 2.122684e+002
6.174457e+002, 2.127680e+002
6.179278e+002, 2.128188e+002
6.184099e+002, 2.124487e+002
6.188920e+002, 2.119695e+002
6.193741e+002, 2.113737e+002
6.198563e+002, 2.108326e+002
6.203384e+002, 2.106187e+002
6.208205e+002, 2.107006e+002
6.213026e+002, 2.109305e+002
6.217847e+002, 2.114275e+002
6.222668e+002, 2.118921e+002
6.227490e+002, 2.120884e+002
6.232311e+002, 2.119851e+002
6.237132e+002, 2.117667e+002
6.241953e+002, 2.113272e+002
6.246774e+002, 2.109011e+002
6.251595e+002, 2.106516e+002
6.256417e+002, 2.106232e+002
6.261238e+002, 2.107214e+002
6.266059e+002, 2.110602e+002
6.270880e+002, 2.114085e+002
6.275701e+002, 2.114027e+002
6.280522e+002, 2.109982e+002
6.285344e+002, 2.106692e+002
6.290165e+002, 2.104684e+002
6.294986e+002, 2.104651e+002
6.299807e+002, 2.109715e+002
6.304628e+002, 2.118752e+002
6.309449e+002, 2.125625e+002
6.314271e+002, 2.125134e+002
6.319092e+002, 2.122355e+002
6.323913e+002, 2.122747e+002
6.328734e+002, 2.125927e+002
6.333555e+002, 2.129367e+002
6.338376e+002, 2.132838e+002
6.343198e+002, 2.135341e+002
6.348019e+002, 2.135920e+002
6.352840e+002, 2.133972e+002
6.357661e+002, 2.132763e+002
6.362482e+002, 2.132281e+002
6.367303e+002, 2.132918e+002
6.372125e+002, 2.135356e+002
6.376946e+002, 2.141039e+002
6.381767e+002, 2.144274e+002
6.386588e+002, 2.144417e+002
6.391409e+002, 2.142888e+002
6.396230e+002, 2.141409e+002
6.401052e+002, 2.140000e+002
6.405873e+002, 2.138572e+002
6.410694e+002, 2.136430e+002
6.415515e+002, 2.135493e+002
6.420336e+002, 2.140239e+002
6.425157e+002, 2.148804e+002
6.429979e+002, 2.155837e+002
6.434800e+002, 2.157208e+002
6.439621e+002, 2.157257e+002
6.444442e+002, 2.159131e+002
6.449263e+002, 2.162480e+002
6.454084e+002, 2.164913e+002
6.458906e+002, 2.165303e+002
6.463727e+002, 2.164901e+002
6.468548e+002, 2.163914e+002
6.473369e+002, 2.162114e+002
6.478190e+002, 2.161655e+002
6.483011e+002, 2.162652e+002
6.487833e+002, 2.164835e+002
6.492654e+002, 2.168362e+002
6.497475e+002, 2.173451e+002
6.502296e+002, 2.177831e+002
6.507117e+002, 2.181506e+002
6.511938e+002, 2.184028e+002
6.516760e+002, 2.183325e+002
6.521581e+002, 2.180820e+002
6.526402e+002, 2.181231e+002
6.531223e+002, 2.186802e+002
6.536044e+002, 2.193477e+002
6.540865e+002, 2.198185e+002
6.545687e+002, 2.201360e+002
6.550508e+002, 2.203882e+002
6.555329e+002, 2.205055e+002
6.560150e+002, 2.206724e+002
6.564971e+002, 2.209432e+002
6.569792e+002, 2.213187e+002
6.574614e+002, 2.218079e+002
6.579435e+002, 2.226168e+002
6.584256e+002, 2.232415e+002
6.589077e+002, 2.234496e+002
6.593898e+002, 2.232642e+002
6.598719e+002, 2.232656e+002
6.603541e+002, 2.234631e+002
6.608362e+002, 2.238010e+002
6.613183e+002, 2.244079e+002
6.618004e+002, 2.251440e+002
6.622825e+002, 2.253420e+002
6.627646e+002, 2.249289e+002
6.632468e+002, 2.246368e+002
6.637289e+002, 2.252984e+002
6.642110e+002, 2.263988e+002
6.646931e+002, 2.272676e+002
6.651752e+002, 2.277096e+002
6.656573e+002, 2.280494e+002
6.661395e+002, 2.283447e+002
6.666216e+002, 2.286577e+002
6.671037e+002, 2.290645e+002
6.675858e+002, 2.297192e+002
6.680679e+002, 2.302873e+002
6.685500e+002, 2.307147e+002
6.690322e+002, 2.310511e+002
6.695143e+002, 2.313672e+002
6.699964e+002, 2.316368e+002
6.704785e+002, 2.320141e+002
6.709606e+002, 2.325425e+002
6.714427e+002, 2.332136e+002
6.719249e+002, 2.340642e+002
6.724070e+002, 2.350684e+002
6.728891e+002, 2.360002e+002
6.733712e+002, 2.367656e+002
6.738533e+002, 2.373551e+002
6.743354e+002, 2.376097e+002
6.748176e+002, 2.375796e+002
6.752997e+002, 2.377557e+002
6.757818e+002, 2.386253e+002
6.762639e+002, 2.395939e+002
6.767460e+002, 2.402943e+002
6.772281e+002, 2.406087e+002
6.777103e+002, 2.408920e+002
6.781924e+002, 2.409830e+002
6.786745e+002, 2.412249e+002
6.791566e+002, 2.419369e+002
6.796387e+002, 2.432605e+002
6.801208e+002, 2.443734e+002
6.806030e+002, 2.452049e+002
6.810851e+002, 2.459233e+002
6.815672e+002, 2.468276e+002
6.820493e+002, 2.478360e+002
6.825314e+002, 2.485843e+002
6.830135e+002, 2.488423e+002
6.834957e+002, 2.491285e+002
6.839778e+002, 2.500631e+002
6.844599e+002, 2.514101e+002
6.849420e+002, 2.526878e+002
6.854241e+002, 2.539036e+002
6.859063e+002, 2.548470e+002
6.863884e+002, 2.552105e+002
6.868705e+002, 2.552126e+002
6.873526e+002, 2.556243e+002
6.878347e+002, 2.567603e+002
6.883168e+002, 2.579269e+002
6.887990e+002, 2.589849e+002
6.892811e+002, 2.599321e+002
6.897632e+002, 2.605080e+002
6.902453e+002, 2.606102e+002
6.907274e+002, 2.610363e+002
6.912095e+002, 2.625763e+002
6.916917e+002, 2.647648e+002
6.921738e+002, 2.661515e+002
6.926559e+002, 2.667333e+002
6.931380e+002, 2.672419e+002
6.936201e+002, 2.680687e+002
6.941022e+002, 2.691544e+002
6.945844e+002, 2.706212e+002
6.950665e+002, 2.725957e+002
6.955486e+002, 2.740717e+002
6.960307e+002, 2.740236e+002
6.965128e+002, 2.737711e+002
6.969949e+002, 2.744058e+002
6.974771e+002, 2.765627e+002
6.979592e+002, 2.782132e+002
6.984413e+002, 2.789097e+002
6.989234e+002, 2.796682e+002
6.994055e+002, 2.821705e+002
6.998876e+002, 2.864750e+002
7.003698e+002, 2.894522e+002
7.008519e+002, 2.903870e+002
7.013340e+002, 2.902432e+002
7.018161e+002, 2.898719e+002
7.022982e+002, 2.894824e+002
7.027803e+002, 2.895976e+002
7.032625e+002, 2.905116e+002
7.037446e+002, 2.918804e+002
7.042267e+002, 2.937086e+002
7.047088e+002, 2.958027e+002
7.051909e+002, 2.977281e+002
7.056730e+002, 2.991888e+002
7.061552e+002, 3.006300e+002
7.066373e+002, 3.020543e+002
7.071194e+002, 3.035217e+002
7.076015e+002, 3.053612e+002
7.080836e+002, 3.076323e+002
7.085657e+002, 3.100631e+002
7.090479e+002, 3.127484e+002
7.095300e+002, 3.154888e+002
7.100121e+002, 3.170991e+002
7.104942e+002, 3.176455e+002
7.109763e+002, 3.186389e+002
7.114584e+002, 3.217532e+002
7.119406e+002, 3.255662e+002
7.124227e+002, 3.281875e+002
7.129048e+002, 3.295616e+002
7.133869e+002, 3.309829e+002
7.138690e+002, 3.331985e+002
7.143511e+002, 3.355953e+002
7.148333e+002, 3.377521e+002
7.153154e+002, 3.394272e+002
7.157975e+002, 3.415314e+002
7.162796e+002, 3.443511e+002
7.167617e+002, 3.472886e+002
7.172438e+002, 3.498320e+002
7.177260e+002, 3.518904e+002
7.182081e+002, 3.544237e+002
7.186902e+002, 3.575310e+002
7.191723e+002, 3.608676e+002
7.196544e+002, 3.639269e+002
7.201365e+002, 3.668677e+002
7.206187e+002, 3.701019e+002
7.211008e+002, 3.738160e+002
7.215829e+002, 3.776273e+002
7.220650e+002, 3.811769e+002
7.225471e+002, 3.846962e+002
7.230292e+002, 3.885799e+002
7.235114e+002, 3.931623e+002
7.239935e+002, 3.977141e+002
7.244756e+002, 4.022486e+002
7.249577e+002, 4.066505e+002
7.254398e+002, 4.106930e+002
7.259219e+002, 4.140069e+002
7.264041e+002, 4.180609e+002
7.268862e+002, 4.233021e+002
7.273683e+002, 4.293451e+002
7.278504e+002, 4.350869e+002
7.283325e+002, 4.405732e+002
7.288146e+002, 4.461690e+002
7.292968e+002, 4.519755e+002
7.297789e+002, 4.579571e+002
7.302610e+002, 4.639996e+002
7.307431e+002, 4.701690e+002
7.312252e+002, 4.766863e+002
7.317073e+002, 4.836902e+002
7.321895e+002, 4.910181e+002
7.326716e+002, 4.985331e+002
7.331537e+002, 5.062821e+002
7.336358e+002, 5.145559e+002
7.341179e+002, 5.234846e+002
7.346000e+002, 5.329227e+002
7.350822e+002, 5.428027e+002
7.355643e+002, 5.531324e+002
7.360464e+002, 5.633494e+002
7.365285e+002, 5.734064e+002
7.370106e+002, 5.843516e+002
7.374927e+002, 5.974435e+002
7.379749e+002, 6.117318e+002
7.384570e+002, 6.253930e+002
7.389391e+002, 6.382738e+002
7.394212e+002, 6.520731e+002
7.399033e+002, 6.678521e+002
7.403854e+002, 6.848466e+002
7.408676e+002, 7.023636e+002
7.413497e+002, 7.200647e+002
7.418318e+002, 7.396913e+002
7.423139e+002, 7.622679e+002
7.427960e+002, 7.857902e+002
7.432781e+002, 8.089625e+002
7.437603e+002, 8.315115e+002
7.442424e+002, 8.555964e+002
7.447245e+002, 8.813671e+002
7.452066e+002, 9.086489e+002
7.456887e+002, 9.380220e+002
7.461708e+002, 9.691480e+002
7.466530e+002, 1.000579e+003
7.471351e+002, 1.031832e+003
7.476172e+002, 1.064114e+003
7.480993e+002, 1.098378e+003
7.485814e+002, 1.134205e+003
7.490635e+002, 1.170691e+003
7.495457e+002, 1.207837e+003
7.500278e+002, 1.246102e+003
7.505099e+002, 1.284823e+003
7.509920e+002, 1.324414e+003
7.514741e+002, 1.365533e+003
7.519562e+002, 1.408427e+003
7.524384e+002, 1.450080e+003
7.529205e+002, 1.489259e+003
7.534026e+002, 1.527734e+003
7.538847e+002, 1.568731e+003
7.543668e+002, 1.611350e+003
7.548489e+002, 1.653059e+003
7.553311e+002, 1.694001e+003
7.558132e+002, 1.731861e+003
7.562953e+002, 1.763694e+003
7.567774e+002, 1.790849e+003
7.572595e+002, 1.815000e+003
7.577416e+002, 1.838621e+003
7.582238e+002, 1.857365e+003
7.587059e+002, 1.871379e+003
7.591880e+002, 1.880012e+003
7.596701e+002, 1.881573e+003
7.601522e+002, 1.875782e+003
7.606343e+002, 1.863883e+003
7.611165e+002, 1.845698e+003
7.615986e+002, 1.821964e+003
7.620807e+002, 1.794212e+003
7.625628e+002, 1.762404e+003
7.630449e+002, 1.726246e+003
7.635270e+002, 1.684371e+003
7.640092e+002, 1.639345e+003
7.644913e+002, 1.591824e+003
7.649734e+002, 1.542662e+003
7.654555e+002, 1.493768e+003
7.659376e+002, 1.446301e+003
7.664197e+002, 1.399403e+003
7.669019e+002, 1.352930e+003
7.673840e+002, 1.307034e+003
7.678661e+002, 1.262616e+003
7.683482e+002, 1.220113e+003
7.688303e+002, 1.178031e+003
7.693124e+002, 1.135361e+003
7.697946e+002, 1.093301e+003
7.702767e+002, 1.054945e+003
7.707588e+002, 1.020102e+003
7.712409e+002, 9.869976e+002
7.717230e+002, 9.542614e+002
7.722051e+002, 9.229597e+002
7.726873e+002, 8.946755e+002
7.731694e+002, 8.689972e+002
7.736515e+002, 8.437524e+002
7.741336e+002, 8.167023e+002
7.746157e+002, 7.911010e+002
7.750978e+002, 7.686855e+002
7.755800e+002, 7.493303e+002
7.760621e+002, 7.296611e+002
7.765442e+002, 7.090968e+002
7.770263e+002, 6.898076e+002
7.775084e+002, 6.735228e+002
7.779905e+002, 6.596413e+002
7.784727e+002, 6.456828e+002
7.789548e+002, 6.316787e+002
7.794369e+002, 6.182659e+002
7.799190e+002, 6.056494e+002
7.804011e+002, 5.940185e+002
7.808832e+002, 5.835969e+002
7.813654e+002, 5.744631e+002
7.818475e+002, 5.654967e+002
7.823296e+002, 5.558776e+002
7.828117e+002, 5.468060e+002
7.832938e+002, 5.387777e+002
7.837759e+002, 5.318546e+002
7.842581e+002, 5.253555e+002
7.847402e+002, 5.193359e+002
7.852223e+002, 5.137301e+002
7.857044e+002, 5.084704e+002
7.861865e+002, 5.035839e+002
7.866686e+002, 4.988751e+002
7.871508e+002, 4.943336e+002
7.876329e+002, 4.903930e+002
7.881150e+002, 4.878516e+002
7.885971e+002, 4.856865e+002
7.890792e+002, 4.829620e+002
7.895613e+002, 4.794767e+002
7.900435e+002, 4.759793e+002
7.905256e+002, 4.722257e+002
7.910077e+002, 4.688450e+002
7.914898e+002, 4.662292e+002
7.919719e+002, 4.645443e+002
7.924540e+002, 4.626822e+002
7.929362e+002, 4.608064e+002
7.934183e+002, 4.581789e+002
7.939004e+002, 4.534651e+002
7.943825e+002, 4.475792e+002
7.948646e+002, 4.435541e+002
7.953467e+002, 4.415949e+002
7.958289e+002, 4.395044e+002
7.963110e+002, 4.358895e+002
7.967931e+002, 4.313447e+002
7.972752e+002, 4.262815e+002
7.977573e+002, 4.205530e+002
7.982394e+002, 4.150610e+002
7.987216e+002, 4.099884e+002
7.992037e+002, 4.050863e+002
7.996858e+002, 4.002530e+002
8.001679e+002, 3.954659e+002
8.006500e+002, 3.908330e+002
8.011321e+002, 3.862917e+002
8.016143e+002, 3.819128e+002
8.020964e+002, 3.777318e+002
8.025785e+002, 3.737635e+002
8.030606e+002, 3.699694e+002
8.035427e+002, 3.663475e+002
8.040248e+002, 3.629510e+002
8.045070e+002, 3.597945e+002
8.049891e+002, 3.568364e+002
8.054712e+002, 3.540931e+002
8.059533e+002, 3.516454e+002
8.064354e+002, 3.490354e+002
8.069175e+002, 3.460860e+002
8.073997e+002, 3.432270e+002
8.078818e+002, 3.407709e+002
8.083639e+002, 3.387303e+002
8.088460e+002, 3.368939e+002
8.093281e+002, 3.352718e+002
8.098102e+002, 3.336457e+002
8.102924e+002, 3.317114e+002
8.107745e+002, 3.297038e+002
8.112566e+002, 3.279640e+002
8.117387e+002, 3.265771e+002
8.122208e+002, 3.252245e+002
8.127029e+002, 3.238440e+002
8.131851e+002, 3.224086e+002
8.136672e+002, 3.208397e+002
8.141493e+002, 3.190145e+002
8.146314e+002, 3.176357e+002
8.151135e+002, 3.168230e+002
8.155956e+002, 3.161849e+002
8.160778e+002, 3.154965e+002
8.165599e+002, 3.147328e+002
8.170420e+002, 3.137973e+002
8.175241e+002, 3.126767e+002
8.180062e+002, 3.113957e+002
8.184883e+002, 3.096659e+002
8.189705e+002, 3.079496e+002
8.194526e+002, 3.068034e+002
8.199347e+002, 3.063906e+002
8.204168e+002, 3.057947e+002
8.208989e+002, 3.047881e+002
8.213810e+002, 3.035733e+002
8.218632e+002, 3.021658e+002
8.223453e+002, 3.005179e+002
8.228274e+002, 2.991683e+002
8.233095e+002, 2.981550e+002
8.237916e+002, 2.973743e+002
8.242737e+002, 2.969720e+002
8.247559e+002, 2.967004e+002
8.252380e+002, 2.959381e+002
8.257201e+002, 2.946779e+002
8.262022e+002, 2.935717e+002
8.266843e+002, 2.934460e+002
8.271664e+002, 2.932851e+002
8.276486e+002, 2.922780e+002
8.281307e+002, 2.901691e+002
8.286128e+002, 2.885210e+002
8.290949e+002, 2.874638e+002
8.295770e+002, 2.866241e+002
8.300591e+002, 2.857389e+002
8.305413e+002, 2.848465e+002
8.310234e+002, 2.845769e+002
8.315055e+002, 2.849151e+002
8.319876e+002, 2.848783e+002
8.324697e+002, 2.833428e+002
8.329518e+002, 2.813273e+002
8.334340e+002, 2.799076e+002
8.339161e+002, 2.791256e+002
8.343982e+002, 2.784615e+002
8.348803e+002, 2.781062e+002
8.353624e+002, 2.774466e+002
8.358445e+002, 2.760402e+002
8.363267e+002, 2.739513e+002
8.368088e+002, 2.726414e+002
8.372909e+002, 2.722662e+002
8.377730e+002, 2.719994e+002
8.382551e+002, 2.713633e+002
8.387372e+002, 2.705122e+002
8.392194e+002, 2.698615e+002
8.397015e+002, 2.693729e+002
8.401836e+002, 2.688194e+002
8.406657e+002, 2.678517e+002
8.411478e+002, 2.669721e+002
8.416299e+002, 2.666014e+002
8.421121e+002, 2.666770e+002
8.425942e+002, 2.665444e+002
8.430763e+002, 2.660408e+002
8.435584e+002, 2.655407e+002
8.440405e+002, 2.651574e+002
8.445226e+002, 2.648648e+002
8.450048e+002, 2.645497e+002
8.454869e+002, 2.642164e+002
8.459690e+002, 2.639576e+002
8.464511e+002, 2.639299e+002
8.469332e+002, 2.639105e+002
8.474153e+002, 2.635250e+002
8.478975e+002, 2.629423e+002
8.483796e+002, 2.626385e+002
8.488617e+002, 2.631871e+002
8.493438e+002, 2.635701e+002
8.498259e+002, 2.633721e+002
8.503080e+002, 2.628497e+002
8.507902e+002, 2.626617e+002
8.512723e+002, 2.628501e+002
8.517544e+002, 2.631475e+002
8.522365e+002, 2.635007e+002
8.527186e+002, 2.638898e+002
8.532007e+002, 2.642166e+002
8.536829e+002, 2.645472e+002
8.541650e+002, 2.650757e+002
8.546471e+002, 2.661787e+002
8.551292e+002, 2.671098e+002
8.556113e+002, 2.674245e+002
8.560934e+002, 2.673394e+002
8.565756e+002, 2.672417e+002
8.570577e+002, 2.670103e+002
8.575398e+002, 2.670602e+002
8.580219e+002, 2.674548e+002
8.585040e+002, 2.681165e+002
8.589861e+002, 2.689353e+002
8.594683e+002, 2.699086e+002
8.599504e+002, 2.710400e+002
8.604325e+002, 2.723551e+002
8.609146e+002, 2.737075e+002
8.613967e+002, 2.751212e+002
8.618788e+002, 2.764048e+002
8.623610e+002, 2.773025e+002
8.628431e+002, 2.772914e+002
8.633252e+002, 2.777202e+002
8.638073e+002, 2.788723e+002
8.642894e+002, 2.803051e+002
8.647715e+002, 2.816071e+002
8.652537e+002, 2.827778e+002
8.657358e+002, 2.839032e+002
8.662179e+002, 2.850070e+002
8.667000e+002, 2.860509e+002
8.671821e+002, 2.867588e+002
8.676642e+002, 2.874943e+002
8.681464e+002, 2.888846e+002
8.686285e+002, 2.911573e+002
8.691106e+002, 2.932770e+002
8.695927e+002, 2.946717e+002
8.700748e+002, 2.959438e+002
8.705569e+002, 2.975094e+002
8.710391e+002, 2.994361e+002
8.715212e+002, 3.010524e+002
8.720033e+002, 3.022502e+002
8.724854e+002, 3.035014e+002
8.729675e+002, 3.052424e+002
8.734496e+002, 3.072640e+002
8.739318e+002, 3.090808e+002
8.744139e+002, 3.106647e+002
8.748960e+002, 3.119853e+002
8.753781e+002, 3.127766e+002
8.758602e+002, 3.135111e+002
8.763423e+002, 3.146159e+002
8.768245e+002, 3.160808e+002
8.773066e+002, 3.169161e+002
8.777887e+002, 3.168304e+002
8.782708e+002, 3.167921e+002
8.787529e+002, 3.171026e+002
8.792350e+002, 3.178085e+002
8.797172e+002, 3.191922e+002
8.801993e+002, 3.211768e+002
8.806814e+002, 3.233184e+002
8.811635e+002, 3.255131e+002
8.816456e+002, 3.276548e+002
8.821277e+002, 3.294414e+002
8.826099e+002, 3.310932e+002
8.830920e+002, 3.332632e+002
8.835741e+002, 3.359503e+002
8.840562e+002, 3.394146e+002
8.845383e+002, 3.440250e+002
8.850204e+002, 3.492036e+002
8.855026e+002, 3.536273e+002
8.859847e+002, 3.573447e+002
8.864668e+002, 3.610742e+002
8.869489e+002, 3.647280e+002
8.874310e+002, 3.691597e+002
8.879131e+002, 3.760790e+002
8.883953e+002, 3.840946e+002
8.888774e+002, 3.911461e+002
8.893595e+002, 3.955528e+002
8.898416e+002, 4.006624e+002
8.903237e+002, 4.074971e+002
8.908058e+002, 4.147567e+002
8.912880e+002, 4.210553e+002
8.917701e+002, 4.262401e+002
8.922522e+002, 4.321454e+002
8.927343e+002, 4.390044e+002
8.932164e+002, 4.462704e+002
8.936985e+002, 4.534439e+002
8.941807e+002, 4.606110e+002
8.946628e+002, 4.681499e+002
8.951449e+002, 4.761674e+002
8.956270e+002, 4.838111e+002
8.961091e+002, 4.904348e+002
8.965912e+002, 4.969510e+002
8.970734e+002, 5.040582e+002
8.975555e+002, 5.117821e+002
8.980376e+002, 5.193285e+002
8.985197e+002, 5.267795e+002
8.990018e+002, 5.332540e+002
8.994839e+002, 5.377102e+002
8.999661e+002, 5.408709e+002
9.004482e+002, 5.441270e+002
9.009303e+002, 5.474225e+002
9.014124e+002, 5.499974e+002
9.018945e+002, 5.520490e+002
9.023766e+002, 5.527684e+002
9.028588e+002, 5.513288e+002
9.033409e+002, 5.481339e+002
9.038230e+002, 5.449221e+002
9.043051e+002, 5.419294e+002
9.047872e+002, 5.378266e+002
9.052693e+002, 5.320416e+002
9.057515e+002, 5.249510e+002
9.062336e+002, 5.169320e+002
9.067157e+002, 5.082019e+002
9.071978e+002, 4.993900e+002
9.076799e+002, 4.905267e+002
9.081620e+002, 4.819649e+002
9.086442e+002, 4.741126e+002
9.091263e+002, 4.665218e+002
9.096084e+002, 4.583439e+002
9.100905e+002, 4.492247e+002
9.105726e+002, 4.403825e+002
9.110547e+002, 4.317001e+002
9.115369e+002, 4.235398e+002
9.120190e+002, 4.164999e+002
9.125011e+002, 4.103256e+002
9.129832e+002, 4.042874e+002
9.134653e+002, 3.982437e+002
9.139474e+002, 3.924444e+002
9.144296e+002, 3.870009e+002
9.149117e+002, 3.818974e+002
9.153938e+002, 3.771855e+002
9.158759e+002, 3.729506e+002
9.163580e+002, 3.686102e+002
9.168401e+002, 3.640417e+002
9.173223e+002, 3.596557e+002
9.178044e+002, 3.556607e+002
9.182865e+002, 3.520956e+002
9.187686e+002, 3.490010e+002
9.192507e+002, 3.463672e+002
9.197328e+002, 3.440902e+002
9.202150e+002, 3.425442e+002
9.206971e+002, 3.409458e+002
9.211792e+002, 3.385421e+002
9.216613e+002, 3.354984e+002
9.221434e+002, 3.332262e+002
9.226255e+002, 3.320269e+002
9.231077e+002, 3.309342e+002
9.235898e+002, 3.296674e+002
9.240719e+002, 3.283411e+002
9.245540e+002, 3.271246e+002
9.250361e+002, 3.260395e+002
9.255182e+002, 3.252327e+002
9.260004e+002, 3.249423e+002
9.264825e+002, 3.246075e+002
9.269646e+002, 3.235330e+002
9.274467e+002, 3.222927e+002
9.279288e+002, 3.218181e+002
9.284109e+002, 3.226094e+002
9.288931e+002, 3.232203e+002
9.293752e+002, 3.236166e+002
9.298573e+002, 3.237456e+002
9.303394e+002, 3.234532e+002
9.308215e+002, 3.228432e+002
9.313036e+002, 3.222581e+002
9.317858e+002, 3.217395e+002
9.322679e+002, 3.212719e+002
9.327500e+002, 3.211260e+002
9.332321e+002, 3.208215e+002
9.337142e+002, 3.197981e+002
9.341964e+002, 3.178611e+002
9.346785e+002, 3.167478e+002
9.351606e+002, 3.168155e+002
9.356427e+002, 3.168684e+002
9.361248e+002, 3.163130e+002
9.366069e+002, 3.152529e+002
9.370891e+002, 3.139562e+002
9.375712e+002, 3.124593e+002
9.380533e+002, 3.110338e+002
9.385354e+002, 3.098638e+002
9.390175e+002, 3.087596e+002
9.394996e+002, 3.077935e+002
9.399818e+002, 3.067968e+002
9.404639e+002, 3.053398e+002
9.409460e+002, 3.033487e+002
9.414281e+002, 3.010491e+002
9.419102e+002, 2.983200e+002
9.423923e+002, 2.956306e+002
9.428745e+002, 2.939968e+002
9.433566e+002, 2.930237e+002
9.438387e+002, 2.915428e+002
9.443208e+002, 2.891427e+002
9.448029e+002, 2.867631e+002
9.452850e+002, 2.852807e+002
9.457672e+002, 2.838353e+002
9.462493e+002, 2.814433e+002
9.467314e+002, 2.776196e+002
9.472135e+002, 2.748991e+002
9.476956e+002, 2.735211e+002
9.481777e+002, 2.724513e+002
9.486599e+002, 2.710121e+002
9.491420e+002, 2.692858e+002
9.496241e+002, 2.673084e+002
9.501062e+002, 2.651544e+002
9.505883e+002, 2.633563e+002
9.510704e+002, 2.624400e+002
9.515526e+002, 2.617093e+002
9.520347e+002, 2.609465e+002
9.525168e+002, 2.600894e+002
9.529989e+002, 2.588779e+002
9.534810e+002, 2.572089e+002
9.539631e+002, 2.556576e+002
9.544453e+002, 2.543651e+002
9.549274e+002, 2.533163e+002
9.554095e+002, 2.526058e+002
9.558916e+002, 2.521077e+002
9.563737e+002, 2.515436e+002
9.568558e+002, 2.508557e+002
9.573380e+002, 2.500375e+002
9.578201e+002, 2.489375e+002
9.583022e+002, 2.478037e+002
9.587843e+002, 2.468641e+002
9.592664e+002, 2.461375e+002
9.597485e+002, 2.455467e+002
9.602307e+002, 2.451238e+002
9.607128e+002, 2.446017e+002
9.611949e+002, 2.434235e+002
9.616770e+002, 2.421617e+002
9.621591e+002, 2.417996e+002
9.626412e+002, 2.423369e+002
9.631234e+002, 2.426987e+002
9.636055e+002, 2.424826e+002
9.640876e+002, 2.420275e+002
9.645697e+002, 2.413542e+002
9.650518e+002, 2.405531e+002
9.655339e+002, 2.400513e+002
9.660161e+002, 2.398446e+002
9.664982e+002, 2.395983e+002
9.669803e+002, 2.391360e+002
9.674624e+002, 2.386521e+002
9.679445e+002, 2.384603e+002
9.684266e+002, 2.383780e+002
9.689088e+002, 2.381082e+002
9.693909e+002, 2.374212e+002
9.698730e+002, 2.367424e+002
9.703551e+002, 2.360621e+002
9.708372e+002, 2.354483e+002
9.713193e+002, 2.349519e+002
9.718015e+002, 2.345770e+002
9.722836e+002, 2.343717e+002
9.727657e+002, 2.343519e+002
9.732478e+002, 2.341975e+002
9.737299e+002, 2.333812e+002
9.742120e+002, 2.325326e+002
9.746942e+002, 2.322643e+002
9.751763e+002, 2.326265e+002
9.756584e+002, 2.327641e+002
9.761405e+002, 2.325861e+002
9.766226e+002, 2.322905e+002
9.771047e+002, 2.319086e+002
9.775869e+002, 2.314872e+002
9.780690e+002, 2.311450e+002
9.785511e+002, 2.308838e+002
9.790332e+002, 2.307125e+002
9.795153e+002, 2.307168e+002
9.799974e+002, 2.306836e+002
9.804796e+002, 2.304891e+002
9.809617e+002, 2.301886e+002
9.814438e+002, 2.298603e+002
9.819259e+002, 2.294836e+002
9.824080e+002, 2.291310e+002
9.828901e+002, 2.287910e+002
9.833723e+002, 2.285330e+002
9.838544e+002, 2.285135e+002
9.843365e+002, 2.285982e+002
9.848186e+002, 2.285557e+002
9.853007e+002, 2.283649e+002
9.857828e+002, 2.280352e+002
9.862650e+002, 2.272931e+002
9.867471e+002, 2.267113e+002
9.872292e+002, 2.265934e+002
9.877113e+002, 2.268391e+002
9.881934e+002, 2.269566e+002
9.886755e+002, 2.269438e+002
9.891577e+002, 2.267595e+002
9.896398e+002, 2.262546e+002
9.901219e+002, 2.257888e+002
9.906040e+002, 2.259511e+002
9.910861e+002, 2.264146e+002
9.915682e+002, 2.266260e+002
9.920504e+002, 2.261906e+002
9.925325e+002, 2.258543e+002
9.930146e+002, 2.256925e+002
9.934967e+002, 2.256221e+002
9.939788e+002, 2.256326e+002
9.944609e+002, 2.256931e+002
9.949431e+002, 2.254682e+002
9.954252e+002, 2.249424e+002
9.959073e+002, 2.244072e+002
9.963894e+002, 2.239585e+002
9.968715e+002, 2.236774e+002
9.973536e+002, 2.237388e+002
9.978358e+002, 2.240978e+002
9.983179e+002, 2.241664e+002
9.988000e+002, 2.238439e+002
9.992821e+002, 2.234326e+002
9.997642e+002, 2.229007e+002
1.000246e+003, 2.225005e+002
1.000728e+003, 2.229803e+002
1.001211e+003, 2.239988e+002
1.001693e+003, 2.246756e+002
1.002175e+003, 2.247340e+002
1.002657e+003, 2.244409e+002
1.003139e+003, 2.234762e+002
1.003621e+003, 2.225168e+002
1.004103e+003, 2.222412e+002
1.004585e+003, 2.228288e+002
1.005068e+003, 2.230374e+002
1.005550e+003, 2.228398e+002
1.006032e+003, 2.225215e+002
1.006514e+003, 2.222159e+002
1.006996e+003, 2.219616e+002
1.007478e+003, 2.218103e+002
1.007960e+003, 2.217520e+002
1.008442e+003, 2.217328e+002
1.008924e+003, 2.216515e+002
1.009407e+003, 2.217458e+002
1.009889e+003, 2.222125e+002
1.010371e+003, 2.227419e+002
1.010853e+003, 2.225850e+002
1.011335e+003, 2.218534e+002
1.011817e+003, 2.213044e+002
1.012299e+003, 2.211446e+002
1.012781e+003, 2.210624e+002
1.013263e+003, 2.207582e+002
1.013746e+003, 2.204658e+002
1.014228e+003, 2.204937e+002
1.014710e+003, 2.209989e+002
1.015192e+003, 2.209866e+002
1.015674e+003, 2.202479e+002
1.016156e+003, 2.196936e+002
1.016638e+003, 2.201876e+002
1.017120e+003, 2.210980e+002
1.017603e+003, 2.208759e+002
1.018085e+003, 2.198193e+002
1.018567e+003, 2.189937e+002
1.019049e+003, 2.190264e+002
1.019531e+003, 2.191576e+002
1.020013e+003, 2.189488e+002
1.020495e+003, 2.188305e+002
1.020977e+003, 2.197134e+002
1.021459e+003, 2.216373e+002
1.021942e+003, 2.225161e+002
1.022424e+003, 2.219981e+002
1.022906e+003, 2.211152e+002
1.023388e+003, 2.207787e+002
1.023870e+003, 2.205962e+002
1.024352e+003, 2.201186e+002
1.024834e+003, 2.192711e+002
1.025316e+003, 2.186984e+002
1.025799e+003, 2.185620e+002
1.026281e+003, 2.184462e+002
1.026763e+003, 2.181179e+002
1.027245e+003, 2.177654e+002
1.027727e+003, 2.180020e+002
1.028209e+003, 2.186439e+002
1.028691e+003, 2.190627e+002
1.029173e+003, 2.188736e+002
1.029656e+003, 2.186343e+002
1.030138e+003, 2.186189e+002
1.030620e+003, 2.186664e+002
1.031102e+003, 2.186095e+002
1.031584e+003, 2.184334e+002
1.032066e+003, 2.181348e+002
1.032548e+003, 2.176732e+002
1.033030e+003, 2.174316e+002
1.033512e+003, 2.179612e+002
1.033995e+003, 2.187326e+002
1.034477e+003, 2.191094e+002
1.034959e+003, 2.191153e+002
1.035441e+003, 2.191203e+002
1.035923e+003, 2.194198e+002
1.036405e+003, 2.193382e+002
1.036887e+003, 2.184880e+002
1.037369e+003, 2.174905e+002
1.037851e+003, 2.179066e+002
1.038334e+003, 2.192723e+002
1.038816e+003, 2.197521e+002
1.039298e+003, 2.187892e+002
1.039780e+003, 2.175792e+002
1.040262e+003, 2.163734e+002
1.040744e+003, 2.156022e+002
1.041226e+003, 2.157893e+002
1.041708e+003, 2.170115e+002
1.042191e+003, 2.174729e+002
1.042673e+003, 2.170950e+002
1.043155e+003, 2.166975e+002
1.043637e+003, 2.167155e+002
1.044119e+003, 2.169748e+002
1.044601e+003, 2.173140e+002
1.045083e+003, 2.176977e+002
1.045565e+003, 2.180324e+002
1.046047e+003, 2.185673e+002
1.046530e+003, 2.185926e+002
1.047012e+003, 2.178285e+002
1.047494e+003, 2.168800e+002
1.047976e+003, 2.164048e+002
1.048458e+003, 2.163335e+002
1.048940e+003, 2.164352e+002
1.049422e+003, 2.166821e+002
1.049904e+003, 2.168191e+002
1.050386e+003, 2.164108e+002
1.050869e+003, 2.160997e+002
1.051351e+003, 2.164222e+002
1.051833e+003, 2.171921e+002
1.052315e+003, 2.176503e+002
1.052797e+003, 2.177622e+002
1.053279e+003, 2.178258e+002
1.053761e+003, 2.179435e+002
1.054243e+003, 2.179883e+002
1.054726e+003, 2.177209e+002
1.055208e+003, 2.173127e+002
1.055690e+003, 2.170058e+002
1.056172e+003, 2.168789e+002
1.056654e+003, 2.167582e+002
1.057136e+003, 2.166002e+002
1.057618e+003, 2.164941e+002
1.058100e+003, 2.165550e+002
1.058583e+003, 2.167012e+002
1.059065e+003, 2.165711e+002
1.059547e+003, 2.162165e+002
1.060029e+003, 2.158727e+002
1.060511e+003, 2.155498e+002
1.060993e+003, 2.154008e+002
1.061475e+003, 2.156908e+002
1.061957e+003, 2.160940e+002
1.062439e+003, 2.160951e+002
1.062922e+003, 2.156089e+002
1.063404e+003, 2.155068e+002
1.063886e+003, 2.158751e+002
1.064368e+003, 2.164707e+002
1.064850e+003, 2.174547e+002
1.065332e+003, 2.182926e+002
1.065814e+003, 2.183231e+002
1.066296e+003, 2.175670e+002
1.066778e+003, 2.169067e+002
1.067261e+003, 2.164189e+002
1.067743e+003, 2.160196e+002
1.068225e+003, 2.156626e+002
1.068707e+003, 2.154184e+002
1.069189e+003, 2.155631e+002
1.069671e+003, 2.159064e+002
1.070153e+003, 2.159493e+002
1.070635e+003, 2.154468e+002
1.071118e+003, 2.151061e+002
1.071600e+003, 2.153255e+002
1.072082e+003, 2.157041e+002
1.072564e+003, 2.160842e+002
1.073046e+003, 2.164463e+002
1.073528e+003, 2.165573e+002
1.074010e+003, 2.164217e+002
1.074492e+003, 2.160568e+002
1.074974e+003, 2.150995e+002
1.075457e+003, 2.143464e+002
1.075939e+003, 2.147367e+002
1.076421e+003, 2.156142e+002
1.076903e+003, 2.157909e+002
1.077385e+003, 2.148067e+002
1.077867e+003, 2.144546e+002
1.078349e+003, 2.149505e+002
1.078831e+003, 2.154794e+002
1.079313e+003, 2.150371e+002
1.079796e+003, 2.142789e+002
1.080278e+003, 2.142918e+002
1.080760e+003, 2.150079e+002
1.081242e+003, 2.155847e+002
1.081724e+003, 2.157092e+002
1.082206e+003, 2.157097e+002
1.082688e+003, 2.155892e+002
1.083170e+003, 2.154500e+002
1.083652e+003, 2.155930e+002
1.084135e+003, 2.158941e+002
1.084617e+003, 2.157517e+002
1.085099e+003, 2.149606e+002
1.085581e+003, 2.144610e+002
1.086063e+003, 2.152803e+002
1.086545e+003, 2.161280e+002
1.087027e+003, 2.161123e+002
1.087509e+003, 2.153401e+002
1.087992e+003, 2.149644e+002
1.088474e+003, 2.149902e+002
1.088956e+003, 2.150140e+002
1.089438e+003, 2.148406e+002
1.089920e+003, 2.146524e+002
1.090402e+003, 2.145712e+002
1.090884e+003, 2.146095e+002
1.091366e+003, 2.148247e+002
1.091849e+003, 2.154382e+002
1.092331e+003, 2.155629e+002
1.092813e+003, 2.150298e+002
1.093295e+003, 2.145794e+002
1.093777e+003, 2.149723e+002
1.094259e+003, 2.157100e+002
1.094741e+003, 2.158009e+002
1.095223e+003, 2.153981e+002
1.095705e+003, 2.150779e+002
1.096188e+003, 2.150991e+002
1.096670e+003, 2.151638e+002
1.097152e+003, 2.152449e+002
1.097634e+003, 2.153089e+002
1.098116e+003, 2.152659e+002
1.098598e+003, 2.151597e+002
1.099080e+003, 2.152022e+002
1.099562e+003, 2.154121e+002
1.100044e+003, 2.157165e+002
1.100527e+003, 2.163156e+002
1.101009e+003, 2.167490e+002
1.101491e+003, 2.166365e+002
1.101973e+003, 2.161947e+002
1.102455e+003, 2.161534e+002
1.102937e+003, 2.165215e+002
1.103419e+003, 2.166514e+002
1.103901e+003, 2.163530e+002
1.104384e+003, 2.159078e+002
1.104866e+003, 2.153710e+002
1.105348e+003, 2.149704e+002
1.105830e+003, 2.150571e+002
1.106312e+003, 2.157639e+002
1.106794e+003, 2.158858e+002
1.107276e+003, 2.152336e+002
1.107758e+003, 2.147572e+002
1.108240e+003, 2.150083e+002
1.108723e+003, 2.155292e+002
1.109205e+003, 2.154792e+002
1.109687e+003, 2.151768e+002
1.110169e+003, 2.152671e+002
1.110651e+003, 2.165031e+002
1.111133e+003, 2.169978e+002
1.111615e+003, 2.162691e+002
1.112097e+003, 2.154499e+002
1.112579e+003, 2.155650e+002
1.113062e+003, 2.162838e+002
1.113544e+003, 2.164331e+002
1.114026e+003, 2.160904e+002
1.114508e+003, 2.156759e+002
1.114990e+003, 2.151545e+002
1.115472e+003, 2.149053e+002
1.115954e+003, 2.152224e+002
1.116436e+003, 2.157251e+002
1.116919e+003, 2.159972e+002
1.117401e+003, 2.160374e+002
1.117883e+003, 2.155939e+002
1.118365e+003, 2.146466e+002
1.118847e+003, 2.140164e+002
1.119329e+003, 2.146759e+002
1.119811e+003, 2.154927e+002
1.120293e+003, 2.156028e+002
1.120776e+003, 2.152456e+002
1.121258e+003, 2.153771e+002
1.121740e+003, 2.160799e+002
1.122222e+003, 2.163833e+002
1.122704e+003, 2.160033e+002
1.123186e+003, 2.155154e+002
1.123668e+003, 2.153897e+002
1.124150e+003, 2.155393e+002
1.124632e+003, 2.159746e+002
1.125115e+003, 2.167342e+002
1.125597e+003, 2.171418e+002
1.126079e+003, 2.171363e+002
1.126561e+003, 2.169590e+002
1.127043e+003, 2.166892e+002
1.127525e+003, 2.163202e+002
1.128007e+003, 2.156701e+002
1.128489e+003, 2.149701e+002
1.128971e+003, 2.146709e+002
1.129454e+003, 2.151456e+002
1.129936e+003, 2.152907e+002
1.130418e+003, 2.148288e+002
1.130900e+003, 2.143855e+002
1.131382e+003, 2.144263e+002
1.131864e+003, 2.147390e+002
1.132346e+003, 2.145640e+002
1.132828e+003, 2.140747e+002
1.133311e+003, 2.138449e+002
1.133793e+003, 2.143788e+002
1.134275e+003, 2.148509e+002
1.134757e+003, 2.149737e+002
1.135239e+003, 2.150635e+002
1.135721e+003, 2.155715e+002
1.136203e+003, 2.163774e+002
1.136685e+003, 2.162627e+002
1.137167e+003, 2.153045e+002
1.137650e+003, 2.147167e+002
1.138132e+003, 2.158451e+002
1.138614e+003, 2.168461e+002
1.139096e+003, 2.164574e+002
1.139578e+003, 2.155345e+002
1.140060e+003, 2.155454e+002
1.140542e+003, 2.165216e+002
1.141024e+003, 2.170313e+002
1.141506e+003, 2.169202e+002
1.141989e+003, 2.165139e+002
1.142471e+003, 2.158299e+002
1.142953e+003, 2.151683e+002
1.143435e+003, 2.147388e+002
1.143917e+003, 2.145418e+002
1.144399e+003, 2.144936e+002
1.144881e+003, 2.146149e+002
1.145363e+003, 2.147957e+002
1.145846e+003, 2.150634e+002
1.146328e+003, 2.151407e+002
1.146810e+003, 2.142691e+002
1.147292e+003, 2.133315e+002
1.147774e+003, 2.134126e+002
1.148256e+003, 2.147384e+002
1.148738e+003, 2.156282e+002
1.149220e+003, 2.160514e+002
1.149703e+003, 2.159836e+002
1.150185e+003, 2.152101e+002
1.150667e+003, 2.143492e+002
1.151149e+003, 2.143913e+002
1.151631e+003, 2.149428e+002
1.152113e+003, 2.154008e+002
1.152595e+003, 2.156457e+002
1.153077e+003, 2.157677e+002
1.153559e+003, 2.158148e+002
1.154042e+003, 2.156516e+002
1.154524e+003, 2.150204e+002
1.155006e+003, 2.142921e+002
1.155488e+003, 2.144673e+002
1.155970e+003, 2.152029e+002
1.156452e+003, 2.156565e+002
1.156934e+003, 2.153966e+002
1.157416e+003, 2.151341e+002
1.157898e+003, 2.150240e+002
1.158381e+003, 2.148485e+002
1.158863e+003, 2.142273e+002
1.159345e+003, 2.134130e+002
1.159827e+003, 2.136970e+002
1.160309e+003, 2.147803e+002
1.160791e+003, 2.154488e+002
1.161273e+003, 2.147132e+002
1.161755e+003, 2.140461e+002
1.162238e+003, 2.137712e+002
1.162720e+003, 2.137557e+002
1.163202e+003, 2.139342e+002
1.163684e+003, 2.142683e+002
1.164166e+003, 2.145912e+002
1.164648e+003, 2.148707e+002
1.165130e+003, 2.148914e+002
1.165612e+003, 2.139378e+002
1.166094e+003, 2.134020e+002
1.166577e+003, 2.143122e+002
1.167059e+003, 2.156942e+002
1.167541e+003, 2.158450e+002
1.168023e+003, 2.149057e+002
1.168505e+003, 2.148271e+002
1.168987e+003, 2.158181e+002
1.169469e+003, 2.165222e+002
1.169951e+003, 2.154328e+002
1.170433e+003, 2.143286e+002
1.170916e+003, 2.145208e+002
1.171398e+003, 2.154514e+002
1.171880e+003, 2.157259e+002
1.172362e+003, 2.153539e+002
1.172844e+003, 2.149210e+002
1.173326e+003, 2.145100e+002
1.173808e+003, 2.142565e+002
1.174290e+003, 2.143715e+002
1.174773e+003, 2.146086e+002
1.175255e+003, 2.147815e+002
1.175737e+003, 2.148999e+002
1.176219e+003, 2.150535e+002
1.176701e+003, 2.152454e+002
1.177183e+003, 2.154384e+002
1.177665e+003, 2.156402e+002
1.178147e+003, 2.157869e+002
1.178630e+003, 2.158214e+002
1.179112e+003, 2.157715e+002
1.179594e+003, 2.157105e+002
1.180076e+003, 2.156441e+002
1.180558e+003, 2.150754e+002
1.181040e+003, 2.138937e+002
1.181522e+003, 2.133181e+002
1.182004e+003, 2.140369e+002
1.182486e+003, 2.150670e+002
1.182969e+003, 2.154013e+002
1.183451e+003, 2.154003e+002
1.183933e+003, 2.155282e+002
1.184415e+003, 2.158935e+002
1.184897e+003, 2.159109e+002
1.185379e+003, 2.155226e+002
1.185861e+003, 2.151269e+002
1.186343e+003, 2.148708e+002
1.186825e+003, 2.147869e+002
1.187308e+003, 2.150110e+002
1.187790e+003, 2.153994e+002
1.188272e+003, 2.157342e+002
1.188754e+003, 2.160070e+002
1.189236e+003, 2.161751e+002
1.189718e+003, 2.162534e+002
1.190200e+003, 2.161499e+002
1.190682e+003, 2.155560e+002
1.191165e+003, 2.149561e+002
1.191647e+003, 2.151019e+002
1.192129e+003, 2.156907e+002
1.192611e+003, 2.161247e+002
1.193093e+003, 2.163969e+002
1.193575e+003, 2.162178e+002
1.194057e+003, 2.154653e+002
1.194539e+003, 2.147463e+002
1.195021e+003, 2.145875e+002
1.195504e+003, 2.147022e+002
1.195986e+003, 2.147000e+002
1.196468e+003, 2.146377e+002
1.196950e+003, 2.147078e+002
1.197432e+003, 2.149807e+002
1.197914e+003, 2.153040e+002
1.198396e+003, 2.156924e+002
1.198878e+003, 2.160358e+002
1.199360e+003, 2.162949e+002
1.199843e+003, 2.164002e+002
1.200325e+003, 2.160871e+002
1.200807e+003, 2.155004e+002
1.201289e+003, 2.152781e+002
1.201771e+003, 2.159064e+002
1.202253e+003, 2.159772e+002
1.202735e+003, 2.151738e+002
1.203217e+003, 2.143242e+002
1.203700e+003, 2.144557e+002
1.204182e+003, 2.150608e+002
1.204664e+003, 2.154438e+002
1.205146e+003, 2.155856e+002
1.205628e+003, 2.157365e+002
1.206110e+003, 2.160032e+002
1.206592e+003, 2.160889e+002
1.207074e+003, 2.158780e+002
1.207557e+003, 2.156567e+002
1.208039e+003, 2.159111e+002
1.208521e+003, 2.163100e+002
1.209003e+003, 2.162741e+002
1.209485e+003, 2.157963e+002
1.209967e+003, 2.156679e+002
1.210449e+003, 2.162338e+002
1.210931e+003, 2.165208e+002
1.211413e+003, 2.162722e+002
1.211896e+003, 2.158265e+002
1.212378e+003, 2.155313e+002
1.212860e+003, 2.153912e+002
1.213342e+003, 2.154511e+002
1.213824e+003, 2.157175e+002
1.214306e+003, 2.160073e+002
1.214788e+003, 2.163170e+002
1.215270e+003, 2.166314e+002
1.215752e+003, 2.170033e+002
1.216235e+003, 2.172411e+002
1.216717e+003, 2.171260e+002
1.217199e+003, 2.166729e+002
1.217681e+003, 2.156392e+002
1.218163e+003, 2.138992e+002
1.218645e+003, 2.134033e+002
1.219127e+003, 2.147274e+002
1.219609e+003, 2.158339e+002
1.220092e+003, 2.160654e+002
1.220574e+003, 2.158255e+002
1.221056e+003, 2.155147e+002
1.221538e+003, 2.152247e+002
1.222020e+003, 2.151303e+002
1.222502e+003, 2.153012e+002
1.222984e+003, 2.152292e+002
1.223466e+003, 2.147243e+002
1.223948e+003, 2.145869e+002
1.224431e+003, 2.152759e+002
1.224913e+003, 2.161234e+002
1.225395e+003, 2.160550e+002
1.225877e+003, 2.155716e+002
1.226359e+003, 2.153911e+002
1.226841e+003, 2.157258e+002
1.227323e+003, 2.158378e+002
1.227805e+003, 2.156373e+002
1.228287e+003, 2.155901e+002
1.228770e+003, 2.160090e+002
1.229252e+003, 2.164584e+002
1.229734e+003, 2.163603e+002
1.230216e+003, 2.159072e+002
1.230698e+003, 2.152547e+002
1.231180e+003, 2.142868e+002
1.231662e+003, 2.140226e+002
1.232144e+003, 2.145892e+002
1.232627e+003, 2.151281e+002
1.233109e+003, 2.152529e+002
1.233591e+003, 2.151599e+002
1.234073e+003, 2.151443e+002
1.234555e+003, 2.150341e+002
1.235037e+003, 2.144651e+002
1.235519e+003, 2.132318e+002
1.236001e+003, 2.128235e+002
1.236484e+003, 2.133368e+002
1.236966e+003, 2.138625e+002
1.237448e+003, 2.138940e+002
1.237930e+003, 2.138166e+002
1.238412e+003, 2.140748e+002
1.238894e+003, 2.144338e+002
1.239376e+003, 2.145397e+002
1.239858e+003, 2.143293e+002
1.240340e+003, 2.142439e+002
1.240823e+003, 2.142825e+002
1.241305e+003, 2.143831e+002
1.241787e+003, 2.144394e+002
1.242269e+003, 2.146384e+002
1.242751e+003, 2.153008e+002
1.243233e+003, 2.160990e+002
1.243715e+003, 2.166416e+002
1.244197e+003, 2.169219e+002
1.244679e+003, 2.169206e+002
1.245162e+003, 2.166418e+002
1.245644e+003, 2.162549e+002
1.246126e+003, 2.158647e+002
1.246608e+003, 2.153831e+002
1.247090e+003, 2.144265e+002
1.247572e+003, 2.135836e+002
1.248054e+003, 2.135732e+002
1.248536e+003, 2.144398e+002
1.249019e+003, 2.149793e+002
1.249501e+003, 2.152076e+002
1.249983e+003, 2.152695e+002
1.250465e+003, 2.150291e+002
1.250947e+003, 2.149112e+002
1.251429e+003, 2.152995e+002
1.251911e+003, 2.157824e+002
1.252393e+003, 2.160071e+002
1.252875e+003, 2.159737e+002
1.253358e+003, 2.155860e+002
1.253840e+003, 2.149325e+002
1.254322e+003, 2.146152e+002
1.254804e+003, 2.156474e+002
1.255286e+003, 2.161294e+002
1.255768e+003, 2.147548e+002
1.256250e+003, 2.132514e+002
1.256732e+003, 2.132272e+002
1.257214e+003, 2.143979e+002
1.257697e+003, 2.150275e+002
1.258179e+003, 2.152193e+002
1.258661e+003, 2.154627e+002
1.259143e+003, 2.163789e+002
1.259625e+003, 2.167596e+002
1.260107e+003, 2.161236e+002
1.260589e+003, 2.153683e+002
1.261071e+003, 2.153521e+002
1.261554e+003, 2.158024e+002
1.262036e+003, 2.157913e+002
1.262518e+003, 2.154623e+002
1.263000e+003, 2.153303e+002
1.263482e+003, 2.159415e+002
1.263964e+003, 2.161682e+002
1.264446e+003, 2.157908e+002
1.264928e+003, 2.153100e+002
1.265411e+003, 2.150629e+002
1.265893e+003, 2.150453e+002
1.266375e+003, 2.153786e+002
1.266857e+003, 2.159287e+002
1.267339e+003, 2.163373e+002
1.267821e+003, 2.165350e+002
1.268303e+003, 2.165188e+002
1.268785e+003, 2.162507e+002
1.269267e+003, 2.159343e+002
1.269750e+003, 2.156688e+002
1.270232e+003, 2.155026e+002
1.270714e+003, 2.155649e+002
1.271196e+003, 2.157624e+002
1.271678e+003, 2.158784e+002
1.272160e+003, 2.158895e+002
1.272642e+003, 2.158087e+002
1.273124e+003, 2.156189e+002
1.273606e+003, 2.154605e+002
1.274089e+003, 2.153935e+002
1.274571e+003, 2.154359e+002
1.275053e+003, 2.156458e+002
1.275535e+003, 2.159616e+002
1.276017e+003, 2.163347e+002
1.276499e+003, 2.168411e+002
1.276981e+003, 2.167510e+002
1.277463e+003, 2.160619e+002
1.277946e+003, 2.154201e+002
1.278428e+003, 2.151017e+002
1.278910e+003, 2.151393e+002
1.279392e+003, 2.159715e+002
1.279874e+003, 2.169033e+002
1.280356e+003, 2.170534e+002
1.280838e+003, 2.164453e+002
1.281320e+003, 2.161486e+002
1.281802e+003, 2.161500e+002
1.282285e+003, 2.161647e+002
1.282767e+003, 2.160488e+002
1.283249e+003, 2.158996e+002
1.283731e+003, 2.157231e+002
1.284213e+003, 2.155539e+002
1.284695e+003, 2.152898e+002
1.285177e+003, 2.150504e+002
1.285659e+003, 2.156389e+002
1.286141e+003, 2.168344e+002
1.286624e+003, 2.177088e+002
1.287106e+003, 2.177886e+002
1.287588e+003, 2.175652e+002
1.288070e+003, 2.170076e+002
1.288552e+003, 2.164355e+002
1.289034e+003, 2.160853e+002
1.289516e+003, 2.159322e+002
1.289998e+003, 2.158629e+002
1.290481e+003, 2.159485e+002
1.290963e+003, 2.163812e+002
1.291445e+003, 2.178046e+002
1.291927e+003, 2.184684e+002
1.292409e+003, 2.182500e+002
1.292891e+003, 2.177301e+002
1.293373e+003, 2.169914e+002
1.293855e+003, 2.164618e+002
1.294338e+003, 2.166217e+002
1.294820e+003, 2.174128e+002
1.295302e+003, 2.188781e+002
1.295784e+003, 2.213638e+002
1.296266e+003, 2.229524e+002
1.296748e+003, 2.236263e+002
1.297230e+003, 2.236933e+002
1.297712e+003, 2.228601e+002
1.298194e+003, 2.220499e+002
1.298677e+003, 2.224633e+002
1.299159e+003, 2.229820e+002
1.299641e+003, 2.221722e+002
1.300123e+003, 2.199865e+002
1.300605e+003, 2.181375e+002
1.301087e+003, 2.166405e+002
1.301569e+003, 2.156525e+002
1.302051e+003, 2.154805e+002
1.302533e+003, 2.154541e+002
1.303016e+003, 2.153705e+002
##END=



