##NAMES=Katayamalite
##RRUFFID=R120164
##IDEAL CHEMISTRY=KLi_3_Ca_7_Ti^4+^_2_(SiO_3_)_12_(OH)_2_
##LOCALITY=Iwagi Island, Inland Sea, Ehime Prefecture, Japan
##OWNER=RRUFF
##SOURCE=Donald Doell
##DESCRIPTION=Colorless platy crystals with a brilliant bluish white fluorescence (short wave), associated with albite, wollastonite, pectolite, and aegirine. Crystal used in Andrade et al (2013) study
##STATUS=The identification of this mineral is confirmed by single-crystal X-ray diffraction and chemical analysis.
##URL=rruff.info/R120164
##MEASURED CHEMISTRY=(K_0.89_Na_0.12_)Li_3.21_(Ca_6.87_Mn_0.04_Ba_0.02_)(Ti_1.79_Zr_0.14_Fe_0.04_Sn_0.02_)(SiO_3_)_12_(OH_1.55_F_0.45_)
8.975323e+001, 0.000000e+000
9.023535e+001, 4.962710e+002
9.071747e+001, 4.937943e+002
9.119958e+001, 4.910156e+002
9.168170e+001, 4.975581e+002
9.216382e+001, 5.012806e+002
9.264594e+001, 4.994677e+002
9.312805e+001, 4.938793e+002
9.361017e+001, 4.876046e+002
9.409229e+001, 4.826184e+002
9.457440e+001, 4.796724e+002
9.505651e+001, 4.765692e+002
9.553863e+001, 4.737750e+002
9.602074e+001, 4.710388e+002
9.650286e+001, 4.681880e+002
9.698498e+001, 4.648584e+002
9.746709e+001, 4.602025e+002
9.794921e+001, 4.552882e+002
9.843133e+001, 4.510260e+002
9.891344e+001, 4.457591e+002
9.939556e+001, 4.383483e+002
9.987768e+001, 4.293613e+002
1.003598e+002, 4.204755e+002
1.008419e+002, 4.124654e+002
1.013240e+002, 4.053936e+002
1.018061e+002, 3.989921e+002
1.022883e+002, 3.935443e+002
1.027704e+002, 3.884694e+002
1.032525e+002, 3.830602e+002
1.037346e+002, 3.770767e+002
1.042167e+002, 3.717323e+002
1.046988e+002, 3.683429e+002
1.051810e+002, 3.659675e+002
1.056631e+002, 3.632696e+002
1.061452e+002, 3.593056e+002
1.066273e+002, 3.544786e+002
1.071094e+002, 3.504943e+002
1.075915e+002, 3.478832e+002
1.080737e+002, 3.455145e+002
1.085558e+002, 3.429815e+002
1.090379e+002, 3.402792e+002
1.095200e+002, 3.374843e+002
1.100021e+002, 3.345607e+002
1.104842e+002, 3.313917e+002
1.109664e+002, 3.287895e+002
1.114485e+002, 3.273229e+002
1.119306e+002, 3.259091e+002
1.124127e+002, 3.240956e+002
1.128948e+002, 3.217993e+002
1.133769e+002, 3.191600e+002
1.138591e+002, 3.164322e+002
1.143412e+002, 3.139130e+002
1.148233e+002, 3.105721e+002
1.153054e+002, 3.054954e+002
1.157875e+002, 3.000302e+002
1.162696e+002, 2.953678e+002
1.167517e+002, 2.919043e+002
1.172339e+002, 2.895072e+002
1.177160e+002, 2.881346e+002
1.181981e+002, 2.880843e+002
1.186802e+002, 2.881230e+002
1.191623e+002, 2.879164e+002
1.196444e+002, 2.875276e+002
1.201266e+002, 2.871131e+002
1.206087e+002, 2.866823e+002
1.210908e+002, 2.863248e+002
1.215729e+002, 2.862460e+002
1.220550e+002, 2.867214e+002
1.225371e+002, 2.870029e+002
1.230193e+002, 2.862465e+002
1.235014e+002, 2.843155e+002
1.239835e+002, 2.824978e+002
1.244656e+002, 2.816217e+002
1.249477e+002, 2.811107e+002
1.254298e+002, 2.804566e+002
1.259120e+002, 2.794413e+002
1.263941e+002, 2.782558e+002
1.268762e+002, 2.773025e+002
1.273583e+002, 2.764917e+002
1.278404e+002, 2.761342e+002
1.283225e+002, 2.764713e+002
1.288047e+002, 2.771997e+002
1.292868e+002, 2.779259e+002
1.297689e+002, 2.784015e+002
1.302510e+002, 2.786464e+002
1.307331e+002, 2.789395e+002
1.312152e+002, 2.793488e+002
1.316974e+002, 2.797469e+002
1.321795e+002, 2.802554e+002
1.326616e+002, 2.807489e+002
1.331437e+002, 2.809324e+002
1.336258e+002, 2.804972e+002
1.341079e+002, 2.792823e+002
1.345901e+002, 2.785173e+002
1.350722e+002, 2.786774e+002
1.355543e+002, 2.788200e+002
1.360364e+002, 2.784187e+002
1.365185e+002, 2.774238e+002
1.370006e+002, 2.760986e+002
1.374828e+002, 2.747592e+002
1.379649e+002, 2.734382e+002
1.384470e+002, 2.717676e+002
1.389291e+002, 2.698404e+002
1.394112e+002, 2.675071e+002
1.398933e+002, 2.644326e+002
1.403755e+002, 2.604370e+002
1.408576e+002, 2.561659e+002
1.413397e+002, 2.523831e+002
1.418218e+002, 2.490292e+002
1.423039e+002, 2.460437e+002
1.427860e+002, 2.435554e+002
1.432681e+002, 2.414557e+002
1.437503e+002, 2.393221e+002
1.442324e+002, 2.369828e+002
1.447145e+002, 2.346908e+002
1.451966e+002, 2.326158e+002
1.456787e+002, 2.307656e+002
1.461608e+002, 2.290966e+002
1.466430e+002, 2.274963e+002
1.471251e+002, 2.259241e+002
1.476072e+002, 2.248006e+002
1.480893e+002, 2.246686e+002
1.485714e+002, 2.247296e+002
1.490535e+002, 2.246308e+002
1.495357e+002, 2.242840e+002
1.500178e+002, 2.237115e+002
1.504999e+002, 2.228782e+002
1.509820e+002, 2.214971e+002
1.514641e+002, 2.204883e+002
1.519462e+002, 2.199631e+002
1.524284e+002, 2.197402e+002
1.529105e+002, 2.196277e+002
1.533926e+002, 2.195626e+002
1.538747e+002, 2.196864e+002
1.543568e+002, 2.203638e+002
1.548389e+002, 2.220952e+002
1.553211e+002, 2.238479e+002
1.558032e+002, 2.257023e+002
1.562853e+002, 2.275137e+002
1.567674e+002, 2.291595e+002
1.572495e+002, 2.305942e+002
1.577316e+002, 2.317557e+002
1.582138e+002, 2.323220e+002
1.586959e+002, 2.323910e+002
1.591780e+002, 2.318778e+002
1.596601e+002, 2.304659e+002
1.601422e+002, 2.284234e+002
1.606243e+002, 2.263237e+002
1.611065e+002, 2.244678e+002
1.615886e+002, 2.228412e+002
1.620707e+002, 2.213390e+002
1.625528e+002, 2.198365e+002
1.630349e+002, 2.185589e+002
1.635170e+002, 2.177147e+002
1.639991e+002, 2.172720e+002
1.644813e+002, 2.169361e+002
1.649634e+002, 2.165200e+002
1.654455e+002, 2.160977e+002
1.659276e+002, 2.158336e+002
1.664097e+002, 2.158554e+002
1.668918e+002, 2.159534e+002
1.673740e+002, 2.159297e+002
1.678561e+002, 2.157961e+002
1.683382e+002, 2.154818e+002
1.688203e+002, 2.145466e+002
1.693024e+002, 2.134926e+002
1.697845e+002, 2.130095e+002
1.702667e+002, 2.135654e+002
1.707488e+002, 2.147294e+002
1.712309e+002, 2.155159e+002
1.717130e+002, 2.157951e+002
1.721951e+002, 2.159019e+002
1.726772e+002, 2.160859e+002
1.731594e+002, 2.162030e+002
1.736415e+002, 2.160388e+002
1.741236e+002, 2.154491e+002
1.746057e+002, 2.144802e+002
1.750878e+002, 2.133887e+002
1.755699e+002, 2.118111e+002
1.760521e+002, 2.105435e+002
1.765342e+002, 2.098288e+002
1.770163e+002, 2.095634e+002
1.774984e+002, 2.095770e+002
1.779805e+002, 2.097733e+002
1.784626e+002, 2.101547e+002
1.789448e+002, 2.104740e+002
1.794269e+002, 2.106210e+002
1.799090e+002, 2.108139e+002
1.803911e+002, 2.109051e+002
1.808732e+002, 2.110647e+002
1.813553e+002, 2.117163e+002
1.818375e+002, 2.133114e+002
1.823196e+002, 2.160189e+002
1.828017e+002, 2.179529e+002
1.832838e+002, 2.181176e+002
1.837659e+002, 2.185559e+002
1.842480e+002, 2.205619e+002
1.847301e+002, 2.239676e+002
1.852123e+002, 2.275392e+002
1.856944e+002, 2.301764e+002
1.861765e+002, 2.317342e+002
1.866586e+002, 2.329264e+002
1.871407e+002, 2.332872e+002
1.876228e+002, 2.336147e+002
1.881050e+002, 2.345645e+002
1.885871e+002, 2.361879e+002
1.890692e+002, 2.379846e+002
1.895513e+002, 2.394705e+002
1.900334e+002, 2.406500e+002
1.905155e+002, 2.419388e+002
1.909977e+002, 2.435269e+002
1.914798e+002, 2.451722e+002
1.919619e+002, 2.467116e+002
1.924440e+002, 2.481812e+002
1.929261e+002, 2.492692e+002
1.934082e+002, 2.496602e+002
1.938904e+002, 2.494513e+002
1.943725e+002, 2.486066e+002
1.948546e+002, 2.466820e+002
1.953367e+002, 2.441790e+002
1.958188e+002, 2.420877e+002
1.963009e+002, 2.405784e+002
1.967831e+002, 2.392931e+002
1.972652e+002, 2.377280e+002
1.977473e+002, 2.360972e+002
1.982294e+002, 2.350635e+002
1.987115e+002, 2.351103e+002
1.991936e+002, 2.360671e+002
1.996758e+002, 2.372133e+002
2.001579e+002, 2.385735e+002
2.006400e+002, 2.401005e+002
2.011221e+002, 2.417399e+002
2.016042e+002, 2.434914e+002
2.020863e+002, 2.453517e+002
2.025685e+002, 2.475097e+002
2.030506e+002, 2.499158e+002
2.035327e+002, 2.516123e+002
2.040148e+002, 2.520575e+002
2.044969e+002, 2.522712e+002
2.049790e+002, 2.526975e+002
2.054612e+002, 2.532224e+002
2.059433e+002, 2.535043e+002
2.064254e+002, 2.531816e+002
2.069075e+002, 2.522088e+002
2.073896e+002, 2.515114e+002
2.078717e+002, 2.504734e+002
2.083539e+002, 2.503139e+002
2.088360e+002, 2.516148e+002
2.093181e+002, 2.541968e+002
2.098002e+002, 2.575353e+002
2.102823e+002, 2.612406e+002
2.107644e+002, 2.653325e+002
2.112466e+002, 2.694285e+002
2.117287e+002, 2.730446e+002
2.122108e+002, 2.770910e+002
2.126929e+002, 2.820892e+002
2.131750e+002, 2.878996e+002
2.136571e+002, 2.941111e+002
2.141393e+002, 3.004333e+002
2.146214e+002, 3.070089e+002
2.151035e+002, 3.126195e+002
2.155856e+002, 3.180023e+002
2.160677e+002, 3.220713e+002
2.165498e+002, 3.243140e+002
2.170320e+002, 3.247351e+002
2.175141e+002, 3.236319e+002
2.179962e+002, 3.212227e+002
2.184783e+002, 3.173815e+002
2.189604e+002, 3.124415e+002
2.194425e+002, 3.060710e+002
2.199247e+002, 2.990069e+002
2.204068e+002, 2.913573e+002
2.208889e+002, 2.832680e+002
2.213710e+002, 2.753113e+002
2.218531e+002, 2.679296e+002
2.223352e+002, 2.612081e+002
2.228174e+002, 2.549647e+002
2.232995e+002, 2.490210e+002
2.237816e+002, 2.436570e+002
2.242637e+002, 2.391417e+002
2.247458e+002, 2.354677e+002
2.252279e+002, 2.324464e+002
2.257100e+002, 2.300971e+002
2.261922e+002, 2.283771e+002
2.266743e+002, 2.266264e+002
2.271564e+002, 2.242901e+002
2.276385e+002, 2.222344e+002
2.281206e+002, 2.216878e+002
2.286027e+002, 2.227619e+002
2.290849e+002, 2.235538e+002
2.295670e+002, 2.223614e+002
2.300491e+002, 2.197970e+002
2.305312e+002, 2.175785e+002
2.310133e+002, 2.162118e+002
2.314954e+002, 2.151903e+002
2.319776e+002, 2.138477e+002
2.324597e+002, 2.120984e+002
2.329418e+002, 2.106314e+002
2.334239e+002, 2.100608e+002
2.339060e+002, 2.100356e+002
2.343881e+002, 2.100661e+002
2.348703e+002, 2.099990e+002
2.353524e+002, 2.099629e+002
2.358345e+002, 2.100407e+002
2.363166e+002, 2.101527e+002
2.367987e+002, 2.107244e+002
2.372808e+002, 2.127117e+002
2.377630e+002, 2.150594e+002
2.382451e+002, 2.165026e+002
2.387272e+002, 2.163723e+002
2.392093e+002, 2.155799e+002
2.396914e+002, 2.156357e+002
2.401735e+002, 2.168240e+002
2.406557e+002, 2.179547e+002
2.411378e+002, 2.187056e+002
2.416199e+002, 2.191228e+002
2.421020e+002, 2.191030e+002
2.425841e+002, 2.185095e+002
2.430662e+002, 2.177825e+002
2.435484e+002, 2.177497e+002
2.440305e+002, 2.186980e+002
2.445126e+002, 2.195656e+002
2.449947e+002, 2.199643e+002
2.454768e+002, 2.202118e+002
2.459589e+002, 2.204814e+002
2.464410e+002, 2.208145e+002
2.469232e+002, 2.213982e+002
2.474053e+002, 2.225959e+002
2.478874e+002, 2.245652e+002
2.483695e+002, 2.268123e+002
2.488516e+002, 2.296509e+002
2.493337e+002, 2.324550e+002
2.498159e+002, 2.346585e+002
2.502980e+002, 2.361053e+002
2.507801e+002, 2.371863e+002
2.512622e+002, 2.386474e+002
2.517443e+002, 2.409177e+002
2.522264e+002, 2.425407e+002
2.527086e+002, 2.429712e+002
2.531907e+002, 2.430915e+002
2.536728e+002, 2.435510e+002
2.541549e+002, 2.445006e+002
2.546370e+002, 2.456138e+002
2.551191e+002, 2.463962e+002
2.556013e+002, 2.467104e+002
2.560834e+002, 2.469617e+002
2.565655e+002, 2.473526e+002
2.570476e+002, 2.475689e+002
2.575297e+002, 2.473719e+002
2.580118e+002, 2.467359e+002
2.584940e+002, 2.458378e+002
2.589761e+002, 2.449158e+002
2.594582e+002, 2.440285e+002
2.599403e+002, 2.429490e+002
2.604224e+002, 2.415835e+002
2.609045e+002, 2.401328e+002
2.613867e+002, 2.385986e+002
2.618688e+002, 2.370465e+002
2.623509e+002, 2.357178e+002
2.628330e+002, 2.349409e+002
2.633151e+002, 2.349972e+002
2.637972e+002, 2.345644e+002
2.642794e+002, 2.332344e+002
2.647615e+002, 2.318598e+002
2.652436e+002, 2.310445e+002
2.657257e+002, 2.307174e+002
2.662078e+002, 2.303116e+002
2.666899e+002, 2.292507e+002
2.671721e+002, 2.274169e+002
2.676542e+002, 2.256575e+002
2.681363e+002, 2.239669e+002
2.686184e+002, 2.223378e+002
2.691005e+002, 2.206839e+002
2.695826e+002, 2.190692e+002
2.700648e+002, 2.176910e+002
2.705469e+002, 2.167158e+002
2.710290e+002, 2.161590e+002
2.715111e+002, 2.157853e+002
2.719932e+002, 2.155230e+002
2.724753e+002, 2.154654e+002
2.729575e+002, 2.156589e+002
2.734396e+002, 2.160908e+002
2.739217e+002, 2.167739e+002
2.744038e+002, 2.177767e+002
2.748859e+002, 2.190432e+002
2.753680e+002, 2.198311e+002
2.758501e+002, 2.199452e+002
2.763322e+002, 2.199254e+002
2.768144e+002, 2.200789e+002
2.772965e+002, 2.202402e+002
2.777786e+002, 2.200169e+002
2.782607e+002, 2.191744e+002
2.787428e+002, 2.178214e+002
2.792249e+002, 2.163805e+002
2.797071e+002, 2.146308e+002
2.801892e+002, 2.130603e+002
2.806713e+002, 2.118079e+002
2.811534e+002, 2.108142e+002
2.816355e+002, 2.099717e+002
2.821176e+002, 2.092335e+002
2.825998e+002, 2.086254e+002
2.830819e+002, 2.082401e+002
2.835640e+002, 2.080137e+002
2.840461e+002, 2.080651e+002
2.845282e+002, 2.085998e+002
2.850103e+002, 2.093824e+002
2.854925e+002, 2.100070e+002
2.859746e+002, 2.103135e+002
2.864567e+002, 2.106074e+002
2.869388e+002, 2.114485e+002
2.874209e+002, 2.129356e+002
2.879030e+002, 2.145473e+002
2.883852e+002, 2.162223e+002
2.888673e+002, 2.179683e+002
2.893494e+002, 2.198151e+002
2.898315e+002, 2.217745e+002
2.903136e+002, 2.237393e+002
2.907957e+002, 2.256374e+002
2.912779e+002, 2.274787e+002
2.917600e+002, 2.290646e+002
2.922421e+002, 2.303742e+002
2.927242e+002, 2.314176e+002
2.932063e+002, 2.321353e+002
2.936884e+002, 2.325290e+002
2.941706e+002, 2.328220e+002
2.946527e+002, 2.332878e+002
2.951348e+002, 2.339049e+002
2.956169e+002, 2.340666e+002
2.960990e+002, 2.334682e+002
2.965811e+002, 2.326127e+002
2.970633e+002, 2.318987e+002
2.975454e+002, 2.313298e+002
2.980275e+002, 2.306497e+002
2.985096e+002, 2.296263e+002
2.989917e+002, 2.283270e+002
2.994738e+002, 2.272253e+002
2.999560e+002, 2.265719e+002
3.004381e+002, 2.258935e+002
3.009202e+002, 2.251191e+002
3.014023e+002, 2.241534e+002
3.018844e+002, 2.225263e+002
3.023665e+002, 2.198312e+002
3.028487e+002, 2.163846e+002
3.033308e+002, 2.131939e+002
3.038129e+002, 2.103734e+002
3.042950e+002, 2.075690e+002
3.047771e+002, 2.045712e+002
3.052592e+002, 2.014634e+002
3.057414e+002, 1.984852e+002
3.062235e+002, 1.957677e+002
3.067056e+002, 1.931509e+002
3.071877e+002, 1.902646e+002
3.076698e+002, 1.869487e+002
3.081519e+002, 1.839830e+002
3.086341e+002, 1.817087e+002
3.091162e+002, 1.799336e+002
3.095983e+002, 1.783914e+002
3.100804e+002, 1.770395e+002
3.105625e+002, 1.758299e+002
3.110446e+002, 1.747167e+002
3.115268e+002, 1.736837e+002
3.120089e+002, 1.728066e+002
3.124910e+002, 1.722256e+002
3.129731e+002, 1.717515e+002
3.134552e+002, 1.711743e+002
3.139373e+002, 1.704657e+002
3.144195e+002, 1.696427e+002
3.149016e+002, 1.686291e+002
3.153837e+002, 1.674540e+002
3.158658e+002, 1.665427e+002
3.163479e+002, 1.661248e+002
3.168300e+002, 1.658447e+002
3.173121e+002, 1.653568e+002
3.177943e+002, 1.646721e+002
3.182764e+002, 1.641246e+002
3.187585e+002, 1.639739e+002
3.192406e+002, 1.641523e+002
3.197227e+002, 1.642424e+002
3.202048e+002, 1.643831e+002
3.206870e+002, 1.643071e+002
3.211691e+002, 1.637321e+002
3.216512e+002, 1.627852e+002
3.221333e+002, 1.618976e+002
3.226154e+002, 1.612680e+002
3.230975e+002, 1.608310e+002
3.235797e+002, 1.604454e+002
3.240618e+002, 1.601609e+002
3.245439e+002, 1.598144e+002
3.250260e+002, 1.593519e+002
3.255081e+002, 1.587880e+002
3.259902e+002, 1.581032e+002
3.264724e+002, 1.572580e+002
3.269545e+002, 1.564095e+002
3.274366e+002, 1.558123e+002
3.279187e+002, 1.554762e+002
3.284008e+002, 1.552408e+002
3.288829e+002, 1.552076e+002
3.293651e+002, 1.552011e+002
3.298472e+002, 1.549997e+002
3.303293e+002, 1.545645e+002
3.308114e+002, 1.540312e+002
3.312935e+002, 1.534764e+002
3.317756e+002, 1.529001e+002
3.322578e+002, 1.525663e+002
3.327399e+002, 1.525690e+002
3.332220e+002, 1.527527e+002
3.337041e+002, 1.531051e+002
3.341862e+002, 1.535802e+002
3.346683e+002, 1.539537e+002
3.351505e+002, 1.540443e+002
3.356326e+002, 1.538934e+002
3.361147e+002, 1.538371e+002
3.365968e+002, 1.540244e+002
3.370789e+002, 1.541405e+002
3.375610e+002, 1.540022e+002
3.380432e+002, 1.536908e+002
3.385253e+002, 1.534010e+002
3.390074e+002, 1.532245e+002
3.394895e+002, 1.531223e+002
3.399716e+002, 1.529932e+002
3.404537e+002, 1.528337e+002
3.409359e+002, 1.526614e+002
3.414180e+002, 1.522954e+002
3.419001e+002, 1.519841e+002
3.423822e+002, 1.521434e+002
3.428643e+002, 1.528921e+002
3.433464e+002, 1.538334e+002
3.438286e+002, 1.544255e+002
3.443107e+002, 1.545431e+002
3.447928e+002, 1.546024e+002
3.452749e+002, 1.543126e+002
3.457570e+002, 1.541666e+002
3.462391e+002, 1.545986e+002
3.467213e+002, 1.556054e+002
3.472034e+002, 1.568775e+002
3.476855e+002, 1.581720e+002
3.481676e+002, 1.594997e+002
3.486497e+002, 1.606253e+002
3.491318e+002, 1.612600e+002
3.496140e+002, 1.620169e+002
3.500961e+002, 1.631850e+002
3.505782e+002, 1.646760e+002
3.510603e+002, 1.662731e+002
3.515424e+002, 1.678492e+002
3.520245e+002, 1.694179e+002
3.525067e+002, 1.710588e+002
3.529888e+002, 1.727117e+002
3.534709e+002, 1.745056e+002
3.539530e+002, 1.764160e+002
3.544351e+002, 1.784876e+002
3.549172e+002, 1.808130e+002
3.553994e+002, 1.834179e+002
3.558815e+002, 1.861983e+002
3.563636e+002, 1.890124e+002
3.568457e+002, 1.919268e+002
3.573278e+002, 1.947253e+002
3.578099e+002, 1.970147e+002
3.582920e+002, 1.994901e+002
3.587741e+002, 2.026773e+002
3.592563e+002, 2.065832e+002
3.597384e+002, 2.107638e+002
3.602205e+002, 2.147608e+002
3.607026e+002, 2.184817e+002
3.611847e+002, 2.229573e+002
3.616668e+002, 2.284312e+002
3.621490e+002, 2.343329e+002
3.626311e+002, 2.404905e+002
3.631132e+002, 2.469624e+002
3.635953e+002, 2.538115e+002
3.640774e+002, 2.611057e+002
3.645595e+002, 2.687685e+002
3.650417e+002, 2.764896e+002
3.655238e+002, 2.844247e+002
3.660059e+002, 2.921833e+002
3.664880e+002, 2.993741e+002
3.669701e+002, 3.065194e+002
3.674522e+002, 3.143020e+002
3.679344e+002, 3.228580e+002
3.684165e+002, 3.315592e+002
3.688986e+002, 3.393767e+002
3.693807e+002, 3.458629e+002
3.698628e+002, 3.526457e+002
3.703449e+002, 3.606515e+002
3.708271e+002, 3.682431e+002
3.713092e+002, 3.743368e+002
3.717913e+002, 3.790999e+002
3.722734e+002, 3.837225e+002
3.727555e+002, 3.892191e+002
3.732376e+002, 3.955526e+002
3.737198e+002, 4.018684e+002
3.742019e+002, 4.084299e+002
3.746840e+002, 4.146331e+002
3.751661e+002, 4.205826e+002
3.756482e+002, 4.260244e+002
3.761303e+002, 4.305960e+002
3.766125e+002, 4.342082e+002
3.770946e+002, 4.367222e+002
3.775767e+002, 4.377826e+002
3.780588e+002, 4.371918e+002
3.785409e+002, 4.356592e+002
3.790230e+002, 4.340892e+002
3.795052e+002, 4.312448e+002
3.799873e+002, 4.259308e+002
3.804694e+002, 4.179191e+002
3.809515e+002, 4.081529e+002
3.814336e+002, 3.971977e+002
3.819157e+002, 3.850576e+002
3.823979e+002, 3.729822e+002
3.828800e+002, 3.608250e+002
3.833621e+002, 3.491684e+002
3.838442e+002, 3.381064e+002
3.843263e+002, 3.277559e+002
3.848084e+002, 3.182162e+002
3.852906e+002, 3.095837e+002
3.857727e+002, 3.018921e+002
3.862548e+002, 2.952892e+002
3.867369e+002, 2.899653e+002
3.872190e+002, 2.851206e+002
3.877011e+002, 2.802465e+002
3.881833e+002, 2.755844e+002
3.886654e+002, 2.715724e+002
3.891475e+002, 2.685075e+002
3.896296e+002, 2.657190e+002
3.901117e+002, 2.625823e+002
3.905938e+002, 2.591507e+002
3.910760e+002, 2.558948e+002
3.915581e+002, 2.528456e+002
3.920402e+002, 2.502171e+002
3.925223e+002, 2.482221e+002
3.930044e+002, 2.468293e+002
3.934865e+002, 2.460202e+002
3.939687e+002, 2.461441e+002
3.944508e+002, 2.467384e+002
3.949329e+002, 2.471575e+002
3.954150e+002, 2.473293e+002
3.958971e+002, 2.471424e+002
3.963792e+002, 2.463492e+002
3.968614e+002, 2.450087e+002
3.973435e+002, 2.439366e+002
3.978256e+002, 2.435872e+002
3.983077e+002, 2.431346e+002
3.987898e+002, 2.421132e+002
3.992719e+002, 2.405389e+002
3.997540e+002, 2.384276e+002
4.002361e+002, 2.356642e+002
4.007183e+002, 2.325673e+002
4.012004e+002, 2.301555e+002
4.016825e+002, 2.289538e+002
4.021646e+002, 2.273999e+002
4.026467e+002, 2.245603e+002
4.031288e+002, 2.215302e+002
4.036110e+002, 2.197170e+002
4.040931e+002, 2.194056e+002
4.045752e+002, 2.196628e+002
4.050573e+002, 2.193716e+002
4.055394e+002, 2.183064e+002
4.060215e+002, 2.178878e+002
4.065037e+002, 2.180950e+002
4.069858e+002, 2.188708e+002
4.074679e+002, 2.202629e+002
4.079500e+002, 2.222048e+002
4.084321e+002, 2.246576e+002
4.089142e+002, 2.276878e+002
4.093964e+002, 2.310616e+002
4.098785e+002, 2.337514e+002
4.103606e+002, 2.352464e+002
4.108427e+002, 2.366522e+002
4.113248e+002, 2.383945e+002
4.118069e+002, 2.399113e+002
4.122891e+002, 2.407615e+002
4.127712e+002, 2.407949e+002
4.132533e+002, 2.399951e+002
4.137354e+002, 2.382356e+002
4.142175e+002, 2.352891e+002
4.146996e+002, 2.322506e+002
4.151818e+002, 2.296088e+002
4.156639e+002, 2.264194e+002
4.161460e+002, 2.220980e+002
4.166281e+002, 2.168925e+002
4.171102e+002, 2.114419e+002
4.175923e+002, 2.059774e+002
4.180745e+002, 2.006830e+002
4.185566e+002, 1.961611e+002
4.190387e+002, 1.927029e+002
4.195208e+002, 1.894403e+002
4.200029e+002, 1.860925e+002
4.204850e+002, 1.828320e+002
4.209672e+002, 1.798691e+002
4.214493e+002, 1.772617e+002
4.219314e+002, 1.748165e+002
4.224135e+002, 1.722236e+002
4.228956e+002, 1.695186e+002
4.233777e+002, 1.673599e+002
4.238599e+002, 1.660402e+002
4.243420e+002, 1.650476e+002
4.248241e+002, 1.640357e+002
4.253062e+002, 1.630027e+002
4.257883e+002, 1.619297e+002
4.262704e+002, 1.606654e+002
4.267526e+002, 1.594206e+002
4.272347e+002, 1.585236e+002
4.277168e+002, 1.579796e+002
4.281989e+002, 1.576365e+002
4.286810e+002, 1.574738e+002
4.291631e+002, 1.574469e+002
4.296453e+002, 1.574298e+002
4.301274e+002, 1.574132e+002
4.306095e+002, 1.574258e+002
4.310916e+002, 1.573939e+002
4.315737e+002, 1.574132e+002
4.320558e+002, 1.577607e+002
4.325380e+002, 1.585441e+002
4.330201e+002, 1.593579e+002
4.335022e+002, 1.596551e+002
4.339843e+002, 1.593286e+002
4.344664e+002, 1.593962e+002
4.349485e+002, 1.601105e+002
4.354307e+002, 1.610405e+002
4.359128e+002, 1.620320e+002
4.363949e+002, 1.630101e+002
4.368770e+002, 1.638117e+002
4.373591e+002, 1.643305e+002
4.378412e+002, 1.646239e+002
4.383234e+002, 1.649001e+002
4.388055e+002, 1.649608e+002
4.392876e+002, 1.652656e+002
4.397697e+002, 1.659137e+002
4.402518e+002, 1.667805e+002
4.407339e+002, 1.678138e+002
4.412160e+002, 1.689663e+002
4.416982e+002, 1.701118e+002
4.421803e+002, 1.710565e+002
4.426624e+002, 1.717272e+002
4.431445e+002, 1.727561e+002
4.436266e+002, 1.744435e+002
4.441087e+002, 1.761820e+002
4.445909e+002, 1.777357e+002
4.450730e+002, 1.792162e+002
4.455551e+002, 1.808212e+002
4.460372e+002, 1.826286e+002
4.465193e+002, 1.846646e+002
4.470014e+002, 1.870613e+002
4.474836e+002, 1.900042e+002
4.479657e+002, 1.927477e+002
4.484478e+002, 1.949700e+002
4.489299e+002, 1.971000e+002
4.494120e+002, 1.994808e+002
4.498941e+002, 2.020919e+002
4.503763e+002, 2.045646e+002
4.508584e+002, 2.066211e+002
4.513405e+002, 2.083066e+002
4.518226e+002, 2.097832e+002
4.523047e+002, 2.111083e+002
4.527868e+002, 2.120671e+002
4.532690e+002, 2.123785e+002
4.537511e+002, 2.122738e+002
4.542332e+002, 2.120782e+002
4.547153e+002, 2.120170e+002
4.551974e+002, 2.115686e+002
4.556795e+002, 2.101178e+002
4.561617e+002, 2.078579e+002
4.566438e+002, 2.055720e+002
4.571259e+002, 2.034303e+002
4.576080e+002, 2.014383e+002
4.580901e+002, 1.996487e+002
4.585722e+002, 1.980582e+002
4.590544e+002, 1.964709e+002
4.595365e+002, 1.948149e+002
4.600186e+002, 1.931838e+002
4.605007e+002, 1.917154e+002
4.609828e+002, 1.903753e+002
4.614649e+002, 1.889433e+002
4.619471e+002, 1.872449e+002
4.624292e+002, 1.853802e+002
4.629113e+002, 1.837262e+002
4.633934e+002, 1.825962e+002
4.638755e+002, 1.812529e+002
4.643576e+002, 1.794997e+002
4.648398e+002, 1.775401e+002
4.653219e+002, 1.755598e+002
4.658040e+002, 1.735989e+002
4.662861e+002, 1.716346e+002
4.667682e+002, 1.696134e+002
4.672503e+002, 1.674799e+002
4.677325e+002, 1.656715e+002
4.682146e+002, 1.644780e+002
4.686967e+002, 1.633034e+002
4.691788e+002, 1.619451e+002
4.696609e+002, 1.605211e+002
4.701430e+002, 1.592103e+002
4.706252e+002, 1.580872e+002
4.711073e+002, 1.571475e+002
4.715894e+002, 1.564283e+002
4.720715e+002, 1.559952e+002
4.725536e+002, 1.554954e+002
4.730357e+002, 1.546418e+002
4.735179e+002, 1.539258e+002
4.740000e+002, 1.536298e+002
4.744821e+002, 1.537299e+002
4.749642e+002, 1.540466e+002
4.754463e+002, 1.544592e+002
4.759284e+002, 1.550236e+002
4.764106e+002, 1.558319e+002
4.768927e+002, 1.568603e+002
4.773748e+002, 1.582727e+002
4.778569e+002, 1.602803e+002
4.783390e+002, 1.626747e+002
4.788211e+002, 1.650321e+002
4.793033e+002, 1.672286e+002
4.797854e+002, 1.697668e+002
4.802675e+002, 1.729889e+002
4.807496e+002, 1.767000e+002
4.812317e+002, 1.805222e+002
4.817138e+002, 1.843813e+002
4.821959e+002, 1.885307e+002
4.826780e+002, 1.932605e+002
4.831602e+002, 1.985714e+002
4.836423e+002, 2.039513e+002
4.841244e+002, 2.103150e+002
4.846065e+002, 2.157493e+002
4.850886e+002, 2.195212e+002
4.855707e+002, 2.218452e+002
4.860529e+002, 2.229822e+002
4.865350e+002, 2.230472e+002
4.870171e+002, 2.223918e+002
4.874992e+002, 2.216306e+002
4.879813e+002, 2.210465e+002
4.884634e+002, 2.195020e+002
4.889456e+002, 2.162050e+002
4.894277e+002, 2.128774e+002
4.899098e+002, 2.105433e+002
4.903919e+002, 2.088616e+002
4.908740e+002, 2.068735e+002
4.913561e+002, 2.039511e+002
4.918383e+002, 2.005178e+002
4.923204e+002, 1.977450e+002
4.928025e+002, 1.958056e+002
4.932846e+002, 1.940694e+002
4.937667e+002, 1.925560e+002
4.942488e+002, 1.911112e+002
4.947310e+002, 1.895540e+002
4.952131e+002, 1.879173e+002
4.956952e+002, 1.865021e+002
4.961773e+002, 1.858208e+002
4.966594e+002, 1.855051e+002
4.971415e+002, 1.844528e+002
4.976237e+002, 1.824942e+002
4.981058e+002, 1.804850e+002
4.985879e+002, 1.788155e+002
4.990700e+002, 1.774126e+002
4.995521e+002, 1.761475e+002
5.000342e+002, 1.750828e+002
5.005164e+002, 1.739749e+002
5.009985e+002, 1.726221e+002
5.014806e+002, 1.711581e+002
5.019627e+002, 1.698340e+002
5.024448e+002, 1.687065e+002
5.029269e+002, 1.675774e+002
5.034091e+002, 1.662654e+002
5.038912e+002, 1.647528e+002
5.043733e+002, 1.632044e+002
5.048554e+002, 1.611711e+002
5.053375e+002, 1.596030e+002
5.058196e+002, 1.591302e+002
5.063018e+002, 1.592506e+002
5.067839e+002, 1.592451e+002
5.072660e+002, 1.588481e+002
5.077481e+002, 1.582033e+002
5.082302e+002, 1.574474e+002
5.087123e+002, 1.563620e+002
5.091945e+002, 1.559565e+002
5.096766e+002, 1.569747e+002
5.101587e+002, 1.579307e+002
5.106408e+002, 1.582324e+002
5.111229e+002, 1.580621e+002
5.116050e+002, 1.578203e+002
5.120872e+002, 1.576900e+002
5.125693e+002, 1.576356e+002
5.130514e+002, 1.576137e+002
5.135335e+002, 1.576357e+002
5.140156e+002, 1.576002e+002
5.144977e+002, 1.574438e+002
5.149799e+002, 1.572629e+002
5.154620e+002, 1.572285e+002
5.159441e+002, 1.572885e+002
5.164262e+002, 1.571035e+002
5.169083e+002, 1.563904e+002
5.173904e+002, 1.554335e+002
5.178726e+002, 1.545050e+002
5.183547e+002, 1.536250e+002
5.188368e+002, 1.530147e+002
5.193189e+002, 1.529088e+002
5.198010e+002, 1.529794e+002
5.202831e+002, 1.524078e+002
5.207653e+002, 1.509400e+002
5.212474e+002, 1.497095e+002
5.217295e+002, 1.490422e+002
5.222116e+002, 1.485956e+002
5.226937e+002, 1.481291e+002
5.231758e+002, 1.476041e+002
5.236580e+002, 1.470075e+002
5.241401e+002, 1.463080e+002
5.246222e+002, 1.455668e+002
5.251043e+002, 1.451052e+002
5.255864e+002, 1.453340e+002
5.260685e+002, 1.452552e+002
5.265507e+002, 1.444815e+002
5.270328e+002, 1.435913e+002
5.275149e+002, 1.431083e+002
5.279970e+002, 1.430526e+002
5.284791e+002, 1.430288e+002
5.289612e+002, 1.426743e+002
5.294434e+002, 1.420486e+002
5.299255e+002, 1.414958e+002
5.304076e+002, 1.410113e+002
5.308897e+002, 1.406167e+002
5.313718e+002, 1.403108e+002
5.318539e+002, 1.401081e+002
5.323361e+002, 1.400508e+002
5.328182e+002, 1.401607e+002
5.333003e+002, 1.403137e+002
5.337824e+002, 1.404747e+002
5.342645e+002, 1.406128e+002
5.347466e+002, 1.406080e+002
5.352288e+002, 1.404280e+002
5.357109e+002, 1.403345e+002
5.361930e+002, 1.405206e+002
5.366751e+002, 1.409699e+002
5.371572e+002, 1.415156e+002
5.376393e+002, 1.421728e+002
5.381215e+002, 1.428991e+002
5.386036e+002, 1.437580e+002
5.390857e+002, 1.446476e+002
5.395678e+002, 1.453830e+002
5.400499e+002, 1.459529e+002
5.405320e+002, 1.466069e+002
5.410142e+002, 1.476438e+002
5.414963e+002, 1.490829e+002
5.419784e+002, 1.502313e+002
5.424604e+002, 1.508020e+002
5.429426e+002, 1.514014e+002
5.434247e+002, 1.522531e+002
5.439068e+002, 1.531438e+002
5.443889e+002, 1.537988e+002
5.448710e+002, 1.541533e+002
5.453531e+002, 1.544143e+002
5.458353e+002, 1.548129e+002
5.463174e+002, 1.553336e+002
5.467995e+002, 1.557521e+002
5.472816e+002, 1.559785e+002
5.477637e+002, 1.562662e+002
5.482458e+002, 1.568649e+002
5.487280e+002, 1.576103e+002
5.492101e+002, 1.581967e+002
5.496922e+002, 1.583757e+002
5.501743e+002, 1.588115e+002
5.506564e+002, 1.599887e+002
5.511385e+002, 1.617139e+002
5.516207e+002, 1.636373e+002
5.521028e+002, 1.656903e+002
5.525849e+002, 1.677910e+002
5.530670e+002, 1.697981e+002
5.535491e+002, 1.717205e+002
5.540313e+002, 1.741914e+002
5.545134e+002, 1.772203e+002
5.549955e+002, 1.806925e+002
5.554776e+002, 1.845699e+002
5.559597e+002, 1.888987e+002
5.564418e+002, 1.937011e+002
5.569240e+002, 1.989997e+002
5.574061e+002, 2.047035e+002
5.578882e+002, 2.106442e+002
5.583703e+002, 2.167529e+002
5.588524e+002, 2.240214e+002
5.593345e+002, 2.325060e+002
5.598167e+002, 2.421008e+002
5.602988e+002, 2.526307e+002
5.607809e+002, 2.641534e+002
5.612630e+002, 2.767853e+002
5.617451e+002, 2.905110e+002
5.622272e+002, 3.054702e+002
5.627094e+002, 3.219239e+002
5.631915e+002, 3.397158e+002
5.636736e+002, 3.583714e+002
5.641557e+002, 3.779659e+002
5.646378e+002, 3.982143e+002
5.651199e+002, 4.193501e+002
5.656021e+002, 4.409820e+002
5.660842e+002, 4.616398e+002
5.665663e+002, 4.830752e+002
5.670484e+002, 5.010818e+002
5.675305e+002, 5.148311e+002
5.680126e+002, 5.240688e+002
5.684948e+002, 5.285501e+002
5.689769e+002, 5.282369e+002
5.694590e+002, 5.232055e+002
5.699411e+002, 5.133481e+002
5.704232e+002, 4.987465e+002
5.709053e+002, 4.816609e+002
5.713875e+002, 4.604181e+002
5.718696e+002, 4.387021e+002
5.723517e+002, 4.163871e+002
5.728338e+002, 3.942216e+002
5.733159e+002, 3.725724e+002
5.737980e+002, 3.515549e+002
5.742802e+002, 3.318102e+002
5.747623e+002, 3.138525e+002
5.752444e+002, 2.975981e+002
5.757265e+002, 2.827707e+002
5.762086e+002, 2.694630e+002
5.766907e+002, 2.572413e+002
5.771729e+002, 2.460450e+002
5.776550e+002, 2.359495e+002
5.781371e+002, 2.270016e+002
5.786192e+002, 2.192972e+002
5.791013e+002, 2.123118e+002
5.795834e+002, 2.059903e+002
5.800656e+002, 2.002065e+002
5.805477e+002, 1.947879e+002
5.810298e+002, 1.897370e+002
5.815119e+002, 1.850741e+002
5.819940e+002, 1.808255e+002
5.824761e+002, 1.769508e+002
5.829583e+002, 1.732884e+002
5.834404e+002, 1.697764e+002
5.839225e+002, 1.665798e+002
5.844046e+002, 1.638895e+002
5.848867e+002, 1.613217e+002
5.853688e+002, 1.585589e+002
5.858510e+002, 1.556765e+002
5.863331e+002, 1.529796e+002
5.868152e+002, 1.506688e+002
5.872973e+002, 1.486473e+002
5.877794e+002, 1.467419e+002
5.882615e+002, 1.449572e+002
5.887437e+002, 1.432363e+002
5.892258e+002, 1.415472e+002
5.897079e+002, 1.399330e+002
5.901900e+002, 1.384705e+002
5.906721e+002, 1.371362e+002
5.911542e+002, 1.357910e+002
5.916364e+002, 1.343754e+002
5.921185e+002, 1.329537e+002
5.926006e+002, 1.315550e+002
5.930827e+002, 1.302085e+002
5.935648e+002, 1.290074e+002
5.940469e+002, 1.279979e+002
5.945291e+002, 1.270598e+002
5.950112e+002, 1.259951e+002
5.954933e+002, 1.247099e+002
5.959754e+002, 1.237354e+002
5.964575e+002, 1.233093e+002
5.969396e+002, 1.228831e+002
5.974218e+002, 1.222536e+002
5.979039e+002, 1.215052e+002
5.983860e+002, 1.207398e+002
5.988681e+002, 1.199964e+002
5.993502e+002, 1.193428e+002
5.998323e+002, 1.189046e+002
6.003145e+002, 1.186692e+002
6.007966e+002, 1.183360e+002
6.012787e+002, 1.178439e+002
6.017608e+002, 1.173574e+002
6.022429e+002, 1.169904e+002
6.027250e+002, 1.166824e+002
6.032072e+002, 1.163453e+002
6.036893e+002, 1.159456e+002
6.041714e+002, 1.155782e+002
6.046535e+002, 1.153865e+002
6.051356e+002, 1.152116e+002
6.056177e+002, 1.147874e+002
6.060999e+002, 1.141030e+002
6.065820e+002, 1.133515e+002
6.070641e+002, 1.126466e+002
6.075462e+002, 1.120194e+002
6.080283e+002, 1.116122e+002
6.085104e+002, 1.117083e+002
6.089926e+002, 1.116241e+002
6.094747e+002, 1.112243e+002
6.099568e+002, 1.107332e+002
6.104389e+002, 1.102382e+002
6.109210e+002, 1.097917e+002
6.114031e+002, 1.094980e+002
6.118853e+002, 1.094786e+002
6.123674e+002, 1.095600e+002
6.128495e+002, 1.093276e+002
6.133316e+002, 1.087446e+002
6.138137e+002, 1.082560e+002
6.142958e+002, 1.079123e+002
6.147780e+002, 1.077743e+002
6.152601e+002, 1.080866e+002
6.157422e+002, 1.087408e+002
6.162243e+002, 1.090219e+002
6.167064e+002, 1.085343e+002
6.171885e+002, 1.078800e+002
6.176707e+002, 1.073253e+002
6.181528e+002, 1.069041e+002
6.186349e+002, 1.067049e+002
6.191170e+002, 1.067466e+002
6.195991e+002, 1.068752e+002
6.200812e+002, 1.069113e+002
6.205634e+002, 1.068478e+002
6.210455e+002, 1.067990e+002
6.215276e+002, 1.068347e+002
6.220097e+002, 1.067954e+002
6.224918e+002, 1.066437e+002
6.229739e+002, 1.064057e+002
6.234561e+002, 1.060324e+002
6.239382e+002, 1.055445e+002
6.244203e+002, 1.051971e+002
6.249023e+002, 1.053675e+002
6.253845e+002, 1.058144e+002
6.258666e+002, 1.058294e+002
6.263487e+002, 1.053615e+002
6.268308e+002, 1.049055e+002
6.273129e+002, 1.046753e+002
6.277950e+002, 1.045966e+002
6.282772e+002, 1.045446e+002
6.287593e+002, 1.045235e+002
6.292414e+002, 1.045015e+002
6.297235e+002, 1.044273e+002
6.302056e+002, 1.043918e+002
6.306877e+002, 1.044765e+002
6.311699e+002, 1.046500e+002
6.316520e+002, 1.048685e+002
6.321341e+002, 1.051113e+002
6.326162e+002, 1.052790e+002
6.330983e+002, 1.051819e+002
6.335804e+002, 1.047722e+002
6.340626e+002, 1.043263e+002
6.345447e+002, 1.036938e+002
6.350268e+002, 1.032408e+002
6.355089e+002, 1.032461e+002
6.359910e+002, 1.034736e+002
6.364731e+002, 1.035499e+002
6.369553e+002, 1.033568e+002
6.374374e+002, 1.031469e+002
6.379195e+002, 1.031614e+002
6.384016e+002, 1.032645e+002
6.388837e+002, 1.031344e+002
6.393658e+002, 1.027481e+002
6.398480e+002, 1.024768e+002
6.403301e+002, 1.025997e+002
6.408122e+002, 1.029720e+002
6.412943e+002, 1.031108e+002
6.417764e+002, 1.028654e+002
6.422585e+002, 1.025903e+002
6.427407e+002, 1.021486e+002
6.432228e+002, 1.017983e+002
6.437049e+002, 1.017300e+002
6.441870e+002, 1.018905e+002
6.446691e+002, 1.021427e+002
6.451512e+002, 1.024384e+002
6.456334e+002, 1.026795e+002
6.461155e+002, 1.026416e+002
6.465976e+002, 1.023286e+002
6.470797e+002, 1.021864e+002
6.475618e+002, 1.023670e+002
6.480439e+002, 1.025466e+002
6.485261e+002, 1.024360e+002
6.490082e+002, 1.021256e+002
6.494903e+002, 1.018994e+002
6.499724e+002, 1.017952e+002
6.504545e+002, 1.017516e+002
6.509366e+002, 1.016683e+002
6.514188e+002, 1.016746e+002
6.519009e+002, 1.020219e+002
6.523830e+002, 1.026689e+002
6.528651e+002, 1.032528e+002
6.533472e+002, 1.034973e+002
6.538293e+002, 1.034870e+002
6.543115e+002, 1.035319e+002
6.547936e+002, 1.036358e+002
6.552757e+002, 1.037845e+002
6.557578e+002, 1.040353e+002
6.562399e+002, 1.042797e+002
6.567220e+002, 1.043318e+002
6.572042e+002, 1.043188e+002
6.576863e+002, 1.046400e+002
6.581684e+002, 1.056068e+002
6.586505e+002, 1.067044e+002
6.591326e+002, 1.074423e+002
6.596147e+002, 1.079213e+002
6.600969e+002, 1.084307e+002
6.605790e+002, 1.090316e+002
6.610611e+002, 1.096224e+002
6.615432e+002, 1.100656e+002
6.620253e+002, 1.104094e+002
6.625074e+002, 1.111617e+002
6.629896e+002, 1.126872e+002
6.634717e+002, 1.141462e+002
6.639538e+002, 1.154319e+002
6.644359e+002, 1.166599e+002
6.649180e+002, 1.179515e+002
6.654001e+002, 1.192834e+002
6.658823e+002, 1.205525e+002
6.663644e+002, 1.217631e+002
6.668465e+002, 1.227730e+002
6.673286e+002, 1.233247e+002
6.678107e+002, 1.234236e+002
6.682928e+002, 1.232356e+002
6.687750e+002, 1.227528e+002
6.692571e+002, 1.221048e+002
6.697392e+002, 1.214811e+002
6.702213e+002, 1.208253e+002
6.707034e+002, 1.197461e+002
6.711855e+002, 1.179052e+002
6.716677e+002, 1.160494e+002
6.721498e+002, 1.144827e+002
6.726319e+002, 1.129935e+002
6.731140e+002, 1.112036e+002
6.735961e+002, 1.091788e+002
6.740782e+002, 1.074599e+002
6.745604e+002, 1.065063e+002
6.750425e+002, 1.060671e+002
6.755246e+002, 1.053141e+002
6.760067e+002, 1.041863e+002
6.764888e+002, 1.029967e+002
6.769709e+002, 1.015911e+002
6.774531e+002, 1.003840e+002
6.779352e+002, 9.981272e+001
6.784173e+002, 9.971410e+001
6.788994e+002, 9.950674e+001
6.793815e+002, 9.891723e+001
6.798636e+002, 9.837086e+001
6.803458e+002, 9.815923e+001
6.808279e+002, 9.813687e+001
6.813100e+002, 9.808627e+001
6.817921e+002, 9.796606e+001
6.822742e+002, 9.782771e+001
6.827563e+002, 9.771162e+001
6.832385e+002, 9.761403e+001
6.837206e+002, 9.751216e+001
6.842027e+002, 9.738380e+001
6.846848e+002, 9.729871e+001
6.851669e+002, 9.732801e+001
6.856490e+002, 9.734798e+001
6.861312e+002, 9.719344e+001
6.866133e+002, 9.696497e+001
6.870954e+002, 9.697543e+001
6.875775e+002, 9.744627e+001
6.880596e+002, 9.800767e+001
6.885417e+002, 9.834647e+001
6.890239e+002, 9.852237e+001
6.895060e+002, 9.864560e+001
6.899881e+002, 9.874026e+001
6.904702e+002, 9.885766e+001
6.909523e+002, 9.903349e+001
6.914344e+002, 9.927017e+001
6.919166e+002, 9.957751e+001
6.923987e+002, 9.985477e+001
6.928808e+002, 1.003789e+002
6.933629e+002, 1.017135e+002
6.938450e+002, 1.027777e+002
6.943271e+002, 1.027681e+002
6.948093e+002, 1.019529e+002
6.952914e+002, 1.010920e+002
6.957735e+002, 1.004954e+002
6.962556e+002, 1.000375e+002
6.967377e+002, 9.960437e+001
6.972198e+002, 9.919373e+001
6.977020e+002, 9.878333e+001
6.981841e+002, 9.836989e+001
6.986662e+002, 9.798926e+001
6.991483e+002, 9.765911e+001
6.996304e+002, 9.738652e+001
7.001125e+002, 9.720644e+001
7.005947e+002, 9.729526e+001
7.010768e+002, 9.720515e+001
7.015589e+002, 9.675015e+001
7.020410e+002, 9.628381e+001
7.025231e+002, 9.605856e+001
7.030052e+002, 9.598847e+001
7.034874e+002, 9.587024e+001
7.039695e+002, 9.562405e+001
7.044516e+002, 9.525446e+001
7.049337e+002, 9.466472e+001
7.054158e+002, 9.393578e+001
7.058979e+002, 9.346890e+001
7.063801e+002, 9.331721e+001
7.068622e+002, 9.334574e+001
7.073442e+002, 9.356637e+001
7.078264e+002, 9.384758e+001
7.083085e+002, 9.383366e+001
7.087906e+002, 9.338677e+001
7.092727e+002, 9.301185e+001
7.097548e+002, 9.286128e+001
7.102369e+002, 9.267122e+001
7.107191e+002, 9.221890e+001
7.112012e+002, 9.163388e+001
7.116833e+002, 9.113452e+001
7.121654e+002, 9.080070e+001
7.126475e+002, 9.063132e+001
7.131296e+002, 9.068981e+001
7.136118e+002, 9.092685e+001
7.140939e+002, 9.107680e+001
7.145760e+002, 9.113209e+001
7.150581e+002, 9.109258e+001
7.155402e+002, 9.091151e+001
7.160223e+002, 9.068356e+001
7.165045e+002, 9.056091e+001
7.169866e+002, 9.054417e+001
7.174687e+002, 9.061140e+001
7.179508e+002, 9.088203e+001
7.184329e+002, 9.110741e+001
7.189150e+002, 9.112708e+001
7.193972e+002, 9.103818e+001
7.198793e+002, 9.096179e+001
7.203614e+002, 9.094063e+001
7.208435e+002, 9.099997e+001
7.213256e+002, 9.123510e+001
7.218077e+002, 9.155524e+001
7.222899e+002, 9.149917e+001
7.227720e+002, 9.098425e+001
7.232541e+002, 9.082281e+001
7.237362e+002, 9.147831e+001
7.242183e+002, 9.228028e+001
7.247004e+002, 9.237403e+001
7.251826e+002, 9.177674e+001
7.256647e+002, 9.137804e+001
7.261468e+002, 9.123485e+001
7.266289e+002, 9.128463e+001
7.271110e+002, 9.181905e+001
7.275931e+002, 9.235006e+001
7.280753e+002, 9.211031e+001
7.285574e+002, 9.119046e+001
7.290395e+002, 9.056327e+001
7.295216e+002, 9.104345e+001
7.300037e+002, 9.208984e+001
7.304858e+002, 9.240154e+001
7.309680e+002, 9.194813e+001
7.314501e+002, 9.161719e+001
7.319322e+002, 9.159924e+001
7.324143e+002, 9.168822e+001
7.328964e+002, 9.174191e+001
7.333785e+002, 9.176305e+001
7.338607e+002, 9.177087e+001
7.343428e+002, 9.168367e+001
7.348249e+002, 9.170791e+001
7.353070e+002, 9.205886e+001
7.357891e+002, 9.239776e+001
7.362712e+002, 9.239126e+001
7.367534e+002, 9.212446e+001
7.372355e+002, 9.188728e+001
7.377176e+002, 9.181789e+001
7.381997e+002, 9.187660e+001
7.386818e+002, 9.203662e+001
7.391639e+002, 9.228561e+001
7.396461e+002, 9.253535e+001
7.401282e+002, 9.280933e+001
7.406103e+002, 9.292993e+001
7.410924e+002, 9.273165e+001
7.415745e+002, 9.236399e+001
7.420566e+002, 9.218628e+001
7.425388e+002, 9.230879e+001
7.430209e+002, 9.222841e+001
7.435030e+002, 9.150672e+001
7.439851e+002, 9.098666e+001
7.444672e+002, 9.131102e+001
7.449493e+002, 9.205474e+001
7.454315e+002, 9.258158e+001
7.459136e+002, 9.269963e+001
7.463957e+002, 9.257471e+001
7.468778e+002, 9.223508e+001
7.473599e+002, 9.179817e+001
7.478420e+002, 9.168631e+001
7.483242e+002, 9.190901e+001
7.488063e+002, 9.201631e+001
7.492884e+002, 9.178590e+001
7.497705e+002, 9.157622e+001
7.502526e+002, 9.193894e+001
7.507347e+002, 9.293720e+001
7.512169e+002, 9.316234e+001
7.516990e+002, 9.184452e+001
7.521811e+002, 9.082122e+001
7.526632e+002, 9.059159e+001
7.531453e+002, 9.075309e+001
7.536274e+002, 9.109245e+001
7.541096e+002, 9.147542e+001
7.545917e+002, 9.163821e+001
7.550738e+002, 9.135759e+001
7.555559e+002, 9.094541e+001
7.560380e+002, 9.088823e+001
7.565201e+002, 9.109093e+001
7.570023e+002, 9.109562e+001
7.574844e+002, 9.081311e+001
7.579665e+002, 9.058601e+001
7.584486e+002, 9.068481e+001
7.589307e+002, 9.099429e+001
7.594128e+002, 9.112670e+001
7.598950e+002, 9.098254e+001
7.603771e+002, 9.083698e+001
7.608592e+002, 9.072362e+001
7.613413e+002, 9.057372e+001
7.618234e+002, 9.017788e+001
7.623055e+002, 8.978701e+001
7.627877e+002, 8.987081e+001
7.632698e+002, 9.057789e+001
7.637519e+002, 9.128303e+001
7.642340e+002, 9.145637e+001
7.647161e+002, 9.137037e+001
7.651982e+002, 9.153916e+001
7.656804e+002, 9.189261e+001
7.661625e+002, 9.187460e+001
7.666446e+002, 9.124729e+001
7.671267e+002, 9.049184e+001
7.676088e+002, 9.028001e+001
7.680909e+002, 9.064344e+001
7.685731e+002, 9.067564e+001
7.690552e+002, 9.012868e+001
7.695373e+002, 8.965331e+001
7.700194e+002, 8.938069e+001
7.705015e+002, 8.923599e+001
7.709836e+002, 8.918800e+001
7.714658e+002, 8.922448e+001
7.719479e+002, 8.931767e+001
7.724300e+002, 8.958665e+001
7.729121e+002, 8.973646e+001
7.733942e+002, 8.944588e+001
7.738763e+002, 8.895384e+001
7.743585e+002, 8.859718e+001
7.748406e+002, 8.843354e+001
7.753227e+002, 8.843336e+001
7.758048e+002, 8.859335e+001
7.762869e+002, 8.882720e+001
7.767690e+002, 8.893533e+001
7.772512e+002, 8.891090e+001
7.777333e+002, 8.878965e+001
7.782154e+002, 8.846086e+001
7.786975e+002, 8.824915e+001
7.791796e+002, 8.851399e+001
7.796617e+002, 8.892750e+001
7.801439e+002, 8.885946e+001
7.806260e+002, 8.813274e+001
7.811081e+002, 8.771970e+001
7.815902e+002, 8.822327e+001
7.820723e+002, 8.874252e+001
7.825544e+002, 8.860676e+001
7.830366e+002, 8.811753e+001
7.835187e+002, 8.781503e+001
7.840008e+002, 8.783736e+001
7.844829e+002, 8.796642e+001
7.849650e+002, 8.805064e+001
7.854471e+002, 8.805778e+001
7.859293e+002, 8.779185e+001
7.864114e+002, 8.724577e+001
7.868935e+002, 8.699798e+001
7.873756e+002, 8.723058e+001
7.878577e+002, 8.770018e+001
7.883398e+002, 8.829700e+001
7.888220e+002, 8.896225e+001
7.893040e+002, 8.917032e+001
7.897861e+002, 8.837833e+001
7.902682e+002, 8.793423e+001
7.907504e+002, 8.826770e+001
7.912325e+002, 8.867249e+001
7.917146e+002, 8.867155e+001
7.921967e+002, 8.838599e+001
7.926788e+002, 8.813527e+001
7.931609e+002, 8.803072e+001
7.936431e+002, 8.800677e+001
7.941252e+002, 8.796815e+001
7.946073e+002, 8.798602e+001
7.950894e+002, 8.827937e+001
7.955715e+002, 8.880173e+001
7.960536e+002, 8.919396e+001
7.965358e+002, 8.931182e+001
7.970179e+002, 8.919862e+001
7.975000e+002, 8.886312e+001
7.979821e+002, 8.828220e+001
7.984642e+002, 8.802241e+001
7.989464e+002, 8.828358e+001
7.994285e+002, 8.850169e+001
7.999106e+002, 8.853027e+001
8.003927e+002, 8.847169e+001
8.008748e+002, 8.837653e+001
8.013569e+002, 8.825426e+001
8.018391e+002, 8.813450e+001
8.023212e+002, 8.805117e+001
8.028033e+002, 8.793523e+001
8.032854e+002, 8.763855e+001
8.037675e+002, 8.736254e+001
8.042496e+002, 8.736179e+001
8.047318e+002, 8.761973e+001
8.052139e+002, 8.800841e+001
8.056960e+002, 8.846786e+001
8.061781e+002, 8.888033e+001
8.066602e+002, 8.903152e+001
8.071423e+002, 8.893923e+001
8.076245e+002, 8.883774e+001
8.081066e+002, 8.873772e+001
8.085887e+002, 8.860112e+001
8.090708e+002, 8.834123e+001
8.095529e+002, 8.813193e+001
8.100350e+002, 8.826639e+001
8.105172e+002, 8.881271e+001
8.109993e+002, 8.927042e+001
8.114814e+002, 8.979203e+001
8.119635e+002, 9.003274e+001
8.124456e+002, 8.960803e+001
8.129277e+002, 8.906821e+001
8.134099e+002, 8.897355e+001
8.138920e+002, 8.928733e+001
8.143741e+002, 8.958112e+001
8.148562e+002, 8.964922e+001
8.153383e+002, 8.960002e+001
8.158204e+002, 8.945068e+001
8.163026e+002, 8.929198e+001
8.167847e+002, 8.939474e+001
8.172668e+002, 8.975082e+001
8.177489e+002, 9.000784e+001
8.182310e+002, 8.995480e+001
8.187131e+002, 8.974543e+001
8.191953e+002, 8.967648e+001
8.196774e+002, 8.976943e+001
8.201595e+002, 8.988258e+001
8.206416e+002, 9.011339e+001
8.211237e+002, 9.017628e+001
8.216058e+002, 8.980358e+001
8.220880e+002, 8.932162e+001
8.225701e+002, 8.904149e+001
8.230522e+002, 8.896871e+001
8.235343e+002, 8.912913e+001
8.240164e+002, 8.992768e+001
8.244985e+002, 9.048135e+001
8.249807e+002, 9.009484e+001
8.254628e+002, 8.946641e+001
8.259449e+002, 8.948450e+001
8.264270e+002, 9.006762e+001
8.269091e+002, 9.045094e+001
8.273912e+002, 9.017018e+001
8.278734e+002, 8.968253e+001
8.283555e+002, 8.968187e+001
8.288376e+002, 9.003899e+001
8.293197e+002, 9.021214e+001
8.298018e+002, 9.015283e+001
8.302839e+002, 9.002277e+001
8.307661e+002, 8.989851e+001
8.312482e+002, 8.975045e+001
8.317303e+002, 8.950764e+001
8.322124e+002, 8.913463e+001
8.326945e+002, 8.893507e+001
8.331766e+002, 8.902911e+001
8.336588e+002, 8.912766e+001
8.341409e+002, 8.907508e+001
8.346230e+002, 8.907240e+001
8.351051e+002, 8.945645e+001
8.355872e+002, 9.008789e+001
8.360693e+002, 9.026356e+001
8.365515e+002, 8.941582e+001
8.370336e+002, 8.864040e+001
8.375157e+002, 8.854748e+001
8.379978e+002, 8.883682e+001
8.384799e+002, 8.927095e+001
8.389620e+002, 8.975537e+001
8.394442e+002, 9.016386e+001
8.399263e+002, 9.043661e+001
8.404084e+002, 9.061684e+001
8.408905e+002, 9.085766e+001
8.413726e+002, 9.108044e+001
8.418547e+002, 9.064625e+001
8.423369e+002, 8.948494e+001
8.428190e+002, 8.875545e+001
8.433011e+002, 8.896985e+001
8.437832e+002, 8.950919e+001
8.442653e+002, 8.965580e+001
8.447474e+002, 8.942262e+001
8.452296e+002, 8.936495e+001
8.457117e+002, 8.965968e+001
8.461938e+002, 8.987099e+001
8.466759e+002, 8.995488e+001
8.471580e+002, 8.995257e+001
8.476401e+002, 8.987222e+001
8.481223e+002, 8.972926e+001
8.486044e+002, 8.948227e+001
8.490865e+002, 8.901988e+001
8.495686e+002, 8.890889e+001
8.500507e+002, 8.991653e+001
8.505328e+002, 9.105602e+001
8.510150e+002, 9.120231e+001
8.514971e+002, 9.067240e+001
8.519792e+002, 9.035166e+001
8.524613e+002, 9.049638e+001
8.529434e+002, 9.068251e+001
8.534255e+002, 9.048389e+001
8.539077e+002, 9.001765e+001
8.543898e+002, 8.960467e+001
8.548719e+002, 8.924392e+001
8.553540e+002, 8.906946e+001
8.558361e+002, 8.911714e+001
8.563182e+002, 8.933113e+001
8.568004e+002, 8.972594e+001
8.572825e+002, 9.021364e+001
8.577646e+002, 9.051272e+001
8.582467e+002, 9.055805e+001
8.587288e+002, 9.054998e+001
8.592109e+002, 9.034064e+001
8.596931e+002, 9.025127e+001
8.601752e+002, 9.049661e+001
8.606573e+002, 9.086605e+001
8.611394e+002, 9.109452e+001
8.616215e+002, 9.115900e+001
8.621036e+002, 9.124777e+001
8.625858e+002, 9.155196e+001
8.630679e+002, 9.178393e+001
8.635500e+002, 9.161024e+001
8.640321e+002, 9.131544e+001
8.645142e+002, 9.133019e+001
8.649963e+002, 9.165450e+001
8.654785e+002, 9.200172e+001
8.659606e+002, 9.220730e+001
8.664427e+002, 9.233814e+001
8.669248e+002, 9.250528e+001
8.674069e+002, 9.268946e+001
8.678890e+002, 9.279227e+001
8.683712e+002, 9.280709e+001
8.688533e+002, 9.273486e+001
8.693354e+002, 9.255479e+001
8.698175e+002, 9.235657e+001
8.702996e+002, 9.225298e+001
8.707817e+002, 9.224360e+001
8.712639e+002, 9.234011e+001
8.717459e+002, 9.272277e+001
8.722280e+002, 9.289330e+001
8.727101e+002, 9.222890e+001
8.731923e+002, 9.183668e+001
8.736744e+002, 9.288984e+001
8.741565e+002, 9.466454e+001
8.746386e+002, 9.526218e+001
8.751207e+002, 9.386964e+001
8.756028e+002, 9.285762e+001
8.760850e+002, 9.346056e+001
8.765671e+002, 9.434668e+001
8.770492e+002, 9.464031e+001
8.775313e+002, 9.447563e+001
8.780134e+002, 9.406071e+001
8.784955e+002, 9.352544e+001
8.789777e+002, 9.323032e+001
8.794598e+002, 9.358347e+001
8.799419e+002, 9.418853e+001
8.804240e+002, 9.430287e+001
8.809061e+002, 9.410099e+001
8.813882e+002, 9.432159e+001
8.818704e+002, 9.505051e+001
8.823525e+002, 9.560036e+001
8.828346e+002, 9.550015e+001
8.833167e+002, 9.510794e+001
8.837988e+002, 9.518163e+001
8.842809e+002, 9.578349e+001
8.847631e+002, 9.641507e+001
8.852452e+002, 9.718237e+001
8.857273e+002, 9.771278e+001
8.862094e+002, 9.782573e+001
8.866915e+002, 9.769982e+001
8.871736e+002, 9.742139e+001
8.876558e+002, 9.701830e+001
8.881379e+002, 9.691068e+001
8.886200e+002, 9.728794e+001
8.891021e+002, 9.770924e+001
8.895842e+002, 9.810854e+001
8.900663e+002, 9.852107e+001
8.905485e+002, 9.899871e+001
8.910306e+002, 9.950056e+001
8.915127e+002, 9.993261e+001
8.919948e+002, 1.002693e+002
8.924769e+002, 1.006086e+002
8.929590e+002, 1.010304e+002
8.934412e+002, 1.014729e+002
8.939233e+002, 1.017838e+002
8.944054e+002, 1.020859e+002
8.948875e+002, 1.026520e+002
8.953696e+002, 1.035187e+002
8.958517e+002, 1.045170e+002
8.963339e+002, 1.055293e+002
8.968160e+002, 1.065500e+002
8.972981e+002, 1.075046e+002
8.977802e+002, 1.084198e+002
8.982623e+002, 1.096936e+002
8.987444e+002, 1.114007e+002
8.992266e+002, 1.129208e+002
8.997087e+002, 1.139291e+002
9.001908e+002, 1.147168e+002
9.006729e+002, 1.157529e+002
9.011550e+002, 1.170647e+002
9.016371e+002, 1.179900e+002
9.021193e+002, 1.184399e+002
9.026014e+002, 1.186698e+002
9.030835e+002, 1.185733e+002
9.035656e+002, 1.184180e+002
9.040477e+002, 1.186479e+002
9.045298e+002, 1.189339e+002
9.050120e+002, 1.183284e+002
9.054941e+002, 1.163222e+002
9.059762e+002, 1.146096e+002
9.064583e+002, 1.136831e+002
9.069404e+002, 1.130847e+002
9.074225e+002, 1.126943e+002
9.079047e+002, 1.123961e+002
9.083868e+002, 1.119494e+002
9.088689e+002, 1.113998e+002
9.093510e+002, 1.112234e+002
9.098331e+002, 1.118062e+002
9.103152e+002, 1.127131e+002
9.107974e+002, 1.135251e+002
9.112795e+002, 1.143379e+002
9.117616e+002, 1.154287e+002
9.122437e+002, 1.167218e+002
9.127258e+002, 1.178012e+002
9.132079e+002, 1.184688e+002
9.136901e+002, 1.188592e+002
9.141722e+002, 1.191922e+002
9.146543e+002, 1.194109e+002
9.151364e+002, 1.191830e+002
9.156185e+002, 1.184999e+002
9.161006e+002, 1.175280e+002
9.165828e+002, 1.162585e+002
9.170649e+002, 1.149033e+002
9.175470e+002, 1.136301e+002
9.180291e+002, 1.124020e+002
9.185112e+002, 1.110537e+002
9.189933e+002, 1.094041e+002
9.194755e+002, 1.080771e+002
9.199576e+002, 1.072098e+002
9.204397e+002, 1.064730e+002
9.209218e+002, 1.057325e+002
9.214039e+002, 1.050641e+002
9.218860e+002, 1.045695e+002
9.223682e+002, 1.042458e+002
9.228503e+002, 1.039814e+002
9.233324e+002, 1.037567e+002
9.238145e+002, 1.035959e+002
9.242966e+002, 1.034996e+002
9.247787e+002, 1.034760e+002
9.252609e+002, 1.033871e+002
9.257430e+002, 1.034131e+002
9.262251e+002, 1.039768e+002
9.267072e+002, 1.052139e+002
9.271893e+002, 1.065379e+002
9.276714e+002, 1.075301e+002
9.281536e+002, 1.084426e+002
9.286357e+002, 1.095978e+002
9.291178e+002, 1.108525e+002
9.295999e+002, 1.117846e+002
9.300820e+002, 1.124480e+002
9.305641e+002, 1.135286e+002
9.310463e+002, 1.155255e+002
9.315284e+002, 1.177908e+002
9.320105e+002, 1.191968e+002
9.324926e+002, 1.199742e+002
9.329747e+002, 1.211121e+002
9.334568e+002, 1.226398e+002
9.339390e+002, 1.241559e+002
9.344211e+002, 1.255158e+002
9.349032e+002, 1.266748e+002
9.353853e+002, 1.275715e+002
9.358674e+002, 1.282281e+002
9.363495e+002, 1.287062e+002
9.368317e+002, 1.288810e+002
9.373138e+002, 1.294705e+002
9.377959e+002, 1.307455e+002
9.382780e+002, 1.320124e+002
9.387601e+002, 1.328011e+002
9.392422e+002, 1.334365e+002
9.397244e+002, 1.345667e+002
9.402065e+002, 1.363355e+002
9.406886e+002, 1.377319e+002
9.411707e+002, 1.381106e+002
9.416528e+002, 1.390141e+002
9.421349e+002, 1.409248e+002
9.426171e+002, 1.432814e+002
9.430992e+002, 1.457664e+002
9.435813e+002, 1.483528e+002
9.440634e+002, 1.510029e+002
9.445455e+002, 1.536788e+002
9.450276e+002, 1.565547e+002
9.455098e+002, 1.598853e+002
9.459919e+002, 1.632524e+002
9.464740e+002, 1.662504e+002
9.469561e+002, 1.691540e+002
9.474382e+002, 1.724173e+002
9.479203e+002, 1.760119e+002
9.484025e+002, 1.794481e+002
9.488846e+002, 1.823002e+002
9.493667e+002, 1.853364e+002
9.498488e+002, 1.895705e+002
9.503309e+002, 1.943204e+002
9.508130e+002, 1.984625e+002
9.512952e+002, 2.021544e+002
9.517773e+002, 2.061355e+002
9.522594e+002, 2.106823e+002
9.527415e+002, 2.157996e+002
9.532236e+002, 2.216466e+002
9.537057e+002, 2.279207e+002
9.541878e+002, 2.339035e+002
9.546699e+002, 2.396468e+002
9.551520e+002, 2.456833e+002
9.556342e+002, 2.521140e+002
9.561163e+002, 2.577347e+002
9.565984e+002, 2.618549e+002
9.570805e+002, 2.652522e+002
9.575626e+002, 2.692004e+002
9.580447e+002, 2.737039e+002
9.585269e+002, 2.775901e+002
9.590090e+002, 2.812148e+002
9.594911e+002, 2.826059e+002
9.599732e+002, 2.807973e+002
9.604553e+002, 2.779356e+002
9.609374e+002, 2.757350e+002
9.614196e+002, 2.736043e+002
9.619017e+002, 2.697855e+002
9.623838e+002, 2.636066e+002
9.628659e+002, 2.578147e+002
9.633480e+002, 2.524261e+002
9.638301e+002, 2.474300e+002
9.643123e+002, 2.429663e+002
9.647944e+002, 2.387718e+002
9.652765e+002, 2.344318e+002
9.657586e+002, 2.301082e+002
9.662407e+002, 2.265838e+002
9.667228e+002, 2.243259e+002
9.672050e+002, 2.220891e+002
9.676871e+002, 2.192630e+002
9.681692e+002, 2.167612e+002
9.686513e+002, 2.149417e+002
9.691334e+002, 2.138670e+002
9.696155e+002, 2.137943e+002
9.700977e+002, 2.146118e+002
9.705798e+002, 2.154648e+002
9.710619e+002, 2.157150e+002
9.715440e+002, 2.163386e+002
9.720261e+002, 2.177746e+002
9.725082e+002, 2.200341e+002
9.729904e+002, 2.234096e+002
9.734725e+002, 2.275465e+002
9.739546e+002, 2.316889e+002
9.744367e+002, 2.356172e+002
9.749188e+002, 2.397529e+002
9.754009e+002, 2.444234e+002
9.758831e+002, 2.494526e+002
9.763652e+002, 2.549620e+002
9.768473e+002, 2.605244e+002
9.773294e+002, 2.653474e+002
9.778115e+002, 2.693394e+002
9.782936e+002, 2.726440e+002
9.787758e+002, 2.753495e+002
9.792579e+002, 2.771364e+002
9.797400e+002, 2.774684e+002
9.802221e+002, 2.766255e+002
9.807042e+002, 2.756446e+002
9.811863e+002, 2.744306e+002
9.816685e+002, 2.720033e+002
9.821506e+002, 2.681842e+002
9.826327e+002, 2.639532e+002
9.831148e+002, 2.599249e+002
9.835969e+002, 2.560469e+002
9.840790e+002, 2.522516e+002
9.845612e+002, 2.485476e+002
9.850433e+002, 2.446379e+002
9.855254e+002, 2.404288e+002
9.860075e+002, 2.365969e+002
9.864896e+002, 2.333357e+002
9.869717e+002, 2.304416e+002
9.874539e+002, 2.279188e+002
9.879360e+002, 2.254798e+002
9.884181e+002, 2.222097e+002
9.889002e+002, 2.180090e+002
9.893823e+002, 2.133553e+002
9.898644e+002, 2.081427e+002
9.903466e+002, 2.026517e+002
9.908287e+002, 1.967248e+002
9.913108e+002, 1.907817e+002
9.917929e+002, 1.851812e+002
9.922750e+002, 1.799019e+002
9.927571e+002, 1.748811e+002
9.932393e+002, 1.704089e+002
9.937214e+002, 1.656992e+002
9.942035e+002, 1.602195e+002
9.946856e+002, 1.550911e+002
9.951677e+002, 1.508006e+002
9.956498e+002, 1.470562e+002
9.961320e+002, 1.435493e+002
9.966141e+002, 1.402739e+002
9.970962e+002, 1.374209e+002
9.975783e+002, 1.350431e+002
9.980604e+002, 1.330777e+002
9.985425e+002, 1.317985e+002
9.990247e+002, 1.306342e+002
9.995068e+002, 1.293208e+002
9.999889e+002, 1.278589e+002
1.000471e+003, 1.262532e+002
1.000953e+003, 1.245254e+002
1.001435e+003, 1.228307e+002
1.001917e+003, 1.212391e+002
1.002399e+003, 1.196943e+002
1.002882e+003, 1.180885e+002
1.003364e+003, 1.165874e+002
1.003846e+003, 1.153017e+002
1.004328e+003, 1.142471e+002
1.004810e+003, 1.134535e+002
1.005292e+003, 1.129027e+002
1.005774e+003, 1.123784e+002
1.006256e+003, 1.116412e+002
1.006739e+003, 1.110089e+002
1.007221e+003, 1.109467e+002
1.007703e+003, 1.110745e+002
1.008185e+003, 1.106971e+002
1.008667e+003, 1.100220e+002
1.009149e+003, 1.098158e+002
1.009631e+003, 1.103300e+002
1.010113e+003, 1.111110e+002
1.010595e+003, 1.117800e+002
1.011078e+003, 1.124590e+002
1.011560e+003, 1.133261e+002
1.012042e+003, 1.143475e+002
1.012524e+003, 1.154749e+002
1.013006e+003, 1.166835e+002
1.013488e+003, 1.178688e+002
1.013970e+003, 1.189955e+002
1.014452e+003, 1.202875e+002
1.014935e+003, 1.221165e+002
1.015417e+003, 1.242045e+002
1.015899e+003, 1.259110e+002
1.016381e+003, 1.272532e+002
1.016863e+003, 1.282818e+002
1.017345e+003, 1.290015e+002
1.017827e+003, 1.294317e+002
1.018309e+003, 1.295892e+002
1.018791e+003, 1.293289e+002
1.019274e+003, 1.284265e+002
1.019756e+003, 1.269418e+002
1.020238e+003, 1.250081e+002
1.020720e+003, 1.226567e+002
1.021202e+003, 1.205643e+002
1.021684e+003, 1.188576e+002
1.022166e+003, 1.171877e+002
1.022648e+003, 1.153573e+002
1.023130e+003, 1.134211e+002
1.023613e+003, 1.113993e+002
1.024095e+003, 1.093167e+002
1.024577e+003, 1.076377e+002
1.025059e+003, 1.063697e+002
1.025541e+003, 1.055669e+002
1.026023e+003, 1.053529e+002
1.026505e+003, 1.050560e+002
1.026987e+003, 1.042009e+002
1.027469e+003, 1.031283e+002
1.027952e+003, 1.024938e+002
1.028434e+003, 1.023150e+002
1.028916e+003, 1.020598e+002
1.029398e+003, 1.018079e+002
1.029880e+003, 1.011416e+002
1.030362e+003, 9.977637e+001
1.030844e+003, 9.845856e+001
1.031326e+003, 9.764046e+001
1.031809e+003, 9.723107e+001
1.032291e+003, 9.709892e+001
1.032773e+003, 9.731100e+001
1.033255e+003, 9.722861e+001
1.033737e+003, 9.668121e+001
1.034219e+003, 9.622320e+001
1.034701e+003, 9.605733e+001
1.035183e+003, 9.584818e+001
1.035666e+003, 9.530431e+001
1.036148e+003, 9.461160e+001
1.036630e+003, 9.415171e+001
1.037112e+003, 9.393826e+001
1.037594e+003, 9.388624e+001
1.038076e+003, 9.421066e+001
1.038558e+003, 9.434600e+001
1.039040e+003, 9.403635e+001
1.039522e+003, 9.368147e+001
1.040005e+003, 9.352100e+001
1.040487e+003, 9.349912e+001
1.040969e+003, 9.351724e+001
1.041451e+003, 9.359476e+001
1.041933e+003, 9.360734e+001
1.042415e+003, 9.369651e+001
1.042897e+003, 9.351883e+001
1.043379e+003, 9.259667e+001
1.043861e+003, 9.180345e+001
1.044344e+003, 9.184325e+001
1.044826e+003, 9.236661e+001
1.045308e+003, 9.265679e+001
1.045790e+003, 9.261106e+001
1.046272e+003, 9.275228e+001
1.046754e+003, 9.335161e+001
1.047236e+003, 9.384727e+001
1.047718e+003, 9.425408e+001
1.048201e+003, 9.436378e+001
1.048683e+003, 9.380733e+001
1.049165e+003, 9.293946e+001
1.049647e+003, 9.244329e+001
1.050129e+003, 9.243363e+001
1.050611e+003, 9.233591e+001
1.051093e+003, 9.183987e+001
1.051575e+003, 9.151362e+001
1.052057e+003, 9.168845e+001
1.052540e+003, 9.193211e+001
1.053022e+003, 9.182030e+001
1.053504e+003, 9.159184e+001
1.053986e+003, 9.176226e+001
1.054468e+003, 9.241541e+001
1.054950e+003, 9.296162e+001
1.055432e+003, 9.323103e+001
1.055914e+003, 9.338934e+001
1.056396e+003, 9.353120e+001
1.056879e+003, 9.354656e+001
1.057361e+003, 9.316150e+001
1.057843e+003, 9.267200e+001
1.058325e+003, 9.265378e+001
1.058807e+003, 9.318139e+001
1.059289e+003, 9.356956e+001
1.059771e+003, 9.342387e+001
1.060253e+003, 9.333395e+001
1.060736e+003, 9.363459e+001
1.061218e+003, 9.396670e+001
1.061700e+003, 9.407600e+001
1.062182e+003, 9.401592e+001
1.062664e+003, 9.386569e+001
1.063146e+003, 9.365403e+001
1.063628e+003, 9.351656e+001
1.064110e+003, 9.349342e+001
1.064593e+003, 9.356538e+001
1.065075e+003, 9.376595e+001
1.065557e+003, 9.401778e+001
1.066039e+003, 9.430710e+001
1.066521e+003, 9.458508e+001
1.067003e+003, 9.480581e+001
1.067485e+003, 9.495171e+001
1.067967e+003, 9.497086e+001
1.068449e+003, 9.475515e+001
1.068932e+003, 9.456459e+001
1.069414e+003, 9.460075e+001
1.069896e+003, 9.461884e+001
1.070378e+003, 9.428623e+001
1.070860e+003, 9.390068e+001
1.071342e+003, 9.392162e+001
1.071824e+003, 9.436070e+001
1.072306e+003, 9.487612e+001
1.072788e+003, 9.549403e+001
1.073271e+003, 9.581997e+001
1.073753e+003, 9.550034e+001
1.074235e+003, 9.499802e+001
1.074717e+003, 9.449806e+001
1.075199e+003, 9.411540e+001
1.075681e+003, 9.402771e+001
1.076163e+003, 9.418594e+001
1.076645e+003, 9.429915e+001
1.077127e+003, 9.424913e+001
1.077610e+003, 9.420707e+001
1.078092e+003, 9.426978e+001
1.078574e+003, 9.434903e+001
1.079056e+003, 9.432014e+001
1.079538e+003, 9.431966e+001
1.080020e+003, 9.458820e+001
1.080502e+003, 9.504240e+001
1.080984e+003, 9.534356e+001
1.081467e+003, 9.537214e+001
1.081949e+003, 9.531992e+001
1.082431e+003, 9.523421e+001
1.082913e+003, 9.513892e+001
1.083395e+003, 9.500651e+001
1.083877e+003, 9.490483e+001
1.084359e+003, 9.496837e+001
1.084841e+003, 9.511472e+001
1.085323e+003, 9.506027e+001
1.085806e+003, 9.468964e+001
1.086288e+003, 9.454539e+001
1.086770e+003, 9.515606e+001
1.087252e+003, 9.567808e+001
1.087734e+003, 9.555277e+001
1.088216e+003, 9.524419e+001
1.088698e+003, 9.520724e+001
1.089180e+003, 9.533752e+001
1.089662e+003, 9.525007e+001
1.090145e+003, 9.486356e+001
1.090627e+003, 9.482085e+001
1.091109e+003, 9.572375e+001
1.091591e+003, 9.653904e+001
1.092073e+003, 9.679944e+001
1.092555e+003, 9.682687e+001
1.093037e+003, 9.674374e+001
1.093519e+003, 9.666801e+001
1.094002e+003, 9.677529e+001
1.094484e+003, 9.707691e+001
1.094966e+003, 9.736983e+001
1.095448e+003, 9.776659e+001
1.095930e+003, 9.788248e+001
1.096412e+003, 9.722825e+001
1.096894e+003, 9.664497e+001
1.097376e+003, 9.674041e+001
1.097859e+003, 9.718555e+001
1.098341e+003, 9.752053e+001
1.098823e+003, 9.772190e+001
1.099305e+003, 9.801385e+001
1.099787e+003, 9.844387e+001
1.100269e+003, 9.897610e+001
1.100751e+003, 9.987998e+001
1.101233e+003, 1.005499e+002
1.101715e+003, 1.003547e+002
1.102198e+003, 1.000333e+002
1.102680e+003, 1.005142e+002
1.103162e+003, 1.015811e+002
1.103644e+003, 1.021836e+002
1.104126e+003, 1.019157e+002
1.104608e+003, 1.020070e+002
1.105090e+003, 1.029445e+002
1.105572e+003, 1.039206e+002
1.106054e+003, 1.046577e+002
1.106537e+003, 1.053239e+002
1.107019e+003, 1.060884e+002
1.107501e+003, 1.068908e+002
1.107983e+003, 1.075695e+002
1.108465e+003, 1.081028e+002
1.108947e+003, 1.085787e+002
1.109429e+003, 1.089032e+002
1.109911e+003, 1.093153e+002
1.110394e+003, 1.099990e+002
1.110876e+003, 1.106357e+002
1.111358e+003, 1.109558e+002
1.111840e+003, 1.111441e+002
1.112322e+003, 1.115406e+002
1.112804e+003, 1.121653e+002
1.113286e+003, 1.126116e+002
1.113768e+003, 1.126648e+002
1.114250e+003, 1.129009e+002
1.114733e+003, 1.136664e+002
1.115215e+003, 1.141966e+002
1.115697e+003, 1.140717e+002
1.116179e+003, 1.136330e+002
1.116661e+003, 1.131345e+002
1.117143e+003, 1.126445e+002
1.117625e+003, 1.127074e+002
1.118107e+003, 1.137684e+002
1.118589e+003, 1.143046e+002
1.119072e+003, 1.140659e+002
1.119554e+003, 1.137750e+002
1.120036e+003, 1.136383e+002
1.120518e+003, 1.135616e+002
1.121000e+003, 1.135074e+002
1.121482e+003, 1.134177e+002
1.121964e+003, 1.130941e+002
1.122446e+003, 1.124635e+002
1.122929e+003, 1.120215e+002
1.123411e+003, 1.117332e+002
1.123893e+003, 1.117595e+002
1.124375e+003, 1.121712e+002
1.124857e+003, 1.128350e+002
1.125339e+003, 1.137771e+002
1.125821e+003, 1.146703e+002
1.126303e+003, 1.148779e+002
1.126786e+003, 1.144537e+002
1.127268e+003, 1.144273e+002
1.127750e+003, 1.148481e+002
1.128232e+003, 1.151782e+002
1.128714e+003, 1.153096e+002
1.129196e+003, 1.156068e+002
1.129678e+003, 1.162107e+002
1.130160e+003, 1.172065e+002
1.130642e+003, 1.187764e+002
1.131125e+003, 1.206882e+002
1.131607e+003, 1.220121e+002
1.132089e+003, 1.228012e+002
1.132571e+003, 1.239231e+002
1.133053e+003, 1.254445e+002
1.133535e+003, 1.276255e+002
1.134017e+003, 1.305446e+002
1.134499e+003, 1.333277e+002
1.134981e+003, 1.352770e+002
1.135464e+003, 1.367900e+002
1.135946e+003, 1.386128e+002
1.136428e+003, 1.406130e+002
1.136910e+003, 1.422153e+002
1.137392e+003, 1.435030e+002
1.137874e+003, 1.449706e+002
1.138356e+003, 1.466646e+002
1.138838e+003, 1.482816e+002
1.139321e+003, 1.496756e+002
1.139803e+003, 1.504836e+002
1.140285e+003, 1.500568e+002
1.140767e+003, 1.490152e+002
1.141249e+003, 1.487023e+002
1.141731e+003, 1.485835e+002
1.142213e+003, 1.473551e+002
1.142695e+003, 1.451682e+002
1.143177e+003, 1.429901e+002
1.143660e+003, 1.411173e+002
1.144142e+003, 1.391496e+002
1.144624e+003, 1.366905e+002
1.145106e+003, 1.342689e+002
1.145588e+003, 1.325170e+002
1.146070e+003, 1.310537e+002
1.146552e+003, 1.293002e+002
1.147034e+003, 1.275103e+002
1.147516e+003, 1.263306e+002
1.147999e+003, 1.256880e+002
1.148481e+003, 1.248011e+002
1.148963e+003, 1.232840e+002
1.149445e+003, 1.218174e+002
1.149927e+003, 1.207661e+002
1.150409e+003, 1.199889e+002
1.150891e+003, 1.195508e+002
1.151373e+003, 1.191940e+002
1.151856e+003, 1.186372e+002
1.152338e+003, 1.179369e+002
1.152820e+003, 1.172296e+002
1.153302e+003, 1.165459e+002
1.153784e+003, 1.161011e+002
1.154266e+003, 1.161034e+002
1.154748e+003, 1.161590e+002
1.155230e+003, 1.162067e+002
1.155713e+003, 1.161938e+002
1.156195e+003, 1.159974e+002
1.156677e+003, 1.157817e+002
1.157159e+003, 1.158423e+002
1.157641e+003, 1.161203e+002
1.158123e+003, 1.160995e+002
1.158605e+003, 1.154502e+002
1.159087e+003, 1.151089e+002
1.159569e+003, 1.153258e+002
1.160052e+003, 1.155969e+002
1.160534e+003, 1.159036e+002
1.161016e+003, 1.160895e+002
1.161498e+003, 1.159670e+002
1.161980e+003, 1.156816e+002
1.162462e+003, 1.155443e+002
1.162944e+003, 1.155628e+002
1.163426e+003, 1.156432e+002
1.163908e+003, 1.157862e+002
1.164391e+003, 1.160023e+002
1.164873e+003, 1.163399e+002
1.165355e+003, 1.165981e+002
1.165837e+003, 1.166535e+002
1.166319e+003, 1.166568e+002
1.166801e+003, 1.167729e+002
1.167283e+003, 1.169996e+002
1.167765e+003, 1.173444e+002
1.168247e+003, 1.178107e+002
1.168730e+003, 1.183417e+002
1.169212e+003, 1.189414e+002
1.169694e+003, 1.192612e+002
1.170176e+003, 1.191991e+002
1.170658e+003, 1.191115e+002
1.171140e+003, 1.192490e+002
1.171622e+003, 1.194571e+002
1.172104e+003, 1.194127e+002
1.172587e+003, 1.192638e+002
1.173069e+003, 1.195801e+002
1.173551e+003, 1.202332e+002
1.174033e+003, 1.207685e+002
1.174515e+003, 1.211277e+002
1.174997e+003, 1.213618e+002
1.175479e+003, 1.215023e+002
1.175961e+003, 1.216536e+002
1.176443e+003, 1.219081e+002
1.176926e+003, 1.222047e+002
1.177408e+003, 1.222955e+002
1.177890e+003, 1.225071e+002
1.178372e+003, 1.237284e+002
1.178854e+003, 1.252725e+002
1.179336e+003, 1.255282e+002
1.179818e+003, 1.246008e+002
1.180300e+003, 1.240863e+002
1.180782e+003, 1.246716e+002
1.181265e+003, 1.254880e+002
1.181747e+003, 1.262404e+002
1.182229e+003, 1.267698e+002
1.182711e+003, 1.268479e+002
1.183193e+003, 1.267615e+002
1.183675e+003, 1.267234e+002
1.184157e+003, 1.267563e+002
1.184639e+003, 1.268286e+002
1.185122e+003, 1.269435e+002
1.185604e+003, 1.272199e+002
1.186086e+003, 1.278610e+002
1.186568e+003, 1.283807e+002
1.187050e+003, 1.287055e+002
1.187532e+003, 1.288848e+002
1.188014e+003, 1.286813e+002
1.188496e+003, 1.285677e+002
1.188979e+003, 1.290482e+002
1.189461e+003, 1.299361e+002
1.189943e+003, 1.307041e+002
1.190425e+003, 1.313589e+002
1.190907e+003, 1.318358e+002
1.191389e+003, 1.320637e+002
1.191871e+003, 1.323171e+002
1.192353e+003, 1.326691e+002
1.192835e+003, 1.329359e+002
1.193318e+003, 1.329736e+002
1.193800e+003, 1.330404e+002
1.194282e+003, 1.334739e+002
1.194764e+003, 1.341721e+002
1.195246e+003, 1.347401e+002
1.195728e+003, 1.351809e+002
1.196210e+003, 1.355022e+002
1.196692e+003, 1.357203e+002
1.197174e+003, 1.362818e+002
1.197657e+003, 1.372660e+002
1.198139e+003, 1.379943e+002
1.198621e+003, 1.380222e+002
1.199103e+003, 1.379256e+002
1.199585e+003, 1.386567e+002
1.200067e+003, 1.396520e+002
1.200549e+003, 1.396009e+002
1.201031e+003, 1.390088e+002
1.201514e+003, 1.390026e+002
1.201996e+003, 1.395230e+002
1.202478e+003, 1.400871e+002
1.202960e+003, 1.405070e+002
1.203442e+003, 1.405805e+002
1.203924e+003, 1.400653e+002
1.204406e+003, 1.395556e+002
1.204888e+003, 1.394311e+002
1.205370e+003, 1.395757e+002
1.205853e+003, 1.400415e+002
1.206335e+003, 1.406122e+002
1.206817e+003, 1.410132e+002
1.207299e+003, 1.413098e+002
1.207781e+003, 1.418091e+002
1.208263e+003, 1.425989e+002
1.208745e+003, 1.430565e+002
1.209227e+003, 1.426115e+002
1.209709e+003, 1.424494e+002
1.210192e+003, 1.431423e+002
1.210674e+003, 1.437858e+002
1.211156e+003, 1.438333e+002
1.211638e+003, 1.436936e+002
1.212120e+003, 1.437484e+002
1.212602e+003, 1.439604e+002
1.213084e+003, 1.441739e+002
1.213566e+003, 1.443385e+002
1.214049e+003, 1.448241e+002
1.214531e+003, 1.458199e+002
1.215013e+003, 1.463265e+002
1.215495e+003, 1.460575e+002
1.215977e+003, 1.457987e+002
1.216459e+003, 1.460011e+002
1.216941e+003, 1.461934e+002
1.217423e+003, 1.457079e+002
1.217906e+003, 1.449076e+002
1.218388e+003, 1.450421e+002
1.218870e+003, 1.458952e+002
1.219352e+003, 1.463752e+002
1.219834e+003, 1.464895e+002
1.220316e+003, 1.466738e+002
1.220798e+003, 1.469848e+002
1.221280e+003, 1.470595e+002
1.221762e+003, 1.466965e+002
1.222245e+003, 1.461709e+002
1.222727e+003, 1.455605e+002
1.223209e+003, 1.451334e+002
1.223691e+003, 1.453624e+002
1.224173e+003, 1.458341e+002
1.224655e+003, 1.460386e+002
1.225137e+003, 1.460358e+002
1.225619e+003, 1.460555e+002
1.226101e+003, 1.461196e+002
1.226584e+003, 1.460607e+002
1.227066e+003, 1.457597e+002
1.227548e+003, 1.455199e+002
1.228030e+003, 1.454706e+002
1.228512e+003, 1.454736e+002
1.228994e+003, 1.456497e+002
1.229476e+003, 1.456823e+002
1.229958e+003, 1.450934e+002
1.230441e+003, 1.443122e+002
1.230923e+003, 1.441656e+002
1.231405e+003, 1.446275e+002
1.231887e+003, 1.447907e+002
1.232369e+003, 1.444758e+002
1.232851e+003, 1.444345e+002
1.233333e+003, 1.447974e+002
1.233815e+003, 1.450877e+002
1.234297e+003, 1.451746e+002
1.234780e+003, 1.450689e+002
1.235262e+003, 1.447429e+002
1.235744e+003, 1.443777e+002
1.236226e+003, 1.443294e+002
1.236708e+003, 1.444860e+002
1.237190e+003, 1.443218e+002
1.237672e+003, 1.439305e+002
1.238154e+003, 1.437524e+002
1.238636e+003, 1.437808e+002
1.239119e+003, 1.437651e+002
1.239601e+003, 1.436224e+002
1.240083e+003, 1.433468e+002
1.240565e+003, 1.429084e+002
1.241047e+003, 1.424765e+002
1.241529e+003, 1.421306e+002
1.242011e+003, 1.419579e+002
1.242493e+003, 1.421477e+002
1.242975e+003, 1.424783e+002
1.243458e+003, 1.426371e+002
1.243940e+003, 1.427298e+002
1.244422e+003, 1.431928e+002
1.244904e+003, 1.440229e+002
1.245386e+003, 1.442233e+002
1.245868e+003, 1.429651e+002
1.246350e+003, 1.421206e+002
1.246832e+003, 1.422724e+002
1.247315e+003, 1.425249e+002
1.247797e+003, 1.427116e+002
1.248279e+003, 1.427160e+002
1.248761e+003, 1.422865e+002
1.249243e+003, 1.417855e+002
1.249725e+003, 1.419021e+002
1.250207e+003, 1.425972e+002
1.250689e+003, 1.432903e+002
1.251172e+003, 1.440320e+002
1.251654e+003, 1.440689e+002
1.252136e+003, 1.433118e+002
1.252618e+003, 1.427796e+002
1.253100e+003, 1.427766e+002
1.253582e+003, 1.428439e+002
1.254064e+003, 1.426686e+002
1.254546e+003, 1.423879e+002
1.255028e+003, 1.421078e+002
1.255510e+003, 1.419214e+002
1.255993e+003, 1.419528e+002
1.256475e+003, 1.422394e+002
1.256957e+003, 1.430170e+002
1.257439e+003, 1.440614e+002
1.257921e+003, 1.449139e+002
1.258403e+003, 1.454417e+002
1.258885e+003, 1.456294e+002
1.259367e+003, 1.454128e+002
1.259850e+003, 1.450721e+002
1.260332e+003, 1.444718e+002
1.260814e+003, 1.441286e+002
1.261296e+003, 1.443691e+002
1.261778e+003, 1.448753e+002
1.262260e+003, 1.455752e+002
1.262742e+003, 1.462777e+002
1.263224e+003, 1.466790e+002
1.263707e+003, 1.468133e+002
1.264189e+003, 1.469301e+002
1.264671e+003, 1.469580e+002
1.265153e+003, 1.472576e+002
1.265635e+003, 1.479411e+002
1.266117e+003, 1.483514e+002
1.266599e+003, 1.482960e+002
1.267081e+003, 1.483159e+002
1.267563e+003, 1.487393e+002
1.268046e+003, 1.491141e+002
1.268528e+003, 1.488156e+002
1.269010e+003, 1.482450e+002
1.269492e+003, 1.483484e+002
1.269974e+003, 1.489141e+002
1.270456e+003, 1.495359e+002
1.270938e+003, 1.501126e+002
1.271420e+003, 1.504575e+002
1.271902e+003, 1.505769e+002
1.272385e+003, 1.505456e+002
1.272867e+003, 1.503914e+002
1.273349e+003, 1.505440e+002
1.273831e+003, 1.515957e+002
1.274313e+003, 1.525508e+002
1.274795e+003, 1.529844e+002
1.275277e+003, 1.530798e+002
1.275759e+003, 1.525164e+002
1.276242e+003, 1.520357e+002
1.276724e+003, 1.527393e+002
1.277206e+003, 1.541833e+002
1.277688e+003, 1.547929e+002
1.278170e+003, 1.544498e+002
1.278652e+003, 1.543226e+002
1.279134e+003, 1.543920e+002
1.279616e+003, 1.548338e+002
1.280099e+003, 1.558013e+002
1.280581e+003, 1.563694e+002
1.281063e+003, 1.561658e+002
1.281545e+003, 1.557690e+002
1.282027e+003, 1.555921e+002
1.282509e+003, 1.557394e+002
1.282991e+003, 1.567029e+002
1.283473e+003, 1.579489e+002
1.283955e+003, 1.583643e+002
##END=



