##NAMES=Katoptrite
##RRUFFID=R140009
##IDEAL CHEMISTRY=Mn^2+^_13_Al_4_Sb^5+^_2_O_20_(SiO_4_)_2_
##LOCALITY=Brattfors mine, Nordmark, Filipstad, VÃ¤rmland, Sweden
##OWNER=RRUFF
##SOURCE=Rock Currier
##DESCRIPTION=Tiny grains of thin black splinters or flakes
##STATUS=The identification of this mineral has been confirmed by single-crystal X-ray diffraction.
##URL=rruff.info/R140009
9.059570e+001, 6.187977e+002
9.107782e+001, 6.176659e+002
9.155994e+001, 6.172936e+002
9.204205e+001, 6.186232e+002
9.252417e+001, 6.200534e+002
9.300629e+001, 6.207059e+002
9.348840e+001, 6.172966e+002
9.397052e+001, 6.067831e+002
9.445264e+001, 5.894256e+002
9.493475e+001, 5.738458e+002
9.541687e+001, 5.592454e+002
9.589898e+001, 5.463062e+002
9.638110e+001, 5.343696e+002
9.686321e+001, 5.227855e+002
9.734533e+001, 5.108941e+002
9.782745e+001, 4.979958e+002
9.830956e+001, 4.865341e+002
9.879168e+001, 4.768451e+002
9.927380e+001, 4.677895e+002
9.975591e+001, 4.587773e+002
1.002380e+002, 4.499391e+002
1.007201e+002, 4.419902e+002
1.012023e+002, 4.355453e+002
1.016844e+002, 4.302445e+002
1.021665e+002, 4.244541e+002
1.026486e+002, 4.173149e+002
1.031307e+002, 4.101466e+002
1.036128e+002, 4.041545e+002
1.040950e+002, 3.993375e+002
1.045771e+002, 3.953111e+002
1.050592e+002, 3.920353e+002
1.055413e+002, 3.892032e+002
1.060234e+002, 3.864503e+002
1.065055e+002, 3.833925e+002
1.069877e+002, 3.802195e+002
1.074698e+002, 3.778522e+002
1.079519e+002, 3.772546e+002
1.084340e+002, 3.762250e+002
1.089161e+002, 3.737789e+002
1.093982e+002, 3.701649e+002
1.098804e+002, 3.660803e+002
1.103625e+002, 3.619875e+002
1.108446e+002, 3.577844e+002
1.113267e+002, 3.541952e+002
1.118088e+002, 3.509718e+002
1.122909e+002, 3.484570e+002
1.127731e+002, 3.470475e+002
1.132552e+002, 3.466906e+002
1.137373e+002, 3.468618e+002
1.142194e+002, 3.468006e+002
1.147015e+002, 3.460558e+002
1.151836e+002, 3.459508e+002
1.156658e+002, 3.474148e+002
1.161479e+002, 3.490737e+002
1.166300e+002, 3.495916e+002
1.171121e+002, 3.484831e+002
1.175942e+002, 3.461722e+002
1.180763e+002, 3.434972e+002
1.185584e+002, 3.404037e+002
1.190406e+002, 3.371724e+002
1.195227e+002, 3.339931e+002
1.200048e+002, 3.307611e+002
1.204869e+002, 3.271108e+002
1.209690e+002, 3.227386e+002
1.214511e+002, 3.179478e+002
1.219333e+002, 3.133158e+002
1.224154e+002, 3.086276e+002
1.228975e+002, 3.044510e+002
1.233796e+002, 3.016270e+002
1.238617e+002, 3.003241e+002
1.243438e+002, 2.988609e+002
1.248260e+002, 2.964836e+002
1.253081e+002, 2.935168e+002
1.257902e+002, 2.900250e+002
1.262723e+002, 2.858436e+002
1.267544e+002, 2.814189e+002
1.272365e+002, 2.778192e+002
1.277187e+002, 2.753291e+002
1.282008e+002, 2.732729e+002
1.286829e+002, 2.714298e+002
1.291650e+002, 2.697988e+002
1.296471e+002, 2.684330e+002
1.301292e+002, 2.674168e+002
1.306114e+002, 2.667100e+002
1.310935e+002, 2.657032e+002
1.315756e+002, 2.639996e+002
1.320577e+002, 2.623564e+002
1.325398e+002, 2.610791e+002
1.330219e+002, 2.600395e+002
1.335041e+002, 2.589102e+002
1.339862e+002, 2.573941e+002
1.344683e+002, 2.554214e+002
1.349504e+002, 2.534240e+002
1.354325e+002, 2.512583e+002
1.359146e+002, 2.491786e+002
1.363968e+002, 2.473613e+002
1.368789e+002, 2.458122e+002
1.373610e+002, 2.443790e+002
1.378431e+002, 2.428601e+002
1.383252e+002, 2.411678e+002
1.388073e+002, 2.399665e+002
1.392895e+002, 2.397028e+002
1.397716e+002, 2.397852e+002
1.402537e+002, 2.395829e+002
1.407358e+002, 2.389819e+002
1.412179e+002, 2.380013e+002
1.417000e+002, 2.364687e+002
1.421821e+002, 2.344370e+002
1.426643e+002, 2.325477e+002
1.431464e+002, 2.311030e+002
1.436285e+002, 2.300224e+002
1.441106e+002, 2.289889e+002
1.445927e+002, 2.278568e+002
1.450748e+002, 2.268723e+002
1.455570e+002, 2.263126e+002
1.460391e+002, 2.261749e+002
1.465212e+002, 2.260112e+002
1.470033e+002, 2.252859e+002
1.474854e+002, 2.238973e+002
1.479675e+002, 2.229342e+002
1.484497e+002, 2.231780e+002
1.489318e+002, 2.235514e+002
1.494139e+002, 2.235324e+002
1.498960e+002, 2.229997e+002
1.503781e+002, 2.220733e+002
1.508602e+002, 2.208387e+002
1.513424e+002, 2.189386e+002
1.518245e+002, 2.175168e+002
1.523066e+002, 2.168844e+002
1.527887e+002, 2.165491e+002
1.532708e+002, 2.161658e+002
1.537529e+002, 2.156010e+002
1.542351e+002, 2.148877e+002
1.547172e+002, 2.141056e+002
1.551993e+002, 2.131776e+002
1.556814e+002, 2.122709e+002
1.561635e+002, 2.113857e+002
1.566456e+002, 2.105269e+002
1.571278e+002, 2.097355e+002
1.576099e+002, 2.090392e+002
1.580920e+002, 2.083816e+002
1.585741e+002, 2.075096e+002
1.590562e+002, 2.063515e+002
1.595383e+002, 2.050961e+002
1.600205e+002, 2.036090e+002
1.605026e+002, 2.020425e+002
1.609847e+002, 2.007295e+002
1.614668e+002, 1.998600e+002
1.619489e+002, 1.994256e+002
1.624310e+002, 1.992548e+002
1.629131e+002, 1.996460e+002
1.633953e+002, 1.999970e+002
1.638774e+002, 1.999291e+002
1.643595e+002, 1.994739e+002
1.648416e+002, 1.989449e+002
1.653237e+002, 1.985669e+002
1.658058e+002, 1.982303e+002
1.662880e+002, 1.976938e+002
1.667701e+002, 1.968574e+002
1.672522e+002, 1.958662e+002
1.677343e+002, 1.948421e+002
1.682164e+002, 1.937635e+002
1.686985e+002, 1.927644e+002
1.691807e+002, 1.918777e+002
1.696628e+002, 1.911298e+002
1.701449e+002, 1.905908e+002
1.706270e+002, 1.903389e+002
1.711091e+002, 1.902852e+002
1.715912e+002, 1.902772e+002
1.720734e+002, 1.904747e+002
1.725555e+002, 1.903952e+002
1.730376e+002, 1.897011e+002
1.735197e+002, 1.886916e+002
1.740018e+002, 1.877814e+002
1.744839e+002, 1.872171e+002
1.749661e+002, 1.869533e+002
1.754482e+002, 1.867265e+002
1.759303e+002, 1.865972e+002
1.764124e+002, 1.864381e+002
1.768945e+002, 1.862271e+002
1.773766e+002, 1.859635e+002
1.778588e+002, 1.856564e+002
1.783409e+002, 1.853150e+002
1.788230e+002, 1.849389e+002
1.793051e+002, 1.844680e+002
1.797872e+002, 1.837120e+002
1.802693e+002, 1.830457e+002
1.807515e+002, 1.826650e+002
1.812336e+002, 1.824846e+002
1.817157e+002, 1.822825e+002
1.821978e+002, 1.818657e+002
1.826799e+002, 1.812094e+002
1.831620e+002, 1.805555e+002
1.836441e+002, 1.799961e+002
1.841263e+002, 1.793593e+002
1.846084e+002, 1.784746e+002
1.850905e+002, 1.773901e+002
1.855726e+002, 1.763364e+002
1.860547e+002, 1.754971e+002
1.865368e+002, 1.748950e+002
1.870190e+002, 1.746536e+002
1.875011e+002, 1.753336e+002
1.879832e+002, 1.759709e+002
1.884653e+002, 1.756649e+002
1.889474e+002, 1.743585e+002
1.894296e+002, 1.729729e+002
1.899117e+002, 1.724232e+002
1.903938e+002, 1.727054e+002
1.908759e+002, 1.730065e+002
1.913580e+002, 1.732126e+002
1.918401e+002, 1.734119e+002
1.923223e+002, 1.737611e+002
1.928044e+002, 1.743183e+002
1.932865e+002, 1.748130e+002
1.937686e+002, 1.748414e+002
1.942507e+002, 1.745536e+002
1.947328e+002, 1.744146e+002
1.952150e+002, 1.746710e+002
1.956971e+002, 1.751538e+002
1.961792e+002, 1.755333e+002
1.966613e+002, 1.757628e+002
1.971434e+002, 1.759285e+002
1.976255e+002, 1.761882e+002
1.981077e+002, 1.764615e+002
1.985898e+002, 1.765052e+002
1.990719e+002, 1.760302e+002
1.995540e+002, 1.751799e+002
2.000361e+002, 1.746247e+002
2.005182e+002, 1.746917e+002
2.010004e+002, 1.746055e+002
2.014825e+002, 1.737814e+002
2.019646e+002, 1.724776e+002
2.024467e+002, 1.713486e+002
2.029288e+002, 1.709693e+002
2.034109e+002, 1.712804e+002
2.038930e+002, 1.712652e+002
2.043752e+002, 1.706046e+002
2.048573e+002, 1.699269e+002
2.053394e+002, 1.694482e+002
2.058215e+002, 1.691481e+002
2.063036e+002, 1.689545e+002
2.067857e+002, 1.689063e+002
2.072679e+002, 1.690389e+002
2.077500e+002, 1.686253e+002
2.082321e+002, 1.667209e+002
2.087142e+002, 1.651079e+002
2.091963e+002, 1.645670e+002
2.096784e+002, 1.648589e+002
2.101606e+002, 1.652281e+002
2.106427e+002, 1.649819e+002
2.111248e+002, 1.640277e+002
2.116069e+002, 1.632916e+002
2.120890e+002, 1.627241e+002
2.125711e+002, 1.623913e+002
2.130533e+002, 1.624858e+002
2.135354e+002, 1.628841e+002
2.140175e+002, 1.632309e+002
2.144996e+002, 1.631779e+002
2.149817e+002, 1.626367e+002
2.154638e+002, 1.623162e+002
2.159460e+002, 1.623970e+002
2.164281e+002, 1.624861e+002
2.169102e+002, 1.623492e+002
2.173923e+002, 1.620149e+002
2.178744e+002, 1.616887e+002
2.183565e+002, 1.615616e+002
2.188387e+002, 1.616630e+002
2.193208e+002, 1.617508e+002
2.198029e+002, 1.618594e+002
2.202850e+002, 1.619296e+002
2.207671e+002, 1.618808e+002
2.212492e+002, 1.617307e+002
2.217314e+002, 1.616262e+002
2.222135e+002, 1.617339e+002
2.226956e+002, 1.620635e+002
2.231777e+002, 1.621479e+002
2.236598e+002, 1.617354e+002
2.241419e+002, 1.612646e+002
2.246240e+002, 1.610961e+002
2.251062e+002, 1.612384e+002
2.255883e+002, 1.614235e+002
2.260704e+002, 1.614688e+002
2.265525e+002, 1.613643e+002
2.270346e+002, 1.611414e+002
2.275167e+002, 1.606769e+002
2.279989e+002, 1.601725e+002
2.284810e+002, 1.598374e+002
2.289631e+002, 1.596864e+002
2.294452e+002, 1.595626e+002
2.299273e+002, 1.594735e+002
2.304094e+002, 1.593166e+002
2.308916e+002, 1.588046e+002
2.313737e+002, 1.574678e+002
2.318558e+002, 1.559880e+002
2.323379e+002, 1.552427e+002
2.328200e+002, 1.553366e+002
2.333021e+002, 1.554316e+002
2.337843e+002, 1.549653e+002
2.342664e+002, 1.541544e+002
2.347485e+002, 1.532916e+002
2.352306e+002, 1.524186e+002
2.357127e+002, 1.515506e+002
2.361948e+002, 1.506381e+002
2.366770e+002, 1.496074e+002
2.371591e+002, 1.488235e+002
2.376412e+002, 1.487286e+002
2.381233e+002, 1.489063e+002
2.386054e+002, 1.489072e+002
2.390875e+002, 1.485653e+002
2.395697e+002, 1.480288e+002
2.400518e+002, 1.474560e+002
2.405339e+002, 1.467419e+002
2.410160e+002, 1.463349e+002
2.414981e+002, 1.468247e+002
2.419802e+002, 1.475189e+002
2.424624e+002, 1.476483e+002
2.429445e+002, 1.468293e+002
2.434266e+002, 1.457261e+002
2.439087e+002, 1.456251e+002
2.443908e+002, 1.470425e+002
2.448729e+002, 1.480443e+002
2.453550e+002, 1.477038e+002
2.458372e+002, 1.469553e+002
2.463193e+002, 1.466146e+002
2.468014e+002, 1.469711e+002
2.472835e+002, 1.476362e+002
2.477656e+002, 1.479402e+002
2.482477e+002, 1.477453e+002
2.487299e+002, 1.474981e+002
2.492120e+002, 1.472472e+002
2.496941e+002, 1.470014e+002
2.501762e+002, 1.467438e+002
2.506583e+002, 1.464731e+002
2.511404e+002, 1.462508e+002
2.516226e+002, 1.462429e+002
2.521047e+002, 1.467216e+002
2.525868e+002, 1.467729e+002
2.530689e+002, 1.460477e+002
2.535510e+002, 1.451178e+002
2.540331e+002, 1.443376e+002
2.545153e+002, 1.438140e+002
2.549974e+002, 1.434796e+002
2.554795e+002, 1.432800e+002
2.559616e+002, 1.434272e+002
2.564437e+002, 1.432300e+002
2.569258e+002, 1.423474e+002
2.574080e+002, 1.414210e+002
2.578901e+002, 1.409373e+002
2.583722e+002, 1.409490e+002
2.588543e+002, 1.410889e+002
2.593364e+002, 1.408276e+002
2.598185e+002, 1.398739e+002
2.603007e+002, 1.392628e+002
2.607828e+002, 1.393292e+002
2.612649e+002, 1.394024e+002
2.617470e+002, 1.390198e+002
2.622291e+002, 1.381651e+002
2.627112e+002, 1.371750e+002
2.631934e+002, 1.364283e+002
2.636755e+002, 1.359902e+002
2.641576e+002, 1.355774e+002
2.646397e+002, 1.352659e+002
2.651218e+002, 1.349134e+002
2.656039e+002, 1.344345e+002
2.660861e+002, 1.338340e+002
2.665682e+002, 1.331583e+002
2.670503e+002, 1.324245e+002
2.675324e+002, 1.315851e+002
2.680145e+002, 1.310443e+002
2.684966e+002, 1.311461e+002
2.689788e+002, 1.311729e+002
2.694609e+002, 1.306708e+002
2.699430e+002, 1.297380e+002
2.704251e+002, 1.288165e+002
2.709072e+002, 1.282737e+002
2.713893e+002, 1.281287e+002
2.718715e+002, 1.279184e+002
2.723536e+002, 1.276206e+002
2.728357e+002, 1.272953e+002
2.733178e+002, 1.269056e+002
2.737999e+002, 1.265008e+002
2.742820e+002, 1.262145e+002
2.747642e+002, 1.261546e+002
2.752463e+002, 1.262962e+002
2.757284e+002, 1.263309e+002
2.762105e+002, 1.262184e+002
2.766926e+002, 1.260715e+002
2.771747e+002, 1.259340e+002
2.776568e+002, 1.257903e+002
2.781389e+002, 1.255882e+002
2.786211e+002, 1.252849e+002
2.791032e+002, 1.249230e+002
2.795853e+002, 1.246935e+002
2.800674e+002, 1.245014e+002
2.805495e+002, 1.245145e+002
2.810316e+002, 1.249276e+002
2.815138e+002, 1.255572e+002
2.819959e+002, 1.261338e+002
2.824780e+002, 1.265736e+002
2.829601e+002, 1.267948e+002
2.834422e+002, 1.264875e+002
2.839243e+002, 1.251923e+002
2.844065e+002, 1.243067e+002
2.848886e+002, 1.244165e+002
2.853707e+002, 1.250277e+002
2.858528e+002, 1.254325e+002
2.863349e+002, 1.253990e+002
2.868170e+002, 1.250995e+002
2.872992e+002, 1.247546e+002
2.877813e+002, 1.242540e+002
2.882634e+002, 1.240725e+002
2.887455e+002, 1.245222e+002
2.892276e+002, 1.252384e+002
2.897097e+002, 1.258062e+002
2.901919e+002, 1.261330e+002
2.906740e+002, 1.262905e+002
2.911561e+002, 1.263085e+002
2.916382e+002, 1.261503e+002
2.921203e+002, 1.261565e+002
2.926024e+002, 1.265026e+002
2.930846e+002, 1.269477e+002
2.935667e+002, 1.272433e+002
2.940488e+002, 1.273602e+002
2.945309e+002, 1.274571e+002
2.950130e+002, 1.277112e+002
2.954951e+002, 1.281185e+002
2.959773e+002, 1.283536e+002
2.964594e+002, 1.282042e+002
2.969415e+002, 1.280233e+002
2.974236e+002, 1.281356e+002
2.979057e+002, 1.285271e+002
2.983878e+002, 1.288699e+002
2.988700e+002, 1.288295e+002
2.993521e+002, 1.285453e+002
2.998342e+002, 1.288020e+002
3.003163e+002, 1.304971e+002
3.007984e+002, 1.319076e+002
3.012805e+002, 1.318173e+002
3.017627e+002, 1.304815e+002
3.022448e+002, 1.290581e+002
3.027269e+002, 1.280331e+002
3.032090e+002, 1.274295e+002
3.036911e+002, 1.272636e+002
3.041732e+002, 1.278900e+002
3.046554e+002, 1.283404e+002
3.051375e+002, 1.279258e+002
3.056196e+002, 1.269888e+002
3.061017e+002, 1.265150e+002
3.065838e+002, 1.270305e+002
3.070659e+002, 1.278907e+002
3.075481e+002, 1.277317e+002
3.080302e+002, 1.263277e+002
3.085123e+002, 1.250784e+002
3.089944e+002, 1.245137e+002
3.094765e+002, 1.243795e+002
3.099586e+002, 1.242840e+002
3.104408e+002, 1.241445e+002
3.109229e+002, 1.239592e+002
3.114050e+002, 1.236770e+002
3.118871e+002, 1.232829e+002
3.123692e+002, 1.230383e+002
3.128513e+002, 1.230557e+002
3.133335e+002, 1.232208e+002
3.138156e+002, 1.234463e+002
3.142977e+002, 1.237247e+002
3.147798e+002, 1.239315e+002
3.152619e+002, 1.238913e+002
3.157440e+002, 1.236286e+002
3.162262e+002, 1.235305e+002
3.167083e+002, 1.237260e+002
3.171904e+002, 1.240280e+002
3.176725e+002, 1.243348e+002
3.181546e+002, 1.246319e+002
3.186367e+002, 1.248194e+002
3.191188e+002, 1.247736e+002
3.196010e+002, 1.245674e+002
3.200831e+002, 1.245544e+002
3.205652e+002, 1.250294e+002
3.210473e+002, 1.254010e+002
3.215294e+002, 1.251975e+002
3.220115e+002, 1.245830e+002
3.224937e+002, 1.241746e+002
3.229758e+002, 1.243409e+002
3.234579e+002, 1.247923e+002
3.239400e+002, 1.247745e+002
3.244221e+002, 1.241374e+002
3.249042e+002, 1.234621e+002
3.253864e+002, 1.228782e+002
3.258685e+002, 1.224049e+002
3.263506e+002, 1.221195e+002
3.268327e+002, 1.220828e+002
3.273148e+002, 1.221062e+002
3.277969e+002, 1.218778e+002
3.282791e+002, 1.213711e+002
3.287612e+002, 1.208468e+002
3.292433e+002, 1.202817e+002
3.297254e+002, 1.197573e+002
3.302075e+002, 1.193871e+002
3.306896e+002, 1.191905e+002
3.311718e+002, 1.190680e+002
3.316539e+002, 1.189351e+002
3.321360e+002, 1.187906e+002
3.326181e+002, 1.186170e+002
3.331002e+002, 1.183885e+002
3.335823e+002, 1.181509e+002
3.340645e+002, 1.178962e+002
3.345466e+002, 1.176438e+002
3.350287e+002, 1.175027e+002
3.355108e+002, 1.175901e+002
3.359929e+002, 1.178561e+002
3.364750e+002, 1.179320e+002
3.369572e+002, 1.177238e+002
3.374393e+002, 1.174498e+002
3.379214e+002, 1.171455e+002
3.384035e+002, 1.168422e+002
3.388856e+002, 1.166023e+002
3.393677e+002, 1.164458e+002
3.398499e+002, 1.163888e+002
3.403320e+002, 1.165100e+002
3.408141e+002, 1.169764e+002
3.412962e+002, 1.172928e+002
3.417783e+002, 1.172251e+002
3.422604e+002, 1.170063e+002
3.427426e+002, 1.169573e+002
3.432247e+002, 1.171701e+002
3.437068e+002, 1.174744e+002
3.441889e+002, 1.176295e+002
3.446710e+002, 1.175554e+002
3.451531e+002, 1.175603e+002
3.456353e+002, 1.176970e+002
3.461174e+002, 1.178782e+002
3.465995e+002, 1.180600e+002
3.470816e+002, 1.182274e+002
3.475637e+002, 1.183475e+002
3.480458e+002, 1.183653e+002
3.485280e+002, 1.182708e+002
3.490101e+002, 1.183707e+002
3.494922e+002, 1.189618e+002
3.499743e+002, 1.194182e+002
3.504564e+002, 1.194022e+002
3.509385e+002, 1.190369e+002
3.514207e+002, 1.185965e+002
3.519028e+002, 1.182200e+002
3.523849e+002, 1.179385e+002
3.528670e+002, 1.178947e+002
3.533491e+002, 1.183403e+002
3.538312e+002, 1.187102e+002
3.543134e+002, 1.189582e+002
3.547955e+002, 1.190872e+002
3.552776e+002, 1.190631e+002
3.557597e+002, 1.188798e+002
3.562418e+002, 1.186467e+002
3.567239e+002, 1.185583e+002
3.572061e+002, 1.187685e+002
3.576882e+002, 1.188027e+002
3.581703e+002, 1.184819e+002
3.586524e+002, 1.181349e+002
3.591345e+002, 1.179859e+002
3.596166e+002, 1.180492e+002
3.600987e+002, 1.182134e+002
3.605808e+002, 1.183853e+002
3.610630e+002, 1.185755e+002
3.615451e+002, 1.186605e+002
3.620272e+002, 1.186600e+002
3.625093e+002, 1.185427e+002
3.629914e+002, 1.181172e+002
3.634735e+002, 1.175791e+002
3.639557e+002, 1.173501e+002
3.644378e+002, 1.177244e+002
3.649199e+002, 1.184827e+002
3.654020e+002, 1.186632e+002
3.658841e+002, 1.176084e+002
3.663662e+002, 1.168654e+002
3.668484e+002, 1.168213e+002
3.673305e+002, 1.170544e+002
3.678126e+002, 1.171278e+002
3.682947e+002, 1.169088e+002
3.687768e+002, 1.166155e+002
3.692589e+002, 1.166090e+002
3.697411e+002, 1.170261e+002
3.702232e+002, 1.173610e+002
3.707053e+002, 1.177327e+002
3.711874e+002, 1.179138e+002
3.716695e+002, 1.176471e+002
3.721516e+002, 1.170242e+002
3.726338e+002, 1.164168e+002
3.731159e+002, 1.161215e+002
3.735980e+002, 1.161356e+002
3.740801e+002, 1.164156e+002
3.745622e+002, 1.173466e+002
3.750443e+002, 1.180642e+002
3.755265e+002, 1.181803e+002
3.760086e+002, 1.179359e+002
3.764907e+002, 1.176860e+002
3.769728e+002, 1.175849e+002
3.774549e+002, 1.176161e+002
3.779370e+002, 1.177852e+002
3.784192e+002, 1.181869e+002
3.789013e+002, 1.184552e+002
3.793834e+002, 1.182779e+002
3.798655e+002, 1.180582e+002
3.803476e+002, 1.181588e+002
3.808297e+002, 1.186476e+002
3.813119e+002, 1.192011e+002
3.817940e+002, 1.194725e+002
3.822761e+002, 1.194690e+002
3.827582e+002, 1.195079e+002
3.832403e+002, 1.196212e+002
3.837224e+002, 1.198022e+002
3.842046e+002, 1.200313e+002
3.846867e+002, 1.203116e+002
3.851688e+002, 1.206614e+002
3.856509e+002, 1.211170e+002
3.861330e+002, 1.216410e+002
3.866151e+002, 1.221496e+002
3.870973e+002, 1.226319e+002
3.875794e+002, 1.231323e+002
3.880615e+002, 1.237903e+002
3.885436e+002, 1.244503e+002
3.890257e+002, 1.248481e+002
3.895078e+002, 1.248079e+002
3.899900e+002, 1.247243e+002
3.904721e+002, 1.249996e+002
3.909542e+002, 1.255830e+002
3.914363e+002, 1.260666e+002
3.919184e+002, 1.263055e+002
3.924005e+002, 1.263978e+002
3.928827e+002, 1.264528e+002
3.933648e+002, 1.264603e+002
3.938469e+002, 1.265437e+002
3.943290e+002, 1.268093e+002
3.948111e+002, 1.271629e+002
3.952932e+002, 1.274362e+002
3.957754e+002, 1.275999e+002
3.962575e+002, 1.277829e+002
3.967396e+002, 1.281643e+002
3.972217e+002, 1.287042e+002
3.977038e+002, 1.289880e+002
3.981859e+002, 1.287219e+002
3.986681e+002, 1.284402e+002
3.991501e+002, 1.285500e+002
3.996323e+002, 1.289587e+002
4.001144e+002, 1.292980e+002
4.005965e+002, 1.293685e+002
4.010786e+002, 1.292754e+002
4.015607e+002, 1.293217e+002
4.020428e+002, 1.295289e+002
4.025250e+002, 1.298079e+002
4.030071e+002, 1.303089e+002
4.034892e+002, 1.307978e+002
4.039713e+002, 1.309172e+002
4.044534e+002, 1.306096e+002
4.049355e+002, 1.302420e+002
4.054177e+002, 1.302618e+002
4.058998e+002, 1.307783e+002
4.063819e+002, 1.311479e+002
4.068640e+002, 1.311784e+002
4.073461e+002, 1.312626e+002
4.078282e+002, 1.316747e+002
4.083104e+002, 1.323064e+002
4.087925e+002, 1.328630e+002
4.092746e+002, 1.331622e+002
4.097567e+002, 1.332511e+002
4.102388e+002, 1.333532e+002
4.107209e+002, 1.334920e+002
4.112031e+002, 1.336133e+002
4.116852e+002, 1.336072e+002
4.121673e+002, 1.336387e+002
4.126494e+002, 1.339089e+002
4.131315e+002, 1.344504e+002
4.136136e+002, 1.350743e+002
4.140958e+002, 1.355208e+002
4.145779e+002, 1.357365e+002
4.150600e+002, 1.359969e+002
4.155421e+002, 1.362969e+002
4.160242e+002, 1.366482e+002
4.165063e+002, 1.371298e+002
4.169885e+002, 1.376721e+002
4.174706e+002, 1.380972e+002
4.179527e+002, 1.382528e+002
4.184348e+002, 1.382487e+002
4.189169e+002, 1.384822e+002
4.193990e+002, 1.390557e+002
4.198812e+002, 1.396412e+002
4.203633e+002, 1.400602e+002
4.208454e+002, 1.404818e+002
4.213275e+002, 1.411290e+002
4.218096e+002, 1.420635e+002
4.222917e+002, 1.429492e+002
4.227739e+002, 1.434276e+002
4.232560e+002, 1.435110e+002
4.237381e+002, 1.434690e+002
4.242202e+002, 1.431926e+002
4.247023e+002, 1.430064e+002
4.251844e+002, 1.432993e+002
4.256666e+002, 1.439155e+002
4.261487e+002, 1.442825e+002
4.266308e+002, 1.439133e+002
4.271129e+002, 1.432690e+002
4.275950e+002, 1.430955e+002
4.280771e+002, 1.434247e+002
4.285593e+002, 1.437208e+002
4.290414e+002, 1.437491e+002
4.295235e+002, 1.435251e+002
4.300056e+002, 1.431043e+002
4.304877e+002, 1.423241e+002
4.309698e+002, 1.417192e+002
4.314520e+002, 1.417944e+002
4.319341e+002, 1.421980e+002
4.324162e+002, 1.421562e+002
4.328983e+002, 1.414379e+002
4.333804e+002, 1.405474e+002
4.338625e+002, 1.400916e+002
4.343447e+002, 1.401493e+002
4.348268e+002, 1.400198e+002
4.353089e+002, 1.395248e+002
4.357910e+002, 1.389678e+002
4.362731e+002, 1.385695e+002
4.367552e+002, 1.382913e+002
4.372374e+002, 1.379426e+002
4.377195e+002, 1.373939e+002
4.382016e+002, 1.367300e+002
4.386837e+002, 1.362871e+002
4.391658e+002, 1.363920e+002
4.396479e+002, 1.362984e+002
4.401301e+002, 1.357879e+002
4.406122e+002, 1.351548e+002
4.410943e+002, 1.346623e+002
4.415764e+002, 1.343714e+002
4.420585e+002, 1.342025e+002
4.425406e+002, 1.340887e+002
4.430227e+002, 1.340537e+002
4.435049e+002, 1.339008e+002
4.439870e+002, 1.334793e+002
4.444691e+002, 1.330962e+002
4.449512e+002, 1.328086e+002
4.454333e+002, 1.326324e+002
4.459154e+002, 1.326019e+002
4.463976e+002, 1.327499e+002
4.468797e+002, 1.329806e+002
4.473618e+002, 1.330344e+002
4.478439e+002, 1.327695e+002
4.483260e+002, 1.327524e+002
4.488081e+002, 1.333897e+002
4.492903e+002, 1.340876e+002
4.497724e+002, 1.344443e+002
4.502545e+002, 1.344560e+002
4.507366e+002, 1.344266e+002
4.512187e+002, 1.345591e+002
4.517008e+002, 1.348370e+002
4.521830e+002, 1.352175e+002
4.526651e+002, 1.357546e+002
4.531472e+002, 1.362513e+002
4.536293e+002, 1.364508e+002
4.541114e+002, 1.365696e+002
4.545935e+002, 1.369617e+002
4.550757e+002, 1.378316e+002
4.555578e+002, 1.387296e+002
4.560399e+002, 1.391717e+002
4.565220e+002, 1.392896e+002
4.570041e+002, 1.396944e+002
4.574862e+002, 1.406163e+002
4.579684e+002, 1.417633e+002
4.584505e+002, 1.428120e+002
4.589326e+002, 1.437717e+002
4.594147e+002, 1.446009e+002
4.598968e+002, 1.452560e+002
4.603789e+002, 1.458006e+002
4.608611e+002, 1.462455e+002
4.613432e+002, 1.466158e+002
4.618253e+002, 1.469907e+002
4.623074e+002, 1.473984e+002
4.627895e+002, 1.478726e+002
4.632716e+002, 1.485725e+002
4.637538e+002, 1.496783e+002
4.642359e+002, 1.507575e+002
4.647180e+002, 1.517904e+002
4.652001e+002, 1.527679e+002
4.656822e+002, 1.537043e+002
4.661643e+002, 1.545929e+002
4.666465e+002, 1.553510e+002
4.671286e+002, 1.558538e+002
4.676107e+002, 1.560566e+002
4.680928e+002, 1.564686e+002
4.685749e+002, 1.573211e+002
4.690570e+002, 1.581371e+002
4.695392e+002, 1.587484e+002
4.700213e+002, 1.592515e+002
4.705034e+002, 1.598341e+002
4.709855e+002, 1.605873e+002
4.714676e+002, 1.613239e+002
4.719497e+002, 1.616386e+002
4.724319e+002, 1.613856e+002
4.729140e+002, 1.613571e+002
4.733961e+002, 1.619853e+002
4.738782e+002, 1.625954e+002
4.743603e+002, 1.627146e+002
4.748424e+002, 1.624402e+002
4.753246e+002, 1.622529e+002
4.758067e+002, 1.625827e+002
4.762888e+002, 1.631402e+002
4.767709e+002, 1.632353e+002
4.772530e+002, 1.627927e+002
4.777351e+002, 1.623641e+002
4.782173e+002, 1.622254e+002
4.786994e+002, 1.622443e+002
4.791815e+002, 1.622277e+002
4.796636e+002, 1.621875e+002
4.801457e+002, 1.620399e+002
4.806278e+002, 1.617156e+002
4.811100e+002, 1.612608e+002
4.815920e+002, 1.607252e+002
4.820742e+002, 1.601115e+002
4.825563e+002, 1.595217e+002
4.830384e+002, 1.590230e+002
4.835205e+002, 1.586269e+002
4.840026e+002, 1.583877e+002
4.844847e+002, 1.583016e+002
4.849669e+002, 1.583631e+002
4.854490e+002, 1.587073e+002
4.859311e+002, 1.591689e+002
4.864132e+002, 1.594565e+002
4.868953e+002, 1.594632e+002
4.873774e+002, 1.593079e+002
4.878596e+002, 1.591521e+002
4.883417e+002, 1.588475e+002
4.888238e+002, 1.589724e+002
4.893059e+002, 1.597393e+002
4.897880e+002, 1.606554e+002
4.902701e+002, 1.615010e+002
4.907523e+002, 1.622993e+002
4.912344e+002, 1.631836e+002
4.917165e+002, 1.642549e+002
4.921986e+002, 1.653958e+002
4.926807e+002, 1.662291e+002
4.931628e+002, 1.665657e+002
4.936450e+002, 1.671140e+002
4.941271e+002, 1.681374e+002
4.946092e+002, 1.693373e+002
4.950913e+002, 1.705487e+002
4.955734e+002, 1.717513e+002
4.960555e+002, 1.729895e+002
4.965377e+002, 1.742847e+002
4.970198e+002, 1.756301e+002
4.975019e+002, 1.769897e+002
4.979840e+002, 1.783528e+002
4.984661e+002, 1.797849e+002
4.989482e+002, 1.813580e+002
4.994304e+002, 1.830311e+002
4.999125e+002, 1.847227e+002
5.003946e+002, 1.864669e+002
5.008767e+002, 1.881490e+002
5.013588e+002, 1.896491e+002
5.018409e+002, 1.910764e+002
5.023231e+002, 1.926806e+002
5.028052e+002, 1.945109e+002
5.032873e+002, 1.963538e+002
5.037694e+002, 1.979712e+002
5.042515e+002, 1.993643e+002
5.047336e+002, 2.009861e+002
5.052158e+002, 2.030890e+002
5.056979e+002, 2.051110e+002
5.061800e+002, 2.067911e+002
5.066621e+002, 2.082825e+002
5.071442e+002, 2.098614e+002
5.076263e+002, 2.116179e+002
5.081085e+002, 2.133290e+002
5.085906e+002, 2.146163e+002
5.090727e+002, 2.153493e+002
5.095548e+002, 2.161302e+002
5.100369e+002, 2.170038e+002
5.105190e+002, 2.178772e+002
5.110012e+002, 2.188756e+002
5.114833e+002, 2.198277e+002
5.119654e+002, 2.204239e+002
5.124475e+002, 2.204939e+002
5.129296e+002, 2.201896e+002
5.134117e+002, 2.198107e+002
5.138939e+002, 2.193896e+002
5.143760e+002, 2.186191e+002
5.148581e+002, 2.172255e+002
5.153402e+002, 2.156498e+002
5.158223e+002, 2.143125e+002
5.163044e+002, 2.131675e+002
5.167866e+002, 2.118834e+002
5.172687e+002, 2.103535e+002
5.177508e+002, 2.085850e+002
5.182329e+002, 2.065134e+002
5.187150e+002, 2.041595e+002
5.191971e+002, 2.017834e+002
5.196793e+002, 1.995242e+002
5.201614e+002, 1.972928e+002
5.206435e+002, 1.949286e+002
5.211256e+002, 1.924240e+002
5.216077e+002, 1.898219e+002
5.220898e+002, 1.870798e+002
5.225720e+002, 1.842876e+002
5.230541e+002, 1.814475e+002
5.235362e+002, 1.786300e+002
5.240183e+002, 1.760318e+002
5.245004e+002, 1.738267e+002
5.249825e+002, 1.719492e+002
5.254647e+002, 1.700064e+002
5.259468e+002, 1.679410e+002
5.264289e+002, 1.659138e+002
5.269110e+002, 1.638594e+002
5.273931e+002, 1.618917e+002
5.278752e+002, 1.601874e+002
5.283574e+002, 1.587152e+002
5.288395e+002, 1.572010e+002
5.293216e+002, 1.553009e+002
5.298037e+002, 1.531358e+002
5.302858e+002, 1.514403e+002
5.307679e+002, 1.503308e+002
5.312501e+002, 1.494365e+002
5.317322e+002, 1.488235e+002
5.322143e+002, 1.482405e+002
5.326964e+002, 1.473871e+002
5.331785e+002, 1.461896e+002
5.336606e+002, 1.449318e+002
5.341428e+002, 1.437669e+002
5.346249e+002, 1.426767e+002
5.351070e+002, 1.415398e+002
5.355891e+002, 1.403188e+002
5.360712e+002, 1.393606e+002
5.365533e+002, 1.390096e+002
5.370355e+002, 1.391637e+002
5.375176e+002, 1.391376e+002
5.379997e+002, 1.389120e+002
5.384818e+002, 1.385494e+002
5.389639e+002, 1.378920e+002
5.394460e+002, 1.371860e+002
5.399282e+002, 1.367634e+002
5.404103e+002, 1.366785e+002
5.408924e+002, 1.367141e+002
5.413745e+002, 1.366338e+002
5.418566e+002, 1.364294e+002
5.423387e+002, 1.363994e+002
5.428209e+002, 1.367182e+002
5.433029e+002, 1.370108e+002
5.437850e+002, 1.372316e+002
5.442672e+002, 1.373735e+002
5.447493e+002, 1.373977e+002
5.452314e+002, 1.373029e+002
5.457135e+002, 1.372120e+002
5.461956e+002, 1.372885e+002
5.466777e+002, 1.375141e+002
5.471599e+002, 1.376498e+002
5.476420e+002, 1.376255e+002
5.481241e+002, 1.376332e+002
5.486062e+002, 1.378408e+002
5.490883e+002, 1.381495e+002
5.495704e+002, 1.384074e+002
5.500526e+002, 1.385838e+002
5.505347e+002, 1.387180e+002
5.510168e+002, 1.387993e+002
5.514989e+002, 1.388630e+002
5.519810e+002, 1.389825e+002
5.524631e+002, 1.391732e+002
5.529453e+002, 1.394144e+002
5.534274e+002, 1.396945e+002
5.539095e+002, 1.400143e+002
5.543916e+002, 1.403173e+002
5.548737e+002, 1.403504e+002
5.553558e+002, 1.406672e+002
5.558380e+002, 1.416258e+002
5.563201e+002, 1.428606e+002
5.568022e+002, 1.439190e+002
5.572843e+002, 1.446886e+002
5.577664e+002, 1.453344e+002
5.582485e+002, 1.460105e+002
5.587307e+002, 1.467055e+002
5.592128e+002, 1.476398e+002
5.596949e+002, 1.489048e+002
5.601770e+002, 1.502826e+002
5.606591e+002, 1.518162e+002
5.611412e+002, 1.533564e+002
5.616234e+002, 1.546560e+002
5.621055e+002, 1.556161e+002
5.625876e+002, 1.567035e+002
5.630697e+002, 1.583601e+002
5.635518e+002, 1.604746e+002
5.640339e+002, 1.627707e+002
5.645161e+002, 1.653046e+002
5.649982e+002, 1.675902e+002
5.654803e+002, 1.690747e+002
5.659624e+002, 1.700239e+002
5.664445e+002, 1.716279e+002
5.669266e+002, 1.743759e+002
5.674088e+002, 1.770738e+002
5.678909e+002, 1.793357e+002
5.683730e+002, 1.813112e+002
5.688551e+002, 1.831640e+002
5.693372e+002, 1.849308e+002
5.698193e+002, 1.866407e+002
5.703015e+002, 1.882581e+002
5.707836e+002, 1.898127e+002
5.712657e+002, 1.917606e+002
5.717478e+002, 1.945207e+002
5.722299e+002, 1.971311e+002
5.727120e+002, 1.993859e+002
5.731942e+002, 2.014778e+002
5.736763e+002, 2.036356e+002
5.741584e+002, 2.058785e+002
5.746405e+002, 2.079619e+002
5.751226e+002, 2.096502e+002
5.756047e+002, 2.110009e+002
5.760869e+002, 2.121576e+002
5.765690e+002, 2.130018e+002
5.770511e+002, 2.141590e+002
5.775332e+002, 2.161426e+002
5.780153e+002, 2.184826e+002
5.784974e+002, 2.204512e+002
5.789796e+002, 2.220290e+002
5.794617e+002, 2.232677e+002
5.799438e+002, 2.241252e+002
5.804259e+002, 2.246903e+002
5.809080e+002, 2.249229e+002
5.813901e+002, 2.249054e+002
5.818723e+002, 2.250705e+002
5.823544e+002, 2.257299e+002
5.828365e+002, 2.267004e+002
5.833186e+002, 2.273663e+002
5.838007e+002, 2.277352e+002
5.842828e+002, 2.277573e+002
5.847650e+002, 2.273062e+002
5.852471e+002, 2.266406e+002
5.857292e+002, 2.259929e+002
5.862113e+002, 2.252942e+002
5.866934e+002, 2.243270e+002
5.871755e+002, 2.230178e+002
5.876577e+002, 2.212420e+002
5.881398e+002, 2.186210e+002
5.886219e+002, 2.150429e+002
5.891040e+002, 2.113412e+002
5.895861e+002, 2.076880e+002
5.900682e+002, 2.039732e+002
5.905504e+002, 2.001266e+002
5.910325e+002, 1.961568e+002
5.915146e+002, 1.921442e+002
5.919967e+002, 1.881641e+002
5.924788e+002, 1.841213e+002
5.929609e+002, 1.798924e+002
5.934431e+002, 1.755711e+002
5.939252e+002, 1.713184e+002
5.944073e+002, 1.671822e+002
5.948894e+002, 1.634102e+002
5.953715e+002, 1.604050e+002
5.958536e+002, 1.584079e+002
5.963358e+002, 1.560667e+002
5.968179e+002, 1.530643e+002
5.973000e+002, 1.501250e+002
5.977821e+002, 1.474558e+002
5.982642e+002, 1.450156e+002
5.987463e+002, 1.427534e+002
5.992285e+002, 1.406403e+002
5.997106e+002, 1.385737e+002
6.001927e+002, 1.362906e+002
6.006748e+002, 1.338085e+002
6.011569e+002, 1.319236e+002
6.016390e+002, 1.308902e+002
6.021212e+002, 1.299974e+002
6.026033e+002, 1.287954e+002
6.030854e+002, 1.274951e+002
6.035675e+002, 1.264934e+002
6.040496e+002, 1.259755e+002
6.045317e+002, 1.253282e+002
6.050139e+002, 1.240049e+002
6.054960e+002, 1.224607e+002
6.059781e+002, 1.214320e+002
6.064602e+002, 1.209665e+002
6.069423e+002, 1.205569e+002
6.074244e+002, 1.198468e+002
6.079066e+002, 1.189009e+002
6.083887e+002, 1.179944e+002
6.088708e+002, 1.169471e+002
6.093529e+002, 1.162239e+002
6.098350e+002, 1.161187e+002
6.103171e+002, 1.161073e+002
6.107993e+002, 1.158214e+002
6.112814e+002, 1.152823e+002
6.117635e+002, 1.146934e+002
6.122456e+002, 1.141363e+002
6.127277e+002, 1.136846e+002
6.132098e+002, 1.135212e+002
6.136920e+002, 1.136657e+002
6.141741e+002, 1.138746e+002
6.146562e+002, 1.141726e+002
6.151383e+002, 1.144050e+002
6.156204e+002, 1.143301e+002
6.161025e+002, 1.140122e+002
6.165847e+002, 1.138583e+002
6.170668e+002, 1.142086e+002
6.175489e+002, 1.144916e+002
6.180310e+002, 1.141919e+002
6.185131e+002, 1.135861e+002
6.189952e+002, 1.132388e+002
6.194774e+002, 1.133170e+002
6.199595e+002, 1.136196e+002
6.204416e+002, 1.139334e+002
6.209237e+002, 1.142668e+002
6.214058e+002, 1.144999e+002
6.218879e+002, 1.145017e+002
6.223701e+002, 1.145643e+002
6.228522e+002, 1.148022e+002
6.233343e+002, 1.150982e+002
6.238164e+002, 1.153280e+002
6.242985e+002, 1.154688e+002
6.247806e+002, 1.155887e+002
6.252628e+002, 1.156883e+002
6.257448e+002, 1.158156e+002
6.262269e+002, 1.161293e+002
6.267090e+002, 1.166474e+002
6.271912e+002, 1.171864e+002
6.276733e+002, 1.177012e+002
6.281554e+002, 1.181542e+002
6.286375e+002, 1.184475e+002
6.291196e+002, 1.185447e+002
6.296017e+002, 1.186877e+002
6.300839e+002, 1.189471e+002
6.305660e+002, 1.192317e+002
6.310481e+002, 1.194542e+002
6.315302e+002, 1.196523e+002
6.320123e+002, 1.199377e+002
6.324944e+002, 1.203605e+002
6.329766e+002, 1.208368e+002
6.334587e+002, 1.211936e+002
6.339408e+002, 1.213750e+002
6.344229e+002, 1.217422e+002
6.349050e+002, 1.224535e+002
6.353871e+002, 1.231490e+002
6.358693e+002, 1.237216e+002
6.363514e+002, 1.241636e+002
6.368335e+002, 1.244089e+002
6.373156e+002, 1.243758e+002
6.377977e+002, 1.244459e+002
6.382798e+002, 1.250547e+002
6.387620e+002, 1.259021e+002
6.392441e+002, 1.263428e+002
6.397262e+002, 1.263206e+002
6.402083e+002, 1.263717e+002
6.406904e+002, 1.268183e+002
6.411725e+002, 1.276220e+002
6.416547e+002, 1.286655e+002
6.421368e+002, 1.300642e+002
6.426189e+002, 1.315456e+002
6.431010e+002, 1.333451e+002
6.435831e+002, 1.350141e+002
6.440652e+002, 1.360794e+002
6.445474e+002, 1.367844e+002
6.450295e+002, 1.377889e+002
6.455116e+002, 1.394582e+002
6.459937e+002, 1.414612e+002
6.464758e+002, 1.432142e+002
6.469579e+002, 1.447215e+002
6.474401e+002, 1.465266e+002
6.479222e+002, 1.487325e+002
6.484043e+002, 1.511836e+002
6.488864e+002, 1.537448e+002
6.493685e+002, 1.564654e+002
6.498506e+002, 1.594343e+002
6.503328e+002, 1.627978e+002
6.508149e+002, 1.661951e+002
6.512970e+002, 1.694333e+002
6.517791e+002, 1.726481e+002
6.522612e+002, 1.758889e+002
6.527433e+002, 1.792224e+002
6.532255e+002, 1.828520e+002
6.537076e+002, 1.869312e+002
6.541897e+002, 1.914081e+002
6.546718e+002, 1.961778e+002
6.551539e+002, 2.013829e+002
6.556360e+002, 2.065013e+002
6.561182e+002, 2.113776e+002
6.566003e+002, 2.162236e+002
6.570824e+002, 2.212032e+002
6.575645e+002, 2.262601e+002
6.580466e+002, 2.311405e+002
6.585287e+002, 2.355897e+002
6.590109e+002, 2.401150e+002
6.594930e+002, 2.453897e+002
6.599751e+002, 2.511083e+002
6.604572e+002, 2.564319e+002
6.609393e+002, 2.611564e+002
6.614214e+002, 2.657744e+002
6.619036e+002, 2.707326e+002
6.623857e+002, 2.760071e+002
6.628678e+002, 2.812262e+002
6.633499e+002, 2.867281e+002
6.638320e+002, 2.917153e+002
6.643141e+002, 2.958896e+002
6.647963e+002, 2.997272e+002
6.652784e+002, 3.035581e+002
6.657605e+002, 3.074183e+002
6.662426e+002, 3.112599e+002
6.667247e+002, 3.151983e+002
6.672068e+002, 3.189011e+002
6.676890e+002, 3.216748e+002
6.681711e+002, 3.235464e+002
6.686532e+002, 3.255428e+002
6.691353e+002, 3.281142e+002
6.696174e+002, 3.303041e+002
6.700995e+002, 3.311600e+002
6.705817e+002, 3.307234e+002
6.710638e+002, 3.298983e+002
6.715459e+002, 3.287802e+002
6.720280e+002, 3.271729e+002
6.725101e+002, 3.249784e+002
6.729922e+002, 3.222952e+002
6.734744e+002, 3.191346e+002
6.739565e+002, 3.155619e+002
6.744386e+002, 3.117737e+002
6.749207e+002, 3.079169e+002
6.754028e+002, 3.039176e+002
6.758849e+002, 2.995016e+002
6.763671e+002, 2.946317e+002
6.768492e+002, 2.894869e+002
6.773313e+002, 2.837632e+002
6.778134e+002, 2.781175e+002
6.782955e+002, 2.731178e+002
6.787776e+002, 2.686295e+002
6.792598e+002, 2.642093e+002
6.797419e+002, 2.597744e+002
6.802240e+002, 2.553628e+002
6.807061e+002, 2.509223e+002
6.811882e+002, 2.465535e+002
6.816703e+002, 2.424220e+002
6.821525e+002, 2.385479e+002
6.826346e+002, 2.347007e+002
6.831167e+002, 2.306749e+002
6.835988e+002, 2.265442e+002
6.840809e+002, 2.226574e+002
6.845630e+002, 2.191892e+002
6.850452e+002, 2.156004e+002
6.855273e+002, 2.117378e+002
6.860094e+002, 2.078314e+002
6.864915e+002, 2.039647e+002
6.869736e+002, 2.001674e+002
6.874557e+002, 1.964511e+002
6.879379e+002, 1.927711e+002
6.884200e+002, 1.892832e+002
6.889021e+002, 1.863329e+002
6.893842e+002, 1.836602e+002
6.898663e+002, 1.805734e+002
6.903484e+002, 1.769439e+002
6.908306e+002, 1.734281e+002
6.913127e+002, 1.705302e+002
6.917948e+002, 1.681504e+002
6.922769e+002, 1.657344e+002
6.927590e+002, 1.633483e+002
6.932411e+002, 1.608117e+002
6.937233e+002, 1.578347e+002
6.942054e+002, 1.549902e+002
6.946875e+002, 1.527362e+002
6.951696e+002, 1.508866e+002
6.956517e+002, 1.489265e+002
6.961339e+002, 1.465971e+002
6.966160e+002, 1.441866e+002
6.970981e+002, 1.419129e+002
6.975802e+002, 1.398158e+002
6.980623e+002, 1.380927e+002
6.985444e+002, 1.368138e+002
6.990266e+002, 1.354517e+002
6.995087e+002, 1.335619e+002
6.999908e+002, 1.313495e+002
7.004729e+002, 1.296310e+002
7.009550e+002, 1.289404e+002
7.014371e+002, 1.279387e+002
7.019193e+002, 1.261371e+002
7.024014e+002, 1.244566e+002
7.028835e+002, 1.236481e+002
7.033656e+002, 1.233784e+002
7.038477e+002, 1.228435e+002
7.043298e+002, 1.216905e+002
7.048120e+002, 1.203045e+002
7.052941e+002, 1.191380e+002
7.057762e+002, 1.181592e+002
7.062583e+002, 1.171683e+002
7.067404e+002, 1.161261e+002
7.072225e+002, 1.152544e+002
7.077046e+002, 1.147307e+002
7.081867e+002, 1.144250e+002
7.086688e+002, 1.140229e+002
7.091509e+002, 1.135698e+002
7.096331e+002, 1.129111e+002
7.101152e+002, 1.116722e+002
7.105973e+002, 1.105736e+002
7.110794e+002, 1.101849e+002
7.115615e+002, 1.102040e+002
7.120436e+002, 1.100359e+002
7.125258e+002, 1.094667e+002
7.130079e+002, 1.088299e+002
7.134900e+002, 1.085604e+002
7.139721e+002, 1.085756e+002
7.144542e+002, 1.083843e+002
7.149363e+002, 1.079404e+002
7.154185e+002, 1.074927e+002
7.159006e+002, 1.071103e+002
7.163827e+002, 1.068357e+002
7.168648e+002, 1.067833e+002
7.173469e+002, 1.069999e+002
7.178290e+002, 1.071319e+002
7.183112e+002, 1.069947e+002
7.187933e+002, 1.069325e+002
7.192754e+002, 1.072747e+002
7.197575e+002, 1.077341e+002
7.202396e+002, 1.078685e+002
7.207217e+002, 1.075814e+002
7.212039e+002, 1.071480e+002
7.216860e+002, 1.067402e+002
7.221681e+002, 1.064244e+002
7.226502e+002, 1.065570e+002
7.231323e+002, 1.072118e+002
7.236144e+002, 1.076788e+002
7.240966e+002, 1.076070e+002
7.245787e+002, 1.074497e+002
7.250608e+002, 1.078247e+002
7.255429e+002, 1.087196e+002
7.260250e+002, 1.092915e+002
7.265071e+002, 1.092355e+002
7.269893e+002, 1.091672e+002
7.274714e+002, 1.093246e+002
7.279535e+002, 1.095780e+002
7.284356e+002, 1.097302e+002
7.289177e+002, 1.097946e+002
7.293998e+002, 1.099961e+002
7.298820e+002, 1.105413e+002
7.303641e+002, 1.112526e+002
7.308462e+002, 1.116805e+002
7.313283e+002, 1.118094e+002
7.318104e+002, 1.121014e+002
7.322925e+002, 1.127249e+002
7.327747e+002, 1.133331e+002
7.332568e+002, 1.135427e+002
7.337389e+002, 1.134802e+002
7.342210e+002, 1.138038e+002
7.347031e+002, 1.146290e+002
7.351852e+002, 1.156493e+002
7.356674e+002, 1.171070e+002
7.361495e+002, 1.184957e+002
7.366316e+002, 1.193448e+002
7.371137e+002, 1.197588e+002
7.375958e+002, 1.201435e+002
7.380779e+002, 1.207084e+002
7.385601e+002, 1.212875e+002
7.390422e+002, 1.215103e+002
7.395243e+002, 1.214511e+002
7.400064e+002, 1.219001e+002
7.404885e+002, 1.230090e+002
7.409706e+002, 1.242104e+002
7.414528e+002, 1.251996e+002
7.419349e+002, 1.260705e+002
7.424170e+002, 1.270479e+002
7.428991e+002, 1.282027e+002
7.433812e+002, 1.292187e+002
7.438633e+002, 1.299971e+002
7.443455e+002, 1.307086e+002
7.448276e+002, 1.314282e+002
7.453097e+002, 1.321470e+002
7.457918e+002, 1.327542e+002
7.462739e+002, 1.332520e+002
7.467560e+002, 1.339740e+002
7.472382e+002, 1.354720e+002
7.477203e+002, 1.374027e+002
7.482024e+002, 1.385789e+002
7.486845e+002, 1.389803e+002
7.491666e+002, 1.395760e+002
7.496487e+002, 1.407124e+002
7.501309e+002, 1.421087e+002
7.506130e+002, 1.434992e+002
7.510951e+002, 1.448828e+002
7.515772e+002, 1.461255e+002
7.520593e+002, 1.469772e+002
7.525414e+002, 1.480175e+002
7.530236e+002, 1.495626e+002
7.535057e+002, 1.512156e+002
7.539878e+002, 1.525480e+002
7.544699e+002, 1.536131e+002
7.549520e+002, 1.548398e+002
7.554341e+002, 1.565350e+002
7.559163e+002, 1.583808e+002
7.563984e+002, 1.599579e+002
7.568805e+002, 1.613007e+002
7.573626e+002, 1.625139e+002
7.578447e+002, 1.636134e+002
7.583268e+002, 1.646379e+002
7.588090e+002, 1.655754e+002
7.592911e+002, 1.665009e+002
7.597732e+002, 1.676851e+002
7.602553e+002, 1.695078e+002
7.607374e+002, 1.709043e+002
7.612195e+002, 1.716807e+002
7.617017e+002, 1.722696e+002
7.621838e+002, 1.729465e+002
7.626659e+002, 1.735485e+002
7.631480e+002, 1.737436e+002
7.636301e+002, 1.734261e+002
7.641122e+002, 1.730491e+002
7.645944e+002, 1.729539e+002
7.650765e+002, 1.730072e+002
7.655586e+002, 1.730997e+002
7.660407e+002, 1.731702e+002
7.665228e+002, 1.729529e+002
7.670049e+002, 1.723405e+002
7.674871e+002, 1.714314e+002
7.679692e+002, 1.702913e+002
7.684513e+002, 1.688833e+002
7.689334e+002, 1.679618e+002
7.694155e+002, 1.678103e+002
7.698976e+002, 1.676786e+002
7.703798e+002, 1.674702e+002
7.708619e+002, 1.671642e+002
7.713440e+002, 1.666519e+002
7.718261e+002, 1.659994e+002
7.723082e+002, 1.655169e+002
7.727903e+002, 1.653048e+002
7.732725e+002, 1.653046e+002
7.737546e+002, 1.656756e+002
7.742367e+002, 1.661474e+002
7.747188e+002, 1.661838e+002
7.752009e+002, 1.658085e+002
7.756830e+002, 1.655681e+002
7.761652e+002, 1.658160e+002
7.766473e+002, 1.664626e+002
7.771294e+002, 1.673450e+002
7.776115e+002, 1.685125e+002
7.780936e+002, 1.696104e+002
7.785757e+002, 1.706390e+002
7.790579e+002, 1.715556e+002
7.795400e+002, 1.722388e+002
7.800221e+002, 1.728344e+002
7.805042e+002, 1.735867e+002
7.809863e+002, 1.745420e+002
7.814684e+002, 1.754864e+002
7.819506e+002, 1.763088e+002
7.824327e+002, 1.771628e+002
7.829148e+002, 1.782338e+002
7.833969e+002, 1.793778e+002
7.838790e+002, 1.803237e+002
7.843611e+002, 1.810177e+002
7.848433e+002, 1.816794e+002
7.853254e+002, 1.826360e+002
7.858075e+002, 1.836372e+002
7.862896e+002, 1.837796e+002
7.867717e+002, 1.830479e+002
7.872538e+002, 1.825352e+002
7.877360e+002, 1.826314e+002
7.882181e+002, 1.826432e+002
7.887002e+002, 1.818706e+002
7.891823e+002, 1.804194e+002
7.896644e+002, 1.792174e+002
7.901465e+002, 1.784684e+002
7.906286e+002, 1.776573e+002
7.911107e+002, 1.768952e+002
7.915928e+002, 1.759231e+002
7.920750e+002, 1.743867e+002
7.925571e+002, 1.725442e+002
7.930392e+002, 1.709958e+002
7.935213e+002, 1.700105e+002
7.940034e+002, 1.689101e+002
7.944855e+002, 1.668486e+002
7.949677e+002, 1.643685e+002
7.954498e+002, 1.626546e+002
7.959319e+002, 1.616169e+002
7.964140e+002, 1.602403e+002
7.968961e+002, 1.580796e+002
7.973782e+002, 1.556116e+002
7.978604e+002, 1.535053e+002
7.983425e+002, 1.517703e+002
7.988246e+002, 1.498736e+002
7.993067e+002, 1.477715e+002
7.997888e+002, 1.455721e+002
8.002709e+002, 1.430600e+002
8.007531e+002, 1.406555e+002
8.012352e+002, 1.388024e+002
8.017173e+002, 1.373885e+002
8.021994e+002, 1.358659e+002
8.026815e+002, 1.340109e+002
8.031636e+002, 1.321392e+002
8.036458e+002, 1.303866e+002
8.041279e+002, 1.287433e+002
8.046100e+002, 1.271152e+002
8.050921e+002, 1.255802e+002
8.055742e+002, 1.244486e+002
8.060563e+002, 1.239220e+002
8.065385e+002, 1.235597e+002
8.070206e+002, 1.225712e+002
8.075027e+002, 1.210194e+002
8.079848e+002, 1.198203e+002
8.084669e+002, 1.190580e+002
8.089490e+002, 1.183788e+002
8.094312e+002, 1.176112e+002
8.099133e+002, 1.168715e+002
8.103954e+002, 1.163424e+002
8.108775e+002, 1.160531e+002
8.113596e+002, 1.158062e+002
8.118417e+002, 1.157380e+002
8.123239e+002, 1.155407e+002
8.128060e+002, 1.148411e+002
8.132881e+002, 1.141841e+002
8.137702e+002, 1.141765e+002
8.142523e+002, 1.147423e+002
8.147344e+002, 1.153283e+002
8.152166e+002, 1.157210e+002
8.156987e+002, 1.158964e+002
8.161808e+002, 1.156998e+002
8.166629e+002, 1.152948e+002
8.171450e+002, 1.150443e+002
8.176271e+002, 1.149829e+002
8.181093e+002, 1.149667e+002
8.185914e+002, 1.149108e+002
8.190735e+002, 1.148676e+002
8.195556e+002, 1.149793e+002
8.200377e+002, 1.153123e+002
8.205198e+002, 1.153353e+002
8.210020e+002, 1.147810e+002
8.214841e+002, 1.144221e+002
8.219662e+002, 1.146925e+002
8.224483e+002, 1.152002e+002
8.229304e+002, 1.155229e+002
8.234125e+002, 1.156616e+002
8.238947e+002, 1.158066e+002
8.243768e+002, 1.159991e+002
8.248589e+002, 1.162010e+002
8.253410e+002, 1.163583e+002
8.258231e+002, 1.165435e+002
8.263052e+002, 1.168540e+002
8.267874e+002, 1.172764e+002
8.272695e+002, 1.177176e+002
8.277516e+002, 1.181270e+002
8.282337e+002, 1.185373e+002
8.287158e+002, 1.190107e+002
8.291979e+002, 1.195271e+002
8.296801e+002, 1.199525e+002
8.301622e+002, 1.202712e+002
8.306443e+002, 1.207828e+002
8.311264e+002, 1.216748e+002
8.316085e+002, 1.227194e+002
8.320906e+002, 1.235571e+002
8.325728e+002, 1.241647e+002
8.330549e+002, 1.246861e+002
8.335370e+002, 1.248186e+002
8.340191e+002, 1.253045e+002
8.345012e+002, 1.266188e+002
8.349833e+002, 1.280752e+002
8.354655e+002, 1.291408e+002
8.359476e+002, 1.298356e+002
8.364297e+002, 1.304370e+002
8.369118e+002, 1.308052e+002
8.373939e+002, 1.314519e+002
8.378760e+002, 1.328754e+002
8.383582e+002, 1.345866e+002
8.388403e+002, 1.360012e+002
8.393224e+002, 1.371591e+002
8.398045e+002, 1.384316e+002
8.402866e+002, 1.399928e+002
8.407687e+002, 1.416297e+002
8.412509e+002, 1.430611e+002
8.417330e+002, 1.443015e+002
8.422151e+002, 1.454196e+002
8.426972e+002, 1.464123e+002
8.431793e+002, 1.472264e+002
8.436614e+002, 1.477752e+002
8.441436e+002, 1.483072e+002
8.446257e+002, 1.491348e+002
8.451078e+002, 1.502478e+002
8.455899e+002, 1.511866e+002
8.460720e+002, 1.520227e+002
8.465541e+002, 1.525572e+002
8.470363e+002, 1.525838e+002
8.475184e+002, 1.524919e+002
8.480005e+002, 1.526736e+002
8.484826e+002, 1.528991e+002
8.489647e+002, 1.525844e+002
8.494468e+002, 1.514757e+002
8.499290e+002, 1.503015e+002
8.504111e+002, 1.496585e+002
8.508932e+002, 1.489745e+002
8.513753e+002, 1.475207e+002
8.518574e+002, 1.455638e+002
8.523395e+002, 1.438577e+002
8.528217e+002, 1.426039e+002
8.533038e+002, 1.412220e+002
8.537859e+002, 1.390604e+002
8.542680e+002, 1.364350e+002
8.547501e+002, 1.343770e+002
8.552322e+002, 1.328818e+002
8.557144e+002, 1.315377e+002
8.561965e+002, 1.303161e+002
8.566786e+002, 1.290161e+002
8.571607e+002, 1.274484e+002
8.576428e+002, 1.257291e+002
8.581249e+002, 1.242349e+002
8.586071e+002, 1.231786e+002
8.590892e+002, 1.218903e+002
8.595713e+002, 1.200932e+002
8.600534e+002, 1.183927e+002
8.605355e+002, 1.169550e+002
8.610176e+002, 1.157487e+002
8.614998e+002, 1.147406e+002
8.619819e+002, 1.139204e+002
8.624640e+002, 1.132419e+002
8.629461e+002, 1.128301e+002
8.634282e+002, 1.123892e+002
8.639103e+002, 1.116858e+002
8.643925e+002, 1.108459e+002
8.648746e+002, 1.100656e+002
8.653567e+002, 1.093427e+002
8.658388e+002, 1.085181e+002
8.663209e+002, 1.074761e+002
8.668030e+002, 1.064665e+002
8.672852e+002, 1.059614e+002
8.677673e+002, 1.058561e+002
8.682494e+002, 1.055860e+002
8.687315e+002, 1.051163e+002
8.692136e+002, 1.045926e+002
8.696957e+002, 1.040713e+002
8.701779e+002, 1.035205e+002
8.706600e+002, 1.028775e+002
8.711421e+002, 1.021385e+002
8.716242e+002, 1.015936e+002
8.721063e+002, 1.012603e+002
8.725884e+002, 1.010902e+002
8.730705e+002, 1.013167e+002
8.735526e+002, 1.014822e+002
8.740347e+002, 1.012319e+002
8.745168e+002, 1.007187e+002
8.749990e+002, 1.003334e+002
8.754811e+002, 1.001932e+002
8.759632e+002, 1.000184e+002
8.764453e+002, 9.963196e+001
8.769274e+002, 9.925473e+001
8.774095e+002, 9.904577e+001
8.778917e+002, 9.896458e+001
8.783738e+002, 9.899681e+001
8.788559e+002, 9.909621e+001
8.793380e+002, 9.901889e+001
8.798201e+002, 9.841972e+001
8.803022e+002, 9.771882e+001
8.807844e+002, 9.777705e+001
8.812665e+002, 9.833883e+001
8.817486e+002, 9.838242e+001
8.822307e+002, 9.777467e+001
8.827128e+002, 9.719102e+001
8.831949e+002, 9.705752e+001
8.836771e+002, 9.721635e+001
8.841592e+002, 9.737463e+001
8.846413e+002, 9.755293e+001
8.851234e+002, 9.757026e+001
8.856055e+002, 9.739129e+001
8.860876e+002, 9.712531e+001
8.865698e+002, 9.671471e+001
8.870519e+002, 9.633077e+001
8.875340e+002, 9.622835e+001
8.880161e+002, 9.637944e+001
8.884982e+002, 9.634211e+001
8.889803e+002, 9.597909e+001
8.894625e+002, 9.560416e+001
8.899446e+002, 9.529146e+001
8.904267e+002, 9.496330e+001
8.909088e+002, 9.435902e+001
8.913909e+002, 9.375832e+001
8.918730e+002, 9.387228e+001
8.923552e+002, 9.493920e+001
8.928373e+002, 9.566445e+001
8.933194e+002, 9.477929e+001
8.938015e+002, 9.351402e+001
8.942836e+002, 9.326331e+001
8.947657e+002, 9.363512e+001
8.952479e+002, 9.372908e+001
8.957300e+002, 9.337817e+001
8.962121e+002, 9.298129e+001
8.966942e+002, 9.282449e+001
8.971763e+002, 9.284059e+001
8.976584e+002, 9.298272e+001
8.981406e+002, 9.321516e+001
8.986227e+002, 9.310896e+001
8.991048e+002, 9.258799e+001
8.995869e+002, 9.220459e+001
9.000690e+002, 9.224204e+001
9.005511e+002, 9.248827e+001
9.010333e+002, 9.266573e+001
9.015154e+002, 9.278293e+001
9.019975e+002, 9.259469e+001
9.024796e+002, 9.169687e+001
9.029617e+002, 9.124838e+001
9.034438e+002, 9.180726e+001
9.039260e+002, 9.254854e+001
9.044081e+002, 9.302265e+001
9.048902e+002, 9.323508e+001
9.053723e+002, 9.315203e+001
9.058544e+002, 9.259987e+001
9.063365e+002, 9.224097e+001
9.068187e+002, 9.229283e+001
9.073008e+002, 9.252342e+001
9.077829e+002, 9.302366e+001
9.082650e+002, 9.349601e+001
9.087471e+002, 9.344309e+001
9.092292e+002, 9.287811e+001
9.097114e+002, 9.242431e+001
9.101935e+002, 9.247912e+001
9.106756e+002, 9.275114e+001
9.111577e+002, 9.299773e+001
9.116398e+002, 9.322709e+001
9.121219e+002, 9.345703e+001
9.126041e+002, 9.368498e+001
9.130862e+002, 9.390568e+001
9.135683e+002, 9.411686e+001
9.140504e+002, 9.427339e+001
9.145325e+002, 9.426550e+001
9.150146e+002, 9.414684e+001
9.154968e+002, 9.424332e+001
9.159789e+002, 9.456236e+001
9.164610e+002, 9.493325e+001
9.169431e+002, 9.534164e+001
9.174252e+002, 9.567395e+001
9.179073e+002, 9.582627e+001
9.183895e+002, 9.584071e+001
9.188716e+002, 9.588577e+001
9.193537e+002, 9.606110e+001
9.198358e+002, 9.600243e+001
9.203179e+002, 9.555123e+001
9.208000e+002, 9.509070e+001
9.212822e+002, 9.487977e+001
9.217643e+002, 9.466135e+001
9.222464e+002, 9.406145e+001
9.227285e+002, 9.310258e+001
9.232106e+002, 9.240632e+001
9.236927e+002, 9.230241e+001
9.241749e+002, 9.213919e+001
9.246570e+002, 9.166226e+001
9.251391e+002, 9.112478e+001
9.256212e+002, 9.076097e+001
9.261033e+002, 9.048900e+001
9.265854e+002, 9.007301e+001
9.270676e+002, 8.943865e+001
9.275497e+002, 8.888229e+001
9.280318e+002, 8.876041e+001
9.285139e+002, 8.867220e+001
9.289960e+002, 8.804957e+001
9.294781e+002, 8.720904e+001
9.299603e+002, 8.688492e+001
9.304424e+002, 8.708484e+001
9.309245e+002, 8.707340e+001
9.314066e+002, 8.634074e+001
9.318887e+002, 8.540294e+001
9.323708e+002, 8.512096e+001
9.328530e+002, 8.534182e+001
9.333351e+002, 8.544991e+001
9.338172e+002, 8.541473e+001
9.342993e+002, 8.533632e+001
9.347814e+002, 8.524887e+001
9.352635e+002, 8.515330e+001
9.357457e+002, 8.504239e+001
9.362278e+002, 8.492899e+001
9.367099e+002, 8.491077e+001
9.371920e+002, 8.503078e+001
9.376741e+002, 8.503946e+001
9.381563e+002, 8.483802e+001
9.386384e+002, 8.467320e+001
9.391205e+002, 8.463937e+001
9.396026e+002, 8.476167e+001
9.400847e+002, 8.516579e+001
9.405668e+002, 8.597972e+001
9.410490e+002, 8.631438e+001
9.415311e+002, 8.563915e+001
9.420132e+002, 8.523128e+001
9.424953e+002, 8.552909e+001
9.429774e+002, 8.599550e+001
9.434595e+002, 8.627378e+001
9.439417e+002, 8.639675e+001
9.444238e+002, 8.647903e+001
9.449059e+002, 8.649593e+001
9.453880e+002, 8.665594e+001
9.458701e+002, 8.725341e+001
9.463522e+002, 8.778596e+001
9.468344e+002, 8.794733e+001
9.473165e+002, 8.781985e+001
9.477986e+002, 8.743851e+001
9.482807e+002, 8.688721e+001
9.487628e+002, 8.641570e+001
9.492449e+002, 8.615208e+001
9.497271e+002, 8.602799e+001
9.502092e+002, 8.600027e+001
9.506913e+002, 8.605493e+001
9.511734e+002, 8.628863e+001
9.516555e+002, 8.658364e+001
9.521376e+002, 8.649752e+001
9.526198e+002, 8.591863e+001
9.531019e+002, 8.537946e+001
9.535840e+002, 8.545525e+001
9.540661e+002, 8.584943e+001
9.545482e+002, 8.582285e+001
9.550303e+002, 8.543440e+001
9.555124e+002, 8.507814e+001
9.559945e+002, 8.480749e+001
9.564766e+002, 8.447951e+001
9.569587e+002, 8.400408e+001
9.574409e+002, 8.348998e+001
9.579230e+002, 8.310132e+001
9.584051e+002, 8.283580e+001
9.588872e+002, 8.274882e+001
9.593693e+002, 8.291420e+001
9.598514e+002, 8.293597e+001
9.603336e+002, 8.271024e+001
9.608157e+002, 8.235598e+001
9.612978e+002, 8.189390e+001
9.617799e+002, 8.141246e+001
9.622620e+002, 8.117391e+001
9.627441e+002, 8.127515e+001
9.632263e+002, 8.131934e+001
9.637084e+002, 8.121364e+001
9.641905e+002, 8.117796e+001
9.646726e+002, 8.146258e+001
9.651547e+002, 8.168404e+001
9.656368e+002, 8.138095e+001
9.661190e+002, 8.069678e+001
9.666011e+002, 8.031190e+001
9.670832e+002, 8.040322e+001
9.675653e+002, 8.060327e+001
9.680474e+002, 8.100511e+001
9.685295e+002, 8.131065e+001
9.690117e+002, 8.137959e+001
9.694938e+002, 8.123064e+001
9.699759e+002, 8.080073e+001
9.704580e+002, 8.014798e+001
9.709401e+002, 7.964147e+001
9.714222e+002, 7.945963e+001
9.719044e+002, 7.944087e+001
9.723865e+002, 7.961919e+001
9.728686e+002, 7.980305e+001
9.733507e+002, 7.968801e+001
9.738328e+002, 7.942802e+001
9.743149e+002, 7.948878e+001
9.747971e+002, 7.996299e+001
9.752792e+002, 8.027425e+001
9.757613e+002, 7.977776e+001
9.762434e+002, 7.907777e+001
9.767255e+002, 7.904769e+001
9.772076e+002, 7.941051e+001
9.776898e+002, 7.959534e+001
9.781719e+002, 7.954751e+001
9.786540e+002, 7.942336e+001
9.791361e+002, 7.929742e+001
9.796182e+002, 7.920127e+001
9.801003e+002, 7.919636e+001
9.805825e+002, 7.924455e+001
9.810646e+002, 7.923610e+001
9.815467e+002, 7.916735e+001
9.820288e+002, 7.896577e+001
9.825109e+002, 7.861870e+001
9.829930e+002, 7.833488e+001
9.834752e+002, 7.825101e+001
9.839573e+002, 7.831464e+001
9.844394e+002, 7.847088e+001
9.849215e+002, 7.872181e+001
9.854036e+002, 7.874716e+001
9.858857e+002, 7.851319e+001
9.863679e+002, 7.824084e+001
9.868500e+002, 7.797175e+001
9.873321e+002, 7.772620e+001
9.878142e+002, 7.752502e+001
9.882963e+002, 7.735529e+001
9.887784e+002, 7.716916e+001
9.892606e+002, 7.693537e+001
9.897427e+002, 7.679829e+001
9.902248e+002, 7.677477e+001
9.907069e+002, 7.682021e+001
9.911890e+002, 7.698568e+001
9.916711e+002, 7.714300e+001
9.921533e+002, 7.715163e+001
9.926354e+002, 7.703904e+001
9.931175e+002, 7.696621e+001
9.935996e+002, 7.691489e+001
9.940817e+002, 7.693675e+001
9.945638e+002, 7.724571e+001
9.950460e+002, 7.737320e+001
9.955281e+002, 7.691785e+001
9.960102e+002, 7.634492e+001
9.964923e+002, 7.621721e+001
9.969744e+002, 7.648636e+001
9.974565e+002, 7.660232e+001
9.979387e+002, 7.639329e+001
9.984208e+002, 7.613958e+001
9.989029e+002, 7.586275e+001
9.993850e+002, 7.561340e+001
9.998671e+002, 7.539464e+001
1.000349e+003, 7.524129e+001
1.000831e+003, 7.523720e+001
1.001313e+003, 7.537016e+001
1.001796e+003, 7.545497e+001
1.002278e+003, 7.534715e+001
1.002760e+003, 7.527757e+001
1.003242e+003, 7.554275e+001
1.003724e+003, 7.575523e+001
1.004206e+003, 7.539524e+001
1.004688e+003, 7.475002e+001
1.005170e+003, 7.443510e+001
1.005653e+003, 7.458215e+001
1.006135e+003, 7.481112e+001
1.006617e+003, 7.491383e+001
1.007099e+003, 7.495741e+001
1.007581e+003, 7.499918e+001
1.008063e+003, 7.502481e+001
1.008545e+003, 7.502751e+001
1.009027e+003, 7.499370e+001
1.009509e+003, 7.483918e+001
1.009992e+003, 7.455627e+001
1.010474e+003, 7.440292e+001
1.010956e+003, 7.471500e+001
1.011438e+003, 7.516811e+001
1.011920e+003, 7.523061e+001
1.012402e+003, 7.506303e+001
1.012884e+003, 7.510387e+001
1.013366e+003, 7.532504e+001
1.013849e+003, 7.528247e+001
1.014331e+003, 7.478995e+001
1.014813e+003, 7.426743e+001
1.015295e+003, 7.425009e+001
1.015777e+003, 7.450022e+001
1.016259e+003, 7.438321e+001
1.016741e+003, 7.398425e+001
1.017223e+003, 7.369500e+001
1.017705e+003, 7.357267e+001
1.018188e+003, 7.352431e+001
1.018670e+003, 7.350346e+001
1.019152e+003, 7.352306e+001
1.019634e+003, 7.365274e+001
1.020116e+003, 7.382333e+001
1.020598e+003, 7.358317e+001
1.021080e+003, 7.296006e+001
1.021562e+003, 7.276395e+001
1.022044e+003, 7.316076e+001
1.022527e+003, 7.346516e+001
1.023009e+003, 7.325414e+001
1.023491e+003, 7.287971e+001
1.023973e+003, 7.295223e+001
1.024455e+003, 7.342867e+001
1.024937e+003, 7.356776e+001
1.025419e+003, 7.333706e+001
1.025901e+003, 7.300089e+001
1.026384e+003, 7.254963e+001
1.026866e+003, 7.228172e+001
1.027348e+003, 7.244665e+001
1.027830e+003, 7.276604e+001
1.028312e+003, 7.269585e+001
1.028794e+003, 7.221164e+001
1.029276e+003, 7.193964e+001
1.029758e+003, 7.190427e+001
1.030240e+003, 7.202640e+001
1.030723e+003, 7.240950e+001
1.031205e+003, 7.264989e+001
1.031687e+003, 7.237883e+001
1.032169e+003, 7.190687e+001
1.032651e+003, 7.187157e+001
1.033133e+003, 7.231849e+001
1.033615e+003, 7.284695e+001
1.034097e+003, 7.368806e+001
1.034579e+003, 7.408408e+001
1.035062e+003, 7.368535e+001
1.035544e+003, 7.311342e+001
1.036026e+003, 7.267229e+001
1.036508e+003, 7.240091e+001
1.036990e+003, 7.242814e+001
1.037472e+003, 7.284016e+001
1.037954e+003, 7.306194e+001
1.038436e+003, 7.296038e+001
1.038919e+003, 7.287933e+001
1.039401e+003, 7.289440e+001
1.039883e+003, 7.292789e+001
1.040365e+003, 7.287802e+001
1.040847e+003, 7.282864e+001
1.041329e+003, 7.302709e+001
1.041811e+003, 7.359998e+001
1.042293e+003, 7.375599e+001
1.042776e+003, 7.308973e+001
1.043258e+003, 7.255750e+001
1.043740e+003, 7.236235e+001
1.044222e+003, 7.232628e+001
1.044704e+003, 7.244176e+001
1.045186e+003, 7.259991e+001
1.045668e+003, 7.257706e+001
1.046150e+003, 7.232688e+001
1.046632e+003, 7.213045e+001
1.047115e+003, 7.197129e+001
1.047597e+003, 7.193262e+001
1.048079e+003, 7.219349e+001
1.048561e+003, 7.242636e+001
1.049043e+003, 7.240014e+001
1.049525e+003, 7.218794e+001
1.050007e+003, 7.190027e+001
1.050489e+003, 7.153228e+001
1.050971e+003, 7.131484e+001
1.051454e+003, 7.143087e+001
1.051936e+003, 7.151530e+001
1.052418e+003, 7.146569e+001
1.052900e+003, 7.134138e+001
1.053382e+003, 7.111070e+001
1.053864e+003, 7.086754e+001
1.054346e+003, 7.081021e+001
1.054828e+003, 7.097264e+001
1.055311e+003, 7.102462e+001
1.055793e+003, 7.074696e+001
1.056275e+003, 7.052475e+001
1.056757e+003, 7.047150e+001
1.057239e+003, 7.053899e+001
1.057721e+003, 7.083749e+001
1.058203e+003, 7.116781e+001
1.058685e+003, 7.115486e+001
1.059167e+003, 7.075075e+001
1.059650e+003, 7.041809e+001
1.060132e+003, 7.020291e+001
1.060614e+003, 7.022588e+001
1.061096e+003, 7.077820e+001
1.061578e+003, 7.134541e+001
1.062060e+003, 7.159367e+001
1.062542e+003, 7.155752e+001
1.063024e+003, 7.122494e+001
1.063506e+003, 7.064314e+001
1.063989e+003, 7.032090e+001
1.064471e+003, 7.076264e+001
1.064953e+003, 7.103999e+001
1.065435e+003, 7.049071e+001
1.065917e+003, 6.990981e+001
1.066399e+003, 6.998984e+001
1.066881e+003, 7.040765e+001
1.067363e+003, 7.062917e+001
1.067846e+003, 7.057893e+001
1.068328e+003, 7.048105e+001
1.068810e+003, 7.049990e+001
1.069292e+003, 7.034414e+001
1.069774e+003, 6.963224e+001
1.070256e+003, 6.895279e+001
1.070738e+003, 6.878281e+001
1.071220e+003, 6.890780e+001
1.071703e+003, 6.902666e+001
1.072185e+003, 6.908399e+001
1.072667e+003, 6.910346e+001
1.073149e+003, 6.906106e+001
1.073631e+003, 6.905712e+001
1.074113e+003, 6.923367e+001
1.074595e+003, 6.936546e+001
1.075077e+003, 6.920031e+001
1.075559e+003, 6.894617e+001
1.076042e+003, 6.888895e+001
1.076524e+003, 6.903097e+001
1.077006e+003, 6.920415e+001
1.077488e+003, 6.939852e+001
1.077970e+003, 6.946626e+001
1.078452e+003, 6.922857e+001
1.078934e+003, 6.896213e+001
1.079416e+003, 6.883089e+001
1.079898e+003, 6.879343e+001
1.080380e+003, 6.882520e+001
1.080863e+003, 6.889063e+001
1.081345e+003, 6.891551e+001
1.081827e+003, 6.888499e+001
1.082309e+003, 6.877180e+001
1.082791e+003, 6.838894e+001
1.083273e+003, 6.812142e+001
1.083755e+003, 6.835200e+001
1.084237e+003, 6.870663e+001
1.084720e+003, 6.873888e+001
1.085202e+003, 6.854216e+001
1.085684e+003, 6.849765e+001
1.086166e+003, 6.872471e+001
1.086648e+003, 6.889331e+001
1.087130e+003, 6.874413e+001
1.087612e+003, 6.865002e+001
1.088094e+003, 6.899570e+001
1.088577e+003, 6.932001e+001
1.089059e+003, 6.907490e+001
1.089541e+003, 6.849873e+001
1.090023e+003, 6.815525e+001
1.090505e+003, 6.815932e+001
1.090987e+003, 6.821370e+001
1.091469e+003, 6.829128e+001
1.091951e+003, 6.828530e+001
1.092433e+003, 6.790157e+001
1.092916e+003, 6.765801e+001
1.093398e+003, 6.825731e+001
1.093880e+003, 6.915083e+001
1.094362e+003, 6.929875e+001
1.094844e+003, 6.861511e+001
1.095326e+003, 6.813144e+001
1.095808e+003, 6.836230e+001
1.096290e+003, 6.855920e+001
1.096772e+003, 6.852889e+001
1.097255e+003, 6.833390e+001
1.097737e+003, 6.780692e+001
1.098219e+003, 6.726554e+001
1.098701e+003, 6.716957e+001
1.099183e+003, 6.749563e+001
1.099665e+003, 6.779293e+001
1.100147e+003, 6.802669e+001
1.100629e+003, 6.808001e+001
1.101112e+003, 6.769720e+001
1.101594e+003, 6.739336e+001
1.102076e+003, 6.754826e+001
1.102558e+003, 6.781245e+001
1.103040e+003, 6.774103e+001
1.103522e+003, 6.743573e+001
1.104004e+003, 6.738896e+001
1.104486e+003, 6.777702e+001
1.104969e+003, 6.808575e+001
1.105451e+003, 6.824209e+001
1.105933e+003, 6.828175e+001
1.106415e+003, 6.813941e+001
1.106897e+003, 6.795741e+001
1.107379e+003, 6.783645e+001
1.107861e+003, 6.776682e+001
1.108343e+003, 6.770331e+001
1.108825e+003, 6.762839e+001
1.109307e+003, 6.764079e+001
1.109790e+003, 6.784387e+001
1.110272e+003, 6.799975e+001
1.110754e+003, 6.809633e+001
1.111236e+003, 6.809512e+001
1.111718e+003, 6.788054e+001
1.112200e+003, 6.759750e+001
1.112682e+003, 6.751875e+001
1.113164e+003, 6.766370e+001
1.113647e+003, 6.765997e+001
1.114129e+003, 6.727927e+001
1.114611e+003, 6.713667e+001
1.115093e+003, 6.753462e+001
1.115575e+003, 6.781467e+001
1.116057e+003, 6.754533e+001
1.116539e+003, 6.716409e+001
1.117021e+003, 6.722896e+001
1.117504e+003, 6.765811e+001
1.117986e+003, 6.783633e+001
1.118468e+003, 6.763039e+001
1.118950e+003, 6.748452e+001
1.119432e+003, 6.739113e+001
1.119914e+003, 6.738656e+001
1.120396e+003, 6.753037e+001
1.120878e+003, 6.768795e+001
1.121360e+003, 6.774548e+001
1.121843e+003, 6.772724e+001
1.122325e+003, 6.769331e+001
1.122807e+003, 6.762450e+001
1.123289e+003, 6.769286e+001
1.123771e+003, 6.801120e+001
1.124253e+003, 6.803725e+001
1.124735e+003, 6.752686e+001
1.125217e+003, 6.711397e+001
1.125699e+003, 6.724701e+001
1.126182e+003, 6.761546e+001
1.126664e+003, 6.767613e+001
1.127146e+003, 6.745063e+001
1.127628e+003, 6.736030e+001
1.128110e+003, 6.743597e+001
1.128592e+003, 6.731338e+001
1.129074e+003, 6.689205e+001
1.129556e+003, 6.672039e+001
1.130039e+003, 6.708446e+001
1.130521e+003, 6.757695e+001
1.131003e+003, 6.772788e+001
1.131485e+003, 6.764121e+001
1.131967e+003, 6.773150e+001
1.132449e+003, 6.797411e+001
1.132931e+003, 6.783630e+001
1.133413e+003, 6.730399e+001
1.133896e+003, 6.706071e+001
1.134378e+003, 6.731461e+001
1.134860e+003, 6.764055e+001
1.135342e+003, 6.770213e+001
1.135824e+003, 6.767443e+001
1.136306e+003, 6.792445e+001
1.136788e+003, 6.835152e+001
1.137270e+003, 6.855776e+001
1.137752e+003, 6.857301e+001
1.138234e+003, 6.856616e+001
1.138717e+003, 6.856773e+001
1.139199e+003, 6.853964e+001
1.139681e+003, 6.846235e+001
1.140163e+003, 6.832787e+001
1.140645e+003, 6.803239e+001
1.141127e+003, 6.776157e+001
1.141609e+003, 6.792377e+001
1.142091e+003, 6.834579e+001
1.142574e+003, 6.875255e+001
1.143056e+003, 6.904244e+001
1.143538e+003, 6.897997e+001
1.144020e+003, 6.853690e+001
1.144502e+003, 6.810580e+001
1.144984e+003, 6.796130e+001
1.145466e+003, 6.794695e+001
1.145948e+003, 6.790969e+001
1.146431e+003, 6.789797e+001
1.146913e+003, 6.803324e+001
1.147395e+003, 6.821320e+001
1.147877e+003, 6.820130e+001
1.148359e+003, 6.802284e+001
1.148841e+003, 6.794255e+001
1.149323e+003, 6.806846e+001
1.149805e+003, 6.832355e+001
1.150287e+003, 6.894200e+001
1.150770e+003, 6.935059e+001
1.151252e+003, 6.887920e+001
1.151734e+003, 6.818752e+001
1.152216e+003, 6.801943e+001
1.152698e+003, 6.822976e+001
1.153180e+003, 6.826286e+001
1.153662e+003, 6.800508e+001
1.154144e+003, 6.803889e+001
1.154626e+003, 6.899609e+001
1.155109e+003, 6.965543e+001
1.155591e+003, 6.926023e+001
1.156073e+003, 6.883555e+001
1.156555e+003, 6.919121e+001
1.157037e+003, 6.978236e+001
1.157519e+003, 6.985594e+001
1.158001e+003, 6.943587e+001
1.158483e+003, 6.902328e+001
1.158966e+003, 6.850703e+001
1.159448e+003, 6.833351e+001
1.159930e+003, 6.891843e+001
1.160412e+003, 6.931313e+001
1.160894e+003, 6.912557e+001
1.161376e+003, 6.882374e+001
1.161858e+003, 6.873270e+001
1.162340e+003, 6.877924e+001
1.162822e+003, 6.879313e+001
1.163305e+003, 6.875735e+001
1.163787e+003, 6.889472e+001
1.164269e+003, 6.932701e+001
1.164751e+003, 6.955559e+001
1.165233e+003, 6.943983e+001
1.165715e+003, 6.934325e+001
1.166197e+003, 6.945791e+001
1.166679e+003, 6.961585e+001
1.167161e+003, 6.962789e+001
1.167644e+003, 6.950754e+001
1.168126e+003, 6.925172e+001
1.168608e+003, 6.884695e+001
1.169090e+003, 6.878178e+001
1.169572e+003, 6.908831e+001
1.170054e+003, 6.930678e+001
1.170536e+003, 6.931213e+001
1.171018e+003, 6.916252e+001
1.171500e+003, 6.887177e+001
1.171983e+003, 6.863637e+001
1.172465e+003, 6.884489e+001
1.172947e+003, 6.933794e+001
1.173429e+003, 6.961959e+001
1.173911e+003, 6.970896e+001
1.174393e+003, 6.964922e+001
1.174875e+003, 6.947002e+001
1.175357e+003, 6.919530e+001
1.175840e+003, 6.885981e+001
1.176322e+003, 6.878876e+001
1.176804e+003, 6.939549e+001
1.177286e+003, 7.006422e+001
1.177768e+003, 6.986103e+001
1.178250e+003, 6.935592e+001
1.178732e+003, 6.939072e+001
1.179214e+003, 6.977768e+001
1.179697e+003, 7.010172e+001
1.180179e+003, 7.026906e+001
1.180661e+003, 7.027255e+001
1.181143e+003, 7.008469e+001
1.181625e+003, 6.993826e+001
1.182107e+003, 6.984704e+001
1.182589e+003, 6.999820e+001
1.183071e+003, 7.089179e+001
1.183553e+003, 7.174838e+001
1.184036e+003, 7.172210e+001
1.184518e+003, 7.114010e+001
1.185000e+003, 7.062163e+001
1.185482e+003, 7.027460e+001
1.185964e+003, 7.017706e+001
1.186446e+003, 7.068793e+001
1.186928e+003, 7.089585e+001
1.187410e+003, 7.019685e+001
1.187892e+003, 6.973161e+001
1.188375e+003, 7.035201e+001
1.188857e+003, 7.109115e+001
1.189339e+003, 7.094285e+001
1.189821e+003, 7.023971e+001
1.190303e+003, 6.994976e+001
1.190785e+003, 7.015098e+001
1.191267e+003, 7.033212e+001
1.191749e+003, 7.059612e+001
1.192232e+003, 7.049629e+001
1.192714e+003, 6.978582e+001
1.193196e+003, 6.923329e+001
1.193678e+003, 6.925072e+001
1.194160e+003, 6.953047e+001
1.194642e+003, 6.971809e+001
1.195124e+003, 6.982984e+001
1.195606e+003, 6.995261e+001
1.196089e+003, 7.008016e+001
1.196571e+003, 6.996422e+001
1.197053e+003, 6.961700e+001
1.197535e+003, 6.954340e+001
1.198017e+003, 6.985641e+001
1.198499e+003, 7.022552e+001
1.198981e+003, 7.045399e+001
1.199463e+003, 7.052091e+001
1.199945e+003, 7.026873e+001
1.200427e+003, 6.993526e+001
1.200910e+003, 7.009761e+001
1.201392e+003, 7.050972e+001
1.201874e+003, 7.060056e+001
1.202356e+003, 7.042553e+001
1.202838e+003, 7.038072e+001
1.203320e+003, 7.054072e+001
1.203802e+003, 7.056770e+001
1.204284e+003, 7.021619e+001
1.204767e+003, 6.982354e+001
1.205249e+003, 6.948885e+001
1.205731e+003, 6.938697e+001
1.206213e+003, 6.991290e+001
1.206695e+003, 7.057221e+001
1.207177e+003, 7.076492e+001
1.207659e+003, 7.057508e+001
1.208141e+003, 7.034349e+001
1.208624e+003, 7.012627e+001
1.209106e+003, 7.006013e+001
1.209588e+003, 7.031994e+001
1.210070e+003, 7.052119e+001
1.210552e+003, 7.047337e+001
1.211034e+003, 7.048202e+001
1.211516e+003, 7.087437e+001
1.211998e+003, 7.124149e+001
1.212480e+003, 7.109743e+001
1.212963e+003, 7.059866e+001
1.213445e+003, 7.034237e+001
1.213927e+003, 7.036289e+001
1.214409e+003, 7.045940e+001
1.214891e+003, 7.065055e+001
1.215373e+003, 7.085417e+001
1.215855e+003, 7.107375e+001
1.216337e+003, 7.120350e+001
1.216819e+003, 7.117503e+001
1.217302e+003, 7.110358e+001
1.217784e+003, 7.115065e+001
1.218266e+003, 7.123239e+001
1.218748e+003, 7.100774e+001
1.219230e+003, 7.057613e+001
1.219712e+003, 7.050695e+001
1.220194e+003, 7.073759e+001
1.220676e+003, 7.074546e+001
1.221159e+003, 7.045383e+001
1.221641e+003, 7.021046e+001
1.222123e+003, 7.020043e+001
1.222605e+003, 7.034400e+001
1.223087e+003, 7.079125e+001
1.223569e+003, 7.111574e+001
1.224051e+003, 7.057620e+001
1.224533e+003, 6.980823e+001
1.225016e+003, 6.959534e+001
1.225498e+003, 6.985006e+001
1.225980e+003, 7.041009e+001
1.226462e+003, 7.112194e+001
1.226944e+003, 7.144769e+001
1.227426e+003, 7.103149e+001
1.227908e+003, 7.070852e+001
1.228390e+003, 7.084972e+001
1.228872e+003, 7.102855e+001
1.229354e+003, 7.097916e+001
1.229837e+003, 7.098411e+001
1.230319e+003, 7.151015e+001
1.230801e+003, 7.211855e+001
1.231283e+003, 7.192270e+001
1.231765e+003, 7.095797e+001
1.232247e+003, 7.047371e+001
1.232729e+003, 7.063951e+001
1.233211e+003, 7.077321e+001
1.233694e+003, 7.083867e+001
1.234176e+003, 7.090922e+001
1.234658e+003, 7.101848e+001
1.235140e+003, 7.108686e+001
1.235622e+003, 7.105586e+001
1.236104e+003, 7.095205e+001
1.236586e+003, 7.078388e+001
1.237068e+003, 7.060070e+001
1.237551e+003, 7.066842e+001
1.238033e+003, 7.090978e+001
1.238515e+003, 7.095271e+001
1.238997e+003, 7.080936e+001
1.239479e+003, 7.074152e+001
1.239961e+003, 7.081670e+001
1.240443e+003, 7.088907e+001
1.240925e+003, 7.085030e+001
1.241407e+003, 7.086520e+001
1.241890e+003, 7.124312e+001
1.242372e+003, 7.159367e+001
1.242854e+003, 7.146085e+001
1.243336e+003, 7.113297e+001
1.243818e+003, 7.091609e+001
1.244300e+003, 7.082756e+001
1.244782e+003, 7.082392e+001
1.245264e+003, 7.089308e+001
1.245746e+003, 7.100826e+001
1.246229e+003, 7.127914e+001
1.246711e+003, 7.137907e+001
1.247193e+003, 7.120662e+001
1.247675e+003, 7.091050e+001
1.248157e+003, 7.026150e+001
1.248639e+003, 6.985476e+001
1.249121e+003, 7.024899e+001
1.249603e+003, 7.102034e+001
1.250085e+003, 7.141988e+001
1.250568e+003, 7.146151e+001
1.251050e+003, 7.136703e+001
1.251532e+003, 7.110619e+001
1.252014e+003, 7.106813e+001
1.252496e+003, 7.129088e+001
1.252978e+003, 7.147709e+001
1.253460e+003, 7.153752e+001
1.253942e+003, 7.158731e+001
1.254425e+003, 7.171829e+001
1.254907e+003, 7.174140e+001
1.255389e+003, 7.122014e+001
1.255871e+003, 7.054153e+001
1.256353e+003, 7.050674e+001
1.256835e+003, 7.081921e+001
1.257317e+003, 7.092410e+001
1.257799e+003, 7.088501e+001
1.258281e+003, 7.102370e+001
1.258764e+003, 7.137756e+001
1.259246e+003, 7.173176e+001
1.259728e+003, 7.204165e+001
1.260210e+003, 7.216091e+001
1.260692e+003, 7.178761e+001
1.261174e+003, 7.151626e+001
1.261656e+003, 7.177056e+001
1.262138e+003, 7.208985e+001
1.262620e+003, 7.212191e+001
1.263103e+003, 7.197986e+001
1.263585e+003, 7.184373e+001
1.264067e+003, 7.171827e+001
1.264549e+003, 7.164145e+001
1.265031e+003, 7.164790e+001
1.265513e+003, 7.155867e+001
1.265995e+003, 7.131788e+001
1.266477e+003, 7.125719e+001
1.266960e+003, 7.148303e+001
1.267442e+003, 7.164452e+001
1.267924e+003, 7.153136e+001
1.268406e+003, 7.140709e+001
1.268888e+003, 7.161562e+001
1.269370e+003, 7.198437e+001
1.269852e+003, 7.216049e+001
1.270334e+003, 7.215960e+001
1.270817e+003, 7.187956e+001
1.271299e+003, 7.149563e+001
1.271781e+003, 7.160069e+001
1.272263e+003, 7.209438e+001
1.272745e+003, 7.211127e+001
1.273227e+003, 7.131950e+001
1.273709e+003, 7.079805e+001
1.274191e+003, 7.155956e+001
1.274673e+003, 7.223713e+001
1.275156e+003, 7.201682e+001
1.275638e+003, 7.163355e+001
1.276120e+003, 7.147515e+001
1.276602e+003, 7.150107e+001
1.277084e+003, 7.179118e+001
1.277566e+003, 7.217580e+001
1.278048e+003, 7.209547e+001
1.278530e+003, 7.147094e+001
1.279012e+003, 7.110300e+001
1.279495e+003, 7.099702e+001
1.279977e+003, 7.116670e+001
1.280459e+003, 7.169500e+001
1.280941e+003, 7.206599e+001
1.281423e+003, 7.207687e+001
1.281905e+003, 7.204212e+001
1.282387e+003, 7.222527e+001
1.282869e+003, 7.243349e+001
1.283352e+003, 7.224345e+001
1.283834e+003, 7.187627e+001
1.284316e+003, 7.180050e+001
1.284798e+003, 7.201970e+001
##END=



