##NAMES=Katoptrite
##RRUFFID=R140009
##IDEAL CHEMISTRY=Mn^2+^_13_Al_4_Sb^5+^_2_O_20_(SiO_4_)_2_
##LOCALITY=Brattfors mine, Nordmark, Filipstad, VÃ¤rmland, Sweden
##OWNER=RRUFF
##SOURCE=Rock Currier
##DESCRIPTION=Tiny grains of thin black splinters or flakes
##STATUS=The identification of this mineral has been confirmed by single-crystal X-ray diffraction.
##URL=rruff.info/R140009
8.930109e+001, 0.000000e+000
8.978320e+001, 9.475962e+001
9.026532e+001, 9.447853e+001
9.074744e+001, 9.448136e+001
9.122955e+001, 9.476406e+001
9.171167e+001, 9.547105e+001
9.219379e+001, 9.704148e+001
9.267590e+001, 9.936265e+001
9.315802e+001, 1.012669e+002
9.364014e+001, 1.021255e+002
9.412225e+001, 1.019632e+002
9.460437e+001, 1.005455e+002
9.508649e+001, 9.702584e+001
9.556860e+001, 9.267667e+001
9.605072e+001, 9.097047e+001
9.653284e+001, 9.219017e+001
9.701495e+001, 9.371712e+001
9.749707e+001, 9.271522e+001
9.797919e+001, 8.926905e+001
9.846130e+001, 8.590255e+001
9.894342e+001, 8.310607e+001
9.942554e+001, 8.088126e+001
9.990765e+001, 7.997530e+001
1.003898e+002, 8.067617e+001
1.008719e+002, 8.199159e+001
1.013540e+002, 8.255986e+001
1.018361e+002, 8.234740e+001
1.023182e+002, 8.167049e+001
1.028004e+002, 8.056071e+001
1.032825e+002, 7.890044e+001
1.037646e+002, 7.736802e+001
1.042467e+002, 7.579900e+001
1.047288e+002, 7.442493e+001
1.052109e+002, 7.384389e+001
1.056931e+002, 7.429412e+001
1.061752e+002, 7.511634e+001
1.066573e+002, 7.599119e+001
1.071394e+002, 7.644878e+001
1.076215e+002, 7.773347e+001
1.081036e+002, 8.054749e+001
1.085858e+002, 8.444671e+001
1.090679e+002, 8.697991e+001
1.095500e+002, 8.801423e+001
1.100321e+002, 8.789592e+001
1.105142e+002, 8.681947e+001
1.109963e+002, 8.350484e+001
1.114785e+002, 8.069913e+001
1.119606e+002, 7.869024e+001
1.124427e+002, 7.745741e+001
1.129248e+002, 7.674501e+001
1.134069e+002, 7.659450e+001
1.138890e+002, 7.688479e+001
1.143712e+002, 7.751972e+001
1.148533e+002, 7.876208e+001
1.153354e+002, 8.007688e+001
1.158175e+002, 8.130851e+001
1.162996e+002, 8.246413e+001
1.167817e+002, 8.356331e+001
1.172639e+002, 8.480664e+001
1.177460e+002, 8.596705e+001
1.182281e+002, 8.675484e+001
1.187102e+002, 8.702772e+001
1.191923e+002, 8.693061e+001
1.196744e+002, 8.651002e+001
1.201566e+002, 8.574496e+001
1.206387e+002, 8.477757e+001
1.211208e+002, 8.342976e+001
1.216029e+002, 8.193531e+001
1.220850e+002, 8.078372e+001
1.225671e+002, 8.029169e+001
1.230493e+002, 8.023029e+001
1.235314e+002, 8.037814e+001
1.240135e+002, 8.070243e+001
1.244956e+002, 8.121809e+001
1.249777e+002, 8.241319e+001
1.254598e+002, 8.398555e+001
1.259420e+002, 8.476485e+001
1.264241e+002, 8.333461e+001
1.269062e+002, 8.066328e+001
1.273883e+002, 7.853107e+001
1.278704e+002, 7.739864e+001
1.283525e+002, 7.684016e+001
1.288347e+002, 7.617732e+001
1.293168e+002, 7.542995e+001
1.297989e+002, 7.498837e+001
1.302810e+002, 7.548135e+001
1.307631e+002, 7.663860e+001
1.312452e+002, 7.732692e+001
1.317274e+002, 7.704488e+001
1.322095e+002, 7.621293e+001
1.326916e+002, 7.607740e+001
1.331737e+002, 7.673305e+001
1.336558e+002, 7.743015e+001
1.341379e+002, 7.741625e+001
1.346201e+002, 7.670041e+001
1.351022e+002, 7.581149e+001
1.355843e+002, 7.479588e+001
1.360664e+002, 7.370344e+001
1.365485e+002, 7.297688e+001
1.370306e+002, 7.266728e+001
1.375128e+002, 7.259983e+001
1.379949e+002, 7.256357e+001
1.384770e+002, 7.254973e+001
1.389591e+002, 7.259986e+001
1.394412e+002, 7.261693e+001
1.399233e+002, 7.255099e+001
1.404055e+002, 7.328098e+001
1.408876e+002, 7.529890e+001
1.413697e+002, 7.760786e+001
1.418518e+002, 7.851139e+001
1.423339e+002, 7.758038e+001
1.428160e+002, 7.620788e+001
1.432982e+002, 7.478287e+001
1.437803e+002, 7.317599e+001
1.442624e+002, 7.197947e+001
1.447445e+002, 7.127566e+001
1.452266e+002, 7.096152e+001
1.457087e+002, 7.084213e+001
1.461909e+002, 7.104012e+001
1.466730e+002, 7.127475e+001
1.471551e+002, 7.142606e+001
1.476372e+002, 7.133462e+001
1.481193e+002, 7.143696e+001
1.486014e+002, 7.192577e+001
1.490836e+002, 7.263606e+001
1.495657e+002, 7.300990e+001
1.500478e+002, 7.284664e+001
1.505299e+002, 7.250264e+001
1.510120e+002, 7.212814e+001
1.514941e+002, 7.151009e+001
1.519763e+002, 7.111422e+001
1.524584e+002, 7.101193e+001
1.529405e+002, 7.116313e+001
1.534226e+002, 7.135875e+001
1.539047e+002, 7.166942e+001
1.543868e+002, 7.196391e+001
1.548690e+002, 7.217066e+001
1.553511e+002, 7.208337e+001
1.558332e+002, 7.211838e+001
1.563153e+002, 7.254640e+001
1.567974e+002, 7.327760e+001
1.572795e+002, 7.358528e+001
1.577617e+002, 7.302634e+001
1.582438e+002, 7.214059e+001
1.587259e+002, 7.131818e+001
1.592080e+002, 7.060329e+001
1.596901e+002, 7.000625e+001
1.601722e+002, 6.950874e+001
1.606544e+002, 6.911526e+001
1.611365e+002, 6.890120e+001
1.616186e+002, 6.908115e+001
1.621007e+002, 6.937519e+001
1.625828e+002, 6.952877e+001
1.630649e+002, 6.915768e+001
1.635471e+002, 6.887747e+001
1.640292e+002, 6.912267e+001
1.645113e+002, 6.990710e+001
1.649934e+002, 7.047820e+001
1.654755e+002, 7.028735e+001
1.659576e+002, 6.971079e+001
1.664398e+002, 6.921790e+001
1.669219e+002, 6.906202e+001
1.674040e+002, 6.899104e+001
1.678861e+002, 6.879990e+001
1.683682e+002, 6.846564e+001
1.688503e+002, 6.823793e+001
1.693325e+002, 6.839043e+001
1.698146e+002, 6.874458e+001
1.702967e+002, 6.900913e+001
1.707788e+002, 6.886473e+001
1.712609e+002, 6.868540e+001
1.717430e+002, 6.889638e+001
1.722252e+002, 6.957175e+001
1.727073e+002, 7.020991e+001
1.731894e+002, 7.037254e+001
1.736715e+002, 7.019312e+001
1.741536e+002, 6.997034e+001
1.746357e+002, 6.985064e+001
1.751179e+002, 6.976474e+001
1.756000e+002, 6.961179e+001
1.760821e+002, 6.937149e+001
1.765642e+002, 6.914066e+001
1.770463e+002, 6.907421e+001
1.775284e+002, 6.910964e+001
1.780106e+002, 6.905708e+001
1.784927e+002, 6.855915e+001
1.789748e+002, 6.796342e+001
1.794569e+002, 6.795929e+001
1.799390e+002, 6.871682e+001
1.804211e+002, 6.966194e+001
1.809033e+002, 7.018762e+001
1.813854e+002, 7.033484e+001
1.818675e+002, 7.028997e+001
1.823496e+002, 7.008360e+001
1.828317e+002, 6.976913e+001
1.833138e+002, 6.943072e+001
1.837960e+002, 6.904768e+001
1.842781e+002, 6.873383e+001
1.847602e+002, 6.874116e+001
1.852423e+002, 6.903004e+001
1.857244e+002, 6.926981e+001
1.862065e+002, 6.916415e+001
1.866887e+002, 6.882453e+001
1.871708e+002, 6.869463e+001
1.876529e+002, 6.886594e+001
1.881350e+002, 6.916854e+001
1.886171e+002, 6.931139e+001
1.890992e+002, 6.929883e+001
1.895814e+002, 6.925925e+001
1.900635e+002, 6.924429e+001
1.905456e+002, 6.926159e+001
1.910277e+002, 6.939690e+001
1.915098e+002, 6.972256e+001
1.919919e+002, 7.007441e+001
1.924741e+002, 7.001406e+001
1.929562e+002, 6.952007e+001
1.934383e+002, 6.908908e+001
1.939204e+002, 6.918037e+001
1.944025e+002, 6.975126e+001
1.948846e+002, 7.001477e+001
1.953668e+002, 6.976492e+001
1.958489e+002, 6.928557e+001
1.963310e+002, 6.934396e+001
1.968131e+002, 7.001205e+001
1.972952e+002, 7.066737e+001
1.977773e+002, 7.079740e+001
1.982595e+002, 7.038064e+001
1.987416e+002, 7.023257e+001
1.992237e+002, 7.055679e+001
1.997058e+002, 7.112241e+001
2.001879e+002, 7.125932e+001
2.006700e+002, 7.090542e+001
2.011522e+002, 7.040971e+001
2.016343e+002, 6.994429e+001
2.021164e+002, 6.949261e+001
2.025985e+002, 6.926815e+001
2.030806e+002, 6.936567e+001
2.035627e+002, 6.967140e+001
2.040449e+002, 6.980074e+001
2.045270e+002, 6.970300e+001
2.050091e+002, 6.959390e+001
2.054912e+002, 6.965659e+001
2.059733e+002, 6.993860e+001
2.064554e+002, 7.009695e+001
2.069376e+002, 7.006377e+001
2.074197e+002, 6.988701e+001
2.079018e+002, 6.972314e+001
2.083839e+002, 6.954349e+001
2.088660e+002, 6.945096e+001
2.093481e+002, 6.956613e+001
2.098303e+002, 6.996611e+001
2.103124e+002, 7.021714e+001
2.107945e+002, 7.020731e+001
2.112766e+002, 7.002478e+001
2.117587e+002, 7.006469e+001
2.122408e+002, 7.043548e+001
2.127230e+002, 7.080193e+001
2.132051e+002, 7.090783e+001
2.136872e+002, 7.064196e+001
2.141693e+002, 7.050392e+001
2.146514e+002, 7.058566e+001
2.151335e+002, 7.083409e+001
2.156157e+002, 7.099152e+001
2.160978e+002, 7.100845e+001
2.165799e+002, 7.102395e+001
2.170620e+002, 7.116447e+001
2.175441e+002, 7.153784e+001
2.180262e+002, 7.170030e+001
2.185084e+002, 7.151785e+001
2.189905e+002, 7.108525e+001
2.194726e+002, 7.089185e+001
2.199547e+002, 7.100448e+001
2.204368e+002, 7.123717e+001
2.209189e+002, 7.147500e+001
2.214011e+002, 7.171201e+001
2.218832e+002, 7.199190e+001
2.223653e+002, 7.238779e+001
2.228474e+002, 7.283330e+001
2.233295e+002, 7.302308e+001
2.238116e+002, 7.285665e+001
2.242938e+002, 7.258961e+001
2.247759e+002, 7.234131e+001
2.252580e+002, 7.203345e+001
2.257401e+002, 7.195836e+001
2.262222e+002, 7.225826e+001
2.267043e+002, 7.280628e+001
2.271865e+002, 7.306796e+001
2.276686e+002, 7.291737e+001
2.281507e+002, 7.265937e+001
2.286328e+002, 7.247198e+001
2.291149e+002, 7.241759e+001
2.295970e+002, 7.227934e+001
2.300792e+002, 7.198701e+001
2.305613e+002, 7.160197e+001
2.310434e+002, 7.139019e+001
2.315255e+002, 7.146151e+001
2.320076e+002, 7.155042e+001
2.324897e+002, 7.151770e+001
2.329719e+002, 7.133437e+001
2.334540e+002, 7.109441e+001
2.339361e+002, 7.077126e+001
2.344182e+002, 7.039583e+001
2.349003e+002, 7.006191e+001
2.353824e+002, 6.973969e+001
2.358646e+002, 6.950156e+001
2.363467e+002, 6.940359e+001
2.368288e+002, 6.955338e+001
2.373109e+002, 6.960255e+001
2.377930e+002, 6.953250e+001
2.382751e+002, 6.935582e+001
2.387573e+002, 6.908670e+001
2.392394e+002, 6.857382e+001
2.397215e+002, 6.818405e+001
2.402036e+002, 6.811583e+001
2.406857e+002, 6.859620e+001
2.411678e+002, 6.887508e+001
2.416500e+002, 6.887576e+001
2.421321e+002, 6.869465e+001
2.426142e+002, 6.857246e+001
2.430963e+002, 6.852396e+001
2.435784e+002, 6.851399e+001
2.440605e+002, 6.851362e+001
2.445427e+002, 6.846325e+001
2.450248e+002, 6.859047e+001
2.455069e+002, 6.900121e+001
2.459890e+002, 6.954945e+001
2.464711e+002, 6.989645e+001
2.469532e+002, 6.993533e+001
2.474354e+002, 6.995793e+001
2.479175e+002, 7.010065e+001
2.483996e+002, 7.046178e+001
2.488817e+002, 7.061238e+001
2.493638e+002, 7.042708e+001
2.498459e+002, 7.010405e+001
2.503281e+002, 7.004100e+001
2.508102e+002, 7.044677e+001
2.512923e+002, 7.074953e+001
2.517744e+002, 7.071928e+001
2.522565e+002, 7.024908e+001
2.527386e+002, 6.989172e+001
2.532208e+002, 6.962468e+001
2.537029e+002, 6.948755e+001
2.541850e+002, 6.958242e+001
2.546671e+002, 7.008851e+001
2.551492e+002, 7.047117e+001
2.556313e+002, 7.050906e+001
2.561135e+002, 7.012132e+001
2.565956e+002, 6.994545e+001
2.570777e+002, 7.008927e+001
2.575598e+002, 7.034016e+001
2.580419e+002, 7.040781e+001
2.585240e+002, 7.022795e+001
2.590062e+002, 7.000304e+001
2.594883e+002, 6.975955e+001
2.599704e+002, 6.949345e+001
2.604525e+002, 6.935112e+001
2.609346e+002, 6.941936e+001
2.614167e+002, 6.950637e+001
2.618989e+002, 6.937790e+001
2.623810e+002, 6.896726e+001
2.628631e+002, 6.851801e+001
2.633452e+002, 6.805107e+001
2.638273e+002, 6.756339e+001
2.643094e+002, 6.728152e+001
2.647916e+002, 6.728476e+001
2.652737e+002, 6.736211e+001
2.657558e+002, 6.729565e+001
2.662379e+002, 6.703194e+001
2.667200e+002, 6.680544e+001
2.672021e+002, 6.667091e+001
2.676843e+002, 6.661797e+001
2.681664e+002, 6.653780e+001
2.686485e+002, 6.642542e+001
2.691306e+002, 6.629511e+001
2.696127e+002, 6.616996e+001
2.700948e+002, 6.606480e+001
2.705770e+002, 6.588439e+001
2.710591e+002, 6.556866e+001
2.715412e+002, 6.516832e+001
2.720233e+002, 6.494023e+001
2.725054e+002, 6.492896e+001
2.729875e+002, 6.497618e+001
2.734697e+002, 6.497472e+001
2.739518e+002, 6.491850e+001
2.744339e+002, 6.484689e+001
2.749160e+002, 6.475407e+001
2.753981e+002, 6.465553e+001
2.758802e+002, 6.462092e+001
2.763624e+002, 6.468024e+001
2.768445e+002, 6.468909e+001
2.773266e+002, 6.453002e+001
2.778087e+002, 6.418988e+001
2.782908e+002, 6.386814e+001
2.787729e+002, 6.355268e+001
2.792551e+002, 6.329784e+001
2.797372e+002, 6.328363e+001
2.802193e+002, 6.354934e+001
2.807014e+002, 6.380199e+001
2.811835e+002, 6.386086e+001
2.816656e+002, 6.372945e+001
2.821478e+002, 6.366516e+001
2.826299e+002, 6.370921e+001
2.831120e+002, 6.376124e+001
2.835941e+002, 6.358493e+001
2.840762e+002, 6.316265e+001
2.845583e+002, 6.286018e+001
2.850405e+002, 6.294711e+001
2.855226e+002, 6.336350e+001
2.860047e+002, 6.352726e+001
2.864868e+002, 6.339530e+001
2.869689e+002, 6.314304e+001
2.874510e+002, 6.299407e+001
2.879332e+002, 6.294420e+001
2.884153e+002, 6.291037e+001
2.888974e+002, 6.285571e+001
2.893795e+002, 6.279096e+001
2.898616e+002, 6.277044e+001
2.903438e+002, 6.280037e+001
2.908259e+002, 6.282993e+001
2.913080e+002, 6.279862e+001
2.917901e+002, 6.271441e+001
2.922722e+002, 6.261229e+001
2.927543e+002, 6.242587e+001
2.932365e+002, 6.226512e+001
2.937186e+002, 6.252720e+001
2.942007e+002, 6.321859e+001
2.946828e+002, 6.380514e+001
2.951649e+002, 6.361847e+001
2.956470e+002, 6.290160e+001
2.961292e+002, 6.246633e+001
2.966113e+002, 6.261635e+001
2.970934e+002, 6.305420e+001
2.975755e+002, 6.333700e+001
2.980576e+002, 6.347554e+001
2.985397e+002, 6.357263e+001
2.990219e+002, 6.376092e+001
2.995040e+002, 6.396154e+001
2.999861e+002, 6.396857e+001
3.004682e+002, 6.366597e+001
3.009503e+002, 6.331761e+001
3.014324e+002, 6.326368e+001
3.019146e+002, 6.345185e+001
3.023967e+002, 6.365872e+001
3.028788e+002, 6.373793e+001
3.033609e+002, 6.375271e+001
3.038430e+002, 6.380150e+001
3.043251e+002, 6.391122e+001
3.048073e+002, 6.400357e+001
3.052894e+002, 6.399167e+001
3.057715e+002, 6.390422e+001
3.062536e+002, 6.381133e+001
3.067357e+002, 6.361541e+001
3.072178e+002, 6.350034e+001
3.077000e+002, 6.377326e+001
3.081821e+002, 6.450857e+001
3.086642e+002, 6.511394e+001
3.091463e+002, 6.492677e+001
3.096284e+002, 6.435833e+001
3.101105e+002, 6.404778e+001
3.105927e+002, 6.457172e+001
3.110748e+002, 6.523190e+001
3.115569e+002, 6.554306e+001
3.120390e+002, 6.549177e+001
3.125211e+002, 6.533056e+001
3.130032e+002, 6.506388e+001
3.134854e+002, 6.481432e+001
3.139675e+002, 6.471606e+001
3.144496e+002, 6.495599e+001
3.149317e+002, 6.522982e+001
3.154138e+002, 6.539395e+001
3.158959e+002, 6.546353e+001
3.163781e+002, 6.553450e+001
3.168602e+002, 6.557241e+001
3.173423e+002, 6.567136e+001
3.178244e+002, 6.592349e+001
3.183065e+002, 6.659219e+001
3.187886e+002, 6.706892e+001
3.192708e+002, 6.701388e+001
3.197529e+002, 6.659176e+001
3.202350e+002, 6.626528e+001
3.207171e+002, 6.633698e+001
3.211992e+002, 6.641568e+001
3.216813e+002, 6.627202e+001
3.221635e+002, 6.570475e+001
3.226456e+002, 6.530711e+001
3.231277e+002, 6.535697e+001
3.236098e+002, 6.562020e+001
3.240919e+002, 6.570590e+001
3.245740e+002, 6.532719e+001
3.250562e+002, 6.496699e+001
3.255383e+002, 6.482221e+001
3.260204e+002, 6.500258e+001
3.265025e+002, 6.498356e+001
3.269846e+002, 6.452415e+001
3.274667e+002, 6.393566e+001
3.279489e+002, 6.354432e+001
3.284310e+002, 6.357567e+001
3.289131e+002, 6.355721e+001
3.293952e+002, 6.343253e+001
3.298773e+002, 6.320213e+001
3.303594e+002, 6.285711e+001
3.308416e+002, 6.224025e+001
3.313237e+002, 6.164619e+001
3.318058e+002, 6.129987e+001
3.322879e+002, 6.140334e+001
3.327700e+002, 6.140586e+001
3.332521e+002, 6.121607e+001
3.337343e+002, 6.088134e+001
3.342164e+002, 6.062963e+001
3.346985e+002, 6.047711e+001
3.351806e+002, 6.038472e+001
3.356627e+002, 6.034518e+001
3.361448e+002, 6.038946e+001
3.366270e+002, 6.039127e+001
3.371091e+002, 6.034446e+001
3.375912e+002, 6.025585e+001
3.380733e+002, 6.012127e+001
3.385554e+002, 5.991574e+001
3.390375e+002, 5.974933e+001
3.395197e+002, 5.965560e+001
3.400018e+002, 5.963390e+001
3.404839e+002, 5.974983e+001
3.409660e+002, 6.005883e+001
3.414481e+002, 6.037968e+001
3.419302e+002, 6.045937e+001
3.424124e+002, 6.028446e+001
3.428945e+002, 6.004910e+001
3.433766e+002, 5.976545e+001
3.438587e+002, 5.946857e+001
3.443408e+002, 5.932537e+001
3.448229e+002, 5.935001e+001
3.453051e+002, 5.943797e+001
3.457872e+002, 5.951930e+001
3.462693e+002, 5.958974e+001
3.467514e+002, 5.962116e+001
3.472335e+002, 5.960480e+001
3.477156e+002, 5.955061e+001
3.481978e+002, 5.943567e+001
3.486799e+002, 5.927053e+001
3.491620e+002, 5.918259e+001
3.496441e+002, 5.930806e+001
3.501262e+002, 5.957176e+001
3.506083e+002, 5.981976e+001
3.510905e+002, 6.005674e+001
3.515726e+002, 6.019945e+001
3.520547e+002, 6.004363e+001
3.525368e+002, 5.969262e+001
3.530189e+002, 5.945980e+001
3.535010e+002, 5.962804e+001
3.539832e+002, 5.994173e+001
3.544653e+002, 6.008587e+001
3.549474e+002, 6.004385e+001
3.554295e+002, 5.994930e+001
3.559116e+002, 5.982260e+001
3.563937e+002, 5.972784e+001
3.568759e+002, 5.976389e+001
3.573580e+002, 6.020551e+001
3.578401e+002, 6.059088e+001
3.583222e+002, 6.049463e+001
3.588043e+002, 5.999925e+001
3.592864e+002, 5.960230e+001
3.597686e+002, 5.960050e+001
3.602507e+002, 5.979402e+001
3.607328e+002, 6.003535e+001
3.612149e+002, 6.040631e+001
3.616970e+002, 6.062823e+001
3.621791e+002, 6.051289e+001
3.626613e+002, 6.016344e+001
3.631434e+002, 5.981797e+001
3.636255e+002, 5.947450e+001
3.641076e+002, 5.921273e+001
3.645897e+002, 5.908728e+001
3.650718e+002, 5.914622e+001
3.655540e+002, 5.920272e+001
3.660361e+002, 5.922998e+001
3.665182e+002, 5.923583e+001
3.670003e+002, 5.922979e+001
3.674824e+002, 5.930105e+001
3.679645e+002, 5.927111e+001
3.684467e+002, 5.900417e+001
3.689288e+002, 5.848470e+001
3.694109e+002, 5.824050e+001
3.698930e+002, 5.853923e+001
3.703751e+002, 5.890899e+001
3.708572e+002, 5.903017e+001
3.713394e+002, 5.875327e+001
3.718215e+002, 5.847039e+001
3.723036e+002, 5.813606e+001
3.727857e+002, 5.781718e+001
3.732678e+002, 5.778467e+001
3.737499e+002, 5.822004e+001
3.742321e+002, 5.861801e+001
3.747142e+002, 5.870791e+001
3.751963e+002, 5.838817e+001
3.756784e+002, 5.821032e+001
3.761605e+002, 5.823760e+001
3.766426e+002, 5.832621e+001
3.771248e+002, 5.820296e+001
3.776069e+002, 5.780659e+001
3.780890e+002, 5.756367e+001
3.785711e+002, 5.767710e+001
3.790532e+002, 5.808539e+001
3.795353e+002, 5.833610e+001
3.800175e+002, 5.842102e+001
3.804996e+002, 5.840108e+001
3.809817e+002, 5.829268e+001
3.814638e+002, 5.811050e+001
3.819459e+002, 5.796724e+001
3.824280e+002, 5.787648e+001
3.829102e+002, 5.785078e+001
3.833923e+002, 5.795301e+001
3.838744e+002, 5.817098e+001
3.843565e+002, 5.837530e+001
3.848386e+002, 5.846895e+001
3.853207e+002, 5.849115e+001
3.858029e+002, 5.848433e+001
3.862850e+002, 5.843043e+001
3.867671e+002, 5.846731e+001
3.872492e+002, 5.889494e+001
3.877313e+002, 5.952882e+001
3.882134e+002, 5.993948e+001
3.886956e+002, 5.975249e+001
3.891777e+002, 5.937029e+001
3.896598e+002, 5.913380e+001
3.901419e+002, 5.904560e+001
3.906240e+002, 5.900964e+001
3.911061e+002, 5.896372e+001
3.915883e+002, 5.894172e+001
3.920704e+002, 5.898735e+001
3.925525e+002, 5.920089e+001
3.930346e+002, 5.936322e+001
3.935167e+002, 5.933084e+001
3.939988e+002, 5.916540e+001
3.944810e+002, 5.904000e+001
3.949631e+002, 5.902609e+001
3.954452e+002, 5.905826e+001
3.959273e+002, 5.910826e+001
3.964094e+002, 5.917705e+001
3.968915e+002, 5.924961e+001
3.973737e+002, 5.938090e+001
3.978558e+002, 5.949461e+001
3.983379e+002, 5.949666e+001
3.988200e+002, 5.931032e+001
3.993021e+002, 5.907937e+001
3.997842e+002, 5.873919e+001
4.002664e+002, 5.829079e+001
4.007485e+002, 5.816164e+001
4.012306e+002, 5.862978e+001
4.017127e+002, 5.914587e+001
4.021948e+002, 5.934248e+001
4.026769e+002, 5.901872e+001
4.031591e+002, 5.881111e+001
4.036412e+002, 5.878211e+001
4.041233e+002, 5.887762e+001
4.046054e+002, 5.899068e+001
4.050875e+002, 5.916215e+001
4.055696e+002, 5.922673e+001
4.060518e+002, 5.907531e+001
4.065339e+002, 5.869981e+001
4.070160e+002, 5.839870e+001
4.074981e+002, 5.815776e+001
4.079802e+002, 5.804150e+001
4.084623e+002, 5.821478e+001
4.089445e+002, 5.867095e+001
4.094266e+002, 5.898508e+001
4.099087e+002, 5.902073e+001
4.103908e+002, 5.886885e+001
4.108729e+002, 5.869296e+001
4.113550e+002, 5.849598e+001
4.118372e+002, 5.836806e+001
4.123193e+002, 5.841622e+001
4.128014e+002, 5.857707e+001
4.132835e+002, 5.870205e+001
4.137656e+002, 5.876904e+001
4.142477e+002, 5.881112e+001
4.147299e+002, 5.882885e+001
4.152120e+002, 5.884578e+001
4.156941e+002, 5.891877e+001
4.161762e+002, 5.916021e+001
4.166583e+002, 5.941249e+001
4.171404e+002, 5.949733e+001
4.176226e+002, 5.941917e+001
4.181047e+002, 5.937792e+001
4.185868e+002, 5.955616e+001
4.190689e+002, 5.979424e+001
4.195510e+002, 5.993797e+001
4.200331e+002, 5.986632e+001
4.205153e+002, 5.979964e+001
4.209974e+002, 5.981021e+001
4.214795e+002, 5.988834e+001
4.219616e+002, 6.000977e+001
4.224437e+002, 6.031076e+001
4.229258e+002, 6.053553e+001
4.234080e+002, 6.055680e+001
4.238901e+002, 6.030906e+001
4.243722e+002, 6.007407e+001
4.248543e+002, 5.975020e+001
4.253364e+002, 5.951092e+001
4.258185e+002, 5.954232e+001
4.263007e+002, 6.014978e+001
4.267828e+002, 6.058457e+001
4.272649e+002, 6.071237e+001
4.277470e+002, 6.057062e+001
4.282291e+002, 6.039161e+001
4.287112e+002, 6.015566e+001
4.291934e+002, 5.991755e+001
4.296755e+002, 5.969398e+001
4.301576e+002, 5.947772e+001
4.306397e+002, 5.932897e+001
4.311218e+002, 5.927692e+001
4.316039e+002, 5.924741e+001
4.320861e+002, 5.908829e+001
4.325682e+002, 5.878614e+001
4.330503e+002, 5.856897e+001
4.335324e+002, 5.856877e+001
4.340145e+002, 5.870283e+001
4.344966e+002, 5.866035e+001
4.349788e+002, 5.843702e+001
4.354609e+002, 5.818676e+001
4.359430e+002, 5.803035e+001
4.364251e+002, 5.794722e+001
4.369072e+002, 5.787953e+001
4.373893e+002, 5.781563e+001
4.378715e+002, 5.776628e+001
4.383536e+002, 5.777602e+001
4.388357e+002, 5.781499e+001
4.393178e+002, 5.779988e+001
4.397999e+002, 5.757778e+001
4.402820e+002, 5.734986e+001
4.407642e+002, 5.733529e+001
4.412463e+002, 5.754555e+001
4.417284e+002, 5.774630e+001
4.422105e+002, 5.789164e+001
4.426926e+002, 5.792719e+001
4.431747e+002, 5.778858e+001
4.436569e+002, 5.711077e+001
4.441390e+002, 5.667349e+001
4.446211e+002, 5.695290e+001
4.451032e+002, 5.768813e+001
4.455853e+002, 5.811555e+001
4.460674e+002, 5.770357e+001
4.465496e+002, 5.730869e+001
4.470317e+002, 5.729013e+001
4.475138e+002, 5.782292e+001
4.479959e+002, 5.819698e+001
4.484780e+002, 5.832824e+001
4.489601e+002, 5.836450e+001
4.494423e+002, 5.845193e+001
4.499244e+002, 5.862178e+001
4.504065e+002, 5.878021e+001
4.508886e+002, 5.892150e+001
4.513707e+002, 5.904006e+001
4.518528e+002, 5.908693e+001
4.523350e+002, 5.901068e+001
4.528171e+002, 5.901979e+001
4.532992e+002, 5.927681e+001
4.537813e+002, 5.978674e+001
4.542634e+002, 6.017928e+001
4.547455e+002, 6.043102e+001
4.552277e+002, 6.062112e+001
4.557098e+002, 6.080485e+001
4.561919e+002, 6.099701e+001
4.566740e+002, 6.133616e+001
4.571561e+002, 6.197189e+001
4.576382e+002, 6.268342e+001
4.581204e+002, 6.300512e+001
4.586025e+002, 6.299009e+001
4.590846e+002, 6.299968e+001
4.595667e+002, 6.327655e+001
4.600488e+002, 6.372698e+001
4.605309e+002, 6.428742e+001
4.610131e+002, 6.499846e+001
4.614952e+002, 6.557659e+001
4.619773e+002, 6.564549e+001
4.624594e+002, 6.548764e+001
4.629415e+002, 6.551762e+001
4.634236e+002, 6.609091e+001
4.639058e+002, 6.669630e+001
4.643879e+002, 6.711209e+001
4.648700e+002, 6.734653e+001
4.653521e+002, 6.758137e+001
4.658342e+002, 6.787809e+001
4.663163e+002, 6.817673e+001
4.667985e+002, 6.844124e+001
4.672806e+002, 6.862995e+001
4.677627e+002, 6.885406e+001
4.682448e+002, 6.910879e+001
4.687269e+002, 6.940013e+001
4.692090e+002, 6.975963e+001
4.696912e+002, 7.031638e+001
4.701733e+002, 7.070688e+001
4.706554e+002, 7.081068e+001
4.711375e+002, 7.065836e+001
4.716196e+002, 7.053541e+001
4.721017e+002, 7.043452e+001
4.725839e+002, 7.038254e+001
4.730660e+002, 7.043507e+001
4.735481e+002, 7.059379e+001
4.740302e+002, 7.063421e+001
4.745123e+002, 7.051754e+001
4.749944e+002, 7.033986e+001
4.754766e+002, 7.024757e+001
4.759587e+002, 7.022766e+001
4.764408e+002, 7.019278e+001
4.769229e+002, 7.010920e+001
4.774050e+002, 6.999136e+001
4.778871e+002, 6.981083e+001
4.783693e+002, 6.958517e+001
4.788514e+002, 6.946909e+001
4.793335e+002, 6.985413e+001
4.798156e+002, 7.029056e+001
4.802977e+002, 7.015846e+001
4.807798e+002, 6.918816e+001
4.812620e+002, 6.820724e+001
4.817441e+002, 6.756578e+001
4.822262e+002, 6.724799e+001
4.827083e+002, 6.723074e+001
4.831904e+002, 6.784939e+001
4.836725e+002, 6.843552e+001
4.841547e+002, 6.876975e+001
4.846368e+002, 6.884899e+001
4.851189e+002, 6.876080e+001
4.856010e+002, 6.832037e+001
4.860831e+002, 6.786581e+001
4.865652e+002, 6.756682e+001
4.870474e+002, 6.746471e+001
4.875295e+002, 6.742524e+001
4.880116e+002, 6.744453e+001
4.884937e+002, 6.752946e+001
4.889758e+002, 6.770468e+001
4.894579e+002, 6.800507e+001
4.899401e+002, 6.828878e+001
4.904222e+002, 6.850996e+001
4.909043e+002, 6.869027e+001
4.913864e+002, 6.895242e+001
4.918685e+002, 6.930836e+001
4.923506e+002, 6.967213e+001
4.928328e+002, 7.002853e+001
4.933149e+002, 7.035347e+001
4.937970e+002, 7.046706e+001
4.942791e+002, 7.030161e+001
4.947612e+002, 7.021040e+001
4.952433e+002, 7.072354e+001
4.957255e+002, 7.163586e+001
4.962076e+002, 7.242284e+001
4.966897e+002, 7.279324e+001
4.971718e+002, 7.305665e+001
4.976539e+002, 7.351204e+001
4.981360e+002, 7.411235e+001
4.986182e+002, 7.468581e+001
4.991003e+002, 7.498852e+001
4.995824e+002, 7.533548e+001
5.000645e+002, 7.600185e+001
5.005466e+002, 7.713042e+001
5.010287e+002, 7.810144e+001
5.015109e+002, 7.854327e+001
5.019930e+002, 7.882845e+001
5.024751e+002, 7.932322e+001
5.029572e+002, 8.028567e+001
5.034393e+002, 8.120669e+001
5.039214e+002, 8.202714e+001
5.044036e+002, 8.275819e+001
5.048857e+002, 8.345988e+001
5.053678e+002, 8.413034e+001
5.058499e+002, 8.478853e+001
5.063320e+002, 8.545324e+001
5.068141e+002, 8.612984e+001
5.072963e+002, 8.671621e+001
5.077784e+002, 8.718494e+001
5.082605e+002, 8.765742e+001
5.087426e+002, 8.834055e+001
5.092247e+002, 8.920888e+001
5.097068e+002, 8.985043e+001
5.101890e+002, 9.013525e+001
5.106711e+002, 9.025916e+001
5.111532e+002, 9.063472e+001
5.116353e+002, 9.117522e+001
5.121174e+002, 9.146117e+001
5.125995e+002, 9.107964e+001
5.130817e+002, 9.043232e+001
5.135638e+002, 9.000982e+001
5.140459e+002, 8.981410e+001
5.145280e+002, 8.961443e+001
5.150101e+002, 8.934221e+001
5.154922e+002, 8.895647e+001
5.159744e+002, 8.841691e+001
5.164565e+002, 8.767492e+001
5.169386e+002, 8.685543e+001
5.174207e+002, 8.599995e+001
5.179028e+002, 8.509364e+001
5.183849e+002, 8.411173e+001
5.188671e+002, 8.286687e+001
5.193492e+002, 8.174663e+001
5.198313e+002, 8.089902e+001
5.203134e+002, 8.030210e+001
5.207955e+002, 7.949695e+001
5.212776e+002, 7.834361e+001
5.217598e+002, 7.718290e+001
5.222419e+002, 7.621541e+001
5.227240e+002, 7.546045e+001
5.232061e+002, 7.478748e+001
5.236882e+002, 7.423108e+001
5.241703e+002, 7.367288e+001
5.246525e+002, 7.291616e+001
5.251346e+002, 7.197398e+001
5.256167e+002, 7.108912e+001
5.260988e+002, 7.031779e+001
5.265809e+002, 6.966653e+001
5.270630e+002, 6.921342e+001
5.275452e+002, 6.892796e+001
5.280273e+002, 6.862260e+001
5.285094e+002, 6.814005e+001
5.289915e+002, 6.759911e+001
5.294736e+002, 6.712588e+001
5.299557e+002, 6.672887e+001
5.304379e+002, 6.636423e+001
5.309200e+002, 6.592269e+001
5.314021e+002, 6.553416e+001
5.318842e+002, 6.533701e+001
5.323663e+002, 6.556741e+001
5.328484e+002, 6.569779e+001
5.333306e+002, 6.554314e+001
5.338127e+002, 6.520242e+001
5.342948e+002, 6.488731e+001
5.347769e+002, 6.458677e+001
5.352590e+002, 6.434053e+001
5.357411e+002, 6.414791e+001
5.362233e+002, 6.401081e+001
5.367054e+002, 6.399449e+001
5.371875e+002, 6.416767e+001
5.376696e+002, 6.433158e+001
5.381517e+002, 6.433472e+001
5.386339e+002, 6.416080e+001
5.391160e+002, 6.407174e+001
5.395981e+002, 6.410789e+001
5.400802e+002, 6.415762e+001
5.405623e+002, 6.402110e+001
5.410444e+002, 6.374263e+001
5.415266e+002, 6.357668e+001
5.420087e+002, 6.364473e+001
5.424908e+002, 6.381480e+001
5.429729e+002, 6.392444e+001
5.434550e+002, 6.397692e+001
5.439371e+002, 6.399074e+001
5.444193e+002, 6.388964e+001
5.449014e+002, 6.381136e+001
5.453835e+002, 6.390855e+001
5.458656e+002, 6.420396e+001
5.463477e+002, 6.444959e+001
5.468298e+002, 6.444285e+001
5.473120e+002, 6.440199e+001
5.477941e+002, 6.450915e+001
5.482762e+002, 6.497561e+001
5.487583e+002, 6.533948e+001
5.492404e+002, 6.546616e+001
5.497225e+002, 6.549979e+001
5.502047e+002, 6.570210e+001
5.506868e+002, 6.620555e+001
5.511689e+002, 6.661706e+001
5.516510e+002, 6.679848e+001
5.521331e+002, 6.679772e+001
5.526152e+002, 6.692815e+001
5.530974e+002, 6.720782e+001
5.535795e+002, 6.753312e+001
5.540616e+002, 6.782618e+001
5.545437e+002, 6.810285e+001
5.550258e+002, 6.845968e+001
5.555079e+002, 6.891056e+001
5.559901e+002, 6.939703e+001
5.564722e+002, 6.981454e+001
5.569543e+002, 7.023182e+001
5.574364e+002, 7.081816e+001
5.579185e+002, 7.176081e+001
5.584006e+002, 7.266265e+001
5.588828e+002, 7.308241e+001
5.593649e+002, 7.322214e+001
5.598470e+002, 7.356052e+001
5.603291e+002, 7.444820e+001
5.608112e+002, 7.542903e+001
5.612933e+002, 7.632325e+001
5.617755e+002, 7.711938e+001
5.622576e+002, 7.789308e+001
5.627397e+002, 7.850896e+001
5.632218e+002, 7.921377e+001
5.637039e+002, 8.015069e+001
5.641860e+002, 8.144205e+001
5.646682e+002, 8.265264e+001
5.651503e+002, 8.376096e+001
5.656324e+002, 8.483333e+001
5.661145e+002, 8.594969e+001
5.665966e+002, 8.713004e+001
5.670787e+002, 8.825025e+001
5.675609e+002, 8.922792e+001
5.680430e+002, 9.020504e+001
5.685251e+002, 9.152913e+001
5.690072e+002, 9.316792e+001
5.694893e+002, 9.475792e+001
5.699714e+002, 9.614445e+001
5.704536e+002, 9.736231e+001
5.709357e+002, 9.841579e+001
5.714178e+002, 9.931335e+001
5.718999e+002, 1.002313e+002
5.723820e+002, 1.011060e+002
5.728641e+002, 1.021428e+002
5.733463e+002, 1.036071e+002
5.738284e+002, 1.058464e+002
5.743105e+002, 1.077243e+002
5.747926e+002, 1.085827e+002
5.752747e+002, 1.090079e+002
5.757568e+002, 1.097371e+002
5.762390e+002, 1.112377e+002
5.767211e+002, 1.125073e+002
5.772032e+002, 1.133456e+002
5.776853e+002, 1.138838e+002
5.781674e+002, 1.145485e+002
5.786495e+002, 1.153793e+002
5.791317e+002, 1.162173e+002
5.796138e+002, 1.169500e+002
5.800959e+002, 1.176141e+002
5.805780e+002, 1.186290e+002
5.810601e+002, 1.200514e+002
5.815422e+002, 1.213021e+002
5.820244e+002, 1.217631e+002
5.825065e+002, 1.216938e+002
5.829886e+002, 1.217196e+002
5.834707e+002, 1.219311e+002
5.839528e+002, 1.222123e+002
5.844349e+002, 1.226280e+002
5.849171e+002, 1.230040e+002
5.853992e+002, 1.230794e+002
5.858813e+002, 1.225958e+002
5.863634e+002, 1.219713e+002
5.868455e+002, 1.214519e+002
5.873276e+002, 1.209285e+002
5.878098e+002, 1.201206e+002
5.882919e+002, 1.187669e+002
5.887740e+002, 1.173266e+002
5.892561e+002, 1.159794e+002
5.897382e+002, 1.147309e+002
5.902203e+002, 1.131978e+002
5.907025e+002, 1.113372e+002
5.911846e+002, 1.092993e+002
5.916667e+002, 1.071303e+002
5.921488e+002, 1.048044e+002
5.926309e+002, 1.026152e+002
5.931130e+002, 1.005701e+002
5.935952e+002, 9.862962e+001
5.940773e+002, 9.679007e+001
5.945594e+002, 9.501750e+001
5.950415e+002, 9.321452e+001
5.955236e+002, 9.132076e+001
5.960057e+002, 8.942036e+001
5.964879e+002, 8.756283e+001
5.969700e+002, 8.578360e+001
5.974521e+002, 8.418555e+001
5.979342e+002, 8.285133e+001
5.984163e+002, 8.167618e+001
5.988984e+002, 8.068796e+001
5.993806e+002, 7.984958e+001
5.998627e+002, 7.889658e+001
6.003448e+002, 7.760949e+001
6.008269e+002, 7.633054e+001
6.013090e+002, 7.522337e+001
6.017911e+002, 7.434390e+001
6.022733e+002, 7.337453e+001
6.027554e+002, 7.218849e+001
6.032375e+002, 7.109166e+001
6.037196e+002, 7.043855e+001
6.042017e+002, 7.027084e+001
6.046838e+002, 7.008460e+001
6.051660e+002, 6.984423e+001
6.056481e+002, 6.950563e+001
6.061302e+002, 6.892227e+001
6.066123e+002, 6.815411e+001
6.070944e+002, 6.747729e+001
6.075765e+002, 6.696533e+001
6.080587e+002, 6.661730e+001
6.085408e+002, 6.646696e+001
6.090229e+002, 6.648428e+001
6.095050e+002, 6.655685e+001
6.099871e+002, 6.677033e+001
6.104692e+002, 6.690458e+001
6.109514e+002, 6.678397e+001
6.114335e+002, 6.638234e+001
6.119156e+002, 6.601362e+001
6.123977e+002, 6.562603e+001
6.128798e+002, 6.538087e+001
6.133619e+002, 6.540377e+001
6.138441e+002, 6.591276e+001
6.143262e+002, 6.615256e+001
6.148083e+002, 6.603983e+001
6.152904e+002, 6.577616e+001
6.157725e+002, 6.558257e+001
6.162546e+002, 6.545744e+001
6.167368e+002, 6.544803e+001
6.172189e+002, 6.558376e+001
6.177010e+002, 6.580632e+001
6.181831e+002, 6.603324e+001
6.186652e+002, 6.625913e+001
6.191473e+002, 6.646268e+001
6.196295e+002, 6.659566e+001
6.201116e+002, 6.672478e+001
6.205937e+002, 6.692339e+001
6.210758e+002, 6.718049e+001
6.215579e+002, 6.744831e+001
6.220400e+002, 6.775744e+001
6.225222e+002, 6.802099e+001
6.230043e+002, 6.815055e+001
6.234864e+002, 6.809396e+001
6.239685e+002, 6.816158e+001
6.244506e+002, 6.838100e+001
6.249327e+002, 6.873452e+001
6.254149e+002, 6.927895e+001
6.258970e+002, 7.021865e+001
6.263791e+002, 7.065626e+001
6.268612e+002, 7.038946e+001
6.273433e+002, 6.990536e+001
6.278254e+002, 6.989265e+001
6.283076e+002, 7.033356e+001
6.287897e+002, 7.087469e+001
6.292718e+002, 7.150100e+001
6.297539e+002, 7.206748e+001
6.302360e+002, 7.224107e+001
6.307181e+002, 7.213811e+001
6.312003e+002, 7.212399e+001
6.316824e+002, 7.246037e+001
6.321645e+002, 7.289705e+001
6.326466e+002, 7.330695e+001
6.331287e+002, 7.367110e+001
6.336108e+002, 7.387579e+001
6.340930e+002, 7.368263e+001
6.345751e+002, 7.349125e+001
6.350572e+002, 7.349922e+001
6.355393e+002, 7.373538e+001
6.360214e+002, 7.407330e+001
6.365035e+002, 7.459225e+001
6.369857e+002, 7.511711e+001
6.374678e+002, 7.551235e+001
6.379499e+002, 7.576543e+001
6.384320e+002, 7.594073e+001
6.389141e+002, 7.600078e+001
6.393962e+002, 7.609464e+001
6.398784e+002, 7.649003e+001
6.403605e+002, 7.711025e+001
6.408426e+002, 7.762217e+001
6.413247e+002, 7.786543e+001
6.418068e+002, 7.808171e+001
6.422889e+002, 7.854854e+001
6.427711e+002, 7.919160e+001
6.432532e+002, 7.985404e+001
6.437353e+002, 8.046915e+001
6.442174e+002, 8.107681e+001
6.446995e+002, 8.156682e+001
6.451816e+002, 8.200572e+001
6.456638e+002, 8.282889e+001
6.461459e+002, 8.442714e+001
6.466280e+002, 8.609104e+001
6.471101e+002, 8.763047e+001
6.475922e+002, 8.903190e+001
6.480743e+002, 9.027589e+001
6.485565e+002, 9.125647e+001
6.490386e+002, 9.233085e+001
6.495207e+002, 9.386122e+001
6.500028e+002, 9.577150e+001
6.504849e+002, 9.732572e+001
6.509670e+002, 9.839870e+001
6.514492e+002, 9.952621e+001
6.519313e+002, 1.013590e+002
6.524134e+002, 1.036309e+002
6.528955e+002, 1.058049e+002
6.533776e+002, 1.077581e+002
6.538597e+002, 1.096519e+002
6.543419e+002, 1.115062e+002
6.548240e+002, 1.133986e+002
6.553061e+002, 1.154181e+002
6.557882e+002, 1.177685e+002
6.562703e+002, 1.200472e+002
6.567524e+002, 1.220481e+002
6.572346e+002, 1.239163e+002
6.577167e+002, 1.261253e+002
6.581988e+002, 1.288729e+002
6.586809e+002, 1.315195e+002
6.591630e+002, 1.338540e+002
6.596451e+002, 1.359082e+002
6.601273e+002, 1.378259e+002
6.606094e+002, 1.396242e+002
6.610915e+002, 1.413829e+002
6.615736e+002, 1.431573e+002
6.620557e+002, 1.449504e+002
6.625378e+002, 1.467759e+002
6.630200e+002, 1.486328e+002
6.635021e+002, 1.504924e+002
6.639842e+002, 1.524590e+002
6.644663e+002, 1.543540e+002
6.649484e+002, 1.559408e+002
6.654305e+002, 1.570457e+002
6.659127e+002, 1.582737e+002
6.663948e+002, 1.601004e+002
6.668769e+002, 1.619396e+002
6.673590e+002, 1.632000e+002
6.678411e+002, 1.635993e+002
6.683232e+002, 1.639868e+002
6.688054e+002, 1.644364e+002
6.692875e+002, 1.648837e+002
6.697696e+002, 1.653210e+002
6.702517e+002, 1.657567e+002
6.707338e+002, 1.656802e+002
6.712159e+002, 1.648207e+002
6.716981e+002, 1.635285e+002
6.721802e+002, 1.623896e+002
6.726623e+002, 1.613495e+002
6.731444e+002, 1.601725e+002
6.736265e+002, 1.588332e+002
6.741086e+002, 1.572514e+002
6.745908e+002, 1.553316e+002
6.750729e+002, 1.531104e+002
6.755550e+002, 1.507221e+002
6.760371e+002, 1.478873e+002
6.765192e+002, 1.451953e+002
6.770013e+002, 1.429427e+002
6.774835e+002, 1.411832e+002
6.779656e+002, 1.391653e+002
6.784477e+002, 1.367254e+002
6.789298e+002, 1.342912e+002
6.794119e+002, 1.322078e+002
6.798940e+002, 1.304523e+002
6.803762e+002, 1.287058e+002
6.808583e+002, 1.269400e+002
6.813404e+002, 1.251375e+002
6.818225e+002, 1.232396e+002
6.823046e+002, 1.212822e+002
6.827867e+002, 1.192503e+002
6.832689e+002, 1.170956e+002
6.837510e+002, 1.150873e+002
6.842331e+002, 1.135277e+002
6.847152e+002, 1.122297e+002
6.851973e+002, 1.109935e+002
6.856794e+002, 1.100496e+002
6.861616e+002, 1.088025e+002
6.866437e+002, 1.068569e+002
6.871258e+002, 1.046106e+002
6.876079e+002, 1.028225e+002
6.880900e+002, 1.016982e+002
6.885721e+002, 1.005462e+002
6.890543e+002, 9.919563e+001
6.895364e+002, 9.773030e+001
6.900185e+002, 9.637015e+001
6.905006e+002, 9.511760e+001
6.909827e+002, 9.389940e+001
6.914648e+002, 9.268656e+001
6.919470e+002, 9.146967e+001
6.924291e+002, 9.015890e+001
6.929112e+002, 8.878371e+001
6.933933e+002, 8.751248e+001
6.938754e+002, 8.651439e+001
6.943575e+002, 8.557619e+001
6.948397e+002, 8.452140e+001
6.953218e+002, 8.331470e+001
6.958039e+002, 8.227148e+001
6.962860e+002, 8.154686e+001
6.967681e+002, 8.088194e+001
6.972502e+002, 8.013570e+001
6.977324e+002, 7.928257e+001
6.982145e+002, 7.851677e+001
6.986966e+002, 7.787566e+001
6.991787e+002, 7.721740e+001
6.996608e+002, 7.633334e+001
7.001429e+002, 7.529458e+001
7.006251e+002, 7.442127e+001
7.011072e+002, 7.376463e+001
7.015893e+002, 7.322050e+001
7.020714e+002, 7.274696e+001
7.025535e+002, 7.229980e+001
7.030356e+002, 7.180706e+001
7.035178e+002, 7.120856e+001
7.039999e+002, 7.063977e+001
7.044820e+002, 7.009603e+001
7.049641e+002, 6.963138e+001
7.054462e+002, 6.933664e+001
7.059283e+002, 6.942043e+001
7.064105e+002, 6.932713e+001
7.068926e+002, 6.889494e+001
7.073747e+002, 6.830063e+001
7.078568e+002, 6.802483e+001
7.083389e+002, 6.810207e+001
7.088210e+002, 6.800066e+001
7.093032e+002, 6.741913e+001
7.097853e+002, 6.666373e+001
7.102674e+002, 6.638191e+001
7.107495e+002, 6.649380e+001
7.112316e+002, 6.667396e+001
7.117137e+002, 6.694129e+001
7.121959e+002, 6.704886e+001
7.126780e+002, 6.664365e+001
7.131601e+002, 6.582003e+001
7.136422e+002, 6.528578e+001
7.141243e+002, 6.553746e+001
7.146064e+002, 6.582463e+001
7.150886e+002, 6.579649e+001
7.155707e+002, 6.543750e+001
7.160528e+002, 6.534544e+001
7.165349e+002, 6.561910e+001
7.170170e+002, 6.590646e+001
7.174991e+002, 6.593825e+001
7.179813e+002, 6.575949e+001
7.184634e+002, 6.575829e+001
7.189455e+002, 6.595056e+001
7.194276e+002, 6.615551e+001
7.199097e+002, 6.619878e+001
7.203918e+002, 6.616884e+001
7.208740e+002, 6.619143e+001
7.213561e+002, 6.629723e+001
7.218382e+002, 6.637794e+001
7.223203e+002, 6.631641e+001
7.228024e+002, 6.624515e+001
7.232845e+002, 6.629218e+001
7.237667e+002, 6.667742e+001
7.242488e+002, 6.677812e+001
7.247309e+002, 6.636028e+001
7.252130e+002, 6.590747e+001
7.256951e+002, 6.608037e+001
7.261772e+002, 6.693387e+001
7.266594e+002, 6.753483e+001
7.271415e+002, 6.769123e+001
7.276236e+002, 6.767553e+001
7.281057e+002, 6.784872e+001
7.285878e+002, 6.815012e+001
7.290699e+002, 6.842641e+001
7.295521e+002, 6.863872e+001
7.300342e+002, 6.879374e+001
7.305163e+002, 6.880402e+001
7.309984e+002, 6.877695e+001
7.314805e+002, 6.890382e+001
7.319626e+002, 6.936893e+001
7.324448e+002, 6.983156e+001
7.329269e+002, 7.024211e+001
7.334090e+002, 7.060727e+001
7.338911e+002, 7.091351e+001
7.343732e+002, 7.112399e+001
7.348553e+002, 7.142052e+001
7.353375e+002, 7.188277e+001
7.358196e+002, 7.244994e+001
7.363017e+002, 7.298637e+001
7.367838e+002, 7.349043e+001
7.372659e+002, 7.395185e+001
7.377480e+002, 7.434631e+001
7.382302e+002, 7.470877e+001
7.387123e+002, 7.505368e+001
7.391944e+002, 7.539227e+001
7.396765e+002, 7.577586e+001
7.401586e+002, 7.616505e+001
7.406407e+002, 7.666059e+001
7.411229e+002, 7.737094e+001
7.416050e+002, 7.828418e+001
7.420871e+002, 7.901555e+001
7.425692e+002, 7.949632e+001
7.430513e+002, 7.996757e+001
7.435334e+002, 8.055510e+001
7.440156e+002, 8.124986e+001
7.444977e+002, 8.198533e+001
7.449798e+002, 8.276481e+001
7.454619e+002, 8.345675e+001
7.459440e+002, 8.381975e+001
7.464261e+002, 8.409959e+001
7.469083e+002, 8.461543e+001
7.473904e+002, 8.539744e+001
7.478725e+002, 8.626742e+001
7.483546e+002, 8.737614e+001
7.488367e+002, 8.836117e+001
7.493188e+002, 8.888736e+001
7.498010e+002, 8.869013e+001
7.502831e+002, 8.893917e+001
7.507652e+002, 8.981522e+001
7.512473e+002, 9.085959e+001
7.517294e+002, 9.176836e+001
7.522115e+002, 9.253410e+001
7.526937e+002, 9.309962e+001
7.531758e+002, 9.343761e+001
7.536579e+002, 9.375285e+001
7.541400e+002, 9.421422e+001
7.546221e+002, 9.480856e+001
7.551042e+002, 9.554393e+001
7.555864e+002, 9.644450e+001
7.560685e+002, 9.736994e+001
7.565506e+002, 9.833821e+001
7.570327e+002, 9.924578e+001
7.575148e+002, 9.995686e+001
7.579969e+002, 1.001772e+002
7.584791e+002, 1.006814e+002
7.589612e+002, 1.016400e+002
7.594433e+002, 1.026925e+002
7.599254e+002, 1.033732e+002
7.604075e+002, 1.036732e+002
7.608896e+002, 1.038774e+002
7.613718e+002, 1.039867e+002
7.618539e+002, 1.041470e+002
7.623360e+002, 1.046982e+002
7.628181e+002, 1.054262e+002
7.633002e+002, 1.058720e+002
7.637823e+002, 1.058156e+002
7.642645e+002, 1.056090e+002
7.647466e+002, 1.054556e+002
7.652287e+002, 1.052743e+002
7.657108e+002, 1.049349e+002
7.661929e+002, 1.042738e+002
7.666750e+002, 1.036591e+002
7.671572e+002, 1.031404e+002
7.676393e+002, 1.026728e+002
7.681214e+002, 1.021600e+002
7.686035e+002, 1.015983e+002
7.690856e+002, 1.010651e+002
7.695677e+002, 1.006038e+002
7.700499e+002, 1.001253e+002
7.705320e+002, 9.939700e+001
7.710141e+002, 9.853674e+001
7.714962e+002, 9.784799e+001
7.719783e+002, 9.757270e+001
7.724604e+002, 9.738120e+001
7.729426e+002, 9.709409e+001
7.734247e+002, 9.676650e+001
7.739068e+002, 9.652966e+001
7.743889e+002, 9.636445e+001
7.748710e+002, 9.635274e+001
7.753531e+002, 9.659212e+001
7.758353e+002, 9.695763e+001
7.763174e+002, 9.702345e+001
7.767995e+002, 9.676894e+001
7.772816e+002, 9.668057e+001
7.777637e+002, 9.701844e+001
7.782458e+002, 9.753540e+001
7.787280e+002, 9.783426e+001
7.792101e+002, 9.796149e+001
7.796922e+002, 9.805974e+001
7.801743e+002, 9.800066e+001
7.806564e+002, 9.812624e+001
7.811385e+002, 9.873013e+001
7.816207e+002, 9.970066e+001
7.821028e+002, 1.005247e+002
7.825849e+002, 1.011112e+002
7.830670e+002, 1.016420e+002
7.835491e+002, 1.021189e+002
7.840313e+002, 1.025863e+002
7.845134e+002, 1.033358e+002
7.849955e+002, 1.043808e+002
7.854776e+002, 1.051433e+002
7.859597e+002, 1.051394e+002
7.864418e+002, 1.048521e+002
7.869240e+002, 1.051076e+002
7.874061e+002, 1.057651e+002
7.878882e+002, 1.063086e+002
7.883703e+002, 1.063858e+002
7.888524e+002, 1.063637e+002
7.893345e+002, 1.063988e+002
7.898167e+002, 1.064909e+002
7.902988e+002, 1.065868e+002
7.907809e+002, 1.067598e+002
7.912630e+002, 1.068141e+002
7.917451e+002, 1.067343e+002
7.922272e+002, 1.064773e+002
7.927094e+002, 1.057055e+002
7.931915e+002, 1.044477e+002
7.936736e+002, 1.032724e+002
7.941557e+002, 1.025906e+002
7.946378e+002, 1.021300e+002
7.951199e+002, 1.017048e+002
7.956021e+002, 1.012506e+002
7.960842e+002, 1.004601e+002
7.965663e+002, 9.884177e+001
7.970484e+002, 9.720947e+001
7.975305e+002, 9.598845e+001
7.980126e+002, 9.513052e+001
7.984948e+002, 9.415523e+001
7.989769e+002, 9.308981e+001
7.994590e+002, 9.183162e+001
7.999411e+002, 9.025057e+001
8.004232e+002, 8.846983e+001
8.009053e+002, 8.706173e+001
8.013875e+002, 8.600367e+001
8.018696e+002, 8.507291e+001
8.023517e+002, 8.428320e+001
8.028338e+002, 8.343253e+001
8.033159e+002, 8.228833e+001
8.037980e+002, 8.088525e+001
8.042802e+002, 7.947506e+001
8.047623e+002, 7.792417e+001
8.052444e+002, 7.661149e+001
8.057265e+002, 7.571859e+001
8.062086e+002, 7.520285e+001
8.066907e+002, 7.472344e+001
8.071729e+002, 7.430305e+001
8.076550e+002, 7.380897e+001
8.081371e+002, 7.316187e+001
8.086192e+002, 7.239719e+001
8.091013e+002, 7.151380e+001
8.095834e+002, 7.055962e+001
8.100656e+002, 6.980634e+001
8.105477e+002, 6.952641e+001
8.110298e+002, 6.940984e+001
8.115119e+002, 6.927598e+001
8.119940e+002, 6.911829e+001
8.124761e+002, 6.895239e+001
8.129583e+002, 6.880726e+001
8.134404e+002, 6.861726e+001
8.139225e+002, 6.831889e+001
8.144046e+002, 6.795557e+001
8.148867e+002, 6.779383e+001
8.153688e+002, 6.784280e+001
8.158510e+002, 6.793713e+001
8.163331e+002, 6.803788e+001
8.168152e+002, 6.810316e+001
8.172973e+002, 6.803125e+001
8.177794e+002, 6.785186e+001
8.182615e+002, 6.768604e+001
8.187437e+002, 6.752371e+001
8.192258e+002, 6.745809e+001
8.197079e+002, 6.754804e+001
8.201900e+002, 6.778600e+001
8.206721e+002, 6.808675e+001
8.211542e+002, 6.853537e+001
8.216364e+002, 6.886004e+001
8.221185e+002, 6.895454e+001
8.226006e+002, 6.886758e+001
8.230827e+002, 6.867867e+001
8.235648e+002, 6.841996e+001
8.240469e+002, 6.833824e+001
8.245291e+002, 6.879604e+001
8.250112e+002, 6.930858e+001
8.254933e+002, 6.933814e+001
8.259754e+002, 6.902831e+001
8.264575e+002, 6.883723e+001
8.269396e+002, 6.904075e+001
8.274218e+002, 6.923351e+001
8.279039e+002, 6.929350e+001
8.283860e+002, 6.926451e+001
8.288681e+002, 6.927398e+001
8.293502e+002, 6.931197e+001
8.298323e+002, 6.946267e+001
8.303145e+002, 6.981719e+001
8.307966e+002, 7.022392e+001
8.312787e+002, 7.035725e+001
8.317608e+002, 7.029147e+001
8.322429e+002, 7.025352e+001
8.327250e+002, 7.035142e+001
8.332072e+002, 7.050251e+001
8.336893e+002, 7.070743e+001
8.341714e+002, 7.093163e+001
8.346535e+002, 7.106926e+001
8.351356e+002, 7.095680e+001
8.356177e+002, 7.105794e+001
8.360999e+002, 7.153019e+001
8.365820e+002, 7.219400e+001
8.370641e+002, 7.264241e+001
8.375462e+002, 7.289255e+001
8.380283e+002, 7.313917e+001
8.385104e+002, 7.344895e+001
8.389926e+002, 7.377197e+001
8.394747e+002, 7.406353e+001
8.399568e+002, 7.432554e+001
8.404389e+002, 7.456551e+001
8.409210e+002, 7.475548e+001
8.414031e+002, 7.495644e+001
8.418853e+002, 7.515305e+001
8.423674e+002, 7.537915e+001
8.428495e+002, 7.571976e+001
8.433316e+002, 7.622939e+001
8.438137e+002, 7.656453e+001
8.442958e+002, 7.664596e+001
8.447780e+002, 7.659673e+001
8.452601e+002, 7.651505e+001
8.457422e+002, 7.645181e+001
8.462243e+002, 7.655937e+001
8.467064e+002, 7.697649e+001
8.471885e+002, 7.732171e+001
8.476707e+002, 7.734161e+001
8.481528e+002, 7.718572e+001
8.486349e+002, 7.701810e+001
8.491170e+002, 7.674859e+001
8.495991e+002, 7.672218e+001
8.500812e+002, 7.714122e+001
8.505634e+002, 7.749500e+001
8.510455e+002, 7.709926e+001
8.515276e+002, 7.605760e+001
8.520097e+002, 7.515891e+001
8.524918e+002, 7.450942e+001
8.529739e+002, 7.395278e+001
8.534561e+002, 7.338948e+001
8.539382e+002, 7.281377e+001
8.544203e+002, 7.219660e+001
8.549024e+002, 7.147471e+001
8.553845e+002, 7.091071e+001
8.558666e+002, 7.076787e+001
8.563488e+002, 7.059409e+001
8.568309e+002, 7.003970e+001
8.573130e+002, 6.901197e+001
8.577951e+002, 6.829249e+001
8.582772e+002, 6.791279e+001
8.587593e+002, 6.767234e+001
8.592415e+002, 6.751205e+001
8.597236e+002, 6.733076e+001
8.602057e+002, 6.691772e+001
8.606878e+002, 6.625846e+001
8.611699e+002, 6.558994e+001
8.616520e+002, 6.491966e+001
8.621342e+002, 6.436126e+001
8.626163e+002, 6.402983e+001
8.630984e+002, 6.393404e+001
8.635805e+002, 6.375744e+001
8.640626e+002, 6.350432e+001
8.645447e+002, 6.316214e+001
8.650269e+002, 6.267651e+001
8.655090e+002, 6.210172e+001
8.659911e+002, 6.164678e+001
8.664732e+002, 6.130130e+001
8.669553e+002, 6.097515e+001
8.674374e+002, 6.065388e+001
8.679196e+002, 6.030036e+001
8.684017e+002, 5.979687e+001
8.688838e+002, 5.919610e+001
8.693659e+002, 5.891038e+001
8.698480e+002, 5.919694e+001
8.703301e+002, 5.941101e+001
8.708123e+002, 5.936508e+001
8.712944e+002, 5.911328e+001
8.717765e+002, 5.878888e+001
8.722586e+002, 5.840821e+001
8.727407e+002, 5.811940e+001
8.732228e+002, 5.805891e+001
8.737050e+002, 5.804317e+001
8.741871e+002, 5.783869e+001
8.746692e+002, 5.753918e+001
8.751513e+002, 5.734595e+001
8.756334e+002, 5.758522e+001
8.761155e+002, 5.759311e+001
8.765977e+002, 5.710777e+001
8.770798e+002, 5.643162e+001
8.775619e+002, 5.616062e+001
8.780440e+002, 5.633194e+001
8.785261e+002, 5.636359e+001
8.790082e+002, 5.609939e+001
8.794904e+002, 5.576048e+001
8.799725e+002, 5.566187e+001
8.804546e+002, 5.568359e+001
8.809367e+002, 5.560535e+001
8.814188e+002, 5.530413e+001
8.819009e+002, 5.503560e+001
8.823831e+002, 5.494818e+001
8.828652e+002, 5.489775e+001
8.833473e+002, 5.472956e+001
8.838294e+002, 5.438547e+001
8.843115e+002, 5.416158e+001
8.847936e+002, 5.409557e+001
8.852758e+002, 5.404846e+001
8.857579e+002, 5.381660e+001
8.862400e+002, 5.350867e+001
8.867221e+002, 5.341714e+001
8.872042e+002, 5.359150e+001
8.876863e+002, 5.370448e+001
8.881685e+002, 5.352980e+001
8.886506e+002, 5.325639e+001
8.891327e+002, 5.299204e+001
8.896148e+002, 5.273232e+001
8.900969e+002, 5.258191e+001
8.905790e+002, 5.257660e+001
8.910612e+002, 5.258218e+001
8.915433e+002, 5.253690e+001
8.920254e+002, 5.243593e+001
8.925075e+002, 5.220749e+001
8.929896e+002, 5.187490e+001
8.934717e+002, 5.163688e+001
8.939539e+002, 5.172547e+001
8.944360e+002, 5.184831e+001
8.949181e+002, 5.185531e+001
8.954002e+002, 5.173235e+001
8.958823e+002, 5.142521e+001
8.963644e+002, 5.075001e+001
8.968466e+002, 5.025473e+001
8.973287e+002, 5.012643e+001
8.978108e+002, 5.023698e+001
8.982929e+002, 5.027002e+001
8.987750e+002, 5.023161e+001
8.992571e+002, 5.016585e+001
8.997393e+002, 5.013921e+001
9.002214e+002, 5.001719e+001
9.007035e+002, 4.947621e+001
9.011856e+002, 4.881339e+001
9.016677e+002, 4.853877e+001
9.021498e+002, 4.924202e+001
9.026320e+002, 4.966215e+001
9.031141e+002, 4.961891e+001
9.035962e+002, 4.938915e+001
9.040783e+002, 4.935894e+001
9.045604e+002, 4.950828e+001
9.050425e+002, 4.957829e+001
9.055247e+002, 4.952907e+001
9.060068e+002, 4.941216e+001
9.064889e+002, 4.911414e+001
9.069710e+002, 4.886315e+001
9.074531e+002, 4.898853e+001
9.079352e+002, 4.972004e+001
9.084174e+002, 5.013983e+001
9.088995e+002, 4.998642e+001
9.093816e+002, 4.965489e+001
9.098637e+002, 4.929590e+001
9.103458e+002, 4.890565e+001
9.108279e+002, 4.898646e+001
9.113101e+002, 4.954848e+001
9.117922e+002, 5.004757e+001
9.122743e+002, 5.005337e+001
9.127564e+002, 4.981025e+001
9.132385e+002, 4.944614e+001
9.137206e+002, 4.902478e+001
9.142028e+002, 4.890359e+001
9.146849e+002, 4.960955e+001
9.151670e+002, 5.014058e+001
9.156491e+002, 5.011800e+001
9.161312e+002, 4.971505e+001
9.166133e+002, 4.963531e+001
9.170955e+002, 4.988531e+001
9.175776e+002, 5.007966e+001
9.180597e+002, 5.007001e+001
9.185418e+002, 4.994858e+001
9.190239e+002, 4.973932e+001
9.195060e+002, 4.951744e+001
9.199882e+002, 4.943040e+001
9.204703e+002, 4.967609e+001
9.209524e+002, 4.986948e+001
9.214345e+002, 5.004530e+001
9.219166e+002, 5.006426e+001
9.223987e+002, 4.966740e+001
9.228809e+002, 4.881544e+001
9.233630e+002, 4.815598e+001
9.238451e+002, 4.777382e+001
9.243272e+002, 4.749438e+001
9.248093e+002, 4.711354e+001
9.252914e+002, 4.673425e+001
9.257736e+002, 4.655505e+001
9.262557e+002, 4.666073e+001
9.267378e+002, 4.658636e+001
9.272199e+002, 4.602468e+001
9.277020e+002, 4.541108e+001
9.281841e+002, 4.495005e+001
9.286663e+002, 4.464399e+001
9.291484e+002, 4.439684e+001
9.296305e+002, 4.420790e+001
9.301126e+002, 4.405367e+001
9.305947e+002, 4.401141e+001
9.310768e+002, 4.393240e+001
9.315590e+002, 4.351305e+001
9.320411e+002, 4.285605e+001
9.325232e+002, 4.241615e+001
9.330053e+002, 4.255749e+001
9.334874e+002, 4.266921e+001
9.339695e+002, 4.255960e+001
9.344517e+002, 4.233339e+001
9.349338e+002, 4.226307e+001
9.354159e+002, 4.235321e+001
9.358980e+002, 4.239895e+001
9.363801e+002, 4.233228e+001
9.368622e+002, 4.223494e+001
9.373444e+002, 4.218254e+001
9.378265e+002, 4.217147e+001
9.383086e+002, 4.221265e+001
9.387907e+002, 4.243586e+001
9.392728e+002, 4.244357e+001
9.397549e+002, 4.193323e+001
9.402371e+002, 4.142916e+001
9.407192e+002, 4.143361e+001
9.412013e+002, 4.196977e+001
9.416834e+002, 4.217369e+001
9.421655e+002, 4.200283e+001
9.426476e+002, 4.178001e+001
9.431298e+002, 4.175201e+001
9.436119e+002, 4.183138e+001
9.440940e+002, 4.196093e+001
9.445761e+002, 4.213012e+001
9.450582e+002, 4.222235e+001
9.455403e+002, 4.218627e+001
9.460225e+002, 4.208699e+001
9.465046e+002, 4.188293e+001
9.469867e+002, 4.164534e+001
9.474688e+002, 4.176851e+001
9.479509e+002, 4.221746e+001
9.484330e+002, 4.245793e+001
9.489152e+002, 4.208989e+001
9.493973e+002, 4.165675e+001
9.498794e+002, 4.175393e+001
9.503615e+002, 4.214235e+001
9.508436e+002, 4.239875e+001
9.513257e+002, 4.243518e+001
9.518079e+002, 4.227386e+001
9.522900e+002, 4.180384e+001
9.527721e+002, 4.129022e+001
9.532542e+002, 4.111317e+001
9.537363e+002, 4.121486e+001
9.542184e+002, 4.111184e+001
9.547006e+002, 4.072909e+001
9.551827e+002, 4.039815e+001
9.556648e+002, 4.052430e+001
9.561469e+002, 4.072446e+001
9.566290e+002, 4.060613e+001
9.571111e+002, 4.007394e+001
9.575933e+002, 3.977983e+001
9.580754e+002, 3.982077e+001
9.585575e+002, 3.995329e+001
9.590396e+002, 4.009306e+001
9.595217e+002, 4.022422e+001
9.600038e+002, 4.028433e+001
9.604860e+002, 4.028253e+001
9.609681e+002, 4.026645e+001
9.614502e+002, 4.031334e+001
9.619323e+002, 4.030001e+001
9.624144e+002, 4.003306e+001
9.628965e+002, 3.967450e+001
9.633787e+002, 3.961833e+001
9.638608e+002, 4.009752e+001
9.643429e+002, 4.026813e+001
9.648250e+002, 3.995428e+001
9.653071e+002, 3.948862e+001
9.657892e+002, 3.930827e+001
9.662714e+002, 3.934034e+001
9.667535e+002, 3.943157e+001
9.672356e+002, 3.957022e+001
9.677177e+002, 3.964814e+001
9.681998e+002, 3.956448e+001
9.686819e+002, 3.942908e+001
9.691641e+002, 3.931605e+001
9.696462e+002, 3.922706e+001
9.701283e+002, 3.914052e+001
9.706104e+002, 3.905030e+001
9.710925e+002, 3.899022e+001
9.715746e+002, 3.899358e+001
9.720568e+002, 3.903129e+001
9.725389e+002, 3.906319e+001
9.730210e+002, 3.908506e+001
9.735031e+002, 3.908225e+001
9.739852e+002, 3.899249e+001
9.744673e+002, 3.894734e+001
9.749495e+002, 3.903845e+001
9.754316e+002, 3.916609e+001
9.759137e+002, 3.912408e+001
9.763958e+002, 3.889703e+001
9.768779e+002, 3.881253e+001
9.773600e+002, 3.895570e+001
9.778422e+002, 3.912415e+001
9.783243e+002, 3.906361e+001
9.788064e+002, 3.891808e+001
9.792885e+002, 3.890045e+001
9.797706e+002, 3.910157e+001
9.802527e+002, 3.913261e+001
9.807349e+002, 3.876311e+001
9.812170e+002, 3.844677e+001
9.816991e+002, 3.849182e+001
9.821812e+002, 3.882315e+001
9.826633e+002, 3.881888e+001
9.831454e+002, 3.850771e+001
9.836276e+002, 3.821813e+001
9.841097e+002, 3.818001e+001
9.845918e+002, 3.820323e+001
9.850739e+002, 3.803014e+001
9.855560e+002, 3.780851e+001
9.860381e+002, 3.799972e+001
9.865203e+002, 3.907637e+001
9.870024e+002, 3.955462e+001
9.874845e+002, 3.906762e+001
9.879666e+002, 3.827150e+001
9.884487e+002, 3.817299e+001
9.889308e+002, 3.854622e+001
9.894130e+002, 3.873095e+001
9.898951e+002, 3.860586e+001
9.903772e+002, 3.837158e+001
9.908593e+002, 3.796345e+001
9.913414e+002, 3.763619e+001
9.918235e+002, 3.764275e+001
9.923057e+002, 3.800473e+001
9.927878e+002, 3.809815e+001
9.932699e+002, 3.787017e+001
9.937520e+002, 3.770802e+001
9.942341e+002, 3.789259e+001
9.947162e+002, 3.821883e+001
9.951984e+002, 3.834987e+001
9.956805e+002, 3.832890e+001
9.961626e+002, 3.827047e+001
9.966447e+002, 3.821439e+001
9.971268e+002, 3.812575e+001
9.976089e+002, 3.795599e+001
9.980911e+002, 3.778345e+001
9.985732e+002, 3.773083e+001
9.990553e+002, 3.779646e+001
9.995374e+002, 3.786946e+001
1.000020e+003, 3.794134e+001
1.000502e+003, 3.796297e+001
1.000984e+003, 3.787002e+001
1.001466e+003, 3.771624e+001
1.001948e+003, 3.750200e+001
1.002430e+003, 3.721186e+001
1.002912e+003, 3.716805e+001
1.003394e+003, 3.754824e+001
1.003876e+003, 3.784745e+001
1.004359e+003, 3.781068e+001
1.004841e+003, 3.757206e+001
1.005323e+003, 3.757026e+001
1.005805e+003, 3.774283e+001
1.006287e+003, 3.783477e+001
1.006769e+003, 3.769363e+001
1.007251e+003, 3.749825e+001
1.007733e+003, 3.734126e+001
1.008216e+003, 3.718423e+001
1.008698e+003, 3.694599e+001
1.009180e+003, 3.652563e+001
1.009662e+003, 3.643092e+001
1.010144e+003, 3.672548e+001
1.010626e+003, 3.715543e+001
1.011108e+003, 3.760891e+001
1.011590e+003, 3.796021e+001
1.012072e+003, 3.795316e+001
1.012555e+003, 3.759092e+001
1.013037e+003, 3.723730e+001
1.013519e+003, 3.695446e+001
1.014001e+003, 3.678212e+001
1.014483e+003, 3.674612e+001
1.014965e+003, 3.682115e+001
1.015447e+003, 3.694088e+001
1.015929e+003, 3.710002e+001
1.016411e+003, 3.724178e+001
1.016894e+003, 3.736017e+001
1.017376e+003, 3.742547e+001
1.017858e+003, 3.739951e+001
1.018340e+003, 3.730915e+001
1.018822e+003, 3.717654e+001
1.019304e+003, 3.694211e+001
1.019786e+003, 3.684072e+001
1.020268e+003, 3.691123e+001
1.020751e+003, 3.701250e+001
1.021233e+003, 3.704435e+001
1.021715e+003, 3.702201e+001
1.022197e+003, 3.693750e+001
1.022679e+003, 3.681720e+001
1.023161e+003, 3.681115e+001
1.023643e+003, 3.715511e+001
1.024125e+003, 3.744899e+001
1.024607e+003, 3.753836e+001
1.025090e+003, 3.746783e+001
1.025572e+003, 3.725862e+001
1.026054e+003, 3.688684e+001
1.026536e+003, 3.674010e+001
1.027018e+003, 3.691407e+001
1.027500e+003, 3.720476e+001
1.027982e+003, 3.750444e+001
1.028464e+003, 3.773789e+001
1.028947e+003, 3.780826e+001
1.029429e+003, 3.767775e+001
1.029911e+003, 3.747021e+001
1.030393e+003, 3.710222e+001
1.030875e+003, 3.684753e+001
1.031357e+003, 3.689935e+001
1.031839e+003, 3.715065e+001
1.032321e+003, 3.723011e+001
1.032803e+003, 3.717226e+001
1.033286e+003, 3.712504e+001
1.033768e+003, 3.720820e+001
1.034250e+003, 3.726490e+001
1.034732e+003, 3.717708e+001
1.035214e+003, 3.704494e+001
1.035696e+003, 3.702104e+001
1.036178e+003, 3.713176e+001
1.036660e+003, 3.720935e+001
1.037143e+003, 3.724564e+001
1.037625e+003, 3.722829e+001
1.038107e+003, 3.709908e+001
1.038589e+003, 3.693774e+001
1.039071e+003, 3.683911e+001
1.039553e+003, 3.680818e+001
1.040035e+003, 3.681762e+001
1.040517e+003, 3.691893e+001
1.041000e+003, 3.696226e+001
1.041482e+003, 3.686657e+001
1.041964e+003, 3.672681e+001
1.042446e+003, 3.680202e+001
1.042928e+003, 3.704313e+001
1.043410e+003, 3.725981e+001
1.043892e+003, 3.742231e+001
1.044374e+003, 3.747525e+001
1.044856e+003, 3.729311e+001
1.045339e+003, 3.704751e+001
1.045821e+003, 3.688340e+001
1.046303e+003, 3.680513e+001
1.046785e+003, 3.683801e+001
1.047267e+003, 3.700499e+001
1.047749e+003, 3.708229e+001
1.048231e+003, 3.679380e+001
1.048713e+003, 3.641942e+001
1.049195e+003, 3.632286e+001
1.049677e+003, 3.644143e+001
1.050160e+003, 3.659132e+001
1.050642e+003, 3.678966e+001
1.051124e+003, 3.692051e+001
1.051606e+003, 3.698583e+001
1.052088e+003, 3.695748e+001
1.052570e+003, 3.672952e+001
1.053052e+003, 3.636901e+001
1.053534e+003, 3.616006e+001
1.054017e+003, 3.613873e+001
1.054499e+003, 3.616675e+001
1.054981e+003, 3.627226e+001
1.055463e+003, 3.629379e+001
1.055945e+003, 3.606803e+001
1.056427e+003, 3.565490e+001
1.056909e+003, 3.539321e+001
1.057391e+003, 3.529388e+001
1.057874e+003, 3.521289e+001
1.058356e+003, 3.506611e+001
1.058838e+003, 3.499178e+001
1.059320e+003, 3.533253e+001
1.059802e+003, 3.578451e+001
1.060284e+003, 3.589028e+001
1.060766e+003, 3.529066e+001
1.061248e+003, 3.498655e+001
1.061730e+003, 3.514467e+001
1.062213e+003, 3.533978e+001
1.062695e+003, 3.524556e+001
1.063177e+003, 3.494463e+001
1.063659e+003, 3.468965e+001
1.064141e+003, 3.449154e+001
1.064623e+003, 3.440592e+001
1.065105e+003, 3.457487e+001
1.065587e+003, 3.473096e+001
1.066070e+003, 3.478159e+001
1.066552e+003, 3.475011e+001
1.067034e+003, 3.464382e+001
1.067516e+003, 3.445921e+001
1.067998e+003, 3.433416e+001
1.068480e+003, 3.429344e+001
1.068962e+003, 3.423396e+001
1.069444e+003, 3.397501e+001
1.069927e+003, 3.371891e+001
1.070409e+003, 3.368053e+001
1.070891e+003, 3.387637e+001
1.071373e+003, 3.399916e+001
1.071855e+003, 3.400502e+001
1.072337e+003, 3.403976e+001
1.072819e+003, 3.416066e+001
1.073301e+003, 3.431736e+001
1.073783e+003, 3.451734e+001
1.074266e+003, 3.466604e+001
1.074748e+003, 3.451417e+001
1.075230e+003, 3.379932e+001
1.075712e+003, 3.334195e+001
1.076194e+003, 3.359695e+001
1.076676e+003, 3.389634e+001
1.077158e+003, 3.380267e+001
1.077640e+003, 3.336951e+001
1.078122e+003, 3.318221e+001
1.078604e+003, 3.321112e+001
1.079087e+003, 3.320474e+001
1.079569e+003, 3.290533e+001
1.080051e+003, 3.265017e+001
1.080533e+003, 3.272181e+001
1.081015e+003, 3.294537e+001
1.081497e+003, 3.298931e+001
1.081979e+003, 3.280190e+001
1.082461e+003, 3.265915e+001
1.082944e+003, 3.257909e+001
1.083426e+003, 3.256003e+001
1.083908e+003, 3.264286e+001
1.084390e+003, 3.275992e+001
1.084872e+003, 3.284745e+001
1.085354e+003, 3.289761e+001
1.085836e+003, 3.287837e+001
1.086318e+003, 3.275416e+001
1.086801e+003, 3.262653e+001
1.087283e+003, 3.252139e+001
1.087765e+003, 3.242178e+001
1.088247e+003, 3.227201e+001
1.088729e+003, 3.210466e+001
1.089211e+003, 3.202185e+001
1.089693e+003, 3.206577e+001
1.090175e+003, 3.207964e+001
1.090657e+003, 3.193787e+001
1.091140e+003, 3.180641e+001
1.091622e+003, 3.178048e+001
1.092104e+003, 3.184617e+001
1.092586e+003, 3.190243e+001
1.093068e+003, 3.194820e+001
1.093550e+003, 3.196978e+001
1.094032e+003, 3.196182e+001
1.094514e+003, 3.192730e+001
1.094997e+003, 3.179372e+001
1.095479e+003, 3.167223e+001
1.095961e+003, 3.173642e+001
1.096443e+003, 3.210707e+001
1.096925e+003, 3.223423e+001
1.097407e+003, 3.209050e+001
1.097889e+003, 3.187140e+001
1.098371e+003, 3.164477e+001
1.098854e+003, 3.149030e+001
1.099336e+003, 3.158685e+001
1.099818e+003, 3.185938e+001
1.100300e+003, 3.201347e+001
1.100782e+003, 3.196624e+001
1.101264e+003, 3.181528e+001
1.101746e+003, 3.154277e+001
1.102228e+003, 3.123101e+001
1.102710e+003, 3.094475e+001
1.103193e+003, 3.071687e+001
1.103675e+003, 3.065097e+001
1.104157e+003, 3.075961e+001
1.104639e+003, 3.086741e+001
1.105121e+003, 3.085253e+001
1.105603e+003, 3.088010e+001
1.106085e+003, 3.104204e+001
1.106567e+003, 3.127587e+001
1.107049e+003, 3.137968e+001
1.107531e+003, 3.136807e+001
1.108014e+003, 3.134910e+001
1.108496e+003, 3.135793e+001
1.108978e+003, 3.134455e+001
1.109460e+003, 3.123298e+001
1.109942e+003, 3.111359e+001
1.110424e+003, 3.108195e+001
1.110906e+003, 3.114395e+001
1.111388e+003, 3.111778e+001
1.111871e+003, 3.099639e+001
1.112353e+003, 3.088750e+001
1.112835e+003, 3.084809e+001
1.113317e+003, 3.084378e+001
1.113799e+003, 3.080254e+001
1.114281e+003, 3.078239e+001
1.114763e+003, 3.089416e+001
1.115245e+003, 3.133137e+001
1.115728e+003, 3.152073e+001
1.116210e+003, 3.143320e+001
1.116692e+003, 3.119504e+001
1.117174e+003, 3.077251e+001
1.117656e+003, 3.033885e+001
1.118138e+003, 3.027142e+001
1.118620e+003, 3.049549e+001
1.119102e+003, 3.067483e+001
1.119584e+003, 3.069316e+001
1.120067e+003, 3.064759e+001
1.120549e+003, 3.052991e+001
1.121031e+003, 3.039115e+001
1.121513e+003, 3.030415e+001
1.121995e+003, 3.025317e+001
1.122477e+003, 3.018117e+001
1.122959e+003, 3.008236e+001
1.123441e+003, 3.000121e+001
1.123924e+003, 2.995038e+001
1.124406e+003, 2.993874e+001
1.124888e+003, 2.999720e+001
1.125370e+003, 3.008113e+001
1.125852e+003, 3.002911e+001
1.126334e+003, 2.986115e+001
1.126816e+003, 2.983319e+001
1.127298e+003, 3.004266e+001
1.127781e+003, 3.020871e+001
1.128263e+003, 2.999295e+001
1.128745e+003, 2.974953e+001
1.129227e+003, 2.984926e+001
1.129709e+003, 3.026972e+001
1.130191e+003, 3.032294e+001
1.130673e+003, 2.998419e+001
1.131155e+003, 2.966915e+001
1.131637e+003, 2.953757e+001
1.132120e+003, 2.951381e+001
1.132602e+003, 2.959964e+001
1.133084e+003, 2.970665e+001
1.133566e+003, 2.970342e+001
1.134048e+003, 2.954729e+001
1.134530e+003, 2.935274e+001
1.135012e+003, 2.908327e+001
1.135494e+003, 2.892221e+001
1.135976e+003, 2.907398e+001
1.136458e+003, 2.934992e+001
1.136941e+003, 2.941587e+001
1.137423e+003, 2.936108e+001
1.137905e+003, 2.940242e+001
1.138387e+003, 2.972876e+001
1.138869e+003, 2.996405e+001
1.139351e+003, 3.008793e+001
1.139833e+003, 3.011960e+001
1.140315e+003, 3.005065e+001
1.140798e+003, 2.991021e+001
1.141280e+003, 2.977296e+001
1.141762e+003, 2.963400e+001
1.142244e+003, 2.945046e+001
1.142726e+003, 2.898075e+001
1.143208e+003, 2.878801e+001
1.143690e+003, 2.911438e+001
1.144172e+003, 2.961030e+001
1.144655e+003, 2.972309e+001
1.145137e+003, 2.953887e+001
1.145619e+003, 2.941602e+001
1.146101e+003, 2.940002e+001
1.146583e+003, 2.936197e+001
1.147065e+003, 2.911923e+001
1.147547e+003, 2.896967e+001
1.148029e+003, 2.911645e+001
1.148511e+003, 2.941681e+001
1.148994e+003, 2.940669e+001
1.149476e+003, 2.913135e+001
1.149958e+003, 2.901657e+001
1.150440e+003, 2.918621e+001
1.150922e+003, 2.939121e+001
1.151404e+003, 2.949917e+001
1.151886e+003, 2.952987e+001
1.152368e+003, 2.949068e+001
1.152851e+003, 2.938822e+001
1.153333e+003, 2.921653e+001
1.153815e+003, 2.897431e+001
1.154297e+003, 2.888448e+001
1.154779e+003, 2.912406e+001
1.155261e+003, 2.933353e+001
1.155743e+003, 2.899328e+001
1.156225e+003, 2.854596e+001
1.156708e+003, 2.859407e+001
1.157190e+003, 2.926550e+001
1.157672e+003, 2.953246e+001
1.158154e+003, 2.935936e+001
1.158636e+003, 2.908895e+001
1.159118e+003, 2.889157e+001
1.159600e+003, 2.872054e+001
1.160082e+003, 2.841940e+001
1.160564e+003, 2.814124e+001
1.161047e+003, 2.818772e+001
1.161529e+003, 2.887851e+001
1.162011e+003, 2.918439e+001
1.162493e+003, 2.903409e+001
1.162975e+003, 2.878729e+001
1.163457e+003, 2.872781e+001
1.163939e+003, 2.873505e+001
1.164421e+003, 2.860631e+001
1.164903e+003, 2.839985e+001
1.165385e+003, 2.830201e+001
1.165868e+003, 2.844378e+001
1.166350e+003, 2.851803e+001
1.166832e+003, 2.847473e+001
1.167314e+003, 2.843462e+001
1.167796e+003, 2.853614e+001
1.168278e+003, 2.872132e+001
1.168760e+003, 2.894211e+001
1.169242e+003, 2.916883e+001
1.169725e+003, 2.924513e+001
1.170207e+003, 2.892829e+001
1.170689e+003, 2.876358e+001
1.171171e+003, 2.889289e+001
1.171653e+003, 2.909169e+001
1.172135e+003, 2.906583e+001
1.172617e+003, 2.885913e+001
1.173099e+003, 2.846841e+001
1.173582e+003, 2.790689e+001
1.174064e+003, 2.761837e+001
1.174546e+003, 2.807238e+001
1.175028e+003, 2.842779e+001
1.175510e+003, 2.843902e+001
1.175992e+003, 2.827185e+001
1.176474e+003, 2.820382e+001
1.176956e+003, 2.823627e+001
1.177438e+003, 2.842790e+001
1.177921e+003, 2.882299e+001
1.178403e+003, 2.906953e+001
1.178885e+003, 2.886506e+001
1.179367e+003, 2.866788e+001
1.179849e+003, 2.870321e+001
1.180331e+003, 2.884669e+001
1.180813e+003, 2.862390e+001
1.181295e+003, 2.816065e+001
1.181778e+003, 2.796839e+001
1.182260e+003, 2.828171e+001
1.182742e+003, 2.852926e+001
1.183224e+003, 2.834326e+001
1.183706e+003, 2.812837e+001
1.184188e+003, 2.812235e+001
1.184670e+003, 2.827675e+001
1.185152e+003, 2.830136e+001
1.185635e+003, 2.823113e+001
1.186117e+003, 2.826022e+001
1.186599e+003, 2.854002e+001
1.187081e+003, 2.876727e+001
1.187563e+003, 2.879471e+001
1.188045e+003, 2.869824e+001
1.188527e+003, 2.848207e+001
1.189009e+003, 2.817189e+001
1.189491e+003, 2.810989e+001
1.189974e+003, 2.827209e+001
1.190456e+003, 2.848907e+001
1.190938e+003, 2.883679e+001
1.191420e+003, 2.900202e+001
1.191902e+003, 2.866902e+001
1.192384e+003, 2.818983e+001
1.192866e+003, 2.784694e+001
1.193348e+003, 2.763600e+001
1.193830e+003, 2.796475e+001
1.194313e+003, 2.877387e+001
1.194795e+003, 2.933920e+001
1.195277e+003, 2.902575e+001
1.195759e+003, 2.857734e+001
1.196241e+003, 2.828360e+001
1.196723e+003, 2.816047e+001
1.197205e+003, 2.829523e+001
1.197687e+003, 2.870109e+001
1.198169e+003, 2.883396e+001
1.198652e+003, 2.867611e+001
1.199134e+003, 2.842269e+001
1.199616e+003, 2.802517e+001
1.200098e+003, 2.776496e+001
1.200580e+003, 2.794562e+001
1.201062e+003, 2.831772e+001
1.201544e+003, 2.848116e+001
1.202026e+003, 2.843211e+001
1.202509e+003, 2.829096e+001
1.202991e+003, 2.806648e+001
1.203473e+003, 2.789566e+001
1.203955e+003, 2.783854e+001
1.204437e+003, 2.790495e+001
1.204919e+003, 2.825227e+001
1.205401e+003, 2.868284e+001
1.205883e+003, 2.869007e+001
1.206365e+003, 2.825982e+001
1.206848e+003, 2.815109e+001
1.207330e+003, 2.848151e+001
1.207812e+003, 2.881397e+001
1.208294e+003, 2.883642e+001
1.208776e+003, 2.872117e+001
1.209258e+003, 2.847643e+001
1.209740e+003, 2.820688e+001
1.210222e+003, 2.826746e+001
1.210705e+003, 2.866427e+001
1.211187e+003, 2.882761e+001
1.211669e+003, 2.864303e+001
1.212151e+003, 2.835678e+001
1.212633e+003, 2.798997e+001
1.213115e+003, 2.775543e+001
1.213597e+003, 2.794309e+001
1.214079e+003, 2.839440e+001
1.214562e+003, 2.853784e+001
1.215044e+003, 2.838044e+001
1.215526e+003, 2.821223e+001
1.216008e+003, 2.808502e+001
1.216490e+003, 2.803414e+001
1.216972e+003, 2.815077e+001
1.217454e+003, 2.829920e+001
1.217936e+003, 2.838217e+001
1.218418e+003, 2.840465e+001
1.218901e+003, 2.839674e+001
1.219383e+003, 2.835692e+001
1.219865e+003, 2.824711e+001
1.220347e+003, 2.803150e+001
1.220829e+003, 2.784404e+001
1.221311e+003, 2.781038e+001
1.221793e+003, 2.782268e+001
1.222275e+003, 2.778246e+001
1.222757e+003, 2.770684e+001
1.223240e+003, 2.778037e+001
1.223722e+003, 2.798334e+001
1.224204e+003, 2.802421e+001
1.224686e+003, 2.771322e+001
1.225168e+003, 2.749592e+001
1.225650e+003, 2.781857e+001
1.226132e+003, 2.822570e+001
1.226614e+003, 2.837625e+001
1.227096e+003, 2.829011e+001
1.227579e+003, 2.806008e+001
1.228061e+003, 2.772275e+001
1.228543e+003, 2.762723e+001
1.229025e+003, 2.803415e+001
1.229507e+003, 2.840936e+001
1.229989e+003, 2.834142e+001
1.230471e+003, 2.820657e+001
1.230953e+003, 2.835658e+001
1.231436e+003, 2.872834e+001
1.231918e+003, 2.862553e+001
1.232400e+003, 2.812704e+001
1.232882e+003, 2.778537e+001
1.233364e+003, 2.791788e+001
1.233846e+003, 2.808027e+001
1.234328e+003, 2.804241e+001
1.234810e+003, 2.796490e+001
1.235292e+003, 2.795878e+001
1.235775e+003, 2.801779e+001
1.236257e+003, 2.813293e+001
1.236739e+003, 2.827760e+001
1.237221e+003, 2.830978e+001
1.237703e+003, 2.809295e+001
1.238185e+003, 2.787338e+001
1.238667e+003, 2.770453e+001
1.239149e+003, 2.761047e+001
1.239632e+003, 2.764547e+001
1.240114e+003, 2.777865e+001
1.240596e+003, 2.778981e+001
1.241078e+003, 2.772249e+001
1.241560e+003, 2.776542e+001
1.242042e+003, 2.825137e+001
1.242524e+003, 2.847268e+001
1.243006e+003, 2.805164e+001
1.243489e+003, 2.760052e+001
1.243971e+003, 2.765581e+001
1.244453e+003, 2.808059e+001
1.244935e+003, 2.836819e+001
1.245417e+003, 2.851864e+001
1.245899e+003, 2.852633e+001
1.246381e+003, 2.831295e+001
1.246863e+003, 2.804301e+001
1.247345e+003, 2.765797e+001
1.247828e+003, 2.738578e+001
1.248310e+003, 2.753205e+001
1.248792e+003, 2.791068e+001
1.249274e+003, 2.799800e+001
1.249756e+003, 2.786907e+001
1.250238e+003, 2.780286e+001
1.250720e+003, 2.803644e+001
1.251202e+003, 2.810122e+001
1.251684e+003, 2.788538e+001
1.252167e+003, 2.768473e+001
1.252649e+003, 2.783933e+001
1.253131e+003, 2.814676e+001
1.253613e+003, 2.818075e+001
1.254095e+003, 2.801895e+001
1.254577e+003, 2.793711e+001
1.255059e+003, 2.808650e+001
1.255541e+003, 2.815499e+001
1.256023e+003, 2.810771e+001
1.256506e+003, 2.804319e+001
1.256988e+003, 2.804740e+001
1.257470e+003, 2.808760e+001
1.257952e+003, 2.815060e+001
1.258434e+003, 2.820979e+001
1.258916e+003, 2.817634e+001
1.259398e+003, 2.798710e+001
1.259880e+003, 2.788075e+001
1.260363e+003, 2.788216e+001
1.260845e+003, 2.789994e+001
1.261327e+003, 2.784998e+001
1.261809e+003, 2.778333e+001
1.262291e+003, 2.773215e+001
1.262773e+003, 2.771106e+001
1.263255e+003, 2.777168e+001
1.263737e+003, 2.796686e+001
1.264219e+003, 2.793406e+001
1.264702e+003, 2.762793e+001
1.265184e+003, 2.741189e+001
1.265666e+003, 2.774456e+001
1.266148e+003, 2.810412e+001
1.266630e+003, 2.801675e+001
1.267112e+003, 2.768155e+001
1.267594e+003, 2.754394e+001
1.268076e+003, 2.761724e+001
1.268559e+003, 2.766923e+001
1.269041e+003, 2.768518e+001
1.269523e+003, 2.770598e+001
1.270005e+003, 2.781074e+001
1.270487e+003, 2.787384e+001
1.270969e+003, 2.776961e+001
1.271451e+003, 2.760853e+001
1.271933e+003, 2.755397e+001
1.272416e+003, 2.759319e+001
1.272898e+003, 2.751271e+001
1.273380e+003, 2.731861e+001
1.273862e+003, 2.724745e+001
1.274344e+003, 2.762161e+001
1.274826e+003, 2.790423e+001
1.275308e+003, 2.785770e+001
1.275790e+003, 2.769765e+001
1.276272e+003, 2.771604e+001
1.276755e+003, 2.785128e+001
1.277237e+003, 2.785032e+001
1.277719e+003, 2.771978e+001
1.278201e+003, 2.761375e+001
1.278683e+003, 2.762289e+001
1.279165e+003, 2.763481e+001
1.279647e+003, 2.763029e+001
1.280129e+003, 2.761777e+001
1.280611e+003, 2.757506e+001
1.281094e+003, 2.754423e+001
1.281576e+003, 2.767830e+001
1.282058e+003, 2.792770e+001
1.282540e+003, 2.801163e+001
1.283022e+003, 2.770200e+001
1.283504e+003, 2.752121e+001
1.283986e+003, 2.753247e+001
1.284468e+003, 2.763725e+001
1.284950e+003, 2.781045e+001
1.285433e+003, 2.796729e+001
1.285915e+003, 2.796460e+001
1.286397e+003, 2.784060e+001
1.286879e+003, 2.775818e+001
1.287361e+003, 2.773808e+001
1.287843e+003, 2.772735e+001
1.288325e+003, 2.772018e+001
1.288807e+003, 2.773548e+001
1.289290e+003, 2.786132e+001
1.289772e+003, 2.795065e+001
1.290254e+003, 2.782441e+001
1.290736e+003, 2.757426e+001
1.291218e+003, 2.740606e+001
1.291700e+003, 2.731522e+001
1.292182e+003, 2.741171e+001
1.292664e+003, 2.770119e+001
1.293146e+003, 2.795822e+001
1.293629e+003, 2.802439e+001
1.294111e+003, 2.801287e+001
1.294593e+003, 2.796544e+001
1.295075e+003, 2.788943e+001
1.295557e+003, 2.774369e+001
1.296039e+003, 2.755588e+001
1.296521e+003, 2.760600e+001
1.297003e+003, 2.787674e+001
1.297486e+003, 2.809646e+001
1.297968e+003, 2.810745e+001
1.298450e+003, 2.805607e+001
1.298932e+003, 2.793939e+001
1.299414e+003, 2.785264e+001
1.299896e+003, 2.799212e+001
1.300378e+003, 2.822248e+001
1.300860e+003, 2.808493e+001
1.301343e+003, 2.766311e+001
1.301825e+003, 2.738707e+001
##END=



