##NAMES=Kenoargentotetrahedrite-(Fe)
##RRUFFID=R061081
##IDEAL CHEMISTRY=Ag^1+^_6_(Cu^1+^_4_Fe^2+^_2_)Sb_4_S^2-^_12_[box]
##LOCALITY=Sadie mine, Elsa, Yukon, Canada
##OWNER=RRUFF
##SOURCE=Lloyd Twaites
##DESCRIPTION=Dark gray metallic massive
##STATUS=The identification of this mineral has been made only by X-ray diffraction.
##URL=rruff.info/R061081
116.2618, 305.1454
116.7439, 312.6065
117.2261, 318.1901
117.7082, 329.6554
118.1903, 351.0068
118.6724, 376.9950
119.1545, 408.6382
119.6366, 445.0479
120.1188, 476.6036
120.6009, 489.5517
121.0830, 495.9250
121.5651, 511.7652
122.0472, 555.6676
122.5293, 605.4657
123.0115, 639.5875
123.4936, 655.5938
123.9757, 666.6688
124.4578, 679.8549
124.9399, 696.0697
125.4220, 709.1425
125.9042, 728.3992
126.3863, 755.2204
126.8684, 779.1240
127.3505, 800.1114
127.8326, 816.2853
128.3147, 822.7758
128.7969, 820.7144
129.2790, 818.6942
129.7611, 824.8008
130.2432, 836.3116
130.7253, 843.3739
131.2074, 843.5712
131.6895, 838.2386
132.1717, 828.3324
132.6538, 812.8938
133.1359, 799.5193
133.6180, 799.1268
134.1001, 811.4954
134.5822, 817.9893
135.0644, 809.9910
135.5465, 789.3297
136.0286, 777.3649
136.5107, 775.1740
136.9928, 778.5162
137.4749, 781.9178
137.9571, 785.6693
138.4392, 788.7052
138.9213, 792.2798
139.4034, 798.3663
139.8855, 794.1912
140.3676, 775.0605
140.8498, 748.5760
141.3319, 736.6397
141.8140, 745.6777
142.2961, 756.4197
142.7782, 757.1282
143.2603, 739.1996
143.7425, 732.2515
144.2246, 744.0883
144.7067, 771.3290
145.1888, 783.8314
145.6709, 772.6074
146.1530, 755.1790
146.6352, 744.7513
147.1173, 745.5209
147.5994, 747.1370
148.0815, 748.5541
148.5636, 749.9189
149.0457, 749.8560
149.5279, 747.4592
150.0100, 743.8873
150.4921, 740.5458
150.9742, 736.0012
151.4563, 732.8929
151.9384, 732.4135
152.4206, 736.3146
152.9027, 737.9797
153.3848, 736.9752
153.8669, 733.4878
154.3490, 727.7604
154.8311, 716.1525
155.3133, 705.2935
155.7954, 697.9648
156.2775, 696.3444
156.7596, 695.2388
157.2417, 692.5671
157.7238, 689.4634
158.2060, 689.4005
158.6881, 698.7150
159.1702, 708.0839
159.6523, 711.8830
160.1344, 701.3308
160.6165, 692.5248
161.0986, 691.9285
161.5808, 698.5012
162.0629, 704.8440
162.5450, 709.0328
163.0271, 711.1466
163.5092, 711.3192
163.9913, 706.8922
164.4735, 702.6850
164.9556, 698.9876
165.4377, 702.6740
165.9198, 704.4745
166.4019, 704.4904
166.8840, 697.3768
167.3662, 699.4694
167.8483, 697.8727
168.3304, 696.1246
168.8125, 699.5131
169.2946, 693.4365
169.7767, 696.7435
170.2589, 696.3046
170.7410, 697.5802
171.2231, 695.1435
171.7052, 693.8535
172.1873, 696.2768
172.6694, 696.6440
173.1516, 693.7799
173.6337, 695.1645
174.1158, 688.9582
174.5979, 689.4130
175.0800, 692.7418
175.5621, 690.0644
176.0443, 691.5167
176.5264, 691.3963
177.0085, 684.1280
177.4906, 689.2906
177.9727, 689.0773
178.4548, 683.3439
178.9370, 688.0805
179.4191, 683.1082
179.9012, 681.6014
180.3833, 676.0021
180.8654, 674.2548
181.3475, 675.3612
181.8297, 674.8628
182.3118, 672.7312
182.7939, 670.6357
183.2760, 670.2232
183.7581, 671.1841
184.2402, 668.9443
184.7224, 673.1288
185.2045, 675.4274
185.6866, 675.9414
186.1687, 669.3260
186.6508, 671.9168
187.1329, 670.8182
187.6151, 669.5682
188.0972, 673.4548
188.5793, 667.8763
189.0614, 671.6814
189.5435, 671.7408
190.0257, 673.5144
190.5078, 671.5759
190.9899, 670.7839
191.4720, 673.7054
191.9541, 674.5707
192.4362, 672.2048
192.9183, 674.0875
193.4005, 668.3793
193.8826, 669.3322
194.3647, 673.1590
194.8468, 670.9797
195.3289, 672.9303
195.8110, 673.3080
196.2932, 666.5377
196.7753, 672.1984
197.2574, 672.4832
197.7395, 667.2479
198.2216, 672.4827
198.7037, 667.5396
199.1859, 670.6106
199.6680, 673.1494
200.1501, 670.5468
200.6322, 662.0922
201.1143, 657.4774
201.5964, 656.1050
202.0786, 662.0155
202.5607, 666.0398
203.0428, 668.2796
203.5249, 663.3899
204.0070, 667.7065
204.4891, 668.3336
204.9713, 668.8097
205.4534, 674.4220
205.9355, 670.5693
206.4176, 676.1002
206.8997, 677.8853
207.3818, 681.3847
207.8640, 681.1722
208.3461, 682.1061
208.8282, 686.7533
209.3103, 689.3444
209.7924, 688.7043
210.2745, 692.3127
210.7567, 688.3307
211.2388, 691.0094
211.7209, 698.2823
212.2030, 687.2316
212.6851, 699.5479
213.1672, 670.1147
213.6494, 677.3175
214.1315, 700.3267
214.6136, 690.3026
215.0957, 702.9922
215.5778, 683.0344
216.0599, 691.9564
216.5421, 698.1155
217.0242, 695.5088
217.5063, 681.0596
217.9884, 676.7510
218.4705, 687.5680
218.9526, 704.4408
219.4348, 711.7684
219.9169, 706.2543
220.3990, 698.0460
220.8811, 689.6538
221.3632, 679.5394
221.8453, 675.2666
222.3274, 679.3320
222.8096, 687.7849
223.2917, 692.4883
223.7738, 690.7799
224.2559, 689.9138
224.7380, 692.9825
225.2201, 701.5980
225.7023, 710.1898
226.1844, 720.8191
226.6665, 730.7388
227.1486, 732.1929
227.6307, 718.5568
228.1128, 706.6026
228.5950, 704.7159
229.0771, 719.3065
229.5592, 728.6602
230.0413, 730.4525
230.5234, 727.0728
231.0055, 725.7440
231.4877, 727.8811
231.9698, 730.1078
232.4519, 730.5678
232.9340, 727.9099
233.4161, 726.5298
233.8982, 727.1329
234.3804, 729.1740
234.8625, 730.3696
235.3446, 730.2894
235.8267, 729.9871
236.3088, 729.9765
236.7909, 730.0715
237.2731, 731.0174
237.7552, 733.7772
238.2373, 737.5788
238.7194, 738.1620
239.2015, 732.4486
239.6836, 727.3485
240.1658, 727.8909
240.6479, 739.0720
241.1300, 745.1359
241.6121, 741.0582
242.0942, 729.4545
242.5763, 728.8679
243.0585, 746.1920
243.5406, 766.1785
244.0227, 778.5772
244.5048, 780.0996
244.9869, 780.4382
245.4690, 780.0657
245.9512, 779.1594
246.4333, 779.0344
246.9154, 779.3466
247.3975, 780.9338
247.8796, 785.2152
248.3617, 795.9796
248.8439, 801.2418
249.3260, 797.4014
249.8081, 785.7078
250.2902, 779.0209
250.7723, 778.3802
251.2544, 781.4730
251.7366, 787.1243
252.2187, 797.6001
252.7008, 805.5933
253.1829, 809.0570
253.6650, 808.4988
254.1471, 811.2403
254.6292, 820.3185
255.1114, 828.7486
255.5935, 829.6127
256.0756, 817.4419
256.5577, 810.8536
257.0398, 814.9857
257.5219, 828.5998
258.0041, 834.5424
258.4862, 828.4420
258.9683, 820.8315
259.4504, 821.7731
259.9325, 836.7718
260.4146, 845.5244
260.8968, 841.3333
261.3789, 826.0733
261.8610, 824.1899
262.3431, 842.2505
262.8252, 863.6486
263.3073, 872.6018
263.7895, 864.0655
264.2716, 857.9791
264.7537, 857.1968
265.2358, 861.6495
265.7179, 872.1019
266.2000, 892.2673
266.6822, 911.9844
267.1643, 921.4384
267.6464, 917.2108
268.1285, 914.6797
268.6106, 917.3572
269.0927, 924.4163
269.5749, 929.2272
270.0570, 931.3329
270.5391, 932.0128
271.0212, 930.8596
271.5033, 926.1285
271.9854, 928.4423
272.4676, 943.7543
272.9497, 968.5079
273.4318, 978.2236
273.9139, 968.8887
274.3960, 955.1566
274.8781, 948.7460
275.3603, 949.6933
275.8424, 958.7738
276.3245, 980.3723
276.8066, 1010.170
277.2887, 1024.459
277.7708, 1020.506
278.2530, 1010.527
278.7351, 1002.909
279.2172, 997.3748
279.6993, 999.3691
280.1814, 1013.413
280.6635, 1034.683
281.1457, 1043.922
281.6278, 1039.342
282.1099, 1032.104
282.5920, 1030.264
283.0741, 1033.823
283.5562, 1044.034
284.0384, 1064.674
284.5205, 1090.294
285.0026, 1101.929
285.4847, 1098.461
285.9668, 1091.309
286.4489, 1089.544
286.9311, 1092.645
287.4132, 1095.210
287.8953, 1096.084
288.3774, 1095.891
288.8595, 1093.886
289.3416, 1089.803
289.8238, 1091.314
290.3059, 1112.865
290.7880, 1148.415
291.2701, 1164.497
291.7522, 1148.081
292.2343, 1117.608
292.7165, 1109.010
293.1986, 1121.523
293.6807, 1137.673
294.1628, 1145.112
294.6449, 1146.059
295.1270, 1146.953
295.6092, 1148.725
296.0913, 1151.214
296.5734, 1154.004
297.0555, 1157.182
297.5376, 1161.445
298.0197, 1168.878
298.5019, 1177.601
298.9839, 1183.873
299.4661, 1187.098
299.9482, 1187.680
300.4303, 1183.583
300.9124, 1176.329
301.3945, 1172.273
301.8766, 1178.868
302.3588, 1190.251
302.8409, 1196.553
303.3230, 1194.773
303.8051, 1192.490
304.2872, 1200.533
304.7693, 1214.899
305.2515, 1224.127
305.7336, 1213.610
306.2157, 1197.986
306.6978, 1195.091
307.1799, 1209.512
307.6620, 1227.686
308.1442, 1240.728
308.6263, 1249.335
309.1084, 1255.469
309.5905, 1258.559
310.0726, 1260.378
310.5547, 1261.554
311.0369, 1261.549
311.5190, 1264.140
312.0011, 1274.652
312.4832, 1289.066
312.9653, 1300.391
313.4474, 1305.120
313.9296, 1306.453
314.4117, 1305.280
314.8938, 1301.257
315.3759, 1298.079
315.8580, 1296.680
316.3401, 1297.260
316.8223, 1300.109
317.3044, 1309.082
317.7865, 1317.067
318.2686, 1319.014
318.7507, 1314.044
319.2328, 1313.563
319.7150, 1326.343
320.1971, 1343.208
320.6792, 1355.075
321.1613, 1355.918
321.6434, 1355.223
322.1255, 1355.488
322.6077, 1356.817
323.0898, 1357.411
323.5719, 1353.790
324.0540, 1351.054
324.5361, 1353.052
325.0182, 1367.960
325.5004, 1379.191
325.9825, 1380.175
326.4646, 1372.041
326.9467, 1373.393
327.4288, 1397.501
327.9109, 1422.951
328.3931, 1436.952
328.8752, 1427.863
329.3573, 1423.045
329.8394, 1424.862
330.3215, 1432.355
330.8036, 1441.083
331.2858, 1454.052
331.7679, 1464.910
332.2500, 1469.757
332.7321, 1462.933
333.2142, 1461.332
333.6964, 1466.643
334.1785, 1477.148
334.6606, 1488.510
335.1427, 1502.920
335.6248, 1514.310
336.1069, 1517.829
336.5891, 1508.671
337.0712, 1510.260
337.5533, 1526.786
338.0354, 1550.032
338.5175, 1563.977
338.9996, 1566.847
339.4818, 1567.559
339.9639, 1569.460
340.4460, 1572.652
340.9281, 1575.583
341.4102, 1578.442
341.8923, 1580.702
342.3745, 1580.788
342.8566, 1578.517
343.3387, 1578.408
343.8208, 1585.268
344.3029, 1596.420
344.7850, 1594.599
345.2672, 1578.330
345.7493, 1558.356
346.2314, 1547.288
346.7135, 1543.529
347.1956, 1537.440
347.6777, 1526.086
348.1599, 1510.407
348.6420, 1492.701
349.1241, 1473.182
349.6062, 1450.818
350.0883, 1423.180
350.5704, 1392.265
351.0526, 1363.227
351.5347, 1338.172
352.0168, 1314.020
352.4989, 1287.073
352.9810, 1257.806
353.4631, 1226.420
353.9453, 1193.258
354.4274, 1158.391
354.9095, 1120.872
355.3916, 1078.136
355.8737, 1038.337
356.3558, 1009.284
356.8380, 988.4752
357.3201, 968.0153
357.8022, 938.9160
358.2843, 911.6476
358.7664, 898.0721
359.2485, 905.1460
359.7307, 904.2813
360.2128, 872.2241
360.6949, 824.0669
361.1770, 784.3577
361.6591, 765.4539
362.1412, 753.2954
362.6233, 743.4374
363.1054, 736.1060
363.5876, 725.7664
364.0697, 707.0018
364.5518, 686.0128
365.0339, 669.2806
365.5160, 660.6428
365.9981, 653.3952
366.4803, 646.9958
366.9624, 641.3688
367.4445, 634.0890
367.9266, 623.4183
368.4087, 612.0458
368.8908, 601.5917
369.3730, 591.5022
369.8551, 583.4199
370.3372, 577.5024
370.8193, 573.6832
371.3014, 571.8899
371.7835, 573.4155
372.2657, 575.2874
372.7478, 576.2586
373.2299, 576.8193
373.7120, 575.1238
374.1941, 570.8476
374.6762, 564.4990
375.1584, 556.5278
375.6405, 546.0101
376.1226, 536.5475
376.6047, 529.3073
377.0868, 524.4094
377.5689, 522.4816
378.0511, 524.8420
378.5332, 527.2428
379.0153, 522.0273
379.4974, 508.9569
379.9795, 499.8273
380.4616, 500.8006
380.9438, 508.8083
381.4259, 510.9431
381.9080, 506.8210
382.3901, 501.6895
382.8722, 501.4005
383.3543, 504.4949
383.8365, 505.1215
384.3186, 500.6754
384.8007, 494.3240
385.2828, 490.4502
385.7649, 488.9046
386.2470, 488.4561
386.7292, 488.5022
387.2113, 489.0461
387.6934, 490.2918
388.1755, 492.6640
388.6576, 494.7465
389.1397, 496.1241
389.6219, 496.3280
390.1040, 494.2307
390.5861, 486.1267
391.0682, 477.5997
391.5503, 472.9319
392.0324, 472.8568
392.5146, 474.2111
392.9967, 477.4671
393.4788, 480.6589
393.9609, 481.3432
394.4430, 475.8303
394.9251, 470.4868
395.4073, 467.9459
395.8894, 468.2579
396.3715, 468.1534
396.8536, 464.6849
397.3357, 461.9359
397.8178, 462.7374
398.3000, 477.2072
398.7821, 483.5154
399.2642, 475.1270
399.7463, 456.2534
400.2284, 443.9167
400.7105, 440.7532
401.1927, 441.2018
401.6748, 443.5436
402.1569, 450.1460
402.6390, 452.2339
403.1211, 447.0212
403.6032, 439.2962
404.0854, 438.0963
404.5675, 426.7191
405.0496, 449.1331
405.5317, 461.1746
406.0138, 463.4012
406.4959, 426.4155
406.9781, 440.0641
407.4602, 433.4208
407.9423, 425.9455
408.4244, 446.7208
408.9065, 415.4385
409.3886, 435.7658
409.8708, 435.4913
410.3529, 444.6458
410.8350, 433.3831
411.3171, 428.4266
411.7992, 443.8940
412.2813, 448.0524
412.7635, 434.4391
413.2456, 444.1930
413.7277, 412.1975
414.2098, 421.5198
414.6919, 428.4616
415.1740, 415.0555
415.6562, 437.1565
416.1383, 448.8852
416.6204, 450.7990
417.1025, 413.5005
417.5846, 426.8365
418.0667, 419.8804
418.5489, 412.0921
419.0310, 432.5545
419.5131, 400.9595
419.9952, 420.9739
420.4773, 420.3869
420.9594, 429.2286
421.4416, 417.6528
421.9237, 412.3835
422.4058, 427.5380
422.8879, 431.3837
423.3700, 417.4578
423.8521, 426.8989
424.3342, 394.5906
424.8163, 398.9180
425.2985, 419.0517
425.7806, 406.1524
426.2627, 415.9668
426.7448, 417.1305
427.2269, 378.9809
427.7090, 409.2012
428.1912, 409.8535
428.6733, 380.1463
429.1554, 408.0241
429.6375, 382.5023
430.1196, 376.0410
430.6017, 383.9237
431.0839, 376.8529
431.5660, 393.3579
432.0481, 378.1356
432.5302, 378.0922
433.0123, 380.3374
433.4944, 384.5670
433.9766, 388.3702
434.4587, 391.5749
434.9408, 393.8832
435.4229, 395.0936
435.9050, 395.1002
436.3871, 393.3462
436.8693, 387.4133
437.3514, 380.3033
437.8335, 376.8223
438.3156, 377.3618
438.7977, 379.2725
439.2798, 382.6930
439.7620, 385.6071
440.2441, 385.0092
440.7262, 373.2376
441.2083, 363.4790
441.6904, 366.3482
442.1725, 379.2516
442.6547, 388.7959
443.1368, 386.3873
443.6189, 380.7496
444.1010, 377.7511
444.5831, 381.6787
445.0652, 382.1500
445.5474, 373.4088
446.0295, 360.5725
446.5116, 353.0138
446.9937, 355.1906
447.4758, 358.7509
447.9579, 361.7987
448.4401, 364.1669
448.9222, 367.8810
449.4043, 375.5349
449.8864, 381.7039
450.3685, 380.8911
450.8506, 370.3565
451.3328, 361.6035
451.8149, 356.3031
452.2970, 353.7256
452.7791, 351.3979
453.2612, 349.0683
453.7433, 348.3567
454.2255, 350.8068
454.7076, 356.0535
455.1897, 361.7174
455.6718, 368.2610
456.1539, 373.0185
456.6360, 370.9617
457.1182, 363.8672
457.6003, 358.2402
458.0824, 357.0789
458.5645, 358.6137
459.0466, 361.8031
459.5287, 366.3460
460.0109, 369.0229
460.4930, 366.3152
460.9751, 361.1707
461.4572, 356.7033
461.9393, 353.5992
462.4214, 351.1866
462.9036, 348.4022
463.3857, 346.0718
463.8678, 345.8516
464.3499, 351.2577
464.8320, 356.2519
465.3141, 357.2185
465.7963, 352.6841
466.2784, 352.1657
466.7605, 363.2529
467.2426, 375.1121
467.7247, 378.6418
468.2068, 367.2606
468.6890, 357.4546
469.1711, 350.3547
469.6532, 345.9264
470.1353, 344.3594
470.6174, 346.5608
471.0995, 349.6086
471.5817, 352.5278
472.0638, 355.4963
472.5459, 356.3278
473.0280, 354.4923
473.5101, 351.9535
473.9922, 351.5590
474.4744, 353.1143
474.9565, 354.2079
475.4386, 354.2441
475.9207, 353.2196
476.4028, 349.9073
476.8849, 344.6802
477.3671, 341.3591
477.8492, 345.7183
478.3313, 352.7384
478.8134, 354.2523
479.2955, 347.1362
479.7776, 340.0920
480.2598, 341.3820
480.7419, 347.0901
481.2240, 350.3749
481.7061, 346.0233
482.1882, 340.7617
482.6703, 337.9525
483.1525, 337.7158
483.6346, 336.9748
484.1167, 334.4348
484.5988, 331.4867
485.0809, 329.0334
485.5630, 325.1607
486.0451, 324.4046
486.5273, 327.6848
487.0094, 333.9165
487.4915, 341.5276
487.9736, 353.9689
488.4557, 361.2874
488.9378, 358.7848
489.4200, 346.0619
489.9021, 337.2090
490.3842, 332.8302
490.8663, 330.4202
491.3484, 326.6542
491.8305, 321.6974
492.3127, 321.7813
492.7948, 330.0212
493.2769, 340.7104
493.7590, 343.5112
494.2411, 339.2786
494.7232, 333.5687
495.2054, 327.2980
495.6875, 322.3627
496.1696, 321.9861
496.6517, 326.5435
497.1338, 332.6112
497.6159, 340.9900
498.0981, 348.3946
498.5802, 350.8517
499.0623, 341.4140
499.5444, 332.7315
500.0265, 331.1953
500.5086, 334.8905
500.9908, 337.4581
501.4729, 337.4210
501.9550, 335.8823
502.4371, 332.6850
502.9192, 326.3116
503.4013, 322.9820
503.8835, 323.8294
504.3656, 326.8797
504.8477, 330.4802
505.3298, 335.6190
505.8119, 338.6527
506.2940, 338.4859
506.7762, 335.8693
507.2583, 333.5822
507.7404, 331.6743
508.2225, 329.8186
508.7046, 327.1139
509.1867, 324.0190
509.6689, 323.7443
510.1510, 326.7945
510.6331, 330.5441
511.1152, 332.1565
511.5973, 332.1401
512.0795, 331.8101
512.5616, 331.3785
513.0437, 331.0591
513.5258, 332.0829
514.0079, 333.7261
514.4901, 333.0775
514.9722, 324.7618
515.4542, 316.2178
515.9363, 313.3941
516.4185, 318.6769
516.9006, 322.9855
517.3827, 321.3372
517.8648, 318.4870
518.3469, 319.6605
518.8290, 333.2689
519.3112, 341.6195
519.7933, 340.0724
520.2754, 331.0115
520.7575, 326.5461
521.2396, 329.7629
521.7217, 331.8421
522.2039, 326.1635
522.6860, 310.6716
523.1681, 307.6282
523.6502, 320.5204
524.1323, 336.6910
524.6144, 339.5475
525.0966, 330.6028
525.5787, 321.9710
526.0608, 316.1652
526.5429, 313.3834
527.0250, 315.7362
527.5071, 322.1539
527.9893, 327.1007
528.4714, 326.6799
528.9535, 323.4804
529.4356, 318.6452
529.9177, 311.6568
530.3998, 309.0248
530.8820, 322.0533
531.3641, 337.8676
531.8462, 343.2604
532.3283, 322.6179
532.8104, 304.8014
533.2925, 296.0059
533.7747, 294.9371
534.2568, 296.9270
534.7389, 305.6080
535.2210, 312.7816
535.7031, 315.1278
536.1852, 311.8068
536.6674, 309.6745
537.1495, 308.6728
537.6316, 308.9880
538.1137, 311.1711
538.5958, 315.3127
539.0779, 319.8064
539.5601, 325.2177
540.0422, 329.5286
540.5243, 326.8604
541.0064, 318.4320
541.4885, 312.5477
541.9706, 317.2201
542.4528, 325.4426
542.9349, 325.9940
543.4170, 318.7144
543.8991, 312.6209
544.3812, 315.3378
544.8633, 321.5063
545.3455, 325.8341
545.8276, 326.9803
546.3097, 326.2822
546.7918, 322.2204
547.2739, 316.8528
547.7560, 314.0324
548.2382, 315.3046
548.7203, 318.1870
549.2024, 323.1490
549.6845, 330.1085
550.1666, 333.6536
550.6487, 332.2219
551.1309, 329.9105
551.6130, 329.9871
552.0951, 333.1205
552.5772, 332.1807
553.0593, 325.3016
553.5414, 317.8198
554.0236, 320.5340
554.5057, 331.5162
554.9878, 335.7475
555.4699, 322.6141
555.9520, 304.5624
556.4341, 301.5626
556.9163, 311.3361
557.3984, 321.8413
557.8805, 327.6206
558.3626, 329.5336
558.8447, 326.5963
559.3268, 317.3239
559.8090, 311.6900
560.2911, 317.6672
560.7732, 327.5639
561.2553, 333.4278
561.7374, 330.1324
562.2195, 327.2517
562.7017, 325.2960
563.1838, 324.5670
563.6659, 326.4926
564.1480, 333.9122
564.6301, 338.4398
565.1122, 335.0756
565.5944, 323.9045
566.0765, 321.7958
566.5586, 330.7194
567.0407, 340.5561
567.5228, 341.0763
568.0049, 334.2201
568.4871, 330.1646
568.9692, 331.1165
569.4513, 333.5072
569.9334, 333.2544
570.4155, 331.0529
570.8976, 328.6314
571.3798, 327.7494
571.8619, 326.1354
572.3440, 319.4076
572.8261, 308.9633
573.3082, 305.1354
573.7903, 321.3074
574.2725, 338.0710
574.7546, 342.9161
575.2367, 327.1045
575.7188, 318.9381
576.2009, 325.3028
576.6830, 335.1952
577.1652, 335.9249
577.6473, 323.0451
578.1294, 313.6277
578.6115, 310.7027
579.0936, 312.7691
579.5757, 317.5596
580.0579, 325.3301
580.5400, 330.1208
581.0221, 325.9604
581.5042, 316.8513
581.9863, 313.5522
582.4684, 316.1776
582.9506, 321.0027
583.4327, 326.9491
583.9148, 332.6245
584.3969, 336.4073
584.8790, 338.2390
585.3611, 337.5342
585.8433, 330.2975
586.3254, 321.2456
586.8075, 317.4147
587.2896, 327.9492
587.7717, 335.8052
588.2538, 335.0364
588.7360, 327.3675
589.2181, 323.2312
589.7002, 324.7876
590.1823, 326.4225
590.6644, 325.2927
591.1465, 321.0928
591.6287, 317.0788
592.1108, 312.5050
592.5929, 310.6305
593.0750, 317.8865
593.5571, 332.0198
594.0392, 340.5347
594.5214, 339.9082
595.0035, 335.1949
595.4856, 330.8559
595.9677, 327.1497
596.4498, 324.7153
596.9319, 326.6803
597.4141, 327.6941
597.8962, 322.4621
598.3783, 311.8857
598.8604, 304.8593
599.3425, 306.8947
599.8246, 311.0872
600.3068, 313.8641
600.7889, 314.4392
601.2710, 315.3358
601.7531, 316.7642
602.2352, 318.3146
602.7173, 319.9272
603.1995, 321.9973
603.6816, 321.5931
604.1637, 316.8078
604.6458, 311.1870
605.1279, 314.8054
605.6100, 326.6148
606.0922, 334.4777
606.5743, 310.1963
607.0564, 333.7357
607.5385, 346.9027
608.0206, 350.2546
608.5027, 314.3944
608.9849, 329.1685
609.4670, 323.6508
609.9491, 317.3009
610.4312, 339.2016
610.9133, 309.0447
611.3954, 330.4975
611.8776, 331.3486
612.3597, 341.6285
612.8418, 331.4912
613.3239, 327.6602
613.8060, 344.2529
614.2881, 349.5369
614.7703, 337.0492
615.2524, 347.9285
615.7345, 317.0584
616.2166, 322.8240
616.6987, 344.3963
617.1808, 332.9352
617.6630, 344.1878
618.1451, 333.2336
618.6272, 330.2228
619.1093, 321.3081
619.5914, 312.7121
620.0735, 304.5983
620.5557, 300.4225
621.0378, 306.1550
621.5199, 315.4515
622.0020, 321.3409
622.4841, 318.3732
622.9662, 316.1216
623.4484, 317.6015
623.9305, 320.8117
624.4126, 320.9524
624.8947, 315.6931
625.3768, 311.3911
625.8589, 309.7319
626.3411, 310.4837
626.8232, 312.5500
627.3053, 316.2982
627.7874, 319.0277
628.2695, 318.0692
628.7516, 314.5695
629.2338, 312.4931
629.7159, 312.1749
630.1980, 312.4742
630.6801, 313.2438
631.1622, 313.7547
631.6443, 312.7282
632.1265, 308.4162
632.6086, 305.1844
633.0907, 306.8872
633.5728, 310.7349
634.0549, 311.9036
634.5370, 305.8418
635.0192, 301.1381
635.5013, 299.8533
635.9834, 301.4022
636.4655, 302.6504
636.9476, 303.6670
637.4297, 304.1256
637.9119, 303.4623
638.3939, 301.8286
638.8760, 301.4582
639.3582, 302.3890
639.8403, 304.1084
640.3224, 306.5163
640.8045, 309.2809
641.2866, 312.2031
641.7687, 315.6970
642.2509, 317.3528
642.7330, 313.8829
643.2151, 307.8143
643.6972, 302.6758
644.1793, 298.9462
644.6614, 296.9215
645.1436, 296.3430
645.6257, 297.5573
646.1078, 301.7605
646.5899, 312.5971
647.0720, 320.3606
647.5541, 321.1568
648.0363, 315.6995
648.5184, 311.9393
649.0005, 309.9414
649.4826, 309.3364
649.9647, 310.4611
650.4468, 312.8074
650.9290, 315.2299
651.4111, 314.4594
651.8932, 318.2720
652.3753, 320.1987
652.8574, 320.3408
653.3395, 313.3535
653.8217, 315.5723
654.3038, 314.1019
654.7859, 312.4800
655.2680, 315.9947
655.7501, 310.0443
656.2322, 313.4776
656.7144, 313.1649
657.1965, 314.5667
657.6786, 312.2563
658.1607, 311.0924
658.6428, 313.6420
659.1249, 314.1355
659.6071, 311.3976
660.0892, 312.9084
660.5713, 306.8284
661.0534, 307.4094
661.5355, 310.8643
662.0176, 308.3132
662.4998, 309.8918
662.9819, 309.8976
663.4640, 302.7555
663.9461, 308.0443
664.4282, 307.9572
664.9103, 302.3501
665.3925, 307.2129
665.8746, 304.9611
666.3567, 304.1193
666.8388, 298.9605
667.3209, 292.1032
667.8030, 287.7517
668.2852, 286.3459
668.7673, 286.2499
669.2494, 287.4292
669.7315, 289.4220
670.2136, 291.2562
670.6957, 292.8941
671.1779, 293.6801
671.6600, 292.2139
672.1421, 290.2137
672.6242, 290.1337
673.1063, 291.8954
673.5884, 294.2699
674.0706, 299.6512
674.5527, 303.2225
675.0348, 300.2199
675.5169, 287.2547
675.9990, 278.8305
676.4811, 280.8429
676.9633, 285.0075
677.4454, 284.4714
677.9275, 275.6237
678.4096, 274.4383
678.8917, 284.7432
679.3738, 298.1876
679.8560, 301.1675
680.3381, 294.8250
680.8202, 288.8782
681.3023, 286.1629
681.7844, 285.0914
682.2665, 283.3592
682.7487, 281.5565
683.2308, 281.3760
683.7129, 285.7424
684.1950, 289.9633
684.6771, 291.3384
685.1592, 290.0562
685.6414, 288.6957
686.1235, 286.6022
686.6056, 285.5822
687.0877, 286.5753
687.5698, 289.7733
688.0519, 292.5861
688.5341, 295.2282
689.0162, 296.9176
689.4983, 297.0474
689.9804, 295.6861
690.4625, 292.5844
690.9446, 287.4425
691.4268, 282.8605
691.9089, 281.1700
692.3910, 281.7757
692.8731, 284.2886
693.3552, 290.8764
693.8373, 294.9865
694.3195, 290.8598
694.8016, 283.0105
695.2837, 278.9726
695.7658, 285.7202
696.2479, 288.0890
696.7300, 281.2610
697.2122, 269.4952
697.6943, 266.8545
698.1764, 275.3844
698.6585, 281.3643
699.1406, 277.3161
699.6227, 267.7397
700.1049, 265.8606
700.5870, 270.8504
701.0691, 275.5815
701.5512, 272.9925
702.0333, 269.3993
702.5154, 268.5533
702.9976, 272.6545
703.4797, 274.8699
703.9618, 275.3007
704.4439, 268.6021
704.9260, 271.1097
705.4081, 269.9279
705.8903, 268.5947
706.3724, 272.3980
706.8545, 266.7364
707.3366, 270.4583
707.8187, 270.4344
708.3008, 272.1249
708.7830, 270.1031
709.2651, 269.2279
709.7472, 272.0662
710.2293, 272.8483
710.7114, 270.3992
711.1935, 272.1987
711.6757, 266.4073
712.1578, 267.2770
712.6399, 271.0206
713.1220, 268.7582
713.6041, 270.6255
714.0862, 270.9200
714.5684, 264.0665
715.0505, 269.6441
715.5326, 269.8456
716.0147, 264.5272
716.4968, 269.6788
716.9789, 261.6956
717.4611, 265.8717
717.9432, 268.1619
718.4253, 268.6676
718.9074, 262.0438
719.3895, 264.6263
719.8716, 263.5193
720.3538, 262.2610
720.8359, 266.1392
721.3180, 260.5523
721.8001, 264.3491
722.2822, 264.4001
722.7643, 266.1654
723.2465, 264.2184
723.7286, 263.4181
724.2107, 266.3312
724.6928, 267.1882
725.1749, 264.8139
725.6570, 266.6883
726.1392, 260.9717
726.6213, 261.9163
727.1034, 265.7347
727.5855, 263.5471
728.0676, 265.4893
728.5497, 265.8586
729.0319, 259.0800
729.5140, 264.7324
729.9961, 265.0088
730.4782, 259.7652
730.9603, 264.9916
731.4424, 260.5091
731.9246, 259.4919
732.4067, 261.0829
732.8888, 259.9551
733.3709, 263.1138
733.8530, 262.1430
734.3351, 260.8032
734.8173, 261.0735
735.2994, 256.7814
735.7815, 260.9536
736.2636, 259.3440
736.7457, 262.4947
737.2278, 258.0107
737.7100, 252.1768
738.1921, 252.0611
738.6742, 257.3793
739.1563, 259.6819
739.6384, 251.3330
740.1205, 242.7297
740.6027, 240.0608
741.0848, 244.4563
741.5669, 248.4581
742.0490, 253.0554
742.5311, 255.4561
743.0132, 251.4450
743.4954, 241.7511
743.9775, 239.3368
744.4596, 245.7151
744.9417, 253.5378
745.4238, 255.9167
745.9059, 255.0459
746.3881, 254.4753
746.8702, 255.5156
747.3523, 255.2072
747.8344, 250.0072
748.3165, 243.5796
748.7986, 240.4707
749.2808, 245.5911
749.7629, 246.4191
750.2450, 239.7029
750.7271, 230.9048
751.2092, 230.1962
751.6913, 238.0157
752.1735, 242.3622
752.6556, 238.4377
753.1377, 233.2022
753.6198, 241.1467
754.1019, 256.7175
754.5840, 265.1700
755.0662, 253.2974
755.5483, 239.3145
756.0304, 232.3714
756.5125, 231.1327
756.9946, 230.9666
757.4767, 230.0390
757.9589, 231.7646
758.4410, 238.7004
758.9231, 248.9080
759.4052, 252.5012
759.8873, 248.5534
760.3694, 244.6259
760.8516, 245.3611
761.3337, 248.3654
761.8158, 247.0983
762.2979, 242.3364
762.7800, 239.3107
763.2621, 244.1559
763.7442, 249.6660
764.2263, 250.2464
764.7084, 245.4556
765.1906, 240.7568
765.6727, 235.0885
766.1548, 231.8268
766.6369, 233.7531
767.1190, 241.7325
767.6011, 244.1941
768.0833, 240.5537
768.5654, 233.9459
769.0475, 223.5612
769.5296, 212.3658
770.0117, 210.7146
770.4938, 219.9001
770.9760, 228.4866
771.4581, 225.7434
771.9402, 219.6124
772.4223, 217.9660
772.9044, 224.5107
773.3865, 228.5617
773.8687, 222.2183
774.3508, 226.3479
774.8329, 228.5916
775.3150, 229.0507
775.7971, 222.3803
776.2792, 224.9163
776.7614, 223.7627
777.2435, 222.4578
777.7256, 226.2895
778.2077, 220.6561
778.6898, 224.4063
779.1719, 224.4107
779.6541, 226.1295
780.1362, 224.1360
780.6183, 223.2891
781.1004, 226.1557
781.5825, 226.9661
782.0646, 224.5453
782.5468, 226.3730
783.0289, 220.6099
783.5110, 221.5079
783.9931, 225.2798
784.4752, 223.0457
784.9573, 224.9413
785.4395, 225.2640
785.9216, 218.4389
786.4037, 224.0447
786.8858, 224.2745
787.3679, 218.9844
787.8500, 224.1642
788.3322, 218.0784
788.8143, 217.9169
789.2964, 222.5137
789.7785, 222.6169
790.2606, 226.8267
790.7427, 229.1507
791.2249, 229.6900
791.7070, 223.0999
792.1891, 225.7161
792.6712, 224.6428
793.1533, 223.4182
793.6354, 227.3300
794.1176, 221.7769
794.5997, 225.6073
795.0818, 225.6920
795.5639, 227.4910
796.0460, 225.5778
796.5281, 224.8112
797.0103, 227.7579
797.4924, 228.6486
797.9745, 226.3080
798.4566, 228.2160
798.9387, 222.5332
799.4208, 223.5114
799.9030, 227.3635
800.3851, 225.2096
800.8672, 227.1855
801.3493, 227.5885
801.8314, 220.8436
802.3135, 226.5296
802.7957, 226.8397
803.2778, 221.6298
803.7599, 226.8899
804.2420, 222.4410
804.7241, 221.4576
805.2062, 223.0823
805.6884, 221.9881
806.1705, 225.1805
806.6526, 224.2434
807.1347, 222.9373
807.6168, 223.2413
808.0989, 215.1801
808.5811, 212.6278
809.0632, 227.0864
809.5453, 245.0796
810.0274, 248.7603
810.5095, 238.9666
810.9916, 229.1171
811.4738, 219.5661
811.9559, 215.8460
812.4380, 224.5367
812.9201, 245.9863
813.4022, 252.1499
813.8843, 238.0721
814.3665, 223.7384
814.8486, 223.1916
815.3307, 232.3938
815.8128, 232.7303
816.2949, 224.7993
816.7770, 219.0479
817.2592, 228.7037
817.7413, 239.5253
818.2234, 236.5746
818.7055, 218.2135
819.1876, 206.9482
819.6697, 213.5355
820.1519, 222.5869
820.6340, 228.8320
821.1161, 232.3186
821.5982, 228.5657
822.0803, 215.8724
822.5624, 207.4050
823.0446, 218.7718
823.5267, 239.1062
824.0088, 245.8884
824.4909, 238.5365
824.9730, 229.3902
825.4551, 222.9480
825.9373, 219.4904
826.4194, 220.3389
826.9015, 226.7682
827.3836, 229.2895
827.8657, 225.4130
828.3478, 221.6902
828.8300, 222.9257
829.3121, 228.6100
829.7942, 230.2437
830.2763, 227.7679
830.7584, 224.5844
831.2405, 222.7871
831.7227, 222.0588
832.2048, 221.9047
832.6869, 222.2745
833.1690, 224.0799
833.6511, 228.6259
834.1332, 233.8789
834.6154, 239.7641
835.0975, 246.7226
835.5796, 247.0718
836.0617, 239.2062
836.5438, 230.9865
837.0259, 228.2147
837.5081, 229.4692
837.9902, 231.1021
838.4723, 233.0114
838.9544, 235.3157
839.4365, 239.5010
839.9186, 243.0657
840.4008, 244.3673
840.8829, 243.2560
841.3650, 239.5273
841.8471, 232.0491
842.3292, 223.7338
842.8113, 214.1382
843.2935, 203.8214
843.7756, 206.3289
844.2577, 222.1426
844.7398, 236.1407
845.2219, 235.3938
845.7040, 227.9379
846.1862, 222.6610
846.6683, 220.1295
847.1504, 220.1994
847.6325, 228.2916
848.1146, 233.6770
848.5967, 229.0028
849.0789, 214.4981
849.5610, 209.9911
850.0431, 217.6715
850.5252, 226.9602
851.0073, 232.5103
851.4894, 234.8933
851.9716, 234.7823
852.4537, 232.6270
852.9358, 231.5379
853.4179, 236.3392
853.9000, 240.3368
854.3821, 236.9382
854.8643, 226.5532
855.3464, 223.6981
855.8285, 235.6051
856.3106, 243.8372
856.7927, 239.2463
857.2748, 225.4141
857.7570, 222.4801
858.2391, 229.8994
858.7212, 235.6227
859.2033, 229.0911
859.6854, 220.0113
860.1675, 219.8004
860.6497, 226.4212
861.1318, 230.6787
861.6139, 226.9717
862.0960, 223.1833
862.5781, 221.6584
863.0602, 222.0258
863.5424, 222.4864
864.0245, 222.8877
864.5066, 224.7529
864.9887, 230.4269
865.4708, 236.1455
865.9529, 233.5994
866.4351, 225.0769
866.9172, 217.8676
867.3993, 215.0753
867.8814, 214.6810
868.3635, 217.6638
868.8456, 222.3852
869.3278, 223.9059
869.8099, 221.0317
870.2920, 217.3739
870.7741, 212.2570
871.2562, 208.6218
871.7383, 216.7192
872.2205, 233.0141
872.7026, 241.3009
873.1847, 229.7069
873.6668, 213.6070
874.1489, 218.0844
874.6310, 220.6760
875.1132, 221.4831
875.5953, 215.1606
876.0774, 218.0444
876.5595, 217.2387
877.0416, 216.2818
877.5237, 220.4613
878.0059, 215.1758
878.4880, 219.2739
878.9701, 219.6262
879.4522, 221.6929
879.9343, 220.0473
880.4164, 219.5483
880.8986, 222.7628
881.3807, 223.9211
881.8628, 221.8481
882.3449, 224.0238
882.8270, 218.6086
883.3091, 219.8545
883.7913, 223.9743
884.2734, 222.0880
884.7555, 224.3315
885.2375, 225.0022
885.7197, 218.5250
886.2018, 224.4786
886.6839, 225.0563
887.1660, 220.1141
887.6481, 225.6418
888.1302, 221.4606
888.6124, 220.7449
889.0945, 218.9575
889.5766, 223.1370
890.0587, 225.4306
890.5408, 225.9397
891.0229, 219.3192
891.5051, 221.9050
891.9872, 220.8015
892.4693, 219.5465
892.9514, 223.4281
893.4335, 217.8447
893.9156, 221.6448
894.3978, 221.6991
894.8799, 223.4678
895.3620, 221.5243
895.8441, 220.7274
896.3262, 223.6439
896.8083, 224.5042
897.2905, 222.1333
897.7726, 224.0110
898.2547, 218.2979
898.7368, 219.2458
899.2189, 223.0676
899.7010, 219.8999
900.1832, 220.5632
900.6653, 222.9495
901.1474, 226.5081
901.6295, 228.6187
902.1116, 227.5309
902.5938, 227.8760
903.0759, 231.7619
903.5580, 236.9397
904.0401, 236.0983
904.5222, 230.1442
905.0043, 226.3953
905.4865, 229.7010
905.9686, 232.8743
906.4507, 226.2764
906.9328, 215.7937
907.4149, 211.6742
907.8970, 224.7719
908.3792, 232.9498
908.8613, 232.8597
909.3434, 228.5204
909.8255, 224.8298
910.3076, 221.8256
910.7897, 220.5671
911.2719, 221.6021
911.7540, 222.5990
912.2361, 220.7108
912.7182, 217.5849
913.2003, 215.0915
913.6824, 213.3400
914.1646, 213.0433
914.6467, 214.4609
915.1288, 217.1276
915.6109, 220.9782
916.0930, 226.0960
916.5751, 232.1105
917.0573, 239.3320
917.5394, 243.0098
918.0215, 235.4926
918.5036, 224.3537
918.9857, 218.7514
919.4678, 219.3499
919.9500, 220.3549
920.4321, 219.8542
920.9142, 219.6326
921.3963, 220.7290
921.8784, 222.8523
922.3605, 222.4757
922.8427, 219.3928
923.3248, 218.7334
923.8069, 225.9929
924.2890, 235.1506
924.7711, 238.3243
925.2532, 236.8261
925.7354, 234.6369
926.2175, 235.2765
926.6996, 232.6391
927.1817, 222.8795
927.6638, 210.1422
928.1459, 202.6275
928.6281, 200.4742
929.1102, 201.8149
929.5923, 206.9187
930.0744, 213.5195
930.5565, 220.5593
931.0386, 226.6432
931.5208, 229.1530
932.0029, 224.4467
932.4850, 221.6964
932.9671, 226.3862
933.4492, 231.2823
933.9313, 228.7553
934.4135, 217.4414
934.8956, 212.5308
935.3777, 215.3992
935.8598, 220.7205
936.3419, 224.8606
936.8240, 227.6603
937.3062, 228.0575
937.7883, 225.7783
938.2704, 225.0947
938.7525, 230.8036
939.2346, 234.9543
939.7167, 233.1354
940.1989, 225.9051
940.6810, 221.9130
941.1631, 221.1940
941.6452, 222.3806
942.1273, 226.2196
942.6094, 230.4369
943.0916, 231.3100
943.5737, 230.0164
944.0558, 230.5293
944.5379, 237.3042
945.0200, 242.2180
945.5021, 243.1225
945.9843, 241.2232
946.4664, 238.9311
946.9485, 236.2385
947.4306, 233.4257
947.9127, 230.4596
948.3948, 227.6903
948.8770, 224.6008
949.3591, 222.2820
949.8412, 222.7496
950.3233, 229.4547
950.8054, 232.6926
951.2875, 228.6012
951.7697, 223.6506
952.2518, 224.3902
952.7339, 230.8191
953.2160, 231.8400
953.6981, 226.7614
954.1802, 220.4226
954.6624, 214.9174
955.1445, 211.3415
955.6266, 210.7599
956.1087, 213.2591
956.5908, 218.5311
957.0729, 229.9611
957.5551, 239.4160
958.0372, 245.0869
958.5193, 246.4685
959.0014, 237.5646
959.4835, 219.9028
959.9656, 208.9496
960.4478, 216.9720
960.9299, 229.3831
961.4120, 235.0699
961.8941, 236.0237
962.3762, 236.4276
962.8583, 237.9317
963.3405, 236.9653
963.8226, 231.9341
964.3047, 226.2056
964.7868, 225.9948
965.2689, 229.6828
965.7510, 228.6739
966.2332, 220.3987
966.7153, 215.0101
967.1974, 224.6270
967.6795, 237.5778
968.1616, 243.1915
968.6437, 238.9906
969.1259, 233.8350
969.6080, 226.5496
970.0901, 221.3208
970.5722, 222.2216
971.0543, 227.0382
971.5364, 228.1579
972.0186, 226.2885
972.5007, 225.4254
972.9828, 231.3074
973.4649, 235.0921
973.9470, 230.1456
974.4291, 219.5055
974.9113, 213.1491
975.3934, 211.8484
975.8755, 211.5239
976.3576, 211.1328
976.8397, 211.5313
977.3218, 215.0995
977.8040, 220.2308
978.2861, 223.5779
978.7682, 223.5538
979.2503, 223.3046
979.7324, 223.0742
980.2145, 223.7298
980.6967, 226.7217
981.1788, 232.9553
981.6609, 233.5105
982.1430, 227.7002
982.6251, 223.1368
983.1072, 229.6496
983.5894, 238.8102
984.0715, 239.5941
984.5536, 232.2659
985.0357, 225.2049
985.5178, 218.1650
985.9999, 215.2217
986.4821, 218.8288
986.9642, 226.7179
987.4463, 231.6131
987.9284, 233.7775
988.4105, 235.9739
988.8926, 240.5732
989.3748, 242.8327
989.8569, 234.2575
990.3390, 222.2946
990.8211, 217.6031
991.3032, 229.9004
991.7853, 235.6119
992.2675, 232.4473
992.7496, 227.1214
993.2317, 226.5357
993.7138, 229.3296
994.1959, 230.5731
994.6780, 229.9823
995.1602, 229.8429
995.6423, 234.2256
996.1244, 237.1559
996.6065, 232.3419
997.0886, 221.3950
997.5707, 218.8398
998.0529, 226.9762
998.5350, 233.1465
999.0171, 231.8142
999.4992, 227.2108
999.9813, 226.2894
1000.463, 227.7658
1000.946, 228.8753
1001.428, 228.6967
1001.910, 227.8902
1002.392, 226.1450
1002.874, 224.2171
1003.356, 222.1045
1003.838, 219.6072
1004.320, 223.5421
1004.802, 235.1282
1005.285, 243.1245
1005.767, 232.5022
1006.249, 216.8958
1006.731, 210.0240
1007.213, 212.9275
1007.695, 217.3073
1008.177, 222.7821
1008.659, 228.7702
1009.141, 237.1764
1009.624, 244.4778
1010.106, 235.9534
1010.588, 215.8675
1011.070, 201.7563
1011.552, 203.6221
1012.034, 208.6825
1012.516, 208.9063
1012.998, 208.4566
1013.481, 213.4653
1013.963, 227.0336
1014.445, 236.3177
1014.927, 241.1534
1015.409, 240.7518
1015.891, 229.0831
1016.373, 213.9514
1016.855, 211.2677
1017.337, 221.3544
1017.820, 226.4229
1018.302, 211.6648
1018.784, 199.9799
1019.266, 200.5859
1019.748, 210.1610
1020.230, 216.5632
1020.712, 219.8681
1021.194, 220.9599
1021.677, 218.7127
1022.159, 217.2395
1022.641, 222.5738
1023.123, 230.2745
1023.605, 233.8549
1024.087, 227.7801
1024.569, 226.8395
1025.051, 230.0006
1025.533, 234.1718
1026.016, 236.4568
1026.498, 236.9574
1026.980, 230.3287
1027.462, 232.9061
1027.944, 231.7942
1028.426, 230.5309
1028.908, 234.4041
1029.390, 228.8123
1029.873, 232.6037
1030.355, 232.6497
1030.837, 234.4100
1031.319, 232.4582
1031.801, 231.6528
1032.283, 234.5610
1032.765, 235.4129
1033.247, 233.0337
1033.729, 234.9030
1034.212, 229.1812
1034.694, 230.1207
1035.176, 233.9342
1035.658, 231.7416
1036.140, 233.6788
1036.622, 234.0432
1037.104, 227.2596
1037.586, 232.9069
1038.068, 233.1783
1038.551, 227.9294
1039.033, 233.1509
1039.515, 228.6633
1039.997, 227.6412
1040.479, 229.2272
1040.961, 228.0944
1041.443, 231.2480
1041.925, 230.9227
1042.408, 233.6624
1042.890, 233.7284
1043.372, 232.7319
1043.854, 233.3002
1044.336, 236.4239
1044.818, 238.0627
1045.300, 237.5047
1045.782, 235.2563
1046.265, 230.3600
1046.747, 223.9867
1047.229, 223.4331
1047.711, 227.6035
1048.193, 230.3052
1048.675, 224.8004
1049.157, 220.5857
1049.639, 226.0816
1050.121, 235.2255
1050.604, 236.6100
1051.086, 226.7499
1051.568, 223.6344
1052.050, 229.8679
1052.532, 237.0544
1053.014, 235.5188
1053.496, 230.1000
1053.978, 227.9559
1054.460, 229.6942
1054.943, 229.7631
1055.425, 224.1068
1055.907, 220.2149
1056.389, 220.5099
1056.871, 224.0104
1057.353, 229.2654
1057.835, 235.5445
1058.317, 238.9699
1058.800, 237.3817
1059.282, 234.6734
1059.764, 231.7833
1060.246, 229.8961
1060.728, 230.6814
1061.210, 235.3136
1061.692, 236.3968
1062.174, 233.4135
1062.656, 230.6510
1063.139, 232.2783
1063.621, 235.3111
1064.103, 235.3906
1064.585, 233.3243
1065.067, 232.8059
1065.549, 236.5667
1066.031, 239.4352
1066.513, 240.4866
1066.995, 240.5653
1067.478, 241.6631
1067.960, 243.0102
1068.442, 241.3992
1068.924, 235.9679
1069.406, 230.2519
1069.888, 223.9827
1070.370, 220.3797
1070.852, 222.3949
1071.334, 229.4652
1071.817, 234.0655
1072.299, 236.0661
1072.781, 237.5189
1073.263, 239.0557
1073.745, 240.8258
1074.227, 245.4649
1074.709, 249.7094
1075.191, 247.6956
1075.674, 229.5010
1076.156, 221.4577
1076.638, 226.7964
1077.120, 235.2005
1077.602, 237.6881
1078.084, 235.9094
1078.566, 232.3850
1079.048, 227.7666
1079.531, 225.8059
1080.013, 231.5168
1080.495, 236.2369
1080.977, 236.5827
1081.459, 234.5323
1081.941, 234.6039
1082.423, 236.6145
1082.905, 237.6713
1083.387, 236.6698
1083.870, 237.1067
1084.352, 245.9302
1084.834, 254.6040
1085.316, 253.9028
1085.798, 242.6662
1086.280, 234.8029
1086.762, 230.5516
1087.244, 228.5280
1087.726, 228.7917
1088.209, 230.0874
1088.691, 232.1473
1089.173, 233.4763
1089.655, 230.9646
1090.137, 215.2812
1090.619, 208.8887
1091.101, 217.2567
1091.583, 228.3725
1092.066, 229.6506
1092.548, 224.0264
1093.030, 222.8691
1093.512, 226.2392
1093.994, 229.1910
1094.476, 228.0473
1094.958, 226.9610
1095.440, 228.7218
1095.922, 231.4635
1096.405, 229.7152
1096.887, 223.5326
1097.369, 221.9723
1097.851, 227.8679
1098.333, 233.4739
1098.815, 227.3984
1099.297, 220.3473
1099.779, 224.7264
1100.261, 243.2751
1100.744, 251.3575
1101.226, 246.7053
1101.708, 240.9419
1102.190, 238.7636
1102.672, 239.1437
1103.154, 240.7705
1103.636, 243.6299
1104.118, 247.9296
1104.601, 257.9868
1105.083, 261.6165
1105.565, 256.1349
1106.047, 247.4606
1106.529, 238.6362
1107.011, 230.9049
1107.493, 231.5811
1107.975, 239.2010
1108.458, 243.0668
1108.940, 231.1532
1109.422, 221.6691
1109.904, 222.6708
1110.386, 229.7659
1110.868, 237.3197
1111.350, 245.1838
1111.832, 248.4307
1112.314, 246.0276
1112.797, 242.6214
1113.279, 243.1407
1113.761, 243.4537
1114.243, 238.6054
1114.725, 229.2216
1115.207, 226.3184
1115.689, 231.2644
1116.171, 234.7806
1116.653, 232.5563
1117.136, 230.0805
1117.618, 237.6129
1118.100, 248.3892
1118.582, 252.2383
1119.064, 244.1082
1119.546, 236.5838
1120.028, 229.4724
1120.510, 224.4359
1120.993, 223.1571
1121.475, 224.4245
1121.957, 225.7373
1122.439, 227.0487
1122.921, 228.2097
1123.403, 229.6301
1123.885, 230.1246
1124.367, 228.5852
1124.849, 227.1830
1125.332, 229.2595
1125.814, 233.8543
1126.296, 234.3976
1126.778, 230.7583
1127.260, 227.7592
1127.742, 229.5194
1128.224, 231.5054
1128.706, 231.3552
1129.188, 229.7286
1129.671, 227.0282
1130.153, 223.2288
1130.635, 223.9160
1131.117, 230.5899
1131.599, 239.4310
1132.081, 251.1228
1132.563, 260.3823
1133.045, 261.9705
1133.528, 255.5885
1134.010, 245.2870
1134.492, 229.6931
1134.974, 218.2280
1135.456, 215.6300
1135.938, 216.9688
1136.420, 215.6250
1136.902, 214.0796
1137.385, 216.4295
1137.867, 226.8117
1138.349, 232.2283
1138.831, 230.7711
1139.313, 229.1843
1139.795, 232.8052
1140.277, 238.7549
1140.759, 241.7161
1141.241, 241.9246
1141.724, 240.1418
1142.206, 232.3344
1142.688, 229.2854
1143.170, 234.7521
1143.652, 241.1499
1144.134, 239.8391
1144.616, 232.7465
1145.098, 225.4843
1145.580, 218.7460
1146.063, 215.1421
1146.545, 219.3964
1147.027, 223.0348
1147.509, 222.0777
1147.991, 219.7450
1148.473, 221.8820
1148.955, 228.2377
1149.437, 239.1217
1149.920, 255.5872
1150.402, 264.8363
1150.884, 250.8461
1151.366, 234.1694
1151.848, 229.0180
1152.330, 232.6632
1152.812, 231.1737
1153.294, 224.6004
1153.776, 221.1528
1154.259, 224.3867
1154.741, 228.4225
1155.223, 226.7815
1155.705, 224.2652
1156.187, 226.7401
1156.669, 234.8132
1157.151, 239.8914
1157.633, 241.9075
1158.115, 240.9788
1158.598, 234.8252
1159.080, 228.7820
1159.562, 230.0130
1160.044, 234.8969
1160.526, 237.6794
1161.008, 237.9939
1161.490, 234.3485
1161.972, 225.4283
1162.455, 218.2959
1162.937, 219.1818
1163.419, 224.5916
1163.901, 232.1321
1164.383, 239.9590
1164.865, 242.1393
1165.347, 230.7244
1165.829, 227.0058
1166.312, 235.0808
1166.794, 244.9579
1167.276, 244.8380
1167.758, 239.2236
1168.240, 237.0036
1168.722, 238.1725
1169.204, 236.9956
1169.686, 229.3816
1170.168, 222.3101
1170.651, 215.8907
1171.133, 212.4947
1171.615, 219.0829
1172.097, 230.9898
1172.579, 235.1263
1173.061, 228.9650
1173.543, 227.5148
1174.025, 246.3685
1174.507, 258.0913
1174.990, 250.3292
1175.472, 232.4944
1175.954, 229.8383
1176.436, 238.2050
1176.918, 244.3065
1177.400, 244.2771
1177.882, 243.2291
1178.364, 242.9478
1178.847, 242.6798
1179.329, 242.4947
1179.811, 241.9379
1180.293, 236.6832
1180.775, 228.3402
1181.257, 225.4259
1181.739, 235.5793
1182.221, 243.4833
1182.703, 238.2303
1183.186, 230.7635
1183.668, 230.1796
1184.150, 236.1060
1184.632, 239.1962
1185.114, 239.7134
1185.596, 239.9591
1186.078, 240.1847
1186.560, 241.6459
1187.042, 246.3207
1187.525, 251.7244
1188.007, 255.3660
1188.489, 257.2920
1188.971, 255.5080
1189.453, 250.0977
1189.935, 245.8652
1190.417, 248.3842
1190.899, 250.7451
1191.382, 246.4052
1191.864, 240.0067
1192.346, 242.5324
1192.828, 255.0889
1193.310, 252.1000
1193.792, 230.3606
1194.274, 211.1610
1194.756, 213.3081
1195.238, 222.3579
1195.721, 229.7932
1196.203, 235.3573
1196.685, 239.5565
1197.167, 242.3818
1197.649, 243.7312
1198.131, 243.1989
1198.613, 243.8103
1199.095, 252.3522
1199.578, 259.8974
1200.060, 256.6244
1200.542, 244.4038
1201.024, 237.6176
1201.506, 236.6437
1201.988, 238.0233
1202.470, 241.8648
1202.952, 243.9827
1203.434, 236.0651
1203.917, 227.4300
1204.399, 229.4824
1204.881, 242.2848
1205.363, 248.4756
1205.845, 247.5365
1206.327, 246.9817
1206.809, 251.0957
1207.291, 253.2711
1207.773, 242.1619
1208.256, 228.0361
1208.738, 224.8289
1209.220, 234.4047
1209.702, 236.7822
1210.184, 231.0682
1210.666, 228.2490
1211.148, 236.5142
1211.630, 245.9434
1212.113, 245.6246
1212.595, 240.7067
1213.077, 238.9024
1213.559, 241.8179
1214.041, 241.8041
1214.523, 238.6287
1215.005, 234.9594
1215.487, 229.3819
1215.969, 227.0499
1216.452, 237.9026
1216.934, 253.5638
1217.416, 258.7687
1217.898, 250.1366
1218.380, 242.0757
1218.862, 234.6293
1219.344, 230.5002
1219.826, 234.7638
1220.308, 240.4540
1220.791, 241.7782
1221.273, 239.5977
1221.755, 235.7842
1222.237, 229.2376
1222.719, 227.6546
1223.201, 231.9290
1223.683, 236.7516
1224.165, 236.5727
1224.648, 236.1922
1225.130, 242.5918
1225.612, 251.8499
1226.094, 250.6205
1226.576, 235.8412
1227.058, 229.7913
1227.540, 235.6507
1228.022, 241.7968
1228.505, 233.9328
1228.987, 225.7684
1229.469, 232.4235
1229.951, 248.5907
1230.433, 251.9168
1230.915, 240.6675
1231.397, 234.6984
1231.879, 237.5116
1232.361, 242.7785
1232.844, 247.6976
1233.326, 250.4714
1233.808, 247.5453
1234.290, 241.0966
1234.772, 240.1009
1235.254, 244.7834
1235.736, 248.7953
1236.218, 250.9596
1236.700, 251.1362
1237.183, 247.4872
1237.665, 243.2487
1238.147, 241.7278
1238.629, 241.8058
1239.111, 237.0219
1239.593, 227.6057
1240.075, 223.4387
1240.557, 227.5393
1241.040, 234.5408
1241.522, 245.9023
1242.004, 253.2580
1242.486, 248.2872
1242.968, 234.4760
1243.450, 229.3899
1243.932, 232.4896
1244.414, 239.1419
1244.896, 249.6820
1245.379, 256.6922
1245.861, 249.3418
1246.343, 242.7815
1246.825, 249.1231
1247.307, 264.6311
1247.789, 266.8083
1248.271, 258.1917
1248.753, 255.1909
1249.235, 266.6777
1249.718, 274.3194
1250.200, 263.1163
1250.682, 251.0881
1251.164, 250.9332
1251.646, 258.5945
1252.128, 249.8746
1252.610, 230.2545
1253.092, 221.6980
1253.575, 238.1553
1254.057, 252.7090
1254.539, 253.3527
1255.021, 252.9324
1255.503, 260.0019
1255.985, 271.2934
1256.467, 274.1717
1256.949, 271.0414
1257.432, 269.3849
1257.914, 274.2790
1258.396, 275.5844
1258.878, 269.4170
1259.360, 263.3447
1259.842, 264.1949
1260.324, 267.9847
1260.806, 260.3789
1261.288, 246.9148
1261.771, 242.6115
1262.253, 263.4250
1262.735, 272.2992
1263.217, 262.8296
1263.699, 252.2474
1264.181, 255.7657
1264.663, 264.5027
1265.145, 259.9576
1265.627, 247.3595
1266.110, 238.6012
1266.592, 236.6426
1267.074, 240.5194
1267.556, 252.7348
1268.038, 261.0374
1268.520, 251.5788
1269.002, 236.8730
1269.484, 231.2749
1269.967, 233.6456
1270.449, 243.2464
1270.931, 265.5892
1271.413, 273.8195
1271.895, 266.0918
1272.377, 255.0710
1272.859, 245.9057
1273.341, 241.4272
1273.823, 248.7847
1274.306, 260.9631
1274.788, 263.7124
1275.270, 254.3847
1275.752, 252.9786
1276.234, 260.1687
1276.716, 265.3788
1277.198, 255.9088
1277.680, 247.9417
1278.162, 257.0763
1278.645, 270.9873
1279.127, 270.6284
1279.609, 256.1314
1280.091, 248.9597
1280.573, 249.6547
1281.055, 254.5408
1281.537, 267.7329
1282.019, 276.7206
1282.502, 273.7320
1282.984, 266.3861
1283.466, 262.0016
1283.948, 260.3913
1284.430, 261.2465
1284.912, 264.2704
1285.394, 267.7795
1285.876, 273.8187
1286.359, 275.8742
1286.841, 271.3008
1287.323, 265.1336
1287.805, 262.5599
1288.287, 262.7265
1288.769, 262.9600
1289.251, 263.7686
1289.733, 268.0394
1290.215, 284.0205
1290.698, 291.0147
1291.180, 285.7891
1291.662, 275.6488
1292.144, 265.0645
1292.626, 256.1400
1293.108, 252.0070
1293.590, 252.2759
1294.072, 255.9509
1294.554, 265.4697
1295.037, 268.6862
1295.519, 263.9005
1296.001, 257.2450
1296.483, 248.9246
1296.965, 245.8762
1297.447, 262.5167
1297.929, 287.5459
1298.411, 290.3018
1298.894, 267.0692
1299.376, 253.6180
1299.858, 252.2652
1300.340, 263.0506
##END=



