##NAMES=Kenoplumbomicrolite
##RRUFFID=R130729
##IDEAL CHEMISTRY=(Pb^2+^,[box])_2_Ta^5+^_2_O_6_[[box],(OH),O]
##LOCALITY=Ploskaya Mountains, Keivy Massif, Kola, Russian Federation
##OWNER=RRUFF
##SOURCE=Donald Doell
##DESCRIPTION=Massive brown crystals with uneven fracture.
##STATUS=The identification of this mineral is confirmed by single-crystal X-ray diffraction and chemical analysis.
##URL=rruff.info/R130729
##MEASURED CHEMISTRY=(Pb_1.36_Ca_0.36_Na_0.05_)_Σ1.77_(Ta_0.97_Nb_0.69_Fe_0.19_Sn_0.08_Ti_0.07_)_Σ2_O_6.48_
8.806445e+001, 2.325333e+003
8.854657e+001, 2.250641e+003
8.902869e+001, 2.224796e+003
8.951080e+001, 2.271032e+003
8.999292e+001, 2.355548e+003
9.047504e+001, 2.447390e+003
9.095715e+001, 2.540306e+003
9.143927e+001, 2.633719e+003
9.192139e+001, 2.727550e+003
9.240350e+001, 2.821304e+003
9.288562e+001, 2.915859e+003
9.336774e+001, 2.992974e+003
9.384985e+001, 3.032002e+003
9.433197e+001, 3.028580e+003
9.481409e+001, 3.024387e+003
9.529620e+001, 3.007937e+003
9.577832e+001, 2.989200e+003
9.626044e+001, 2.970284e+003
9.674255e+001, 2.950445e+003
9.722467e+001, 2.926836e+003
9.770679e+001, 2.896190e+003
9.818890e+001, 2.869798e+003
9.867102e+001, 2.848236e+003
9.915314e+001, 2.830746e+003
9.963525e+001, 2.816675e+003
1.001174e+002, 2.805583e+003
1.005995e+002, 2.797225e+003
1.010816e+002, 2.791271e+003
1.015637e+002, 2.788181e+003
1.020458e+002, 2.786767e+003
1.025280e+002, 2.785604e+003
1.030101e+002, 2.785288e+003
1.034922e+002, 2.787158e+003
1.039743e+002, 2.792237e+003
1.044564e+002, 2.800454e+003
1.049385e+002, 2.808936e+003
1.054207e+002, 2.816523e+003
1.059028e+002, 2.824943e+003
1.063849e+002, 2.835891e+003
1.068670e+002, 2.849064e+003
1.073491e+002, 2.861654e+003
1.078312e+002, 2.869986e+003
1.083134e+002, 2.874386e+003
1.087955e+002, 2.881535e+003
1.092776e+002, 2.893384e+003
1.097597e+002, 2.908085e+003
1.102418e+002, 2.923068e+003
1.107239e+002, 2.937926e+003
1.112061e+002, 2.953239e+003
1.116882e+002, 2.969296e+003
1.121703e+002, 2.986144e+003
1.126524e+002, 3.003664e+003
1.131345e+002, 3.022603e+003
1.136166e+002, 3.042836e+003
1.140988e+002, 3.061490e+003
1.145809e+002, 3.076759e+003
1.150630e+002, 3.091440e+003
1.155451e+002, 3.106708e+003
1.160272e+002, 3.122730e+003
1.165093e+002, 3.139023e+003
1.169915e+002, 3.154843e+003
1.174736e+002, 3.169409e+003
1.179557e+002, 3.185412e+003
1.184378e+002, 3.205810e+003
1.189199e+002, 3.225622e+003
1.194020e+002, 3.240989e+003
1.198842e+002, 3.250709e+003
1.203663e+002, 3.256708e+003
1.208484e+002, 3.263486e+003
1.213305e+002, 3.274536e+003
1.218126e+002, 3.282067e+003
1.222947e+002, 3.285305e+003
1.227769e+002, 3.285009e+003
1.232590e+002, 3.281902e+003
1.237411e+002, 3.276189e+003
1.242232e+002, 3.268195e+003
1.247053e+002, 3.259081e+003
1.251874e+002, 3.249376e+003
1.256696e+002, 3.238451e+003
1.261517e+002, 3.225529e+003
1.266338e+002, 3.210998e+003
1.271159e+002, 3.196172e+003
1.275980e+002, 3.182336e+003
1.280801e+002, 3.168690e+003
1.285623e+002, 3.152979e+003
1.290444e+002, 3.135015e+003
1.295265e+002, 3.115065e+003
1.300086e+002, 3.093575e+003
1.304907e+002, 3.070865e+003
1.309728e+002, 3.045215e+003
1.314550e+002, 3.015200e+003
1.319371e+002, 2.981622e+003
1.324192e+002, 2.944933e+003
1.329013e+002, 2.904761e+003
1.333834e+002, 2.861681e+003
1.338655e+002, 2.817307e+003
1.343477e+002, 2.771491e+003
1.348298e+002, 2.724332e+003
1.353119e+002, 2.675384e+003
1.357940e+002, 2.625594e+003
1.362761e+002, 2.576616e+003
1.367582e+002, 2.528815e+003
1.372404e+002, 2.482341e+003
1.377225e+002, 2.441477e+003
1.382046e+002, 2.410677e+003
1.386867e+002, 2.382233e+003
1.391688e+002, 2.353542e+003
1.396509e+002, 2.324968e+003
1.401331e+002, 2.298513e+003
1.406152e+002, 2.276039e+003
1.410973e+002, 2.258520e+003
1.415794e+002, 2.242651e+003
1.420615e+002, 2.227491e+003
1.425436e+002, 2.214208e+003
1.430258e+002, 2.204109e+003
1.435079e+002, 2.197191e+003
1.439900e+002, 2.191572e+003
1.444721e+002, 2.184747e+003
1.449542e+002, 2.176044e+003
1.454363e+002, 2.167708e+003
1.459185e+002, 2.158949e+003
1.464006e+002, 2.150855e+003
1.468827e+002, 2.145009e+003
1.473648e+002, 2.142077e+003
1.478469e+002, 2.140464e+003
1.483290e+002, 2.137478e+003
1.488112e+002, 2.133011e+003
1.492933e+002, 2.128716e+003
1.497754e+002, 2.125446e+003
1.502575e+002, 2.122843e+003
1.507396e+002, 2.119886e+003
1.512217e+002, 2.116485e+003
1.517039e+002, 2.112277e+003
1.521860e+002, 2.106676e+003
1.526681e+002, 2.099416e+003
1.531502e+002, 2.092714e+003
1.536323e+002, 2.088631e+003
1.541144e+002, 2.087286e+003
1.545966e+002, 2.085772e+003
1.550787e+002, 2.083965e+003
1.555608e+002, 2.081221e+003
1.560429e+002, 2.076496e+003
1.565250e+002, 2.069489e+003
1.570071e+002, 2.062156e+003
1.574893e+002, 2.057508e+003
1.579714e+002, 2.056824e+003
1.584535e+002, 2.055402e+003
1.589356e+002, 2.052204e+003
1.594177e+002, 2.048151e+003
1.598998e+002, 2.043898e+003
1.603820e+002, 2.039707e+003
1.608641e+002, 2.035411e+003
1.613462e+002, 2.030525e+003
1.618283e+002, 2.023604e+003
1.623104e+002, 2.018232e+003
1.627925e+002, 2.016013e+003
1.632747e+002, 2.014940e+003
1.637568e+002, 2.012743e+003
1.642389e+002, 2.008285e+003
1.647210e+002, 2.002186e+003
1.652031e+002, 1.997032e+003
1.656852e+002, 1.994334e+003
1.661674e+002, 1.990888e+003
1.666495e+002, 1.985647e+003
1.671316e+002, 1.979352e+003
1.676137e+002, 1.973290e+003
1.680958e+002, 1.968137e+003
1.685779e+002, 1.963851e+003
1.690601e+002, 1.960031e+003
1.695422e+002, 1.956949e+003
1.700243e+002, 1.953952e+003
1.705064e+002, 1.950758e+003
1.709885e+002, 1.947409e+003
1.714706e+002, 1.944033e+003
1.719528e+002, 1.940563e+003
1.724349e+002, 1.937191e+003
1.729170e+002, 1.934488e+003
1.733991e+002, 1.932968e+003
1.738812e+002, 1.931676e+003
1.743633e+002, 1.930039e+003
1.748455e+002, 1.928054e+003
1.753276e+002, 1.925467e+003
1.758097e+002, 1.921219e+003
1.762918e+002, 1.916435e+003
1.767739e+002, 1.913215e+003
1.772560e+002, 1.912878e+003
1.777382e+002, 1.913695e+003
1.782203e+002, 1.913215e+003
1.787024e+002, 1.911113e+003
1.791845e+002, 1.908811e+003
1.796666e+002, 1.907134e+003
1.801487e+002, 1.905721e+003
1.806309e+002, 1.904098e+003
1.811130e+002, 1.901967e+003
1.815951e+002, 1.899549e+003
1.820772e+002, 1.897380e+003
1.825593e+002, 1.895388e+003
1.830414e+002, 1.893834e+003
1.835236e+002, 1.892435e+003
1.840057e+002, 1.891496e+003
1.844878e+002, 1.891605e+003
1.849699e+002, 1.893394e+003
1.854520e+002, 1.896441e+003
1.859341e+002, 1.898063e+003
1.864163e+002, 1.897609e+003
1.868984e+002, 1.896214e+003
1.873805e+002, 1.893471e+003
1.878626e+002, 1.890047e+003
1.883447e+002, 1.886967e+003
1.888268e+002, 1.884941e+003
1.893090e+002, 1.883955e+003
1.897911e+002, 1.883161e+003
1.902732e+002, 1.882912e+003
1.907553e+002, 1.882516e+003
1.912374e+002, 1.881601e+003
1.917195e+002, 1.880378e+003
1.922017e+002, 1.879381e+003
1.926838e+002, 1.879094e+003
1.931659e+002, 1.879577e+003
1.936480e+002, 1.879167e+003
1.941301e+002, 1.876944e+003
1.946122e+002, 1.874921e+003
1.950944e+002, 1.874397e+003
1.955765e+002, 1.874992e+003
1.960586e+002, 1.875092e+003
1.965407e+002, 1.873159e+003
1.970228e+002, 1.869098e+003
1.975049e+002, 1.866781e+003
1.979871e+002, 1.867362e+003
1.984692e+002, 1.868504e+003
1.989513e+002, 1.868716e+003
1.994334e+002, 1.867993e+003
1.999155e+002, 1.867317e+003
2.003976e+002, 1.867526e+003
2.008798e+002, 1.868583e+003
2.013619e+002, 1.869436e+003
2.018440e+002, 1.869892e+003
2.023261e+002, 1.870235e+003
2.028082e+002, 1.871029e+003
2.032903e+002, 1.872351e+003
2.037725e+002, 1.872949e+003
2.042546e+002, 1.871187e+003
2.047367e+002, 1.867866e+003
2.052188e+002, 1.865271e+003
2.057009e+002, 1.863887e+003
2.061830e+002, 1.863430e+003
2.066652e+002, 1.863859e+003
2.071473e+002, 1.865487e+003
2.076294e+002, 1.866785e+003
2.081115e+002, 1.866114e+003
2.085936e+002, 1.864482e+003
2.090757e+002, 1.863435e+003
2.095579e+002, 1.863799e+003
2.100400e+002, 1.864987e+003
2.105221e+002, 1.865819e+003
2.110042e+002, 1.866158e+003
2.114863e+002, 1.866424e+003
2.119685e+002, 1.866773e+003
2.124506e+002, 1.867192e+003
2.129327e+002, 1.867661e+003
2.134148e+002, 1.868124e+003
2.138969e+002, 1.868650e+003
2.143790e+002, 1.869444e+003
2.148612e+002, 1.870557e+003
2.153433e+002, 1.871901e+003
2.158254e+002, 1.873320e+003
2.163075e+002, 1.874923e+003
2.167896e+002, 1.876929e+003
2.172717e+002, 1.879540e+003
2.177539e+002, 1.882579e+003
2.182360e+002, 1.885219e+003
2.187181e+002, 1.887444e+003
2.192002e+002, 1.889211e+003
2.196823e+002, 1.890084e+003
2.201644e+002, 1.890618e+003
2.206466e+002, 1.891546e+003
2.211287e+002, 1.893306e+003
2.216108e+002, 1.895797e+003
2.220929e+002, 1.898430e+003
2.225750e+002, 1.900926e+003
2.230571e+002, 1.903928e+003
2.235393e+002, 1.907957e+003
2.240214e+002, 1.912459e+003
2.245035e+002, 1.916531e+003
2.249856e+002, 1.919556e+003
2.254677e+002, 1.921840e+003
2.259498e+002, 1.925300e+003
2.264320e+002, 1.931545e+003
2.269141e+002, 1.937258e+003
2.273962e+002, 1.941894e+003
2.278783e+002, 1.945656e+003
2.283604e+002, 1.948784e+003
2.288425e+002, 1.951332e+003
2.293247e+002, 1.953538e+003
2.298068e+002, 1.956857e+003
2.302889e+002, 1.962159e+003
2.307710e+002, 1.967478e+003
2.312531e+002, 1.971968e+003
2.317352e+002, 1.976242e+003
2.322174e+002, 1.981588e+003
2.326995e+002, 1.988828e+003
2.331816e+002, 1.997374e+003
2.336637e+002, 2.004595e+003
2.341458e+002, 2.009391e+003
2.346279e+002, 2.014389e+003
2.351101e+002, 2.020613e+003
2.355922e+002, 2.027484e+003
2.360743e+002, 2.033698e+003
2.365564e+002, 2.038408e+003
2.370385e+002, 2.042363e+003
2.375206e+002, 2.047922e+003
2.380028e+002, 2.055562e+003
2.384849e+002, 2.063646e+003
2.389670e+002, 2.071513e+003
2.394491e+002, 2.079376e+003
2.399312e+002, 2.088050e+003
2.404133e+002, 2.098122e+003
2.408955e+002, 2.108668e+003
2.413776e+002, 2.117413e+003
2.418597e+002, 2.123195e+003
2.423418e+002, 2.130204e+003
2.428239e+002, 2.140884e+003
2.433060e+002, 2.154180e+003
2.437882e+002, 2.167409e+003
2.442703e+002, 2.179765e+003
2.447524e+002, 2.191317e+003
2.452345e+002, 2.201977e+003
2.457166e+002, 2.211463e+003
2.461987e+002, 2.221292e+003
2.466809e+002, 2.232166e+003
2.471630e+002, 2.243935e+003
2.476451e+002, 2.256311e+003
2.481272e+002, 2.269272e+003
2.486093e+002, 2.282583e+003
2.490914e+002, 2.295798e+003
2.495736e+002, 2.308800e+003
2.500557e+002, 2.322359e+003
2.505378e+002, 2.337084e+003
2.510199e+002, 2.352720e+003
2.515020e+002, 2.368316e+003
2.519841e+002, 2.383737e+003
2.524663e+002, 2.399067e+003
2.529484e+002, 2.414245e+003
2.534305e+002, 2.429309e+003
2.539126e+002, 2.445281e+003
2.543947e+002, 2.462987e+003
2.548768e+002, 2.482226e+003
2.553590e+002, 2.501678e+003
2.558411e+002, 2.521334e+003
2.563232e+002, 2.541191e+003
2.568053e+002, 2.561033e+003
2.572874e+002, 2.580997e+003
2.577695e+002, 2.601606e+003
2.582516e+002, 2.623626e+003
2.587338e+002, 2.646829e+003
2.592159e+002, 2.668963e+003
2.596980e+002, 2.688896e+003
2.601801e+002, 2.709489e+003
2.606622e+002, 2.732125e+003
2.611443e+002, 2.756429e+003
2.616265e+002, 2.781650e+003
2.621086e+002, 2.807561e+003
2.625907e+002, 2.834031e+003
2.630728e+002, 2.859829e+003
2.635549e+002, 2.884440e+003
2.640370e+002, 2.909265e+003
2.645192e+002, 2.934188e+003
2.650013e+002, 2.959734e+003
2.654834e+002, 2.987046e+003
2.659655e+002, 3.017614e+003
2.664476e+002, 3.049936e+003
2.669297e+002, 3.078746e+003
2.674119e+002, 3.100653e+003
2.678940e+002, 3.124434e+003
2.683761e+002, 3.153257e+003
2.688582e+002, 3.184941e+003
2.693403e+002, 3.217368e+003
2.698224e+002, 3.249691e+003
2.703046e+002, 3.281354e+003
2.707867e+002, 3.310450e+003
2.712688e+002, 3.334681e+003
2.717509e+002, 3.360426e+003
2.722330e+002, 3.390052e+003
2.727151e+002, 3.421176e+003
2.731973e+002, 3.451691e+003
2.736794e+002, 3.480784e+003
2.741615e+002, 3.508903e+003
2.746436e+002, 3.537376e+003
2.751257e+002, 3.566886e+003
2.756078e+002, 3.595329e+003
2.760900e+002, 3.622562e+003
2.765721e+002, 3.648680e+003
2.770542e+002, 3.672988e+003
2.775363e+002, 3.695511e+003
2.780184e+002, 3.717735e+003
2.785005e+002, 3.742656e+003
2.789827e+002, 3.773526e+003
2.794648e+002, 3.799539e+003
2.799469e+002, 3.818394e+003
2.804290e+002, 3.834423e+003
2.809111e+002, 3.850310e+003
2.813932e+002, 3.866568e+003
2.818754e+002, 3.882000e+003
2.823575e+002, 3.894969e+003
2.828396e+002, 3.904849e+003
2.833217e+002, 3.913917e+003
2.838038e+002, 3.922672e+003
2.842859e+002, 3.930371e+003
2.847681e+002, 3.937327e+003
2.852502e+002, 3.943084e+003
2.857323e+002, 3.946120e+003
2.862144e+002, 3.944476e+003
2.866965e+002, 3.937204e+003
2.871786e+002, 3.930580e+003
2.876608e+002, 3.927226e+003
2.881429e+002, 3.922012e+003
2.886250e+002, 3.912508e+003
2.891071e+002, 3.899213e+003
2.895892e+002, 3.883997e+003
2.900714e+002, 3.868162e+003
2.905535e+002, 3.851771e+003
2.910356e+002, 3.835104e+003
2.915177e+002, 3.820023e+003
2.919998e+002, 3.802840e+003
2.924819e+002, 3.782384e+003
2.929641e+002, 3.759015e+003
2.934462e+002, 3.733047e+003
2.939283e+002, 3.704174e+003
2.944104e+002, 3.673297e+003
2.948925e+002, 3.645448e+003
2.953746e+002, 3.624725e+003
2.958568e+002, 3.602599e+003
2.963389e+002, 3.577550e+003
2.968210e+002, 3.550336e+003
2.973031e+002, 3.521758e+003
2.977852e+002, 3.492046e+003
2.982673e+002, 3.461912e+003
2.987495e+002, 3.433856e+003
2.992316e+002, 3.410347e+003
2.997137e+002, 3.385553e+003
3.001958e+002, 3.358313e+003
3.006779e+002, 3.330034e+003
3.011600e+002, 3.301906e+003
3.016422e+002, 3.274303e+003
3.021243e+002, 3.247237e+003
3.026064e+002, 3.220928e+003
3.030885e+002, 3.196004e+003
3.035706e+002, 3.170828e+003
3.040527e+002, 3.145053e+003
3.045349e+002, 3.119356e+003
3.050170e+002, 3.094471e+003
3.054991e+002, 3.070468e+003
3.059812e+002, 3.046825e+003
3.064633e+002, 3.022887e+003
3.069454e+002, 2.998507e+003
3.074276e+002, 2.974513e+003
3.079097e+002, 2.950807e+003
3.083918e+002, 2.927719e+003
3.088739e+002, 2.905587e+003
3.093560e+002, 2.884288e+003
3.098381e+002, 2.863571e+003
3.103203e+002, 2.842965e+003
3.108024e+002, 2.822597e+003
3.112845e+002, 2.802482e+003
3.117666e+002, 2.782856e+003
3.122487e+002, 2.763189e+003
3.127308e+002, 2.742671e+003
3.132130e+002, 2.721858e+003
3.136951e+002, 2.702211e+003
3.141772e+002, 2.684810e+003
3.146593e+002, 2.669120e+003
3.151414e+002, 2.652000e+003
3.156235e+002, 2.631669e+003
3.161057e+002, 2.611782e+003
3.165878e+002, 2.593134e+003
3.170699e+002, 2.575192e+003
3.175520e+002, 2.557081e+003
3.180341e+002, 2.538433e+003
3.185162e+002, 2.519655e+003
3.189984e+002, 2.502026e+003
3.194805e+002, 2.486658e+003
3.199626e+002, 2.471094e+003
3.204447e+002, 2.455136e+003
3.209268e+002, 2.439084e+003
3.214089e+002, 2.423359e+003
3.218911e+002, 2.407999e+003
3.223732e+002, 2.392577e+003
3.228553e+002, 2.376187e+003
3.233374e+002, 2.357984e+003
3.238195e+002, 2.341235e+003
3.243016e+002, 2.326993e+003
3.247838e+002, 2.313277e+003
3.252659e+002, 2.299206e+003
3.257480e+002, 2.284516e+003
3.262301e+002, 2.269255e+003
3.267122e+002, 2.253220e+003
3.271943e+002, 2.236265e+003
3.276765e+002, 2.220266e+003
3.281586e+002, 2.205776e+003
3.286407e+002, 2.191586e+003
3.291228e+002, 2.177111e+003
3.296049e+002, 2.162521e+003
3.300870e+002, 2.148213e+003
3.305692e+002, 2.134444e+003
3.310513e+002, 2.121171e+003
3.315334e+002, 2.108358e+003
3.320155e+002, 2.096533e+003
3.324976e+002, 2.084456e+003
3.329797e+002, 2.072107e+003
3.334619e+002, 2.059374e+003
3.339440e+002, 2.045825e+003
3.344261e+002, 2.031250e+003
3.349082e+002, 2.016517e+003
3.353904e+002, 2.003654e+003
3.358725e+002, 1.995159e+003
3.363546e+002, 1.984749e+003
3.368367e+002, 1.971077e+003
3.373188e+002, 1.956297e+003
3.378009e+002, 1.941732e+003
3.382831e+002, 1.927902e+003
3.387652e+002, 1.915129e+003
3.392473e+002, 1.904284e+003
3.397294e+002, 1.896579e+003
3.402115e+002, 1.886785e+003
3.406936e+002, 1.873027e+003
3.411758e+002, 1.859107e+003
3.416579e+002, 1.846833e+003
3.421400e+002, 1.836096e+003
3.426221e+002, 1.825945e+003
3.431042e+002, 1.815571e+003
3.435863e+002, 1.804966e+003
3.440685e+002, 1.794649e+003
3.445506e+002, 1.785312e+003
3.450327e+002, 1.775587e+003
3.455148e+002, 1.764870e+003
3.459969e+002, 1.753626e+003
3.464790e+002, 1.742622e+003
3.469612e+002, 1.732195e+003
3.474433e+002, 1.722343e+003
3.479254e+002, 1.712852e+003
3.484075e+002, 1.704256e+003
3.488896e+002, 1.695251e+003
3.493717e+002, 1.685481e+003
3.498539e+002, 1.675448e+003
3.503360e+002, 1.665507e+003
3.508181e+002, 1.655820e+003
3.513002e+002, 1.646173e+003
3.517823e+002, 1.636097e+003
3.522644e+002, 1.625191e+003
3.527466e+002, 1.615228e+003
3.532287e+002, 1.606964e+003
3.537108e+002, 1.599057e+003
3.541929e+002, 1.590915e+003
3.546750e+002, 1.582484e+003
3.551571e+002, 1.573967e+003
3.556393e+002, 1.565656e+003
3.561214e+002, 1.557519e+003
3.566035e+002, 1.548779e+003
3.570856e+002, 1.539337e+003
3.575677e+002, 1.529401e+003
3.580498e+002, 1.518320e+003
3.585320e+002, 1.506945e+003
3.590141e+002, 1.496700e+003
3.594962e+002, 1.488505e+003
3.599783e+002, 1.481776e+003
3.604604e+002, 1.475229e+003
3.609425e+002, 1.469089e+003
3.614247e+002, 1.462516e+003
3.619068e+002, 1.455451e+003
3.623889e+002, 1.447788e+003
3.628710e+002, 1.439021e+003
3.633531e+002, 1.428949e+003
3.638352e+002, 1.419125e+003
3.643174e+002, 1.411549e+003
3.647995e+002, 1.406414e+003
3.652816e+002, 1.401500e+003
3.657637e+002, 1.397432e+003
3.662458e+002, 1.392515e+003
3.667279e+002, 1.385319e+003
3.672101e+002, 1.376081e+003
3.676922e+002, 1.366531e+003
3.681743e+002, 1.357639e+003
3.686564e+002, 1.349367e+003
3.691385e+002, 1.341705e+003
3.696206e+002, 1.334773e+003
3.701028e+002, 1.328121e+003
3.705849e+002, 1.321290e+003
3.710670e+002, 1.314541e+003
3.715491e+002, 1.308526e+003
3.720312e+002, 1.303841e+003
3.725133e+002, 1.299549e+003
3.729955e+002, 1.294104e+003
3.734776e+002, 1.287382e+003
3.739597e+002, 1.280837e+003
3.744418e+002, 1.275205e+003
3.749239e+002, 1.269975e+003
3.754060e+002, 1.264494e+003
3.758882e+002, 1.258633e+003
3.763703e+002, 1.252854e+003
3.768524e+002, 1.247730e+003
3.773345e+002, 1.243012e+003
3.778166e+002, 1.237452e+003
3.782987e+002, 1.230348e+003
3.787809e+002, 1.223121e+003
3.792630e+002, 1.217398e+003
3.797451e+002, 1.212982e+003
3.802272e+002, 1.208914e+003
3.807093e+002, 1.205189e+003
3.811914e+002, 1.201516e+003
3.816736e+002, 1.197524e+003
3.821557e+002, 1.193211e+003
3.826378e+002, 1.188624e+003
3.831199e+002, 1.183719e+003
3.836020e+002, 1.178571e+003
3.840841e+002, 1.173548e+003
3.845663e+002, 1.168622e+003
3.850484e+002, 1.163837e+003
3.855305e+002, 1.159249e+003
3.860126e+002, 1.154828e+003
3.864947e+002, 1.150433e+003
3.869768e+002, 1.145987e+003
3.874590e+002, 1.141585e+003
3.879411e+002, 1.137435e+003
3.884232e+002, 1.133455e+003
3.889053e+002, 1.129869e+003
3.893874e+002, 1.127058e+003
3.898695e+002, 1.124503e+003
3.903517e+002, 1.121567e+003
3.908338e+002, 1.118123e+003
3.913159e+002, 1.114648e+003
3.917980e+002, 1.111730e+003
3.922801e+002, 1.109525e+003
3.927622e+002, 1.106174e+003
3.932444e+002, 1.100412e+003
3.937265e+002, 1.094818e+003
3.942086e+002, 1.090898e+003
3.946907e+002, 1.088260e+003
3.951728e+002, 1.085639e+003
3.956549e+002, 1.082320e+003
3.961371e+002, 1.078481e+003
3.966192e+002, 1.074950e+003
3.971013e+002, 1.072303e+003
3.975834e+002, 1.069242e+003
3.980655e+002, 1.065227e+003
3.985476e+002, 1.060994e+003
3.990298e+002, 1.057393e+003
3.995119e+002, 1.054611e+003
3.999940e+002, 1.052026e+003
4.004761e+002, 1.048741e+003
4.009582e+002, 1.044387e+003
4.014403e+002, 1.040653e+003
4.019225e+002, 1.037881e+003
4.024046e+002, 1.035322e+003
4.028867e+002, 1.032832e+003
4.033688e+002, 1.030281e+003
4.038509e+002, 1.027413e+003
4.043330e+002, 1.023977e+003
4.048152e+002, 1.020125e+003
4.052973e+002, 1.016738e+003
4.057794e+002, 1.013863e+003
4.062615e+002, 1.011422e+003
4.067436e+002, 1.009829e+003
4.072257e+002, 1.008391e+003
4.077079e+002, 1.006383e+003
4.081900e+002, 1.003578e+003
4.086721e+002, 1.000417e+003
4.091542e+002, 9.975429e+002
4.096363e+002, 9.950323e+002
4.101184e+002, 9.922266e+002
4.106006e+002, 9.887799e+002
4.110827e+002, 9.852662e+002
4.115648e+002, 9.819020e+002
4.120469e+002, 9.787086e+002
4.125290e+002, 9.757229e+002
4.130111e+002, 9.730075e+002
4.134933e+002, 9.705123e+002
4.139754e+002, 9.680662e+002
4.144575e+002, 9.656558e+002
4.149396e+002, 9.633532e+002
4.154217e+002, 9.611570e+002
4.159038e+002, 9.591093e+002
4.163860e+002, 9.573092e+002
4.168681e+002, 9.558083e+002
4.173502e+002, 9.544410e+002
4.178323e+002, 9.531671e+002
4.183144e+002, 9.519482e+002
4.187965e+002, 9.504280e+002
4.192787e+002, 9.482237e+002
4.197608e+002, 9.461097e+002
4.202429e+002, 9.451497e+002
4.207250e+002, 9.452292e+002
4.212071e+002, 9.449637e+002
4.216892e+002, 9.435209e+002
4.221714e+002, 9.416208e+002
4.226535e+002, 9.403390e+002
4.231356e+002, 9.397540e+002
4.236177e+002, 9.390443e+002
4.240998e+002, 9.376518e+002
4.245819e+002, 9.356742e+002
4.250641e+002, 9.336861e+002
4.255462e+002, 9.311611e+002
4.260283e+002, 9.292776e+002
4.265104e+002, 9.290583e+002
4.269925e+002, 9.297711e+002
4.274746e+002, 9.299791e+002
4.279568e+002, 9.291833e+002
4.284389e+002, 9.278912e+002
4.289210e+002, 9.268153e+002
4.294031e+002, 9.259749e+002
4.298852e+002, 9.253847e+002
4.303673e+002, 9.251114e+002
4.308495e+002, 9.250331e+002
4.313316e+002, 9.251844e+002
4.318137e+002, 9.254813e+002
4.322958e+002, 9.256443e+002
4.327779e+002, 9.254358e+002
4.332600e+002, 9.249349e+002
4.337422e+002, 9.247996e+002
4.342243e+002, 9.253116e+002
4.347064e+002, 9.258630e+002
4.351885e+002, 9.264996e+002
4.356706e+002, 9.270779e+002
4.361527e+002, 9.273991e+002
4.366349e+002, 9.274203e+002
4.371170e+002, 9.273289e+002
4.375991e+002, 9.273298e+002
4.380812e+002, 9.273223e+002
4.385633e+002, 9.277757e+002
4.390454e+002, 9.295643e+002
4.395276e+002, 9.309844e+002
4.400097e+002, 9.312452e+002
4.404918e+002, 9.305881e+002
4.409739e+002, 9.295876e+002
4.414560e+002, 9.284395e+002
4.419381e+002, 9.273900e+002
4.424203e+002, 9.273354e+002
4.429024e+002, 9.288588e+002
4.433845e+002, 9.298320e+002
4.438666e+002, 9.291340e+002
4.443487e+002, 9.279150e+002
4.448308e+002, 9.269656e+002
4.453130e+002, 9.264301e+002
4.457951e+002, 9.262862e+002
4.462772e+002, 9.268673e+002
4.467593e+002, 9.279409e+002
4.472414e+002, 9.282101e+002
4.477235e+002, 9.273036e+002
4.482057e+002, 9.260518e+002
4.486878e+002, 9.244417e+002
4.491699e+002, 9.229283e+002
4.496520e+002, 9.228903e+002
4.501341e+002, 9.263118e+002
4.506162e+002, 9.298245e+002
4.510984e+002, 9.298203e+002
4.515805e+002, 9.268221e+002
4.520626e+002, 9.241699e+002
4.525447e+002, 9.233578e+002
4.530268e+002, 9.233683e+002
4.535089e+002, 9.221334e+002
4.539911e+002, 9.193541e+002
4.544732e+002, 9.170371e+002
4.549553e+002, 9.159137e+002
4.554374e+002, 9.152985e+002
4.559195e+002, 9.145218e+002
4.564016e+002, 9.134974e+002
4.568838e+002, 9.124355e+002
4.573659e+002, 9.115305e+002
4.578480e+002, 9.107566e+002
4.583301e+002, 9.096077e+002
4.588122e+002, 9.070891e+002
4.592943e+002, 9.054193e+002
4.597765e+002, 9.060463e+002
4.602586e+002, 9.074988e+002
4.607407e+002, 9.076728e+002
4.612228e+002, 9.059202e+002
4.617049e+002, 9.034518e+002
4.621870e+002, 9.020951e+002
4.626692e+002, 9.023000e+002
4.631513e+002, 9.022213e+002
4.636334e+002, 9.015661e+002
4.641155e+002, 9.009448e+002
4.645976e+002, 9.005723e+002
4.650797e+002, 9.004485e+002
4.655619e+002, 9.005154e+002
4.660440e+002, 9.007573e+002
4.665261e+002, 9.011320e+002
4.670082e+002, 9.014561e+002
4.674903e+002, 9.015610e+002
4.679724e+002, 9.020837e+002
4.684546e+002, 9.035842e+002
4.689367e+002, 9.052866e+002
4.694188e+002, 9.065726e+002
4.699009e+002, 9.074085e+002
4.703830e+002, 9.082902e+002
4.708651e+002, 9.095632e+002
4.713473e+002, 9.111791e+002
4.718294e+002, 9.130529e+002
4.723115e+002, 9.152908e+002
4.727936e+002, 9.174093e+002
4.732757e+002, 9.186795e+002
4.737578e+002, 9.196700e+002
4.742400e+002, 9.214844e+002
4.747221e+002, 9.244910e+002
4.752042e+002, 9.280035e+002
4.756863e+002, 9.317028e+002
4.761684e+002, 9.355533e+002
4.766505e+002, 9.394587e+002
4.771327e+002, 9.434447e+002
4.776148e+002, 9.473397e+002
4.780969e+002, 9.509711e+002
4.785790e+002, 9.542928e+002
4.790611e+002, 9.575315e+002
4.795432e+002, 9.601682e+002
4.800254e+002, 9.631818e+002
4.805075e+002, 9.675320e+002
4.809896e+002, 9.728533e+002
4.814717e+002, 9.779625e+002
4.819538e+002, 9.821980e+002
4.824359e+002, 9.858871e+002
4.829181e+002, 9.899653e+002
4.834002e+002, 9.950994e+002
4.838823e+002, 9.996666e+002
4.843644e+002, 1.003055e+003
4.848465e+002, 1.006341e+003
4.853286e+002, 1.010333e+003
4.858108e+002, 1.015038e+003
4.862929e+002, 1.019938e+003
4.867750e+002, 1.024581e+003
4.872571e+002, 1.029007e+003
4.877392e+002, 1.033828e+003
4.882213e+002, 1.039589e+003
4.887035e+002, 1.044811e+003
4.891856e+002, 1.048983e+003
4.896677e+002, 1.052563e+003
4.901498e+002, 1.056017e+003
4.906319e+002, 1.059464e+003
4.911140e+002, 1.062719e+003
4.915962e+002, 1.065359e+003
4.920783e+002, 1.067517e+003
4.925604e+002, 1.070334e+003
4.930425e+002, 1.074359e+003
4.935246e+002, 1.078196e+003
4.940067e+002, 1.080772e+003
4.944889e+002, 1.082416e+003
4.949710e+002, 1.083751e+003
4.954531e+002, 1.084873e+003
4.959352e+002, 1.085786e+003
4.964173e+002, 1.086363e+003
4.968994e+002, 1.086712e+003
4.973816e+002, 1.087211e+003
4.978637e+002, 1.087963e+003
4.983458e+002, 1.088975e+003
4.988279e+002, 1.090324e+003
4.993100e+002, 1.092114e+003
4.997921e+002, 1.093730e+003
5.002743e+002, 1.095983e+003
5.007564e+002, 1.097323e+003
5.012385e+002, 1.096005e+003
5.017206e+002, 1.092801e+003
5.022027e+002, 1.090099e+003
5.026848e+002, 1.089298e+003
5.031670e+002, 1.089673e+003
5.036491e+002, 1.089071e+003
5.041312e+002, 1.086508e+003
5.046133e+002, 1.084543e+003
5.050954e+002, 1.083548e+003
5.055775e+002, 1.082880e+003
5.060597e+002, 1.082249e+003
5.065418e+002, 1.081545e+003
5.070239e+002, 1.080698e+003
5.075060e+002, 1.079763e+003
5.079881e+002, 1.078599e+003
5.084702e+002, 1.076308e+003
5.089524e+002, 1.072034e+003
5.094345e+002, 1.068588e+003
5.099166e+002, 1.067872e+003
5.103987e+002, 1.067840e+003
5.108808e+002, 1.066714e+003
5.113629e+002, 1.064212e+003
5.118451e+002, 1.061155e+003
5.123271e+002, 1.058028e+003
5.128093e+002, 1.054828e+003
5.132914e+002, 1.051544e+003
5.137735e+002, 1.048140e+003
5.142556e+002, 1.044835e+003
5.147377e+002, 1.041604e+003
5.152198e+002, 1.038637e+003
5.157020e+002, 1.036488e+003
5.161841e+002, 1.036139e+003
5.166662e+002, 1.035208e+003
5.171483e+002, 1.032156e+003
5.176304e+002, 1.027972e+003
5.181125e+002, 1.024253e+003
5.185947e+002, 1.021385e+003
5.190768e+002, 1.018867e+003
5.195589e+002, 1.016195e+003
5.200410e+002, 1.013372e+003
5.205231e+002, 1.010218e+003
5.210052e+002, 1.006298e+003
5.214874e+002, 1.002583e+003
5.219695e+002, 9.992385e+002
5.224516e+002, 9.963151e+002
5.229337e+002, 9.940979e+002
5.234158e+002, 9.926359e+002
5.238979e+002, 9.912718e+002
5.243801e+002, 9.888839e+002
5.248622e+002, 9.852167e+002
5.253443e+002, 9.819363e+002
5.258264e+002, 9.791369e+002
5.263085e+002, 9.767086e+002
5.267906e+002, 9.750883e+002
5.272728e+002, 9.737227e+002
5.277549e+002, 9.714313e+002
5.282370e+002, 9.673762e+002
5.287191e+002, 9.630062e+002
5.292012e+002, 9.603952e+002
5.296833e+002, 9.594064e+002
5.301655e+002, 9.579491e+002
5.306476e+002, 9.551808e+002
5.311297e+002, 9.523129e+002
5.316118e+002, 9.510290e+002
5.320939e+002, 9.510689e+002
5.325760e+002, 9.504939e+002
5.330582e+002, 9.484010e+002
5.335403e+002, 9.460030e+002
5.340224e+002, 9.440468e+002
5.345045e+002, 9.425559e+002
5.349866e+002, 9.416083e+002
5.354688e+002, 9.412977e+002
5.359509e+002, 9.412267e+002
5.364330e+002, 9.406342e+002
5.369151e+002, 9.391934e+002
5.373972e+002, 9.380191e+002
5.378793e+002, 9.371248e+002
5.383615e+002, 9.364581e+002
5.388436e+002, 9.361028e+002
5.393257e+002, 9.359474e+002
5.398078e+002, 9.357850e+002
5.402899e+002, 9.355050e+002
5.407720e+002, 9.351092e+002
5.412542e+002, 9.344529e+002
5.417363e+002, 9.332131e+002
5.422184e+002, 9.328010e+002
5.427005e+002, 9.343580e+002
5.431826e+002, 9.360126e+002
5.436647e+002, 9.365714e+002
5.441469e+002, 9.362262e+002
5.446290e+002, 9.359614e+002
5.451111e+002, 9.361635e+002
5.455932e+002, 9.368022e+002
5.460753e+002, 9.380469e+002
5.465574e+002, 9.398639e+002
5.470396e+002, 9.413690e+002
5.475217e+002, 9.421292e+002
5.480038e+002, 9.425516e+002
5.484859e+002, 9.433740e+002
5.489680e+002, 9.446788e+002
5.494501e+002, 9.455551e+002
5.499323e+002, 9.455596e+002
5.504144e+002, 9.453085e+002
5.508965e+002, 9.448743e+002
5.513786e+002, 9.445648e+002
5.518607e+002, 9.454417e+002
5.523428e+002, 9.482111e+002
5.528250e+002, 9.517849e+002
5.533071e+002, 9.533249e+002
5.537892e+002, 9.507448e+002
5.542713e+002, 9.499473e+002
5.547534e+002, 9.526895e+002
5.552355e+002, 9.553963e+002
5.557177e+002, 9.554494e+002
5.561998e+002, 9.537021e+002
5.566819e+002, 9.529401e+002
5.571640e+002, 9.550829e+002
5.576461e+002, 9.586311e+002
5.581282e+002, 9.601281e+002
5.586104e+002, 9.592079e+002
5.590925e+002, 9.586088e+002
5.595746e+002, 9.588353e+002
5.600567e+002, 9.597981e+002
5.605388e+002, 9.617628e+002
5.610209e+002, 9.645117e+002
5.615031e+002, 9.665565e+002
5.619852e+002, 9.666140e+002
5.624673e+002, 9.662158e+002
5.629494e+002, 9.670554e+002
5.634315e+002, 9.689180e+002
5.639136e+002, 9.706700e+002
5.643958e+002, 9.718648e+002
5.648779e+002, 9.726793e+002
5.653600e+002, 9.734001e+002
5.658421e+002, 9.739799e+002
5.663242e+002, 9.745750e+002
5.668063e+002, 9.751274e+002
5.672885e+002, 9.757487e+002
5.677706e+002, 9.767433e+002
5.682527e+002, 9.778261e+002
5.687348e+002, 9.782972e+002
5.692169e+002, 9.777968e+002
5.696990e+002, 9.769319e+002
5.701812e+002, 9.769029e+002
5.706633e+002, 9.778797e+002
5.711454e+002, 9.790375e+002
5.716275e+002, 9.808976e+002
5.721096e+002, 9.823139e+002
5.725917e+002, 9.822844e+002
5.730739e+002, 9.814077e+002
5.735560e+002, 9.811210e+002
5.740381e+002, 9.822266e+002
5.745202e+002, 9.836799e+002
5.750023e+002, 9.843792e+002
5.754844e+002, 9.843976e+002
5.759666e+002, 9.839730e+002
5.764487e+002, 9.829553e+002
5.769308e+002, 9.822080e+002
5.774129e+002, 9.829721e+002
5.778950e+002, 9.852731e+002
5.783771e+002, 9.863058e+002
5.788593e+002, 9.850552e+002
5.793414e+002, 9.835552e+002
5.798235e+002, 9.826094e+002
5.803056e+002, 9.820456e+002
5.807877e+002, 9.815305e+002
5.812698e+002, 9.809615e+002
5.817520e+002, 9.805174e+002
5.822341e+002, 9.805582e+002
5.827162e+002, 9.812374e+002
5.831984e+002, 9.808782e+002
5.836805e+002, 9.785590e+002
5.841626e+002, 9.763146e+002
5.846447e+002, 9.745648e+002
5.851268e+002, 9.732582e+002
5.856089e+002, 9.724318e+002
5.860911e+002, 9.721014e+002
5.865732e+002, 9.718189e+002
5.870553e+002, 9.712753e+002
5.875374e+002, 9.704495e+002
5.880195e+002, 9.692595e+002
5.885016e+002, 9.676810e+002
5.889838e+002, 9.657872e+002
5.894659e+002, 9.633070e+002
5.899480e+002, 9.606465e+002
5.904301e+002, 9.590031e+002
5.909122e+002, 9.589897e+002
5.913943e+002, 9.587542e+002
5.918765e+002, 9.575872e+002
5.923586e+002, 9.560069e+002
5.928407e+002, 9.543619e+002
5.933228e+002, 9.528168e+002
5.938049e+002, 9.518236e+002
5.942870e+002, 9.518428e+002
5.947692e+002, 9.524807e+002
5.952513e+002, 9.518057e+002
5.957334e+002, 9.488176e+002
5.962155e+002, 9.462758e+002
5.966976e+002, 9.449414e+002
5.971797e+002, 9.437044e+002
5.976619e+002, 9.415179e+002
5.981440e+002, 9.386335e+002
5.986261e+002, 9.363079e+002
5.991082e+002, 9.354335e+002
5.995903e+002, 9.354488e+002
6.000724e+002, 9.356517e+002
6.005546e+002, 9.360423e+002
6.010367e+002, 9.355195e+002
6.015188e+002, 9.336068e+002
6.020009e+002, 9.308177e+002
6.024830e+002, 9.273074e+002
6.029651e+002, 9.230722e+002
6.034473e+002, 9.200027e+002
6.039294e+002, 9.192693e+002
6.044115e+002, 9.189084e+002
6.048936e+002, 9.179918e+002
6.053757e+002, 9.165084e+002
6.058578e+002, 9.144149e+002
6.063400e+002, 9.117228e+002
6.068221e+002, 9.088926e+002
6.073042e+002, 9.065775e+002
6.077863e+002, 9.048510e+002
6.082684e+002, 9.032351e+002
6.087505e+002, 9.020742e+002
6.092327e+002, 9.006339e+002
6.097148e+002, 8.985077e+002
6.101969e+002, 8.960912e+002
6.106790e+002, 8.938470e+002
6.111611e+002, 8.919045e+002
6.116432e+002, 8.901402e+002
6.121254e+002, 8.885898e+002
6.126075e+002, 8.871154e+002
6.130896e+002, 8.852995e+002
6.135717e+002, 8.830837e+002
6.140538e+002, 8.805741e+002
6.145359e+002, 8.776579e+002
6.150181e+002, 8.745732e+002
6.155002e+002, 8.720496e+002
6.159823e+002, 8.701242e+002
6.164644e+002, 8.685393e+002
6.169465e+002, 8.675610e+002
6.174286e+002, 8.666660e+002
6.179108e+002, 8.654838e+002
6.183929e+002, 8.639651e+002
6.188750e+002, 8.621141e+002
6.193571e+002, 8.599134e+002
6.198392e+002, 8.575120e+002
6.203214e+002, 8.553348e+002
6.208035e+002, 8.535193e+002
6.212856e+002, 8.515176e+002
6.217677e+002, 8.492316e+002
6.222498e+002, 8.467839e+002
6.227319e+002, 8.439697e+002
6.232141e+002, 8.410544e+002
6.236962e+002, 8.387273e+002
6.241783e+002, 8.374979e+002
6.246604e+002, 8.365004e+002
6.251425e+002, 8.348376e+002
6.256246e+002, 8.326899e+002
6.261068e+002, 8.307099e+002
6.265889e+002, 8.290558e+002
6.270710e+002, 8.273918e+002
6.275531e+002, 8.254313e+002
6.280352e+002, 8.231880e+002
6.285173e+002, 8.207418e+002
6.289995e+002, 8.173222e+002
6.294816e+002, 8.147242e+002
6.299637e+002, 8.141381e+002
6.304458e+002, 8.140233e+002
6.309279e+002, 8.127610e+002
6.314100e+002, 8.102536e+002
6.318922e+002, 8.076219e+002
6.323743e+002, 8.059053e+002
6.328564e+002, 8.046858e+002
6.333385e+002, 8.020986e+002
6.338206e+002, 7.975309e+002
6.343027e+002, 7.941558e+002
6.347849e+002, 7.938723e+002
6.352670e+002, 7.942007e+002
6.357491e+002, 7.927432e+002
6.362312e+002, 7.896188e+002
6.367133e+002, 7.862267e+002
6.371954e+002, 7.823408e+002
6.376776e+002, 7.789181e+002
6.381597e+002, 7.772347e+002
6.386418e+002, 7.765894e+002
6.391239e+002, 7.751825e+002
6.396060e+002, 7.724345e+002
6.400881e+002, 7.691673e+002
6.405703e+002, 7.664107e+002
6.410524e+002, 7.642226e+002
6.415345e+002, 7.619733e+002
6.420166e+002, 7.595446e+002
6.424987e+002, 7.572202e+002
6.429808e+002, 7.551476e+002
6.434630e+002, 7.531647e+002
6.439451e+002, 7.508788e+002
6.444272e+002, 7.483262e+002
6.449093e+002, 7.463141e+002
6.453914e+002, 7.461588e+002
6.458735e+002, 7.468615e+002
6.463557e+002, 7.459203e+002
6.468378e+002, 7.432642e+002
6.473199e+002, 7.399362e+002
6.478020e+002, 7.360616e+002
6.482841e+002, 7.321307e+002
6.487662e+002, 7.289359e+002
6.492484e+002, 7.265585e+002
6.497305e+002, 7.243701e+002
6.502126e+002, 7.226094e+002
6.506947e+002, 7.207449e+002
6.511768e+002, 7.183746e+002
6.516589e+002, 7.157158e+002
6.521411e+002, 7.131287e+002
6.526232e+002, 7.107571e+002
6.531053e+002, 7.086923e+002
6.535874e+002, 7.072406e+002
6.540695e+002, 7.064183e+002
6.545516e+002, 7.047857e+002
6.550338e+002, 7.018447e+002
6.555159e+002, 6.991121e+002
6.559980e+002, 6.975063e+002
6.564801e+002, 6.963318e+002
6.569622e+002, 6.947653e+002
6.574443e+002, 6.926661e+002
6.579265e+002, 6.908905e+002
6.584086e+002, 6.904809e+002
6.588907e+002, 6.901409e+002
6.593728e+002, 6.881560e+002
6.598549e+002, 6.848359e+002
6.603370e+002, 6.817868e+002
6.608192e+002, 6.797537e+002
6.613013e+002, 6.782816e+002
6.617834e+002, 6.765764e+002
6.622655e+002, 6.744480e+002
6.627476e+002, 6.727797e+002
6.632297e+002, 6.719459e+002
6.637119e+002, 6.711624e+002
6.641940e+002, 6.704614e+002
6.646761e+002, 6.695593e+002
6.651582e+002, 6.680254e+002
6.656403e+002, 6.657428e+002
6.661224e+002, 6.632758e+002
6.666046e+002, 6.609875e+002
6.670867e+002, 6.588798e+002
6.675688e+002, 6.569509e+002
6.680509e+002, 6.552139e+002
6.685330e+002, 6.536011e+002
6.690151e+002, 6.520779e+002
6.694973e+002, 6.506651e+002
6.699794e+002, 6.493835e+002
6.704615e+002, 6.481678e+002
6.709436e+002, 6.473138e+002
6.714257e+002, 6.469284e+002
6.719078e+002, 6.468040e+002
6.723900e+002, 6.471960e+002
6.728721e+002, 6.476657e+002
6.733542e+002, 6.474461e+002
6.738363e+002, 6.462797e+002
6.743184e+002, 6.447668e+002
6.748005e+002, 6.435968e+002
6.752827e+002, 6.427288e+002
6.757648e+002, 6.417063e+002
6.762469e+002, 6.403617e+002
6.767290e+002, 6.395061e+002
6.772111e+002, 6.402338e+002
6.776932e+002, 6.412223e+002
6.781754e+002, 6.399139e+002
6.786575e+002, 6.357444e+002
6.791396e+002, 6.324451e+002
6.796217e+002, 6.312453e+002
6.801038e+002, 6.308784e+002
6.805859e+002, 6.308495e+002
6.810681e+002, 6.308275e+002
6.815502e+002, 6.301297e+002
6.820323e+002, 6.285186e+002
6.825144e+002, 6.267104e+002
6.829965e+002, 6.258212e+002
6.834786e+002, 6.259264e+002
6.839608e+002, 6.256839e+002
6.844429e+002, 6.248710e+002
6.849250e+002, 6.241087e+002
6.854071e+002, 6.241430e+002
6.858892e+002, 6.240836e+002
6.863713e+002, 6.224986e+002
6.868535e+002, 6.191379e+002
6.873356e+002, 6.168943e+002
6.878177e+002, 6.179960e+002
6.882998e+002, 6.200885e+002
6.887819e+002, 6.209860e+002
6.892640e+002, 6.207664e+002
6.897462e+002, 6.198700e+002
6.902283e+002, 6.184460e+002
6.907104e+002, 6.171678e+002
6.911925e+002, 6.170229e+002
6.916746e+002, 6.181113e+002
6.921567e+002, 6.194760e+002
6.926389e+002, 6.219723e+002
6.931210e+002, 6.235643e+002
6.936031e+002, 6.233250e+002
6.940852e+002, 6.222543e+002
6.945673e+002, 6.212388e+002
6.950494e+002, 6.204242e+002
6.955316e+002, 6.197697e+002
6.960137e+002, 6.190896e+002
6.964958e+002, 6.186627e+002
6.969779e+002, 6.191190e+002
6.974600e+002, 6.202346e+002
6.979421e+002, 6.209785e+002
6.984243e+002, 6.209830e+002
6.989064e+002, 6.205447e+002
6.993885e+002, 6.199734e+002
6.998706e+002, 6.192411e+002
7.003527e+002, 6.187540e+002
7.008348e+002, 6.185182e+002
7.013170e+002, 6.185380e+002
7.017991e+002, 6.189241e+002
7.022812e+002, 6.194971e+002
7.027633e+002, 6.200822e+002
7.032454e+002, 6.206752e+002
7.037275e+002, 6.214063e+002
7.042097e+002, 6.224365e+002
7.046918e+002, 6.235912e+002
7.051739e+002, 6.245558e+002
7.056560e+002, 6.253820e+002
7.061381e+002, 6.263655e+002
7.066202e+002, 6.275974e+002
7.071024e+002, 6.289791e+002
7.075845e+002, 6.305247e+002
7.080666e+002, 6.322261e+002
7.085487e+002, 6.331329e+002
7.090308e+002, 6.320477e+002
7.095129e+002, 6.317928e+002
7.099951e+002, 6.331200e+002
7.104772e+002, 6.351763e+002
7.109593e+002, 6.375964e+002
7.114414e+002, 6.401002e+002
7.119235e+002, 6.420938e+002
7.124056e+002, 6.431470e+002
7.128878e+002, 6.437268e+002
7.133699e+002, 6.445151e+002
7.138520e+002, 6.454841e+002
7.143341e+002, 6.463429e+002
7.148162e+002, 6.469763e+002
7.152983e+002, 6.478425e+002
7.157805e+002, 6.493801e+002
7.162626e+002, 6.514706e+002
7.167447e+002, 6.534405e+002
7.172268e+002, 6.553781e+002
7.177089e+002, 6.570871e+002
7.181910e+002, 6.585865e+002
7.186732e+002, 6.598298e+002
7.191553e+002, 6.604467e+002
7.196374e+002, 6.608073e+002
7.201195e+002, 6.617826e+002
7.206016e+002, 6.638188e+002
7.210837e+002, 6.664080e+002
7.215659e+002, 6.691203e+002
7.220480e+002, 6.718506e+002
7.225301e+002, 6.739498e+002
7.230122e+002, 6.753232e+002
7.234943e+002, 6.762309e+002
7.239764e+002, 6.765759e+002
7.244586e+002, 6.767568e+002
7.249407e+002, 6.779065e+002
7.254228e+002, 6.807147e+002
7.259049e+002, 6.827592e+002
7.263870e+002, 6.835265e+002
7.268691e+002, 6.838808e+002
7.273513e+002, 6.836799e+002
7.278334e+002, 6.835861e+002
7.283155e+002, 6.849406e+002
7.287976e+002, 6.881033e+002
7.292797e+002, 6.912369e+002
7.297618e+002, 6.920211e+002
7.302440e+002, 6.911774e+002
7.307261e+002, 6.914222e+002
7.312082e+002, 6.928863e+002
7.316903e+002, 6.943808e+002
7.321724e+002, 6.953818e+002
7.326545e+002, 6.962524e+002
7.331367e+002, 6.976508e+002
7.336188e+002, 6.998115e+002
7.341009e+002, 7.010494e+002
7.345830e+002, 7.004318e+002
7.350651e+002, 7.000201e+002
7.355472e+002, 7.006473e+002
7.360294e+002, 7.017811e+002
7.365115e+002, 7.030479e+002
7.369936e+002, 7.042162e+002
7.374757e+002, 7.046998e+002
7.379578e+002, 7.035517e+002
7.384399e+002, 7.019183e+002
7.389221e+002, 7.024576e+002
7.394042e+002, 7.050056e+002
7.398863e+002, 7.070051e+002
7.403684e+002, 7.077610e+002
7.408505e+002, 7.080896e+002
7.413326e+002, 7.087602e+002
7.418148e+002, 7.097095e+002
7.422969e+002, 7.101996e+002
7.427790e+002, 7.097819e+002
7.432611e+002, 7.095662e+002
7.437432e+002, 7.098652e+002
7.442253e+002, 7.102552e+002
7.447075e+002, 7.103766e+002
7.451896e+002, 7.103148e+002
7.456717e+002, 7.104134e+002
7.461538e+002, 7.108796e+002
7.466359e+002, 7.113713e+002
7.471180e+002, 7.114786e+002
7.476002e+002, 7.112691e+002
7.480823e+002, 7.107325e+002
7.485644e+002, 7.098221e+002
7.490465e+002, 7.099718e+002
7.495286e+002, 7.125831e+002
7.500107e+002, 7.159650e+002
7.504929e+002, 7.159376e+002
7.509750e+002, 7.103221e+002
7.514571e+002, 7.066652e+002
7.519392e+002, 7.061767e+002
7.524213e+002, 7.061323e+002
7.529034e+002, 7.054281e+002
7.533856e+002, 7.045206e+002
7.538677e+002, 7.042933e+002
7.543498e+002, 7.048971e+002
7.548319e+002, 7.052356e+002
7.553140e+002, 7.042780e+002
7.557961e+002, 7.026526e+002
7.562783e+002, 7.013357e+002
7.567604e+002, 7.003098e+002
7.572425e+002, 6.992001e+002
7.577246e+002, 6.978343e+002
7.582067e+002, 6.969500e+002
7.586888e+002, 6.976582e+002
7.591710e+002, 6.999357e+002
7.596531e+002, 7.005236e+002
7.601352e+002, 6.980726e+002
7.606173e+002, 6.959564e+002
7.610994e+002, 6.948228e+002
7.615815e+002, 6.940329e+002
7.620637e+002, 6.933123e+002
7.625458e+002, 6.925319e+002
7.630279e+002, 6.913860e+002
7.635100e+002, 6.895942e+002
7.639921e+002, 6.877099e+002
7.644742e+002, 6.859937e+002
7.649564e+002, 6.845699e+002
7.654385e+002, 6.838756e+002
7.659206e+002, 6.838423e+002
7.664027e+002, 6.836716e+002
7.668848e+002, 6.828492e+002
7.673669e+002, 6.816194e+002
7.678491e+002, 6.805616e+002
7.683312e+002, 6.797482e+002
7.688133e+002, 6.788612e+002
7.692954e+002, 6.780881e+002
7.697775e+002, 6.769680e+002
7.702596e+002, 6.750119e+002
7.707418e+002, 6.727343e+002
7.712239e+002, 6.707250e+002
7.717060e+002, 6.690175e+002
7.721881e+002, 6.677975e+002
7.726702e+002, 6.675628e+002
7.731523e+002, 6.674516e+002
7.736345e+002, 6.667440e+002
7.741166e+002, 6.656290e+002
7.745987e+002, 6.645132e+002
7.750808e+002, 6.635256e+002
7.755629e+002, 6.626234e+002
7.760450e+002, 6.617807e+002
7.765272e+002, 6.609806e+002
7.770093e+002, 6.601810e+002
7.774914e+002, 6.594329e+002
7.779735e+002, 6.583892e+002
7.784556e+002, 6.568211e+002
7.789377e+002, 6.551461e+002
7.794199e+002, 6.536036e+002
7.799020e+002, 6.522428e+002
7.803841e+002, 6.512727e+002
7.808662e+002, 6.510406e+002
7.813483e+002, 6.506893e+002
7.818304e+002, 6.496442e+002
7.823126e+002, 6.486985e+002
7.827947e+002, 6.490793e+002
7.832768e+002, 6.500715e+002
7.837589e+002, 6.495825e+002
7.842410e+002, 6.466103e+002
7.847231e+002, 6.432073e+002
7.852053e+002, 6.422048e+002
7.856874e+002, 6.429113e+002
7.861695e+002, 6.424280e+002
7.866516e+002, 6.405549e+002
7.871337e+002, 6.388178e+002
7.876158e+002, 6.378986e+002
7.880980e+002, 6.374534e+002
7.885801e+002, 6.370480e+002
7.890622e+002, 6.367747e+002
7.895443e+002, 6.359689e+002
7.900264e+002, 6.337797e+002
7.905085e+002, 6.321781e+002
7.909907e+002, 6.320311e+002
7.914728e+002, 6.323382e+002
7.919549e+002, 6.321321e+002
7.924370e+002, 6.314470e+002
7.929191e+002, 6.310325e+002
7.934012e+002, 6.316777e+002
7.938834e+002, 6.320771e+002
7.943655e+002, 6.305504e+002
7.948476e+002, 6.279229e+002
7.953297e+002, 6.259071e+002
7.958118e+002, 6.247346e+002
7.962939e+002, 6.239189e+002
7.967761e+002, 6.231567e+002
7.972582e+002, 6.224775e+002
7.977403e+002, 6.220118e+002
7.982224e+002, 6.218715e+002
7.987045e+002, 6.214495e+002
7.991866e+002, 6.206524e+002
7.996688e+002, 6.197057e+002
8.001509e+002, 6.183698e+002
8.006330e+002, 6.171192e+002
8.011151e+002, 6.167393e+002
8.015972e+002, 6.173741e+002
8.020793e+002, 6.175345e+002
8.025615e+002, 6.163444e+002
8.030436e+002, 6.150604e+002
8.035257e+002, 6.143809e+002
8.040078e+002, 6.141542e+002
8.044899e+002, 6.143242e+002
8.049720e+002, 6.147362e+002
8.054542e+002, 6.148093e+002
8.059363e+002, 6.140068e+002
8.064184e+002, 6.127131e+002
8.069005e+002, 6.118250e+002
8.073826e+002, 6.113140e+002
8.078647e+002, 6.106482e+002
8.083469e+002, 6.097825e+002
8.088290e+002, 6.084630e+002
8.093111e+002, 6.062031e+002
8.097932e+002, 6.035554e+002
8.102753e+002, 6.022855e+002
8.107574e+002, 6.034086e+002
8.112396e+002, 6.038367e+002
8.117217e+002, 6.031754e+002
8.122038e+002, 6.022852e+002
8.126859e+002, 6.015064e+002
8.131680e+002, 6.007356e+002
8.136501e+002, 5.998225e+002
8.141323e+002, 5.987342e+002
8.146144e+002, 5.975118e+002
8.150965e+002, 5.959539e+002
8.155786e+002, 5.944525e+002
8.160607e+002, 5.935908e+002
8.165428e+002, 5.931495e+002
8.170250e+002, 5.925694e+002
8.175071e+002, 5.917148e+002
8.179892e+002, 5.907268e+002
8.184713e+002, 5.897193e+002
8.189534e+002, 5.886588e+002
8.194355e+002, 5.873370e+002
8.199177e+002, 5.855668e+002
8.203998e+002, 5.844464e+002
8.208819e+002, 5.845868e+002
8.213640e+002, 5.845544e+002
8.218461e+002, 5.831470e+002
8.223282e+002, 5.810955e+002
8.228104e+002, 5.799156e+002
8.232925e+002, 5.799415e+002
8.237746e+002, 5.796752e+002
8.242567e+002, 5.787708e+002
8.247388e+002, 5.775657e+002
8.252209e+002, 5.760477e+002
8.257031e+002, 5.744543e+002
8.261852e+002, 5.730905e+002
8.266673e+002, 5.720225e+002
8.271494e+002, 5.711572e+002
8.276315e+002, 5.705978e+002
8.281136e+002, 5.700112e+002
8.285958e+002, 5.687054e+002
8.290779e+002, 5.668228e+002
8.295600e+002, 5.649960e+002
8.300421e+002, 5.633411e+002
8.305242e+002, 5.619293e+002
8.310063e+002, 5.608253e+002
8.314885e+002, 5.599740e+002
8.319706e+002, 5.591955e+002
8.324527e+002, 5.583453e+002
8.329348e+002, 5.579756e+002
8.334169e+002, 5.591547e+002
8.338990e+002, 5.594297e+002
8.343812e+002, 5.568849e+002
8.348633e+002, 5.534760e+002
8.353454e+002, 5.518250e+002
8.358275e+002, 5.522274e+002
8.363096e+002, 5.522628e+002
8.367917e+002, 5.506508e+002
8.372739e+002, 5.489716e+002
8.377560e+002, 5.485461e+002
8.382381e+002, 5.484960e+002
8.387202e+002, 5.473923e+002
8.392023e+002, 5.452080e+002
8.396844e+002, 5.431082e+002
8.401666e+002, 5.419274e+002
8.406487e+002, 5.411028e+002
8.411308e+002, 5.395280e+002
8.416129e+002, 5.373636e+002
8.420950e+002, 5.358660e+002
8.425771e+002, 5.352187e+002
8.430593e+002, 5.345195e+002
8.435414e+002, 5.332695e+002
8.440235e+002, 5.317029e+002
8.445056e+002, 5.302083e+002
8.449877e+002, 5.287635e+002
8.454698e+002, 5.275524e+002
8.459520e+002, 5.273125e+002
8.464341e+002, 5.263145e+002
8.469162e+002, 5.233795e+002
8.473983e+002, 5.201520e+002
8.478804e+002, 5.179666e+002
8.483625e+002, 5.168344e+002
8.488447e+002, 5.162231e+002
8.493268e+002, 5.165182e+002
8.498089e+002, 5.164318e+002
8.502910e+002, 5.150427e+002
8.507731e+002, 5.130107e+002
8.512552e+002, 5.109349e+002
8.517374e+002, 5.089508e+002
8.522195e+002, 5.071098e+002
8.527016e+002, 5.054361e+002
8.531837e+002, 5.038986e+002
8.536658e+002, 5.025577e+002
8.541479e+002, 5.013326e+002
8.546301e+002, 4.997662e+002
8.551122e+002, 4.978544e+002
8.555943e+002, 4.959125e+002
8.560764e+002, 4.940112e+002
8.565585e+002, 4.922966e+002
8.570406e+002, 4.909491e+002
8.575228e+002, 4.899473e+002
8.580049e+002, 4.890047e+002
8.584870e+002, 4.886612e+002
8.589691e+002, 4.874595e+002
8.594512e+002, 4.844263e+002
8.599333e+002, 4.814098e+002
8.604155e+002, 4.794630e+002
8.608976e+002, 4.781920e+002
8.613797e+002, 4.767712e+002
8.618618e+002, 4.750278e+002
8.623439e+002, 4.733199e+002
8.628260e+002, 4.717620e+002
8.633082e+002, 4.703297e+002
8.637903e+002, 4.691630e+002
8.642724e+002, 4.680483e+002
8.647545e+002, 4.665299e+002
8.652366e+002, 4.645760e+002
8.657188e+002, 4.627119e+002
8.662009e+002, 4.614078e+002
8.666830e+002, 4.603001e+002
8.671651e+002, 4.585444e+002
8.676472e+002, 4.562837e+002
8.681293e+002, 4.545160e+002
8.686115e+002, 4.534091e+002
8.690936e+002, 4.523145e+002
8.695757e+002, 4.508478e+002
8.700578e+002, 4.491450e+002
8.705399e+002, 4.474762e+002
8.710220e+002, 4.458737e+002
8.715042e+002, 4.441668e+002
8.719863e+002, 4.424661e+002
8.724684e+002, 4.405031e+002
8.729505e+002, 4.377505e+002
8.734326e+002, 4.350402e+002
8.739147e+002, 4.332687e+002
8.743969e+002, 4.322893e+002
8.748790e+002, 4.310444e+002
8.753611e+002, 4.286436e+002
8.758432e+002, 4.269399e+002
8.763253e+002, 4.277457e+002
8.768074e+002, 4.285422e+002
8.772896e+002, 4.268270e+002
8.777717e+002, 4.232938e+002
8.782538e+002, 4.198296e+002
8.787359e+002, 4.171300e+002
8.792180e+002, 4.150659e+002
8.797001e+002, 4.138281e+002
8.801823e+002, 4.129752e+002
8.806644e+002, 4.118082e+002
8.811465e+002, 4.102902e+002
8.816286e+002, 4.081557e+002
8.821107e+002, 4.053658e+002
8.825928e+002, 4.027487e+002
8.830750e+002, 4.010718e+002
8.835571e+002, 4.000975e+002
8.840392e+002, 3.991529e+002
8.845213e+002, 3.983629e+002
8.850034e+002, 3.968272e+002
8.854855e+002, 3.941567e+002
8.859677e+002, 3.914658e+002
8.864498e+002, 3.892347e+002
8.869319e+002, 3.874030e+002
8.874140e+002, 3.860059e+002
8.878961e+002, 3.851851e+002
8.883782e+002, 3.838934e+002
8.888604e+002, 3.815986e+002
8.893425e+002, 3.794991e+002
8.898246e+002, 3.780640e+002
8.903067e+002, 3.768429e+002
8.907888e+002, 3.754923e+002
8.912709e+002, 3.739919e+002
8.917531e+002, 3.724091e+002
8.922352e+002, 3.707247e+002
8.927173e+002, 3.690820e+002
8.931994e+002, 3.676485e+002
8.936815e+002, 3.662641e+002
8.941636e+002, 3.648021e+002
8.946458e+002, 3.632148e+002
8.951279e+002, 3.613192e+002
8.956100e+002, 3.591052e+002
8.960921e+002, 3.571410e+002
8.965742e+002, 3.560519e+002
8.970563e+002, 3.555150e+002
8.975385e+002, 3.547291e+002
8.980206e+002, 3.536915e+002
8.985027e+002, 3.523765e+002
8.989848e+002, 3.507588e+002
8.994669e+002, 3.490508e+002
8.999490e+002, 3.473372e+002
9.004312e+002, 3.456920e+002
9.009133e+002, 3.442889e+002
9.013954e+002, 3.431881e+002
9.018775e+002, 3.420551e+002
9.023596e+002, 3.408759e+002
9.028417e+002, 3.396806e+002
9.033239e+002, 3.385399e+002
9.038060e+002, 3.373305e+002
9.042881e+002, 3.357872e+002
9.047702e+002, 3.340153e+002
9.052523e+002, 3.326929e+002
9.057344e+002, 3.324983e+002
9.062166e+002, 3.318751e+002
9.066987e+002, 3.300236e+002
9.071808e+002, 3.280220e+002
9.076629e+002, 3.266466e+002
9.081450e+002, 3.256954e+002
9.086271e+002, 3.246939e+002
9.091093e+002, 3.235204e+002
9.095914e+002, 3.223453e+002
9.100735e+002, 3.213404e+002
9.105556e+002, 3.203595e+002
9.110377e+002, 3.191384e+002
9.115198e+002, 3.178476e+002
9.120020e+002, 3.169650e+002
9.124841e+002, 3.164741e+002
9.129662e+002, 3.158188e+002
9.134483e+002, 3.146427e+002
9.139304e+002, 3.131472e+002
9.144125e+002, 3.114799e+002
9.148947e+002, 3.097273e+002
9.153768e+002, 3.086799e+002
9.158589e+002, 3.084096e+002
9.163410e+002, 3.080316e+002
9.168231e+002, 3.072119e+002
9.173052e+002, 3.062216e+002
9.177874e+002, 3.053569e+002
9.182695e+002, 3.046032e+002
9.187516e+002, 3.038554e+002
9.192337e+002, 3.031686e+002
9.197158e+002, 3.023355e+002
9.201979e+002, 3.010807e+002
9.206801e+002, 3.000034e+002
9.211622e+002, 2.996544e+002
9.216443e+002, 2.995992e+002
9.221264e+002, 2.991011e+002
9.226085e+002, 2.980509e+002
9.230906e+002, 2.971993e+002
9.235728e+002, 2.968756e+002
9.240549e+002, 2.964810e+002
9.245370e+002, 2.958223e+002
9.250191e+002, 2.949726e+002
9.255012e+002, 2.938828e+002
9.259833e+002, 2.926767e+002
9.264655e+002, 2.916602e+002
9.269476e+002, 2.909689e+002
9.274297e+002, 2.904008e+002
9.279118e+002, 2.898737e+002
9.283939e+002, 2.893492e+002
9.288760e+002, 2.887836e+002
9.293582e+002, 2.881850e+002
9.298403e+002, 2.875684e+002
9.303224e+002, 2.869454e+002
9.308045e+002, 2.863371e+002
9.312866e+002, 2.857218e+002
9.317687e+002, 2.852154e+002
9.322509e+002, 2.851215e+002
9.327330e+002, 2.853464e+002
9.332151e+002, 2.855829e+002
9.336972e+002, 2.857727e+002
9.341793e+002, 2.853912e+002
9.346614e+002, 2.841256e+002
9.351436e+002, 2.825640e+002
9.356257e+002, 2.815706e+002
9.361078e+002, 2.811167e+002
9.365899e+002, 2.806395e+002
9.370720e+002, 2.801412e+002
9.375541e+002, 2.796057e+002
9.380363e+002, 2.789772e+002
9.385184e+002, 2.784228e+002
9.390005e+002, 2.781085e+002
9.394826e+002, 2.779357e+002
9.399647e+002, 2.776199e+002
9.404468e+002, 2.770921e+002
9.409290e+002, 2.766047e+002
9.414111e+002, 2.763979e+002
9.418932e+002, 2.759195e+002
9.423753e+002, 2.744944e+002
9.428574e+002, 2.731234e+002
9.433395e+002, 2.730087e+002
9.438217e+002, 2.738758e+002
9.443038e+002, 2.741774e+002
9.447859e+002, 2.733006e+002
9.452680e+002, 2.723473e+002
9.457501e+002, 2.716323e+002
9.462322e+002, 2.710644e+002
9.467144e+002, 2.706345e+002
9.471965e+002, 2.702797e+002
9.476786e+002, 2.698703e+002
9.481607e+002, 2.694014e+002
9.486428e+002, 2.690751e+002
9.491249e+002, 2.691210e+002
9.496071e+002, 2.692362e+002
9.500892e+002, 2.690822e+002
9.505713e+002, 2.688009e+002
9.510534e+002, 2.685982e+002
9.515355e+002, 2.685078e+002
9.520176e+002, 2.686219e+002
9.524998e+002, 2.689713e+002
9.529819e+002, 2.691003e+002
9.534640e+002, 2.682619e+002
9.539461e+002, 2.668519e+002
9.544282e+002, 2.661029e+002
9.549103e+002, 2.659436e+002
9.553925e+002, 2.658852e+002
9.558746e+002, 2.658244e+002
9.563567e+002, 2.656039e+002
9.568388e+002, 2.650793e+002
9.573209e+002, 2.644486e+002
9.578030e+002, 2.642021e+002
9.582852e+002, 2.644010e+002
9.587673e+002, 2.642052e+002
9.592494e+002, 2.634605e+002
9.597315e+002, 2.629770e+002
9.602136e+002, 2.631548e+002
9.606957e+002, 2.633578e+002
9.611779e+002, 2.629553e+002
9.616600e+002, 2.620578e+002
9.621421e+002, 2.612492e+002
9.626242e+002, 2.604163e+002
9.631063e+002, 2.599050e+002
9.635884e+002, 2.599479e+002
9.640706e+002, 2.600298e+002
9.645527e+002, 2.600418e+002
9.650348e+002, 2.599408e+002
9.655169e+002, 2.596047e+002
9.659990e+002, 2.590588e+002
9.664811e+002, 2.586704e+002
9.669633e+002, 2.585548e+002
9.674454e+002, 2.585094e+002
9.679275e+002, 2.585698e+002
9.684096e+002, 2.586042e+002
9.688917e+002, 2.585469e+002
9.693738e+002, 2.583921e+002
9.698560e+002, 2.581609e+002
9.703381e+002, 2.578526e+002
9.708202e+002, 2.573805e+002
9.713023e+002, 2.562740e+002
9.717844e+002, 2.554801e+002
9.722665e+002, 2.561624e+002
9.727487e+002, 2.571420e+002
9.732308e+002, 2.567837e+002
9.737129e+002, 2.554302e+002
9.741950e+002, 2.544961e+002
9.746771e+002, 2.545275e+002
9.751592e+002, 2.548987e+002
9.756414e+002, 2.552496e+002
9.761235e+002, 2.554663e+002
9.766056e+002, 2.552759e+002
9.770877e+002, 2.548490e+002
9.775698e+002, 2.545903e+002
9.780519e+002, 2.545546e+002
9.785341e+002, 2.545748e+002
9.790162e+002, 2.545544e+002
9.794983e+002, 2.545199e+002
9.799804e+002, 2.545412e+002
9.804625e+002, 2.545797e+002
9.809446e+002, 2.545403e+002
9.814268e+002, 2.543999e+002
9.819089e+002, 2.538205e+002
9.823910e+002, 2.527085e+002
9.828731e+002, 2.518559e+002
9.833552e+002, 2.519568e+002
9.838373e+002, 2.525918e+002
9.843195e+002, 2.526617e+002
9.848016e+002, 2.521309e+002
9.852837e+002, 2.518936e+002
9.857658e+002, 2.520554e+002
9.862479e+002, 2.520508e+002
9.867300e+002, 2.516501e+002
9.872122e+002, 2.511036e+002
9.876943e+002, 2.506228e+002
9.881764e+002, 2.502235e+002
9.886585e+002, 2.500048e+002
9.891406e+002, 2.500389e+002
9.896227e+002, 2.500399e+002
9.901049e+002, 2.499712e+002
9.905870e+002, 2.499126e+002
9.910691e+002, 2.498745e+002
9.915512e+002, 2.498860e+002
9.920333e+002, 2.500544e+002
9.925154e+002, 2.503657e+002
9.929976e+002, 2.503815e+002
9.934797e+002, 2.499163e+002
9.939618e+002, 2.494411e+002
9.944439e+002, 2.488030e+002
9.949260e+002, 2.483542e+002
9.954081e+002, 2.483352e+002
9.958903e+002, 2.485640e+002
9.963724e+002, 2.488869e+002
9.968545e+002, 2.492796e+002
9.973366e+002, 2.493910e+002
9.978187e+002, 2.491176e+002
9.983008e+002, 2.486033e+002
9.987830e+002, 2.475470e+002
9.992651e+002, 2.465924e+002
9.997472e+002, 2.462175e+002
1.000229e+003, 2.462702e+002
1.000711e+003, 2.465422e+002
1.001194e+003, 2.469756e+002
1.001676e+003, 2.471484e+002
1.002158e+003, 2.466338e+002
1.002640e+003, 2.461000e+002
1.003122e+003, 2.460999e+002
1.003604e+003, 2.461448e+002
1.004086e+003, 2.455095e+002
1.004568e+003, 2.445219e+002
1.005050e+003, 2.441083e+002
1.005533e+003, 2.445502e+002
1.006015e+003, 2.451013e+002
1.006497e+003, 2.452109e+002
1.006979e+003, 2.452230e+002
1.007461e+003, 2.456519e+002
1.007943e+003, 2.461094e+002
1.008425e+003, 2.458935e+002
1.008907e+003, 2.450971e+002
1.009390e+003, 2.442918e+002
1.009872e+003, 2.437194e+002
1.010354e+003, 2.433100e+002
1.010836e+003, 2.429056e+002
1.011318e+003, 2.426756e+002
1.011800e+003, 2.427825e+002
1.012282e+003, 2.433131e+002
1.012764e+003, 2.450983e+002
1.013246e+003, 2.477685e+002
1.013729e+003, 2.487252e+002
1.014211e+003, 2.465535e+002
1.014693e+003, 2.435682e+002
1.015175e+003, 2.430039e+002
1.015657e+003, 2.439658e+002
1.016139e+003, 2.437616e+002
1.016621e+003, 2.426309e+002
1.017103e+003, 2.418383e+002
1.017586e+003, 2.416099e+002
1.018068e+003, 2.413235e+002
1.018550e+003, 2.405721e+002
1.019032e+003, 2.397998e+002
1.019514e+003, 2.398575e+002
1.019996e+003, 2.406038e+002
1.020478e+003, 2.410608e+002
1.020960e+003, 2.412314e+002
1.021442e+003, 2.411063e+002
1.021925e+003, 2.406698e+002
1.022407e+003, 2.401560e+002
1.022889e+003, 2.397017e+002
1.023371e+003, 2.393721e+002
1.023853e+003, 2.393520e+002
1.024335e+003, 2.396448e+002
1.024817e+003, 2.397027e+002
1.025299e+003, 2.394780e+002
1.025781e+003, 2.393841e+002
1.026264e+003, 2.395441e+002
1.026746e+003, 2.397590e+002
1.027228e+003, 2.398995e+002
1.027710e+003, 2.399588e+002
1.028192e+003, 2.399344e+002
1.028674e+003, 2.398422e+002
1.029156e+003, 2.392510e+002
1.029638e+003, 2.373783e+002
1.030120e+003, 2.380730e+002
1.030603e+003, 2.439232e+002
1.031085e+003, 2.488993e+002
1.031567e+003, 2.477680e+002
1.032049e+003, 2.427815e+002
1.032531e+003, 2.398907e+002
1.033013e+003, 2.395366e+002
1.033495e+003, 2.393227e+002
1.033977e+003, 2.393526e+002
1.034460e+003, 2.393030e+002
1.034942e+003, 2.390501e+002
1.035424e+003, 2.387618e+002
1.035906e+003, 2.385783e+002
1.036388e+003, 2.384574e+002
1.036870e+003, 2.382627e+002
1.037352e+003, 2.379297e+002
1.037834e+003, 2.377616e+002
1.038317e+003, 2.380172e+002
1.038799e+003, 2.380350e+002
1.039281e+003, 2.373659e+002
1.039763e+003, 2.367077e+002
1.040245e+003, 2.366416e+002
1.040727e+003, 2.369893e+002
1.041209e+003, 2.372740e+002
1.041691e+003, 2.375625e+002
1.042173e+003, 2.375696e+002
1.042656e+003, 2.369141e+002
1.043138e+003, 2.364824e+002
1.043620e+003, 2.366975e+002
1.044102e+003, 2.370188e+002
1.044584e+003, 2.370286e+002
1.045066e+003, 2.368278e+002
1.045548e+003, 2.366825e+002
1.046030e+003, 2.365945e+002
1.046512e+003, 2.366250e+002
1.046995e+003, 2.369723e+002
1.047477e+003, 2.371846e+002
1.047959e+003, 2.369562e+002
1.048441e+003, 2.367000e+002
1.048923e+003, 2.368490e+002
1.049405e+003, 2.372036e+002
1.049887e+003, 2.372573e+002
1.050369e+003, 2.369126e+002
1.050852e+003, 2.364664e+002
1.051334e+003, 2.356877e+002
1.051816e+003, 2.351926e+002
1.052298e+003, 2.353500e+002
1.052780e+003, 2.357305e+002
1.053262e+003, 2.361302e+002
1.053744e+003, 2.364382e+002
1.054226e+003, 2.364602e+002
1.054708e+003, 2.361398e+002
1.055191e+003, 2.357468e+002
1.055673e+003, 2.352092e+002
1.056155e+003, 2.347972e+002
1.056637e+003, 2.345019e+002
1.057119e+003, 2.344771e+002
1.057601e+003, 2.350653e+002
1.058083e+003, 2.359523e+002
1.058565e+003, 2.365335e+002
1.059047e+003, 2.366922e+002
1.059530e+003, 2.365707e+002
1.060012e+003, 2.358742e+002
1.060494e+003, 2.353471e+002
1.060976e+003, 2.354416e+002
1.061458e+003, 2.357110e+002
1.061940e+003, 2.359501e+002
1.062422e+003, 2.360204e+002
1.062904e+003, 2.356056e+002
1.063387e+003, 2.346560e+002
1.063869e+003, 2.340209e+002
1.064351e+003, 2.343816e+002
1.064833e+003, 2.346481e+002
1.065315e+003, 2.340045e+002
1.065797e+003, 2.333740e+002
1.066279e+003, 2.337504e+002
1.066761e+003, 2.346187e+002
1.067244e+003, 2.349707e+002
1.067726e+003, 2.346450e+002
1.068208e+003, 2.342639e+002
1.068690e+003, 2.339748e+002
1.069172e+003, 2.338215e+002
1.069654e+003, 2.339803e+002
1.070136e+003, 2.341331e+002
1.070618e+003, 2.338742e+002
1.071100e+003, 2.334981e+002
1.071583e+003, 2.336089e+002
1.072065e+003, 2.342222e+002
1.072547e+003, 2.345957e+002
1.073029e+003, 2.342398e+002
1.073511e+003, 2.339188e+002
1.073993e+003, 2.340388e+002
1.074475e+003, 2.342866e+002
1.074957e+003, 2.345810e+002
1.075439e+003, 2.347547e+002
1.075922e+003, 2.345080e+002
1.076404e+003, 2.338860e+002
1.076886e+003, 2.333515e+002
1.077368e+003, 2.330214e+002
1.077850e+003, 2.329303e+002
1.078332e+003, 2.335135e+002
1.078814e+003, 2.338976e+002
1.079297e+003, 2.328987e+002
1.079779e+003, 2.316578e+002
1.080261e+003, 2.319528e+002
1.080743e+003, 2.335777e+002
1.081225e+003, 2.347433e+002
1.081707e+003, 2.347757e+002
1.082189e+003, 2.345563e+002
1.082671e+003, 2.344378e+002
1.083153e+003, 2.342491e+002
1.083635e+003, 2.336860e+002
1.084118e+003, 2.331314e+002
1.084600e+003, 2.331160e+002
1.085082e+003, 2.335179e+002
1.085564e+003, 2.338013e+002
1.086046e+003, 2.338033e+002
1.086528e+003, 2.337477e+002
1.087010e+003, 2.336006e+002
1.087492e+003, 2.335775e+002
1.087975e+003, 2.340975e+002
1.088457e+003, 2.345590e+002
1.088939e+003, 2.341939e+002
1.089421e+003, 2.332943e+002
1.089903e+003, 2.326751e+002
1.090385e+003, 2.325341e+002
1.090867e+003, 2.325185e+002
1.091349e+003, 2.326591e+002
1.091832e+003, 2.326850e+002
1.092314e+003, 2.322970e+002
1.092796e+003, 2.319007e+002
1.093278e+003, 2.318630e+002
1.093760e+003, 2.320705e+002
1.094242e+003, 2.323415e+002
1.094724e+003, 2.326347e+002
1.095206e+003, 2.326456e+002
1.095688e+003, 2.316712e+002
1.096171e+003, 2.312370e+002
1.096653e+003, 2.325898e+002
1.097135e+003, 2.339208e+002
1.097617e+003, 2.337781e+002
1.098099e+003, 2.329124e+002
1.098581e+003, 2.324972e+002
1.099063e+003, 2.326352e+002
1.099545e+003, 2.327878e+002
1.100027e+003, 2.329124e+002
1.100510e+003, 2.328915e+002
1.100992e+003, 2.325231e+002
1.101474e+003, 2.321983e+002
1.101956e+003, 2.321836e+002
1.102438e+003, 2.322882e+002
1.102920e+003, 2.322424e+002
1.103402e+003, 2.320897e+002
1.103884e+003, 2.321474e+002
1.104367e+003, 2.326063e+002
1.104849e+003, 2.329214e+002
1.105331e+003, 2.327742e+002
1.105813e+003, 2.327502e+002
1.106295e+003, 2.333838e+002
1.106777e+003, 2.339735e+002
1.107259e+003, 2.336304e+002
1.107741e+003, 2.327513e+002
1.108224e+003, 2.326058e+002
1.108706e+003, 2.335771e+002
1.109188e+003, 2.341315e+002
1.109670e+003, 2.338918e+002
1.110152e+003, 2.335630e+002
1.110634e+003, 2.331832e+002
1.111116e+003, 2.328901e+002
1.111598e+003, 2.327911e+002
1.112080e+003, 2.328312e+002
1.112563e+003, 2.328659e+002
1.113045e+003, 2.328594e+002
1.113527e+003, 2.331814e+002
1.114009e+003, 2.343776e+002
1.114491e+003, 2.350081e+002
1.114973e+003, 2.344895e+002
1.115455e+003, 2.339848e+002
1.115937e+003, 2.341473e+002
1.116419e+003, 2.345249e+002
1.116902e+003, 2.344715e+002
1.117384e+003, 2.340491e+002
1.117866e+003, 2.340338e+002
1.118348e+003, 2.348241e+002
1.118830e+003, 2.350446e+002
1.119312e+003, 2.341841e+002
1.119794e+003, 2.337188e+002
1.120276e+003, 2.344489e+002
1.120759e+003, 2.353091e+002
1.121241e+003, 2.352276e+002
1.121723e+003, 2.345080e+002
1.122205e+003, 2.342385e+002
1.122687e+003, 2.345025e+002
1.123169e+003, 2.348407e+002
1.123651e+003, 2.352966e+002
1.124133e+003, 2.356900e+002
1.124615e+003, 2.359985e+002
1.125098e+003, 2.361460e+002
1.125580e+003, 2.360159e+002
1.126062e+003, 2.358213e+002
1.126544e+003, 2.360056e+002
1.127026e+003, 2.365581e+002
1.127508e+003, 2.369779e+002
1.127990e+003, 2.372664e+002
1.128472e+003, 2.373885e+002
1.128954e+003, 2.373148e+002
1.129437e+003, 2.372491e+002
1.129919e+003, 2.372891e+002
1.130401e+003, 2.374014e+002
1.130883e+003, 2.375694e+002
1.131365e+003, 2.377477e+002
1.131847e+003, 2.377253e+002
1.132329e+003, 2.375148e+002
1.132811e+003, 2.372984e+002
1.133294e+003, 2.370997e+002
1.133776e+003, 2.373609e+002
1.134258e+003, 2.382311e+002
1.134740e+003, 2.389961e+002
1.135222e+003, 2.390227e+002
1.135704e+003, 2.387229e+002
1.136186e+003, 2.389555e+002
1.136668e+003, 2.395554e+002
1.137151e+003, 2.398197e+002
1.137633e+003, 2.398115e+002
1.138115e+003, 2.399736e+002
1.138597e+003, 2.403606e+002
1.139079e+003, 2.405940e+002
1.139561e+003, 2.404577e+002
1.140043e+003, 2.403022e+002
1.140525e+003, 2.406399e+002
1.141007e+003, 2.411778e+002
1.141490e+003, 2.413129e+002
1.141972e+003, 2.412199e+002
1.142454e+003, 2.413235e+002
1.142936e+003, 2.415933e+002
1.143418e+003, 2.416919e+002
1.143900e+003, 2.415275e+002
1.144382e+003, 2.414260e+002
1.144864e+003, 2.416748e+002
1.145346e+003, 2.420095e+002
1.145829e+003, 2.421770e+002
1.146311e+003, 2.422381e+002
1.146793e+003, 2.421708e+002
1.147275e+003, 2.421004e+002
1.147757e+003, 2.423401e+002
1.148239e+003, 2.428408e+002
1.148721e+003, 2.431079e+002
1.149203e+003, 2.428559e+002
1.149686e+003, 2.426544e+002
1.150168e+003, 2.428264e+002
1.150650e+003, 2.432335e+002
1.151132e+003, 2.441957e+002
1.151614e+003, 2.450134e+002
1.152096e+003, 2.445504e+002
1.152578e+003, 2.433589e+002
1.153060e+003, 2.429656e+002
1.153542e+003, 2.437326e+002
1.154025e+003, 2.445340e+002
1.154507e+003, 2.449752e+002
1.154989e+003, 2.453945e+002
1.155471e+003, 2.461059e+002
1.155953e+003, 2.466182e+002
1.156435e+003, 2.463665e+002
1.156917e+003, 2.458694e+002
1.157399e+003, 2.458825e+002
1.157881e+003, 2.463943e+002
1.158364e+003, 2.468233e+002
1.158846e+003, 2.470452e+002
1.159328e+003, 2.473110e+002
1.159810e+003, 2.478775e+002
1.160292e+003, 2.481526e+002
1.160774e+003, 2.475970e+002
1.161256e+003, 2.471122e+002
1.161738e+003, 2.476428e+002
1.162221e+003, 2.486395e+002
1.162703e+003, 2.486608e+002
1.163185e+003, 2.474831e+002
1.163667e+003, 2.472783e+002
1.164149e+003, 2.486001e+002
1.164631e+003, 2.492039e+002
1.165113e+003, 2.484512e+002
1.165595e+003, 2.478672e+002
1.166078e+003, 2.482743e+002
1.166560e+003, 2.490635e+002
1.167042e+003, 2.495019e+002
1.167524e+003, 2.496487e+002
1.168006e+003, 2.497453e+002
1.168488e+003, 2.497862e+002
1.168970e+003, 2.499566e+002
1.169452e+003, 2.502704e+002
1.169934e+003, 2.505629e+002
1.170417e+003, 2.507856e+002
1.170899e+003, 2.510563e+002
1.171381e+003, 2.514664e+002
1.171863e+003, 2.519359e+002
1.172345e+003, 2.524012e+002
1.172827e+003, 2.527990e+002
1.173309e+003, 2.527618e+002
1.173791e+003, 2.524535e+002
1.174273e+003, 2.525895e+002
1.174756e+003, 2.531640e+002
1.175238e+003, 2.535762e+002
1.175720e+003, 2.536014e+002
1.176202e+003, 2.535994e+002
1.176684e+003, 2.539241e+002
1.177166e+003, 2.542916e+002
1.177648e+003, 2.543230e+002
1.178130e+003, 2.541865e+002
1.178613e+003, 2.540386e+002
1.179095e+003, 2.539621e+002
1.179577e+003, 2.541649e+002
1.180059e+003, 2.545843e+002
1.180541e+003, 2.547862e+002
1.181023e+003, 2.545229e+002
1.181505e+003, 2.544131e+002
1.181987e+003, 2.549999e+002
1.182469e+003, 2.556683e+002
1.182952e+003, 2.560730e+002
1.183434e+003, 2.563049e+002
1.183916e+003, 2.563165e+002
1.184398e+003, 2.562937e+002
1.184880e+003, 2.565999e+002
1.185362e+003, 2.572766e+002
1.185844e+003, 2.579232e+002
1.186326e+003, 2.585405e+002
1.186808e+003, 2.589718e+002
1.187291e+003, 2.590164e+002
1.187773e+003, 2.590797e+002
1.188255e+003, 2.594870e+002
1.188737e+003, 2.598611e+002
1.189219e+003, 2.596538e+002
1.189701e+003, 2.591702e+002
1.190183e+003, 2.594352e+002
1.190665e+003, 2.607227e+002
1.191148e+003, 2.612889e+002
1.191630e+003, 2.607884e+002
1.192112e+003, 2.605515e+002
1.192594e+003, 2.608670e+002
1.193076e+003, 2.612641e+002
1.193558e+003, 2.614833e+002
1.194040e+003, 2.617241e+002
1.194522e+003, 2.622742e+002
1.195005e+003, 2.630196e+002
1.195487e+003, 2.635128e+002
1.195969e+003, 2.637520e+002
1.196451e+003, 2.636253e+002
1.196933e+003, 2.631548e+002
1.197415e+003, 2.629619e+002
1.197897e+003, 2.631960e+002
1.198379e+003, 2.635011e+002
1.198861e+003, 2.636541e+002
1.199344e+003, 2.637351e+002
1.199826e+003, 2.637536e+002
1.200308e+003, 2.638446e+002
1.200790e+003, 2.644498e+002
1.201272e+003, 2.652803e+002
1.201754e+003, 2.656013e+002
1.202236e+003, 2.655454e+002
1.202718e+003, 2.656344e+002
1.203200e+003, 2.660760e+002
1.203683e+003, 2.671810e+002
1.204165e+003, 2.696086e+002
1.204647e+003, 2.714377e+002
1.205129e+003, 2.706067e+002
1.205611e+003, 2.692174e+002
1.206093e+003, 2.687688e+002
1.206575e+003, 2.690368e+002
1.207057e+003, 2.701546e+002
1.207540e+003, 2.715374e+002
1.208022e+003, 2.715897e+002
1.208504e+003, 2.698235e+002
1.208986e+003, 2.689745e+002
1.209468e+003, 2.705675e+002
1.209950e+003, 2.718217e+002
1.210432e+003, 2.718740e+002
1.210914e+003, 2.717491e+002
1.211396e+003, 2.718303e+002
1.211879e+003, 2.721159e+002
1.212361e+003, 2.728004e+002
1.212843e+003, 2.736528e+002
1.213325e+003, 2.736024e+002
1.213807e+003, 2.721974e+002
1.214289e+003, 2.722155e+002
1.214771e+003, 2.741342e+002
1.215253e+003, 2.755189e+002
1.215735e+003, 2.757958e+002
1.216218e+003, 2.759257e+002
1.216700e+003, 2.764085e+002
1.217182e+003, 2.770870e+002
1.217664e+003, 2.778185e+002
1.218146e+003, 2.785197e+002
1.218628e+003, 2.789508e+002
1.219110e+003, 2.791224e+002
1.219592e+003, 2.789985e+002
1.220075e+003, 2.786605e+002
1.220557e+003, 2.784115e+002
1.221039e+003, 2.783731e+002
1.221521e+003, 2.788279e+002
1.222003e+003, 2.799528e+002
1.222485e+003, 2.811430e+002
1.222967e+003, 2.817256e+002
1.223449e+003, 2.821115e+002
1.223932e+003, 2.829632e+002
1.224414e+003, 2.837625e+002
1.224896e+003, 2.835704e+002
1.225378e+003, 2.828840e+002
1.225860e+003, 2.828200e+002
1.226342e+003, 2.834854e+002
1.226824e+003, 2.841249e+002
1.227306e+003, 2.844843e+002
1.227788e+003, 2.847850e+002
1.228271e+003, 2.847584e+002
1.228753e+003, 2.851394e+002
1.229235e+003, 2.867167e+002
1.229717e+003, 2.883572e+002
1.230199e+003, 2.892029e+002
1.230681e+003, 2.894596e+002
1.231163e+003, 2.894506e+002
1.231645e+003, 2.891878e+002
1.232127e+003, 2.893098e+002
1.232610e+003, 2.899912e+002
1.233092e+003, 2.905161e+002
1.233574e+003, 2.908174e+002
1.234056e+003, 2.910494e+002
1.234538e+003, 2.911962e+002
1.235020e+003, 2.916537e+002
1.235502e+003, 2.928079e+002
1.235984e+003, 2.940313e+002
1.236467e+003, 2.941201e+002
1.236949e+003, 2.933842e+002
1.237431e+003, 2.930167e+002
1.237913e+003, 2.930171e+002
1.238395e+003, 2.935476e+002
1.238877e+003, 2.944731e+002
1.239359e+003, 2.951238e+002
1.239841e+003, 2.953351e+002
1.240323e+003, 2.955365e+002
1.240806e+003, 2.959855e+002
1.241288e+003, 2.965938e+002
1.241770e+003, 2.973636e+002
1.242252e+003, 2.981578e+002
1.242734e+003, 2.990405e+002
1.243216e+003, 2.997149e+002
1.243698e+003, 2.995268e+002
1.244180e+003, 2.989499e+002
1.244662e+003, 2.991282e+002
1.245145e+003, 3.001818e+002
1.245627e+003, 3.008971e+002
1.246109e+003, 3.006832e+002
1.246591e+003, 3.006279e+002
1.247073e+003, 3.009613e+002
1.247555e+003, 3.014262e+002
1.248037e+003, 3.020858e+002
1.248519e+003, 3.026708e+002
1.249002e+003, 3.030305e+002
1.249484e+003, 3.031476e+002
1.249966e+003, 3.028922e+002
1.250448e+003, 3.023199e+002
1.250930e+003, 3.024919e+002
1.251412e+003, 3.035091e+002
1.251894e+003, 3.041280e+002
1.252376e+003, 3.042423e+002
1.252859e+003, 3.042946e+002
1.253341e+003, 3.044198e+002
1.253823e+003, 3.047747e+002
1.254305e+003, 3.054767e+002
1.254787e+003, 3.063560e+002
1.255269e+003, 3.074223e+002
1.255751e+003, 3.083174e+002
1.256233e+003, 3.080662e+002
1.256715e+003, 3.073333e+002
1.257198e+003, 3.074369e+002
1.257680e+003, 3.081442e+002
1.258162e+003, 3.085826e+002
1.258644e+003, 3.085958e+002
1.259126e+003, 3.085690e+002
1.259608e+003, 3.086614e+002
1.260090e+003, 3.087493e+002
1.260572e+003, 3.087805e+002
1.261054e+003, 3.087896e+002
1.261537e+003, 3.086938e+002
1.262019e+003, 3.086861e+002
1.262501e+003, 3.089706e+002
1.262983e+003, 3.094080e+002
1.263465e+003, 3.098409e+002
1.263947e+003, 3.102355e+002
1.264429e+003, 3.103055e+002
1.264911e+003, 3.098285e+002
1.265394e+003, 3.098434e+002
1.265876e+003, 3.105072e+002
1.266358e+003, 3.109385e+002
1.266840e+003, 3.109052e+002
1.267322e+003, 3.108652e+002
1.267804e+003, 3.110734e+002
1.268286e+003, 3.113575e+002
1.268768e+003, 3.115107e+002
1.269250e+003, 3.115866e+002
1.269733e+003, 3.118355e+002
1.270215e+003, 3.120504e+002
1.270697e+003, 3.113807e+002
1.271179e+003, 3.103167e+002
1.271661e+003, 3.104027e+002
1.272143e+003, 3.115439e+002
1.272625e+003, 3.122569e+002
1.273107e+003, 3.119870e+002
1.273589e+003, 3.116858e+002
1.274072e+003, 3.119479e+002
1.274554e+003, 3.122842e+002
1.275036e+003, 3.126757e+002
1.275518e+003, 3.128042e+002
1.276000e+003, 3.121631e+002
1.276482e+003, 3.113724e+002
1.276964e+003, 3.112278e+002
1.277446e+003, 3.115497e+002
1.277929e+003, 3.115262e+002
1.278411e+003, 3.111000e+002
1.278893e+003, 3.109223e+002
1.279375e+003, 3.110162e+002
1.279857e+003, 3.113469e+002
1.280339e+003, 3.119883e+002
1.280821e+003, 3.124561e+002
1.281303e+003, 3.125880e+002
1.281786e+003, 3.126847e+002
1.282268e+003, 3.129336e+002
##END=



