##NAMES=Kesterite
##RRUFFID=R120098
##IDEAL CHEMISTRY=Cu^1+^_2_Zn^2+^Sn^4+^S^2-^_4_
##LOCALITY=Xuebaoding, Sichuan Province, China
##OWNER=RRUFF
##SOURCE=Marcus Origlieri
##DESCRIPTION=Metallic gray surficially altered to green mushistonite
##STATUS=The identification of this mineral is confirmed by single-crystal X-ray diffraction and chemical analysis.
##URL=rruff.info/R120098
##MEASURED CHEMISTRY=Cu_2.04_(Zn_0.84_Fe_0.18_)Sn_1.01_S_4_
8.975323e+001, 0.000000e+000
9.023535e+001, 5.628691e+002
9.071747e+001, 5.471473e+002
9.119958e+001, 5.393870e+002
9.168170e+001, 5.534185e+002
9.216382e+001, 5.707481e+002
9.264594e+001, 5.883377e+002
9.312805e+001, 6.067347e+002
9.361017e+001, 6.256078e+002
9.409229e+001, 6.420996e+002
9.457440e+001, 6.628165e+002
9.505651e+001, 6.695238e+002
9.553863e+001, 6.640031e+002
9.602074e+001, 6.476357e+002
9.650286e+001, 6.188602e+002
9.698498e+001, 5.764720e+002
9.746709e+001, 5.249271e+002
9.794921e+001, 4.839053e+002
9.843133e+001, 4.535292e+002
9.891344e+001, 4.293788e+002
9.939556e+001, 4.114979e+002
9.987768e+001, 3.988062e+002
1.003598e+002, 3.890572e+002
1.008419e+002, 3.810809e+002
1.013240e+002, 3.752376e+002
1.018061e+002, 3.713835e+002
1.022883e+002, 3.703587e+002
1.027704e+002, 3.706396e+002
1.032525e+002, 3.708717e+002
1.037346e+002, 3.709541e+002
1.042167e+002, 3.713986e+002
1.046988e+002, 3.732297e+002
1.051810e+002, 3.755003e+002
1.056631e+002, 3.766535e+002
1.061452e+002, 3.752316e+002
1.066273e+002, 3.720186e+002
1.071094e+002, 3.703809e+002
1.075915e+002, 3.716171e+002
1.080737e+002, 3.729128e+002
1.085558e+002, 3.728521e+002
1.090379e+002, 3.718307e+002
1.095200e+002, 3.709065e+002
1.100021e+002, 3.710480e+002
1.104842e+002, 3.724390e+002
1.109664e+002, 3.739543e+002
1.114485e+002, 3.748635e+002
1.119306e+002, 3.764438e+002
1.124127e+002, 3.795130e+002
1.128948e+002, 3.840711e+002
1.133769e+002, 3.894620e+002
1.138591e+002, 3.947206e+002
1.143412e+002, 3.998737e+002
1.148233e+002, 4.048937e+002
1.153054e+002, 4.102581e+002
1.157875e+002, 4.153098e+002
1.162696e+002, 4.192952e+002
1.167517e+002, 4.219251e+002
1.172339e+002, 4.236820e+002
1.177160e+002, 4.255056e+002
1.181981e+002, 4.268914e+002
1.186802e+002, 4.292154e+002
1.191623e+002, 4.333495e+002
1.196444e+002, 4.387960e+002
1.201266e+002, 4.442970e+002
1.206087e+002, 4.494478e+002
1.210908e+002, 4.541122e+002
1.215729e+002, 4.581556e+002
1.220550e+002, 4.611771e+002
1.225371e+002, 4.642520e+002
1.230193e+002, 4.685524e+002
1.235014e+002, 4.742784e+002
1.239835e+002, 4.795963e+002
1.244656e+002, 4.824905e+002
1.249477e+002, 4.848996e+002
1.254298e+002, 4.887357e+002
1.259120e+002, 4.949102e+002
1.263941e+002, 5.025114e+002
1.268762e+002, 5.094310e+002
1.273583e+002, 5.153400e+002
1.278404e+002, 5.211130e+002
1.283225e+002, 5.270353e+002
1.288047e+002, 5.330385e+002
1.292868e+002, 5.390516e+002
1.297689e+002, 5.451019e+002
1.302510e+002, 5.511467e+002
1.307331e+002, 5.565128e+002
1.312152e+002, 5.608569e+002
1.316974e+002, 5.648396e+002
1.321795e+002, 5.681949e+002
1.326616e+002, 5.712491e+002
1.331437e+002, 5.747574e+002
1.336258e+002, 5.795875e+002
1.341079e+002, 5.862714e+002
1.345901e+002, 5.905157e+002
1.350722e+002, 5.910043e+002
1.355543e+002, 5.906449e+002
1.360364e+002, 5.913901e+002
1.365185e+002, 5.933094e+002
1.370006e+002, 5.947843e+002
1.374828e+002, 5.937909e+002
1.379649e+002, 5.897132e+002
1.384470e+002, 5.859390e+002
1.389291e+002, 5.833055e+002
1.394112e+002, 5.808036e+002
1.398933e+002, 5.773395e+002
1.403755e+002, 5.727220e+002
1.408576e+002, 5.670004e+002
1.413397e+002, 5.599197e+002
1.418218e+002, 5.516469e+002
1.423039e+002, 5.431066e+002
1.427860e+002, 5.346503e+002
1.432681e+002, 5.262269e+002
1.437503e+002, 5.175607e+002
1.442324e+002, 5.084123e+002
1.447145e+002, 4.992153e+002
1.451966e+002, 4.903022e+002
1.456787e+002, 4.816944e+002
1.461608e+002, 4.732191e+002
1.466430e+002, 4.645439e+002
1.471251e+002, 4.555550e+002
1.476072e+002, 4.473583e+002
1.480893e+002, 4.406455e+002
1.485714e+002, 4.344530e+002
1.490535e+002, 4.281878e+002
1.495357e+002, 4.217757e+002
1.500178e+002, 4.156468e+002
1.504999e+002, 4.105468e+002
1.509820e+002, 4.067676e+002
1.514641e+002, 4.033929e+002
1.519462e+002, 4.004466e+002
1.524284e+002, 3.976957e+002
1.529105e+002, 3.948041e+002
1.533926e+002, 3.916841e+002
1.538747e+002, 3.886570e+002
1.543568e+002, 3.865713e+002
1.548389e+002, 3.871336e+002
1.553211e+002, 3.866067e+002
1.558032e+002, 3.837879e+002
1.562853e+002, 3.800953e+002
1.567674e+002, 3.771856e+002
1.572495e+002, 3.758811e+002
1.577316e+002, 3.759368e+002
1.582138e+002, 3.764143e+002
1.586959e+002, 3.776979e+002
1.591780e+002, 3.789047e+002
1.596601e+002, 3.796365e+002
1.601422e+002, 3.801141e+002
1.606243e+002, 3.808438e+002
1.611065e+002, 3.821032e+002
1.615886e+002, 3.838675e+002
1.620707e+002, 3.858359e+002
1.625528e+002, 3.881919e+002
1.630349e+002, 3.905520e+002
1.635170e+002, 3.926453e+002
1.639991e+002, 3.945018e+002
1.644813e+002, 3.964047e+002
1.649634e+002, 3.987841e+002
1.654455e+002, 4.012428e+002
1.659276e+002, 4.029460e+002
1.664097e+002, 4.038014e+002
1.668918e+002, 4.038756e+002
1.673740e+002, 4.030865e+002
1.678561e+002, 4.013104e+002
1.683382e+002, 3.992634e+002
1.688203e+002, 3.972730e+002
1.693024e+002, 3.952926e+002
1.697845e+002, 3.932379e+002
1.702667e+002, 3.910474e+002
1.707488e+002, 3.887909e+002
1.712309e+002, 3.865669e+002
1.717130e+002, 3.841642e+002
1.721951e+002, 3.822379e+002
1.726772e+002, 3.811631e+002
1.731594e+002, 3.805966e+002
1.736415e+002, 3.800014e+002
1.741236e+002, 3.789459e+002
1.746057e+002, 3.776216e+002
1.750878e+002, 3.772231e+002
1.755699e+002, 3.782700e+002
1.760521e+002, 3.797971e+002
1.765342e+002, 3.818466e+002
1.770163e+002, 3.841586e+002
1.774984e+002, 3.863033e+002
1.779805e+002, 3.879416e+002
1.784626e+002, 3.890710e+002
1.789448e+002, 3.904684e+002
1.794269e+002, 3.925009e+002
1.799090e+002, 3.944413e+002
1.803911e+002, 3.959739e+002
1.808732e+002, 3.972095e+002
1.813553e+002, 3.984539e+002
1.818375e+002, 3.999779e+002
1.823196e+002, 4.018178e+002
1.828017e+002, 4.035667e+002
1.832838e+002, 4.055406e+002
1.837659e+002, 4.071771e+002
1.842480e+002, 4.080376e+002
1.847301e+002, 4.082065e+002
1.852123e+002, 4.081799e+002
1.856944e+002, 4.083789e+002
1.861765e+002, 4.088356e+002
1.866586e+002, 4.094385e+002
1.871407e+002, 4.100838e+002
1.876228e+002, 4.109295e+002
1.881050e+002, 4.122584e+002
1.885871e+002, 4.140653e+002
1.890692e+002, 4.157999e+002
1.895513e+002, 4.167789e+002
1.900334e+002, 4.170337e+002
1.905155e+002, 4.177576e+002
1.909977e+002, 4.196573e+002
1.914798e+002, 4.218185e+002
1.919619e+002, 4.231507e+002
1.924440e+002, 4.234435e+002
1.929261e+002, 4.233846e+002
1.934082e+002, 4.235391e+002
1.938904e+002, 4.238560e+002
1.943725e+002, 4.242168e+002
1.948546e+002, 4.248225e+002
1.953367e+002, 4.254127e+002
1.958188e+002, 4.253235e+002
1.963009e+002, 4.241452e+002
1.967831e+002, 4.230816e+002
1.972652e+002, 4.232226e+002
1.977473e+002, 4.241894e+002
1.982294e+002, 4.250432e+002
1.987115e+002, 4.251938e+002
1.991936e+002, 4.248089e+002
1.996758e+002, 4.246112e+002
2.001579e+002, 4.247027e+002
2.006400e+002, 4.248758e+002
2.011221e+002, 4.247156e+002
2.016042e+002, 4.244889e+002
2.020863e+002, 4.248722e+002
2.025685e+002, 4.266879e+002
2.030506e+002, 4.298128e+002
2.035327e+002, 4.320729e+002
2.040148e+002, 4.330160e+002
2.044969e+002, 4.334328e+002
2.049790e+002, 4.331086e+002
2.054612e+002, 4.324523e+002
2.059433e+002, 4.323451e+002
2.064254e+002, 4.337153e+002
2.069075e+002, 4.366777e+002
2.073896e+002, 4.388605e+002
2.078717e+002, 4.397930e+002
2.083539e+002, 4.403185e+002
2.088360e+002, 4.402173e+002
2.093181e+002, 4.398411e+002
2.098002e+002, 4.399747e+002
2.102823e+002, 4.414687e+002
2.107644e+002, 4.445795e+002
2.112466e+002, 4.466711e+002
2.117287e+002, 4.473474e+002
2.122108e+002, 4.474973e+002
2.126929e+002, 4.472110e+002
2.131750e+002, 4.466545e+002
2.136571e+002, 4.460777e+002
2.141393e+002, 4.456463e+002
2.146214e+002, 4.452711e+002
2.151035e+002, 4.458267e+002
2.155856e+002, 4.482452e+002
2.160677e+002, 4.505575e+002
2.165498e+002, 4.516282e+002
2.170320e+002, 4.515772e+002
2.175141e+002, 4.513785e+002
2.179962e+002, 4.519417e+002
2.184783e+002, 4.533968e+002
2.189604e+002, 4.544485e+002
2.194425e+002, 4.550759e+002
2.199247e+002, 4.553803e+002
2.204068e+002, 4.550530e+002
2.208889e+002, 4.542480e+002
2.213710e+002, 4.538984e+002
2.218531e+002, 4.549011e+002
2.223352e+002, 4.573840e+002
2.228174e+002, 4.596376e+002
2.232995e+002, 4.611632e+002
2.237816e+002, 4.628226e+002
2.242637e+002, 4.656505e+002
2.247458e+002, 4.696114e+002
2.252279e+002, 4.731075e+002
2.257100e+002, 4.745634e+002
2.261922e+002, 4.742181e+002
2.266743e+002, 4.745070e+002
2.271564e+002, 4.755035e+002
2.276385e+002, 4.772375e+002
2.281206e+002, 4.800608e+002
2.286027e+002, 4.840199e+002
2.290849e+002, 4.879114e+002
2.295670e+002, 4.906777e+002
2.300491e+002, 4.926749e+002
2.305312e+002, 4.949213e+002
2.310133e+002, 4.975491e+002
2.314954e+002, 5.005081e+002
2.319776e+002, 5.037376e+002
2.324597e+002, 5.072323e+002
2.329418e+002, 5.110394e+002
2.334239e+002, 5.156884e+002
2.339060e+002, 5.206005e+002
2.343881e+002, 5.248035e+002
2.348703e+002, 5.275675e+002
2.353524e+002, 5.299279e+002
2.358345e+002, 5.334310e+002
2.363166e+002, 5.383649e+002
2.367987e+002, 5.433307e+002
2.372808e+002, 5.479330e+002
2.377630e+002, 5.520824e+002
2.382451e+002, 5.554602e+002
2.387272e+002, 5.575497e+002
2.392093e+002, 5.594362e+002
2.396914e+002, 5.628141e+002
2.401735e+002, 5.678984e+002
2.406557e+002, 5.738922e+002
2.411378e+002, 5.807933e+002
2.416199e+002, 5.882780e+002
2.421020e+002, 5.961564e+002
2.425841e+002, 6.043903e+002
2.430662e+002, 6.128383e+002
2.435484e+002, 6.209350e+002
2.440305e+002, 6.278861e+002
2.445126e+002, 6.367377e+002
2.449947e+002, 6.491953e+002
2.454768e+002, 6.632484e+002
2.459589e+002, 6.773439e+002
2.464410e+002, 6.909885e+002
2.469232e+002, 7.044442e+002
2.474053e+002, 7.183649e+002
2.478874e+002, 7.327795e+002
2.483695e+002, 7.475635e+002
2.488516e+002, 7.634472e+002
2.493337e+002, 7.791591e+002
2.498159e+002, 7.938942e+002
2.502980e+002, 8.073987e+002
2.507801e+002, 8.194909e+002
2.512622e+002, 8.301161e+002
2.517443e+002, 8.396335e+002
2.522264e+002, 8.464553e+002
2.527086e+002, 8.506530e+002
2.531907e+002, 8.525229e+002
2.536728e+002, 8.518779e+002
2.541549e+002, 8.488087e+002
2.546370e+002, 8.441573e+002
2.551191e+002, 8.390319e+002
2.556013e+002, 8.330840e+002
2.560834e+002, 8.274572e+002
2.565655e+002, 8.207725e+002
2.570476e+002, 8.153067e+002
2.575297e+002, 8.123823e+002
2.580118e+002, 8.123174e+002
2.584940e+002, 8.147010e+002
2.589761e+002, 8.189386e+002
2.594582e+002, 8.247217e+002
2.599403e+002, 8.335625e+002
2.604224e+002, 8.452420e+002
2.609045e+002, 8.594731e+002
2.613867e+002, 8.760050e+002
2.618688e+002, 8.948874e+002
2.623509e+002, 9.161290e+002
2.628330e+002, 9.397472e+002
2.633151e+002, 9.653792e+002
2.637972e+002, 9.954141e+002
2.642794e+002, 1.028388e+003
2.647615e+002, 1.065812e+003
2.652436e+002, 1.108360e+003
2.657257e+002, 1.155961e+003
2.662078e+002, 1.208602e+003
2.666899e+002, 1.266849e+003
2.671721e+002, 1.331683e+003
2.676542e+002, 1.395103e+003
2.681363e+002, 1.461720e+003
2.686184e+002, 1.523225e+003
2.691005e+002, 1.574193e+003
2.695826e+002, 1.615705e+003
2.700648e+002, 1.652231e+003
2.705469e+002, 1.686807e+003
2.710290e+002, 1.719052e+003
2.715111e+002, 1.754552e+003
2.719932e+002, 1.790048e+003
2.724753e+002, 1.830990e+003
2.729575e+002, 1.877605e+003
2.734396e+002, 1.931185e+003
2.739217e+002, 1.994168e+003
2.744038e+002, 2.068111e+003
2.748859e+002, 2.153088e+003
2.753680e+002, 2.249668e+003
2.758501e+002, 2.354697e+003
2.763322e+002, 2.471478e+003
2.768144e+002, 2.600539e+003
2.772965e+002, 2.742723e+003
2.777786e+002, 2.898545e+003
2.782607e+002, 3.068158e+003
2.787428e+002, 3.251647e+003
2.792249e+002, 3.453681e+003
2.797071e+002, 3.671184e+003
2.801892e+002, 3.906606e+003
2.806713e+002, 4.168315e+003
2.811534e+002, 4.447601e+003
2.816355e+002, 4.734669e+003
2.821176e+002, 5.028259e+003
2.825998e+002, 5.317624e+003
2.830819e+002, 5.570989e+003
2.835640e+002, 5.821314e+003
2.840461e+002, 5.988584e+003
2.845282e+002, 6.067054e+003
2.850103e+002, 6.049889e+003
2.854925e+002, 5.917454e+003
2.859746e+002, 5.658661e+003
2.864567e+002, 5.307997e+003
2.869388e+002, 4.903456e+003
2.874209e+002, 4.426872e+003
2.879030e+002, 3.969269e+003
2.883852e+002, 3.535222e+003
2.888673e+002, 3.133696e+003
2.893494e+002, 2.778795e+003
2.898315e+002, 2.473608e+003
2.903136e+002, 2.213336e+003
2.907957e+002, 1.994869e+003
2.912779e+002, 1.822153e+003
2.917600e+002, 1.673125e+003
2.922421e+002, 1.550628e+003
2.927242e+002, 1.448294e+003
2.932063e+002, 1.361924e+003
2.936884e+002, 1.290455e+003
2.941706e+002, 1.231222e+003
2.946527e+002, 1.182863e+003
2.951348e+002, 1.146296e+003
2.956169e+002, 1.116394e+003
2.960990e+002, 1.094331e+003
2.965811e+002, 1.077937e+003
2.970633e+002, 1.066164e+003
2.975454e+002, 1.058841e+003
2.980275e+002, 1.055031e+003
2.985096e+002, 1.054568e+003
2.989917e+002, 1.057448e+003
2.994738e+002, 1.061531e+003
2.999560e+002, 1.068401e+003
3.004381e+002, 1.074977e+003
3.009202e+002, 1.079260e+003
3.014023e+002, 1.081604e+003
3.018844e+002, 1.083688e+003
3.023665e+002, 1.086180e+003
3.028487e+002, 1.089196e+003
3.033308e+002, 1.092906e+003
3.038129e+002, 1.096958e+003
3.042950e+002, 1.102133e+003
3.047771e+002, 1.107256e+003
3.052592e+002, 1.113653e+003
3.057414e+002, 1.124572e+003
3.062235e+002, 1.140987e+003
3.067056e+002, 1.163014e+003
3.071877e+002, 1.191170e+003
3.076698e+002, 1.225003e+003
3.081519e+002, 1.263523e+003
3.086341e+002, 1.305805e+003
3.091162e+002, 1.352623e+003
3.095983e+002, 1.405318e+003
3.100804e+002, 1.464298e+003
3.105625e+002, 1.528003e+003
3.110446e+002, 1.594139e+003
3.115268e+002, 1.662545e+003
3.120089e+002, 1.734950e+003
3.124910e+002, 1.811357e+003
3.129731e+002, 1.892042e+003
3.134552e+002, 1.977220e+003
3.139373e+002, 2.066622e+003
3.144195e+002, 2.162350e+003
3.149016e+002, 2.265658e+003
3.153837e+002, 2.377761e+003
3.158658e+002, 2.502810e+003
3.163479e+002, 2.641200e+003
3.168300e+002, 2.792695e+003
3.173121e+002, 2.958236e+003
3.177943e+002, 3.138043e+003
3.182764e+002, 3.327687e+003
3.187585e+002, 3.526291e+003
3.192406e+002, 3.732738e+003
3.197227e+002, 3.941967e+003
3.202048e+002, 4.146952e+003
3.206870e+002, 4.362423e+003
3.211691e+002, 4.587915e+003
3.216512e+002, 4.827964e+003
3.221333e+002, 5.102741e+003
3.226154e+002, 5.419548e+003
3.230975e+002, 5.778377e+003
3.235797e+002, 6.171282e+003
3.240618e+002, 6.603426e+003
3.245439e+002, 7.052112e+003
3.250260e+002, 7.529819e+003
3.255081e+002, 8.016584e+003
3.259902e+002, 8.485144e+003
3.264724e+002, 8.931623e+003
3.269545e+002, 9.342049e+003
3.274366e+002, 9.689093e+003
3.279187e+002, 9.971882e+003
3.284008e+002, 1.022067e+004
3.288829e+002, 1.042695e+004
3.293651e+002, 1.060715e+004
3.298472e+002, 1.077107e+004
3.303293e+002, 1.092033e+004
3.308114e+002, 1.107857e+004
3.312935e+002, 1.127617e+004
3.317756e+002, 1.151669e+004
3.322578e+002, 1.173734e+004
3.327399e+002, 1.198517e+004
3.332220e+002, 1.217401e+004
3.337041e+002, 1.229087e+004
3.341862e+002, 1.231286e+004
3.346683e+002, 1.213771e+004
3.351505e+002, 1.169923e+004
3.356326e+002, 1.098732e+004
3.361147e+002, 1.005679e+004
3.365968e+002, 8.717317e+003
3.370789e+002, 7.377331e+003
3.375610e+002, 6.137538e+003
3.380432e+002, 5.021597e+003
3.385253e+002, 4.098580e+003
3.390074e+002, 3.407457e+003
3.394895e+002, 2.910323e+003
3.399716e+002, 2.531029e+003
3.404537e+002, 2.294519e+003
3.409359e+002, 2.107405e+003
3.414180e+002, 1.970074e+003
3.419001e+002, 1.866021e+003
3.423822e+002, 1.779517e+003
3.428643e+002, 1.706425e+003
3.433464e+002, 1.639902e+003
3.438286e+002, 1.571456e+003
3.443107e+002, 1.501513e+003
3.447928e+002, 1.426974e+003
3.452749e+002, 1.346463e+003
3.457570e+002, 1.262854e+003
3.462391e+002, 1.175890e+003
3.467213e+002, 1.087262e+003
3.472034e+002, 1.001113e+003
3.476855e+002, 9.217764e+002
3.481676e+002, 8.491840e+002
3.486497e+002, 7.845827e+002
3.491318e+002, 7.278419e+002
3.496140e+002, 6.776205e+002
3.500961e+002, 6.345937e+002
3.505782e+002, 5.981120e+002
3.510603e+002, 5.667536e+002
3.515424e+002, 5.399579e+002
3.520245e+002, 5.175819e+002
3.525067e+002, 4.990155e+002
3.529888e+002, 4.866149e+002
3.534709e+002, 4.751166e+002
3.539530e+002, 4.636394e+002
3.544351e+002, 4.528647e+002
3.549172e+002, 4.434295e+002
3.553994e+002, 4.355945e+002
3.558815e+002, 4.294259e+002
3.563636e+002, 4.250030e+002
3.568457e+002, 4.227334e+002
3.573278e+002, 4.216810e+002
3.578099e+002, 4.221398e+002
3.582920e+002, 4.234601e+002
3.587741e+002, 4.253457e+002
3.592563e+002, 4.276894e+002
3.597384e+002, 4.304508e+002
3.602205e+002, 4.337830e+002
3.607026e+002, 4.379116e+002
3.611847e+002, 4.403503e+002
3.616668e+002, 4.395327e+002
3.621490e+002, 4.387680e+002
3.626311e+002, 4.390088e+002
3.631132e+002, 4.401288e+002
3.635953e+002, 4.417406e+002
3.640774e+002, 4.436348e+002
3.645595e+002, 4.457638e+002
3.650417e+002, 4.479304e+002
3.655238e+002, 4.501896e+002
3.660059e+002, 4.524060e+002
3.664880e+002, 4.557048e+002
3.669701e+002, 4.583884e+002
3.674522e+002, 4.596348e+002
3.679344e+002, 4.589538e+002
3.684165e+002, 4.548354e+002
3.688986e+002, 4.445075e+002
3.693807e+002, 4.263749e+002
3.698628e+002, 4.061268e+002
3.703449e+002, 3.827291e+002
3.708271e+002, 3.584196e+002
3.713092e+002, 3.325198e+002
3.717913e+002, 3.062309e+002
3.722734e+002, 2.824484e+002
3.727555e+002, 2.640526e+002
3.732376e+002, 2.509558e+002
3.737198e+002, 2.394764e+002
3.742019e+002, 2.301266e+002
3.746840e+002, 2.219436e+002
3.751661e+002, 2.149229e+002
3.756482e+002, 2.086794e+002
3.761303e+002, 2.026850e+002
3.766125e+002, 1.965854e+002
3.770946e+002, 1.907196e+002
3.775767e+002, 1.858296e+002
3.780588e+002, 1.820465e+002
3.785409e+002, 1.788955e+002
3.790230e+002, 1.766000e+002
3.795052e+002, 1.746558e+002
3.799873e+002, 1.725908e+002
3.804694e+002, 1.703192e+002
3.809515e+002, 1.683721e+002
3.814336e+002, 1.674427e+002
3.819157e+002, 1.675074e+002
3.823979e+002, 1.675367e+002
3.828800e+002, 1.676252e+002
3.833621e+002, 1.673472e+002
3.838442e+002, 1.663046e+002
3.843263e+002, 1.646711e+002
3.848084e+002, 1.630479e+002
3.852906e+002, 1.617124e+002
3.857727e+002, 1.606308e+002
3.862548e+002, 1.597220e+002
3.867369e+002, 1.589883e+002
3.872190e+002, 1.584322e+002
3.877011e+002, 1.581792e+002
3.881833e+002, 1.580751e+002
3.886654e+002, 1.578937e+002
3.891475e+002, 1.575302e+002
3.896296e+002, 1.571963e+002
3.901117e+002, 1.572205e+002
3.905938e+002, 1.575260e+002
3.910760e+002, 1.574298e+002
3.915581e+002, 1.564424e+002
3.920402e+002, 1.552963e+002
3.925223e+002, 1.552015e+002
3.930044e+002, 1.562689e+002
3.934865e+002, 1.568585e+002
3.939687e+002, 1.560276e+002
3.944508e+002, 1.544195e+002
3.949329e+002, 1.528932e+002
3.954150e+002, 1.515197e+002
3.958971e+002, 1.506569e+002
3.963792e+002, 1.508923e+002
3.968614e+002, 1.520940e+002
3.973435e+002, 1.526171e+002
3.978256e+002, 1.519396e+002
3.983077e+002, 1.509621e+002
3.987898e+002, 1.502082e+002
3.992719e+002, 1.496455e+002
3.997540e+002, 1.490906e+002
4.002361e+002, 1.484452e+002
4.007183e+002, 1.477590e+002
4.012004e+002, 1.471961e+002
4.016825e+002, 1.468391e+002
4.021646e+002, 1.464384e+002
4.026467e+002, 1.459898e+002
4.031288e+002, 1.454575e+002
4.036110e+002, 1.447619e+002
4.040931e+002, 1.438989e+002
4.045752e+002, 1.429975e+002
4.050573e+002, 1.422044e+002
4.055394e+002, 1.415400e+002
4.060215e+002, 1.409286e+002
4.065037e+002, 1.401034e+002
4.069858e+002, 1.395746e+002
4.074679e+002, 1.399701e+002
4.079500e+002, 1.408861e+002
4.084321e+002, 1.412697e+002
4.089142e+002, 1.404041e+002
4.093964e+002, 1.386333e+002
4.098785e+002, 1.375479e+002
4.103606e+002, 1.380284e+002
4.108427e+002, 1.380739e+002
4.113248e+002, 1.369591e+002
4.118069e+002, 1.356479e+002
4.122891e+002, 1.351591e+002
4.127712e+002, 1.357108e+002
4.132533e+002, 1.366432e+002
4.137354e+002, 1.371552e+002
4.142175e+002, 1.372671e+002
4.146996e+002, 1.368720e+002
4.151818e+002, 1.352109e+002
4.156639e+002, 1.337432e+002
4.161460e+002, 1.332134e+002
4.166281e+002, 1.333478e+002
4.171102e+002, 1.333982e+002
4.175923e+002, 1.328207e+002
4.180745e+002, 1.318687e+002
4.185566e+002, 1.314787e+002
4.190387e+002, 1.320083e+002
4.195208e+002, 1.323070e+002
4.200029e+002, 1.317349e+002
4.204850e+002, 1.309405e+002
4.209672e+002, 1.305618e+002
4.214493e+002, 1.307598e+002
4.219314e+002, 1.310874e+002
4.224135e+002, 1.311527e+002
4.228956e+002, 1.309571e+002
4.233777e+002, 1.305109e+002
4.238599e+002, 1.296674e+002
4.243420e+002, 1.287734e+002
4.248241e+002, 1.280012e+002
4.253062e+002, 1.273759e+002
4.257883e+002, 1.269989e+002
4.262704e+002, 1.271346e+002
4.267526e+002, 1.274433e+002
4.272347e+002, 1.273779e+002
4.277168e+002, 1.269150e+002
4.281989e+002, 1.264565e+002
4.286810e+002, 1.262653e+002
4.291631e+002, 1.261873e+002
4.296453e+002, 1.258819e+002
4.301274e+002, 1.252686e+002
4.306095e+002, 1.246074e+002
4.310916e+002, 1.240795e+002
4.315737e+002, 1.235887e+002
4.320558e+002, 1.228488e+002
4.325380e+002, 1.217481e+002
4.330201e+002, 1.207090e+002
4.335022e+002, 1.202821e+002
4.339843e+002, 1.205723e+002
4.344664e+002, 1.206836e+002
4.349485e+002, 1.203895e+002
4.354307e+002, 1.200748e+002
4.359128e+002, 1.201345e+002
4.363949e+002, 1.204260e+002
4.368770e+002, 1.203841e+002
4.373591e+002, 1.196214e+002
4.378412e+002, 1.183972e+002
4.383234e+002, 1.177165e+002
4.388055e+002, 1.183583e+002
4.392876e+002, 1.185478e+002
4.397697e+002, 1.175586e+002
4.402518e+002, 1.164125e+002
4.407339e+002, 1.162611e+002
4.412160e+002, 1.172339e+002
4.416982e+002, 1.184087e+002
4.421803e+002, 1.187332e+002
4.426624e+002, 1.181120e+002
4.431445e+002, 1.173452e+002
4.436266e+002, 1.161160e+002
4.441087e+002, 1.150735e+002
4.445909e+002, 1.145442e+002
4.450730e+002, 1.143194e+002
4.455551e+002, 1.140440e+002
4.460372e+002, 1.135399e+002
4.465193e+002, 1.128912e+002
4.470014e+002, 1.122728e+002
4.474836e+002, 1.116820e+002
4.479657e+002, 1.111319e+002
4.484478e+002, 1.106858e+002
4.489299e+002, 1.102334e+002
4.494120e+002, 1.097527e+002
4.498941e+002, 1.092190e+002
4.503763e+002, 1.085289e+002
4.508584e+002, 1.074465e+002
4.513405e+002, 1.061105e+002
4.518226e+002, 1.051774e+002
4.523047e+002, 1.047771e+002
4.527868e+002, 1.044936e+002
4.532690e+002, 1.041082e+002
4.537511e+002, 1.036789e+002
4.542332e+002, 1.032979e+002
4.547153e+002, 1.030259e+002
4.551974e+002, 1.027264e+002
4.556795e+002, 1.021931e+002
4.561617e+002, 1.015085e+002
4.566438e+002, 1.010760e+002
4.571259e+002, 1.011073e+002
4.576080e+002, 1.012189e+002
4.580901e+002, 1.008237e+002
4.585722e+002, 9.992608e+001
4.590544e+002, 9.920805e+001
4.595365e+002, 9.888959e+001
4.600186e+002, 9.873155e+001
4.605007e+002, 9.854837e+001
4.609828e+002, 9.833296e+001
4.614649e+002, 9.813777e+001
4.619471e+002, 9.799808e+001
4.624292e+002, 9.789906e+001
4.629113e+002, 9.777449e+001
4.633934e+002, 9.762038e+001
4.638755e+002, 9.744820e+001
4.643576e+002, 9.715881e+001
4.648398e+002, 9.690406e+001
4.653219e+002, 9.684277e+001
4.658040e+002, 9.700227e+001
4.662861e+002, 9.731760e+001
4.667682e+002, 9.775970e+001
4.672503e+002, 9.837746e+001
4.677325e+002, 9.866851e+001
4.682146e+002, 9.844244e+001
4.686967e+002, 9.808231e+001
4.691788e+002, 9.741991e+001
4.696609e+002, 9.675898e+001
4.701430e+002, 9.663046e+001
4.706252e+002, 9.729083e+001
4.711073e+002, 9.821236e+001
4.715894e+002, 9.839104e+001
4.720715e+002, 9.761873e+001
4.725536e+002, 9.702289e+001
4.730357e+002, 9.692451e+001
4.735179e+002, 9.691359e+001
4.740000e+002, 9.678777e+001
4.744821e+002, 9.654736e+001
4.749642e+002, 9.625096e+001
4.754463e+002, 9.582932e+001
4.759284e+002, 9.541337e+001
4.764106e+002, 9.534521e+001
4.768927e+002, 9.568422e+001
4.773748e+002, 9.600713e+001
4.778569e+002, 9.619463e+001
4.783390e+002, 9.619463e+001
4.788211e+002, 9.585291e+001
4.793033e+002, 9.499221e+001
4.797854e+002, 9.441960e+001
4.802675e+002, 9.492112e+001
4.807496e+002, 9.588789e+001
4.812317e+002, 9.612737e+001
4.817138e+002, 9.540876e+001
4.821959e+002, 9.446788e+001
4.826780e+002, 9.391719e+001
4.831602e+002, 9.376665e+001
4.836423e+002, 9.367354e+001
4.841244e+002, 9.365359e+001
4.846065e+002, 9.366963e+001
4.850886e+002, 9.370065e+001
4.855707e+002, 9.375877e+001
4.860529e+002, 9.394429e+001
4.865350e+002, 9.429097e+001
4.870171e+002, 9.453961e+001
4.874992e+002, 9.419238e+001
4.879813e+002, 9.276334e+001
4.884634e+002, 9.208706e+001
4.889456e+002, 9.289449e+001
4.894277e+002, 9.362788e+001
4.899098e+002, 9.331770e+001
4.903919e+002, 9.232533e+001
4.908740e+002, 9.160885e+001
4.913561e+002, 9.178188e+001
4.918383e+002, 9.250661e+001
4.923204e+002, 9.284993e+001
4.928025e+002, 9.268518e+001
4.932846e+002, 9.248772e+001
4.937667e+002, 9.242760e+001
4.942488e+002, 9.231499e+001
4.947310e+002, 9.194943e+001
4.952131e+002, 9.135616e+001
4.956952e+002, 9.082597e+001
4.961773e+002, 9.064730e+001
4.966594e+002, 9.068019e+001
4.971415e+002, 9.053016e+001
4.976237e+002, 9.015811e+001
4.981058e+002, 8.973793e+001
4.985879e+002, 8.923009e+001
4.990700e+002, 8.879069e+001
4.995521e+002, 8.875188e+001
5.000342e+002, 8.933758e+001
5.005164e+002, 8.981365e+001
5.009985e+002, 8.970003e+001
5.014806e+002, 8.926402e+001
5.019627e+002, 8.896379e+001
5.024448e+002, 8.889318e+001
5.029269e+002, 8.896831e+001
5.034091e+002, 8.919768e+001
5.038912e+002, 8.959111e+001
5.043733e+002, 8.941620e+001
5.048554e+002, 8.785197e+001
5.053375e+002, 8.670070e+001
5.058196e+002, 8.706519e+001
5.063018e+002, 8.811555e+001
5.067839e+002, 8.846963e+001
5.072660e+002, 8.765614e+001
5.077481e+002, 8.646555e+001
5.082302e+002, 8.620409e+001
5.087123e+002, 8.731450e+001
5.091945e+002, 8.774865e+001
5.096766e+002, 8.686557e+001
5.101587e+002, 8.594369e+001
5.106408e+002, 8.525204e+001
5.111229e+002, 8.490605e+001
5.116050e+002, 8.512835e+001
5.120872e+002, 8.613873e+001
5.125693e+002, 8.741205e+001
5.130514e+002, 8.801148e+001
5.135335e+002, 8.788573e+001
5.140156e+002, 8.747232e+001
5.144977e+002, 8.662628e+001
5.149799e+002, 8.575288e+001
5.154620e+002, 8.508164e+001
5.159441e+002, 8.463990e+001
5.164262e+002, 8.457060e+001
5.169083e+002, 8.541405e+001
5.173904e+002, 8.638683e+001
5.178726e+002, 8.625245e+001
5.183547e+002, 8.509575e+001
5.188368e+002, 8.426226e+001
5.193189e+002, 8.445338e+001
5.198010e+002, 8.526735e+001
5.202831e+002, 8.584595e+001
5.207653e+002, 8.622969e+001
5.212474e+002, 8.634572e+001
5.217295e+002, 8.600796e+001
5.222116e+002, 8.551762e+001
5.226937e+002, 8.506548e+001
5.231758e+002, 8.470592e+001
5.236580e+002, 8.452605e+001
5.241401e+002, 8.462422e+001
5.246222e+002, 8.490898e+001
5.251043e+002, 8.490137e+001
5.255864e+002, 8.444132e+001
5.260685e+002, 8.389484e+001
5.265507e+002, 8.312871e+001
5.270328e+002, 8.240617e+001
5.275149e+002, 8.199171e+001
5.279970e+002, 8.188001e+001
5.284791e+002, 8.182317e+001
5.289612e+002, 8.163480e+001
5.294434e+002, 8.131802e+001
5.299255e+002, 8.086934e+001
5.304076e+002, 8.024418e+001
5.308897e+002, 7.959379e+001
5.313718e+002, 7.905389e+001
5.318539e+002, 7.848833e+001
5.323361e+002, 7.762810e+001
5.328182e+002, 7.635207e+001
5.333003e+002, 7.537059e+001
5.337824e+002, 7.544897e+001
5.342645e+002, 7.609187e+001
5.347466e+002, 7.612930e+001
5.352288e+002, 7.536669e+001
5.357109e+002, 7.463808e+001
5.361930e+002, 7.462801e+001
5.366751e+002, 7.520122e+001
5.371572e+002, 7.546542e+001
5.376393e+002, 7.519026e+001
5.381215e+002, 7.491882e+001
5.386036e+002, 7.486929e+001
5.390857e+002, 7.487727e+001
5.395678e+002, 7.472488e+001
5.400499e+002, 7.437462e+001
5.405320e+002, 7.392632e+001
5.410142e+002, 7.342690e+001
5.414963e+002, 7.285889e+001
5.419784e+002, 7.284425e+001
5.424604e+002, 7.407433e+001
5.429426e+002, 7.504705e+001
5.434247e+002, 7.543056e+001
5.439068e+002, 7.541652e+001
5.443889e+002, 7.510596e+001
5.448710e+002, 7.455688e+001
5.453531e+002, 7.410512e+001
5.458353e+002, 7.412887e+001
5.463174e+002, 7.460393e+001
5.467995e+002, 7.530645e+001
5.472816e+002, 7.640357e+001
5.477637e+002, 7.734454e+001
5.482458e+002, 7.765742e+001
5.487280e+002, 7.761089e+001
5.492101e+002, 7.756909e+001
5.496922e+002, 7.745345e+001
5.501743e+002, 7.764545e+001
5.506564e+002, 7.871601e+001
5.511385e+002, 8.020953e+001
5.516207e+002, 8.110302e+001
5.521028e+002, 8.117320e+001
5.525849e+002, 8.104744e+001
5.530670e+002, 8.129933e+001
5.535491e+002, 8.193295e+001
5.540313e+002, 8.252547e+001
5.545134e+002, 8.328849e+001
5.549955e+002, 8.376858e+001
5.554776e+002, 8.349866e+001
5.559597e+002, 8.303542e+001
5.564418e+002, 8.314687e+001
5.569240e+002, 8.398601e+001
5.574061e+002, 8.499418e+001
5.578882e+002, 8.554362e+001
5.583703e+002, 8.561917e+001
5.588524e+002, 8.556598e+001
5.593345e+002, 8.509077e+001
5.598167e+002, 8.492452e+001
5.602988e+002, 8.568936e+001
5.607809e+002, 8.669172e+001
5.612630e+002, 8.693593e+001
5.617451e+002, 8.609469e+001
5.622272e+002, 8.533652e+001
5.627094e+002, 8.600169e+001
5.631915e+002, 8.759280e+001
5.636736e+002, 8.835199e+001
5.641557e+002, 8.795850e+001
5.646378e+002, 8.735185e+001
5.651199e+002, 8.718838e+001
5.656021e+002, 8.736470e+001
5.660842e+002, 8.737029e+001
5.665663e+002, 8.700092e+001
5.670484e+002, 8.675371e+001
5.675305e+002, 8.707125e+001
5.680126e+002, 8.747560e+001
5.684948e+002, 8.724678e+001
5.689769e+002, 8.632871e+001
5.694590e+002, 8.532433e+001
5.699411e+002, 8.477998e+001
5.704232e+002, 8.468290e+001
5.709053e+002, 8.483877e+001
5.713875e+002, 8.571197e+001
5.718696e+002, 8.620401e+001
5.723517e+002, 8.593365e+001
5.728338e+002, 8.536073e+001
5.733159e+002, 8.481856e+001
5.737980e+002, 8.440171e+001
5.742802e+002, 8.418327e+001
5.747623e+002, 8.429195e+001
5.752444e+002, 8.465945e+001
5.757265e+002, 8.502885e+001
5.762086e+002, 8.542202e+001
5.766907e+002, 8.572060e+001
5.771729e+002, 8.582011e+001
5.776550e+002, 8.581256e+001
5.781371e+002, 8.578249e+001
5.786192e+002, 8.565131e+001
5.791013e+002, 8.586214e+001
5.795834e+002, 8.717623e+001
5.800656e+002, 8.856819e+001
5.805477e+002, 8.861183e+001
5.810298e+002, 8.740617e+001
5.815119e+002, 8.624348e+001
5.819940e+002, 8.589888e+001
5.824761e+002, 8.628188e+001
5.829583e+002, 8.711635e+001
5.834404e+002, 8.938324e+001
5.839225e+002, 9.057384e+001
5.844046e+002, 8.983146e+001
5.848867e+002, 8.875467e+001
5.853688e+002, 8.816722e+001
5.858510e+002, 8.819109e+001
5.863331e+002, 8.882338e+001
5.868152e+002, 9.022096e+001
5.872973e+002, 9.192367e+001
5.877794e+002, 9.274453e+001
5.882615e+002, 9.252034e+001
5.887437e+002, 9.255353e+001
5.892258e+002, 9.333475e+001
5.897079e+002, 9.428235e+001
5.901900e+002, 9.483876e+001
5.906721e+002, 9.505858e+001
5.911542e+002, 9.528005e+001
5.916364e+002, 9.572452e+001
5.921185e+002, 9.611010e+001
5.926006e+002, 9.603375e+001
5.930827e+002, 9.568671e+001
5.935648e+002, 9.567712e+001
5.940469e+002, 9.623997e+001
5.945291e+002, 9.705409e+001
5.950112e+002, 9.767329e+001
5.954933e+002, 9.803480e+001
5.959754e+002, 9.849519e+001
5.964575e+002, 9.933105e+001
5.969396e+002, 9.994693e+001
5.974218e+002, 9.996214e+001
5.979039e+002, 9.969109e+001
5.983860e+002, 9.956276e+001
5.988681e+002, 9.972673e+001
5.993502e+002, 1.000805e+002
5.998323e+002, 1.005080e+002
6.003145e+002, 1.010117e+002
6.007966e+002, 1.017182e+002
6.012787e+002, 1.029145e+002
6.017608e+002, 1.037040e+002
6.022429e+002, 1.030338e+002
6.027250e+002, 1.017857e+002
6.032072e+002, 1.013782e+002
6.036893e+002, 1.022480e+002
6.041714e+002, 1.031459e+002
6.046535e+002, 1.033973e+002
6.051356e+002, 1.033099e+002
6.056177e+002, 1.032984e+002
6.060999e+002, 1.034189e+002
6.065820e+002, 1.035952e+002
6.070641e+002, 1.037754e+002
6.075462e+002, 1.039632e+002
6.080283e+002, 1.041739e+002
6.085104e+002, 1.042334e+002
6.089926e+002, 1.045830e+002
6.094747e+002, 1.054616e+002
6.099568e+002, 1.064445e+002
6.104389e+002, 1.072764e+002
6.109210e+002, 1.079375e+002
6.114031e+002, 1.084912e+002
6.118853e+002, 1.089511e+002
6.123674e+002, 1.093723e+002
6.128495e+002, 1.099378e+002
6.133316e+002, 1.106839e+002
6.138137e+002, 1.111448e+002
6.142958e+002, 1.110297e+002
6.147780e+002, 1.108295e+002
6.152601e+002, 1.111275e+002
6.157422e+002, 1.118255e+002
6.162243e+002, 1.123205e+002
6.167064e+002, 1.123791e+002
6.171885e+002, 1.123088e+002
6.176707e+002, 1.121933e+002
6.181528e+002, 1.121109e+002
6.186349e+002, 1.123077e+002
6.191170e+002, 1.128387e+002
6.195991e+002, 1.133089e+002
6.200812e+002, 1.132585e+002
6.205634e+002, 1.126694e+002
6.210455e+002, 1.118141e+002
6.215276e+002, 1.100771e+002
6.220097e+002, 1.088452e+002
6.224918e+002, 1.087711e+002
6.229739e+002, 1.091276e+002
6.234561e+002, 1.090905e+002
6.239382e+002, 1.085367e+002
6.244203e+002, 1.081208e+002
6.249023e+002, 1.087377e+002
6.253845e+002, 1.098481e+002
6.258666e+002, 1.098082e+002
6.263487e+002, 1.084792e+002
6.268308e+002, 1.072965e+002
6.273129e+002, 1.069816e+002
6.277950e+002, 1.071219e+002
6.282772e+002, 1.069850e+002
6.287593e+002, 1.066019e+002
6.292414e+002, 1.059203e+002
6.297235e+002, 1.044808e+002
6.302056e+002, 1.031403e+002
6.306877e+002, 1.025905e+002
6.311699e+002, 1.026154e+002
6.316520e+002, 1.026336e+002
6.321341e+002, 1.023791e+002
6.326162e+002, 1.019807e+002
6.330983e+002, 1.016901e+002
6.335804e+002, 1.015767e+002
6.340626e+002, 1.011987e+002
6.345447e+002, 1.004018e+002
6.350268e+002, 9.952916e+001
6.355089e+002, 9.871513e+001
6.359910e+002, 9.793590e+001
6.364731e+002, 9.710506e+001
6.369553e+002, 9.614879e+001
6.374374e+002, 9.540260e+001
6.379195e+002, 9.532555e+001
6.384016e+002, 9.556097e+001
6.388837e+002, 9.529130e+001
6.393658e+002, 9.445473e+001
6.398480e+002, 9.387638e+001
6.403301e+002, 9.412279e+001
6.408122e+002, 9.498701e+001
6.412943e+002, 9.578088e+001
6.417764e+002, 9.621143e+001
6.422585e+002, 9.701656e+001
6.427407e+002, 9.859077e+001
6.432228e+002, 1.001838e+002
6.437049e+002, 1.012400e+002
6.441870e+002, 1.019174e+002
6.446691e+002, 1.027095e+002
6.451512e+002, 1.038685e+002
6.456334e+002, 1.052667e+002
6.461155e+002, 1.066170e+002
6.465976e+002, 1.079239e+002
6.470797e+002, 1.097290e+002
6.475618e+002, 1.121760e+002
6.480439e+002, 1.149934e+002
6.485261e+002, 1.182268e+002
6.490082e+002, 1.216747e+002
6.494903e+002, 1.245678e+002
6.499724e+002, 1.262276e+002
6.504545e+002, 1.282881e+002
6.509366e+002, 1.317759e+002
6.514188e+002, 1.357903e+002
6.519009e+002, 1.391115e+002
6.523830e+002, 1.417116e+002
6.528651e+002, 1.445160e+002
6.533472e+002, 1.482564e+002
6.538293e+002, 1.526218e+002
6.543115e+002, 1.564754e+002
6.547936e+002, 1.596075e+002
6.552757e+002, 1.627076e+002
6.557578e+002, 1.660030e+002
6.562399e+002, 1.691664e+002
6.567220e+002, 1.719508e+002
6.572042e+002, 1.744483e+002
6.576863e+002, 1.769241e+002
6.581684e+002, 1.794517e+002
6.586505e+002, 1.820555e+002
6.591326e+002, 1.852538e+002
6.596147e+002, 1.885297e+002
6.600969e+002, 1.902388e+002
6.605790e+002, 1.899894e+002
6.610611e+002, 1.892932e+002
6.615432e+002, 1.896001e+002
6.620253e+002, 1.907068e+002
6.625074e+002, 1.904124e+002
6.629896e+002, 1.871123e+002
6.634717e+002, 1.845250e+002
6.639538e+002, 1.839992e+002
6.644359e+002, 1.835021e+002
6.649180e+002, 1.812645e+002
6.654001e+002, 1.774592e+002
6.658823e+002, 1.735202e+002
6.663644e+002, 1.704358e+002
6.668465e+002, 1.675030e+002
6.673286e+002, 1.632319e+002
6.678107e+002, 1.576643e+002
6.682928e+002, 1.522555e+002
6.687750e+002, 1.473675e+002
6.692571e+002, 1.426740e+002
6.697392e+002, 1.379113e+002
6.702213e+002, 1.330960e+002
6.707034e+002, 1.285527e+002
6.711855e+002, 1.243562e+002
6.716677e+002, 1.203471e+002
6.721498e+002, 1.165491e+002
6.726319e+002, 1.129116e+002
6.731140e+002, 1.091669e+002
6.735961e+002, 1.054373e+002
6.740782e+002, 1.023958e+002
6.745604e+002, 1.006885e+002
6.750425e+002, 9.979342e+001
6.755246e+002, 9.780070e+001
6.760067e+002, 9.428853e+001
6.764888e+002, 9.158988e+001
6.769709e+002, 9.058518e+001
6.774531e+002, 9.004395e+001
6.779352e+002, 8.900803e+001
6.784173e+002, 8.760405e+001
6.788994e+002, 8.628244e+001
6.793815e+002, 8.512853e+001
6.798636e+002, 8.410338e+001
6.803458e+002, 8.330008e+001
6.808279e+002, 8.256774e+001
6.813100e+002, 8.159129e+001
6.817921e+002, 8.035910e+001
6.822742e+002, 7.922838e+001
6.827563e+002, 7.853490e+001
6.832385e+002, 7.813345e+001
6.837206e+002, 7.725736e+001
6.842027e+002, 7.557888e+001
6.846848e+002, 7.414635e+001
6.851669e+002, 7.338951e+001
6.856490e+002, 7.266756e+001
6.861312e+002, 7.159579e+001
6.866133e+002, 7.025081e+001
6.870954e+002, 6.889630e+001
6.875775e+002, 6.759489e+001
6.880596e+002, 6.638646e+001
6.885417e+002, 6.534893e+001
6.890239e+002, 6.442943e+001
6.895060e+002, 6.348255e+001
6.899881e+002, 6.248088e+001
6.904702e+002, 6.161330e+001
6.909523e+002, 6.107068e+001
6.914344e+002, 6.074524e+001
6.919166e+002, 6.005878e+001
6.923987e+002, 5.848214e+001
6.928808e+002, 5.739872e+001
6.933629e+002, 5.726470e+001
6.938450e+002, 5.725472e+001
6.943271e+002, 5.690359e+001
6.948093e+002, 5.625582e+001
6.952914e+002, 5.554309e+001
6.957735e+002, 5.487036e+001
6.962556e+002, 5.415591e+001
6.967377e+002, 5.309042e+001
6.972198e+002, 5.188998e+001
6.977020e+002, 5.152712e+001
6.981841e+002, 5.222350e+001
6.986662e+002, 5.262441e+001
6.991483e+002, 5.163020e+001
6.996304e+002, 4.970043e+001
7.001125e+002, 4.860308e+001
7.005947e+002, 4.912863e+001
7.010768e+002, 4.929617e+001
7.015589e+002, 4.878980e+001
7.020410e+002, 4.819102e+001
7.025231e+002, 4.787140e+001
7.030052e+002, 4.773887e+001
7.034874e+002, 4.752354e+001
7.039695e+002, 4.710728e+001
7.044516e+002, 4.661930e+001
7.049337e+002, 4.612851e+001
7.054158e+002, 4.568777e+001
7.058979e+002, 4.561318e+001
7.063801e+002, 4.598110e+001
7.068622e+002, 4.639162e+001
7.073442e+002, 4.662563e+001
7.078264e+002, 4.673814e+001
7.083085e+002, 4.687042e+001
7.087906e+002, 4.704960e+001
7.092727e+002, 4.717727e+001
7.097548e+002, 4.713210e+001
7.102369e+002, 4.714585e+001
7.107191e+002, 4.729340e+001
7.112012e+002, 4.761423e+001
7.116833e+002, 4.823185e+001
7.121654e+002, 4.918380e+001
7.126475e+002, 5.013300e+001
7.131296e+002, 5.074475e+001
7.136118e+002, 5.102703e+001
7.140939e+002, 5.088661e+001
7.145760e+002, 5.019569e+001
7.150581e+002, 4.992163e+001
7.155402e+002, 5.070841e+001
7.160223e+002, 5.194628e+001
7.165045e+002, 5.255870e+001
7.169866e+002, 5.241496e+001
7.174687e+002, 5.250034e+001
7.179508e+002, 5.332145e+001
7.184329e+002, 5.393398e+001
7.189150e+002, 5.356891e+001
7.193972e+002, 5.282299e+001
7.198793e+002, 5.259053e+001
7.203614e+002, 5.308456e+001
7.208435e+002, 5.383709e+001
7.213256e+002, 5.443734e+001
7.218077e+002, 5.491672e+001
7.222899e+002, 5.539851e+001
7.227720e+002, 5.589254e+001
7.232541e+002, 5.637668e+001
7.237362e+002, 5.701728e+001
7.242183e+002, 5.737659e+001
7.247004e+002, 5.663609e+001
7.251826e+002, 5.482751e+001
7.256647e+002, 5.393038e+001
7.261468e+002, 5.494822e+001
7.266289e+002, 5.581163e+001
7.271110e+002, 5.553971e+001
7.275931e+002, 5.486057e+001
7.280753e+002, 5.473905e+001
7.285574e+002, 5.517383e+001
7.290395e+002, 5.530192e+001
7.295216e+002, 5.436777e+001
7.300037e+002, 5.294488e+001
7.304858e+002, 5.248930e+001
7.309680e+002, 5.304803e+001
7.314501e+002, 5.323299e+001
7.319322e+002, 5.274813e+001
7.324143e+002, 5.189385e+001
7.328964e+002, 5.071741e+001
7.333785e+002, 4.935034e+001
7.338607e+002, 4.845295e+001
7.343428e+002, 4.835601e+001
7.348249e+002, 4.821957e+001
7.353070e+002, 4.796857e+001
7.357891e+002, 4.753648e+001
7.362712e+002, 4.682154e+001
7.367534e+002, 4.587585e+001
7.372355e+002, 4.482658e+001
7.377176e+002, 4.372021e+001
7.381997e+002, 4.260451e+001
7.386818e+002, 4.143409e+001
7.391639e+002, 4.025809e+001
7.396461e+002, 3.968640e+001
7.401282e+002, 3.996117e+001
7.406103e+002, 3.992785e+001
7.410924e+002, 3.874826e+001
7.415745e+002, 3.699395e+001
7.420566e+002, 3.598344e+001
7.425388e+002, 3.596997e+001
7.430209e+002, 3.574776e+001
7.435030e+002, 3.493541e+001
7.439851e+002, 3.418842e+001
7.444672e+002, 3.394799e+001
7.449493e+002, 3.396458e+001
7.454315e+002, 3.382957e+001
7.459136e+002, 3.343193e+001
7.463957e+002, 3.295876e+001
7.468778e+002, 3.257281e+001
7.473599e+002, 3.225663e+001
7.478420e+002, 3.198557e+001
7.483242e+002, 3.176171e+001
7.488063e+002, 3.145457e+001
7.492884e+002, 3.099562e+001
7.497705e+002, 3.049460e+001
7.502526e+002, 3.004325e+001
7.507347e+002, 2.963824e+001
7.512169e+002, 2.944006e+001
7.516990e+002, 2.972616e+001
7.521811e+002, 2.984159e+001
7.526632e+002, 2.947990e+001
7.531453e+002, 2.900508e+001
7.536274e+002, 2.872124e+001
7.541096e+002, 2.865091e+001
7.545917e+002, 2.868648e+001
7.550738e+002, 2.879581e+001
7.555559e+002, 2.892227e+001
7.560380e+002, 2.902568e+001
7.565201e+002, 2.908409e+001
7.570023e+002, 2.894207e+001
7.574844e+002, 2.855711e+001
7.579665e+002, 2.825959e+001
7.584486e+002, 2.832168e+001
7.589307e+002, 2.860992e+001
7.594128e+002, 2.867233e+001
7.598950e+002, 2.834618e+001
7.603771e+002, 2.808579e+001
7.608592e+002, 2.791111e+001
7.613413e+002, 2.777702e+001
7.618234e+002, 2.763704e+001
7.623055e+002, 2.753254e+001
7.627877e+002, 2.757138e+001
7.632698e+002, 2.779191e+001
7.637519e+002, 2.794372e+001
7.642340e+002, 2.773914e+001
7.647161e+002, 2.740203e+001
7.651982e+002, 2.728666e+001
7.656804e+002, 2.738021e+001
7.661625e+002, 2.751922e+001
7.666446e+002, 2.763905e+001
7.671267e+002, 2.782255e+001
7.676088e+002, 2.823572e+001
7.680909e+002, 2.890925e+001
7.685731e+002, 2.905043e+001
7.690552e+002, 2.825635e+001
7.695373e+002, 2.758592e+001
7.700194e+002, 2.722026e+001
7.705015e+002, 2.709580e+001
7.709836e+002, 2.731726e+001
7.714658e+002, 2.778393e+001
7.719479e+002, 2.804222e+001
7.724300e+002, 2.782796e+001
7.729121e+002, 2.750307e+001
7.733942e+002, 2.722038e+001
7.738763e+002, 2.703310e+001
7.743585e+002, 2.709517e+001
7.748406e+002, 2.737451e+001
7.753227e+002, 2.761156e+001
7.758048e+002, 2.763848e+001
7.762869e+002, 2.750234e+001
7.767690e+002, 2.726973e+001
7.772512e+002, 2.689753e+001
7.777333e+002, 2.673618e+001
7.782154e+002, 2.693151e+001
7.786975e+002, 2.711102e+001
7.791796e+002, 2.704707e+001
7.796617e+002, 2.685141e+001
7.801439e+002, 2.667525e+001
7.806260e+002, 2.648496e+001
7.811081e+002, 2.649728e+001
7.815902e+002, 2.719149e+001
7.820723e+002, 2.767730e+001
7.825544e+002, 2.707483e+001
7.830366e+002, 2.597753e+001
7.835187e+002, 2.542266e+001
7.840008e+002, 2.565525e+001
7.844829e+002, 2.613102e+001
7.849650e+002, 2.637510e+001
7.854471e+002, 2.646378e+001
7.859293e+002, 2.662422e+001
7.864114e+002, 2.685702e+001
7.868935e+002, 2.707510e+001
7.873756e+002, 2.725349e+001
7.878577e+002, 2.743206e+001
7.883398e+002, 2.770584e+001
7.888220e+002, 2.802938e+001
7.893040e+002, 2.800393e+001
7.897861e+002, 2.733418e+001
7.902682e+002, 2.675735e+001
7.907504e+002, 2.620854e+001
7.912325e+002, 2.587865e+001
7.917146e+002, 2.602504e+001
7.921967e+002, 2.645797e+001
7.926788e+002, 2.680914e+001
7.931609e+002, 2.695478e+001
7.936431e+002, 2.691980e+001
7.941252e+002, 2.659964e+001
7.946073e+002, 2.616538e+001
7.950894e+002, 2.587714e+001
7.955715e+002, 2.576998e+001
7.960536e+002, 2.604751e+001
7.965358e+002, 2.683533e+001
7.970179e+002, 2.759510e+001
7.975000e+002, 2.751164e+001
7.979821e+002, 2.653086e+001
7.984642e+002, 2.603755e+001
7.989464e+002, 2.634843e+001
7.994285e+002, 2.656957e+001
7.999106e+002, 2.641210e+001
8.003927e+002, 2.614017e+001
8.008748e+002, 2.587066e+001
8.013569e+002, 2.564101e+001
8.018391e+002, 2.560119e+001
8.023212e+002, 2.603868e+001
8.028033e+002, 2.631086e+001
8.032854e+002, 2.577130e+001
8.037675e+002, 2.508018e+001
8.042496e+002, 2.514098e+001
8.047318e+002, 2.583939e+001
8.052139e+002, 2.642714e+001
8.056960e+002, 2.649455e+001
8.061781e+002, 2.630190e+001
8.066602e+002, 2.624359e+001
8.071423e+002, 2.630913e+001
8.076245e+002, 2.636089e+001
8.081066e+002, 2.639578e+001
8.085887e+002, 2.640838e+001
8.090708e+002, 2.640977e+001
8.095529e+002, 2.636629e+001
8.100350e+002, 2.617979e+001
8.105172e+002, 2.578943e+001
8.109993e+002, 2.568573e+001
8.114814e+002, 2.624366e+001
8.119635e+002, 2.660745e+001
8.124456e+002, 2.639422e+001
8.129277e+002, 2.599115e+001
8.134099e+002, 2.578335e+001
8.138920e+002, 2.575696e+001
8.143741e+002, 2.563249e+001
8.148562e+002, 2.521599e+001
8.153383e+002, 2.476643e+001
8.158204e+002, 2.462317e+001
8.163026e+002, 2.463643e+001
8.167847e+002, 2.437681e+001
8.172668e+002, 2.385062e+001
8.177489e+002, 2.358688e+001
8.182310e+002, 2.391101e+001
8.187131e+002, 2.452924e+001
8.191953e+002, 2.484566e+001
8.196774e+002, 2.477648e+001
8.201595e+002, 2.496145e+001
8.206416e+002, 2.559145e+001
8.211237e+002, 2.611815e+001
8.216058e+002, 2.630731e+001
8.220880e+002, 2.630915e+001
8.225701e+002, 2.629449e+001
8.230522e+002, 2.626215e+001
8.235343e+002, 2.610460e+001
8.240164e+002, 2.560382e+001
8.244985e+002, 2.521039e+001
8.249807e+002, 2.527549e+001
8.254628e+002, 2.544846e+001
8.259449e+002, 2.517822e+001
8.264270e+002, 2.459650e+001
8.269091e+002, 2.444689e+001
8.273912e+002, 2.522655e+001
8.278734e+002, 2.623116e+001
8.283555e+002, 2.634880e+001
8.288376e+002, 2.581804e+001
8.293197e+002, 2.576601e+001
8.298018e+002, 2.629569e+001
8.302839e+002, 2.641358e+001
8.307661e+002, 2.552104e+001
8.312482e+002, 2.426795e+001
8.317303e+002, 2.372077e+001
8.322124e+002, 2.396979e+001
8.326945e+002, 2.428402e+001
8.331766e+002, 2.472822e+001
8.336588e+002, 2.514109e+001
8.341409e+002, 2.564984e+001
8.346230e+002, 2.598452e+001
8.351051e+002, 2.576203e+001
8.355872e+002, 2.511893e+001
8.360693e+002, 2.474726e+001
8.365515e+002, 2.493051e+001
8.370336e+002, 2.530422e+001
8.375157e+002, 2.595602e+001
8.379978e+002, 2.650286e+001
8.384799e+002, 2.628486e+001
8.389620e+002, 2.552711e+001
8.394442e+002, 2.510640e+001
8.399263e+002, 2.543815e+001
8.404084e+002, 2.603441e+001
8.408905e+002, 2.621837e+001
8.413726e+002, 2.606977e+001
8.418547e+002, 2.607848e+001
8.423369e+002, 2.626860e+001
8.428190e+002, 2.632029e+001
8.433011e+002, 2.607484e+001
8.437832e+002, 2.577677e+001
8.442653e+002, 2.573281e+001
8.447474e+002, 2.593344e+001
8.452296e+002, 2.597336e+001
8.457117e+002, 2.576215e+001
8.461938e+002, 2.551773e+001
8.466759e+002, 2.520119e+001
8.471580e+002, 2.491215e+001
8.476401e+002, 2.467425e+001
8.481223e+002, 2.451761e+001
8.486044e+002, 2.452914e+001
8.490865e+002, 2.478256e+001
8.495686e+002, 2.497129e+001
8.500507e+002, 2.480714e+001
8.505328e+002, 2.459653e+001
8.510150e+002, 2.466278e+001
8.514971e+002, 2.493950e+001
8.519792e+002, 2.524950e+001
8.524613e+002, 2.552852e+001
8.529434e+002, 2.578999e+001
8.534255e+002, 2.608529e+001
8.539077e+002, 2.633466e+001
8.543898e+002, 2.621327e+001
8.548719e+002, 2.572135e+001
8.553540e+002, 2.532610e+001
8.558361e+002, 2.510330e+001
8.563182e+002, 2.509229e+001
8.568004e+002, 2.541678e+001
8.572825e+002, 2.590746e+001
8.577646e+002, 2.600015e+001
8.582467e+002, 2.540278e+001
8.587288e+002, 2.504049e+001
8.592109e+002, 2.489629e+001
8.596931e+002, 2.499868e+001
8.601752e+002, 2.573230e+001
8.606573e+002, 2.650656e+001
8.611394e+002, 2.650427e+001
8.616215e+002, 2.567858e+001
8.621036e+002, 2.494883e+001
8.625858e+002, 2.467968e+001
8.630679e+002, 2.462535e+001
8.635500e+002, 2.478680e+001
8.640321e+002, 2.496939e+001
8.645142e+002, 2.478750e+001
8.649963e+002, 2.431509e+001
8.654785e+002, 2.407447e+001
8.659606e+002, 2.438795e+001
8.664427e+002, 2.492452e+001
8.669248e+002, 2.518813e+001
8.674069e+002, 2.522262e+001
8.678890e+002, 2.525485e+001
8.683712e+002, 2.529761e+001
8.688533e+002, 2.535010e+001
8.693354e+002, 2.543089e+001
8.698175e+002, 2.545759e+001
8.702996e+002, 2.532354e+001
8.707817e+002, 2.502826e+001
8.712639e+002, 2.460190e+001
8.717459e+002, 2.378857e+001
8.722280e+002, 2.329537e+001
8.727101e+002, 2.346719e+001
8.731923e+002, 2.378520e+001
8.736744e+002, 2.407082e+001
8.741565e+002, 2.424868e+001
8.746386e+002, 2.409769e+001
8.751207e+002, 2.337979e+001
8.756028e+002, 2.296046e+001
8.760850e+002, 2.341272e+001
8.765671e+002, 2.401140e+001
8.770492e+002, 2.428734e+001
8.775313e+002, 2.430287e+001
8.780134e+002, 2.415758e+001
8.784955e+002, 2.391727e+001
8.789777e+002, 2.377502e+001
8.794598e+002, 2.394930e+001
8.799419e+002, 2.422761e+001
8.804240e+002, 2.424864e+001
8.809061e+002, 2.407063e+001
8.813882e+002, 2.388394e+001
8.818704e+002, 2.372416e+001
8.823525e+002, 2.362766e+001
8.828346e+002, 2.362461e+001
8.833167e+002, 2.367080e+001
8.837988e+002, 2.367462e+001
8.842809e+002, 2.363069e+001
8.847631e+002, 2.359198e+001
8.852452e+002, 2.358700e+001
8.857273e+002, 2.350885e+001
8.862094e+002, 2.324746e+001
8.866915e+002, 2.297116e+001
8.871736e+002, 2.283586e+001
8.876558e+002, 2.284504e+001
8.881379e+002, 2.303421e+001
8.886200e+002, 2.360944e+001
8.891021e+002, 2.407480e+001
8.895842e+002, 2.450737e+001
8.900663e+002, 2.465349e+001
8.905485e+002, 2.409639e+001
8.910306e+002, 2.318759e+001
8.915127e+002, 2.258764e+001
8.919948e+002, 2.247506e+001
8.924769e+002, 2.262963e+001
8.929590e+002, 2.328777e+001
8.934412e+002, 2.382660e+001
8.939233e+002, 2.324881e+001
8.944054e+002, 2.212364e+001
8.948875e+002, 2.176718e+001
8.953696e+002, 2.236393e+001
8.958517e+002, 2.304505e+001
8.963339e+002, 2.318329e+001
8.968160e+002, 2.294549e+001
8.972981e+002, 2.245961e+001
8.977802e+002, 2.180865e+001
8.982623e+002, 2.201718e+001
8.987444e+002, 2.327421e+001
8.992266e+002, 2.411953e+001
8.997087e+002, 2.376226e+001
9.001908e+002, 2.294352e+001
9.006729e+002, 2.278752e+001
9.011550e+002, 2.333617e+001
9.016371e+002, 2.359887e+001
9.021193e+002, 2.348436e+001
9.026014e+002, 2.324914e+001
9.030835e+002, 2.270802e+001
9.035656e+002, 2.228949e+001
9.040477e+002, 2.239488e+001
9.045298e+002, 2.283148e+001
9.050120e+002, 2.312513e+001
9.054941e+002, 2.326207e+001
9.059762e+002, 2.315078e+001
9.064583e+002, 2.257277e+001
9.069404e+002, 2.194845e+001
9.074225e+002, 2.135846e+001
9.079047e+002, 2.097265e+001
9.083868e+002, 2.113207e+001
9.088689e+002, 2.178560e+001
9.093510e+002, 2.231827e+001
9.098331e+002, 2.231896e+001
9.103152e+002, 2.212300e+001
9.107974e+002, 2.204863e+001
9.112795e+002, 2.203154e+001
9.117616e+002, 2.191672e+001
9.122437e+002, 2.172766e+001
9.127258e+002, 2.165269e+001
9.132079e+002, 2.178124e+001
9.136901e+002, 2.199083e+001
9.141722e+002, 2.213205e+001
9.146543e+002, 2.220972e+001
9.151364e+002, 2.224477e+001
9.156185e+002, 2.223498e+001
9.161006e+002, 2.227007e+001
9.165828e+002, 2.240091e+001
9.170649e+002, 2.242904e+001
9.175470e+002, 2.212521e+001
9.180291e+002, 2.164520e+001
9.185112e+002, 2.158896e+001
9.189933e+002, 2.223144e+001
9.194755e+002, 2.258690e+001
9.199576e+002, 2.243582e+001
9.204397e+002, 2.230994e+001
9.209218e+002, 2.239897e+001
9.214039e+002, 2.263074e+001
9.218860e+002, 2.309063e+001
9.223682e+002, 2.374208e+001
9.228503e+002, 2.385353e+001
9.233324e+002, 2.267605e+001
9.238145e+002, 2.182521e+001
9.242966e+002, 2.193435e+001
9.247787e+002, 2.237715e+001
9.252609e+002, 2.288267e+001
9.257430e+002, 2.326978e+001
9.262251e+002, 2.322201e+001
9.267072e+002, 2.263510e+001
9.271893e+002, 2.203663e+001
9.276714e+002, 2.178035e+001
9.281536e+002, 2.167694e+001
9.286357e+002, 2.149150e+001
9.291178e+002, 2.132736e+001
9.295999e+002, 2.145646e+001
9.300820e+002, 2.186439e+001
9.305641e+002, 2.224068e+001
9.310463e+002, 2.239768e+001
9.315284e+002, 2.236586e+001
9.320105e+002, 2.204457e+001
9.324926e+002, 2.156787e+001
9.329747e+002, 2.162490e+001
9.334568e+002, 2.220642e+001
9.339390e+002, 2.249653e+001
9.344211e+002, 2.217581e+001
9.349032e+002, 2.162223e+001
9.353853e+002, 2.120093e+001
9.358674e+002, 2.093544e+001
9.363495e+002, 2.102878e+001
9.368317e+002, 2.161826e+001
9.373138e+002, 2.196303e+001
9.377959e+002, 2.194291e+001
9.382780e+002, 2.174255e+001
9.387601e+002, 2.136629e+001
9.392422e+002, 2.094697e+001
9.397244e+002, 2.072323e+001
9.402065e+002, 2.072137e+001
9.406886e+002, 2.076101e+001
9.411707e+002, 2.098831e+001
9.416528e+002, 2.105604e+001
9.421349e+002, 2.060956e+001
9.426171e+002, 2.024174e+001
9.430992e+002, 2.054557e+001
9.435813e+002, 2.125810e+001
9.440634e+002, 2.166197e+001
9.445455e+002, 2.157279e+001
9.450276e+002, 2.135143e+001
9.455098e+002, 2.096147e+001
9.459919e+002, 2.065447e+001
9.464740e+002, 2.069754e+001
9.469561e+002, 2.087333e+001
9.474382e+002, 2.084120e+001
9.479203e+002, 2.060513e+001
9.484025e+002, 2.047341e+001
9.488846e+002, 2.063740e+001
9.493667e+002, 2.089266e+001
9.498488e+002, 2.108676e+001
9.503309e+002, 2.122168e+001
9.508130e+002, 2.130454e+001
9.512952e+002, 2.133216e+001
9.517773e+002, 2.128209e+001
9.522594e+002, 2.115162e+001
9.527415e+002, 2.100118e+001
9.532236e+002, 2.091202e+001
9.537057e+002, 2.081329e+001
9.541878e+002, 2.042085e+001
9.546699e+002, 1.981977e+001
9.551520e+002, 1.960316e+001
9.556342e+002, 1.985344e+001
9.561163e+002, 2.030138e+001
9.565984e+002, 2.084180e+001
9.570805e+002, 2.128724e+001
9.575626e+002, 2.129926e+001
9.580447e+002, 2.088752e+001
9.585269e+002, 2.057689e+001
9.590090e+002, 2.034549e+001
9.594911e+002, 2.035424e+001
9.599732e+002, 2.080217e+001
9.604553e+002, 2.109052e+001
9.609374e+002, 2.057583e+001
9.614196e+002, 1.968952e+001
9.619017e+002, 1.972011e+001
9.623838e+002, 2.118324e+001
9.628659e+002, 2.196286e+001
9.633480e+002, 2.142884e+001
9.638301e+002, 2.105898e+001
9.643123e+002, 2.156904e+001
9.647944e+002, 2.213618e+001
9.652765e+002, 2.190543e+001
9.657586e+002, 2.107512e+001
9.662407e+002, 2.063328e+001
9.667228e+002, 2.091721e+001
9.672050e+002, 2.115117e+001
9.676871e+002, 2.126050e+001
9.681692e+002, 2.117941e+001
9.686513e+002, 2.055843e+001
9.691334e+002, 1.990078e+001
9.696155e+002, 2.001384e+001
9.700977e+002, 2.087115e+001
9.705798e+002, 2.149710e+001
9.710619e+002, 2.137831e+001
9.715440e+002, 2.105881e+001
9.720261e+002, 2.079469e+001
9.725082e+002, 2.057100e+001
9.729904e+002, 2.034186e+001
9.734725e+002, 2.014840e+001
9.739546e+002, 2.011438e+001
9.744367e+002, 2.026035e+001
9.749188e+002, 2.040295e+001
9.754009e+002, 2.039948e+001
9.758831e+002, 2.031021e+001
9.763652e+002, 2.016215e+001
9.768473e+002, 2.000746e+001
9.773294e+002, 1.998112e+001
9.778115e+002, 2.007265e+001
9.782936e+002, 2.015876e+001
9.787758e+002, 2.018092e+001
9.792579e+002, 2.014174e+001
9.797400e+002, 1.996893e+001
9.802221e+002, 1.976400e+001
9.807042e+002, 1.990652e+001
9.811863e+002, 2.036125e+001
9.816685e+002, 2.091469e+001
9.821506e+002, 2.152156e+001
9.826327e+002, 2.190907e+001
9.831148e+002, 2.187570e+001
9.835969e+002, 2.162080e+001
9.840790e+002, 2.151396e+001
9.845612e+002, 2.155616e+001
9.850433e+002, 2.162478e+001
9.855254e+002, 2.173557e+001
9.860075e+002, 2.177013e+001
9.864896e+002, 2.168114e+001
9.869717e+002, 2.155283e+001
9.874539e+002, 2.142646e+001
9.879360e+002, 2.133849e+001
9.884181e+002, 2.143187e+001
9.889002e+002, 2.182524e+001
9.893823e+002, 2.196496e+001
9.898644e+002, 2.171884e+001
9.903466e+002, 2.146938e+001
9.908287e+002, 2.129748e+001
9.913108e+002, 2.121060e+001
9.917929e+002, 2.124093e+001
9.922750e+002, 2.136866e+001
9.927571e+002, 2.147768e+001
9.932393e+002, 2.159578e+001
9.937214e+002, 2.164531e+001
9.942035e+002, 2.158188e+001
9.946856e+002, 2.150209e+001
9.951677e+002, 2.155861e+001
9.956498e+002, 2.153771e+001
9.961320e+002, 2.108475e+001
9.966141e+002, 2.027821e+001
9.970962e+002, 1.976772e+001
9.975783e+002, 1.983731e+001
9.980604e+002, 1.994188e+001
9.985425e+002, 1.998930e+001
9.990247e+002, 1.998483e+001
9.995068e+002, 1.992387e+001
9.999889e+002, 1.981623e+001
1.000471e+003, 1.967153e+001
1.000953e+003, 1.949273e+001
1.001435e+003, 1.928228e+001
1.001917e+003, 1.893045e+001
1.002399e+003, 1.871716e+001
1.002882e+003, 1.902182e+001
1.003364e+003, 1.933729e+001
1.003846e+003, 1.898643e+001
1.004328e+003, 1.834171e+001
1.004810e+003, 1.828485e+001
1.005292e+003, 1.896501e+001
1.005774e+003, 1.953561e+001
1.006256e+003, 1.935867e+001
1.006739e+003, 1.899421e+001
1.007221e+003, 1.906090e+001
1.007703e+003, 1.921244e+001
1.008185e+003, 1.881255e+001
1.008667e+003, 1.805230e+001
1.009149e+003, 1.761331e+001
1.009631e+003, 1.772811e+001
1.010113e+003, 1.808566e+001
1.010595e+003, 1.857000e+001
1.011078e+003, 1.896517e+001
1.011560e+003, 1.890274e+001
1.012042e+003, 1.850566e+001
1.012524e+003, 1.790883e+001
1.013006e+003, 1.724325e+001
1.013488e+003, 1.697035e+001
1.013970e+003, 1.728363e+001
1.014452e+003, 1.778886e+001
1.014935e+003, 1.805552e+001
1.015417e+003, 1.817699e+001
1.015899e+003, 1.847545e+001
1.016381e+003, 1.885605e+001
1.016863e+003, 1.873604e+001
1.017345e+003, 1.809351e+001
1.017827e+003, 1.770901e+001
1.018309e+003, 1.799722e+001
1.018791e+003, 1.848869e+001
1.019274e+003, 1.854510e+001
1.019756e+003, 1.824312e+001
1.020238e+003, 1.786918e+001
1.020720e+003, 1.743796e+001
1.021202e+003, 1.738887e+001
1.021684e+003, 1.782152e+001
1.022166e+003, 1.819363e+001
1.022648e+003, 1.819272e+001
1.023130e+003, 1.795759e+001
1.023613e+003, 1.767273e+001
1.024095e+003, 1.735017e+001
1.024577e+003, 1.721913e+001
1.025059e+003, 1.730313e+001
1.025541e+003, 1.739952e+001
1.026023e+003, 1.749212e+001
1.026505e+003, 1.746150e+001
1.026987e+003, 1.714912e+001
1.027469e+003, 1.686143e+001
1.027952e+003, 1.724710e+001
1.028434e+003, 1.835762e+001
1.028916e+003, 1.889115e+001
1.029398e+003, 1.871029e+001
1.029880e+003, 1.840694e+001
1.030362e+003, 1.797995e+001
1.030844e+003, 1.772502e+001
1.031326e+003, 1.790657e+001
1.031809e+003, 1.831080e+001
1.032291e+003, 1.851619e+001
1.032773e+003, 1.851424e+001
1.033255e+003, 1.836774e+001
1.033737e+003, 1.792144e+001
1.034219e+003, 1.769338e+001
1.034701e+003, 1.800701e+001
1.035183e+003, 1.820486e+001
1.035666e+003, 1.769703e+001
1.036148e+003, 1.687464e+001
1.036630e+003, 1.660928e+001
1.037112e+003, 1.705701e+001
1.037594e+003, 1.717958e+001
1.038076e+003, 1.669791e+001
1.038558e+003, 1.633713e+001
1.039040e+003, 1.626596e+001
1.039522e+003, 1.630159e+001
1.040005e+003, 1.629785e+001
1.040487e+003, 1.632853e+001
1.040969e+003, 1.660197e+001
1.041451e+003, 1.721619e+001
1.041933e+003, 1.755752e+001
1.042415e+003, 1.738805e+001
1.042897e+003, 1.726508e+001
1.043379e+003, 1.736919e+001
1.043861e+003, 1.747261e+001
1.044344e+003, 1.744848e+001
1.044826e+003, 1.731280e+001
1.045308e+003, 1.708805e+001
1.045790e+003, 1.676319e+001
1.046272e+003, 1.644677e+001
1.046754e+003, 1.602362e+001
1.047236e+003, 1.578566e+001
1.047718e+003, 1.578940e+001
1.048201e+003, 1.601766e+001
1.048683e+003, 1.675409e+001
1.049165e+003, 1.759648e+001
1.049647e+003, 1.771546e+001
1.050129e+003, 1.693879e+001
1.050611e+003, 1.641599e+001
1.051093e+003, 1.658534e+001
1.051575e+003, 1.674187e+001
1.052057e+003, 1.657731e+001
1.052540e+003, 1.642396e+001
1.053022e+003, 1.658147e+001
1.053504e+003, 1.690380e+001
1.053986e+003, 1.715245e+001
1.054468e+003, 1.729774e+001
1.054950e+003, 1.720108e+001
1.055432e+003, 1.652670e+001
1.055914e+003, 1.601051e+001
1.056396e+003, 1.603633e+001
1.056879e+003, 1.618299e+001
1.057361e+003, 1.608131e+001
1.057843e+003, 1.589701e+001
1.058325e+003, 1.599456e+001
1.058807e+003, 1.642169e+001
1.059289e+003, 1.676501e+001
1.059771e+003, 1.679521e+001
1.060253e+003, 1.684736e+001
1.060736e+003, 1.726886e+001
1.061218e+003, 1.754597e+001
1.061700e+003, 1.709836e+001
1.062182e+003, 1.631998e+001
1.062664e+003, 1.591072e+001
1.063146e+003, 1.595858e+001
1.063628e+003, 1.598318e+001
1.064110e+003, 1.578741e+001
1.064593e+003, 1.556909e+001
1.065075e+003, 1.537604e+001
1.065557e+003, 1.522425e+001
1.066039e+003, 1.512008e+001
1.066521e+003, 1.506829e+001
1.067003e+003, 1.504528e+001
1.067485e+003, 1.506576e+001
1.067967e+003, 1.526842e+001
1.068449e+003, 1.594123e+001
1.068932e+003, 1.639111e+001
1.069414e+003, 1.601876e+001
1.069896e+003, 1.560044e+001
1.070378e+003, 1.582087e+001
1.070860e+003, 1.631311e+001
1.071342e+003, 1.654383e+001
1.071824e+003, 1.644642e+001
1.072306e+003, 1.618258e+001
1.072788e+003, 1.560327e+001
1.073271e+003, 1.534618e+001
1.073753e+003, 1.608413e+001
1.074235e+003, 1.685920e+001
1.074717e+003, 1.702822e+001
1.075199e+003, 1.677795e+001
1.075681e+003, 1.625863e+001
1.076163e+003, 1.560273e+001
1.076645e+003, 1.514072e+001
1.077127e+003, 1.495027e+001
1.077610e+003, 1.507039e+001
1.078092e+003, 1.589224e+001
1.078574e+003, 1.662197e+001
1.079056e+003, 1.674603e+001
1.079538e+003, 1.645929e+001
1.080020e+003, 1.577529e+001
1.080502e+003, 1.493773e+001
1.080984e+003, 1.464122e+001
1.081467e+003, 1.521193e+001
1.081949e+003, 1.576194e+001
1.082431e+003, 1.592543e+001
1.082913e+003, 1.591157e+001
1.083395e+003, 1.575567e+001
1.083877e+003, 1.555911e+001
1.084359e+003, 1.540616e+001
1.084841e+003, 1.530424e+001
1.085323e+003, 1.520796e+001
1.085806e+003, 1.508736e+001
1.086288e+003, 1.516511e+001
1.086770e+003, 1.587349e+001
1.087252e+003, 1.638342e+001
1.087734e+003, 1.605493e+001
1.088216e+003, 1.551461e+001
1.088698e+003, 1.532767e+001
1.089180e+003, 1.541274e+001
1.089662e+003, 1.554103e+001
1.090145e+003, 1.566586e+001
1.090627e+003, 1.559638e+001
1.091109e+003, 1.505853e+001
1.091591e+003, 1.458123e+001
1.092073e+003, 1.430427e+001
1.092555e+003, 1.425824e+001
1.093037e+003, 1.478226e+001
1.093519e+003, 1.540899e+001
1.094002e+003, 1.522433e+001
1.094484e+003, 1.418177e+001
1.094966e+003, 1.349077e+001
1.095448e+003, 1.379300e+001
1.095930e+003, 1.411733e+001
1.096412e+003, 1.416014e+001
1.096894e+003, 1.411211e+001
1.097376e+003, 1.402491e+001
1.097859e+003, 1.396470e+001
1.098341e+003, 1.398871e+001
1.098823e+003, 1.410959e+001
1.099305e+003, 1.437897e+001
1.099787e+003, 1.507052e+001
1.100269e+003, 1.536005e+001
1.100751e+003, 1.459312e+001
1.101233e+003, 1.390140e+001
1.101715e+003, 1.388737e+001
1.102198e+003, 1.419176e+001
1.102680e+003, 1.448784e+001
1.103162e+003, 1.474217e+001
1.103644e+003, 1.498806e+001
1.104126e+003, 1.532768e+001
1.104608e+003, 1.534841e+001
1.105090e+003, 1.445472e+001
1.105572e+003, 1.391248e+001
1.106054e+003, 1.452716e+001
1.106537e+003, 1.532675e+001
1.107019e+003, 1.550372e+001
1.107501e+003, 1.525438e+001
1.107983e+003, 1.515426e+001
1.108465e+003, 1.530612e+001
1.108947e+003, 1.525517e+001
1.109429e+003, 1.465656e+001
1.109911e+003, 1.428675e+001
1.110394e+003, 1.459979e+001
1.110876e+003, 1.486965e+001
1.111358e+003, 1.446376e+001
1.111840e+003, 1.382572e+001
1.112322e+003, 1.373747e+001
1.112804e+003, 1.423941e+001
1.113286e+003, 1.461007e+001
1.113768e+003, 1.482725e+001
1.114250e+003, 1.494578e+001
1.114733e+003, 1.490826e+001
1.115215e+003, 1.485192e+001
1.115697e+003, 1.478124e+001
1.116179e+003, 1.477443e+001
1.116661e+003, 1.500978e+001
1.117143e+003, 1.541572e+001
1.117625e+003, 1.542990e+001
1.118107e+003, 1.470805e+001
1.118589e+003, 1.444620e+001
1.119072e+003, 1.497836e+001
1.119554e+003, 1.530955e+001
1.120036e+003, 1.503992e+001
1.120518e+003, 1.460394e+001
1.121000e+003, 1.431383e+001
1.121482e+003, 1.418612e+001
1.121964e+003, 1.432028e+001
1.122446e+003, 1.482319e+001
1.122929e+003, 1.489141e+001
1.123411e+003, 1.435132e+001
1.123893e+003, 1.397375e+001
1.124375e+003, 1.395030e+001
1.124857e+003, 1.402764e+001
1.125339e+003, 1.403626e+001
1.125821e+003, 1.408145e+001
1.126303e+003, 1.441219e+001
1.126786e+003, 1.498595e+001
1.127268e+003, 1.491719e+001
1.127750e+003, 1.409786e+001
1.128232e+003, 1.365440e+001
1.128714e+003, 1.378201e+001
1.129196e+003, 1.391845e+001
1.129678e+003, 1.380600e+001
1.130160e+003, 1.361518e+001
1.130642e+003, 1.351922e+001
1.131125e+003, 1.353404e+001
1.131607e+003, 1.377685e+001
1.132089e+003, 1.422576e+001
1.132571e+003, 1.446055e+001
1.133053e+003, 1.446478e+001
1.133535e+003, 1.451495e+001
1.134017e+003, 1.469557e+001
1.134499e+003, 1.484705e+001
1.134981e+003, 1.484682e+001
1.135464e+003, 1.473724e+001
1.135946e+003, 1.457420e+001
1.136428e+003, 1.436990e+001
1.136910e+003, 1.406471e+001
1.137392e+003, 1.374787e+001
1.137874e+003, 1.397077e+001
1.138356e+003, 1.473734e+001
1.138838e+003, 1.533398e+001
1.139321e+003, 1.539710e+001
1.139803e+003, 1.515100e+001
1.140285e+003, 1.469102e+001
1.140767e+003, 1.423674e+001
1.141249e+003, 1.435728e+001
1.141731e+003, 1.472763e+001
1.142213e+003, 1.443361e+001
1.142695e+003, 1.369218e+001
1.143177e+003, 1.365176e+001
1.143660e+003, 1.457063e+001
1.144142e+003, 1.534940e+001
1.144624e+003, 1.517574e+001
1.145106e+003, 1.463124e+001
1.145588e+003, 1.415528e+001
1.146070e+003, 1.379850e+001
1.146552e+003, 1.366630e+001
1.147034e+003, 1.368326e+001
1.147516e+003, 1.369498e+001
1.147999e+003, 1.370136e+001
1.148481e+003, 1.386212e+001
1.148963e+003, 1.428701e+001
1.149445e+003, 1.460882e+001
1.149927e+003, 1.450047e+001
1.150409e+003, 1.431454e+001
1.150891e+003, 1.433227e+001
1.151373e+003, 1.438630e+001
1.151856e+003, 1.433138e+001
1.152338e+003, 1.414116e+001
1.152820e+003, 1.368282e+001
1.153302e+003, 1.293410e+001
1.153784e+003, 1.264276e+001
1.154266e+003, 1.350540e+001
1.154748e+003, 1.422877e+001
1.155230e+003, 1.432723e+001
1.155713e+003, 1.422299e+001
1.156195e+003, 1.409336e+001
1.156677e+003, 1.397387e+001
1.157159e+003, 1.380229e+001
1.157641e+003, 1.363332e+001
1.158123e+003, 1.386173e+001
1.158605e+003, 1.507152e+001
1.159087e+003, 1.550588e+001
1.159569e+003, 1.413341e+001
1.160052e+003, 1.325305e+001
1.160534e+003, 1.397974e+001
1.161016e+003, 1.482290e+001
1.161498e+003, 1.460928e+001
1.161980e+003, 1.378057e+001
1.162462e+003, 1.327031e+001
1.162944e+003, 1.308924e+001
1.163426e+003, 1.311769e+001
1.163908e+003, 1.345277e+001
1.164391e+003, 1.370864e+001
1.164873e+003, 1.380907e+001
1.165355e+003, 1.389199e+001
1.165837e+003, 1.400167e+001
1.166319e+003, 1.420433e+001
1.166801e+003, 1.466365e+001
1.167283e+003, 1.519413e+001
1.167765e+003, 1.488127e+001
1.168247e+003, 1.367894e+001
1.168730e+003, 1.307304e+001
1.169212e+003, 1.313581e+001
1.169694e+003, 1.357884e+001
1.170176e+003, 1.433476e+001
1.170658e+003, 1.492987e+001
1.171140e+003, 1.502089e+001
1.171622e+003, 1.488912e+001
1.172104e+003, 1.498558e+001
1.172587e+003, 1.522946e+001
1.173069e+003, 1.540786e+001
1.173551e+003, 1.549021e+001
1.174033e+003, 1.527154e+001
1.174515e+003, 1.481250e+001
1.174997e+003, 1.455815e+001
1.175479e+003, 1.465541e+001
1.175961e+003, 1.470690e+001
1.176443e+003, 1.428525e+001
1.176926e+003, 1.388063e+001
1.177408e+003, 1.426508e+001
1.177890e+003, 1.493504e+001
1.178372e+003, 1.531235e+001
1.178854e+003, 1.532649e+001
1.179336e+003, 1.474947e+001
1.179818e+003, 1.375737e+001
1.180300e+003, 1.311187e+001
1.180782e+003, 1.315030e+001
1.181265e+003, 1.336278e+001
1.181747e+003, 1.349953e+001
1.182229e+003, 1.363764e+001
1.182711e+003, 1.373881e+001
1.183193e+003, 1.394380e+001
1.183675e+003, 1.464151e+001
1.184157e+003, 1.543270e+001
1.184639e+003, 1.551863e+001
1.185122e+003, 1.482003e+001
1.185604e+003, 1.412859e+001
1.186086e+003, 1.345331e+001
1.186568e+003, 1.306959e+001
1.187050e+003, 1.311435e+001
1.187532e+003, 1.334567e+001
1.188014e+003, 1.387800e+001
1.188496e+003, 1.436375e+001
1.188979e+003, 1.450945e+001
1.189461e+003, 1.435318e+001
1.189943e+003, 1.392239e+001
1.190425e+003, 1.306428e+001
1.190907e+003, 1.289236e+001
1.191389e+003, 1.376690e+001
1.191871e+003, 1.427459e+001
1.192353e+003, 1.402977e+001
1.192835e+003, 1.391613e+001
1.193318e+003, 1.446508e+001
1.193800e+003, 1.507955e+001
1.194282e+003, 1.499152e+001
1.194764e+003, 1.440398e+001
1.195246e+003, 1.407829e+001
1.195728e+003, 1.401162e+001
1.196210e+003, 1.425943e+001
1.196692e+003, 1.479527e+001
1.197174e+003, 1.504383e+001
1.197657e+003, 1.487233e+001
1.198139e+003, 1.458637e+001
1.198621e+003, 1.436048e+001
1.199103e+003, 1.432809e+001
1.199585e+003, 1.486475e+001
1.200067e+003, 1.556588e+001
1.200549e+003, 1.553796e+001
1.201031e+003, 1.507555e+001
1.201514e+003, 1.481416e+001
1.201996e+003, 1.474431e+001
1.202478e+003, 1.454876e+001
1.202960e+003, 1.417906e+001
1.203442e+003, 1.398564e+001
1.203924e+003, 1.424670e+001
1.204406e+003, 1.451485e+001
1.204888e+003, 1.436338e+001
1.205370e+003, 1.417322e+001
1.205853e+003, 1.436920e+001
1.206335e+003, 1.463000e+001
1.206817e+003, 1.440340e+001
1.207299e+003, 1.392419e+001
1.207781e+003, 1.396931e+001
1.208263e+003, 1.473156e+001
1.208745e+003, 1.526354e+001
1.209227e+003, 1.517140e+001
1.209709e+003, 1.507699e+001
1.210192e+003, 1.529082e+001
1.210674e+003, 1.531584e+001
1.211156e+003, 1.461777e+001
1.211638e+003, 1.386063e+001
1.212120e+003, 1.378368e+001
1.212602e+003, 1.418746e+001
1.213084e+003, 1.430383e+001
1.213566e+003, 1.405505e+001
1.214049e+003, 1.391986e+001
1.214531e+003, 1.394398e+001
1.215013e+003, 1.387773e+001
1.215495e+003, 1.363760e+001
1.215977e+003, 1.346486e+001
1.216459e+003, 1.346946e+001
1.216941e+003, 1.373507e+001
1.217423e+003, 1.448786e+001
1.217906e+003, 1.537684e+001
1.218388e+003, 1.507841e+001
1.218870e+003, 1.390777e+001
1.219352e+003, 1.353598e+001
1.219834e+003, 1.388612e+001
1.220316e+003, 1.403629e+001
1.220798e+003, 1.380911e+001
1.221280e+003, 1.362797e+001
1.221762e+003, 1.372404e+001
1.222245e+003, 1.385336e+001
1.222727e+003, 1.372477e+001
1.223209e+003, 1.354579e+001
1.223691e+003, 1.347761e+001
1.224173e+003, 1.356239e+001
1.224655e+003, 1.402627e+001
1.225137e+003, 1.461253e+001
1.225619e+003, 1.475848e+001
1.226101e+003, 1.445804e+001
1.226584e+003, 1.433987e+001
1.227066e+003, 1.478958e+001
1.227548e+003, 1.493169e+001
1.228030e+003, 1.400903e+001
1.228512e+003, 1.332221e+001
1.228994e+003, 1.365976e+001
1.229476e+003, 1.420497e+001
1.229958e+003, 1.427079e+001
1.230441e+003, 1.412439e+001
1.230923e+003, 1.434149e+001
1.231405e+003, 1.490102e+001
1.231887e+003, 1.501520e+001
1.232369e+003, 1.444797e+001
1.232851e+003, 1.418729e+001
1.233333e+003, 1.438880e+001
1.233815e+003, 1.447241e+001
1.234297e+003, 1.423344e+001
1.234780e+003, 1.398120e+001
1.235262e+003, 1.395122e+001
1.235744e+003, 1.398596e+001
1.236226e+003, 1.377983e+001
1.236708e+003, 1.342496e+001
1.237190e+003, 1.332877e+001
1.237672e+003, 1.343625e+001
1.238154e+003, 1.341051e+001
1.238636e+003, 1.331809e+001
1.239119e+003, 1.384434e+001
1.239601e+003, 1.502658e+001
1.240083e+003, 1.559983e+001
1.240565e+003, 1.464886e+001
1.241047e+003, 1.342859e+001
1.241529e+003, 1.299473e+001
1.242011e+003, 1.303160e+001
1.242493e+003, 1.358469e+001
1.242975e+003, 1.413795e+001
1.243458e+003, 1.392382e+001
1.243940e+003, 1.326851e+001
1.244422e+003, 1.297107e+001
1.244904e+003, 1.314477e+001
1.245386e+003, 1.333458e+001
1.245868e+003, 1.341926e+001
1.246350e+003, 1.351945e+001
1.246832e+003, 1.380651e+001
1.247315e+003, 1.390010e+001
1.247797e+003, 1.334795e+001
1.248279e+003, 1.297046e+001
1.248761e+003, 1.353782e+001
1.249243e+003, 1.445609e+001
1.249725e+003, 1.459604e+001
1.250207e+003, 1.402027e+001
1.250689e+003, 1.388076e+001
1.251172e+003, 1.423351e+001
1.251654e+003, 1.446132e+001
1.252136e+003, 1.452534e+001
1.252618e+003, 1.412918e+001
1.253100e+003, 1.318770e+001
1.253582e+003, 1.238052e+001
1.254064e+003, 1.216728e+001
1.254546e+003, 1.243104e+001
1.255028e+003, 1.330758e+001
1.255510e+003, 1.432824e+001
1.255993e+003, 1.444898e+001
1.256475e+003, 1.414291e+001
1.256957e+003, 1.439378e+001
1.257439e+003, 1.496989e+001
1.257921e+003, 1.503928e+001
1.258403e+003, 1.450904e+001
1.258885e+003, 1.400593e+001
1.259367e+003, 1.379406e+001
1.259850e+003, 1.364518e+001
1.260332e+003, 1.343079e+001
1.260814e+003, 1.328425e+001
1.261296e+003, 1.316631e+001
1.261778e+003, 1.324401e+001
1.262260e+003, 1.397744e+001
1.262742e+003, 1.479365e+001
1.263224e+003, 1.465627e+001
1.263707e+003, 1.370831e+001
1.264189e+003, 1.318620e+001
1.264671e+003, 1.322582e+001
1.265153e+003, 1.317973e+001
1.265635e+003, 1.292890e+001
1.266117e+003, 1.326647e+001
1.266599e+003, 1.452660e+001
1.267081e+003, 1.520531e+001
1.267563e+003, 1.440280e+001
1.268046e+003, 1.318289e+001
1.268528e+003, 1.276240e+001
1.269010e+003, 1.293005e+001
1.269492e+003, 1.344316e+001
1.269974e+003, 1.403953e+001
1.270456e+003, 1.392034e+001
1.270938e+003, 1.333321e+001
1.271420e+003, 1.299840e+001
1.271902e+003, 1.301647e+001
1.272385e+003, 1.318537e+001
1.272867e+003, 1.342890e+001
1.273349e+003, 1.366745e+001
1.273831e+003, 1.392814e+001
1.274313e+003, 1.406968e+001
1.274795e+003, 1.388311e+001
1.275277e+003, 1.371278e+001
1.275759e+003, 1.385949e+001
1.276242e+003, 1.409059e+001
1.276724e+003, 1.417055e+001
1.277206e+003, 1.409257e+001
1.277688e+003, 1.379856e+001
1.278170e+003, 1.319195e+001
1.278652e+003, 1.335591e+001
1.279134e+003, 1.465856e+001
1.279616e+003, 1.535176e+001
1.280099e+003, 1.515639e+001
1.280581e+003, 1.484038e+001
1.281063e+003, 1.466795e+001
1.281545e+003, 1.457549e+001
1.282027e+003, 1.453132e+001
1.282509e+003, 1.442167e+001
1.282991e+003, 1.387089e+001
1.283473e+003, 1.320801e+001
1.283955e+003, 1.314262e+001
##END=



