##NAMES=Kettnerite
##RRUFFID=R130113
##IDEAL CHEMISTRY=CaBi^3+^O(CO_3_)F
##LOCALITY=Flying Saucer Group, Maricopa County, Arizona
##OWNER=RRUFF
##SOURCE=Mark Ascher
##DESCRIPTION=Both colorless and lemon-yellow small platy crystals, associated with R130114 eulytine, and yellow-green mottramite
##STATUS=The identification of this mineral has been confirmed only by single crystal X-ray diffraction.
##URL=rruff.info/R130113
8.936163e+001, 0.000000e+000
8.984375e+001, 1.937636e+003
9.032587e+001, 1.949154e+003
9.080798e+001, 1.951744e+003
9.129010e+001, 1.943052e+003
9.177222e+001, 1.928120e+003
9.225433e+001, 1.912816e+003
9.273645e+001, 1.896947e+003
9.321857e+001, 1.878926e+003
9.370068e+001, 1.855639e+003
9.418280e+001, 1.828780e+003
9.466492e+001, 1.804418e+003
9.514703e+001, 1.787354e+003
9.562915e+001, 1.773744e+003
9.611127e+001, 1.749427e+003
9.659338e+001, 1.712492e+003
9.707550e+001, 1.675192e+003
9.755762e+001, 1.652595e+003
9.803973e+001, 1.644852e+003
9.852185e+001, 1.641156e+003
9.900397e+001, 1.639739e+003
9.948608e+001, 1.640766e+003
9.996820e+001, 1.634182e+003
1.004503e+002, 1.618354e+003
1.009324e+002, 1.596627e+003
1.014146e+002, 1.575317e+003
1.018967e+002, 1.553993e+003
1.023788e+002, 1.533795e+003
1.028609e+002, 1.514357e+003
1.033430e+002, 1.494446e+003
1.038251e+002, 1.480352e+003
1.043073e+002, 1.475406e+003
1.047894e+002, 1.477127e+003
1.052715e+002, 1.472413e+003
1.057536e+002, 1.458428e+003
1.062357e+002, 1.441099e+003
1.067178e+002, 1.424089e+003
1.072000e+002, 1.406764e+003
1.076821e+002, 1.390943e+003
1.081642e+002, 1.378000e+003
1.086463e+002, 1.368347e+003
1.091284e+002, 1.355878e+003
1.096105e+002, 1.338279e+003
1.100927e+002, 1.318828e+003
1.105748e+002, 1.300765e+003
1.110569e+002, 1.284338e+003
1.115390e+002, 1.269111e+003
1.120211e+002, 1.254692e+003
1.125032e+002, 1.240438e+003
1.129854e+002, 1.229378e+003
1.134675e+002, 1.225604e+003
1.139496e+002, 1.224626e+003
1.144317e+002, 1.219877e+003
1.149138e+002, 1.203533e+003
1.153959e+002, 1.187799e+003
1.158781e+002, 1.180097e+003
1.163602e+002, 1.188859e+003
1.168423e+002, 1.190054e+003
1.173244e+002, 1.167292e+003
1.178065e+002, 1.129534e+003
1.182886e+002, 1.099579e+003
1.187708e+002, 1.093318e+003
1.192529e+002, 1.095464e+003
1.197350e+002, 1.094174e+003
1.202171e+002, 1.084173e+003
1.206992e+002, 1.072664e+003
1.211813e+002, 1.065092e+003
1.216635e+002, 1.060574e+003
1.221456e+002, 1.054389e+003
1.226277e+002, 1.041256e+003
1.231098e+002, 1.025232e+003
1.235919e+002, 1.011698e+003
1.240740e+002, 1.004276e+003
1.245562e+002, 9.991179e+002
1.250383e+002, 9.920477e+002
1.255204e+002, 9.830500e+002
1.260025e+002, 9.744663e+002
1.264846e+002, 9.695000e+002
1.269667e+002, 9.666755e+002
1.274489e+002, 9.623026e+002
1.279310e+002, 9.546974e+002
1.284131e+002, 9.444829e+002
1.288952e+002, 9.314213e+002
1.293773e+002, 9.145684e+002
1.298594e+002, 8.992589e+002
1.303416e+002, 8.936273e+002
1.308237e+002, 8.965360e+002
1.313058e+002, 8.993232e+002
1.317879e+002, 8.991639e+002
1.322700e+002, 8.955919e+002
1.327521e+002, 8.842426e+002
1.332343e+002, 8.614505e+002
1.337164e+002, 8.365927e+002
1.341985e+002, 8.289351e+002
1.346806e+002, 8.397217e+002
1.351627e+002, 8.512926e+002
1.356448e+002, 8.504542e+002
1.361270e+002, 8.369794e+002
1.366091e+002, 8.281963e+002
1.370912e+002, 8.282006e+002
1.375733e+002, 8.333694e+002
1.380554e+002, 8.305936e+002
1.385375e+002, 8.178497e+002
1.390197e+002, 8.029882e+002
1.395018e+002, 7.909128e+002
1.399839e+002, 7.812424e+002
1.404660e+002, 7.771627e+002
1.409481e+002, 7.824399e+002
1.414302e+002, 7.956249e+002
1.419124e+002, 7.963063e+002
1.423945e+002, 7.779212e+002
1.428766e+002, 7.561301e+002
1.433587e+002, 7.481613e+002
1.438408e+002, 7.641569e+002
1.443229e+002, 7.730397e+002
1.448051e+002, 7.649508e+002
1.452872e+002, 7.359715e+002
1.457693e+002, 7.196942e+002
1.462514e+002, 7.243619e+002
1.467335e+002, 7.363302e+002
1.472156e+002, 7.377260e+002
1.476978e+002, 7.180837e+002
1.481799e+002, 7.007889e+002
1.486620e+002, 6.924812e+002
1.491441e+002, 6.978524e+002
1.496262e+002, 6.996512e+002
1.501083e+002, 6.965568e+002
1.505905e+002, 6.901033e+002
1.510726e+002, 6.828814e+002
1.515547e+002, 6.719175e+002
1.520368e+002, 6.628195e+002
1.525189e+002, 6.576340e+002
1.530010e+002, 6.601415e+002
1.534832e+002, 6.601009e+002
1.539653e+002, 6.545441e+002
1.544474e+002, 6.458663e+002
1.549295e+002, 6.398181e+002
1.554116e+002, 6.381138e+002
1.558937e+002, 6.384579e+002
1.563759e+002, 6.400959e+002
1.568580e+002, 6.460988e+002
1.573401e+002, 6.490989e+002
1.578222e+002, 6.458826e+002
1.583043e+002, 6.380333e+002
1.587864e+002, 6.313859e+002
1.592686e+002, 6.287887e+002
1.597507e+002, 6.271489e+002
1.602328e+002, 6.244844e+002
1.607149e+002, 6.189377e+002
1.611970e+002, 6.137057e+002
1.616791e+002, 6.092817e+002
1.621613e+002, 6.058427e+002
1.626434e+002, 6.041532e+002
1.631255e+002, 6.048749e+002
1.636076e+002, 6.073796e+002
1.640897e+002, 6.111078e+002
1.645718e+002, 6.154695e+002
1.650540e+002, 6.213519e+002
1.655361e+002, 6.314495e+002
1.660182e+002, 6.454557e+002
1.665003e+002, 6.553744e+002
1.669824e+002, 6.549016e+002
1.674645e+002, 6.484944e+002
1.679467e+002, 6.416982e+002
1.684288e+002, 6.330386e+002
1.689109e+002, 6.271326e+002
1.693930e+002, 6.280423e+002
1.698751e+002, 6.360963e+002
1.703572e+002, 6.466140e+002
1.708394e+002, 6.559028e+002
1.713215e+002, 6.656255e+002
1.718036e+002, 6.784061e+002
1.722857e+002, 6.968561e+002
1.727678e+002, 7.182567e+002
1.732499e+002, 7.378878e+002
1.737321e+002, 7.546183e+002
1.742142e+002, 7.775787e+002
1.746963e+002, 8.153292e+002
1.751784e+002, 8.656473e+002
1.756605e+002, 9.235284e+002
1.761426e+002, 9.883152e+002
1.766248e+002, 1.057998e+003
1.771069e+002, 1.129469e+003
1.775890e+002, 1.202621e+003
1.780711e+002, 1.278243e+003
1.785532e+002, 1.355449e+003
1.790353e+002, 1.435894e+003
1.795175e+002, 1.522423e+003
1.799996e+002, 1.624241e+003
1.804817e+002, 1.732589e+003
1.809638e+002, 1.831427e+003
1.814459e+002, 1.917251e+003
1.819280e+002, 1.998194e+003
1.824102e+002, 2.086680e+003
1.828923e+002, 2.180510e+003
1.833744e+002, 2.276439e+003
1.838565e+002, 2.375779e+003
1.843386e+002, 2.475538e+003
1.848207e+002, 2.563547e+003
1.853029e+002, 2.638141e+003
1.857850e+002, 2.702099e+003
1.862671e+002, 2.760085e+003
1.867492e+002, 2.811938e+003
1.872313e+002, 2.860008e+003
1.877134e+002, 2.904080e+003
1.881956e+002, 2.945384e+003
1.886777e+002, 2.987285e+003
1.891598e+002, 3.030108e+003
1.896419e+002, 3.074773e+003
1.901240e+002, 3.122948e+003
1.906061e+002, 3.175257e+003
1.910883e+002, 3.231750e+003
1.915704e+002, 3.295709e+003
1.920525e+002, 3.366624e+003
1.925346e+002, 3.433802e+003
1.930167e+002, 3.495341e+003
1.934988e+002, 3.549498e+003
1.939810e+002, 3.590297e+003
1.944631e+002, 3.616685e+003
1.949452e+002, 3.625729e+003
1.954273e+002, 3.595853e+003
1.959094e+002, 3.528282e+003
1.963915e+002, 3.455923e+003
1.968737e+002, 3.384755e+003
1.973558e+002, 3.314028e+003
1.978379e+002, 3.236524e+003
1.983200e+002, 3.150308e+003
1.988021e+002, 3.067758e+003
1.992842e+002, 3.002103e+003
1.997664e+002, 2.953527e+003
2.002485e+002, 2.907403e+003
2.007306e+002, 2.858779e+003
2.012127e+002, 2.809785e+003
2.016948e+002, 2.772814e+003
2.021769e+002, 2.749967e+003
2.026591e+002, 2.731944e+003
2.031412e+002, 2.709227e+003
2.036233e+002, 2.680393e+003
2.041054e+002, 2.656769e+003
2.045875e+002, 2.642077e+003
2.050696e+002, 2.635174e+003
2.055518e+002, 2.625571e+003
2.060339e+002, 2.611688e+003
2.065160e+002, 2.598516e+003
2.069981e+002, 2.593369e+003
2.074802e+002, 2.599348e+003
2.079623e+002, 2.598588e+003
2.084445e+002, 2.584395e+003
2.089266e+002, 2.557493e+003
2.094087e+002, 2.538662e+003
2.098908e+002, 2.530587e+003
2.103729e+002, 2.525218e+003
2.108550e+002, 2.513174e+003
2.113372e+002, 2.492488e+003
2.118193e+002, 2.472445e+003
2.123014e+002, 2.454638e+003
2.127835e+002, 2.439166e+003
2.132656e+002, 2.427752e+003
2.137477e+002, 2.421616e+003
2.142299e+002, 2.417693e+003
2.147120e+002, 2.413014e+003
2.151941e+002, 2.408255e+003
2.156762e+002, 2.400467e+003
2.161583e+002, 2.386790e+003
2.166404e+002, 2.366567e+003
2.171226e+002, 2.355332e+003
2.176047e+002, 2.357042e+003
2.180868e+002, 2.362936e+003
2.185689e+002, 2.362052e+003
2.190510e+002, 2.351443e+003
2.195331e+002, 2.340992e+003
2.200153e+002, 2.333008e+003
2.204974e+002, 2.327660e+003
2.209795e+002, 2.323126e+003
2.214616e+002, 2.320513e+003
2.219437e+002, 2.317617e+003
2.224258e+002, 2.311138e+003
2.229080e+002, 2.299041e+003
2.233901e+002, 2.287817e+003
2.238722e+002, 2.278903e+003
2.243543e+002, 2.271993e+003
2.248364e+002, 2.269253e+003
2.253185e+002, 2.273160e+003
2.258007e+002, 2.278871e+003
2.262828e+002, 2.280478e+003
2.267649e+002, 2.277449e+003
2.272470e+002, 2.271090e+003
2.277291e+002, 2.260932e+003
2.282112e+002, 2.246018e+003
2.286934e+002, 2.233137e+003
2.291755e+002, 2.221724e+003
2.296576e+002, 2.212752e+003
2.301397e+002, 2.208546e+003
2.306218e+002, 2.213471e+003
2.311039e+002, 2.214916e+003
2.315861e+002, 2.207849e+003
2.320682e+002, 2.189859e+003
2.325503e+002, 2.180518e+003
2.330324e+002, 2.184587e+003
2.335145e+002, 2.193350e+003
2.339966e+002, 2.195393e+003
2.344788e+002, 2.186088e+003
2.349609e+002, 2.178416e+003
2.354430e+002, 2.176033e+003
2.359251e+002, 2.179719e+003
2.364072e+002, 2.183481e+003
2.368893e+002, 2.188572e+003
2.373715e+002, 2.192690e+003
2.378536e+002, 2.192164e+003
2.383357e+002, 2.182109e+003
2.388178e+002, 2.175920e+003
2.392999e+002, 2.177848e+003
2.397820e+002, 2.189056e+003
2.402642e+002, 2.199314e+003
2.407463e+002, 2.209630e+003
2.412284e+002, 2.218073e+003
2.417105e+002, 2.221547e+003
2.421926e+002, 2.215876e+003
2.426747e+002, 2.212818e+003
2.431569e+002, 2.216248e+003
2.436390e+002, 2.227346e+003
2.441211e+002, 2.235287e+003
2.446032e+002, 2.240220e+003
2.450853e+002, 2.241972e+003
2.455674e+002, 2.239481e+003
2.460496e+002, 2.228480e+003
2.465317e+002, 2.221432e+003
2.470138e+002, 2.223580e+003
2.474959e+002, 2.236610e+003
2.479780e+002, 2.239079e+003
2.484601e+002, 2.225914e+003
2.489423e+002, 2.207393e+003
2.494244e+002, 2.195080e+003
2.499065e+002, 2.192655e+003
2.503886e+002, 2.189302e+003
2.508707e+002, 2.182761e+003
2.513528e+002, 2.173036e+003
2.518350e+002, 2.161877e+003
2.523171e+002, 2.149094e+003
2.527992e+002, 2.135237e+003
2.532813e+002, 2.120006e+003
2.537634e+002, 2.100476e+003
2.542455e+002, 2.086332e+003
2.547277e+002, 2.081246e+003
2.552098e+002, 2.085383e+003
2.556919e+002, 2.085459e+003
2.561740e+002, 2.080369e+003
2.566561e+002, 2.072552e+003
2.571382e+002, 2.064205e+003
2.576204e+002, 2.055047e+003
2.581025e+002, 2.045785e+003
2.585846e+002, 2.036372e+003
2.590667e+002, 2.026823e+003
2.595488e+002, 2.018686e+003
2.600309e+002, 2.013088e+003
2.605131e+002, 2.007526e+003
2.609952e+002, 1.999713e+003
2.614773e+002, 1.988671e+003
2.619594e+002, 1.978119e+003
2.624415e+002, 1.969095e+003
2.629236e+002, 1.961302e+003
2.634058e+002, 1.951789e+003
2.638879e+002, 1.938566e+003
2.643700e+002, 1.926873e+003
2.648521e+002, 1.921688e+003
2.653342e+002, 1.925889e+003
2.658163e+002, 1.926992e+003
2.662985e+002, 1.922674e+003
2.667806e+002, 1.913769e+003
2.672627e+002, 1.904140e+003
2.677448e+002, 1.892637e+003
2.682269e+002, 1.882927e+003
2.687090e+002, 1.878367e+003
2.691912e+002, 1.880255e+003
2.696733e+002, 1.881464e+003
2.701554e+002, 1.881034e+003
2.706375e+002, 1.879292e+003
2.711196e+002, 1.877740e+003
2.716017e+002, 1.876667e+003
2.720839e+002, 1.874944e+003
2.725660e+002, 1.871131e+003
2.730481e+002, 1.864501e+003
2.735302e+002, 1.860539e+003
2.740123e+002, 1.860192e+003
2.744944e+002, 1.862555e+003
2.749766e+002, 1.865754e+003
2.754587e+002, 1.870531e+003
2.759408e+002, 1.873355e+003
2.764229e+002, 1.870547e+003
2.769050e+002, 1.861350e+003
2.773871e+002, 1.856498e+003
2.778693e+002, 1.857932e+003
2.783514e+002, 1.862771e+003
2.788335e+002, 1.864547e+003
2.793156e+002, 1.862879e+003
2.797977e+002, 1.860540e+003
2.802798e+002, 1.858500e+003
2.807620e+002, 1.856760e+003
2.812441e+002, 1.857143e+003
2.817262e+002, 1.860388e+003
2.822083e+002, 1.864562e+003
2.826904e+002, 1.865613e+003
2.831725e+002, 1.863247e+003
2.836547e+002, 1.861737e+003
2.841368e+002, 1.863895e+003
2.846189e+002, 1.869307e+003
2.851010e+002, 1.873635e+003
2.855831e+002, 1.877052e+003
2.860652e+002, 1.878622e+003
2.865474e+002, 1.876456e+003
2.870295e+002, 1.870612e+003
2.875116e+002, 1.863764e+003
2.879937e+002, 1.855845e+003
2.884758e+002, 1.847441e+003
2.889579e+002, 1.842513e+003
2.894401e+002, 1.841213e+003
2.899222e+002, 1.842196e+003
2.904043e+002, 1.845044e+003
2.908864e+002, 1.849391e+003
2.913685e+002, 1.852170e+003
2.918506e+002, 1.851086e+003
2.923328e+002, 1.847693e+003
2.928149e+002, 1.846573e+003
2.932970e+002, 1.847790e+003
2.937791e+002, 1.850293e+003
2.942612e+002, 1.854555e+003
2.947433e+002, 1.859656e+003
2.952255e+002, 1.861602e+003
2.957076e+002, 1.857234e+003
2.961897e+002, 1.849912e+003
2.966718e+002, 1.846078e+003
2.971539e+002, 1.845690e+003
2.976360e+002, 1.847188e+003
2.981182e+002, 1.850655e+003
2.986003e+002, 1.855045e+003
2.990824e+002, 1.857766e+003
2.995645e+002, 1.857714e+003
3.000466e+002, 1.856100e+003
3.005287e+002, 1.854067e+003
3.010109e+002, 1.851757e+003
3.014930e+002, 1.850120e+003
3.019751e+002, 1.850103e+003
3.024572e+002, 1.851201e+003
3.029393e+002, 1.852914e+003
3.034214e+002, 1.856074e+003
3.039036e+002, 1.858148e+003
3.043857e+002, 1.854838e+003
3.048678e+002, 1.847634e+003
3.053499e+002, 1.841886e+003
3.058320e+002, 1.842769e+003
3.063141e+002, 1.846271e+003
3.067963e+002, 1.847254e+003
3.072784e+002, 1.844127e+003
3.077605e+002, 1.840662e+003
3.082426e+002, 1.839515e+003
3.087247e+002, 1.840388e+003
3.092068e+002, 1.842587e+003
3.096890e+002, 1.848226e+003
3.101711e+002, 1.853569e+003
3.106532e+002, 1.854349e+003
3.111353e+002, 1.849083e+003
3.116174e+002, 1.844536e+003
3.120995e+002, 1.845603e+003
3.125817e+002, 1.850163e+003
3.130638e+002, 1.854803e+003
3.135459e+002, 1.857498e+003
3.140280e+002, 1.860355e+003
3.145101e+002, 1.865674e+003
3.149922e+002, 1.873877e+003
3.154744e+002, 1.879814e+003
3.159565e+002, 1.878156e+003
3.164386e+002, 1.873861e+003
3.169207e+002, 1.872589e+003
3.174028e+002, 1.880574e+003
3.178849e+002, 1.887890e+003
3.183671e+002, 1.889126e+003
3.188492e+002, 1.884626e+003
3.193313e+002, 1.882446e+003
3.198134e+002, 1.887687e+003
3.202955e+002, 1.895099e+003
3.207776e+002, 1.900429e+003
3.212598e+002, 1.899913e+003
3.217419e+002, 1.900256e+003
3.222240e+002, 1.904378e+003
3.227061e+002, 1.911219e+003
3.231882e+002, 1.915290e+003
3.236703e+002, 1.911257e+003
3.241525e+002, 1.907083e+003
3.246346e+002, 1.907264e+003
3.251167e+002, 1.916542e+003
3.255988e+002, 1.924314e+003
3.260809e+002, 1.929064e+003
3.265630e+002, 1.931613e+003
3.270452e+002, 1.934209e+003
3.275273e+002, 1.939139e+003
3.280094e+002, 1.942265e+003
3.284915e+002, 1.941806e+003
3.289736e+002, 1.935633e+003
3.294557e+002, 1.930646e+003
3.299379e+002, 1.926863e+003
3.304200e+002, 1.924251e+003
3.309021e+002, 1.922685e+003
3.313842e+002, 1.920956e+003
3.318663e+002, 1.921859e+003
3.323484e+002, 1.927222e+003
3.328306e+002, 1.938126e+003
3.333127e+002, 1.945515e+003
3.337948e+002, 1.947863e+003
3.342769e+002, 1.948046e+003
3.347590e+002, 1.949237e+003
3.352411e+002, 1.952110e+003
3.357233e+002, 1.954396e+003
3.362054e+002, 1.954750e+003
3.366875e+002, 1.953540e+003
3.371696e+002, 1.957269e+003
3.376517e+002, 1.968479e+003
3.381339e+002, 1.979802e+003
3.386160e+002, 1.984279e+003
3.390981e+002, 1.980277e+003
3.395802e+002, 1.977714e+003
3.400623e+002, 1.977853e+003
3.405444e+002, 1.980467e+003
3.410266e+002, 1.985820e+003
3.415087e+002, 1.994903e+003
3.419908e+002, 2.002169e+003
3.424729e+002, 2.003771e+003
3.429550e+002, 1.999697e+003
3.434371e+002, 1.994159e+003
3.439193e+002, 1.987176e+003
3.444014e+002, 1.979471e+003
3.448835e+002, 1.971827e+003
3.453656e+002, 1.964260e+003
3.458477e+002, 1.958652e+003
3.463298e+002, 1.956528e+003
3.468120e+002, 1.957291e+003
3.472941e+002, 1.959237e+003
3.477762e+002, 1.962844e+003
3.482583e+002, 1.965066e+003
3.487404e+002, 1.961094e+003
3.492225e+002, 1.952214e+003
3.497047e+002, 1.943840e+003
3.501868e+002, 1.938747e+003
3.506689e+002, 1.935167e+003
3.511510e+002, 1.929348e+003
3.516331e+002, 1.921361e+003
3.521152e+002, 1.914016e+003
3.525974e+002, 1.909687e+003
3.530795e+002, 1.907629e+003
3.535616e+002, 1.906639e+003
3.540437e+002, 1.907141e+003
3.545258e+002, 1.907594e+003
3.550079e+002, 1.905757e+003
3.554901e+002, 1.902223e+003
3.559722e+002, 1.899598e+003
3.564543e+002, 1.900291e+003
3.569364e+002, 1.902350e+003
3.574185e+002, 1.903967e+003
3.579006e+002, 1.905059e+003
3.583828e+002, 1.905054e+003
3.588649e+002, 1.902209e+003
3.593470e+002, 1.898044e+003
3.598291e+002, 1.895608e+003
3.603112e+002, 1.897439e+003
3.607933e+002, 1.900484e+003
3.612755e+002, 1.903175e+003
3.617576e+002, 1.905380e+003
3.622397e+002, 1.906975e+003
3.627218e+002, 1.909291e+003
3.632039e+002, 1.910458e+003
3.636860e+002, 1.908402e+003
3.641682e+002, 1.896572e+003
3.646503e+002, 1.887231e+003
3.651324e+002, 1.886390e+003
3.656145e+002, 1.893633e+003
3.660966e+002, 1.897639e+003
3.665787e+002, 1.892623e+003
3.670609e+002, 1.886257e+003
3.675430e+002, 1.883459e+003
3.680251e+002, 1.889107e+003
3.685072e+002, 1.893078e+003
3.689893e+002, 1.893644e+003
3.694714e+002, 1.891885e+003
3.699536e+002, 1.891320e+003
3.704357e+002, 1.893420e+003
3.709178e+002, 1.895168e+003
3.713999e+002, 1.895072e+003
3.718820e+002, 1.891542e+003
3.723641e+002, 1.890401e+003
3.728463e+002, 1.892882e+003
3.733284e+002, 1.896935e+003
3.738105e+002, 1.899298e+003
3.742926e+002, 1.899115e+003
3.747747e+002, 1.899169e+003
3.752568e+002, 1.900485e+003
3.757390e+002, 1.903078e+003
3.762211e+002, 1.904166e+003
3.767032e+002, 1.902815e+003
3.771853e+002, 1.901889e+003
3.776674e+002, 1.904873e+003
3.781495e+002, 1.912367e+003
3.786317e+002, 1.918550e+003
3.791138e+002, 1.922591e+003
3.795959e+002, 1.924476e+003
3.800780e+002, 1.922957e+003
3.805601e+002, 1.917612e+003
3.810422e+002, 1.913828e+003
3.815244e+002, 1.916741e+003
3.820065e+002, 1.925029e+003
3.824886e+002, 1.930385e+003
3.829707e+002, 1.931033e+003
3.834528e+002, 1.931545e+003
3.839349e+002, 1.940845e+003
3.844171e+002, 1.957066e+003
3.848992e+002, 1.969908e+003
3.853813e+002, 1.970892e+003
3.858634e+002, 1.966484e+003
3.863455e+002, 1.968240e+003
3.868276e+002, 1.976661e+003
3.873098e+002, 1.986731e+003
3.877919e+002, 1.995729e+003
3.882740e+002, 2.003227e+003
3.887561e+002, 2.008249e+003
3.892382e+002, 2.007405e+003
3.897203e+002, 2.006998e+003
3.902025e+002, 2.014851e+003
3.906846e+002, 2.028808e+003
3.911667e+002, 2.038932e+003
3.916488e+002, 2.034677e+003
3.921309e+002, 2.026789e+003
3.926130e+002, 2.024173e+003
3.930952e+002, 2.029289e+003
3.935773e+002, 2.038304e+003
3.940594e+002, 2.053755e+003
3.945415e+002, 2.071635e+003
3.950236e+002, 2.084497e+003
3.955057e+002, 2.083628e+003
3.959879e+002, 2.083019e+003
3.964700e+002, 2.088898e+003
3.969521e+002, 2.102788e+003
3.974342e+002, 2.116197e+003
3.979163e+002, 2.128521e+003
3.983984e+002, 2.139477e+003
3.988806e+002, 2.148801e+003
3.993627e+002, 2.156174e+003
3.998448e+002, 2.162171e+003
4.003269e+002, 2.164526e+003
4.008090e+002, 2.164445e+003
4.012911e+002, 2.171253e+003
4.017733e+002, 2.190318e+003
4.022554e+002, 2.209958e+003
4.027375e+002, 2.223591e+003
4.032196e+002, 2.227375e+003
4.037017e+002, 2.235414e+003
4.041838e+002, 2.250598e+003
4.046660e+002, 2.267955e+003
4.051481e+002, 2.275619e+003
4.056302e+002, 2.269533e+003
4.061123e+002, 2.269076e+003
4.065944e+002, 2.283800e+003
4.070765e+002, 2.312777e+003
4.075587e+002, 2.333576e+003
4.080408e+002, 2.345072e+003
4.085229e+002, 2.353143e+003
4.090050e+002, 2.363981e+003
4.094871e+002, 2.377242e+003
4.099692e+002, 2.388773e+003
4.104514e+002, 2.397476e+003
4.109335e+002, 2.404214e+003
4.114156e+002, 2.410587e+003
4.118977e+002, 2.416530e+003
4.123798e+002, 2.422090e+003
4.128619e+002, 2.426031e+003
4.133441e+002, 2.429772e+003
4.138262e+002, 2.437118e+003
4.143083e+002, 2.449394e+003
4.147904e+002, 2.460983e+003
4.152725e+002, 2.466200e+003
4.157546e+002, 2.466775e+003
4.162368e+002, 2.466394e+003
4.167189e+002, 2.467136e+003
4.172010e+002, 2.467282e+003
4.176831e+002, 2.464015e+003
4.181652e+002, 2.457706e+003
4.186473e+002, 2.454046e+003
4.191295e+002, 2.459981e+003
4.196116e+002, 2.468049e+003
4.200937e+002, 2.471284e+003
4.205758e+002, 2.463991e+003
4.210579e+002, 2.457555e+003
4.215400e+002, 2.458293e+003
4.220222e+002, 2.462695e+003
4.225043e+002, 2.462118e+003
4.229864e+002, 2.450323e+003
4.234685e+002, 2.437000e+003
4.239506e+002, 2.425343e+003
4.244327e+002, 2.415550e+003
4.249149e+002, 2.407871e+003
4.253970e+002, 2.404898e+003
4.258791e+002, 2.402623e+003
4.263612e+002, 2.396842e+003
4.268433e+002, 2.384776e+003
4.273254e+002, 2.373633e+003
4.278076e+002, 2.364607e+003
4.282897e+002, 2.357361e+003
4.287718e+002, 2.350519e+003
4.292539e+002, 2.345043e+003
4.297360e+002, 2.338111e+003
4.302181e+002, 2.327826e+003
4.307003e+002, 2.313747e+003
4.311824e+002, 2.298610e+003
4.316645e+002, 2.281708e+003
4.321466e+002, 2.265226e+003
4.326287e+002, 2.254455e+003
4.331108e+002, 2.249647e+003
4.335930e+002, 2.243018e+003
4.340751e+002, 2.230452e+003
4.345572e+002, 2.214008e+003
4.350393e+002, 2.200061e+003
4.355214e+002, 2.188681e+003
4.360035e+002, 2.179486e+003
4.364857e+002, 2.172754e+003
4.369678e+002, 2.168093e+003
4.374499e+002, 2.164698e+003
4.379320e+002, 2.163149e+003
4.384141e+002, 2.161265e+003
4.388962e+002, 2.156937e+003
4.393784e+002, 2.150331e+003
4.398605e+002, 2.141959e+003
4.403426e+002, 2.128111e+003
4.408247e+002, 2.115131e+003
4.413068e+002, 2.109041e+003
4.417889e+002, 2.110855e+003
4.422711e+002, 2.113657e+003
4.427532e+002, 2.115716e+003
4.432353e+002, 2.116244e+003
4.437174e+002, 2.114427e+003
4.441995e+002, 2.107716e+003
4.446816e+002, 2.101053e+003
4.451638e+002, 2.095395e+003
4.456459e+002, 2.090812e+003
4.461280e+002, 2.087321e+003
4.466101e+002, 2.087247e+003
4.470922e+002, 2.086355e+003
4.475743e+002, 2.082313e+003
4.480565e+002, 2.072760e+003
4.485386e+002, 2.066207e+003
4.490207e+002, 2.064756e+003
4.495028e+002, 2.065023e+003
4.499849e+002, 2.062489e+003
4.504670e+002, 2.055604e+003
4.509492e+002, 2.049517e+003
4.514313e+002, 2.046140e+003
4.519134e+002, 2.044766e+003
4.523955e+002, 2.039158e+003
4.528776e+002, 2.027882e+003
4.533597e+002, 2.017795e+003
4.538419e+002, 2.014966e+003
4.543240e+002, 2.019196e+003
4.548061e+002, 2.020583e+003
4.552882e+002, 2.017626e+003
4.557703e+002, 2.013365e+003
4.562524e+002, 2.013446e+003
4.567346e+002, 2.017021e+003
4.572167e+002, 2.018496e+003
4.576988e+002, 2.014214e+003
4.581809e+002, 2.006902e+003
4.586630e+002, 2.001016e+003
4.591451e+002, 1.996520e+003
4.596273e+002, 1.992275e+003
4.601094e+002, 1.987587e+003
4.605915e+002, 1.982614e+003
4.610736e+002, 1.977852e+003
4.615557e+002, 1.974137e+003
4.620378e+002, 1.968929e+003
4.625200e+002, 1.957529e+003
4.630021e+002, 1.943624e+003
4.634842e+002, 1.934626e+003
4.639663e+002, 1.937954e+003
4.644484e+002, 1.942906e+003
4.649305e+002, 1.944943e+003
4.654127e+002, 1.943753e+003
4.658948e+002, 1.940695e+003
4.663769e+002, 1.934383e+003
4.668590e+002, 1.927319e+003
4.673411e+002, 1.921317e+003
4.678232e+002, 1.915340e+003
4.683054e+002, 1.911905e+003
4.687875e+002, 1.912308e+003
4.692696e+002, 1.915084e+003
4.697517e+002, 1.917083e+003
4.702338e+002, 1.919691e+003
4.707159e+002, 1.918693e+003
4.711981e+002, 1.910979e+003
4.716802e+002, 1.896080e+003
4.721623e+002, 1.887416e+003
4.726444e+002, 1.886765e+003
4.731265e+002, 1.887750e+003
4.736086e+002, 1.882928e+003
4.740908e+002, 1.872445e+003
4.745729e+002, 1.866198e+003
4.750550e+002, 1.867413e+003
4.755371e+002, 1.871428e+003
4.760192e+002, 1.869055e+003
4.765013e+002, 1.860935e+003
4.769835e+002, 1.852385e+003
4.774656e+002, 1.846384e+003
4.779477e+002, 1.841741e+003
4.784298e+002, 1.835989e+003
4.789119e+002, 1.828953e+003
4.793940e+002, 1.823388e+003
4.798762e+002, 1.825153e+003
4.803583e+002, 1.828518e+003
4.808404e+002, 1.825453e+003
4.813225e+002, 1.807745e+003
4.818046e+002, 1.791192e+003
4.822867e+002, 1.785663e+003
4.827689e+002, 1.787732e+003
4.832510e+002, 1.788548e+003
4.837331e+002, 1.783228e+003
4.842152e+002, 1.777792e+003
4.846973e+002, 1.775976e+003
4.851794e+002, 1.779603e+003
4.856616e+002, 1.778750e+003
4.861437e+002, 1.768015e+003
4.866258e+002, 1.755238e+003
4.871079e+002, 1.746391e+003
4.875900e+002, 1.743984e+003
4.880721e+002, 1.740887e+003
4.885543e+002, 1.735574e+003
4.890364e+002, 1.729404e+003
4.895185e+002, 1.727013e+003
4.900006e+002, 1.729855e+003
4.904827e+002, 1.731796e+003
4.909648e+002, 1.729489e+003
4.914470e+002, 1.723200e+003
4.919291e+002, 1.718481e+003
4.924112e+002, 1.715247e+003
4.928933e+002, 1.714172e+003
4.933754e+002, 1.717325e+003
4.938575e+002, 1.723651e+003
4.943397e+002, 1.728676e+003
4.948218e+002, 1.731919e+003
4.953039e+002, 1.732485e+003
4.957860e+002, 1.726979e+003
4.962681e+002, 1.717195e+003
4.967502e+002, 1.709260e+003
4.972324e+002, 1.707342e+003
4.977145e+002, 1.708163e+003
4.981966e+002, 1.709928e+003
4.986787e+002, 1.712516e+003
4.991608e+002, 1.712190e+003
4.996429e+002, 1.702916e+003
5.001251e+002, 1.691955e+003
5.006072e+002, 1.685579e+003
5.010893e+002, 1.687905e+003
5.015714e+002, 1.691247e+003
5.020535e+002, 1.696639e+003
5.025356e+002, 1.701792e+003
5.030178e+002, 1.701535e+003
5.034999e+002, 1.688946e+003
5.039820e+002, 1.677999e+003
5.044641e+002, 1.672520e+003
5.049462e+002, 1.672690e+003
5.054283e+002, 1.673314e+003
5.059105e+002, 1.674896e+003
5.063926e+002, 1.676207e+003
5.068747e+002, 1.676504e+003
5.073568e+002, 1.675888e+003
5.078389e+002, 1.673306e+003
5.083210e+002, 1.667839e+003
5.088032e+002, 1.661885e+003
5.092853e+002, 1.660320e+003
5.097674e+002, 1.662861e+003
5.102495e+002, 1.664960e+003
5.107316e+002, 1.664556e+003
5.112137e+002, 1.662519e+003
5.116959e+002, 1.660594e+003
5.121780e+002, 1.658764e+003
5.126601e+002, 1.656843e+003
5.131422e+002, 1.654625e+003
5.136243e+002, 1.652252e+003
5.141064e+002, 1.649936e+003
5.145886e+002, 1.647754e+003
5.150707e+002, 1.645504e+003
5.155528e+002, 1.642289e+003
5.160349e+002, 1.639157e+003
5.165170e+002, 1.637563e+003
5.169991e+002, 1.642136e+003
5.174813e+002, 1.644156e+003
5.179634e+002, 1.638418e+003
5.184455e+002, 1.626220e+003
5.189276e+002, 1.618286e+003
5.194097e+002, 1.618400e+003
5.198918e+002, 1.620959e+003
5.203740e+002, 1.624544e+003
5.208561e+002, 1.630926e+003
5.213382e+002, 1.632026e+003
5.218203e+002, 1.624859e+003
5.223024e+002, 1.615805e+003
5.227845e+002, 1.612756e+003
5.232667e+002, 1.616944e+003
5.237488e+002, 1.619800e+003
5.242309e+002, 1.618713e+003
5.247130e+002, 1.616076e+003
5.251951e+002, 1.619890e+003
5.256772e+002, 1.629958e+003
5.261594e+002, 1.636604e+003
5.266415e+002, 1.631517e+003
5.271236e+002, 1.619667e+003
5.276057e+002, 1.611932e+003
5.280878e+002, 1.608717e+003
5.285699e+002, 1.607850e+003
5.290521e+002, 1.609265e+003
5.295342e+002, 1.611428e+003
5.300163e+002, 1.612145e+003
5.304984e+002, 1.609943e+003
5.309805e+002, 1.607866e+003
5.314626e+002, 1.608413e+003
5.319448e+002, 1.610204e+003
5.324269e+002, 1.610561e+003
5.329090e+002, 1.607539e+003
5.333911e+002, 1.604072e+003
5.338732e+002, 1.599551e+003
5.343553e+002, 1.593870e+003
5.348375e+002, 1.594319e+003
5.353196e+002, 1.609394e+003
5.358017e+002, 1.622210e+003
5.362838e+002, 1.622210e+003
5.367659e+002, 1.602279e+003
5.372480e+002, 1.589497e+003
5.377302e+002, 1.585325e+003
5.382123e+002, 1.586595e+003
5.386944e+002, 1.590434e+003
5.391765e+002, 1.597318e+003
5.396586e+002, 1.600115e+003
5.401407e+002, 1.595257e+003
5.406229e+002, 1.586570e+003
5.411050e+002, 1.584382e+003
5.415871e+002, 1.587990e+003
5.420692e+002, 1.590132e+003
5.425513e+002, 1.582113e+003
5.430334e+002, 1.571361e+003
5.435156e+002, 1.571443e+003
5.439977e+002, 1.583723e+003
5.444798e+002, 1.594377e+003
5.449619e+002, 1.592771e+003
5.454440e+002, 1.584610e+003
5.459261e+002, 1.575777e+003
5.464083e+002, 1.564776e+003
5.468904e+002, 1.557668e+003
5.473725e+002, 1.559751e+003
5.478546e+002, 1.566985e+003
5.483367e+002, 1.570799e+003
5.488188e+002, 1.564726e+003
5.493010e+002, 1.560597e+003
5.497831e+002, 1.562172e+003
5.502652e+002, 1.569332e+003
5.507473e+002, 1.574367e+003
5.512294e+002, 1.577445e+003
5.517115e+002, 1.578108e+003
5.521937e+002, 1.575103e+003
5.526758e+002, 1.567786e+003
5.531579e+002, 1.563745e+003
5.536400e+002, 1.564221e+003
5.541221e+002, 1.565533e+003
5.546042e+002, 1.562134e+003
5.550864e+002, 1.554794e+003
5.555685e+002, 1.548057e+003
5.560506e+002, 1.542711e+003
5.565327e+002, 1.539459e+003
5.570148e+002, 1.542027e+003
5.574969e+002, 1.548360e+003
5.579791e+002, 1.550763e+003
5.584612e+002, 1.538980e+003
5.589433e+002, 1.525430e+003
5.594254e+002, 1.521585e+003
5.599075e+002, 1.528330e+003
5.603896e+002, 1.534350e+003
5.608718e+002, 1.534457e+003
5.613539e+002, 1.532378e+003
5.618360e+002, 1.530878e+003
5.623181e+002, 1.531578e+003
5.628002e+002, 1.531015e+003
5.632823e+002, 1.528622e+003
5.637645e+002, 1.525112e+003
5.642466e+002, 1.521122e+003
5.647287e+002, 1.515109e+003
5.652108e+002, 1.512756e+003
5.656929e+002, 1.518032e+003
5.661750e+002, 1.527646e+003
5.666572e+002, 1.524340e+003
5.671393e+002, 1.506116e+003
5.676214e+002, 1.489468e+003
5.681035e+002, 1.485825e+003
5.685856e+002, 1.491980e+003
5.690677e+002, 1.495677e+003
5.695499e+002, 1.496379e+003
5.700320e+002, 1.496027e+003
5.705141e+002, 1.496939e+003
5.709962e+002, 1.497856e+003
5.714783e+002, 1.496306e+003
5.719604e+002, 1.490030e+003
5.724426e+002, 1.484595e+003
5.729247e+002, 1.484341e+003
5.734068e+002, 1.487275e+003
5.738889e+002, 1.489823e+003
5.743710e+002, 1.492128e+003
5.748531e+002, 1.492567e+003
5.753353e+002, 1.489633e+003
5.758174e+002, 1.483656e+003
5.762995e+002, 1.479119e+003
5.767816e+002, 1.476732e+003
5.772637e+002, 1.475144e+003
5.777458e+002, 1.473760e+003
5.782280e+002, 1.472514e+003
5.787101e+002, 1.472042e+003
5.791922e+002, 1.472717e+003
5.796743e+002, 1.473344e+003
5.801564e+002, 1.472589e+003
5.806385e+002, 1.470517e+003
5.811207e+002, 1.468009e+003
5.816028e+002, 1.464971e+003
5.820849e+002, 1.462149e+003
5.825670e+002, 1.459989e+003
5.830491e+002, 1.458871e+003
5.835313e+002, 1.459971e+003
5.840134e+002, 1.467335e+003
5.844955e+002, 1.474671e+003
5.849776e+002, 1.474368e+003
5.854597e+002, 1.467956e+003
5.859418e+002, 1.464170e+003
5.864240e+002, 1.473199e+003
5.869061e+002, 1.481385e+003
5.873882e+002, 1.478594e+003
5.878703e+002, 1.458920e+003
5.883524e+002, 1.447383e+003
5.888345e+002, 1.453556e+003
5.893167e+002, 1.464695e+003
5.897988e+002, 1.471146e+003
5.902809e+002, 1.471294e+003
5.907630e+002, 1.470157e+003
5.912451e+002, 1.467191e+003
5.917272e+002, 1.464041e+003
5.922094e+002, 1.464697e+003
5.926915e+002, 1.469505e+003
5.931736e+002, 1.472460e+003
5.936557e+002, 1.470526e+003
5.941378e+002, 1.466096e+003
5.946199e+002, 1.464786e+003
5.951021e+002, 1.466394e+003
5.955842e+002, 1.469140e+003
5.960663e+002, 1.473876e+003
5.965484e+002, 1.478068e+003
5.970305e+002, 1.478023e+003
5.975126e+002, 1.473307e+003
5.979948e+002, 1.468826e+003
5.984769e+002, 1.468543e+003
5.989590e+002, 1.469065e+003
5.994411e+002, 1.467224e+003
5.999232e+002, 1.459167e+003
6.004053e+002, 1.454091e+003
6.008875e+002, 1.456068e+003
6.013696e+002, 1.460865e+003
6.018517e+002, 1.462446e+003
6.023338e+002, 1.458531e+003
6.028159e+002, 1.456040e+003
6.032980e+002, 1.457057e+003
6.037802e+002, 1.460149e+003
6.042623e+002, 1.459316e+003
6.047444e+002, 1.453955e+003
6.052265e+002, 1.449803e+003
6.057086e+002, 1.450124e+003
6.061907e+002, 1.454010e+003
6.066729e+002, 1.459339e+003
6.071550e+002, 1.466021e+003
6.076371e+002, 1.471113e+003
6.081192e+002, 1.471349e+003
6.086013e+002, 1.468881e+003
6.090834e+002, 1.466354e+003
6.095656e+002, 1.464148e+003
6.100477e+002, 1.462096e+003
6.105298e+002, 1.460120e+003
6.110119e+002, 1.458269e+003
6.114940e+002, 1.456575e+003
6.119761e+002, 1.450740e+003
6.124583e+002, 1.450339e+003
6.129404e+002, 1.462170e+003
6.134225e+002, 1.479611e+003
6.139046e+002, 1.487796e+003
6.143867e+002, 1.482462e+003
6.148688e+002, 1.476456e+003
6.153510e+002, 1.472881e+003
6.158331e+002, 1.471641e+003
6.163152e+002, 1.472293e+003
6.167973e+002, 1.474911e+003
6.172794e+002, 1.478347e+003
6.177615e+002, 1.483455e+003
6.182437e+002, 1.488605e+003
6.187258e+002, 1.488052e+003
6.192079e+002, 1.481231e+003
6.196900e+002, 1.474852e+003
6.201721e+002, 1.475646e+003
6.206542e+002, 1.479781e+003
6.211364e+002, 1.482461e+003
6.216185e+002, 1.482257e+003
6.221006e+002, 1.481299e+003
6.225827e+002, 1.480437e+003
6.230648e+002, 1.479460e+003
6.235469e+002, 1.478071e+003
6.240291e+002, 1.473513e+003
6.245112e+002, 1.472046e+003
6.249933e+002, 1.476446e+003
6.254754e+002, 1.484496e+003
6.259575e+002, 1.488374e+003
6.264396e+002, 1.487060e+003
6.269218e+002, 1.484698e+003
6.274039e+002, 1.482471e+003
6.278860e+002, 1.480492e+003
6.283681e+002, 1.479266e+003
6.288502e+002, 1.478767e+003
6.293323e+002, 1.479530e+003
6.298145e+002, 1.483680e+003
6.302966e+002, 1.488920e+003
6.307787e+002, 1.490421e+003
6.312608e+002, 1.487495e+003
6.317429e+002, 1.483850e+003
6.322250e+002, 1.482563e+003
6.327072e+002, 1.481857e+003
6.331893e+002, 1.479337e+003
6.336714e+002, 1.470504e+003
6.341535e+002, 1.466505e+003
6.346356e+002, 1.475749e+003
6.351177e+002, 1.490060e+003
6.355999e+002, 1.496309e+003
6.360820e+002, 1.488638e+003
6.365641e+002, 1.482037e+003
6.370462e+002, 1.479061e+003
6.375283e+002, 1.478774e+003
6.380104e+002, 1.478163e+003
6.384926e+002, 1.477224e+003
6.389747e+002, 1.475970e+003
6.394568e+002, 1.473917e+003
6.399389e+002, 1.471639e+003
6.404210e+002, 1.471221e+003
6.409031e+002, 1.472609e+003
6.413853e+002, 1.474686e+003
6.418674e+002, 1.475767e+003
6.423495e+002, 1.477533e+003
6.428316e+002, 1.483417e+003
6.433137e+002, 1.494527e+003
6.437958e+002, 1.502236e+003
6.442780e+002, 1.499658e+003
6.447601e+002, 1.493222e+003
6.452422e+002, 1.488520e+003
6.457243e+002, 1.487278e+003
6.462064e+002, 1.486549e+003
6.466885e+002, 1.485151e+003
6.471707e+002, 1.484709e+003
6.476528e+002, 1.488158e+003
6.481349e+002, 1.497703e+003
6.486170e+002, 1.503601e+003
6.490991e+002, 1.502626e+003
6.495812e+002, 1.498498e+003
6.500634e+002, 1.501598e+003
6.505455e+002, 1.511281e+003
6.510276e+002, 1.517793e+003
6.515097e+002, 1.514400e+003
6.519918e+002, 1.506538e+003
6.524739e+002, 1.501615e+003
6.529561e+002, 1.499625e+003
6.534382e+002, 1.500215e+003
6.539203e+002, 1.506548e+003
6.544024e+002, 1.512880e+003
6.548845e+002, 1.514328e+003
6.553666e+002, 1.509840e+003
6.558488e+002, 1.507651e+003
6.563309e+002, 1.511357e+003
6.568130e+002, 1.516619e+003
6.572951e+002, 1.520790e+003
6.577772e+002, 1.523258e+003
6.582593e+002, 1.526397e+003
6.587415e+002, 1.530599e+003
6.592236e+002, 1.534844e+003
6.597057e+002, 1.538788e+003
6.601878e+002, 1.542364e+003
6.606699e+002, 1.541091e+003
6.611520e+002, 1.532278e+003
6.616342e+002, 1.523223e+003
6.621163e+002, 1.525551e+003
6.625984e+002, 1.536056e+003
6.630805e+002, 1.546392e+003
6.635626e+002, 1.555296e+003
6.640447e+002, 1.560660e+003
6.645269e+002, 1.558939e+003
6.650090e+002, 1.552248e+003
6.654911e+002, 1.546760e+003
6.659732e+002, 1.543394e+003
6.664553e+002, 1.542532e+003
6.669374e+002, 1.545681e+003
6.674196e+002, 1.552435e+003
6.679017e+002, 1.556524e+003
6.683838e+002, 1.555860e+003
6.688659e+002, 1.556572e+003
6.693480e+002, 1.562222e+003
6.698301e+002, 1.572750e+003
6.703123e+002, 1.583648e+003
6.707944e+002, 1.595306e+003
6.712765e+002, 1.604593e+003
6.717586e+002, 1.607137e+003
6.722407e+002, 1.605598e+003
6.727228e+002, 1.605586e+003
6.732050e+002, 1.607792e+003
6.736871e+002, 1.611918e+003
6.741692e+002, 1.619499e+003
6.746513e+002, 1.628146e+003
6.751334e+002, 1.634834e+003
6.756155e+002, 1.636141e+003
6.760977e+002, 1.639544e+003
6.765798e+002, 1.646706e+003
6.770619e+002, 1.656919e+003
6.775440e+002, 1.669370e+003
6.780261e+002, 1.685582e+003
6.785082e+002, 1.700545e+003
6.789904e+002, 1.713265e+003
6.794725e+002, 1.724331e+003
6.799546e+002, 1.735067e+003
6.804367e+002, 1.745297e+003
6.809188e+002, 1.757384e+003
6.814009e+002, 1.775056e+003
6.818831e+002, 1.793308e+003
6.823652e+002, 1.803432e+003
6.828473e+002, 1.805767e+003
6.833294e+002, 1.801459e+003
6.838115e+002, 1.790642e+003
6.842936e+002, 1.773889e+003
6.847758e+002, 1.747879e+003
6.852579e+002, 1.712860e+003
6.857400e+002, 1.683883e+003
6.862221e+002, 1.668235e+003
6.867042e+002, 1.657269e+003
6.871863e+002, 1.645882e+003
6.876685e+002, 1.632707e+003
6.881506e+002, 1.625840e+003
6.886327e+002, 1.627019e+003
6.891148e+002, 1.630689e+003
6.895969e+002, 1.631462e+003
6.900790e+002, 1.629644e+003
6.905612e+002, 1.630392e+003
6.910433e+002, 1.634464e+003
6.915254e+002, 1.639728e+003
6.920075e+002, 1.645244e+003
6.924896e+002, 1.649809e+003
6.929717e+002, 1.650508e+003
6.934539e+002, 1.643689e+003
6.939360e+002, 1.638564e+003
6.944181e+002, 1.640797e+003
6.949002e+002, 1.648093e+003
6.953823e+002, 1.656928e+003
6.958644e+002, 1.670672e+003
6.963466e+002, 1.680581e+003
6.968287e+002, 1.683270e+003
6.973108e+002, 1.682018e+003
6.977929e+002, 1.686066e+003
6.982750e+002, 1.697570e+003
6.987571e+002, 1.706272e+003
6.992393e+002, 1.707769e+003
6.997214e+002, 1.704841e+003
7.002035e+002, 1.706498e+003
7.006856e+002, 1.712168e+003
7.011677e+002, 1.716783e+003
7.016498e+002, 1.716996e+003
7.021320e+002, 1.714786e+003
7.026141e+002, 1.711049e+003
7.030962e+002, 1.706256e+003
7.035783e+002, 1.703991e+003
7.040604e+002, 1.710415e+003
7.045425e+002, 1.716075e+003
7.050247e+002, 1.714613e+003
7.055068e+002, 1.703747e+003
7.059889e+002, 1.695632e+003
7.064710e+002, 1.690527e+003
7.069531e+002, 1.687889e+003
7.074352e+002, 1.688631e+003
7.079174e+002, 1.693435e+003
7.083995e+002, 1.693160e+003
7.088816e+002, 1.686898e+003
7.093637e+002, 1.679289e+003
7.098458e+002, 1.674213e+003
7.103279e+002, 1.671661e+003
7.108101e+002, 1.672173e+003
7.112922e+002, 1.676645e+003
7.117743e+002, 1.680714e+003
7.122564e+002, 1.681312e+003
7.127385e+002, 1.679570e+003
7.132206e+002, 1.676687e+003
7.137028e+002, 1.669757e+003
7.141849e+002, 1.666257e+003
7.146670e+002, 1.671147e+003
7.151491e+002, 1.678822e+003
7.156312e+002, 1.681361e+003
7.161133e+002, 1.676238e+003
7.165955e+002, 1.673022e+003
7.170776e+002, 1.673678e+003
7.175597e+002, 1.676689e+003
7.180418e+002, 1.678966e+003
7.185239e+002, 1.680590e+003
7.190060e+002, 1.682338e+003
7.194882e+002, 1.684553e+003
7.199703e+002, 1.686938e+003
7.204524e+002, 1.689203e+003
7.209345e+002, 1.691327e+003
7.214166e+002, 1.693369e+003
7.218987e+002, 1.694399e+003
7.223809e+002, 1.696227e+003
7.228630e+002, 1.700475e+003
7.233451e+002, 1.706718e+003
7.238272e+002, 1.711241e+003
7.243093e+002, 1.713509e+003
7.247914e+002, 1.714593e+003
7.252736e+002, 1.714345e+003
7.257557e+002, 1.713008e+003
7.262378e+002, 1.713911e+003
7.267199e+002, 1.717407e+003
7.272020e+002, 1.720446e+003
7.276841e+002, 1.719555e+003
7.281663e+002, 1.717144e+003
7.286484e+002, 1.719589e+003
7.291305e+002, 1.726885e+003
7.296126e+002, 1.733223e+003
7.300947e+002, 1.734021e+003
7.305768e+002, 1.732653e+003
7.310590e+002, 1.731344e+003
7.315411e+002, 1.730051e+003
7.320232e+002, 1.730520e+003
7.325053e+002, 1.733984e+003
7.329874e+002, 1.738521e+003
7.334695e+002, 1.743089e+003
7.339517e+002, 1.747587e+003
7.344338e+002, 1.752757e+003
7.349159e+002, 1.759277e+003
7.353980e+002, 1.764582e+003
7.358801e+002, 1.764172e+003
7.363622e+002, 1.759838e+003
7.368444e+002, 1.759650e+003
7.373265e+002, 1.765504e+003
7.378086e+002, 1.772367e+003
7.382907e+002, 1.775229e+003
7.387728e+002, 1.776345e+003
7.392549e+002, 1.778871e+003
7.397371e+002, 1.786127e+003
7.402192e+002, 1.790644e+003
7.407013e+002, 1.785636e+003
7.411834e+002, 1.778784e+003
7.416655e+002, 1.780865e+003
7.421476e+002, 1.797524e+003
7.426298e+002, 1.809528e+003
7.431119e+002, 1.814140e+003
7.435940e+002, 1.813655e+003
7.440761e+002, 1.810137e+003
7.445582e+002, 1.804196e+003
7.450403e+002, 1.802353e+003
7.455225e+002, 1.807692e+003
7.460046e+002, 1.815975e+003
7.464867e+002, 1.822880e+003
7.469688e+002, 1.828658e+003
7.474509e+002, 1.833810e+003
7.479330e+002, 1.840417e+003
7.484152e+002, 1.844449e+003
7.488973e+002, 1.841087e+003
7.493794e+002, 1.833702e+003
7.498615e+002, 1.833688e+003
7.503436e+002, 1.847079e+003
7.508257e+002, 1.857149e+003
7.513079e+002, 1.858343e+003
7.517900e+002, 1.853815e+003
7.522721e+002, 1.856149e+003
7.527542e+002, 1.865369e+003
7.532363e+002, 1.871497e+003
7.537184e+002, 1.866733e+003
7.542006e+002, 1.857856e+003
7.546827e+002, 1.854948e+003
7.551648e+002, 1.857307e+003
7.556469e+002, 1.862113e+003
7.561290e+002, 1.870079e+003
7.566111e+002, 1.878142e+003
7.570933e+002, 1.885119e+003
7.575754e+002, 1.890772e+003
7.580575e+002, 1.894786e+003
7.585396e+002, 1.896090e+003
7.590217e+002, 1.897304e+003
7.595038e+002, 1.899429e+003
7.599860e+002, 1.902363e+003
7.604681e+002, 1.905138e+003
7.609502e+002, 1.907681e+003
7.614323e+002, 1.910670e+003
7.619144e+002, 1.914622e+003
7.623965e+002, 1.919286e+003
7.628787e+002, 1.925067e+003
7.633608e+002, 1.931676e+003
7.638429e+002, 1.936234e+003
7.643250e+002, 1.934129e+003
7.648071e+002, 1.931527e+003
7.652892e+002, 1.933135e+003
7.657714e+002, 1.940046e+003
7.662535e+002, 1.945415e+003
7.667356e+002, 1.947097e+003
7.672177e+002, 1.949463e+003
7.676998e+002, 1.955502e+003
7.681819e+002, 1.965620e+003
7.686641e+002, 1.973222e+003
7.691462e+002, 1.978051e+003
7.696283e+002, 1.981907e+003
7.701104e+002, 1.985815e+003
7.705925e+002, 1.989925e+003
7.710746e+002, 1.994936e+003
7.715568e+002, 2.000966e+003
7.720389e+002, 2.006006e+003
7.725210e+002, 2.006201e+003
7.730031e+002, 2.006620e+003
7.734852e+002, 2.011956e+003
7.739673e+002, 2.025404e+003
7.744495e+002, 2.035265e+003
7.749316e+002, 2.040295e+003
7.754137e+002, 2.042662e+003
7.758958e+002, 2.042989e+003
7.763779e+002, 2.040881e+003
7.768600e+002, 2.042394e+003
7.773422e+002, 2.048093e+003
7.778243e+002, 2.055227e+003
7.783064e+002, 2.062257e+003
7.787885e+002, 2.068461e+003
7.792706e+002, 2.072116e+003
7.797527e+002, 2.072613e+003
7.802349e+002, 2.072687e+003
7.807170e+002, 2.072577e+003
7.811991e+002, 2.073609e+003
7.816812e+002, 2.077226e+003
7.821633e+002, 2.086307e+003
7.826454e+002, 2.092499e+003
7.831276e+002, 2.093816e+003
7.836097e+002, 2.094658e+003
7.840918e+002, 2.099965e+003
7.845739e+002, 2.109814e+003
7.850560e+002, 2.117765e+003
7.855381e+002, 2.122872e+003
7.860203e+002, 2.127399e+003
7.865024e+002, 2.135013e+003
7.869845e+002, 2.143420e+003
7.874666e+002, 2.148012e+003
7.879487e+002, 2.146041e+003
7.884308e+002, 2.145938e+003
7.889130e+002, 2.154358e+003
7.893951e+002, 2.165397e+003
7.898772e+002, 2.172973e+003
7.903593e+002, 2.173847e+003
7.908414e+002, 2.176111e+003
7.913235e+002, 2.179933e+003
7.918057e+002, 2.184941e+003
7.922878e+002, 2.190992e+003
7.927699e+002, 2.198032e+003
7.932520e+002, 2.204103e+003
7.937341e+002, 2.208815e+003
7.942162e+002, 2.213198e+003
7.946984e+002, 2.218251e+003
7.951805e+002, 2.223851e+003
7.956626e+002, 2.230034e+003
7.961447e+002, 2.238069e+003
7.966268e+002, 2.244011e+003
7.971089e+002, 2.244142e+003
7.975911e+002, 2.242751e+003
7.980732e+002, 2.244837e+003
7.985553e+002, 2.252857e+003
7.990374e+002, 2.258586e+003
7.995195e+002, 2.260865e+003
8.000016e+002, 2.262233e+003
8.004838e+002, 2.266160e+003
8.009659e+002, 2.272268e+003
8.014480e+002, 2.278524e+003
8.019301e+002, 2.284674e+003
8.024122e+002, 2.290385e+003
8.028943e+002, 2.295922e+003
8.033765e+002, 2.300508e+003
8.038586e+002, 2.302716e+003
8.043407e+002, 2.298201e+003
8.048228e+002, 2.298547e+003
8.053049e+002, 2.310884e+003
8.057870e+002, 2.326426e+003
8.062692e+002, 2.336406e+003
8.067513e+002, 2.339276e+003
8.072334e+002, 2.342244e+003
8.077155e+002, 2.345448e+003
8.081976e+002, 2.350011e+003
8.086797e+002, 2.360267e+003
8.091619e+002, 2.373068e+003
8.096440e+002, 2.377710e+003
8.101261e+002, 2.369436e+003
8.106082e+002, 2.362428e+003
8.110903e+002, 2.369061e+003
8.115724e+002, 2.381773e+003
8.120546e+002, 2.392373e+003
8.125367e+002, 2.398564e+003
8.130188e+002, 2.403615e+003
8.135009e+002, 2.406845e+003
8.139830e+002, 2.410007e+003
8.144651e+002, 2.415554e+003
8.149473e+002, 2.423837e+003
8.154294e+002, 2.429085e+003
8.159115e+002, 2.430047e+003
8.163936e+002, 2.431340e+003
8.168757e+002, 2.439546e+003
8.173578e+002, 2.451439e+003
8.178400e+002, 2.461696e+003
8.183221e+002, 2.469249e+003
8.188042e+002, 2.474827e+003
8.192863e+002, 2.475984e+003
8.197684e+002, 2.476860e+003
8.202505e+002, 2.481584e+003
8.207327e+002, 2.491438e+003
8.212148e+002, 2.502260e+003
8.216969e+002, 2.514495e+003
8.221790e+002, 2.526828e+003
8.226611e+002, 2.538590e+003
8.231432e+002, 2.549402e+003
8.236254e+002, 2.555309e+003
8.241075e+002, 2.555548e+003
8.245896e+002, 2.554213e+003
8.250717e+002, 2.553615e+003
8.255538e+002, 2.554263e+003
8.260359e+002, 2.556704e+003
8.265181e+002, 2.560979e+003
8.270002e+002, 2.567360e+003
8.274823e+002, 2.579072e+003
8.279644e+002, 2.590542e+003
8.284465e+002, 2.597745e+003
8.289286e+002, 2.599244e+003
8.294108e+002, 2.604250e+003
8.298929e+002, 2.613679e+003
8.303750e+002, 2.622834e+003
8.308571e+002, 2.626334e+003
8.313392e+002, 2.626581e+003
8.318214e+002, 2.628552e+003
8.323035e+002, 2.632756e+003
8.327856e+002, 2.638212e+003
8.332677e+002, 2.642437e+003
8.337498e+002, 2.648920e+003
8.342319e+002, 2.662073e+003
8.347141e+002, 2.685934e+003
8.351962e+002, 2.699604e+003
8.356783e+002, 2.697692e+003
8.361604e+002, 2.694517e+003
8.366425e+002, 2.699936e+003
8.371246e+002, 2.713284e+003
8.376068e+002, 2.725064e+003
8.380889e+002, 2.735217e+003
8.385710e+002, 2.744175e+003
8.390531e+002, 2.752119e+003
8.395352e+002, 2.759163e+003
8.400173e+002, 2.763734e+003
8.404995e+002, 2.765997e+003
8.409816e+002, 2.773341e+003
8.414637e+002, 2.797072e+003
8.419458e+002, 2.817619e+003
8.424279e+002, 2.824167e+003
8.429100e+002, 2.817108e+003
8.433922e+002, 2.820789e+003
8.438743e+002, 2.837175e+003
8.443564e+002, 2.853372e+003
8.448385e+002, 2.859949e+003
8.453206e+002, 2.861282e+003
8.458027e+002, 2.868436e+003
8.462849e+002, 2.880254e+003
8.467670e+002, 2.890168e+003
8.472491e+002, 2.892367e+003
8.477312e+002, 2.893591e+003
8.482133e+002, 2.896242e+003
8.486954e+002, 2.901011e+003
8.491776e+002, 2.911434e+003
8.496597e+002, 2.932200e+003
8.501418e+002, 2.949248e+003
8.506239e+002, 2.956109e+003
8.511060e+002, 2.956735e+003
8.515881e+002, 2.964849e+003
8.520703e+002, 2.979656e+003
8.525524e+002, 2.994394e+003
8.530345e+002, 3.005839e+003
8.535166e+002, 3.015389e+003
8.539987e+002, 3.022550e+003
8.544808e+002, 3.028858e+003
8.549630e+002, 3.038292e+003
8.554451e+002, 3.056616e+003
8.559272e+002, 3.072243e+003
8.564093e+002, 3.082229e+003
8.568914e+002, 3.088312e+003
8.573735e+002, 3.094979e+003
8.578557e+002, 3.102380e+003
8.583378e+002, 3.107830e+003
8.588199e+002, 3.108993e+003
8.593020e+002, 3.111359e+003
8.597841e+002, 3.125650e+003
8.602662e+002, 3.146984e+003
8.607484e+002, 3.165024e+003
8.612305e+002, 3.175314e+003
8.617126e+002, 3.183162e+003
8.621947e+002, 3.188144e+003
8.626768e+002, 3.192763e+003
8.631589e+002, 3.200573e+003
8.636411e+002, 3.213333e+003
8.641232e+002, 3.224244e+003
8.646053e+002, 3.232054e+003
8.650874e+002, 3.239375e+003
8.655695e+002, 3.250856e+003
8.660516e+002, 3.264796e+003
8.665338e+002, 3.275885e+003
8.670159e+002, 3.283025e+003
8.674980e+002, 3.288276e+003
8.679801e+002, 3.291171e+003
8.684622e+002, 3.294100e+003
8.689443e+002, 3.299803e+003
8.694265e+002, 3.311320e+003
8.699086e+002, 3.318972e+003
8.703907e+002, 3.320477e+003
8.708728e+002, 3.321683e+003
8.713549e+002, 3.327629e+003
8.718370e+002, 3.337966e+003
8.723192e+002, 3.348799e+003
8.728013e+002, 3.360168e+003
8.732834e+002, 3.369200e+003
8.737655e+002, 3.374190e+003
8.742476e+002, 3.375254e+003
8.747297e+002, 3.368224e+003
8.752119e+002, 3.352316e+003
8.756940e+002, 3.349375e+003
8.761761e+002, 3.379616e+003
8.766582e+002, 3.408211e+003
8.771403e+002, 3.420416e+003
8.776224e+002, 3.417625e+003
8.781046e+002, 3.419001e+003
8.785867e+002, 3.424704e+003
8.790688e+002, 3.431071e+003
8.795509e+002, 3.435876e+003
8.800330e+002, 3.440003e+003
8.805151e+002, 3.445009e+003
8.809973e+002, 3.450544e+003
8.814794e+002, 3.455132e+003
8.819615e+002, 3.456992e+003
8.824436e+002, 3.459115e+003
8.829257e+002, 3.461720e+003
8.834078e+002, 3.465507e+003
8.838900e+002, 3.474606e+003
8.843721e+002, 3.491366e+003
8.848542e+002, 3.499893e+003
8.853363e+002, 3.492130e+003
8.858184e+002, 3.479432e+003
8.863005e+002, 3.482934e+003
8.867827e+002, 3.497585e+003
8.872648e+002, 3.510462e+003
8.877469e+002, 3.515759e+003
8.882290e+002, 3.519885e+003
8.887111e+002, 3.526130e+003
8.891932e+002, 3.532597e+003
8.896754e+002, 3.536078e+003
8.901575e+002, 3.533505e+003
8.906396e+002, 3.536489e+003
8.911217e+002, 3.547371e+003
8.916038e+002, 3.560526e+003
8.920859e+002, 3.569135e+003
8.925681e+002, 3.574347e+003
8.930502e+002, 3.579880e+003
8.935323e+002, 3.586484e+003
8.940144e+002, 3.591969e+003
8.944965e+002, 3.591830e+003
8.949786e+002, 3.591801e+003
8.954608e+002, 3.598337e+003
8.959429e+002, 3.616169e+003
8.964250e+002, 3.623234e+003
8.969071e+002, 3.613790e+003
8.973892e+002, 3.604932e+003
8.978713e+002, 3.610282e+003
8.983535e+002, 3.627026e+003
8.988356e+002, 3.638600e+003
8.993177e+002, 3.645107e+003
8.997998e+002, 3.649825e+003
9.002819e+002, 3.653456e+003
9.007640e+002, 3.657469e+003
9.012462e+002, 3.663176e+003
9.017283e+002, 3.670483e+003
9.022104e+002, 3.678323e+003
9.026925e+002, 3.687863e+003
9.031746e+002, 3.695507e+003
9.036567e+002, 3.699620e+003
9.041389e+002, 3.701480e+003
9.046210e+002, 3.705605e+003
9.051031e+002, 3.711679e+003
9.055852e+002, 3.717040e+003
9.060673e+002, 3.720933e+003
9.065494e+002, 3.723181e+003
9.070316e+002, 3.720548e+003
9.075137e+002, 3.716786e+003
9.079958e+002, 3.718546e+003
9.084779e+002, 3.736804e+003
9.089600e+002, 3.747241e+003
9.094421e+002, 3.743298e+003
9.099243e+002, 3.735537e+003
9.104064e+002, 3.740221e+003
9.108885e+002, 3.756412e+003
9.113706e+002, 3.767305e+003
9.118527e+002, 3.770300e+003
9.123348e+002, 3.768659e+003
9.128170e+002, 3.762314e+003
9.132991e+002, 3.754828e+003
9.137812e+002, 3.749823e+003
9.142633e+002, 3.747560e+003
9.147454e+002, 3.749626e+003
9.152275e+002, 3.758528e+003
9.157097e+002, 3.768968e+003
9.161918e+002, 3.777939e+003
9.166739e+002, 3.785481e+003
9.171560e+002, 3.795218e+003
9.176381e+002, 3.807115e+003
9.181202e+002, 3.815656e+003
9.186024e+002, 3.812272e+003
9.190845e+002, 3.806786e+003
9.195666e+002, 3.812767e+003
9.200487e+002, 3.827669e+003
9.205308e+002, 3.835682e+003
9.210129e+002, 3.823458e+003
9.214951e+002, 3.814230e+003
9.219772e+002, 3.814706e+003
9.224593e+002, 3.821783e+003
9.229414e+002, 3.826626e+003
9.234235e+002, 3.829191e+003
9.239056e+002, 3.830814e+003
9.243878e+002, 3.831654e+003
9.248699e+002, 3.832181e+003
9.253520e+002, 3.832167e+003
9.258341e+002, 3.832441e+003
9.263162e+002, 3.834391e+003
9.267983e+002, 3.840608e+003
9.272805e+002, 3.845181e+003
9.277626e+002, 3.846598e+003
9.282447e+002, 3.847240e+003
9.287268e+002, 3.850496e+003
9.292089e+002, 3.856473e+003
9.296910e+002, 3.857543e+003
9.301732e+002, 3.852989e+003
9.306553e+002, 3.846368e+003
9.311374e+002, 3.837436e+003
9.316195e+002, 3.830325e+003
9.321016e+002, 3.831032e+003
9.325837e+002, 3.840559e+003
9.330659e+002, 3.848338e+003
9.335480e+002, 3.852048e+003
9.340301e+002, 3.853061e+003
9.345122e+002, 3.850198e+003
9.349943e+002, 3.844642e+003
9.354764e+002, 3.846800e+003
9.359586e+002, 3.856346e+003
9.364407e+002, 3.862965e+003
9.369228e+002, 3.857773e+003
9.374049e+002, 3.850656e+003
9.378870e+002, 3.852949e+003
9.383691e+002, 3.861248e+003
9.388513e+002, 3.867656e+003
9.393334e+002, 3.868846e+003
9.398155e+002, 3.869781e+003
9.402976e+002, 3.871701e+003
9.407797e+002, 3.873310e+003
9.412618e+002, 3.872599e+003
9.417440e+002, 3.869691e+003
9.422261e+002, 3.864227e+003
9.427082e+002, 3.855194e+003
9.431903e+002, 3.849032e+003
9.436724e+002, 3.853043e+003
9.441545e+002, 3.862465e+003
9.446367e+002, 3.873804e+003
9.451188e+002, 3.888488e+003
9.456009e+002, 3.895284e+003
9.460830e+002, 3.889122e+003
9.465651e+002, 3.881688e+003
9.470472e+002, 3.878843e+003
9.475294e+002, 3.880464e+003
9.480115e+002, 3.888428e+003
9.484936e+002, 3.901972e+003
9.489757e+002, 3.912298e+003
9.494578e+002, 3.911917e+003
9.499399e+002, 3.907934e+003
9.504221e+002, 3.904312e+003
9.509042e+002, 3.901637e+003
9.513863e+002, 3.901932e+003
9.518684e+002, 3.909683e+003
9.523505e+002, 3.911965e+003
9.528326e+002, 3.904227e+003
9.533148e+002, 3.893230e+003
9.537969e+002, 3.892523e+003
9.542790e+002, 3.900012e+003
9.547611e+002, 3.906532e+003
9.552432e+002, 3.909661e+003
9.557253e+002, 3.911848e+003
9.562075e+002, 3.913229e+003
9.566896e+002, 3.915386e+003
9.571717e+002, 3.919985e+003
9.576538e+002, 3.927344e+003
9.581359e+002, 3.936696e+003
9.586180e+002, 3.949427e+003
9.591002e+002, 3.960404e+003
9.595823e+002, 3.963710e+003
9.600644e+002, 3.962479e+003
9.605465e+002, 3.966529e+003
9.610286e+002, 3.975564e+003
9.615107e+002, 3.985799e+003
9.619929e+002, 3.998078e+003
9.624750e+002, 4.008138e+003
9.629571e+002, 4.010444e+003
9.634392e+002, 4.008549e+003
9.639213e+002, 4.016853e+003
9.644034e+002, 4.039438e+003
9.648856e+002, 4.055073e+003
9.653677e+002, 4.056902e+003
9.658498e+002, 4.053067e+003
9.663319e+002, 4.054554e+003
9.668140e+002, 4.060648e+003
9.672961e+002, 4.070427e+003
9.677783e+002, 4.085605e+003
9.682604e+002, 4.099292e+003
9.687425e+002, 4.110188e+003
9.692246e+002, 4.117516e+003
9.697067e+002, 4.119450e+003
9.701888e+002, 4.114181e+003
9.706710e+002, 4.117252e+003
9.711531e+002, 4.129280e+003
9.716352e+002, 4.143309e+003
9.721173e+002, 4.155928e+003
9.725994e+002, 4.165995e+003
9.730815e+002, 4.169747e+003
9.735637e+002, 4.168652e+003
9.740458e+002, 4.171547e+003
9.745279e+002, 4.187725e+003
9.750100e+002, 4.200271e+003
9.754921e+002, 4.203978e+003
9.759742e+002, 4.202201e+003
9.764564e+002, 4.202915e+003
9.769385e+002, 4.206080e+003
9.774206e+002, 4.209492e+003
9.779027e+002, 4.211673e+003
9.783848e+002, 4.216946e+003
9.788669e+002, 4.234790e+003
9.793491e+002, 4.255697e+003
9.798312e+002, 4.267772e+003
9.803133e+002, 4.264566e+003
9.807954e+002, 4.263334e+003
9.812775e+002, 4.264800e+003
9.817596e+002, 4.268101e+003
9.822418e+002, 4.273309e+003
9.827239e+002, 4.279884e+003
9.832060e+002, 4.283478e+003
9.836881e+002, 4.284776e+003
9.841702e+002, 4.290470e+003
9.846523e+002, 4.312614e+003
9.851345e+002, 4.332545e+003
9.856166e+002, 4.336014e+003
9.860987e+002, 4.327636e+003
9.865808e+002, 4.326481e+003
9.870629e+002, 4.335460e+003
9.875450e+002, 4.342505e+003
9.880272e+002, 4.345060e+003
9.885093e+002, 4.345394e+003
9.889914e+002, 4.346484e+003
9.894735e+002, 4.348066e+003
9.899556e+002, 4.349505e+003
9.904377e+002, 4.350605e+003
9.909199e+002, 4.352030e+003
9.914020e+002, 4.353532e+003
9.918841e+002, 4.356046e+003
9.923662e+002, 4.360339e+003
9.928483e+002, 4.366410e+003
9.933304e+002, 4.372736e+003
9.938126e+002, 4.379396e+003
9.942947e+002, 4.384918e+003
9.947768e+002, 4.387376e+003
9.952589e+002, 4.388863e+003
9.957410e+002, 4.391951e+003
9.962231e+002, 4.396156e+003
9.967053e+002, 4.400190e+003
9.971874e+002, 4.403050e+003
9.976695e+002, 4.406304e+003
9.981516e+002, 4.409499e+003
9.986337e+002, 4.413856e+003
9.991158e+002, 4.423505e+003
9.995980e+002, 4.437041e+003
1.000080e+003, 4.442601e+003
1.000562e+003, 4.437580e+003
1.001044e+003, 4.433556e+003
1.001526e+003, 4.442727e+003
1.002009e+003, 4.454363e+003
1.002491e+003, 4.458219e+003
1.002973e+003, 4.452438e+003
1.003455e+003, 4.453307e+003
1.003937e+003, 4.463553e+003
1.004419e+003, 4.471735e+003
1.004901e+003, 4.470439e+003
1.005383e+003, 4.465686e+003
1.005865e+003, 4.472878e+003
1.006348e+003, 4.487783e+003
1.006830e+003, 4.498513e+003
1.007312e+003, 4.496405e+003
1.007794e+003, 4.493505e+003
1.008276e+003, 4.490001e+003
1.008758e+003, 4.489769e+003
1.009240e+003, 4.499501e+003
1.009722e+003, 4.520929e+003
1.010205e+003, 4.531433e+003
1.010687e+003, 4.528533e+003
1.011169e+003, 4.525877e+003
1.011651e+003, 4.538381e+003
1.012133e+003, 4.555725e+003
1.012615e+003, 4.567616e+003
1.013097e+003, 4.573347e+003
1.013579e+003, 4.576627e+003
1.014061e+003, 4.574614e+003
1.014544e+003, 4.576506e+003
1.015026e+003, 4.587022e+003
1.015508e+003, 4.601166e+003
1.015990e+003, 4.607464e+003
1.016472e+003, 4.606714e+003
1.016954e+003, 4.601465e+003
1.017436e+003, 4.590291e+003
1.017918e+003, 4.580326e+003
1.018401e+003, 4.575094e+003
1.018883e+003, 4.573956e+003
1.019365e+003, 4.577053e+003
1.019847e+003, 4.586096e+003
1.020329e+003, 4.590126e+003
1.020811e+003, 4.588620e+003
1.021293e+003, 4.585140e+003
1.021775e+003, 4.580462e+003
1.022257e+003, 4.576451e+003
1.022740e+003, 4.578241e+003
1.023222e+003, 4.583682e+003
1.023704e+003, 4.584548e+003
1.024186e+003, 4.570610e+003
1.024668e+003, 4.561427e+003
1.025150e+003, 4.563127e+003
1.025632e+003, 4.569394e+003
1.026114e+003, 4.569456e+003
1.026596e+003, 4.563977e+003
1.027079e+003, 4.559130e+003
1.027561e+003, 4.555893e+003
1.028043e+003, 4.553221e+003
1.028525e+003, 4.549108e+003
1.029007e+003, 4.546050e+003
1.029489e+003, 4.546638e+003
1.029971e+003, 4.551304e+003
1.030453e+003, 4.556563e+003
1.030936e+003, 4.563522e+003
1.031418e+003, 4.567382e+003
1.031900e+003, 4.565269e+003
1.032382e+003, 4.559824e+003
1.032864e+003, 4.553963e+003
1.033346e+003, 4.549153e+003
1.033828e+003, 4.549302e+003
1.034310e+003, 4.562195e+003
1.034792e+003, 4.570150e+003
1.035275e+003, 4.563565e+003
1.035757e+003, 4.555112e+003
1.036239e+003, 4.556430e+003
1.036721e+003, 4.567529e+003
1.037203e+003, 4.577597e+003
1.037685e+003, 4.586183e+003
1.038167e+003, 4.594028e+003
1.038649e+003, 4.603343e+003
1.039132e+003, 4.610711e+003
1.039614e+003, 4.611351e+003
1.040096e+003, 4.607095e+003
1.040578e+003, 4.607448e+003
1.041060e+003, 4.613329e+003
1.041542e+003, 4.622549e+003
1.042024e+003, 4.635379e+003
1.042506e+003, 4.649838e+003
1.042989e+003, 4.663473e+003
1.043471e+003, 4.676503e+003
1.043953e+003, 4.689525e+003
1.044435e+003, 4.702771e+003
1.044917e+003, 4.715817e+003
1.045399e+003, 4.731121e+003
1.045881e+003, 4.743349e+003
1.046363e+003, 4.748395e+003
1.046845e+003, 4.747608e+003
1.047328e+003, 4.750948e+003
1.047810e+003, 4.758534e+003
1.048292e+003, 4.770643e+003
1.048774e+003, 4.789314e+003
1.049256e+003, 4.810106e+003
1.049738e+003, 4.833049e+003
1.050220e+003, 4.854769e+003
1.050702e+003, 4.868727e+003
1.051184e+003, 4.866022e+003
1.051667e+003, 4.878023e+003
1.052149e+003, 4.909157e+003
1.052631e+003, 4.942512e+003
1.053113e+003, 4.962882e+003
1.053595e+003, 4.975630e+003
1.054077e+003, 4.987949e+003
1.054559e+003, 5.001592e+003
1.055041e+003, 5.024679e+003
1.055523e+003, 5.065812e+003
1.056006e+003, 5.111042e+003
1.056488e+003, 5.157349e+003
1.056970e+003, 5.204673e+003
1.057452e+003, 5.251214e+003
1.057934e+003, 5.297818e+003
1.058416e+003, 5.352148e+003
1.058898e+003, 5.415993e+003
1.059380e+003, 5.486437e+003
1.059863e+003, 5.564210e+003
1.060345e+003, 5.643501e+003
1.060827e+003, 5.717759e+003
1.061309e+003, 5.786499e+003
1.061791e+003, 5.861204e+003
1.062273e+003, 5.943361e+003
1.062755e+003, 6.024154e+003
1.063237e+003, 6.097213e+003
1.063719e+003, 6.168731e+003
1.064202e+003, 6.240786e+003
1.064684e+003, 6.320878e+003
1.065166e+003, 6.423426e+003
1.065648e+003, 6.548233e+003
1.066130e+003, 6.703848e+003
1.066612e+003, 6.890192e+003
1.067094e+003, 7.104909e+003
1.067576e+003, 7.349799e+003
1.068059e+003, 7.623646e+003
1.068541e+003, 7.926181e+003
1.069023e+003, 8.249863e+003
1.069505e+003, 8.528213e+003
1.069987e+003, 8.765380e+003
1.070469e+003, 8.898186e+003
1.070951e+003, 8.859791e+003
1.071433e+003, 8.699069e+003
1.071916e+003, 8.487348e+003
1.072398e+003, 8.219620e+003
1.072880e+003, 7.953333e+003
1.073362e+003, 7.694155e+003
1.073844e+003, 7.465659e+003
1.074326e+003, 7.304612e+003
1.074808e+003, 7.182333e+003
1.075290e+003, 7.072173e+003
1.075772e+003, 6.972072e+003
1.076255e+003, 6.882194e+003
1.076737e+003, 6.809284e+003
1.077219e+003, 6.730564e+003
1.077701e+003, 6.635688e+003
1.078183e+003, 6.536540e+003
1.078665e+003, 6.457812e+003
1.079147e+003, 6.393051e+003
1.079629e+003, 6.326666e+003
1.080111e+003, 6.250468e+003
1.080594e+003, 6.182395e+003
1.081076e+003, 6.130472e+003
1.081558e+003, 6.086914e+003
1.082040e+003, 6.048727e+003
1.082522e+003, 6.015850e+003
1.083004e+003, 5.991119e+003
1.083486e+003, 5.973826e+003
1.083968e+003, 5.959439e+003
1.084450e+003, 5.947357e+003
1.084933e+003, 5.935253e+003
1.085415e+003, 5.920267e+003
1.085897e+003, 5.905027e+003
1.086379e+003, 5.893601e+003
1.086861e+003, 5.887697e+003
1.087343e+003, 5.878542e+003
1.087825e+003, 5.865068e+003
1.088307e+003, 5.853279e+003
1.088790e+003, 5.852306e+003
1.089272e+003, 5.853465e+003
1.089754e+003, 5.843172e+003
1.090236e+003, 5.824003e+003
1.090718e+003, 5.813108e+003
1.091200e+003, 5.821550e+003
1.091682e+003, 5.823754e+003
1.092164e+003, 5.814462e+003
1.092646e+003, 5.798838e+003
1.093129e+003, 5.781558e+003
1.093611e+003, 5.764790e+003
1.094093e+003, 5.754715e+003
1.094575e+003, 5.752700e+003
1.095057e+003, 5.749788e+003
1.095539e+003, 5.741905e+003
1.096021e+003, 5.732108e+003
1.096503e+003, 5.721135e+003
1.096986e+003, 5.709585e+003
1.097468e+003, 5.701361e+003
1.097950e+003, 5.695400e+003
1.098432e+003, 5.681393e+003
1.098914e+003, 5.650968e+003
1.099396e+003, 5.625359e+003
1.099878e+003, 5.626505e+003
1.100360e+003, 5.635731e+003
1.100843e+003, 5.634546e+003
1.101325e+003, 5.621659e+003
1.101807e+003, 5.606723e+003
1.102289e+003, 5.589361e+003
1.102771e+003, 5.573218e+003
1.103253e+003, 5.561616e+003
1.103735e+003, 5.551245e+003
1.104217e+003, 5.536011e+003
1.104699e+003, 5.519870e+003
1.105182e+003, 5.510526e+003
1.105664e+003, 5.517567e+003
1.106146e+003, 5.515993e+003
1.106628e+003, 5.503399e+003
1.107110e+003, 5.487019e+003
1.107592e+003, 5.470858e+003
1.108074e+003, 5.456468e+003
1.108556e+003, 5.447228e+003
1.109038e+003, 5.442534e+003
1.109521e+003, 5.438400e+003
1.110003e+003, 5.431876e+003
1.110485e+003, 5.428122e+003
1.110967e+003, 5.431178e+003
1.111449e+003, 5.433734e+003
1.111931e+003, 5.420578e+003
1.112413e+003, 5.396551e+003
1.112895e+003, 5.385913e+003
1.113377e+003, 5.391651e+003
1.113860e+003, 5.396166e+003
1.114342e+003, 5.387873e+003
1.114824e+003, 5.376178e+003
1.115306e+003, 5.365462e+003
1.115788e+003, 5.355833e+003
1.116270e+003, 5.347399e+003
1.116752e+003, 5.340124e+003
1.117234e+003, 5.334530e+003
1.117717e+003, 5.330840e+003
1.118199e+003, 5.328459e+003
1.118681e+003, 5.331165e+003
1.119163e+003, 5.331882e+003
1.119645e+003, 5.321472e+003
1.120127e+003, 5.299044e+003
1.120609e+003, 5.284283e+003
1.121091e+003, 5.278621e+003
1.121573e+003, 5.270939e+003
1.122056e+003, 5.254871e+003
1.122538e+003, 5.237084e+003
1.123020e+003, 5.227915e+003
1.123502e+003, 5.221872e+003
1.123984e+003, 5.209685e+003
1.124466e+003, 5.183582e+003
1.124948e+003, 5.165938e+003
1.125430e+003, 5.159511e+003
1.125913e+003, 5.155384e+003
1.126395e+003, 5.150233e+003
1.126877e+003, 5.141996e+003
1.127359e+003, 5.123121e+003
1.127841e+003, 5.097162e+003
1.128323e+003, 5.074086e+003
1.128805e+003, 5.059374e+003
1.129287e+003, 5.045576e+003
1.129770e+003, 5.032200e+003
1.130252e+003, 5.018441e+003
1.130734e+003, 5.004866e+003
1.131216e+003, 4.990122e+003
1.131698e+003, 4.964296e+003
1.132180e+003, 4.929253e+003
1.132662e+003, 4.901731e+003
1.133144e+003, 4.900897e+003
1.133626e+003, 4.896661e+003
1.134109e+003, 4.876232e+003
1.134591e+003, 4.847498e+003
1.135073e+003, 4.820910e+003
1.135555e+003, 4.796719e+003
1.136037e+003, 4.777254e+003
1.136519e+003, 4.762925e+003
1.137001e+003, 4.745383e+003
1.137483e+003, 4.716104e+003
1.137965e+003, 4.684259e+003
1.138448e+003, 4.655039e+003
1.138930e+003, 4.627890e+003
1.139412e+003, 4.601154e+003
1.139894e+003, 4.574633e+003
1.140376e+003, 4.550327e+003
1.140858e+003, 4.529172e+003
1.141340e+003, 4.507813e+003
1.141822e+003, 4.481814e+003
1.142304e+003, 4.454897e+003
1.142787e+003, 4.429927e+003
1.143269e+003, 4.407325e+003
1.143751e+003, 4.385899e+003
1.144233e+003, 4.365823e+003
1.144715e+003, 4.346267e+003
1.145197e+003, 4.326978e+003
1.145679e+003, 4.308799e+003
1.146161e+003, 4.297077e+003
1.146644e+003, 4.285468e+003
1.147126e+003, 4.264131e+003
1.147608e+003, 4.227420e+003
1.148090e+003, 4.196931e+003
1.148572e+003, 4.173757e+003
1.149054e+003, 4.154801e+003
1.149536e+003, 4.141215e+003
1.150018e+003, 4.128005e+003
1.150500e+003, 4.105119e+003
1.150983e+003, 4.076046e+003
1.151465e+003, 4.047221e+003
1.151947e+003, 4.018276e+003
1.152429e+003, 3.995153e+003
1.152911e+003, 3.980412e+003
1.153393e+003, 3.966600e+003
1.153875e+003, 3.949054e+003
1.154357e+003, 3.928417e+003
1.154840e+003, 3.905503e+003
1.155322e+003, 3.880749e+003
1.155804e+003, 3.856655e+003
1.156286e+003, 3.831546e+003
1.156768e+003, 3.810966e+003
1.157250e+003, 3.796616e+003
1.157732e+003, 3.784859e+003
1.158214e+003, 3.774381e+003
1.158697e+003, 3.763613e+003
1.159179e+003, 3.743349e+003
1.159661e+003, 3.715398e+003
1.160143e+003, 3.691796e+003
1.160625e+003, 3.682183e+003
1.161107e+003, 3.673292e+003
1.161589e+003, 3.660896e+003
1.162071e+003, 3.647294e+003
1.162553e+003, 3.636268e+003
1.163036e+003, 3.627023e+003
1.163518e+003, 3.612137e+003
1.164000e+003, 3.591507e+003
1.164482e+003, 3.573628e+003
1.164964e+003, 3.569574e+003
1.165446e+003, 3.562821e+003
1.165928e+003, 3.542003e+003
1.166410e+003, 3.515542e+003
1.166892e+003, 3.500411e+003
1.167375e+003, 3.495583e+003
1.167857e+003, 3.487523e+003
1.168339e+003, 3.474352e+003
1.168821e+003, 3.459419e+003
1.169303e+003, 3.442723e+003
1.169785e+003, 3.427336e+003
1.170267e+003, 3.414971e+003
1.170749e+003, 3.405341e+003
1.171231e+003, 3.400054e+003
1.171714e+003, 3.398978e+003
1.172196e+003, 3.388613e+003
1.172678e+003, 3.364792e+003
1.173160e+003, 3.340922e+003
1.173642e+003, 3.327497e+003
1.174124e+003, 3.319673e+003
1.174606e+003, 3.315510e+003
1.175088e+003, 3.313795e+003
1.175571e+003, 3.308909e+003
1.176053e+003, 3.300640e+003
1.176535e+003, 3.293564e+003
1.177017e+003, 3.289781e+003
1.177499e+003, 3.284530e+003
1.177981e+003, 3.270165e+003
1.178463e+003, 3.254233e+003
1.178945e+003, 3.245336e+003
1.179427e+003, 3.243796e+003
1.179910e+003, 3.236298e+003
1.180392e+003, 3.221917e+003
1.180874e+003, 3.210309e+003
1.181356e+003, 3.205962e+003
1.181838e+003, 3.203665e+003
1.182320e+003, 3.199646e+003
1.182802e+003, 3.193523e+003
1.183284e+003, 3.184104e+003
1.183767e+003, 3.170819e+003
1.184249e+003, 3.158587e+003
1.184731e+003, 3.146958e+003
1.185213e+003, 3.139256e+003
1.185695e+003, 3.139735e+003
1.186177e+003, 3.140892e+003
1.186659e+003, 3.133614e+003
1.187141e+003, 3.121577e+003
1.187624e+003, 3.110183e+003
1.188106e+003, 3.100909e+003
1.188588e+003, 3.088334e+003
1.189070e+003, 3.071415e+003
1.189552e+003, 3.058093e+003
1.190034e+003, 3.055501e+003
1.190516e+003, 3.056283e+003
1.190998e+003, 3.053182e+003
1.191480e+003, 3.046290e+003
1.191963e+003, 3.034830e+003
1.192445e+003, 3.014134e+003
1.192927e+003, 3.002183e+003
1.193409e+003, 3.000541e+003
1.193891e+003, 3.000162e+003
1.194373e+003, 2.994010e+003
1.194855e+003, 2.985984e+003
1.195337e+003, 2.981972e+003
1.195819e+003, 2.979886e+003
1.196302e+003, 2.975058e+003
1.196784e+003, 2.964707e+003
1.197266e+003, 2.956148e+003
1.197748e+003, 2.949526e+003
1.198230e+003, 2.944589e+003
1.198712e+003, 2.944397e+003
1.199194e+003, 2.943537e+003
1.199676e+003, 2.930970e+003
1.200158e+003, 2.911947e+003
1.200641e+003, 2.901828e+003
1.201123e+003, 2.910687e+003
1.201605e+003, 2.908687e+003
1.202087e+003, 2.891297e+003
1.202569e+003, 2.875216e+003
1.203051e+003, 2.880807e+003
1.203533e+003, 2.893230e+003
1.204015e+003, 2.891194e+003
1.204498e+003, 2.878455e+003
1.204980e+003, 2.871110e+003
1.205462e+003, 2.878176e+003
1.205944e+003, 2.872221e+003
1.206426e+003, 2.847277e+003
1.206908e+003, 2.823177e+003
1.207390e+003, 2.823823e+003
1.207872e+003, 2.833905e+003
1.208354e+003, 2.833091e+003
1.208837e+003, 2.823142e+003
1.209319e+003, 2.817077e+003
1.209801e+003, 2.819320e+003
1.210283e+003, 2.816818e+003
1.210765e+003, 2.806557e+003
1.211247e+003, 2.796771e+003
1.211729e+003, 2.799184e+003
1.212211e+003, 2.804890e+003
1.212694e+003, 2.801212e+003
1.213176e+003, 2.789465e+003
1.213658e+003, 2.781873e+003
1.214140e+003, 2.781184e+003
1.214622e+003, 2.779893e+003
1.215104e+003, 2.777266e+003
1.215586e+003, 2.772562e+003
1.216068e+003, 2.762917e+003
1.216551e+003, 2.752115e+003
1.217033e+003, 2.745158e+003
1.217515e+003, 2.741739e+003
1.217997e+003, 2.737358e+003
1.218479e+003, 2.731483e+003
1.218961e+003, 2.725525e+003
1.219443e+003, 2.719800e+003
1.219925e+003, 2.713411e+003
1.220407e+003, 2.702043e+003
1.220890e+003, 2.691658e+003
1.221372e+003, 2.691786e+003
1.221854e+003, 2.701204e+003
1.222336e+003, 2.702344e+003
1.222818e+003, 2.692471e+003
1.223300e+003, 2.682689e+003
1.223782e+003, 2.674804e+003
1.224264e+003, 2.668983e+003
1.224746e+003, 2.665844e+003
1.225229e+003, 2.664580e+003
1.225711e+003, 2.665117e+003
1.226193e+003, 2.667094e+003
1.226675e+003, 2.667415e+003
1.227157e+003, 2.666207e+003
1.227639e+003, 2.662181e+003
1.228121e+003, 2.654499e+003
1.228603e+003, 2.646725e+003
1.229085e+003, 2.643457e+003
1.229568e+003, 2.641386e+003
1.230050e+003, 2.636663e+003
1.230532e+003, 2.629636e+003
1.231014e+003, 2.626436e+003
1.231496e+003, 2.627820e+003
1.231978e+003, 2.625774e+003
1.232460e+003, 2.617989e+003
1.232942e+003, 2.608678e+003
1.233425e+003, 2.600866e+003
1.233907e+003, 2.594099e+003
1.234389e+003, 2.587680e+003
1.234871e+003, 2.581810e+003
1.235353e+003, 2.577535e+003
1.235835e+003, 2.574797e+003
1.236317e+003, 2.577690e+003
1.236799e+003, 2.589077e+003
1.237281e+003, 2.595928e+003
1.237764e+003, 2.580585e+003
1.238246e+003, 2.561906e+003
1.238728e+003, 2.556491e+003
1.239210e+003, 2.561103e+003
1.239692e+003, 2.561583e+003
1.240174e+003, 2.558156e+003
1.240656e+003, 2.557508e+003
1.241138e+003, 2.561760e+003
1.241621e+003, 2.565725e+003
1.242103e+003, 2.565704e+003
1.242585e+003, 2.563779e+003
1.243067e+003, 2.561015e+003
1.243549e+003, 2.557652e+003
1.244031e+003, 2.554167e+003
1.244513e+003, 2.550628e+003
1.244995e+003, 2.548651e+003
1.245478e+003, 2.549252e+003
1.245960e+003, 2.547073e+003
1.246442e+003, 2.533874e+003
1.246924e+003, 2.522514e+003
1.247406e+003, 2.521877e+003
1.247888e+003, 2.526904e+003
1.248370e+003, 2.520069e+003
1.248852e+003, 2.504730e+003
1.249334e+003, 2.494883e+003
1.249817e+003, 2.493996e+003
1.250299e+003, 2.497120e+003
1.250781e+003, 2.508468e+003
1.251263e+003, 2.515264e+003
1.251745e+003, 2.511158e+003
1.252227e+003, 2.500579e+003
1.252709e+003, 2.492296e+003
1.253191e+003, 2.486790e+003
1.253673e+003, 2.486563e+003
1.254156e+003, 2.493142e+003
1.254638e+003, 2.496540e+003
1.255120e+003, 2.491615e+003
1.255602e+003, 2.486084e+003
1.256084e+003, 2.482904e+003
1.256566e+003, 2.479866e+003
1.257048e+003, 2.469504e+003
1.257530e+003, 2.456817e+003
1.258012e+003, 2.453133e+003
1.258495e+003, 2.461222e+003
1.258977e+003, 2.468994e+003
1.259459e+003, 2.476525e+003
1.259941e+003, 2.478653e+003
1.260423e+003, 2.472275e+003
1.260905e+003, 2.462749e+003
1.261387e+003, 2.458092e+003
1.261869e+003, 2.456166e+003
1.262352e+003, 2.454028e+003
1.262834e+003, 2.451265e+003
1.263316e+003, 2.447538e+003
1.263798e+003, 2.442106e+003
1.264280e+003, 2.438693e+003
1.264762e+003, 2.438864e+003
1.265244e+003, 2.440134e+003
1.265726e+003, 2.439173e+003
1.266208e+003, 2.437846e+003
1.266691e+003, 2.439577e+003
1.267173e+003, 2.444263e+003
1.267655e+003, 2.441823e+003
1.268137e+003, 2.431139e+003
1.268619e+003, 2.422531e+003
1.269101e+003, 2.418914e+003
1.269583e+003, 2.417329e+003
1.270065e+003, 2.416364e+003
1.270548e+003, 2.414981e+003
1.271030e+003, 2.411211e+003
1.271512e+003, 2.406102e+003
1.271994e+003, 2.405060e+003
1.272476e+003, 2.407990e+003
1.272958e+003, 2.409380e+003
1.273440e+003, 2.407822e+003
1.273922e+003, 2.406182e+003
1.274405e+003, 2.408669e+003
1.274887e+003, 2.409343e+003
1.275369e+003, 2.403215e+003
1.275851e+003, 2.393614e+003
1.276333e+003, 2.390662e+003
1.276815e+003, 2.392891e+003
1.277297e+003, 2.392133e+003
1.277779e+003, 2.386625e+003
1.278261e+003, 2.382280e+003
1.278744e+003, 2.384250e+003
1.279226e+003, 2.385219e+003
1.279708e+003, 2.381809e+003
1.280190e+003, 2.376712e+003
1.280672e+003, 2.373980e+003
1.281154e+003, 2.373910e+003
1.281636e+003, 2.379695e+003
1.282118e+003, 2.391751e+003
1.282600e+003, 2.395804e+003
1.283083e+003, 2.380022e+003
1.283565e+003, 2.369410e+003
1.284047e+003, 2.370730e+003
1.284529e+003, 2.376747e+003
1.285011e+003, 2.377904e+003
1.285493e+003, 2.376543e+003
1.285975e+003, 2.377173e+003
1.286457e+003, 2.379752e+003
1.286939e+003, 2.376762e+003
1.287422e+003, 2.365396e+003
1.287904e+003, 2.357441e+003
1.288386e+003, 2.355565e+003
1.288868e+003, 2.355851e+003
1.289350e+003, 2.355360e+003
1.289832e+003, 2.353868e+003
1.290314e+003, 2.350020e+003
1.290796e+003, 2.344827e+003
1.291279e+003, 2.342739e+003
1.291761e+003, 2.343902e+003
1.292243e+003, 2.346558e+003
1.292725e+003, 2.350559e+003
1.293207e+003, 2.354079e+003
1.293689e+003, 2.357641e+003
1.294171e+003, 2.358130e+003
1.294653e+003, 2.350819e+003
1.295135e+003, 2.340191e+003
1.295618e+003, 2.333202e+003
1.296100e+003, 2.329709e+003
1.296582e+003, 2.329459e+003
1.297064e+003, 2.332411e+003
1.297546e+003, 2.334245e+003
1.298028e+003, 2.331390e+003
1.298510e+003, 2.327158e+003
1.298992e+003, 2.322078e+003
1.299475e+003, 2.317657e+003
1.299957e+003, 2.315735e+003
1.300439e+003, 2.316187e+003
1.300921e+003, 2.319692e+003
1.301403e+003, 2.325474e+003
1.301885e+003, 2.328859e+003
##END=



