##NAMES=Klyuchevskite
##RRUFFID=R070659
##IDEAL CHEMISTRY=K_3_Cu^2+^_3_Fe^3+^O_2_(S^6+^O_4_)_4_
##LOCALITY=Yadevitaya fumarole, Tolbachik volcano, Kamchatka Oblast', Far-Eastern Region, Russia
##OWNER=RRUFF
##SOURCE=Michael Scott
##DESCRIPTION=Clusters of dark green radiating prismatic crystals associated with langbeinite, co-type sample
##STATUS=The identification of this mineral has been confirmed by single-crystal X-ray diffraction.
##URL=rruff.info/R070659
84.09540, 45.39230
84.57751, 14.44612
85.05963, -24.54468
85.54175, -44.17496
86.02386, -20.98936
86.50598, 39.06599
86.98810, 92.97467
87.47021, 118.0247
87.95233, 124.6180
88.43445, 125.5281
88.91656, 119.7096
89.39868, 113.7130
89.88080, 112.5188
90.36292, 116.2222
90.84503, 125.5947
91.32715, 152.2005
91.80927, 188.4558
92.29138, 209.1686
92.77350, 174.9253
93.25562, 115.1889
93.73773, 93.49912
94.21985, 138.2174
94.70196, 211.7770
95.18407, 248.2007
95.66619, 246.4337
96.14831, 236.0340
96.63042, 248.9445
97.11254, 282.4564
97.59466, 307.6395
98.07677, 307.9164
98.55889, 287.1481
99.04101, 281.1073
99.52312, 292.2372
100.0052, 313.8271
100.4874, 337.0135
100.9695, 363.2969
101.4516, 383.9601
101.9337, 392.5411
102.4158, 386.1237
102.8979, 380.0380
103.3801, 373.5542
103.8622, 367.9951
104.3443, 372.6587
104.8264, 389.1250
105.3085, 413.9178
105.7906, 446.6648
106.2728, 499.9002
106.7549, 540.0687
107.2370, 557.8499
107.7191, 547.1615
108.2012, 538.5565
108.6833, 530.3046
109.1655, 524.4333
109.6476, 524.4402
110.1297, 522.3417
110.6118, 532.7517
111.0939, 561.2047
111.5760, 635.6262
112.0582, 692.5847
112.5403, 722.0936
113.0224, 728.6281
113.5045, 733.0337
113.9866, 733.2871
114.4687, 735.3348
114.9509, 743.3228
115.4330, 766.9069
115.9151, 788.4857
116.3972, 802.5621
116.8793, 808.2879
117.3614, 811.5858
117.8436, 812.6738
118.3257, 812.9509
118.8078, 814.4067
119.2899, 823.3277
119.7720, 830.2780
120.2541, 825.3617
120.7363, 797.2297
121.2184, 779.1710
121.7005, 798.3127
122.1826, 846.6161
122.6647, 897.2689
123.1468, 945.9387
123.6290, 984.9047
124.1111, 1003.836
124.5932, 987.8090
125.0753, 959.5195
125.5574, 941.3262
126.0395, 933.1588
126.5217, 929.4531
127.0038, 925.7269
127.4859, 922.7349
127.9680, 922.5059
128.4501, 919.4661
128.9322, 920.6351
129.4144, 946.5213
129.8965, 1003.918
130.3786, 1060.821
130.8607, 1071.797
131.3428, 1043.989
131.8249, 1015.616
132.3071, 1021.573
132.7892, 1051.947
133.2713, 1050.408
133.7534, 996.9987
134.2355, 916.6945
134.7176, 876.1461
135.1998, 877.6052
135.6819, 898.5376
136.1640, 924.4208
136.6461, 955.5837
137.1282, 980.9642
137.6103, 997.5228
138.0925, 1005.607
138.5746, 1009.768
139.0567, 1010.974
139.5388, 1006.954
140.0209, 988.8813
140.5030, 947.4492
140.9852, 921.3972
141.4673, 933.4484
141.9494, 1003.020
142.4315, 1037.202
142.9136, 1021.508
143.3957, 975.5500
143.8779, 957.1577
144.3600, 982.3546
144.8421, 1011.269
145.3242, 1021.080
145.8063, 1005.332
146.2884, 982.5826
146.7705, 948.2479
147.2527, 903.2335
147.7348, 876.6562
148.2169, 880.6179
148.6990, 894.3967
149.1811, 899.4833
149.6632, 888.0397
150.1454, 876.8677
150.6275, 868.4179
151.1096, 862.2069
151.5917, 859.9759
152.0738, 868.2164
152.5559, 879.0808
153.0381, 880.7716
153.5202, 851.1809
154.0023, 830.2904
154.4844, 834.2513
154.9665, 893.5415
155.4486, 929.5366
155.9308, 920.1688
156.4129, 878.6248
156.8950, 845.1116
157.3771, 828.3400
157.8592, 820.6024
158.3413, 817.7125
158.8235, 822.0367
159.3056, 827.9166
159.7877, 831.8356
160.2698, 834.3777
160.7519, 843.6456
161.2340, 869.9087
161.7162, 901.1984
162.1983, 925.9060
162.6804, 942.8633
163.1625, 950.6226
163.6446, 947.5582
164.1267, 933.1425
164.6089, 912.1467
165.0910, 876.8206
165.5731, 837.3251
166.0552, 810.0560
166.5373, 814.6528
167.0194, 826.3378
167.5016, 825.2168
167.9837, 801.5070
168.4658, 781.7681
168.9479, 785.2610
169.4300, 806.6231
169.9121, 830.3727
170.3943, 845.6172
170.8764, 859.4496
171.3585, 881.1760
171.8406, 926.3052
172.3227, 964.6635
172.8048, 963.0768
173.2870, 925.8452
173.7691, 887.6835
174.2512, 870.4782
174.7333, 868.8749
175.2154, 874.2074
175.6975, 891.3138
176.1797, 909.8521
176.6618, 913.5994
177.1439, 901.4209
177.6260, 892.8484
178.1081, 915.1133
178.5902, 956.8082
179.0724, 986.3838
179.5545, 974.8333
180.0366, 944.9091
180.5187, 941.4329
181.0008, 973.0666
181.4829, 1008.010
181.9651, 1003.935
182.4472, 966.7076
182.9293, 929.2205
183.4114, 908.4998
183.8935, 902.2606
184.3756, 906.0292
184.8578, 923.1761
185.3399, 943.4368
185.8220, 946.1080
186.3041, 931.9535
186.7862, 919.3120
187.2683, 925.5203
187.7504, 946.5377
188.2326, 963.4761
188.7147, 972.0635
189.1968, 973.6651
189.6789, 969.7758
190.1610, 959.9858
190.6431, 949.1120
191.1253, 944.3277
191.6074, 944.7559
192.0895, 938.6393
192.5716, 914.8753
193.0537, 880.4436
193.5358, 871.5493
194.0180, 892.7628
194.5001, 924.2145
194.9822, 939.9081
195.4643, 939.5085
195.9464, 938.1027
196.4285, 940.6107
196.9107, 947.0167
197.3928, 959.5438
197.8749, 979.9279
198.3570, 1003.426
198.8391, 1023.381
199.3212, 1040.332
199.8034, 1050.140
200.2855, 1043.903
200.7676, 1019.762
201.2497, 1015.875
201.7318, 1039.910
202.2139, 1081.847
202.6961, 1114.649
203.1782, 1136.430
203.6603, 1155.860
204.1424, 1179.845
204.6245, 1209.795
205.1066, 1235.645
205.5888, 1258.209
206.0709, 1275.723
206.5530, 1274.981
207.0351, 1248.145
207.5172, 1221.814
207.9993, 1221.485
208.4815, 1253.273
208.9636, 1285.880
209.4457, 1314.183
209.9278, 1338.258
210.4099, 1359.862
210.8920, 1381.158
211.3742, 1396.655
211.8563, 1395.073
212.3384, 1365.147
212.8205, 1353.060
213.3026, 1380.297
213.7847, 1452.621
214.2669, 1489.545
214.7490, 1473.856
215.2311, 1440.517
215.7132, 1446.750
216.1953, 1508.163
216.6774, 1572.400
217.1596, 1623.125
217.6417, 1661.021
218.1238, 1680.544
218.6059, 1673.804
219.0880, 1653.456
219.5701, 1647.642
220.0523, 1665.637
220.5344, 1681.029
221.0165, 1680.500
221.4986, 1656.229
221.9807, 1637.896
222.4628, 1629.036
222.9450, 1625.930
223.4271, 1616.270
223.9092, 1599.596
224.3913, 1577.108
224.8734, 1548.351
225.3555, 1508.873
225.8377, 1473.566
226.3198, 1441.918
226.8019, 1414.920
227.2840, 1399.240
227.7661, 1406.090
228.2482, 1410.010
228.7303, 1389.632
229.2125, 1327.933
229.6946, 1280.323
230.1767, 1259.720
230.6588, 1264.024
231.1409, 1255.533
231.6230, 1231.442
232.1052, 1197.774
232.5873, 1158.019
233.0694, 1105.276
233.5515, 1060.968
234.0336, 1030.466
234.5157, 1014.371
234.9979, 1000.716
235.4800, 989.1489
235.9621, 980.1748
236.4442, 976.8946
236.9263, 992.9554
237.4084, 990.0788
237.8906, 951.9581
238.3727, 869.7717
238.8548, 811.4664
239.3369, 782.1064
239.8190, 772.9009
240.3011, 773.5411
240.7833, 791.1487
241.2654, 807.2535
241.7475, 817.8054
242.2296, 823.8981
242.7117, 820.1688
243.1938, 805.8722
243.6760, 782.1389
244.1581, 748.4446
244.6402, 691.6979
245.1223, 645.3603
245.6044, 624.0559
246.0865, 639.0829
246.5687, 645.4244
247.0508, 635.7542
247.5329, 620.0912
248.0150, 622.9063
248.4971, 658.9867
248.9792, 691.4598
249.4614, 702.1903
249.9435, 677.6587
250.4256, 665.0236
250.9077, 670.7050
251.3898, 687.2510
251.8719, 692.3505
252.3541, 680.1639
252.8362, 665.2452
253.3183, 655.6241
253.8004, 656.3469
254.2825, 648.9558
254.7646, 626.9842
255.2468, 596.7236
255.7289, 584.3981
256.2110, 602.5109
256.6931, 619.6249
257.1752, 614.5836
257.6573, 572.8458
258.1395, 546.5784
258.6216, 543.7018
259.1037, 559.9160
259.5858, 573.3353
260.0679, 584.4335
260.5500, 592.1919
261.0322, 596.2259
261.5143, 597.3931
261.9964, 591.4733
262.4785, 573.0618
262.9606, 546.0391
263.4427, 536.9366
263.9249, 554.7838
264.4070, 575.7783
264.8891, 581.8914
265.3712, 569.8445
265.8533, 551.7809
266.3354, 525.5957
266.8176, 493.6112
267.2997, 472.9714
267.7818, 464.5760
268.2639, 466.2059
268.7460, 478.2974
269.2281, 504.2761
269.7103, 528.4512
270.1924, 550.0076
270.6745, 568.2854
271.1566, 571.7805
271.6387, 555.1899
272.1208, 534.7617
272.6030, 530.1711
273.0851, 547.5378
273.5672, 550.7242
274.0493, 523.4062
274.5314, 470.8820
275.0135, 454.5855
275.4957, 486.3329
275.9778, 526.1069
276.4599, 524.5090
276.9420, 472.9118
277.4241, 437.2501
277.9063, 441.7399
278.3884, 480.3573
278.8705, 492.8582
279.3526, 472.0973
279.8347, 445.1166
280.3168, 444.9406
280.7990, 474.2010
281.2811, 499.2372
281.7632, 509.5644
282.2453, 506.9813
282.7274, 500.7470
283.2095, 488.9575
283.6917, 480.1404
284.1738, 488.7740
284.6559, 515.1671
285.1380, 533.7014
285.6201, 530.9898
286.1022, 512.5465
286.5844, 509.5840
287.0665, 524.7813
287.5486, 543.7346
288.0307, 548.9569
288.5128, 541.1285
288.9949, 532.2033
289.4771, 524.3698
289.9591, 518.6909
290.4413, 522.1243
290.9234, 536.4107
291.4055, 549.4821
291.8876, 544.9232
292.3697, 525.0040
292.8518, 505.9048
293.3340, 494.9979
293.8161, 489.5145
294.2982, 481.8200
294.7803, 471.6701
295.2624, 460.7744
295.7445, 448.0889
296.2267, 435.1107
296.7088, 428.5132
297.1909, 436.2430
297.6730, 451.2592
298.1551, 458.8182
298.6372, 459.0044
299.1194, 452.9806
299.6015, 434.0554
300.0836, 408.5087
300.5657, 394.6053
301.0478, 410.2037
301.5299, 438.7373
302.0121, 457.5483
302.4942, 466.6736
302.9763, 464.1532
303.4584, 435.3867
303.9405, 393.4886
304.4226, 366.1880
304.9048, 371.6782
305.3869, 395.1541
305.8690, 423.4279
306.3511, 456.8216
306.8332, 486.0442
307.3153, 507.4129
307.7975, 519.4075
308.2796, 519.0458
308.7617, 493.6483
309.2438, 462.5166
309.7259, 444.7560
310.2080, 440.7000
310.6902, 434.8707
311.1723, 403.8414
311.6544, 367.6803
312.1365, 354.1581
312.6186, 399.7070
313.1007, 452.0405
313.5829, 475.1786
314.0650, 467.7628
314.5471, 457.4870
315.0292, 462.5941
315.5113, 471.1345
315.9934, 469.5045
316.4756, 438.6803
316.9577, 408.9439
317.4398, 394.7890
317.9219, 396.5883
318.4040, 403.1818
318.8861, 416.6806
319.3683, 430.2768
319.8504, 437.5014
320.3325, 426.2807
320.8146, 418.3018
321.2967, 426.4286
321.7788, 450.2263
322.2610, 460.8102
322.7431, 430.5543
323.2252, 394.9739
323.7073, 382.3704
324.1894, 434.1464
324.6715, 471.1514
325.1537, 468.5141
325.6358, 427.4270
326.1179, 399.8127
326.6000, 398.1758
327.0821, 407.3607
327.5642, 417.0039
328.0464, 436.3574
328.5285, 445.1327
329.0106, 431.2988
329.4927, 397.9085
329.9748, 387.3544
330.4569, 425.3657
330.9391, 465.5494
331.4212, 477.5021
331.9033, 434.2066
332.3854, 405.0256
332.8675, 399.6194
333.3496, 414.3291
333.8318, 426.3722
334.3139, 438.6353
334.7960, 444.3222
335.2781, 437.1172
335.7602, 408.6931
336.2423, 388.1111
336.7245, 377.6195
337.2066, 376.5357
337.6887, 384.0985
338.1708, 405.0220
338.6529, 424.2032
339.1350, 431.0264
339.6172, 422.0438
340.0993, 419.8844
340.5814, 430.0744
341.0635, 445.0673
341.5456, 442.6868
342.0277, 418.7526
342.5099, 396.9384
342.9920, 394.9915
343.4741, 412.8947
343.9562, 418.0318
344.4383, 404.7780
344.9204, 384.0947
345.4026, 374.6171
345.8847, 376.5430
346.3668, 385.2251
346.8489, 405.5263
347.3310, 432.5502
347.8131, 441.9216
348.2953, 429.3486
348.7774, 407.8157
349.2595, 392.9327
349.7416, 384.1168
350.2237, 377.6307
350.7058, 372.6427
351.1880, 368.3971
351.6701, 362.8862
352.1522, 355.8087
352.6343, 349.1779
353.1164, 345.5061
353.5985, 344.0264
354.0807, 342.8018
354.5628, 333.6665
355.0449, 327.9581
355.5270, 345.5198
356.0091, 388.2009
356.4912, 424.0818
356.9734, 421.2229
357.4555, 397.3704
357.9376, 379.9873
358.4197, 385.3211
358.9018, 396.5176
359.3839, 405.7251
359.8661, 412.5086
360.3482, 410.4084
360.8303, 380.8734
361.3124, 346.7656
361.7945, 331.2468
362.2766, 360.2107
362.7588, 391.5483
363.2409, 412.5999
363.7230, 423.2806
364.2051, 424.5364
364.6872, 403.2742
365.1693, 380.4610
365.6515, 370.6378
366.1336, 387.2584
366.6157, 405.3604
367.0978, 426.8585
367.5799, 448.8333
368.0620, 456.2469
368.5442, 430.4094
369.0263, 402.5660
369.5084, 387.7046
369.9905, 396.3150
370.4726, 403.7529
370.9547, 410.0020
371.4369, 415.1359
371.9190, 419.8925
372.4011, 428.8365
372.8832, 431.4166
373.3653, 420.7349
373.8474, 385.7665
374.3295, 368.1378
374.8116, 372.3796
375.2938, 390.2592
375.7759, 408.2571
376.2580, 428.8111
376.7401, 442.9480
377.2222, 446.2131
377.7043, 438.0165
378.1865, 426.8357
378.6686, 410.3661
379.1507, 395.4027
379.6328, 392.9443
380.1149, 403.8742
380.5970, 413.3687
381.0792, 417.9998
381.5613, 417.2995
382.0434, 404.2121
382.5255, 376.6084
383.0076, 353.9810
383.4897, 366.4899
383.9719, 404.8738
384.4540, 426.6469
384.9361, 408.9079
385.4182, 374.9801
385.9003, 368.3225
386.3824, 387.1738
386.8646, 411.1946
387.3467, 428.9379
387.8288, 440.5503
388.3109, 444.7561
388.7930, 436.9708
389.2751, 428.5947
389.7573, 436.7492
390.2394, 455.5239
390.7215, 463.5954
391.2036, 433.0930
391.6857, 395.0000
392.1678, 378.0097
392.6500, 392.1097
393.1321, 414.9348
393.6142, 442.4593
394.0963, 470.1082
394.5784, 489.2954
395.0605, 493.8806
395.5427, 491.6470
396.0248, 483.8748
396.5069, 467.6667
396.9890, 458.1532
397.4711, 459.1208
397.9532, 468.5284
398.4354, 483.7236
398.9175, 519.8319
399.3996, 546.1773
399.8817, 550.7275
400.3638, 530.1863
400.8459, 520.5500
401.3281, 527.2164
401.8102, 540.9429
402.2923, 554.6106
402.7744, 571.3679
403.2565, 582.3698
403.7386, 585.1776
404.2208, 580.8382
404.7029, 576.2559
405.1850, 570.7536
405.6671, 566.2801
406.1492, 562.9562
406.6313, 559.6595
407.1135, 565.1602
407.5956, 582.7849
408.0777, 607.1773
408.5598, 628.5490
409.0419, 647.3904
409.5240, 656.2500
410.0062, 640.9241
410.4883, 607.7521
410.9704, 599.9134
411.4525, 623.6596
411.9346, 657.4992
412.4167, 674.7082
412.8989, 677.4264
413.3810, 676.1721
413.8631, 679.9141
414.3452, 681.1837
414.8273, 658.8917
415.3094, 611.4566
415.7916, 577.7111
416.2737, 612.0539
416.7558, 676.6021
417.2379, 712.1107
417.7200, 673.0129
418.2021, 618.1705
418.6843, 587.3701
419.1664, 577.5365
419.6485, 567.6552
420.1306, 539.2134
420.6127, 511.1932
421.0948, 500.0072
421.5770, 524.7681
422.0591, 543.4789
422.5412, 535.5701
423.0233, 511.7491
423.5054, 501.6769
423.9875, 521.7047
424.4697, 547.3895
424.9518, 571.5485
425.4339, 600.8359
425.9160, 611.3401
426.3981, 594.9065
426.8802, 563.0913
427.3624, 529.9078
427.8445, 481.8253
428.3266, 453.9633
428.8087, 462.0362
429.2908, 507.6168
429.7729, 533.6019
430.2551, 533.4645
430.7372, 524.1331
431.2193, 522.9976
431.7014, 532.8184
432.1835, 531.1260
432.6656, 507.9805
433.1478, 473.7739
433.6299, 465.2969
434.1120, 484.4077
434.5941, 504.2189
435.0762, 499.2162
435.5583, 477.2776
436.0405, 476.1130
436.5226, 505.1295
437.0047, 543.0239
437.4868, 566.3644
437.9689, 575.2842
438.4510, 569.5786
438.9332, 533.1924
439.4153, 489.5878
439.8974, 469.9057
440.3795, 477.3938
440.8616, 489.0359
441.3438, 489.9885
441.8259, 484.6005
442.3080, 478.7971
442.7901, 465.8539
443.2722, 460.9322
443.7543, 480.7131
444.2365, 521.1537
444.7186, 545.8412
445.2007, 535.4984
445.6828, 510.1628
446.1649, 482.1600
446.6470, 437.0770
447.1292, 410.9783
447.6113, 418.3222
448.0934, 447.5545
448.5755, 467.4648
449.0576, 473.9201
449.5397, 475.6311
450.0219, 474.5096
450.5040, 469.1301
450.9861, 467.7077
451.4682, 474.2408
451.9503, 480.2856
452.4324, 472.2911
452.9146, 445.5448
453.3967, 425.1453
453.8788, 419.3682
454.3609, 425.4431
454.8430, 430.0671
455.3251, 433.0349
455.8072, 436.1559
456.2893, 438.7308
456.7715, 441.9905
457.2536, 453.7280
457.7357, 478.4541
458.2178, 505.9785
458.6999, 524.2479
459.1820, 533.2662
459.6642, 533.8011
460.1463, 522.8876
460.6284, 505.1441
461.1105, 481.9194
461.5926, 451.0104
462.0747, 431.8052
462.5569, 449.1080
463.0390, 483.4987
463.5211, 507.7024
464.0032, 500.9131
464.4853, 491.8923
464.9674, 495.2995
465.4496, 510.1891
465.9317, 519.8811
466.4138, 521.9512
466.8959, 516.2647
467.3780, 502.7090
467.8601, 458.1515
468.3423, 435.1646
468.8244, 447.5874
469.3065, 481.2794
469.7886, 498.8102
470.2707, 489.9653
470.7528, 481.4572
471.2350, 483.0660
471.7171, 495.9902
472.1992, 511.0708
472.6813, 531.2040
473.1634, 548.2119
473.6455, 550.7083
474.1277, 538.1428
474.6098, 521.7417
475.0919, 500.7201
475.5740, 479.9157
476.0561, 473.0416
476.5382, 480.0376
477.0204, 495.4561
477.5025, 528.4689
477.9846, 565.4044
478.4667, 571.3405
478.9488, 532.3751
479.4309, 487.9656
479.9131, 482.7873
480.3952, 502.1899
480.8773, 512.4250
481.3594, 484.4376
481.8415, 450.8698
482.3236, 431.1164
482.8058, 426.6217
483.2879, 437.0117
483.7700, 486.7150
484.2521, 539.2529
484.7342, 562.2671
485.2163, 519.0906
485.6985, 479.2252
486.1806, 449.8927
486.6627, 431.7718
487.1448, 426.8387
487.6269, 448.4511
488.1090, 468.1208
488.5912, 472.4178
489.0733, 453.6426
489.5554, 446.1972
490.0375, 454.0873
490.5196, 468.1810
491.0017, 476.0971
491.4839, 477.6234
491.9660, 474.5085
492.4481, 465.0988
492.9302, 451.7743
493.4123, 446.2259
493.8944, 448.7581
494.3766, 450.0067
494.8587, 441.4853
495.3408, 425.8949
495.8229, 408.2612
496.3050, 386.1634
496.7871, 370.4701
497.2693, 378.2611
497.7514, 401.8700
498.2335, 421.6908
498.7156, 428.5978
499.1977, 427.9660
499.6798, 420.3851
500.1620, 405.3478
500.6441, 396.1442
501.1262, 398.9245
501.6083, 409.6142
502.0904, 424.7137
502.5725, 460.0909
503.0547, 480.7534
503.5368, 472.7389
504.0189, 443.8185
504.5010, 426.0402
504.9831, 428.3669
505.4652, 430.6398
505.9474, 423.5647
506.4295, 403.3221
506.9116, 392.1166
507.3937, 392.8371
507.8758, 398.0559
508.3579, 398.1555
508.8401, 392.6422
509.3222, 387.6495
509.8043, 384.4848
510.2864, 382.9777
510.7685, 380.6570
511.2506, 377.7184
511.7328, 381.1347
512.2148, 405.2344
512.6970, 437.3131
513.1791, 452.3167
513.6612, 444.4469
514.1433, 428.9154
514.6254, 418.3835
515.1075, 409.4395
515.5897, 395.9207
516.0718, 358.7900
516.5539, 330.5523
517.0360, 335.3986
517.5181, 371.9648
518.0002, 401.9142
518.4824, 414.1179
518.9645, 416.6146
519.4466, 414.2615
519.9287, 396.2018
520.4108, 389.4196
520.8929, 403.2394
521.3751, 425.2917
521.8572, 430.0405
522.3393, 408.3635
522.8214, 388.9907
523.3035, 380.6067
523.7856, 383.0095
524.2678, 392.0382
524.7499, 410.1275
525.2320, 425.0703
525.7141, 422.1864
526.1962, 404.2338
526.6783, 389.8688
527.1605, 383.6660
527.6426, 380.3792
528.1247, 366.8693
528.6068, 348.2571
529.0889, 342.7092
529.5710, 380.1549
530.0532, 423.3941
530.5353, 431.3805
531.0174, 400.1285
531.4995, 370.6245
531.9816, 367.4628
532.4637, 375.1256
532.9459, 378.8924
533.4280, 363.6643
533.9101, 357.2969
534.3922, 375.6488
534.8743, 408.6104
535.3564, 421.6230
535.8386, 398.7159
536.3207, 373.8927
536.8028, 356.4479
537.2849, 345.6523
537.7670, 350.1216
538.2491, 377.5474
538.7313, 406.7611
539.2134, 413.5881
539.6955, 396.5682
540.1776, 381.3458
540.6597, 371.2352
541.1418, 367.4911
541.6240, 376.2280
542.1061, 396.0649
542.5882, 414.3645
543.0703, 429.7098
543.5524, 436.5179
544.0345, 417.7327
544.5167, 369.9167
544.9988, 334.2506
545.4809, 353.3790
545.9630, 395.9017
546.4451, 425.5849
546.9272, 420.4185
547.4094, 411.7241
547.8915, 411.6167
548.3736, 416.5885
548.8557, 414.5367
549.3378, 392.2521
549.8199, 373.4059
550.3021, 368.8894
550.7842, 384.5321
551.2663, 385.9407
551.7484, 364.2272
552.2305, 339.3711
552.7126, 332.6222
553.1948, 346.7628
553.6769, 360.9179
554.1590, 371.4862
554.6411, 380.0190
555.1232, 395.7151
555.6053, 417.5006
556.0875, 423.7546
556.5696, 383.6822
557.0517, 325.5776
557.5338, 301.7254
558.0159, 315.3939
558.4980, 342.1611
558.9802, 375.7231
559.4623, 407.2617
559.9444, 424.0550
560.4265, 407.0981
560.9086, 395.5665
561.3907, 414.8031
561.8729, 451.9341
562.3550, 471.9921
562.8371, 460.1712
563.3192, 437.6607
563.8013, 407.1840
564.2834, 365.1346
564.7656, 341.2629
565.2477, 339.6206
565.7298, 350.9970
566.2119, 372.1669
566.6940, 407.3402
567.1761, 425.9349
567.6583, 419.8933
568.1404, 402.0247
568.6225, 400.4052
569.1046, 413.1101
569.5867, 417.0688
570.0688, 388.5833
570.5510, 348.7379
571.0331, 337.4910
571.5152, 354.3201
571.9973, 371.4884
572.4794, 365.2864
572.9615, 351.2195
573.4437, 346.3727
573.9258, 360.3751
574.4079, 372.2290
574.8900, 374.5541
575.3721, 369.5025
575.8542, 360.8256
576.3364, 334.0211
576.8185, 320.2744
577.3006, 331.9955
577.7827, 367.9884
578.2648, 389.4980
578.7469, 389.5236
579.2291, 387.7476
579.7112, 400.9389
580.1933, 431.2346
580.6754, 442.0264
581.1575, 427.9344
581.6396, 403.8910
582.1218, 387.5322
582.6039, 378.5582
583.0860, 375.8397
583.5681, 381.6383
584.0502, 391.0189
584.5323, 401.3534
585.0145, 411.1273
585.4966, 413.3006
585.9787, 390.1463
586.4608, 367.2647
586.9429, 366.7441
587.4250, 397.5141
587.9072, 422.9744
588.3893, 433.0790
588.8714, 433.6613
589.3535, 430.2107
589.8356, 417.0188
590.3177, 409.0875
590.7999, 408.6310
591.2820, 414.1904
591.7641, 422.9094
592.2462, 436.7577
592.7283, 446.4637
593.2104, 448.0206
593.6926, 441.8605
594.1747, 427.1277
594.6568, 402.4445
595.1389, 383.6227
595.6210, 393.0980
596.1031, 417.7014
596.5853, 428.8912
597.0674, 414.9480
597.5495, 400.8093
598.0316, 411.7883
598.5137, 436.4091
598.9958, 453.1563
599.4780, 447.1666
599.9601, 438.7494
600.4422, 436.1199
600.9243, 439.2542
601.4064, 440.1747
601.8885, 439.0240
602.3707, 434.8048
602.8528, 424.9846
603.3349, 404.4520
603.8170, 398.7965
604.2991, 414.4609
604.7813, 434.1583
605.2634, 432.9564
605.7455, 411.3657
606.2276, 395.0653
606.7097, 392.0066
607.1918, 395.7842
607.6740, 393.8172
608.1561, 387.9462
608.6382, 386.6762
609.1203, 401.7256
609.6024, 419.4984
610.0845, 426.8490
610.5667, 422.7038
611.0488, 415.0131
611.5309, 406.2464
612.0130, 395.8755
612.4951, 383.1486
612.9772, 353.6989
613.4594, 342.5714
613.9415, 363.2789
614.4236, 397.8105
614.9057, 414.1246
615.3878, 405.8383
615.8699, 397.7372
616.3521, 398.3611
616.8342, 404.1131
617.3163, 394.9306
617.7984, 369.8655
618.2805, 347.9460
618.7626, 345.7687
619.2448, 355.7144
619.7269, 359.7560
620.2090, 355.7098
620.6911, 353.7392
621.1732, 361.0297
621.6553, 375.5860
622.1375, 395.7939
622.6196, 438.8987
623.1017, 464.4204
623.5838, 441.3420
624.0659, 390.6359
624.5480, 365.9138
625.0302, 401.5275
625.5123, 428.7733
625.9944, 426.0593
626.4765, 394.5610
626.9586, 377.5471
627.4407, 378.6740
627.9229, 384.2109
628.4050, 386.4542
628.8871, 385.1592
629.3692, 374.2848
629.8513, 350.3704
630.3334, 330.2028
630.8156, 337.5502
631.2977, 362.2486
631.7798, 382.0531
632.2619, 387.0333
632.7440, 387.6620
633.2261, 390.7278
633.7083, 395.2769
634.1904, 398.4148
634.6725, 401.4803
635.1546, 400.9570
635.6367, 393.2258
636.1188, 376.9145
636.6010, 366.9381
637.0831, 363.3223
637.5652, 365.8658
638.0473, 376.1007
638.5294, 395.4859
639.0115, 412.4083
639.4937, 427.0997
639.9758, 437.1084
640.4579, 438.3987
640.9400, 431.8548
641.4221, 420.8756
641.9042, 400.3250
642.3864, 383.6340
642.8685, 393.3280
643.3506, 421.4802
643.8327, 442.2507
644.3148, 436.7027
644.7969, 425.7598
645.2791, 419.2516
645.7612, 417.9722
646.2433, 422.8880
646.7254, 443.8166
647.2075, 463.2549
647.6896, 470.1237
648.1718, 457.1355
648.6539, 452.5349
649.1360, 460.2668
649.6181, 470.8257
650.1002, 466.5911
650.5823, 448.6273
651.0645, 445.5724
651.5466, 473.6491
652.0287, 508.6419
652.5108, 506.3286
652.9929, 475.4816
653.4750, 449.5243
653.9572, 449.9030
654.4393, 458.8778
654.9214, 468.2995
655.4035, 477.2451
655.8856, 473.9328
656.3677, 441.1029
656.8499, 404.7628
657.3320, 381.6570
657.8141, 375.7293
658.2962, 373.2899
658.7783, 375.0440
659.2604, 379.4363
659.7426, 387.4142
660.2246, 400.2007
660.7067, 400.2310
661.1888, 378.9418
661.6710, 351.2580
662.1531, 346.7334
662.6352, 360.3278
663.1173, 370.5782
663.5994, 356.5865
664.0815, 341.4526
664.5637, 353.3054
665.0458, 388.3784
665.5279, 411.5224
666.0100, 395.3667
666.4921, 372.8361
666.9742, 363.2977
667.4564, 374.4544
667.9385, 381.3665
668.4206, 381.8916
668.9027, 380.3282
669.3848, 379.6380
669.8669, 379.0940
670.3491, 385.3539
670.8312, 402.0244
671.3133, 420.2853
671.7954, 426.9102
672.2775, 422.3220
672.7596, 408.4092
673.2418, 375.9261
673.7239, 343.3853
674.2060, 333.8699
674.6881, 342.4374
675.1702, 349.0618
675.6523, 337.5238
676.1345, 327.5252
676.6166, 334.3495
677.0987, 363.4768
677.5808, 372.4975
678.0629, 340.8426
678.5450, 309.4608
679.0272, 308.4332
679.5093, 346.6552
679.9914, 371.2060
680.4735, 378.3785
680.9556, 375.3174
681.4377, 369.7285
681.9199, 361.6210
682.4020, 350.2322
682.8841, 331.4958
683.3662, 315.9028
683.8483, 317.2276
684.3304, 330.5096
684.8126, 343.7271
685.2947, 354.2594
685.7768, 361.0512
686.2589, 361.9364
686.7410, 357.3692
687.2231, 354.3764
687.7053, 354.7297
688.1874, 355.0233
688.6695, 352.7163
689.1516, 347.0086
689.6337, 349.7302
690.1158, 363.6558
690.5980, 375.9676
691.0801, 372.3721
691.5622, 356.5088
692.0443, 341.8760
692.5264, 329.3636
693.0085, 322.4804
693.4907, 328.0556
693.9728, 340.6700
694.4549, 351.7091
694.9370, 361.0173
695.4191, 365.1317
695.9012, 357.3556
696.3834, 343.1169
696.8655, 338.9692
697.3476, 355.2453
697.8297, 366.5963
698.3118, 363.9536
698.7939, 349.8703
699.2761, 344.6254
699.7582, 349.0934
700.2403, 356.5108
700.7224, 367.2258
701.2045, 377.2549
701.6866, 371.5467
702.1688, 349.1772
702.6509, 330.5456
703.1330, 337.4560
703.6151, 353.3112
704.0972, 360.4348
704.5793, 351.9710
705.0615, 342.7162
705.5436, 336.5195
706.0257, 331.7872
706.5078, 326.1951
706.9899, 317.2516
707.4720, 312.3847
707.9542, 312.0801
708.4363, 316.6706
708.9184, 329.7669
709.4005, 351.2859
709.8826, 368.9668
710.3647, 380.4524
710.8469, 383.3645
711.3290, 364.2758
711.8111, 329.3266
712.2932, 307.4848
712.7753, 334.8802
713.2574, 366.1012
713.7396, 365.9852
714.2217, 329.4844
714.7038, 302.5177
715.1859, 295.4780
715.6680, 299.5599
716.1501, 312.9329
716.6323, 341.1030
717.1144, 358.1821
717.5965, 363.2057
718.0786, 359.7253
718.5607, 350.3200
719.0428, 335.4526
719.5250, 315.3577
720.0071, 286.4347
720.4892, 263.5500
720.9713, 271.0927
721.4534, 295.0766
721.9355, 310.2269
722.4177, 295.4424
722.8998, 282.6355
723.3819, 286.1288
723.8640, 301.0627
724.3461, 311.6401
724.8282, 318.3930
725.3104, 318.4211
725.7925, 306.0604
726.2746, 285.2461
726.7567, 288.2578
727.2388, 317.5240
727.7209, 345.2772
728.2031, 355.9771
728.6852, 352.4876
729.1673, 334.8409
729.6494, 303.8328
730.1315, 282.4496
730.6136, 297.0385
731.0958, 322.5760
731.5779, 337.5081
732.0600, 335.2767
732.5421, 332.1330
733.0242, 329.5228
733.5063, 328.0943
733.9885, 328.8304
734.4706, 332.8842
734.9527, 335.7234
735.4348, 337.9017
735.9169, 337.0552
736.3990, 327.5429
736.8812, 310.8631
737.3633, 294.8641
737.8454, 279.3272
738.3275, 269.4568
738.8096, 276.5791
739.2917, 293.5316
739.7739, 303.3844
740.2560, 291.8807
740.7381, 279.5659
741.2202, 272.6253
741.7023, 271.5533
742.1844, 277.2834
742.6666, 296.2844
743.1487, 310.4401
743.6308, 311.5220
744.1129, 300.8344
744.5950, 292.2517
745.0771, 286.0009
745.5593, 277.8891
746.0414, 260.4215
746.5235, 240.7587
747.0056, 230.4236
747.4877, 230.5563
747.9698, 237.5042
748.4520, 259.1149
748.9341, 280.5882
749.4162, 289.1169
749.8983, 277.1841
750.3804, 262.4131
750.8625, 238.3128
751.3447, 218.5336
751.8268, 220.4729
752.3089, 247.2096
752.7910, 271.9796
753.2731, 292.4625
753.7552, 305.9567
754.2374, 302.8108
754.7195, 288.6589
755.2016, 279.7499
755.6837, 285.2552
756.1658, 293.8548
756.6479, 302.2672
757.1301, 307.6899
757.6122, 303.2208
758.0943, 271.8239
758.5764, 247.9608
759.0585, 241.5730
759.5406, 249.2255
760.0228, 255.3722
760.5049, 259.8564
760.9870, 263.7271
761.4691, 267.4453
761.9512, 270.9261
762.4333, 273.9820
762.9155, 276.5370
763.3976, 277.8350
763.8797, 278.7837
764.3618, 277.2658
764.8439, 268.3637
765.3260, 250.9538
765.8082, 241.4594
766.2903, 254.3672
766.7724, 268.7070
767.2545, 271.9576
767.7366, 260.8450
768.2188, 249.5045
768.7009, 235.2883
769.1830, 227.2825
769.6651, 240.1904
770.1472, 268.5472
770.6293, 285.0212
771.1115, 284.7845
771.5936, 278.6115
772.0757, 277.4523
772.5578, 276.5427
773.0399, 268.7733
773.5220, 243.5036
774.0042, 224.6726
774.4863, 219.8993
774.9684, 224.7562
775.4505, 234.2184
775.9326, 253.9891
776.4147, 261.6713
776.8969, 247.7451
777.3790, 226.9155
777.8611, 237.4322
778.3432, 273.4551
778.8253, 295.4261
779.3074, 279.2841
779.7896, 250.3630
780.2717, 231.5239
780.7538, 221.6420
781.2359, 218.0347
781.7180, 223.8464
782.2001, 231.3813
782.6823, 241.1380
783.1644, 251.2914
783.6465, 249.6312
784.1286, 230.0867
784.6107, 213.9195
785.0928, 210.7935
785.5750, 218.5047
786.0571, 229.8151
786.5392, 244.2759
787.0213, 254.9204
787.5034, 257.3380
787.9855, 253.0979
788.4677, 238.2520
788.9498, 212.6678
789.4319, 201.0793
789.9140, 225.4626
790.3961, 255.7299
790.8782, 274.7192
791.3604, 280.3147
791.8425, 284.2958
792.3246, 287.2965
792.8067, 286.9494
793.2888, 279.4223
793.7709, 266.2206
794.2531, 255.5931
794.7352, 248.4361
795.2173, 241.5395
795.6994, 227.2349
796.1815, 213.8187
796.6636, 212.5905
797.1458, 233.0562
797.6279, 248.9157
798.1100, 251.8826
798.5921, 248.3269
799.0742, 242.7302
799.5563, 231.9072
800.0385, 233.0123
800.5206, 252.9956
801.0027, 273.5046
801.4848, 260.0894
801.9669, 223.0572
802.4490, 200.0146
802.9312, 204.0467
803.4133, 219.8676
803.8954, 244.9855
804.3775, 270.9305
804.8596, 284.4731
805.3417, 276.2401
805.8239, 261.1105
806.3060, 232.8324
806.7881, 203.0055
807.2702, 199.1487
807.7523, 225.9545
808.2344, 249.8864
808.7166, 261.5356
809.1987, 265.6258
809.6808, 272.0273
810.1629, 278.8934
810.6450, 279.7885
811.1271, 261.8393
811.6093, 246.0536
812.0914, 252.3304
812.5735, 272.9489
813.0556, 277.1141
813.5377, 238.4244
814.0198, 212.3303
814.5020, 219.0225
814.9841, 249.1971
815.4662, 256.4765
815.9483, 239.7981
816.4304, 219.9892
816.9125, 200.9115
817.3947, 188.9815
817.8768, 203.8083
818.3589, 239.3335
818.8410, 263.9297
819.3231, 249.5768
819.8052, 230.4560
820.2874, 226.1760
820.7695, 237.9991
821.2516, 243.9398
821.7337, 240.3328
822.2158, 237.7267
822.6979, 243.4557
823.1801, 255.5271
823.6622, 254.4070
824.1443, 240.2696
824.6263, 229.4694
825.1085, 244.8950
825.5906, 263.5312
826.0727, 250.9359
826.5548, 204.6772
827.0369, 175.7855
827.5190, 206.0522
828.0012, 237.3386
828.4833, 232.1460
828.9654, 181.6072
829.4475, 170.9697
829.9296, 211.2695
830.4117, 255.8312
830.8939, 268.1554
831.3760, 255.9234
831.8581, 241.6349
832.3402, 226.7444
832.8223, 210.5279
833.3044, 183.9518
833.7866, 161.6514
834.2687, 158.1621
834.7508, 182.0884
835.2329, 199.1315
835.7150, 199.4263
836.1971, 200.3616
836.6793, 217.8481
837.1614, 254.1463
837.6435, 271.5107
838.1256, 266.4194
838.6077, 256.6156
839.0898, 262.9764
839.5720, 274.8029
840.0541, 273.1939
840.5362, 252.6982
841.0183, 232.6057
841.5004, 215.9015
841.9825, 207.7202
842.4647, 214.3019
842.9468, 244.8904
843.4289, 265.0354
843.9110, 273.3143
844.3931, 274.3629
844.8752, 273.3614
845.3574, 269.5226
845.8395, 257.1542
846.3216, 234.4613
846.8037, 211.0085
847.2858, 183.7261
847.7679, 165.6948
848.2501, 175.2200
848.7322, 235.4564
849.2143, 278.4330
849.6964, 289.8272
850.1785, 286.8403
850.6606, 284.4651
851.1428, 283.5609
851.6249, 273.7132
852.1070, 251.5667
852.5891, 230.7390
853.0712, 230.8906
853.5533, 242.3667
854.0355, 247.3363
854.5176, 240.5649
854.9997, 231.5020
855.4818, 223.3564
855.9639, 215.8119
856.4460, 207.9841
856.9282, 194.9878
857.4103, 193.8985
857.8924, 209.3706
858.3745, 228.5787
858.8566, 234.4608
859.3387, 230.3095
859.8209, 233.0605
860.3030, 246.6865
860.7851, 261.5839
861.2672, 271.7448
861.7493, 277.7598
862.2314, 280.7716
862.7136, 284.2530
863.1957, 277.4496
863.6778, 248.0431
864.1599, 219.5717
864.6420, 219.2906
865.1241, 249.5744
865.6063, 269.2635
866.0884, 273.5502
866.5705, 268.6499
867.0526, 254.2032
867.5347, 237.5335
868.0168, 232.0598
868.4990, 245.4134
868.9811, 256.3484
869.4632, 259.1982
869.9453, 254.1726
870.4274, 240.1721
870.9095, 208.1562
871.3917, 194.5830
871.8738, 203.9629
872.3559, 222.9500
872.8380, 242.8998
873.3201, 260.2307
873.8022, 259.4453
874.2844, 233.1641
874.7665, 215.8331
875.2486, 247.0815
875.7307, 291.0819
876.2128, 312.7915
876.6949, 294.8376
877.1771, 276.8958
877.6592, 257.4166
878.1413, 239.9091
878.6234, 228.6459
879.1055, 223.0695
879.5876, 215.9887
880.0698, 206.3224
880.5519, 198.6798
881.0340, 198.2097
881.5161, 201.6798
881.9982, 204.8359
882.4803, 205.3615
882.9625, 211.3019
883.4446, 230.3415
883.9267, 249.7518
884.4088, 261.5745
884.8909, 265.6202
885.3730, 262.6524
885.8552, 251.9884
886.3373, 238.3349
886.8194, 222.1384
887.3015, 207.4169
887.7836, 201.5319
888.2657, 206.0034
888.7479, 212.3490
889.2300, 215.4745
889.7121, 220.3529
890.1942, 233.2318
890.6763, 258.5803
891.1584, 261.2235
891.6406, 234.9912
892.1227, 208.7922
892.6048, 209.2292
893.0869, 226.6560
893.5690, 236.0446
894.0511, 236.1216
894.5333, 235.0286
895.0154, 239.4038
895.4975, 243.1639
895.9796, 241.1903
896.4617, 231.9718
896.9438, 226.6497
897.4260, 226.3216
897.9081, 227.4706
898.3902, 227.3603
898.8723, 226.9019
899.3544, 231.9841
899.8365, 242.1206
900.3187, 251.4069
900.8008, 259.4215
901.2829, 262.0882
901.7650, 253.0380
902.2471, 232.6531
902.7292, 217.3271
903.2114, 208.5657
903.6935, 204.9201
904.1756, 205.9625
904.6577, 211.7486
905.1398, 225.2734
905.6219, 245.9355
906.1041, 262.7066
906.5862, 270.2776
907.0683, 270.1101
907.5504, 259.5081
908.0325, 241.4008
908.5146, 227.6791
908.9968, 216.3076
909.4789, 217.4814
909.9610, 240.1852
910.4431, 275.2038
910.9252, 287.9749
911.4073, 278.2506
911.8895, 269.8776
912.3716, 275.8143
912.8537, 283.3412
913.3358, 273.9664
913.8179, 253.2745
914.3000, 234.1341
914.7822, 209.1165
915.2643, 201.6623
915.7464, 230.1554
916.2285, 272.9836
916.7106, 287.6972
917.1927, 271.5575
917.6749, 251.3655
918.1570, 229.3358
918.6391, 214.9116
919.1212, 229.7228
919.6033, 259.9990
920.0854, 279.5374
920.5676, 274.4472
921.0497, 266.3637
921.5318, 259.4726
922.0139, 254.3192
922.4960, 251.6719
922.9781, 251.9543
923.4603, 252.5880
923.9424, 253.1918
924.4245, 254.6619
924.9066, 262.5386
925.3887, 270.8347
925.8708, 265.1837
926.3530, 237.5561
926.8351, 218.5166
927.3172, 229.0195
927.7993, 248.2856
928.2814, 258.8137
928.7635, 258.3355
929.2457, 258.9551
929.7278, 260.8732
930.2099, 263.0120
930.6920, 266.6572
931.1741, 269.2073
931.6563, 261.5095
932.1384, 243.1564
932.6205, 233.2162
933.1026, 254.8910
933.5847, 276.4188
934.0668, 273.4966
934.5490, 245.6054
935.0311, 241.1799
935.5132, 267.6336
935.9953, 288.5013
936.4774, 274.1513
936.9595, 242.4924
937.4417, 240.4665
937.9238, 261.9997
938.4059, 276.9234
938.8880, 253.0916
939.3701, 234.8055
939.8522, 252.5773
940.3344, 295.4781
940.8165, 320.1889
941.2986, 323.8509
941.7807, 317.7730
942.2628, 300.1081
942.7449, 281.3990
943.2271, 290.8881
943.7092, 316.8902
944.1913, 327.8200
944.6734, 288.6407
945.1555, 256.4677
945.6376, 263.3556
946.1198, 289.0988
946.6019, 295.9242
947.0840, 272.8347
947.5661, 272.8376
948.0482, 309.8925
948.5303, 352.6305
949.0125, 351.9438
949.4946, 325.1203
949.9767, 311.6365
950.4588, 325.6017
950.9409, 335.7232
951.4230, 322.2349
951.9052, 302.1142
952.3873, 289.5103
952.8694, 283.3013
953.3515, 290.9376
953.8336, 314.6677
954.3157, 342.6306
954.7979, 368.6260
955.2800, 389.6459
955.7621, 397.2018
956.2442, 390.9218
956.7263, 384.5160
957.2084, 381.9267
957.6906, 383.6354
958.1727, 391.8149
958.6548, 405.7106
959.1369, 412.7886
959.6190, 411.5414
960.1011, 413.3445
960.5833, 430.2482
961.0654, 450.2320
961.5475, 444.6951
962.0296, 422.7979
962.5117, 416.5234
962.9938, 464.3306
963.4760, 501.6384
963.9581, 499.6634
964.4402, 475.1017
964.9223, 463.7047
965.4044, 465.6947
965.8865, 482.2971
966.3687, 520.4084
966.8508, 558.2571
967.3329, 566.4645
967.8150, 554.6763
968.2971, 539.1340
968.7792, 519.8712
969.2614, 505.0388
969.7435, 492.5836
970.2256, 488.2903
970.7077, 501.5638
971.1898, 533.5170
971.6719, 558.1345
972.1541, 573.6364
972.6362, 580.6499
973.1183, 576.1575
973.6004, 565.6014
974.0825, 552.0549
974.5646, 534.5557
975.0468, 529.2332
975.5289, 551.1823
976.0110, 569.9641
976.4931, 567.5783
976.9752, 548.0606
977.4573, 554.3496
977.9395, 584.3659
978.4216, 604.4266
978.9037, 582.2744
979.3858, 551.5693
979.8679, 537.1808
980.3500, 538.3336
980.8322, 550.9819
981.3143, 588.7466
981.7964, 612.0157
982.2785, 609.0674
982.7606, 592.0746
983.2427, 584.4819
983.7249, 585.3484
984.2070, 591.5458
984.6891, 605.3873
985.1712, 616.5198
985.6533, 614.5848
986.1354, 607.2554
986.6176, 604.4099
987.0997, 609.5110
987.5818, 612.2465
988.0639, 611.2469
988.5460, 611.1592
989.0281, 619.0435
989.5102, 631.0140
989.9923, 635.9983
990.4744, 633.0179
990.9565, 630.3979
991.4387, 633.4361
991.9208, 637.6893
992.4029, 643.3317
992.8850, 649.8133
993.3671, 638.7286
993.8492, 605.3041
994.3314, 582.3634
994.8135, 593.6700
995.2956, 619.0223
995.7777, 626.4423
996.2598, 619.3828
996.7419, 607.6703
997.2241, 589.5829
997.7062, 573.8735
998.1883, 561.3965
998.6704, 553.2737
999.1525, 555.5925
999.6346, 568.5178
1000.117, 566.8262
1000.599, 541.7694
1001.081, 516.7061
1001.563, 520.2147
1002.045, 535.6438
1002.527, 542.2028
1003.009, 531.1724
1003.492, 524.9949
1003.974, 525.2489
1004.456, 530.4740
1004.938, 544.4026
1005.420, 564.0131
1005.902, 563.6574
1006.384, 544.4658
1006.866, 529.4497
1007.349, 539.2150
1007.831, 553.4113
1008.313, 558.8611
1008.795, 556.1019
1009.277, 555.0426
1009.759, 556.5825
1010.241, 557.7664
1010.723, 558.4455
1011.205, 557.3234
1011.688, 548.0870
1012.170, 535.2537
1012.652, 530.7745
1013.134, 543.7569
1013.616, 557.0787
1014.098, 568.1166
1014.580, 574.0530
1015.062, 568.6096
1015.544, 547.8806
1016.027, 550.1435
1016.509, 580.4165
1016.991, 608.9677
1017.473, 601.9741
1017.955, 581.3063
1018.437, 571.8664
1018.919, 576.0305
1019.401, 585.5781
1019.884, 614.5272
1020.366, 625.6490
1020.848, 598.8891
1021.330, 545.9929
1021.812, 513.7485
1022.294, 500.7767
1022.776, 496.1133
1023.258, 501.3174
1023.740, 505.3999
1024.223, 498.8732
1024.705, 486.8542
1025.187, 478.2035
1025.669, 471.0144
1026.151, 475.6435
1026.633, 497.2254
1027.115, 518.8093
1027.597, 515.4729
1028.080, 497.9669
1028.562, 488.2452
1029.044, 489.6269
1029.526, 495.9343
1030.008, 515.3421
1030.490, 528.0014
1030.972, 519.4365
1031.454, 491.9202
1031.937, 487.6225
1032.419, 506.9804
1032.901, 522.6561
1033.383, 515.4286
1033.865, 500.3914
1034.347, 485.3331
1034.829, 474.6959
1035.311, 480.5779
1035.793, 528.1943
1036.276, 554.6138
1036.758, 547.2445
1037.240, 525.0311
1037.722, 510.3570
1038.204, 503.8688
1038.686, 513.3229
1039.168, 543.9767
1039.650, 562.9445
1040.132, 531.3106
1040.615, 496.0377
1041.097, 495.4268
1041.579, 531.6567
1042.061, 551.5127
1042.543, 552.5287
1043.025, 554.5150
1043.507, 580.0254
1043.989, 605.8925
1044.472, 589.5347
1044.954, 546.1799
1045.436, 521.3959
1045.918, 549.3885
1046.400, 570.5647
1046.882, 575.4496
1047.364, 569.6927
1047.846, 561.8770
1048.328, 551.5523
1048.811, 532.2281
1049.293, 499.2813
1049.775, 478.7563
1050.257, 503.1951
1050.739, 538.7354
1051.221, 554.4526
1051.703, 546.8505
1052.185, 546.7035
1052.667, 555.3643
1053.150, 565.2977
1053.632, 569.7835
1054.114, 574.1625
1054.596, 596.0043
1055.078, 626.3092
1055.560, 637.5820
1056.042, 596.7614
1056.524, 565.9123
1057.007, 557.2667
1057.489, 563.2156
1057.971, 575.2872
1058.453, 592.4591
1058.935, 607.0823
1059.417, 618.3580
1059.899, 622.8676
1060.381, 603.2653
1060.864, 586.1379
1061.346, 602.1290
1061.828, 658.0123
1062.310, 679.5012
1062.792, 657.8318
1063.274, 639.9659
1063.756, 652.6022
1064.238, 682.9354
1064.720, 719.4567
1065.203, 754.5350
1065.685, 766.9208
1066.167, 720.4755
1066.649, 688.2527
1067.131, 684.1522
1067.613, 696.3790
1068.095, 716.9540
1068.577, 742.5912
1069.059, 739.9449
1069.542, 702.0685
1070.024, 669.3752
1070.506, 683.4132
1070.988, 705.1311
1071.470, 700.3539
1071.952, 668.2365
1072.434, 652.5628
1072.916, 657.0856
1073.398, 659.8893
1073.881, 650.3782
1074.363, 634.7163
1074.845, 619.7910
1075.327, 606.5518
1075.809, 597.3402
1076.291, 592.2587
1076.773, 592.9657
1077.255, 603.4931
1077.738, 614.1002
1078.220, 621.1784
1078.702, 620.8238
1079.184, 579.9942
1079.666, 496.5271
1080.148, 430.1703
1080.630, 433.6406
1081.112, 454.2943
1081.594, 463.2977
1082.077, 461.4525
1082.559, 452.7348
1083.041, 435.0630
1083.523, 429.9815
1084.005, 450.0972
1084.487, 474.6678
1084.969, 478.1464
1085.451, 468.6398
1085.933, 457.4203
1086.416, 442.4942
1086.898, 435.8995
1087.380, 439.8316
1087.862, 448.1629
1088.344, 458.0872
1088.826, 468.2127
1089.308, 473.5957
1089.790, 474.7561
1090.273, 476.0296
1090.755, 486.7698
1091.237, 489.6716
1091.719, 471.7694
1092.201, 444.2723
1092.683, 432.2814
1093.165, 435.5926
1093.647, 440.7885
1094.130, 446.6855
1094.612, 446.6103
1095.094, 423.7759
1095.576, 398.4129
1096.058, 393.1804
1096.540, 414.0423
1097.022, 433.6913
1097.504, 453.1093
1097.986, 467.1846
1098.469, 475.9886
1098.951, 475.5142
1099.433, 450.7570
1099.915, 410.5222
1100.397, 378.6065
1100.879, 359.3836
1101.361, 356.9990
1101.843, 379.1317
1102.325, 407.3073
1102.808, 416.5560
1103.290, 410.5688
1103.772, 408.2310
1104.254, 411.5530
1104.736, 415.1927
1105.218, 418.5909
1105.700, 418.5789
1106.182, 410.4521
1106.665, 396.8563
1107.147, 393.4772
1107.629, 400.7948
1108.111, 403.4398
1108.593, 393.7241
1109.075, 382.0295
1109.557, 378.6559
1110.039, 380.4167
1110.521, 382.7781
1111.004, 382.2946
1111.486, 391.3825
1111.968, 414.2747
1112.450, 433.9754
1112.932, 433.1747
1113.414, 422.0947
1113.896, 421.8786
1114.378, 430.3765
1114.860, 435.3113
1115.343, 424.6016
1115.825, 420.4084
1116.307, 431.3880
1116.789, 446.3809
1117.271, 446.9899
1117.753, 434.6937
1118.235, 412.7021
1118.717, 378.9870
1119.200, 355.8734
1119.682, 370.8972
1120.164, 388.3673
1120.646, 381.1376
1121.128, 352.3998
1121.610, 348.8456
1122.092, 370.7030
1122.574, 385.9434
1123.057, 373.5144
1123.539, 358.4493
1124.021, 375.2330
1124.503, 400.7670
1124.985, 394.1411
1125.467, 329.2047
1125.949, 296.6475
1126.431, 301.7731
1126.913, 322.7647
1127.396, 348.9457
1127.878, 374.6368
1128.360, 393.4098
1128.842, 404.1431
1129.324, 403.0564
1129.806, 373.5869
1130.288, 356.6746
1130.770, 364.5611
1131.252, 381.5328
1131.735, 378.3848
1132.217, 361.6798
1132.699, 350.4077
1133.181, 348.2556
1133.663, 349.9073
1134.145, 362.7965
1134.627, 368.1202
1135.109, 350.4697
1135.592, 316.1647
1136.074, 312.6805
1136.556, 336.3732
1137.038, 356.0787
1137.520, 353.6810
1138.002, 348.6023
1138.484, 357.7128
1138.966, 368.2592
1139.448, 359.4547
1139.931, 321.2266
1140.413, 325.6738
1140.895, 378.6213
1141.377, 424.5630
1141.859, 411.3339
1142.341, 377.1877
1142.823, 350.5309
1143.305, 334.5816
1143.787, 337.2845
1144.270, 368.9396
1144.752, 384.9263
1145.234, 372.9507
1145.716, 353.8954
1146.198, 362.3765
1146.680, 379.5421
1147.162, 371.1148
1147.644, 325.7605
1148.127, 305.0968
1148.609, 331.4195
1149.091, 354.9833
1149.573, 352.8185
1150.055, 335.7565
1150.537, 328.6499
1151.019, 330.4679
1151.501, 338.8668
1151.984, 362.0771
1152.466, 375.5927
1152.948, 366.8539
1153.430, 353.2245
1153.912, 350.2395
1154.394, 355.7609
1154.876, 346.2478
1155.358, 323.4199
1155.840, 306.5006
1156.323, 310.9091
1156.805, 319.4673
1157.287, 326.4131
1157.769, 331.0398
1158.251, 332.5636
1158.733, 330.9771
1159.215, 321.3500
1159.697, 301.7130
1160.179, 288.0657
1160.662, 301.5823
1161.144, 319.8426
1161.626, 324.6767
1162.108, 316.7935
1162.590, 307.2998
1163.072, 295.5812
1163.554, 287.5806
1164.036, 284.9179
1164.519, 287.4828
1165.001, 303.7590
1165.483, 320.9464
1165.965, 320.1148
1166.447, 291.5691
1166.929, 272.6761
1167.411, 263.8058
1167.893, 263.8325
1168.375, 280.1694
1168.858, 299.3891
1169.340, 292.3194
1169.822, 271.7049
1170.304, 268.1476
1170.786, 322.7098
1171.268, 335.0831
1171.750, 284.5387
1172.232, 228.9807
1172.714, 234.7721
1173.197, 274.6341
1173.679, 296.1430
1174.161, 297.3612
1174.643, 289.7122
1175.125, 267.1533
1175.607, 248.3598
1176.089, 233.8410
1176.571, 229.2386
1177.054, 255.3582
1177.536, 298.0918
1178.018, 317.3055
1178.500, 303.4156
1178.982, 285.4148
1179.464, 271.3062
1179.946, 260.6741
1180.428, 254.3134
1180.911, 250.8378
1181.393, 243.9128
1181.875, 235.0123
1182.357, 231.1854
1182.839, 238.4120
1183.321, 243.4378
1183.803, 237.4717
1184.285, 228.8331
1184.767, 220.6614
1185.250, 213.5816
1185.732, 230.6012
1186.214, 268.2748
1186.696, 293.8936
1187.178, 275.4953
1187.660, 253.8015
1188.142, 250.4858
1188.624, 256.6109
1189.106, 259.7984
1189.589, 259.8488
1190.071, 263.3381
1190.553, 270.9266
1191.035, 274.6483
1191.517, 259.0209
1191.999, 246.2691
1192.481, 260.0538
1192.963, 288.9824
1193.446, 294.3347
1193.928, 273.7413
1194.410, 259.5291
1194.892, 258.9484
1195.374, 259.7364
1195.856, 243.4318
1196.338, 228.3576
1196.820, 237.7121
1197.302, 270.4145
1197.785, 278.4259
1198.267, 257.5866
1198.749, 248.4597
1199.231, 270.9789
1199.713, 297.8113
1200.195, 299.5861
1200.677, 287.3414
1201.159, 271.4360
1201.641, 248.5177
1202.124, 250.5816
1202.606, 282.6070
1203.088, 307.7318
1203.570, 300.4409
1204.052, 278.8847
1204.534, 255.7215
1205.016, 236.2355
1205.498, 233.4826
1205.981, 260.7321
1206.463, 270.4568
1206.945, 257.6894
1207.427, 244.5647
1207.909, 261.7334
1208.391, 281.1072
1208.873, 249.7996
1209.355, 185.4121
1209.838, 172.1737
1210.320, 248.3537
1210.802, 290.9835
1211.284, 278.7625
1211.766, 251.8304
1212.248, 253.4764
1212.730, 270.1848
1213.212, 286.6527
1213.694, 301.0246
1214.177, 307.8070
1214.659, 306.9183
1215.141, 298.1526
1215.623, 278.5451
1216.105, 257.6225
1216.587, 248.7999
1217.069, 248.5696
1217.551, 252.9351
1218.033, 262.0551
1218.516, 270.3072
1218.998, 277.6404
1219.480, 283.7138
1219.962, 290.1610
1220.444, 292.8167
1220.926, 275.9154
1221.408, 252.3061
1221.890, 246.7856
1222.373, 276.9847
1222.855, 294.4760
1223.337, 292.5894
1223.819, 289.8766
1224.301, 299.0114
1224.783, 314.0788
1225.265, 327.4182
1225.747, 337.3508
1226.229, 339.9168
1226.712, 322.0652
1227.194, 318.2369
1227.676, 336.8970
1228.158, 349.5834
1228.640, 316.8533
1229.122, 269.4554
1229.604, 269.3176
1230.086, 305.7407
1230.568, 327.8735
1231.051, 310.3297
1231.533, 299.6022
1232.015, 301.8685
1232.497, 308.2502
1232.979, 310.1983
1233.461, 308.5229
1233.943, 300.4662
1234.425, 287.4073
1234.908, 288.4016
1235.390, 317.4625
1235.872, 335.0450
1236.354, 330.2484
1236.836, 318.0148
1237.318, 316.7683
1237.800, 323.5162
1238.282, 338.1216
1238.764, 361.5916
1239.247, 363.5875
1239.729, 328.0775
1240.211, 309.1491
1240.693, 329.9708
1241.175, 365.5836
1241.657, 379.5427
1242.139, 379.8029
1242.621, 378.8409
1243.104, 379.0620
1243.586, 376.8456
1244.068, 371.5715
1244.550, 365.4834
1245.032, 359.0064
1245.514, 353.2155
1245.996, 346.9679
1246.478, 343.7621
1246.960, 351.4901
1247.443, 383.6136
1247.925, 393.0006
1248.407, 375.0992
1248.889, 351.3756
1249.371, 325.0371
1249.853, 309.8965
1250.335, 344.6290
1250.817, 400.8781
1251.299, 414.3241
1251.782, 343.9408
1252.264, 317.5581
1252.746, 346.6556
1253.228, 376.4007
1253.710, 349.7802
1254.192, 312.0647
1254.674, 323.1252
1255.156, 364.1755
1255.639, 374.9315
1256.121, 340.3722
1256.603, 318.6531
1257.085, 315.4863
1257.567, 318.8212
1258.049, 324.3633
1258.531, 325.9202
1259.013, 317.1476
1259.495, 298.5396
1259.978, 271.8084
1260.460, 231.8697
1260.942, 221.1306
1261.424, 249.5279
1261.906, 280.4035
1262.388, 274.1102
1262.870, 259.4084
1263.352, 264.5513
1263.834, 284.1386
1264.317, 285.2341
1264.799, 266.7164
1265.281, 251.8855
1265.763, 245.1116
1266.245, 246.3766
1266.727, 267.2913
1267.209, 286.0999
1267.691, 279.7380
1268.174, 255.1901
1268.656, 248.5175
1269.138, 258.6628
1269.620, 268.6488
1270.102, 273.8177
1270.584, 277.2499
1271.066, 275.1220
1271.548, 278.4260
1272.031, 299.7252
1272.513, 333.0693
1272.995, 332.9070
1273.477, 305.4460
1273.959, 292.8279
1274.441, 320.0275
1274.923, 340.5489
1275.405, 322.0559
1275.887, 297.5945
1276.370, 286.5258
1276.852, 287.7065
1277.334, 300.9224
1277.816, 321.4476
1278.298, 328.2112
1278.780, 294.2314
1279.262, 279.9154
1279.744, 318.9811
1280.226, 357.7049
1280.709, 352.0246
1281.191, 315.9325
1281.673, 304.8713
1282.155, 311.3306
1282.637, 310.2325
1283.119, 276.8973
1283.601, 259.8614
1284.083, 271.3127
1284.566, 283.9749
1285.048, 270.6316
1285.530, 243.4648
1286.012, 224.5848
1286.494, 214.5105
1286.976, 213.6057
1287.458, 231.5707
1287.940, 240.8080
1288.422, 237.1893
1288.905, 233.1631
1289.387, 240.4167
1289.869, 254.2620
1290.351, 274.5814
1290.833, 296.7062
1291.315, 301.5147
1291.797, 281.0942
1292.279, 267.6763
1292.761, 264.9331
1293.244, 266.6692
1293.726, 268.8469
1294.208, 271.1715
1294.690, 276.1988
1295.172, 280.9126
1295.654, 273.0837
1296.136, 249.8896
1296.618, 238.0254
1297.101, 241.3870
1297.583, 251.3789
1298.065, 270.1827
1298.547, 284.4429
1299.029, 278.5826
1299.511, 261.9804
1299.993, 260.7020
1300.475, 272.8002
1300.958, 268.9184
1301.440, 243.2720
1301.922, 214.9844
1302.404, 184.9630
1302.886, 170.1446
1303.368, 181.8976
1303.850, 208.9843
1304.332, 227.6368
1304.814, 238.0305
##END=



