##NAMES=Kobellite
##RRUFFID=R070669
##IDEAL CHEMISTRY=Pb^2+^_11_(Cu^1+^,Fe^2+^)_2_(Bi^3+^,Sb^3+^)_15_S^2-^_35_
##LOCALITY=Jedlovec (Fichtenhubel) deposit, Smolník ore belt, Slovenske Rudohorie Mts, Koický Kraj, Slovak Republic
##OWNER=RRUFF
##SOURCE=Michael Scott
##DESCRIPTION=Steel gray metallic massive associated with chalcopyrite and siderite
##STATUS=The identification of this mineral is confirmed by single-crystal X-ray diffraction and chemical analysis.
##URL=rruff.info/R070669
##MEASURED CHEMISTRY=(Pb_9.66_Ag_0.25_Bi_0.94_)_Σ=10.85_(Cu_1.40_Fe_0.61_)_Σ=2.01_(Sb_7.71_Bi_7.29_)_Σ=15.00_S_35_
108.7069, 1753.334
109.1890, 1727.278
109.6711, 1709.586
110.1532, 1709.756
110.6353, 1708.114
111.1174, 1697.456
111.5996, 1680.893
112.0817, 1666.272
112.5638, 1659.546
113.0459, 1661.591
113.5280, 1669.982
114.0101, 1695.761
114.4923, 1719.997
114.9744, 1724.914
115.4565, 1707.590
115.9386, 1686.610
116.4207, 1689.380
116.9028, 1717.073
117.3850, 1732.229
117.8671, 1715.566
118.3492, 1680.184
118.8313, 1654.663
119.3134, 1648.156
119.7955, 1652.172
120.2777, 1656.701
120.7598, 1662.471
121.2419, 1664.538
121.7240, 1655.258
122.2061, 1633.631
122.6882, 1618.852
123.1704, 1626.825
123.6525, 1640.378
124.1346, 1647.098
124.6167, 1642.918
125.0988, 1631.999
125.5809, 1621.612
126.0631, 1611.359
126.5452, 1602.554
127.0273, 1592.337
127.5094, 1584.169
127.9915, 1583.906
128.4736, 1597.379
128.9558, 1622.264
129.4379, 1631.097
129.9200, 1600.247
130.4021, 1574.483
130.8842, 1568.262
131.3663, 1577.214
131.8485, 1586.860
132.3306, 1582.299
132.8127, 1556.577
133.2948, 1548.561
133.7769, 1574.022
134.2590, 1601.892
134.7412, 1613.283
135.2233, 1604.906
135.7054, 1585.336
136.1875, 1565.103
136.6696, 1537.458
137.1517, 1525.651
137.6339, 1547.807
138.1160, 1581.828
138.5981, 1597.624
139.0802, 1583.036
139.5623, 1551.021
140.0444, 1528.437
140.5266, 1514.035
141.0087, 1507.373
141.4908, 1512.073
141.9729, 1525.761
142.4550, 1538.571
142.9371, 1546.336
143.4193, 1550.040
143.9014, 1552.862
144.3835, 1556.221
144.8656, 1557.161
145.3477, 1551.167
145.8298, 1536.895
146.3120, 1523.622
146.7941, 1516.074
147.2762, 1512.519
147.7583, 1511.947
148.2404, 1515.827
148.7225, 1521.738
149.2047, 1522.734
149.6868, 1513.958
150.1689, 1508.272
150.6510, 1515.598
151.1331, 1529.385
151.6152, 1536.957
152.0974, 1525.266
152.5795, 1494.564
153.0616, 1479.596
153.5437, 1504.984
154.0258, 1526.176
154.5080, 1526.459
154.9901, 1508.041
155.4722, 1483.569
155.9543, 1464.714
156.4364, 1449.619
156.9185, 1447.060
157.4007, 1468.302
157.8828, 1491.422
158.3649, 1503.409
158.8470, 1501.994
159.3291, 1494.260
159.8112, 1491.493
160.2934, 1499.639
160.7755, 1503.665
161.2576, 1500.078
161.7397, 1494.231
162.2218, 1491.667
162.7039, 1494.565
163.1861, 1500.568
163.6682, 1503.576
164.1503, 1499.307
164.6324, 1497.822
165.1145, 1502.948
165.5966, 1511.863
166.0788, 1519.480
166.5609, 1523.314
167.0430, 1523.935
167.5251, 1523.892
168.0072, 1525.083
168.4893, 1523.891
168.9715, 1516.730
169.4536, 1504.742
169.9357, 1493.929
170.4178, 1488.576
170.8999, 1487.421
171.3820, 1485.046
171.8642, 1479.823
172.3463, 1474.154
172.8284, 1469.220
173.3105, 1464.647
173.7926, 1463.782
174.2747, 1475.584
174.7569, 1492.770
175.2390, 1501.408
175.7211, 1488.457
176.2032, 1465.734
176.6853, 1458.505
177.1674, 1474.364
177.6496, 1490.533
178.1317, 1491.165
178.6138, 1481.150
179.0959, 1471.414
179.5780, 1468.032
180.0602, 1470.267
180.5423, 1473.685
181.0244, 1479.622
181.5065, 1485.136
181.9886, 1490.392
182.4707, 1494.494
182.9529, 1494.792
183.4350, 1486.895
183.9171, 1469.442
184.3992, 1456.641
184.8813, 1452.337
185.3634, 1450.505
185.8456, 1448.960
186.3277, 1447.498
186.8098, 1447.133
187.2919, 1450.324
187.7740, 1460.593
188.2561, 1463.886
188.7383, 1452.316
189.2204, 1439.849
189.7025, 1435.294
190.1846, 1440.446
190.6667, 1450.752
191.1488, 1459.640
191.6310, 1470.564
192.1131, 1473.025
192.5952, 1460.587
193.0773, 1444.012
193.5594, 1431.504
194.0415, 1426.148
194.5237, 1426.375
195.0058, 1428.685
195.4879, 1435.193
195.9700, 1441.540
196.4521, 1449.762
196.9342, 1457.144
197.4164, 1459.766
197.8985, 1455.644
198.3806, 1447.076
198.8627, 1441.918
199.3448, 1442.925
199.8270, 1443.859
200.3091, 1445.057
200.7912, 1445.382
201.2733, 1441.584
201.7554, 1430.658
202.2375, 1415.720
202.7197, 1412.253
203.2018, 1433.401
203.6839, 1449.895
204.1660, 1447.309
204.6481, 1430.368
205.1302, 1414.110
205.6124, 1407.726
206.0945, 1409.253
206.5766, 1406.565
207.0587, 1393.828
207.5408, 1382.268
208.0229, 1378.256
208.5051, 1381.473
208.9872, 1388.813
209.4693, 1400.198
209.9514, 1414.208
210.4335, 1424.710
210.9156, 1429.877
211.3978, 1432.547
211.8799, 1436.110
212.3620, 1440.808
212.8441, 1441.891
213.3262, 1433.285
213.8083, 1418.254
214.2905, 1405.892
214.7726, 1397.968
215.2547, 1393.410
215.7368, 1391.145
216.2189, 1391.266
216.7010, 1393.168
217.1832, 1398.593
217.6653, 1405.573
218.1474, 1410.078
218.6295, 1411.978
219.1116, 1410.332
219.5937, 1400.559
220.0759, 1377.056
220.5580, 1358.996
221.0401, 1365.507
221.5222, 1386.470
222.0043, 1401.192
222.4864, 1393.782
222.9686, 1372.258
223.4507, 1362.538
223.9328, 1371.049
224.4149, 1381.338
224.8970, 1381.932
225.3791, 1376.629
225.8613, 1374.348
226.3434, 1385.370
226.8255, 1405.933
227.3076, 1412.592
227.7897, 1393.849
228.2718, 1375.370
228.7540, 1372.716
229.2361, 1381.058
229.7182, 1387.246
230.2003, 1378.123
230.6824, 1355.079
231.1645, 1344.092
231.6467, 1353.827
232.1288, 1367.704
232.6109, 1383.562
233.0930, 1398.371
233.5751, 1405.081
234.0572, 1393.731
234.5394, 1363.428
235.0215, 1343.730
235.5036, 1342.705
235.9857, 1346.072
236.4678, 1348.783
236.9500, 1351.145
237.4321, 1355.946
237.9142, 1367.763
238.3963, 1388.232
238.8784, 1400.191
239.3605, 1395.237
239.8427, 1388.359
240.3248, 1383.579
240.8069, 1381.562
241.2890, 1382.080
241.7711, 1386.624
242.2532, 1397.339
242.7354, 1398.838
243.2175, 1376.306
243.6996, 1357.325
244.1817, 1355.942
244.6638, 1370.340
245.1459, 1388.652
245.6281, 1399.442
246.1102, 1401.806
246.5923, 1400.636
247.0744, 1390.845
247.5565, 1382.099
248.0386, 1380.210
248.5208, 1384.305
249.0029, 1388.717
249.4850, 1386.819
249.9671, 1375.813
250.4492, 1370.688
250.9313, 1380.667
251.4135, 1388.016
251.8956, 1380.815
252.3777, 1360.911
252.8598, 1340.478
253.3419, 1333.138
253.8240, 1342.968
254.3062, 1349.044
254.7883, 1347.602
255.2704, 1346.262
255.7525, 1350.894
256.2346, 1360.428
256.7167, 1368.146
257.1989, 1366.325
257.6810, 1351.492
258.1631, 1341.455
258.6452, 1340.208
259.1273, 1339.316
259.6094, 1331.978
260.0916, 1319.477
260.5737, 1309.947
261.0558, 1312.898
261.5379, 1333.228
262.0200, 1344.295
262.5021, 1339.034
262.9843, 1332.705
263.4664, 1334.484
263.9485, 1343.785
264.4306, 1353.531
264.9127, 1356.446
265.3948, 1350.899
265.8770, 1346.571
266.3591, 1347.117
266.8412, 1345.592
267.3233, 1336.940
267.8054, 1322.131
268.2875, 1306.141
268.7697, 1293.300
269.2518, 1283.564
269.7339, 1278.290
270.2160, 1279.213
270.6981, 1282.001
271.1802, 1287.001
271.6624, 1292.630
272.1445, 1294.033
272.6266, 1285.539
273.1087, 1264.543
273.5908, 1256.046
274.0729, 1273.799
274.5551, 1288.591
275.0372, 1283.234
275.5193, 1261.287
276.0014, 1238.220
276.4835, 1226.715
276.9656, 1227.375
277.4478, 1230.991
277.9299, 1242.481
278.4120, 1251.631
278.8941, 1252.192
279.3762, 1246.240
279.8583, 1240.882
280.3405, 1241.987
280.8226, 1249.762
281.3047, 1252.126
281.7868, 1246.679
282.2689, 1239.434
282.7510, 1232.093
283.2332, 1224.734
283.7153, 1217.171
284.1974, 1209.436
284.6795, 1201.448
285.1616, 1190.874
285.6437, 1173.530
286.1259, 1158.418
286.6080, 1148.069
287.0901, 1142.024
287.5722, 1139.999
288.0543, 1142.502
288.5364, 1148.331
289.0186, 1147.057
289.5007, 1131.372
289.9828, 1117.318
290.4649, 1109.664
290.9470, 1106.177
291.4291, 1103.040
291.9113, 1098.247
292.3934, 1091.908
292.8755, 1084.476
293.3576, 1073.124
293.8397, 1064.002
294.3218, 1059.804
294.8040, 1058.049
295.2861, 1054.948
295.7682, 1048.575
296.2503, 1040.305
296.7325, 1034.580
297.2146, 1032.449
297.6967, 1031.871
298.1788, 1034.188
298.6609, 1037.474
299.1430, 1039.858
299.6252, 1040.573
300.1073, 1039.426
300.5894, 1035.943
301.0715, 1028.070
301.5536, 1020.218
302.0357, 1011.445
302.5179, 1003.218
303.0000, 996.9238
303.4821, 993.0215
303.9642, 991.1314
304.4463, 991.0707
304.9284, 998.0760
305.4106, 997.9011
305.8927, 983.9062
306.3748, 967.5887
306.8569, 957.9926
307.3390, 957.1297
307.8211, 960.8137
308.3033, 963.3375
308.7854, 964.4365
309.2675, 964.8817
309.7496, 964.7941
310.2317, 964.0880
310.7138, 963.5035
311.1960, 962.6647
311.6781, 959.6517
312.1602, 951.5818
312.6423, 936.2427
313.1244, 924.7880
313.6065, 914.5273
314.0887, 909.8329
314.5708, 915.6504
315.0529, 929.9249
315.5350, 945.7566
316.0171, 957.0569
316.4992, 963.6252
316.9814, 967.8071
317.4635, 973.4770
317.9456, 973.0303
318.4277, 958.5659
318.9098, 935.5078
319.3919, 915.4678
319.8741, 906.8037
320.3562, 909.0707
320.8383, 916.1566
321.3204, 940.0205
321.8025, 955.4779
322.2846, 951.3346
322.7668, 936.0324
323.2489, 923.2461
323.7310, 921.5387
324.2131, 927.4147
324.6952, 925.9527
325.1773, 907.6489
325.6595, 896.3939
326.1416, 904.8895
326.6237, 919.6598
327.1058, 924.9938
327.5879, 913.6110
328.0700, 892.0167
328.5522, 872.7731
329.0343, 854.2076
329.5164, 842.4971
329.9985, 844.2560
330.4806, 849.4484
330.9627, 849.3949
331.4449, 841.5037
331.9270, 830.6439
332.4091, 823.7719
332.8912, 821.9165
333.3733, 819.6955
333.8554, 817.3080
334.3376, 813.4634
334.8197, 807.1301
335.3018, 798.2322
335.7839, 787.6589
336.2660, 774.2833
336.7481, 757.7775
337.2303, 748.2850
337.7124, 752.7310
338.1945, 759.1934
338.6766, 761.7233
339.1587, 760.0005
339.6408, 754.5916
340.1230, 743.0358
340.6051, 727.1233
341.0872, 716.9026
341.5693, 714.9286
342.0514, 715.5872
342.5335, 716.8743
343.0157, 717.9278
343.4978, 716.2736
343.9799, 703.1714
344.4620, 687.9900
344.9441, 696.0583
345.4262, 736.1998
345.9084, 770.3610
346.3905, 765.5013
346.8726, 739.3991
347.3547, 718.5335
347.8368, 711.2997
348.3189, 710.4813
348.8011, 709.3548
349.2832, 707.9492
349.7653, 704.9297
350.2474, 698.5437
350.7295, 690.5606
351.2116, 684.3912
351.6938, 680.7791
352.1759, 678.0345
352.6580, 675.9930
353.1401, 674.1855
353.6222, 669.9293
354.1043, 660.6082
354.5865, 650.5540
355.0686, 647.6487
355.5507, 652.7487
356.0328, 660.1491
356.5149, 673.5645
356.9970, 686.7902
357.4792, 685.9459
357.9613, 665.4989
358.4434, 640.9372
358.9255, 633.4182
359.4076, 645.8540
359.8897, 658.5003
360.3719, 673.0891
360.8540, 684.8030
361.3361, 687.2478
361.8182, 680.2389
362.3003, 671.3355
362.7824, 668.0828
363.2646, 671.4547
363.7467, 668.4407
364.2288, 650.6578
364.7109, 634.6960
365.1930, 631.6161
365.6751, 638.5471
366.1573, 644.9277
366.6394, 643.2872
367.1215, 634.9135
367.6036, 631.5908
368.0857, 637.6724
368.5678, 643.4014
369.0500, 647.6549
369.5321, 650.0313
370.0142, 650.0340
370.4963, 647.4288
370.9784, 642.6420
371.4605, 636.4034
371.9427, 623.3881
372.4248, 617.3423
372.9069, 624.0664
373.3890, 634.3521
373.8711, 641.3329
374.3532, 643.0763
374.8354, 640.7966
375.3175, 634.9755
375.7996, 622.9089
376.2817, 615.8490
376.7638, 613.9039
377.2459, 616.6857
377.7281, 628.6819
378.2102, 646.6585
378.6923, 660.5158
379.1744, 660.7546
379.6566, 647.9555
380.1387, 634.2447
380.6208, 613.4972
381.1029, 600.4409
381.5850, 606.1594
382.0671, 621.8522
382.5493, 631.8533
383.0314, 626.3196
383.5135, 612.7144
383.9956, 608.8375
384.4777, 619.1822
384.9598, 625.2358
385.4420, 613.0563
385.9241, 595.7599
386.4062, 586.3814
386.8883, 588.9477
387.3704, 595.5964
387.8525, 598.0176
388.3347, 596.6338
388.8168, 599.3892
389.2989, 611.4947
389.7810, 625.2921
390.2631, 631.3558
390.7452, 629.2557
391.2274, 626.8546
391.7095, 631.6196
392.1916, 637.9592
392.6737, 631.4011
393.1558, 606.6589
393.6379, 583.0353
394.1201, 582.8826
394.6022, 604.1902
395.0843, 618.6042
395.5664, 618.4055
396.0485, 613.0190
396.5306, 609.8545
397.0128, 608.9528
397.4949, 607.1891
397.9770, 602.3094
398.4591, 594.8412
398.9412, 588.5859
399.4233, 579.2062
399.9055, 575.5894
400.3876, 585.9688
400.8697, 602.9505
401.3518, 614.5152
401.8339, 615.7454
402.3160, 609.2712
402.7982, 600.3469
403.2803, 584.8082
403.7624, 573.2245
404.2445, 563.2287
404.7266, 558.5483
405.2087, 565.7484
405.6909, 583.6802
406.1730, 601.8655
406.6551, 607.7390
407.1372, 598.7053
407.6193, 593.9362
408.1014, 596.9568
408.5836, 600.8345
409.0657, 605.2463
409.5478, 608.6215
410.0299, 607.9796
410.5120, 600.7129
410.9941, 588.8021
411.4763, 579.4405
411.9584, 571.8593
412.4405, 568.7048
412.9226, 577.1228
413.4047, 586.8251
413.8868, 584.4237
414.3690, 564.4501
414.8511, 543.3325
415.3332, 544.5922
415.8153, 569.3202
416.2974, 586.2104
416.7795, 583.9442
417.2617, 575.6907
417.7438, 572.7995
418.2259, 575.2589
418.7080, 578.9256
419.1901, 583.5798
419.6722, 587.5698
420.1544, 585.6683
420.6365, 575.8436
421.1186, 567.4815
421.6007, 569.5968
422.0828, 579.9213
422.5649, 588.1483
423.0471, 592.3981
423.5292, 594.7988
424.0113, 597.0786
424.4934, 598.9206
424.9755, 598.8979
425.4576, 596.2267
425.9398, 591.3310
426.4219, 585.0710
426.9040, 573.2734
427.3861, 566.6420
427.8682, 573.4843
428.3503, 583.4844
428.8325, 582.6039
429.3146, 568.1838
429.7967, 551.3242
430.2788, 546.5683
430.7609, 557.7772
431.2430, 567.5458
431.7252, 578.9691
432.2073, 586.4721
432.6894, 583.9048
433.1715, 574.8714
433.6536, 568.7055
434.1357, 572.4715
434.6179, 583.9519
435.1000, 591.6638
435.5821, 595.4885
436.0642, 595.0959
436.5463, 587.9996
437.0284, 578.4606
437.5106, 570.0661
437.9927, 563.8619
438.4748, 560.6924
438.9569, 563.5753
439.4390, 573.1987
439.9211, 578.2899
440.4033, 575.4241
440.8854, 568.7954
441.3675, 559.9296
441.8496, 549.5706
442.3317, 542.0591
442.8138, 540.0007
443.2960, 542.1568
443.7781, 547.7617
444.2602, 557.6561
444.7423, 564.5650
445.2244, 562.1840
445.7065, 552.9580
446.1887, 545.8505
446.6708, 541.8785
447.1529, 539.4824
447.6350, 537.5685
448.1171, 536.5809
448.5992, 537.8081
449.0814, 541.8801
449.5635, 547.8604
450.0456, 554.4438
450.5277, 563.8202
451.0098, 568.7598
451.4919, 564.8815
451.9741, 559.3274
452.4562, 559.3024
452.9383, 564.1978
453.4204, 566.3138
453.9025, 557.4980
454.3846, 537.6998
454.8668, 529.6376
455.3489, 547.5419
455.8310, 562.3131
456.3131, 566.6439
456.7952, 564.7855
457.2773, 562.9483
457.7595, 563.7676
458.2416, 565.2366
458.7237, 563.1464
459.2058, 555.9998
459.6879, 551.3209
460.1700, 553.6064
460.6522, 556.2842
461.1343, 553.5688
461.6164, 546.1582
462.0985, 541.8676
462.5807, 550.1772
463.0628, 565.2524
463.5449, 569.2393
464.0270, 558.4012
464.5091, 547.7563
464.9912, 548.8312
465.4734, 557.1623
465.9555, 561.5063
466.4376, 557.2509
466.9197, 552.7477
467.4018, 555.0790
467.8839, 561.5313
468.3661, 563.7121
468.8482, 557.9425
469.3303, 549.4517
469.8124, 547.3047
470.2945, 554.9264
470.7766, 560.1987
471.2588, 564.4373
471.7409, 564.8580
472.2230, 554.2264
472.7051, 535.9886
473.1872, 525.1987
473.6693, 535.5607
474.1515, 564.3387
474.6336, 579.0363
475.1157, 565.9573
475.5978, 554.5718
476.0799, 550.4899
476.5620, 550.2829
477.0442, 550.6349
477.5263, 550.4011
478.0084, 548.6995
478.4905, 542.8379
478.9726, 531.9600
479.4547, 526.0457
479.9369, 529.5391
480.4190, 534.8579
480.9011, 536.9925
481.3832, 536.6247
481.8653, 536.7056
482.3474, 541.2321
482.8296, 545.8715
483.3117, 541.6878
483.7938, 528.3557
484.2759, 518.1228
484.7580, 517.6287
485.2401, 524.3215
485.7223, 531.7344
486.2044, 542.0819
486.6865, 548.6664
487.1686, 546.2086
487.6507, 539.7756
488.1328, 537.0271
488.6150, 539.4843
489.0971, 542.1122
489.5792, 538.7329
490.0613, 527.6000
490.5434, 523.1446
491.0255, 530.9672
491.5077, 538.4196
491.9898, 541.9080
492.4719, 541.4524
492.9540, 537.1673
493.4361, 528.9197
493.9182, 518.6110
494.4004, 509.6331
494.8825, 500.4563
495.3646, 496.9592
495.8467, 503.9149
496.3288, 513.9017
496.8109, 524.5411
497.2931, 534.7964
497.7752, 541.7575
498.2573, 543.6891
498.7394, 540.7816
499.2215, 531.5405
499.7036, 513.9374
500.1858, 499.4725
500.6679, 495.6227
501.1500, 499.4865
501.6321, 503.9841
502.1142, 509.2266
502.5963, 514.2814
503.0785, 521.1342
503.5606, 527.0345
504.0427, 524.6365
504.5248, 511.6947
505.0069, 498.1532
505.4890, 496.3372
505.9712, 509.3361
506.4533, 519.8754
506.9354, 529.3162
507.4175, 535.2774
507.8996, 534.2062
508.3817, 529.1067
508.8639, 526.2452
509.3460, 529.1666
509.8281, 534.6230
510.3102, 534.0195
510.7923, 523.9640
511.2744, 516.6827
511.7566, 515.4534
512.2387, 516.2619
512.7208, 517.3082
513.2029, 518.2429
513.6851, 518.7501
514.1672, 518.6339
514.6493, 517.9241
515.1314, 516.6807
515.6135, 514.8899
516.0956, 512.5925
516.5778, 509.3857
517.0599, 505.8053
517.5420, 502.7076
518.0241, 498.3384
518.5062, 497.7970
518.9883, 508.4722
519.4705, 522.8097
519.9526, 527.2534
520.4347, 518.9909
520.9168, 507.9122
521.3989, 504.9175
521.8810, 511.4632
522.3632, 514.1739
522.8453, 508.4216
523.3274, 504.4914
523.8095, 506.8436
524.2916, 513.0683
524.7737, 520.1412
525.2559, 526.8028
525.7380, 531.1656
526.2201, 528.5804
526.7022, 516.8939
527.1843, 508.5321
527.6664, 505.4393
528.1486, 505.7640
528.6307, 510.2510
529.1128, 517.5239
529.5949, 522.8931
530.0770, 523.3781
530.5591, 521.0779
531.0413, 518.8879
531.5234, 516.7755
532.0055, 514.0561
532.4876, 510.9087
532.9697, 506.4801
533.4518, 497.5162
533.9340, 480.2893
534.4161, 470.1012
534.8982, 475.6122
535.3803, 485.6262
535.8624, 489.8050
536.3445, 487.5837
536.8267, 483.5213
537.3088, 480.4626
537.7909, 478.9591
538.2730, 484.0414
538.7551, 508.0273
539.2372, 521.1829
539.7194, 510.7072
540.2015, 493.1024
540.6836, 484.5550
541.1657, 488.1119
541.6478, 493.7318
542.1299, 489.2270
542.6121, 476.9248
543.0942, 475.2531
543.5763, 489.4745
544.0584, 503.7202
544.5405, 506.6011
545.0226, 502.5466
545.5048, 500.0469
545.9869, 500.8006
546.4690, 502.4867
546.9511, 504.5277
547.4332, 506.4165
547.9153, 506.9464
548.3975, 505.7853
548.8796, 503.6931
549.3617, 501.1364
549.8438, 497.4916
550.3259, 497.5039
550.8080, 505.2739
551.2902, 511.6861
551.7723, 515.1552
552.2544, 514.5336
552.7365, 506.3846
553.2186, 489.0402
553.7007, 470.5468
554.1829, 465.1429
554.6650, 474.8130
555.1471, 483.1237
555.6292, 487.9028
556.1113, 491.3989
556.5934, 495.7630
557.0756, 500.2602
557.5577, 502.4957
558.0398, 500.9073
558.5219, 497.2669
559.0040, 492.0846
559.4861, 486.0061
559.9683, 482.7165
560.4504, 484.0657
560.9325, 487.4105
561.4146, 488.7044
561.8967, 487.8348
562.3788, 484.7356
562.8610, 476.0001
563.3431, 468.0670
563.8252, 466.8663
564.3073, 469.7598
564.7894, 468.2338
565.2715, 456.4333
565.7537, 441.8876
566.2358, 445.5699
566.7179, 476.0335
567.2000, 498.8710
567.6821, 505.1647
568.1642, 504.6788
568.6464, 502.3602
569.1285, 498.3923
569.6106, 491.5865
570.0927, 475.7084
570.5748, 459.6077
571.0569, 458.4091
571.5391, 471.1717
572.0212, 483.9370
572.5033, 491.7078
572.9854, 494.4547
573.4675, 490.8416
573.9496, 476.2177
574.4318, 467.8782
574.9139, 473.8464
575.3960, 481.5290
575.8781, 480.6739
576.3602, 472.7763
576.8423, 465.3936
577.3245, 463.2828
577.8066, 465.5982
578.2887, 470.6675
578.7708, 481.9158
579.2529, 487.4937
579.7350, 481.0096
580.2172, 471.2566
580.6993, 462.3244
581.1814, 454.9153
581.6635, 450.1953
582.1456, 447.8827
582.6277, 449.1087
583.1099, 458.2082
583.5920, 474.6365
584.0741, 487.6759
584.5562, 492.2597
585.0383, 490.6098
585.5204, 486.5454
586.0026, 476.8448
586.4847, 472.6252
586.9668, 481.6575
587.4489, 491.0254
587.9310, 489.9727
588.4131, 480.4146
588.8953, 471.0630
589.3774, 467.4174
589.8595, 467.8311
590.3416, 467.4724
590.8237, 466.1103
591.3058, 464.6340
591.7880, 461.7426
592.2701, 459.9922
592.7522, 462.6690
593.2343, 468.9334
593.7164, 472.6311
594.1985, 467.3880
594.6807, 460.1490
595.1628, 461.1107
595.6449, 469.1435
596.1270, 475.3767
596.6091, 475.9579
597.0912, 472.8291
597.5734, 469.2405
598.0555, 463.3543
598.5376, 461.6031
599.0197, 467.0108
599.5018, 473.7577
599.9839, 478.9071
600.4661, 482.5243
600.9482, 486.2120
601.4303, 491.2058
601.9124, 494.9069
602.3945, 490.3694
602.8766, 475.5592
603.3588, 465.2476
603.8409, 463.3036
604.3230, 465.0183
604.8051, 469.0977
605.2872, 474.1899
605.7693, 473.8931
606.2515, 459.3613
606.7336, 444.7538
607.2157, 442.8738
607.6978, 450.2943
608.1799, 457.4187
608.6620, 460.9563
609.1442, 462.6790
609.6263, 465.0018
610.1084, 467.9343
610.5905, 471.5038
611.0726, 479.8809
611.5547, 484.3577
612.0369, 479.2325
612.5190, 468.9844
613.0011, 459.9048
613.4832, 454.1652
613.9653, 451.9709
614.4474, 456.3499
614.9296, 465.9785
615.4117, 467.9027
615.8938, 457.6964
616.3759, 447.3740
616.8580, 446.4454
617.3401, 453.0433
617.8223, 458.6081
618.3044, 466.2387
618.7865, 468.6057
619.2686, 457.5960
619.7507, 442.1548
620.2328, 434.7190
620.7150, 437.2783
621.1971, 442.6924
621.6792, 443.8023
622.1613, 441.0708
622.6434, 442.6102
623.1255, 451.1543
623.6077, 459.4615
624.0898, 467.7510
624.5719, 473.7047
625.0540, 473.9905
625.5361, 468.2101
626.0182, 462.6140
626.5004, 463.4968
626.9825, 466.0834
627.4646, 459.6503
627.9467, 444.4087
628.4288, 434.6891
628.9109, 439.5431
629.3931, 452.9120
629.8752, 459.1563
630.3573, 451.8583
630.8394, 447.8159
631.3215, 450.8721
631.8036, 453.8223
632.2858, 449.8752
632.7679, 441.7868
633.2500, 438.0969
633.7321, 444.4582
634.2142, 455.4437
634.6964, 461.0609
635.1785, 461.1811
635.6606, 458.6870
636.1427, 453.3901
636.6248, 446.7486
637.1069, 438.2867
637.5891, 428.8678
638.0712, 424.1196
638.5533, 425.7643
639.0354, 431.4009
639.5175, 444.2409
639.9996, 458.9351
640.4818, 465.5989
640.9639, 461.7830
641.4460, 453.8363
641.9281, 448.8794
642.4102, 446.9686
642.8923, 446.6264
643.3745, 448.9329
643.8566, 451.2119
644.3387, 454.2867
644.8208, 456.0540
645.3029, 453.0552
645.7850, 444.3091
646.2672, 436.6035
646.7493, 433.5550
647.2314, 434.6261
647.7135, 441.5005
648.1956, 453.4069
648.6777, 460.7395
649.1599, 457.1099
649.6420, 446.5625
650.1241, 440.4548
650.6062, 440.0847
651.0883, 442.3739
651.5704, 453.4885
652.0526, 461.5645
652.5347, 455.2171
653.0168, 440.0366
653.4989, 431.6527
653.9810, 440.0691
654.4631, 453.9714
654.9453, 454.6562
655.4274, 443.4409
655.9095, 437.7440
656.3916, 442.8885
656.8737, 449.2297
657.3558, 447.0449
657.8380, 436.7588
658.3201, 431.0268
658.8022, 433.6363
659.2843, 436.3231
659.7664, 436.6026
660.2485, 435.2983
660.7307, 431.8971
661.2128, 427.1993
661.6949, 425.7765
662.1770, 433.8148
662.6591, 448.8095
663.1412, 454.9361
663.6234, 449.6769
664.1055, 443.4881
664.5876, 437.6239
665.0697, 434.3587
665.5518, 437.1293
666.0339, 446.4023
666.5161, 454.5379
666.9982, 461.3403
667.4803, 464.3521
667.9625, 458.1440
668.4446, 446.4534
668.9267, 439.5914
669.4088, 442.0193
669.8909, 448.6769
670.3730, 451.0494
670.8552, 447.6949
671.3373, 447.7092
671.8194, 457.0915
672.3015, 461.8946
672.7836, 451.8610
673.2657, 435.7467
673.7479, 426.4839
674.2300, 427.6308
674.7121, 432.5829
675.1942, 440.6350
675.6763, 448.3868
676.1584, 448.8791
676.6406, 442.2695
677.1227, 436.5854
677.6048, 437.4605
678.0869, 442.0070
678.5690, 440.4665
679.0511, 427.3055
679.5333, 418.3822
680.0154, 414.4148
680.4975, 414.3914
680.9796, 421.4431
681.4617, 431.9414
681.9438, 436.7562
682.4260, 429.7770
682.9081, 420.2447
683.3902, 418.2527
683.8723, 421.9229
684.3544, 425.1844
684.8365, 426.8420
685.3187, 427.7480
685.8008, 428.4365
686.2829, 428.9952
686.7650, 430.5099
687.2471, 435.0996
687.7292, 437.8615
688.2114, 436.8680
688.6935, 434.8949
689.1756, 434.8680
689.6577, 436.3884
690.1398, 436.0945
690.6219, 430.6660
691.1041, 423.2824
691.5862, 418.3788
692.0683, 416.0706
692.5504, 419.3429
693.0325, 431.0189
693.5146, 442.0059
693.9968, 440.6432
694.4789, 425.2564
694.9610, 417.9829
695.4431, 426.3168
695.9252, 433.0092
696.4073, 432.4998
696.8895, 428.1248
697.3716, 422.5190
697.8537, 416.8405
698.3358, 413.2708
698.8179, 414.9179
699.3000, 419.7819
699.7822, 420.8032
700.2643, 417.5945
700.7464, 420.5026
701.2285, 436.7119
701.7106, 455.0384
702.1927, 458.3920
702.6749, 442.9430
703.1570, 430.2047
703.6391, 420.7403
704.1212, 413.6368
704.6033, 407.0524
705.0854, 403.1617
705.5676, 407.9523
706.0497, 422.0082
706.5318, 433.6997
707.0139, 426.2969
707.4960, 405.6719
707.9781, 398.6593
708.4603, 407.1666
708.9424, 417.7432
709.4245, 426.2614
709.9066, 431.7979
710.3887, 431.5593
710.8708, 407.7860
711.3530, 426.7035
711.8351, 437.2898
712.3172, 439.9927
712.7993, 411.2003
713.2814, 423.0775
713.7635, 418.6562
714.2457, 413.5666
714.7278, 431.1678
715.2099, 406.9564
715.6920, 424.1978
716.1741, 424.8921
716.6563, 433.1595
717.1384, 425.0277
717.6205, 421.9612
718.1026, 435.2991
718.5847, 439.5538
719.0668, 429.5342
719.5490, 438.2831
720.0311, 413.4987
720.5132, 418.1403
720.9953, 435.4777
721.4774, 426.2827
721.9595, 435.3315
722.4417, 437.4319
722.9238, 407.9557
723.4059, 433.3946
723.8880, 435.0844
724.3701, 412.3894
724.8522, 435.9466
725.3344, 416.6132
725.8165, 412.5891
726.2986, 420.0864
726.7807, 415.5731
727.2628, 429.9957
727.7449, 426.1760
728.2271, 420.7264
728.7092, 422.3897
729.1913, 403.8974
729.6734, 422.7977
730.1555, 416.1557
730.6376, 422.2102
731.1198, 431.1425
731.6019, 418.0394
732.0840, 428.2648
732.5661, 402.3131
733.0482, 406.6321
733.5303, 407.6915
734.0125, 428.0992
734.4946, 402.3239
734.9767, 405.8019
735.4588, 421.7355
735.9409, 420.2408
736.4230, 426.0329
736.9052, 410.2529
737.3873, 414.7383
737.8694, 413.6378
738.3515, 431.8397
738.8336, 434.8032
739.3157, 419.3893
739.7979, 404.0532
740.2800, 423.6443
740.7621, 410.1310
741.2442, 414.4772
741.7263, 400.3783
742.2084, 402.2054
742.6906, 403.7798
743.1727, 413.5184
743.6548, 398.5014
744.1369, 415.5962
744.6190, 414.1312
745.1011, 418.1334
745.5833, 421.5274
746.0654, 400.0159
746.5475, 398.9210
747.0296, 427.0399
747.5117, 410.6062
747.9938, 413.8393
748.4760, 411.6819
748.9581, 415.5131
749.4402, 424.3770
749.9223, 430.8050
750.4044, 431.5141
750.8865, 428.1197
751.3687, 422.5105
751.8508, 413.4976
752.3329, 409.1387
752.8150, 413.6724
753.2971, 417.4053
753.7792, 418.1060
754.2614, 416.0955
754.7435, 409.6851
755.2256, 398.4926
755.7077, 392.6101
756.1898, 401.3445
756.6719, 414.1494
757.1541, 422.3511
757.6362, 425.7424
758.1183, 423.9090
758.6004, 416.8927
759.0825, 409.4952
759.5646, 408.1745
760.0468, 412.7786
760.5289, 414.4074
761.0110, 411.9561
761.4931, 409.0669
761.9752, 405.4155
762.4573, 403.0319
762.9395, 405.6795
763.4216, 413.3858
763.9037, 416.5698
764.3858, 406.2188
764.8679, 398.0357
765.3500, 404.7809
765.8322, 417.9342
766.3143, 424.6484
766.7964, 422.2031
767.2785, 415.7356
767.7606, 408.1478
768.2427, 401.1891
768.7249, 402.7640
769.2070, 414.0334
769.6891, 419.1070
770.1712, 411.0216
770.6533, 400.9636
771.1354, 400.7655
771.6176, 410.3844
772.0997, 417.7590
772.5818, 425.8488
773.0639, 428.0958
773.5460, 416.6357
774.0281, 403.3440
774.5103, 399.6501
774.9924, 404.8644
775.4745, 410.5880
775.9566, 411.8927
776.4387, 411.3899
776.9208, 413.5768
777.4030, 417.0940
777.8851, 415.6537
778.3672, 407.9012
778.8493, 400.4402
779.3314, 398.4706
779.8135, 400.7547
780.2957, 401.6591
780.7778, 399.5717
781.2599, 399.1885
781.7420, 403.8875
782.2241, 407.2768
782.7062, 405.0226
783.1884, 399.1407
783.6705, 393.9741
784.1526, 390.1942
784.6347, 388.7444
785.1168, 390.7617
785.5989, 395.1596
786.0811, 402.1205
786.5632, 410.4009
787.0453, 415.9341
787.5274, 416.6111
788.0095, 413.9106
788.4916, 409.7047
788.9738, 403.7452
789.4559, 399.5686
789.9380, 396.7407
790.4201, 397.1436
790.9022, 404.2012
791.3843, 413.5672
791.8665, 417.6405
792.3486, 415.6775
792.8307, 412.5708
793.3128, 407.0336
793.7949, 402.6262
794.2770, 401.1240
794.7592, 402.0701
795.2413, 406.0351
795.7234, 412.5387
796.2055, 416.8948
796.6876, 413.4663
797.1697, 405.4710
797.6519, 398.9636
798.1340, 394.1527
798.6161, 394.6950
799.0982, 402.8333
799.5803, 409.6904
800.0624, 403.5709
800.5446, 384.7696
801.0267, 378.9214
801.5088, 398.6704
801.9909, 411.9818
802.4730, 412.6118
802.9551, 406.9681
803.4373, 396.2209
803.9194, 382.8477
804.4015, 375.0788
804.8836, 377.8861
805.3657, 383.5847
805.8478, 388.0044
806.3300, 391.7318
806.8121, 398.0054
807.2942, 405.3178
807.7763, 403.8517
808.2584, 385.8300
808.7405, 362.8929
809.2227, 362.2971
809.7048, 384.8518
810.1869, 400.1204
810.6690, 404.3022
811.1511, 403.9890
811.6332, 401.9285
812.1154, 398.5594
812.5975, 394.6058
813.0796, 388.5453
813.5617, 385.8189
814.0438, 389.7193
814.5259, 393.7710
815.0081, 394.8085
815.4902, 393.9971
815.9723, 393.0560
816.4544, 392.4687
816.9365, 392.5620
817.4186, 393.9781
817.9008, 395.9904
818.3829, 397.7254
818.8650, 399.1125
819.3471, 399.9089
819.8292, 400.0414
820.3113, 399.8654
820.7935, 399.5667
821.2756, 399.3000
821.7577, 401.7192
822.2398, 410.2047
822.7219, 411.2946
823.2040, 394.9630
823.6862, 377.9603
824.1683, 377.0732
824.6504, 388.4176
825.1325, 394.7810
825.6146, 387.1884
826.0967, 383.9483
826.5789, 397.1179
827.0610, 411.4553
827.5431, 411.1354
828.0252, 399.6886
828.5073, 391.2900
828.9894, 393.0050
829.4716, 397.5865
829.9537, 395.1635
830.4358, 389.0037
830.9180, 390.2430
831.4001, 399.1820
831.8822, 404.5042
832.3643, 400.0437
832.8464, 391.8816
833.3286, 391.0786
833.8107, 399.3440
834.2928, 404.0281
834.7749, 403.4141
835.2570, 401.9737
835.7391, 401.4746
836.2213, 400.6407
836.7034, 396.7931
837.1855, 390.0580
837.6676, 387.9374
838.1497, 397.8902
838.6318, 406.3847
839.1140, 405.1444
839.5961, 399.5718
840.0782, 396.1047
840.5603, 395.5089
841.0424, 395.0885
841.5245, 392.6851
842.0067, 390.5315
842.4888, 393.8159
842.9709, 400.7425
843.4530, 401.8894
843.9351, 395.8215
844.4172, 390.9607
844.8994, 393.1569
845.3815, 399.1035
845.8636, 400.1405
846.3457, 394.2002
846.8278, 389.3922
847.3099, 383.0667
847.7921, 381.5741
848.2742, 393.3803
848.7563, 408.4424
849.2384, 413.5251
849.7205, 406.9850
850.2026, 398.5862
850.6848, 386.1721
851.1669, 377.6844
851.6490, 382.0328
852.1311, 391.0506
852.6132, 390.8523
853.0953, 380.9840
853.5775, 376.1670
854.0596, 391.7964
854.5417, 412.2435
855.0238, 408.0095
855.5059, 385.5213
855.9880, 371.7537
856.4702, 371.6351
856.9523, 379.0728
857.4344, 391.1181
857.9165, 404.5955
858.3986, 408.8516
858.8807, 399.5320
859.3629, 396.7085
859.8450, 406.7686
860.3271, 414.8284
860.8092, 410.1555
861.2913, 400.3330
861.7734, 398.2519
862.2556, 406.6065
862.7377, 410.4337
863.2198, 402.6636
863.7019, 394.5941
864.1840, 393.9382
864.6661, 395.3208
865.1483, 390.2710
865.6304, 378.3742
866.1125, 367.7567
866.5946, 363.0609
867.0767, 363.2022
867.5588, 370.0809
868.0410, 380.2453
868.5231, 383.3119
869.0052, 378.1844
869.4873, 373.5141
869.9694, 375.3780
870.4515, 381.9295
870.9337, 389.8087
871.4158, 399.6729
871.8979, 404.3017
872.3800, 401.7345
872.8621, 397.7397
873.3442, 394.8853
873.8264, 392.6683
874.3085, 390.2916
874.7906, 387.9953
875.2727, 384.5573
875.7548, 378.8902
876.2369, 373.3986
876.7191, 367.5646
877.2012, 363.0900
877.6833, 362.0385
878.1654, 364.2703
878.6475, 367.3616
879.1296, 370.5932
879.6118, 373.8695
880.0939, 377.1360
880.5760, 380.4008
881.0581, 383.6045
881.5402, 386.7913
882.0223, 390.3904
882.5045, 394.8127
882.9866, 398.5104
883.4687, 398.3130
883.9508, 395.0104
884.4329, 393.1757
884.9150, 393.1274
885.3972, 393.9042
885.8793, 395.4033
886.3614, 396.4078
886.8435, 394.7173
887.3256, 389.9437
887.8077, 388.2774
888.2899, 392.1256
888.7720, 394.7206
889.2541, 395.6527
889.7362, 393.7122
890.2183, 383.5870
890.7004, 368.6742
891.1826, 365.5071
891.6647, 390.2629
892.1468, 405.7890
892.6289, 393.8161
893.1110, 375.7832
893.5931, 366.8208
894.0753, 365.7972
894.5574, 367.5569
895.0395, 370.5181
895.5216, 372.0651
896.0037, 366.8192
896.4858, 360.9450
896.9680, 366.1322
897.4501, 378.5330
897.9322, 384.8080
898.4143, 381.3189
898.8964, 375.2536
899.3785, 373.4824
899.8607, 374.6981
900.3428, 374.4507
900.8249, 372.6949
901.3070, 370.6184
901.7891, 368.2011
902.2712, 366.3340
902.7534, 365.3904
903.2355, 365.6683
903.7176, 368.2632
904.1997, 374.8450
904.6818, 379.5893
905.1639, 383.9267
905.6461, 384.5518
906.1282, 376.6451
906.6103, 366.6996
907.0924, 362.2563
907.5745, 363.8613
908.0566, 367.4002
908.5388, 374.6251
909.0209, 380.3438
909.5030, 380.3741
909.9851, 379.0389
910.4672, 383.4178
910.9493, 391.1348
911.4315, 390.6383
911.9136, 373.4669
912.3957, 357.1660
912.8778, 361.0255
913.3599, 375.8582
913.8420, 388.9829
914.3242, 398.3441
914.8063, 400.7163
915.2884, 394.9529
915.7705, 386.3093
916.2526, 380.1213
916.7347, 376.6464
917.2169, 377.7750
917.6990, 383.6293
918.1811, 390.9151
918.6632, 399.7804
919.1453, 405.7180
919.6274, 404.4965
920.1096, 397.5004
920.5917, 390.5426
921.0738, 382.2317
921.5559, 377.4550
922.0380, 379.3484
922.5201, 380.8274
923.0023, 376.6707
923.4844, 370.8900
923.9665, 369.5273
924.4486, 373.2437
924.9307, 377.7593
925.4128, 384.2106
925.8950, 389.2779
926.3771, 392.0680
926.8592, 392.5934
927.3413, 389.2791
927.8234, 383.5170
928.3055, 380.7343
928.7877, 385.1420
929.2698, 388.8154
929.7519, 384.0890
930.2340, 376.8102
930.7161, 372.3490
931.1982, 371.9065
931.6804, 378.7552
932.1625, 393.7092
932.6446, 406.2274
933.1267, 401.2308
933.6088, 386.7337
934.0909, 385.0551
934.5731, 393.3704
935.0552, 394.1166
935.5373, 383.1188
936.0194, 371.9572
936.5015, 370.0641
936.9836, 364.0724
937.4658, 377.6359
937.9479, 385.2486
938.4300, 387.2303
938.9121, 366.7153
939.3942, 375.2500
939.8763, 372.1430
940.3585, 368.5585
940.8406, 381.1819
941.3227, 363.9391
941.8048, 376.3054
942.2869, 376.8523
942.7690, 382.8086
943.2512, 377.0513
943.7333, 374.9119
944.2154, 384.4900
944.6975, 387.5801
945.1796, 380.4743
945.6617, 386.7745
946.1439, 369.1224
946.6260, 372.4888
947.1081, 384.9238
947.5902, 378.4069
948.0723, 384.9213
948.5544, 386.4727
949.0366, 365.4693
949.5187, 383.6909
950.0008, 384.9490
950.4829, 368.7892
950.9650, 385.6669
951.4471, 371.9084
951.9293, 369.0851
952.4114, 374.4912
952.8935, 371.3185
953.3756, 381.6714
953.8577, 378.9940
954.3398, 375.1525
954.8220, 376.3916
955.3041, 363.2338
955.7862, 376.7851
956.2683, 372.0918
956.7504, 376.4675
957.2325, 382.8988
957.7147, 373.5904
958.1968, 380.9453
958.6789, 362.4594
959.1610, 365.5954
959.6431, 366.4031
960.1252, 381.0311
960.6074, 362.6712
961.0895, 365.2065
961.5716, 376.6386
962.0537, 375.6220
962.5358, 379.8103
963.0179, 368.5899
963.5001, 371.8448
963.9822, 371.1097
964.4643, 384.1621
964.9464, 386.3299
965.4285, 375.3710
965.9106, 364.4677
966.3928, 378.5123
966.8749, 368.9110
967.3570, 372.0665
967.8391, 362.0468
968.3212, 363.4029
968.8033, 364.5786
969.2855, 371.5857
969.7676, 360.9103
970.2497, 373.1719
970.7318, 372.1765
971.2139, 375.0862
971.6960, 377.5615
972.1782, 362.2472
972.6603, 361.5161
973.1424, 381.6522
973.6245, 369.9648
974.1066, 364.7004
974.5887, 364.0021
975.0709, 384.8528
975.5530, 385.6739
976.0351, 362.5535
976.5172, 382.4546
976.9993, 375.8881
977.4814, 377.1868
977.9636, 375.6160
978.4457, 374.8946
978.9278, 363.3683
979.4099, 366.0809
979.8920, 380.3710
980.3741, 374.9231
980.8563, 382.8523
981.3384, 391.1286
981.8205, 386.8223
982.3026, 364.2352
982.7847, 339.4608
983.2668, 335.8034
983.7490, 349.6606
984.2311, 364.1182
984.7132, 378.9838
985.1953, 384.3442
985.6774, 376.9743
986.1595, 368.4354
986.6417, 367.9041
987.1238, 372.6274
987.6059, 374.8450
988.0880, 374.3496
988.5701, 372.2419
989.0522, 367.3743
989.5344, 365.1425
990.0165, 368.7585
990.4986, 373.9562
990.9807, 375.2457
991.4628, 372.8910
991.9449, 373.4011
992.4271, 380.7583
992.9092, 382.3635
993.3913, 371.1459
993.8734, 361.4211
994.3555, 362.2568
994.8376, 369.6735
995.3198, 376.4297
995.8019, 382.7519
996.2841, 387.3373
996.7662, 392.0821
997.2483, 392.5067
997.7304, 380.7379
998.2125, 369.8589
998.6946, 373.7045
999.1768, 387.7766
999.6589, 394.9929
1000.141, 389.5194
1000.623, 384.1982
1001.105, 384.5543
1001.587, 383.8163
1002.069, 374.7720
1002.552, 364.0775
1003.034, 361.2297
1003.516, 366.6790
1003.998, 372.6295
1004.480, 375.6179
1004.962, 378.5050
1005.444, 384.6384
1005.926, 390.1054
1006.409, 390.5948
1006.891, 387.2069
1007.373, 381.7479
1007.855, 375.0630
1008.337, 372.1183
1008.819, 380.6409
1009.301, 390.8004
1009.783, 392.1962
1010.265, 388.2846
1010.748, 384.2161
1011.230, 380.8206
1011.712, 377.5462
1012.194, 374.1852
1012.676, 369.9086
1013.158, 361.6226
1013.640, 352.9843
1014.122, 350.6249
1014.604, 353.7758
1015.087, 361.2036
1015.569, 371.6293
1016.051, 379.2146
1016.533, 379.4860
1017.015, 374.9859
1017.497, 366.7015
1017.979, 357.5252
1018.461, 361.6807
1018.944, 377.6653
1019.426, 385.6530
1019.908, 378.4790
1020.390, 367.4242
1020.872, 363.6584
1021.354, 366.0944
1021.836, 373.3765
1022.318, 384.8680
1022.800, 389.9919
1023.283, 387.2275
1023.765, 385.2993
1024.247, 389.0244
1024.729, 393.3484
1025.211, 390.2793
1025.693, 380.6125
1026.175, 374.3856
1026.657, 372.0202
1027.140, 368.3252
1027.622, 361.2488
1028.104, 358.2989
1028.586, 365.7853
1029.068, 378.1875
1029.550, 383.5300
1030.032, 381.3032
1030.514, 374.9667
1030.996, 361.2041
1031.479, 355.9843
1031.961, 366.9917
1032.443, 380.3360
1032.925, 384.3174
1033.407, 380.7239
1033.889, 375.5976
1034.371, 366.4751
1034.853, 363.7821
1035.335, 372.3178
1035.818, 377.1907
1036.300, 369.2979
1036.782, 360.2934
1037.264, 365.1725
1037.746, 381.6483
1038.228, 386.0946
1038.710, 366.9504
1039.192, 358.5945
1039.675, 370.8223
1040.157, 382.8246
1040.639, 385.0913
1041.121, 382.2552
1041.603, 379.3911
1042.085, 376.3119
1042.567, 377.4069
1043.049, 391.4077
1043.531, 396.7123
1044.014, 380.6023
1044.496, 366.5529
1044.978, 371.6225
1045.460, 385.4101
1045.942, 389.4225
1046.424, 381.4354
1046.906, 375.2708
1047.388, 370.1407
1047.870, 369.5089
1048.353, 382.4223
1048.835, 392.2502
1049.317, 380.6296
1049.799, 358.3864
1050.281, 352.3037
1050.763, 369.5111
1051.245, 382.7357
1051.727, 388.1441
1052.210, 388.1327
1052.692, 379.5182
1053.174, 369.2613
1053.656, 361.6183
1054.138, 357.5267
1054.620, 358.8747
1055.102, 368.2739
1055.584, 375.7690
1056.067, 379.4109
1056.549, 380.1360
1057.031, 375.5438
1057.513, 370.3093
1057.995, 368.2752
1058.477, 370.0266
1058.959, 377.0010
1059.441, 395.8161
1059.923, 404.6555
1060.406, 385.7279
1060.888, 367.0788
1061.370, 366.9211
1061.852, 375.5160
1062.334, 381.9232
1062.816, 384.3307
1063.298, 382.2903
1063.780, 371.9763
1064.262, 364.2051
1064.745, 366.8298
1065.227, 369.5238
1065.709, 361.2519
1066.191, 350.6136
1066.673, 352.2646
1067.155, 366.5809
1067.637, 378.0530
1068.119, 382.1219
1068.602, 380.7685
1069.084, 369.0897
1069.566, 357.8954
1070.048, 355.9254
1070.530, 360.1057
1071.012, 366.5520
1071.494, 373.8531
1071.976, 375.8344
1072.458, 364.3366
1072.941, 354.3335
1073.423, 354.2655
1073.905, 357.2361
1074.387, 356.7310
1074.869, 355.0957
1075.351, 358.4514
1075.833, 367.7758
1076.315, 374.8996
1076.797, 374.2142
1077.280, 373.0617
1077.762, 374.6934
1078.244, 377.8872
1078.726, 383.8463
1079.208, 389.6875
1079.690, 389.3817
1080.172, 381.5738
1080.655, 373.7230
1081.137, 369.3995
1081.619, 365.5037
1082.101, 356.8625
1082.583, 350.8866
1083.065, 359.4597
1083.547, 375.0245
1084.029, 379.0014
1084.511, 366.5623
1084.994, 356.3031
1085.476, 356.5287
1085.958, 360.8015
1086.440, 370.2143
1086.922, 378.3376
1087.404, 378.1436
1087.886, 371.8768
1088.368, 364.7865
1088.850, 357.8189
1089.333, 354.6497
1089.815, 360.2013
1090.297, 365.7207
1090.779, 368.0045
1091.261, 367.0742
1091.743, 358.2769
1092.225, 347.4088
1092.707, 349.1661
1093.190, 368.4982
1093.672, 385.1479
1094.154, 393.4339
1094.636, 395.2371
1095.118, 385.9683
1095.600, 375.2302
1096.082, 372.8311
1096.564, 376.0025
1097.047, 376.0168
1097.529, 370.4514
1098.011, 366.4492
1098.493, 369.4121
1098.975, 370.3781
1099.457, 359.9595
1099.939, 350.7479
1100.421, 358.3378
1100.903, 375.1799
1101.385, 380.3817
1101.868, 367.6947
1102.350, 359.6685
1102.832, 367.9392
1103.314, 373.9440
1103.796, 366.7426
1104.278, 358.3745
1104.760, 360.9340
1105.242, 369.8087
1105.725, 372.8801
1106.207, 367.8320
1106.689, 361.2154
1107.171, 349.6654
1107.653, 342.6975
1108.135, 345.4406
1108.617, 351.7117
1109.099, 359.7210
1109.582, 367.0104
1110.064, 367.0888
1110.546, 356.7520
1111.028, 353.3607
1111.510, 365.8914
1111.992, 375.2205
1112.474, 374.0287
1112.956, 371.2986
1113.438, 375.7082
1113.921, 382.2519
1114.403, 377.7079
1114.885, 357.2149
1115.367, 349.4733
1115.849, 364.7583
1116.331, 377.0873
1116.813, 384.0083
1117.295, 384.7834
1117.777, 373.4985
1118.260, 358.8480
1118.742, 359.4415
1119.224, 378.3705
1119.706, 386.5096
1120.188, 378.4571
1120.670, 370.8279
1121.152, 365.3193
1121.634, 362.1458
1122.117, 361.5089
1122.599, 363.3552
1123.081, 368.9924
1123.563, 378.8962
1124.045, 377.0291
1124.527, 357.0031
1125.009, 346.7899
1125.491, 353.4732
1125.974, 362.0670
1126.456, 365.5533
1126.938, 364.5188
1127.420, 358.6082
1127.902, 348.5912
1128.384, 345.7858
1128.866, 351.0159
1129.348, 359.1925
1129.830, 371.1572
1130.313, 377.1703
1130.795, 371.8216
1131.277, 361.1767
1131.759, 351.6336
1132.241, 344.4702
1132.723, 349.2541
1133.205, 365.8121
1133.687, 369.9984
1134.169, 359.2360
1134.652, 351.1191
1135.134, 352.9114
1135.616, 359.4103
1136.098, 365.7581
1136.580, 371.4058
1137.062, 374.6984
1137.544, 375.8944
1138.026, 376.5061
1138.509, 376.5931
1138.991, 375.1170
1139.473, 371.8384
1139.955, 369.1448
1140.437, 369.2157
1140.919, 370.6986
1141.401, 371.5483
1141.883, 371.8416
1142.365, 372.7356
1142.848, 373.2342
1143.330, 366.3185
1143.812, 352.6017
1144.294, 350.3718
1144.776, 375.5291
1145.258, 403.2263
1145.740, 402.3576
1146.222, 387.3992
1146.704, 374.9375
1147.187, 367.1718
1147.669, 367.8714
1148.151, 375.6413
1148.633, 382.7620
1149.115, 385.8192
1149.597, 384.9794
1150.079, 375.5251
1150.561, 367.0717
1151.044, 371.9924
1151.526, 381.0876
1152.008, 380.2192
1152.490, 371.0352
1152.972, 364.9926
1153.454, 365.9615
1153.936, 368.3066
1154.418, 371.1323
1154.901, 372.4880
1155.383, 368.3590
1155.865, 364.8383
1156.347, 371.0832
1156.829, 381.6376
1157.311, 381.6353
1157.793, 367.0660
1158.275, 358.5168
1158.757, 363.9942
1159.240, 370.8920
1159.722, 378.6687
1160.204, 384.0496
1160.686, 384.4857
1161.168, 381.4083
1161.650, 375.9634
1162.132, 367.8944
1162.614, 364.9792
1163.096, 369.6110
1163.579, 375.0964
1164.061, 381.4147
1164.543, 388.0099
1165.025, 397.1869
1165.507, 402.9595
1165.989, 396.0748
1166.471, 379.4142
1166.953, 373.7653
1167.436, 382.5059
1167.918, 385.7773
1168.400, 381.0811
1168.882, 378.0964
1169.364, 380.1557
1169.846, 385.1560
1170.328, 392.1999
1170.810, 398.4825
1171.292, 394.8687
1171.775, 382.2543
1172.257, 374.6675
1172.739, 372.3620
1173.221, 374.5006
1173.703, 380.6477
1174.185, 385.8988
1174.667, 387.2513
1175.149, 384.9036
1175.631, 375.1594
1176.114, 363.6833
1176.596, 367.5685
1177.078, 381.4802
1177.560, 390.7776
1178.042, 393.3892
1178.524, 391.3083
1179.006, 385.4992
1179.488, 381.7528
1179.971, 388.6365
1180.453, 396.6210
1180.935, 394.0474
1181.417, 386.8863
1181.899, 381.9476
1182.381, 379.6377
1182.863, 378.8341
1183.345, 379.2158
1183.828, 380.8894
1184.310, 385.7818
1184.792, 388.8689
1185.274, 386.8225
1185.756, 382.9164
1186.238, 379.0162
1186.720, 374.9958
1187.202, 368.2404
1187.684, 360.3263
1188.167, 361.0186
1188.649, 379.0279
1189.131, 389.8230
1189.613, 385.2019
1190.095, 379.5374
1190.577, 374.2371
1191.059, 372.9663
1191.541, 381.2726
1192.023, 394.7055
1192.506, 402.0029
1192.988, 402.6076
1193.470, 400.1671
1193.952, 392.5265
1194.434, 389.3647
1194.916, 394.3560
1195.398, 396.6618
1195.880, 388.8151
1196.363, 379.7390
1196.845, 383.8332
1197.327, 397.3921
1197.809, 397.9012
1198.291, 386.3975
1198.773, 386.2463
1199.255, 398.4997
1199.737, 400.0437
1200.219, 382.9915
1200.702, 367.4462
1201.184, 371.7572
1201.666, 384.8277
1202.148, 389.7123
1202.630, 388.9126
1203.112, 386.0332
1203.594, 382.3594
1204.076, 380.2994
1204.558, 380.1252
1205.041, 380.1784
1205.523, 379.3446
1206.005, 380.8813
1206.487, 392.3554
1206.969, 401.6787
1207.451, 391.6018
1207.933, 379.4575
1208.415, 390.1722
1208.898, 414.5351
1209.380, 427.2010
1209.862, 422.5803
1210.344, 415.0099
1210.826, 405.7478
1211.308, 397.9669
1211.790, 391.8152
1212.272, 388.0337
1212.755, 389.4423
1213.237, 391.7605
1213.719, 387.7693
1214.201, 379.2663
1214.683, 379.9043
1215.165, 394.6989
1215.647, 404.6096
1216.129, 409.4221
1216.611, 409.1724
1217.094, 403.1950
1217.576, 393.9119
1218.058, 382.1655
1218.540, 370.8482
1219.022, 365.0143
1219.504, 364.7525
1219.986, 373.6074
1220.468, 389.8514
1220.950, 396.3049
1221.433, 391.4879
1221.915, 386.4125
1222.397, 385.9809
1222.879, 388.2484
1223.361, 392.4391
1223.843, 396.4204
1224.325, 397.1190
1224.807, 395.5086
1225.290, 391.3567
1225.772, 386.8232
1226.254, 388.0643
1226.736, 394.3471
1227.218, 394.9476
1227.700, 382.3472
1228.182, 373.0302
1228.664, 377.9776
1229.146, 385.8497
1229.629, 392.4964
1230.111, 396.7248
1230.593, 397.0875
1231.075, 394.5426
1231.557, 390.0002
1232.039, 381.9108
1232.521, 383.8564
1233.003, 406.3545
1233.485, 419.2944
1233.968, 414.5692
1234.450, 410.0206
1234.932, 415.5126
1235.414, 420.7192
1235.896, 412.8418
1236.378, 396.0351
1236.860, 386.1968
1237.342, 383.2831
1237.825, 386.3005
1238.307, 394.9847
1238.789, 403.5701
1239.271, 410.4755
1239.753, 414.1763
1240.235, 413.6679
1240.717, 410.3720
1241.199, 404.6541
1241.682, 398.4511
1242.164, 394.7266
1242.646, 393.2378
1243.128, 384.1663
1243.610, 398.2220
1244.092, 406.3271
1244.574, 408.8010
1245.056, 388.7784
1245.538, 397.8054
1246.021, 395.1917
1246.503, 392.0996
1246.985, 405.2152
1247.467, 388.4647
1247.949, 401.3233
1248.431, 402.3626
1248.913, 408.8112
1249.395, 403.5462
1249.878, 401.9002
1250.360, 411.9705
1250.842, 415.5529
1251.324, 408.9394
1251.806, 415.7320
1252.288, 398.5722
1252.770, 402.4310
1253.252, 415.3582
1253.734, 409.3337
1254.217, 416.3415
1254.699, 418.3851
1255.181, 397.8741
1255.663, 416.5880
1256.145, 418.3384
1256.627, 402.6710
1257.109, 420.0410
1257.591, 406.7747
1258.073, 391.4326
1258.556, 404.7223
1259.038, 412.1775
1259.520, 414.1117
1260.002, 393.9886
1260.484, 402.3479
1260.966, 399.2927
1261.448, 395.7695
1261.930, 408.1375
1262.413, 391.2226
1262.895, 403.3386
1263.377, 403.8660
1263.859, 409.6972
1264.341, 404.0435
1264.823, 401.9372
1265.305, 411.3194
1265.787, 414.3403
1266.270, 407.3644
1266.752, 413.5328
1267.234, 396.2167
1267.716, 399.5086
1268.198, 411.6918
1268.680, 407.8633
1269.162, 409.4704
1269.644, 407.6662
1270.126, 403.4931
1270.609, 397.3405
1271.091, 393.3884
1271.573, 396.6255
1272.055, 400.9369
1272.537, 393.2730
1273.019, 381.8785
1273.501, 381.0436
1273.983, 388.1914
##END=



