##NAMES=Kobellite
##RRUFFID=R110092
##IDEAL CHEMISTRY=Pb^2+^_11_(Cu^1+^,Fe^2+^)_2_(Bi^3+^,Sb^3+^)_15_S^2-^_35_
##LOCALITY=Crabtree quarry, Wake County, North Carolina, USA
##OWNER=RRUFF
##SOURCE=Mark Feinglos
##DESCRIPTION=Dark grey metallic massive, associated with quartz
##STATUS=The identification of this mineral is confirmed by single-crystal X-ray diffraction and chemical analysis.
##URL=rruff.info/R110092
##MEASURED CHEMISTRY=(Pb_10.21_Bi_0.63_Ag_0.16_)_Σ=11.00_(Cu_1.64_Fe_0.50_)_Σ=2.14_(Bi_9.41_Sb_5.59_)_Σ=15.00_S_35_
135.8112, 0.8344345
136.2933, 0.6932997
136.7754, 1.072475
137.2575, 1.141666
137.7396, 0.8035744
138.2217, 0.6018941
138.7039, 1.082379
139.1860, 2.431565
139.6681, 3.054055
140.1502, 2.453158
140.6323, 1.047953
141.1144, 0.8163351
141.5966, 2.302823
142.0787, 3.925871
142.5608, 4.418036
143.0429, 3.386966
143.5250, 2.304844
144.0071, 1.212920
144.4893, 0.1467525
144.9714, -0.1003339
145.4535, 1.015528
145.9356, 2.425134
146.4177, 3.028710
146.8998, 1.972326
147.3820, 1.490310
147.8641, 2.325929
148.3462, 4.826689
148.8283, 6.137595
149.3104, 5.228423
149.7925, 3.619260
150.2747, 3.081636
150.7568, 5.088479
151.2389, 6.658862
151.7210, 6.963813
152.2031, 5.411695
152.6852, 4.476235
153.1674, 4.868188
153.6495, 5.744729
154.1316, 5.888457
154.6137, 3.264997
155.0958, 1.564837
155.5779, 2.253354
156.0601, 6.770880
156.5422, 10.52845
157.0243, 12.78106
157.5064, 13.83350
157.9885, 14.27616
158.4706, 13.54722
158.9528, 12.74063
159.4349, 12.33605
159.9170, 12.39005
160.3991, 12.88104
160.8812, 14.00726
161.3633, 15.59368
161.8455, 17.18079
162.3276, 18.81999
162.8097, 20.27155
163.2918, 21.39160
163.7739, 21.90537
164.2560, 22.39509
164.7382, 22.97373
165.2203, 23.69159
165.7024, 24.74106
166.1845, 26.84617
166.6666, 29.04855
167.1487, 30.43549
167.6309, 30.06271
168.1130, 29.55588
168.5951, 30.03287
169.0772, 31.34491
169.5593, 32.58750
170.0414, 32.96394
170.5236, 33.04673
171.0057, 33.52963
171.4878, 35.18316
171.9699, 36.91315
172.4520, 37.60820
172.9341, 37.35191
173.4163, 37.14909
173.8984, 37.90183
174.3805, 39.18227
174.8626, 40.25275
175.3447, 40.57265
175.8268, 40.70525
176.3090, 41.28304
176.7911, 42.30356
177.2732, 43.52374
177.7553, 44.57704
178.2374, 45.46308
178.7195, 46.39100
179.2017, 47.79281
179.6838, 49.18910
180.1659, 49.60062
180.6480, 48.96829
181.1301, 48.31356
181.6122, 48.67755
182.0944, 49.85514
182.5765, 51.16858
183.0586, 52.53721
183.5407, 53.80878
184.0228, 54.76548
184.5049, 55.42054
184.9871, 55.65830
185.4692, 55.01735
185.9513, 53.67339
186.4334, 52.61357
186.9155, 52.40325
187.3976, 52.84046
187.8798, 53.32802
188.3619, 53.88147
188.8440, 54.33456
189.3261, 54.37319
189.8082, 54.02679
190.2903, 53.66666
190.7725, 53.55585
191.2546, 53.62383
191.7367, 53.46324
192.2188, 53.03873
192.7009, 52.43653
193.1830, 51.64619
193.6652, 50.66447
194.1473, 49.99808
194.6294, 50.06071
195.1115, 50.79084
195.5936, 51.40552
196.0757, 51.81529
196.5579, 52.16877
197.0400, 52.87180
197.5221, 53.98019
198.0042, 54.85484
198.4863, 55.01337
198.9684, 54.44545
199.4506, 54.07996
199.9327, 53.99571
200.4148, 54.12465
200.8969, 54.35548
201.3790, 54.70689
201.8611, 55.07269
202.3433, 55.46095
202.8254, 55.89914
203.3075, 56.01818
203.7896, 55.70787
204.2717, 55.13736
204.7538, 54.75813
205.2360, 54.62516
205.7181, 54.47562
206.2002, 54.10241
206.6823, 53.44397
207.1644, 52.95728
207.6465, 52.68960
208.1287, 52.60807
208.6108, 52.63120
209.0929, 52.78590
209.5750, 52.96925
210.0571, 53.12987
210.5392, 53.27751
211.0214, 53.36222
211.5035, 53.37390
211.9856, 53.32318
212.4677, 53.20634
212.9498, 52.94141
213.4319, 52.79536
213.9140, 53.03840
214.3962, 53.90796
214.8783, 54.28522
215.3604, 53.89856
215.8425, 52.97445
216.3246, 52.47356
216.8067, 52.58063
217.2889, 52.74368
217.7710, 52.55464
218.2531, 51.76755
218.7352, 51.37091
219.2173, 51.54602
219.6994, 52.17472
220.1816, 52.68471
220.6637, 53.02568
221.1458, 53.34677
221.6279, 53.83889
222.1100, 54.84093
222.5921, 55.07275
223.0743, 54.09703
223.5564, 52.25965
224.0385, 51.17876
224.5206, 51.18723
225.0027, 51.45774
225.4848, 51.43528
225.9670, 50.79877
226.4491, 50.68584
226.9312, 51.43192
227.4133, 52.79086
227.8954, 53.58667
228.3775, 53.59648
228.8597, 53.35095
229.3418, 53.17232
229.8239, 53.16179
230.3060, 52.98943
230.7881, 52.65199
231.2702, 52.13468
231.7524, 51.28697
232.2345, 49.66359
232.7166, 48.34839
233.1987, 48.07064
233.6808, 49.38277
234.1629, 50.52569
234.6451, 51.50140
235.1272, 52.23775
235.6093, 52.39170
236.0914, 51.65985
236.5735, 50.76402
237.0556, 50.07359
237.5378, 49.55822
238.0199, 49.32623
238.5020, 49.46778
238.9841, 49.89989
239.4662, 50.30846
239.9483, 50.81000
240.4305, 51.13371
240.9126, 51.08113
241.3947, 50.32958
241.8768, 49.92776
242.3589, 50.04451
242.8410, 50.53424
243.3232, 50.92076
243.8053, 51.32390
244.2874, 51.45261
244.7695, 51.09515
245.2516, 49.89661
245.7337, 48.99065
246.2159, 48.40201
246.6980, 48.12644
247.1801, 48.24728
247.6622, 49.21257
248.1443, 49.89831
248.6264, 49.63719
249.1086, 47.71509
249.5907, 46.59856
250.0728, 46.67051
250.5549, 47.47354
251.0370, 47.74392
251.5191, 47.10553
252.0013, 46.53317
252.4834, 46.51845
252.9655, 47.41993
253.4476, 47.93601
253.9297, 47.96798
254.4118, 47.65979
254.8940, 47.28998
255.3761, 46.73516
255.8582, 46.33652
256.3403, 46.29816
256.8224, 46.80639
257.3046, 47.02919
257.7867, 46.81480
258.2688, 46.40852
258.7509, 46.34154
259.2330, 46.85287
259.7151, 47.21326
260.1973, 47.08055
260.6794, 46.30247
261.1615, 45.74239
261.6436, 45.50500
262.1257, 45.40154
262.6078, 45.06271
263.0900, 44.31090
263.5721, 43.76919
264.0542, 43.81458
264.5363, 44.64325
265.0184, 44.63435
265.5005, 43.37799
265.9827, 41.76802
266.4648, 41.14359
266.9469, 41.82298
267.4290, 42.58133
267.9111, 43.05763
268.3932, 43.23096
268.8754, 43.46431
269.3575, 43.87155
269.8396, 44.16292
270.3217, 43.84172
270.8038, 42.68720
271.2859, 41.77803
271.7681, 41.44276
272.2502, 41.66463
272.7323, 42.08901
273.2144, 42.90287
273.6965, 43.52245
274.1786, 43.13583
274.6608, 41.49921
275.1429, 40.16457
275.6250, 39.56009
276.1071, 39.59644
276.5892, 39.62130
277.0714, 39.64842
277.5535, 39.62378
278.0356, 39.50084
278.5177, 39.27867
278.9998, 38.94049
279.4819, 38.38923
279.9641, 37.73549
280.4462, 37.56981
280.9283, 37.99434
281.4104, 38.46594
281.8925, 38.52628
282.3746, 38.17070
282.8568, 37.77156
283.3389, 37.34977
283.8210, 36.95560
284.3031, 36.78443
284.7852, 36.86605
285.2673, 36.92040
285.7495, 36.77134
286.2316, 36.42391
286.7137, 35.88733
287.1958, 35.08311
287.6779, 34.20924
288.1600, 33.68841
288.6422, 33.52374
289.1243, 33.48082
289.6064, 33.42672
290.0885, 33.37153
290.5706, 33.44378
291.0527, 33.74332
291.5349, 33.95261
292.0170, 33.31437
292.4991, 31.92630
292.9812, 30.82603
293.4633, 30.73523
293.9454, 31.39566
294.4276, 32.07866
294.9097, 32.77841
295.3918, 33.32372
295.8739, 33.44225
296.3560, 33.18912
296.8381, 32.82824
297.3203, 32.39641
297.8024, 31.96143
298.2845, 31.72420
298.7666, 31.71237
299.2487, 31.64510
299.7308, 31.10285
300.2130, 30.25153
300.6951, 29.57467
301.1772, 29.25509
301.6593, 29.22415
302.1414, 29.51037
302.6235, 30.10229
303.1057, 30.61887
303.5878, 30.69478
304.0699, 30.47263
304.5520, 30.21192
305.0341, 30.00731
305.5162, 29.79311
305.9984, 29.42602
306.4805, 28.94369
306.9626, 28.57980
307.4447, 28.57949
307.9268, 28.76975
308.4089, 28.93922
308.8911, 29.06635
309.3732, 29.10762
309.8553, 28.97040
310.3374, 28.70317
310.8195, 28.46640
311.3016, 28.34162
311.7838, 28.29559
312.2659, 28.31746
312.7480, 28.45040
313.2301, 28.54127
313.7122, 28.58706
314.1943, 28.52699
314.6765, 28.23061
315.1586, 27.34294
315.6407, 26.41119
316.1228, 25.75734
316.6049, 25.44308
317.0870, 25.33983
317.5692, 25.51880
318.0513, 25.84698
318.5334, 26.13789
319.0155, 26.50474
319.4976, 26.67375
319.9797, 26.45131
320.4619, 25.79406
320.9440, 25.14716
321.4261, 24.32862
321.9082, 23.72065
322.3903, 23.69094
322.8724, 25.23964
323.3546, 26.44394
323.8367, 26.68966
324.3188, 25.99849
324.8009, 25.27843
325.2830, 24.42492
325.7651, 23.74699
326.2473, 23.44785
326.7294, 24.02394
327.2115, 24.42835
327.6936, 24.69354
328.1757, 24.75677
328.6578, 24.31536
329.1400, 22.47728
329.6221, 20.88006
330.1042, 20.24848
330.5863, 21.45203
331.0684, 22.18501
331.5505, 22.27662
332.0327, 21.92640
332.5148, 21.56905
332.9969, 21.25361
333.4790, 20.85785
333.9611, 20.27623
334.4432, 19.38078
334.9254, 18.86143
335.4075, 19.02570
335.8896, 19.31167
336.3717, 18.82140
336.8538, 17.08286
337.3359, 15.72465
337.8180, 15.26510
338.3001, 15.68940
338.7823, 16.14582
339.2644, 16.72420
339.7465, 17.15084
340.2286, 17.05607
340.7107, 16.32482
341.1928, 15.76162
341.6750, 15.52889
342.1571, 15.57884
342.6392, 15.80064
343.1213, 16.23394
343.6034, 16.63933
344.0855, 16.86842
344.5677, 16.92117
345.0498, 16.81445
345.5319, 16.52172
346.0140, 16.11731
346.4961, 15.73149
346.9782, 15.36499
347.4604, 14.99315
347.9425, 14.61643
348.4246, 14.22584
348.9067, 13.74176
349.3888, 13.11784
349.8709, 12.60908
350.3531, 12.68635
350.8352, 13.18901
351.3173, 13.51987
351.7994, 13.21376
352.2815, 12.64636
352.7636, 12.50272
353.2458, 12.78258
353.7279, 13.07841
354.2100, 12.94070
354.6921, 12.59908
355.1742, 12.47048
355.6563, 12.88056
356.1385, 13.34321
356.6206, 13.34125
357.1027, 12.95391
357.5848, 12.57862
358.0669, 12.51275
358.5490, 12.53952
359.0312, 12.38828
359.5133, 11.80710
359.9954, 11.49615
360.4775, 12.27830
360.9596, 13.62680
361.4417, 14.41333
361.9239, 13.54939
362.4060, 12.49524
362.8881, 12.12369
363.3702, 12.66768
363.8523, 13.12617
364.3344, 13.03836
364.8166, 12.74103
365.2987, 12.61747
365.7808, 13.09005
366.2629, 13.41519
366.7450, 13.29531
367.2271, 12.73043
367.7093, 12.32588
368.1914, 12.27218
368.6735, 12.32411
369.1556, 12.32382
369.6377, 12.34758
370.1198, 12.20811
370.6020, 11.70152
371.0841, 10.99810
371.5662, 10.73454
372.0483, 11.21122
372.5304, 11.76630
373.0125, 12.16493
373.4947, 12.45192
373.9768, 12.39575
374.4589, 11.75286
374.9410, 10.96112
375.4231, 10.79445
375.9052, 11.50144
376.3874, 12.12643
376.8695, 12.32409
377.3516, 12.11188
377.8337, 12.21336
378.3158, 12.76790
378.7979, 13.25717
379.2801, 13.06858
379.7622, 12.16484
380.2443, 11.35763
380.7264, 10.76735
381.2085, 10.39419
381.6906, 10.28954
382.1728, 10.45737
382.6549, 10.67541
383.1370, 10.78709
383.6191, 10.82182
384.1012, 10.88333
384.5833, 10.97704
385.0655, 11.11916
385.5476, 11.38384
386.0297, 11.73111
386.5118, 12.00130
386.9939, 12.08689
387.4760, 12.06473
387.9582, 12.03437
388.4403, 11.99796
388.9224, 11.96441
389.4045, 12.04155
389.8866, 12.10209
390.3687, 11.94742
390.8509, 11.27788
391.3330, 10.63005
391.8151, 10.54370
392.2972, 10.85663
392.7793, 10.90729
393.2614, 9.774133
393.7436, 8.634113
394.2257, 8.436268
394.7078, 9.828901
395.1899, 10.98646
395.6720, 10.93145
396.1541, 10.28996
396.6363, 10.06863
397.1184, 11.16807
397.6005, 12.11480
398.0826, 12.28394
398.5647, 11.52522
399.0468, 11.03430
399.5290, 11.15030
400.0111, 11.45251
400.4932, 11.59952
400.9753, 11.35717
401.4574, 11.27913
401.9395, 11.53251
402.4217, 12.01299
402.9038, 12.23914
403.3859, 12.24616
403.8680, 11.94683
404.3501, 11.15248
404.8322, 9.522727
405.3144, 8.673346
405.7965, 8.843774
406.2786, 9.519135
406.7607, 9.841773
407.2428, 9.714339
407.7249, 9.788204
408.2071, 10.43477
408.6892, 11.50036
409.1713, 11.95236
409.6534, 11.73967
410.1355, 11.20609
410.6176, 10.49399
411.0998, 9.668821
411.5819, 9.142970
412.0640, 9.020865
412.5461, 9.192022
413.0282, 9.642232
413.5103, 10.30095
413.9925, 10.76554
414.4746, 10.57794
414.9567, 10.12369
415.4388, 10.08484
415.9209, 10.56367
416.4030, 11.00219
416.8852, 10.78338
417.3673, 10.23852
417.8494, 9.907364
418.3315, 10.21781
418.8136, 10.62492
419.2957, 10.89686
419.7779, 11.00618
420.2600, 10.80543
420.7421, 9.716059
421.2242, 8.600097
421.7063, 8.147979
422.1884, 8.832312
422.6706, 9.495360
423.1527, 9.853380
423.6348, 10.00460
424.1169, 10.13752
424.5990, 10.38779
425.0811, 10.52219
425.5633, 10.39511
426.0454, 9.937797
426.5275, 9.710007
427.0096, 9.806154
427.4917, 10.05539
427.9738, 10.35763
428.4560, 10.89071
428.9381, 11.07524
429.4202, 10.67430
429.9023, 9.915898
430.3844, 9.604499
430.8665, 9.875782
431.3487, 10.21526
431.8308, 10.38728
432.3129, 10.38847
432.7950, 10.26798
433.2771, 9.987559
433.7592, 9.689745
434.2414, 9.563262
434.7235, 9.597425
435.2056, 9.667233
435.6877, 9.751725
436.1698, 9.834211
436.6519, 9.880725
437.1341, 9.891631
437.6162, 9.877542
438.0983, 9.757672
438.5804, 9.638375
439.0625, 9.775609
439.5446, 10.31435
440.0268, 10.76186
440.5089, 10.58821
440.9910, 10.00031
441.4731, 9.426594
441.9552, 8.929090
442.4373, 8.605929
442.9195, 8.569149
443.4016, 8.813883
443.8837, 9.093602
444.3658, 9.363122
444.8479, 9.595878
445.3300, 9.756836
445.8122, 9.522967
446.2943, 9.633181
446.7764, 10.68022
447.2585, 12.17903
447.7406, 12.88619
448.2227, 12.12889
448.7049, 11.14874
449.1870, 10.20758
449.6691, 9.270999
450.1512, 8.621243
450.6333, 8.262597
451.1154, 8.191966
451.5976, 8.484372
452.0797, 9.296343
452.5618, 9.944657
453.0439, 10.33556
453.5260, 10.48837
454.0081, 10.40242
454.4903, 10.02677
454.9724, 9.744073
455.4545, 9.924861
455.9366, 10.45808
456.4187, 10.45749
456.9008, 9.816695
457.3830, 9.077374
457.8651, 8.927784
458.3472, 9.217841
458.8293, 9.464598
459.3114, 9.433236
459.7935, 9.363077
460.2757, 9.641245
460.7578, 10.19146
461.2399, 10.63375
461.7220, 10.73282
462.2041, 10.61387
462.6862, 10.31408
463.1684, 9.759358
463.6505, 9.393190
464.1326, 9.779597
464.6147, 10.39218
465.0968, 10.55272
465.5789, 9.510820
466.0611, 8.543604
466.5432, 7.947297
467.0253, 7.734528
467.5074, 7.873598
467.9895, 8.871777
468.4716, 9.810293
468.9538, 10.21388
469.4359, 9.704290
469.9180, 9.499728
470.4001, 9.797184
470.8822, 10.26189
471.3643, 10.35245
471.8465, 9.906803
472.3286, 9.560789
472.8107, 9.502011
473.2928, 9.680172
473.7749, 9.830548
474.2570, 9.964413
474.7392, 10.00429
475.2213, 9.915648
475.7034, 9.691616
476.1855, 9.182784
476.6676, 8.265569
477.1497, 7.431586
477.6319, 7.552641
478.1140, 8.356756
478.5961, 8.958185
479.0782, 8.849614
479.5603, 8.413299
480.0424, 7.936673
480.5246, 7.454903
481.0067, 7.263590
481.4888, 7.905608
481.9709, 8.720411
482.4530, 9.072372
482.9352, 8.635073
483.4173, 8.242867
483.8994, 8.289553
484.3815, 8.573789
484.8636, 8.788253
485.3457, 8.806317
485.8279, 8.805539
486.3100, 8.814994
486.7921, 8.837034
487.2742, 8.913814
487.7563, 9.172450
488.2384, 9.358050
488.7206, 9.314105
489.2027, 8.950145
489.6848, 8.578756
490.1669, 8.124058
490.6490, 7.749216
491.1311, 7.777920
491.6133, 8.277719
492.0954, 8.712773
492.5775, 8.915593
493.0596, 8.928522
493.5417, 8.871094
494.0238, 8.741421
494.5060, 8.658451
494.9881, 8.800141
495.4702, 9.051509
495.9523, 9.095391
496.4344, 8.853746
496.9165, 8.571978
497.3987, 8.540654
497.8808, 8.640152
498.3629, 8.645534
498.8450, 8.304079
499.3271, 7.972560
499.8092, 7.938040
500.2914, 8.145953
500.7735, 8.293075
501.2556, 8.212948
501.7377, 8.074344
502.2198, 7.954892
502.7019, 7.813364
503.1841, 7.821582
503.6662, 8.142164
504.1483, 8.565337
504.6304, 8.847735
505.1125, 8.950819
505.5946, 8.961212
506.0768, 8.814661
506.5589, 8.577778
507.0410, 8.638312
507.5231, 9.129972
508.0052, 9.542498
508.4873, 9.573787
508.9695, 9.219679
509.4516, 8.884189
509.9337, 8.568209
510.4158, 8.277356
510.8979, 7.962853
511.3800, 7.660218
511.8622, 7.555934
512.3443, 7.752972
512.8264, 8.091517
513.3085, 8.471010
513.7906, 8.839349
514.2728, 9.009294
514.7549, 8.715722
515.2370, 8.282495
515.7191, 7.957956
516.2012, 7.760988
516.6833, 7.677379
517.1655, 7.721853
517.6476, 7.862740
518.1297, 8.074874
518.6118, 8.464542
519.0939, 8.786143
519.5760, 9.088766
520.0582, 9.289130
520.5403, 9.204424
521.0224, 8.679385
521.5045, 8.080222
521.9866, 7.437598
522.4688, 6.750345
522.9509, 6.335788
523.4330, 6.192800
523.9151, 6.315154
524.3972, 6.818497
524.8793, 7.712924
525.3615, 8.387777
525.8436, 8.799061
526.3257, 8.962589
526.8078, 8.741082
527.2899, 8.232509
527.7720, 7.917192
528.2542, 8.142663
528.7363, 8.541986
529.2184, 8.632233
529.7005, 8.448439
530.1826, 8.186563
530.6647, 7.770250
531.1469, 7.448188
531.6290, 7.563958
532.1111, 8.323187
532.5932, 8.724411
533.0753, 7.837863
533.5574, 6.626535
534.0396, 6.103622
534.5217, 7.256472
535.0038, 8.147652
535.4859, 8.454484
535.9680, 8.306212
536.4501, 8.083399
536.9323, 7.684547
537.4144, 7.383453
537.8965, 7.290285
538.3786, 7.407933
538.8607, 7.621543
539.3428, 7.981192
539.8250, 8.276642
540.3071, 8.295999
540.7892, 8.058665
541.2713, 7.693494
541.7534, 7.156733
542.2355, 6.677358
542.7177, 6.640431
543.1998, 6.940519
543.6819, 7.244112
544.1640, 7.438678
544.6461, 7.534700
545.1282, 7.509696
545.6104, 7.378917
546.0925, 7.237226
546.5746, 7.209090
547.0567, 7.134897
547.5388, 6.787762
548.0209, 5.893424
548.5031, 5.573046
548.9852, 6.723562
549.4673, 8.242716
549.9494, 8.948198
550.4315, 8.157769
550.9136, 7.599403
551.3958, 7.549963
551.8779, 7.820640
552.3600, 7.844359
552.8421, 7.569766
553.3242, 7.225981
553.8063, 6.856889
554.2885, 6.484594
554.7706, 6.294508
555.2527, 6.292843
555.7348, 6.406519
556.2169, 6.681694
556.6990, 7.018754
557.1812, 7.105698
557.6633, 6.817758
558.1454, 6.570981
558.6275, 6.904677
559.1096, 7.539917
559.5917, 7.992303
560.0739, 7.936686
560.5560, 7.768537
561.0381, 7.681746
561.5202, 7.650089
562.0023, 7.547048
562.4844, 7.169914
562.9666, 6.860678
563.4487, 6.821680
563.9308, 7.138783
564.4129, 7.287713
564.8950, 7.153792
565.3771, 6.976943
565.8593, 6.984055
566.3414, 7.250768
566.8235, 7.355966
567.3056, 7.204851
567.7877, 6.959292
568.2698, 6.990491
568.7520, 7.272900
569.2341, 7.354180
569.7162, 6.894324
570.1983, 6.241252
570.6804, 6.035277
571.1625, 6.237788
571.6447, 6.566898
572.1268, 7.061038
572.6089, 7.465076
573.0910, 7.442251
573.5731, 6.894661
574.0552, 6.414686
574.5374, 6.371384
575.0195, 6.470091
575.5016, 6.434767
575.9837, 6.011377
576.4658, 5.701889
576.9479, 5.560875
577.4301, 5.557178
577.9122, 5.648793
578.3943, 5.919029
578.8764, 6.121919
579.3585, 6.198736
579.8406, 6.152861
580.3228, 6.022316
580.8049, 5.816875
581.2870, 5.465897
581.7691, 4.634529
582.2512, 3.570656
582.7333, 3.412468
583.2155, 4.298674
583.6975, 5.357621
584.1796, 5.865794
584.6617, 5.980201
585.1439, 5.959238
585.6260, 5.856322
586.1081, 5.666142
586.5902, 5.297546
587.0723, 4.847091
587.5544, 4.507638
588.0366, 4.318271
588.5187, 4.255697
589.0008, 4.320195
589.4829, 4.513158
589.9650, 4.807667
590.4471, 5.235425
590.9293, 5.727931
591.4114, 6.304992
591.8935, 7.024791
592.3756, 7.410948
592.8577, 7.411712
593.3398, 7.218146
593.8220, 6.990607
594.3041, 6.733507
594.7862, 6.490726
595.2683, 6.285456
595.7504, 6.054904
596.2325, 5.643269
596.7147, 5.131653
597.1968, 4.737651
597.6789, 4.575167
598.1610, 4.544403
598.6431, 4.649217
599.1252, 4.848765
599.6074, 4.960804
600.0895, 4.914072
600.5716, 4.771510
601.0537, 4.448060
601.5358, 3.797119
602.0179, 3.731927
602.5001, 4.669472
602.9822, 5.789606
603.4643, 6.503447
603.9464, 6.756080
604.4285, 6.825651
604.9106, 6.699953
605.3928, 6.450818
605.8749, 6.146723
606.3570, 5.794157
606.8391, 5.470540
607.3212, 5.104589
607.8033, 4.899881
608.2855, 5.414545
608.7676, 6.425066
609.2497, 7.126928
609.7318, 6.767745
610.2139, 6.141739
610.6960, 5.857497
611.1782, 5.937540
611.6603, 6.056073
612.1424, 6.183117
612.6245, 6.252125
613.1066, 6.216566
613.5887, 6.032416
614.0709, 5.831846
614.5530, 5.578264
615.0351, 5.339264
615.5172, 5.212576
615.9993, 5.251159
616.4814, 5.127939
616.9636, 4.726637
617.4457, 4.247040
617.9278, 3.983751
618.4099, 3.953351
618.8920, 4.318202
619.3741, 5.598578
619.8563, 6.986118
620.3384, 7.041377
620.8205, 6.006563
621.3026, 5.093775
621.7847, 5.086229
622.2668, 5.406459
622.7490, 5.683703
623.2311, 5.886518
623.7132, 5.997047
624.1953, 6.053197
624.6774, 5.984639
625.1595, 5.713550
625.6417, 4.918298
626.1238, 4.579949
626.6059, 4.885818
627.0880, 5.446031
627.5701, 5.802835
628.0522, 5.963735
628.5344, 5.776494
629.0165, 5.023819
629.4986, 4.182654
629.9807, 4.425797
630.4628, 5.535769
630.9449, 6.332372
631.4271, 5.828418
631.9092, 4.981565
632.3913, 4.882394
632.8734, 5.433047
633.3555, 5.974242
633.8376, 6.293109
634.3198, 6.413260
634.8019, 6.338832
635.2840, 6.055095
635.7661, 5.641880
636.2482, 4.728683
636.7303, 3.998521
637.2125, 4.013258
637.6946, 5.210237
638.1767, 5.833943
638.6588, 5.661051
639.1409, 5.176839
639.6230, 5.099050
640.1052, 5.395654
640.5873, 5.585490
641.0694, 5.528329
641.5515, 5.337022
642.0336, 5.088655
642.5157, 4.835623
642.9979, 4.728667
643.4800, 5.012836
643.9621, 5.329493
644.4442, 5.454280
644.9263, 5.394516
645.4084, 5.216483
645.8906, 4.787606
646.3727, 4.379075
646.8548, 4.067585
647.3369, 3.818011
647.8190, 3.973012
648.3011, 4.869808
648.7833, 5.663330
649.2654, 5.545663
649.7475, 4.396153
650.2296, 3.920344
650.7117, 4.330763
651.1938, 4.954283
651.6760, 4.838145
652.1581, 4.235340
652.6402, 3.967201
653.1223, 4.381442
653.6044, 4.911105
654.0865, 4.997511
654.5687, 4.840733
655.0508, 4.826736
655.5329, 5.411791
656.0150, 5.844417
656.4971, 5.738100
656.9792, 5.201519
657.4614, 4.825536
657.9435, 4.690526
658.4256, 4.639791
658.9077, 4.635367
659.3898, 4.676047
659.8719, 4.709619
660.3541, 4.713077
660.8362, 4.816207
661.3183, 5.229134
661.8004, 5.832306
662.2825, 6.117453
662.7646, 6.040367
663.2468, 5.938616
663.7289, 6.263618
664.2110, 6.683239
664.6931, 6.730978
665.1752, 6.178890
665.6573, 5.583819
666.1395, 5.100471
666.6216, 4.740673
667.1037, 4.518991
667.5858, 4.390679
668.0679, 4.489969
668.5500, 5.005414
669.0322, 5.675378
669.5143, 5.884408
669.9964, 5.550308
670.4785, 5.153804
670.9606, 4.790038
671.4427, 4.497762
671.9249, 4.413663
672.4070, 4.521277
672.8891, 4.695626
673.3712, 4.923007
673.8533, 5.141078
674.3354, 5.292577
674.8176, 5.373197
675.2997, 5.353487
675.7818, 5.084395
676.2639, 4.812593
676.7460, 4.705389
677.2281, 4.834617
677.7103, 4.915085
678.1924, 4.779912
678.6745, 4.749885
679.1566, 5.159384
679.6387, 6.198929
680.1208, 6.741479
680.6030, 6.669085
681.0851, 6.264704
681.5672, 5.694904
682.0493, 5.059263
682.5314, 4.831557
683.0135, 5.291994
683.4957, 5.806309
683.9778, 5.624830
684.4599, 5.024112
684.9420, 4.532988
685.4241, 4.317194
685.9063, 4.272538
686.3884, 4.492057
686.8705, 4.869673
687.3526, 5.034786
687.8347, 4.780834
688.3168, 4.593214
688.7990, 4.621895
689.2811, 4.830780
689.7632, 4.974704
690.2453, 5.042793
690.7274, 5.118140
691.2095, 5.327340
691.6917, 5.574491
692.1738, 5.492915
692.6559, 5.096175
693.1380, 4.758997
693.6201, 4.816962
694.1022, 5.031653
694.5844, 5.151947
695.0665, 5.116465
695.5486, 5.185071
696.0307, 5.727715
696.5128, 6.226435
696.9949, 6.233005
697.4771, 5.270092
697.9592, 4.853847
698.4413, 5.243308
698.9234, 5.851131
699.4055, 5.923092
699.8876, 5.448443
700.3698, 5.025916
700.8519, 4.731528
701.3340, 4.606593
701.8161, 4.917009
702.2982, 5.447843
702.7803, 5.642689
703.2625, 5.012417
703.7446, 4.324815
704.2267, 4.164648
704.7088, 4.323777
705.1909, 4.347061
705.6730, 3.820380
706.1552, 3.482568
706.6373, 3.586562
707.1194, 4.028991
707.6015, 4.349297
708.0836, 4.546903
708.5657, 4.601378
709.0479, 4.386279
709.5300, 4.034592
710.0121, 4.271914
710.4942, 5.068676
710.9763, 5.678747
711.4584, 5.487611
711.9406, 4.886260
712.4227, 4.218749
712.9048, 3.521516
713.3869, 3.165074
713.8690, 3.593519
714.3511, 4.230066
714.8333, 4.732412
715.3154, 5.073792
715.7975, 5.195138
716.2796, 4.926347
716.7617, 4.647893
717.2438, 4.712924
717.7260, 5.170999
718.2081, 5.415484
718.6902, 5.386443
719.1723, 5.236040
719.6544, 5.120907
720.1365, 5.024737
720.6187, 4.886983
721.1008, 4.654060
721.5829, 4.497197
722.0650, 4.610615
722.5471, 4.854596
723.0292, 5.044455
723.5114, 5.094013
723.9935, 5.122050
724.4756, 5.132779
724.9577, 5.138014
725.4398, 5.166033
725.9219, 5.240071
726.4041, 5.270712
726.8862, 5.256505
727.3683, 5.167680
727.8504, 4.872596
728.3325, 4.407556
728.8146, 4.013630
729.2968, 3.740077
729.7789, 3.649173
730.2610, 3.962394
730.7431, 4.545316
731.2252, 4.952261
731.7073, 4.840362
732.1895, 4.658134
732.6716, 4.586417
733.1537, 4.626468
733.6358, 4.663165
734.1179, 4.677573
734.6000, 4.725427
735.0822, 4.861731
735.5643, 5.066271
736.0464, 5.082909
736.5285, 4.899834
737.0106, 4.764709
737.4927, 4.930061
737.9749, 5.231875
738.4570, 5.450857
738.9391, 5.567126
739.4212, 5.453879
739.9033, 4.615403
740.3854, 3.819232
740.8676, 3.733596
741.3497, 4.721709
741.8318, 5.222820
742.3139, 4.731586
742.7960, 4.199637
743.2781, 4.365764
743.7603, 5.391232
744.2424, 5.940077
744.7245, 5.927055
745.2066, 5.653365
745.6887, 5.337290
746.1708, 5.013814
746.6530, 4.809100
747.1351, 4.776310
747.6172, 4.696568
748.0993, 4.257583
748.5814, 3.750267
749.0635, 3.518538
749.5457, 3.929347
750.0278, 4.146304
750.5099, 3.886534
750.9920, 3.498175
751.4741, 3.376468
751.9562, 3.560307
752.4384, 3.879913
752.9205, 4.361022
753.4026, 4.860809
753.8847, 5.200562
754.3668, 5.368116
754.8489, 5.279744
755.3311, 4.732798
755.8132, 4.257007
756.2953, 4.508652
756.7774, 5.126228
757.2595, 5.470096
757.7416, 5.110094
758.2238, 4.728361
758.7059, 4.384592
759.1880, 4.142042
759.6701, 4.190789
760.1522, 4.677520
760.6343, 4.952392
761.1165, 4.740707
761.5986, 4.331995
762.0807, 4.580276
762.5628, 5.352178
763.0449, 5.865801
763.5270, 5.595033
764.0092, 5.050294
764.4913, 4.633687
764.9734, 4.329466
765.4555, 4.080956
765.9376, 3.861618
766.4197, 3.704966
766.9019, 3.586819
767.3840, 3.532467
767.8661, 3.736235
768.3482, 4.345662
768.8303, 4.777002
769.3124, 4.757331
769.7946, 4.393575
770.2767, 3.937078
770.7588, 3.421164
771.2409, 3.156737
771.7230, 3.536412
772.2051, 4.115347
772.6873, 4.542953
773.1694, 4.795442
773.6515, 4.803788
774.1336, 4.190444
774.6157, 3.672552
775.0978, 3.562386
775.5800, 3.847499
776.0621, 4.331497
776.5442, 5.193429
777.0263, 5.741220
777.5084, 5.390780
777.9905, 4.386686
778.4727, 3.923608
778.9548, 3.976621
779.4369, 4.101510
779.9190, 3.985470
780.4011, 3.784502
780.8832, 3.644272
781.3654, 3.576348
781.8475, 3.522127
782.3296, 3.353164
782.8117, 3.297903
783.2938, 3.461788
783.7759, 3.854237
784.2581, 4.455268
784.7402, 5.424896
785.2223, 6.088143
785.7044, 5.773216
786.1865, 4.750603
786.6686, 4.021585
787.1508, 3.615219
787.6329, 3.488191
788.1150, 3.812312
788.5971, 4.267500
789.0792, 4.563775
789.5613, 4.670295
790.0435, 4.643942
790.5256, 4.524205
791.0077, 4.241351
791.4898, 3.635823
791.9719, 2.572633
792.4540, 2.287003
792.9362, 2.942018
793.4183, 3.719912
793.9004, 3.829851
794.3825, 3.530553
794.8646, 3.630135
795.3467, 4.192991
795.8289, 4.629565
796.3110, 4.451053
796.7931, 3.998668
797.2752, 3.537551
797.7573, 3.098822
798.2394, 2.632951
798.7216, 1.775246
799.2037, 1.269419
799.6858, 1.760895
800.1679, 3.463180
800.6500, 4.502608
801.1321, 4.850718
801.6143, 4.815288
802.0964, 4.494784
802.5785, 4.044863
803.0606, 3.730803
803.5427, 3.581165
804.0248, 3.628155
804.5070, 4.209628
804.9891, 4.772882
805.4712, 4.845435
805.9533, 4.152162
806.4354, 3.684680
806.9175, 3.542591
807.3997, 3.489208
807.8818, 3.259902
808.3639, 2.869401
808.8460, 3.104861
809.3281, 4.054749
809.8102, 4.859324
810.2924, 4.454955
810.7745, 3.561255
811.2566, 3.142811
811.7387, 3.354499
812.2208, 3.796586
812.7029, 4.830413
813.1851, 5.637897
813.6672, 5.525001
814.1493, 4.154695
814.6314, 3.376229
815.1135, 3.317542
815.5956, 3.547591
816.0778, 3.807876
816.5599, 4.076675
817.0420, 4.244425
817.5241, 4.304826
818.0062, 4.297432
818.4883, 4.280543
818.9705, 4.194599
819.4526, 3.897374
819.9347, 3.309795
820.4168, 3.019037
820.8989, 3.364331
821.3810, 3.846485
821.8632, 4.271173
822.3453, 4.658992
822.8274, 4.723161
823.3095, 4.412187
823.7916, 4.087641
824.2737, 4.147463
824.7559, 4.369496
825.2380, 4.176335
825.7201, 3.557574
826.2022, 3.193458
826.6843, 3.777785
827.1664, 4.540977
827.6486, 4.941899
828.1307, 4.868479
828.6128, 4.924610
829.0949, 5.189206
829.5770, 5.454471
830.0591, 5.665870
830.5413, 5.802559
831.0234, 5.568210
831.5055, 4.967673
831.9876, 4.372536
832.4697, 3.933444
832.9518, 3.708616
833.4340, 3.853000
833.9161, 4.343687
834.3982, 4.763272
834.8803, 4.979567
835.3624, 5.075790
835.8445, 5.098027
836.3267, 5.045383
836.8088, 4.858654
837.2909, 4.509209
837.7730, 4.158648
838.2551, 3.814088
838.7372, 3.558380
839.2194, 3.718592
839.7015, 4.216861
840.1836, 4.602343
840.6657, 4.476219
841.1478, 4.280730
841.6299, 4.329599
842.1121, 4.592421
842.5942, 4.689650
843.0763, 4.485565
843.5584, 4.319019
844.0405, 4.293423
844.5226, 4.386899
845.0048, 4.604060
845.4869, 4.923553
845.9690, 5.012018
846.4511, 4.461473
846.9332, 3.798796
847.4153, 3.675490
847.8975, 3.916412
848.3796, 4.026091
848.8617, 3.499143
849.3438, 3.210149
849.8259, 3.527328
850.3080, 4.215174
850.7902, 4.741857
851.2723, 5.139933
851.7544, 5.095406
852.2365, 4.327085
852.7186, 3.368814
853.2007, 3.241564
853.6829, 3.709486
854.1650, 4.124644
854.6471, 4.198964
855.1292, 4.208789
855.6113, 4.247036
856.0934, 4.318240
856.5756, 4.447171
857.0577, 4.769143
857.5398, 4.831078
858.0219, 4.459598
858.5040, 4.003198
858.9861, 4.131054
859.4683, 4.719882
859.9504, 5.087207
860.4325, 5.031172
860.9146, 4.846081
861.3967, 4.755537
861.8788, 4.711700
862.3610, 4.661568
862.8431, 4.668341
863.3252, 4.509760
863.8073, 3.927908
864.2894, 3.425827
864.7715, 3.631690
865.2537, 4.600323
865.7358, 5.130690
866.2179, 5.109137
866.7000, 4.849476
867.1821, 4.605798
867.6642, 4.355447
868.1464, 4.041245
868.6285, 3.627433
869.1106, 3.320394
869.5927, 3.204957
870.0748, 3.221374
870.5569, 3.374625
871.0391, 3.722167
871.5212, 3.712056
872.0033, 3.212803
872.4854, 2.884182
872.9675, 3.514843
873.4496, 4.622462
873.9318, 4.949704
874.4139, 4.515615
874.8960, 4.050055
875.3781, 3.946185
875.8602, 3.978357
876.3423, 4.060471
876.8245, 4.179863
877.3066, 4.184989
877.7887, 4.016737
878.2708, 3.865550
878.7529, 3.790527
879.2350, 3.797758
879.7172, 4.028319
880.1993, 4.416595
880.6814, 4.558212
881.1635, 3.840553
881.6456, 3.147153
882.1277, 3.271200
882.6099, 3.961468
883.0920, 4.456963
883.5741, 4.459830
884.0562, 4.478482
884.5383, 4.623477
885.0204, 4.806061
885.5026, 4.796744
885.9847, 4.611440
886.4668, 4.487679
886.9489, 4.494152
887.4310, 4.586631
887.9131, 4.830670
888.3953, 5.091753
888.8774, 5.162241
889.3595, 4.781494
889.8416, 4.522296
890.3237, 4.645393
890.8058, 4.768964
891.2880, 4.380258
891.7701, 3.407503
892.2522, 2.906613
892.7343, 2.997259
893.2164, 3.346668
893.6985, 3.742477
894.1807, 4.117598
894.6628, 4.359316
895.1449, 4.428891
895.6270, 4.514238
896.1091, 4.878021
896.5912, 5.099360
897.0734, 4.854979
897.5555, 4.080149
898.0376, 3.724109
898.5197, 3.854943
899.0018, 4.008135
899.4839, 3.762384
899.9661, 3.357363
900.4482, 3.236164
900.9303, 3.382767
901.4124, 3.633628
901.8945, 4.028101
902.3766, 4.392092
902.8588, 4.738229
903.3409, 5.001906
903.8230, 4.825740
904.3051, 4.070012
904.7872, 3.429854
905.2693, 3.189426
905.7515, 3.122324
906.2336, 2.569552
906.7157, 1.787370
907.1978, 1.531020
907.6799, 2.567607
908.1620, 3.618943
908.6442, 4.297781
909.1263, 4.553420
909.6084, 4.248396
910.0905, 2.906938
910.5726, 2.367687
911.0547, 2.951914
911.5369, 3.982646
912.0190, 4.863637
912.5011, 5.453110
912.9832, 5.170693
913.4653, 3.774396
913.9474, 2.482455
914.4296, 1.915532
914.9117, 1.889041
915.3938, 2.407343
915.8759, 3.719754
916.3580, 4.329659
916.8401, 4.010288
917.3223, 3.548935
917.8044, 3.476654
918.2865, 3.706115
918.7686, 3.938963
919.2507, 4.170338
919.7328, 4.390667
920.2150, 4.664497
920.6971, 4.861493
921.1792, 4.882088
921.6613, 4.737960
922.1434, 4.553090
922.6255, 4.249742
923.1077, 4.113340
923.5898, 4.302315
924.0719, 4.626402
924.5540, 4.592678
925.0361, 4.288341
925.5182, 4.082432
926.0004, 4.221185
926.4825, 4.313780
926.9646, 3.959881
927.4467, 3.456786
927.9288, 3.280087
928.4109, 3.699834
928.8931, 3.902792
929.3752, 3.744232
929.8573, 3.580239
930.3394, 3.974185
930.8215, 4.711507
931.3036, 4.965090
931.7858, 4.611350
932.2679, 4.207711
932.7500, 4.066448
933.2321, 4.086791
933.7142, 4.255601
934.1964, 4.611580
934.6785, 4.714052
935.1606, 4.526258
935.6427, 4.158343
936.1248, 3.488046
936.6069, 2.732317
937.0891, 2.881632
937.5712, 3.737597
938.0533, 4.294698
938.5354, 3.506742
939.0175, 2.761255
939.4996, 3.030250
939.9818, 3.955626
940.4639, 4.479063
940.9460, 4.507705
941.4281, 4.224809
941.9102, 3.497206
942.3923, 2.788349
942.8745, 3.051968
943.3566, 3.953616
943.8387, 4.496635
944.3208, 4.365127
944.8029, 4.120705
945.2850, 4.113471
945.7672, 4.119915
946.2493, 3.867081
946.7314, 3.178737
947.2135, 2.950081
947.6956, 3.239222
948.1777, 3.787900
948.6599, 4.682693
949.1420, 5.610177
949.6241, 5.655048
950.1062, 4.896057
950.5883, 4.130190
951.0704, 3.686078
951.5526, 3.438164
952.0347, 3.424121
952.5168, 3.564742
952.9989, 3.568160
953.4810, 3.386573
953.9631, 3.299267
954.4453, 3.404755
954.9274, 3.610829
955.4095, 3.867294
955.8916, 4.092069
956.3737, 4.077886
956.8558, 3.493706
957.3380, 3.167662
957.8201, 3.787529
958.3022, 4.517227
958.7843, 4.486851
959.2664, 3.468753
959.7485, 3.002141
960.2307, 3.170381
960.7128, 3.604098
961.1949, 4.008372
961.6770, 4.461306
962.1591, 5.249382
962.6412, 6.343807
963.1234, 6.914928
963.6055, 6.234877
964.0876, 5.462641
964.5697, 5.052016
965.0518, 4.877779
965.5339, 4.192673
966.0161, 2.995961
966.4982, 2.357906
966.9803, 2.905631
967.4624, 3.831525
967.9445, 4.331758
968.4266, 4.551504
968.9088, 4.720603
969.3909, 4.968425
969.8730, 5.063566
970.3551, 4.949769
970.8372, 4.742498
971.3193, 4.538511
971.8015, 4.341834
972.2836, 4.154138
972.7657, 3.974367
973.2478, 3.887821
973.7299, 4.076371
974.2120, 4.298586
974.6942, 4.324760
975.1763, 4.136431
975.6584, 4.034064
976.1405, 4.060727
976.6226, 4.113550
977.1047, 4.187423
977.5869, 4.235500
978.0690, 4.032194
978.5511, 3.670839
979.0332, 3.500025
979.5153, 3.739576
979.9974, 4.086183
980.4796, 4.495811
980.9617, 4.861039
981.4438, 5.026727
981.9259, 4.921916
982.4080, 4.828390
982.8901, 4.749888
983.3723, 4.718278
983.8544, 4.886050
984.3365, 5.081043
984.8186, 4.842455
985.3007, 4.153954
985.7828, 3.761436
986.2650, 4.497540
986.7471, 5.055250
987.2292, 4.751033
987.7113, 3.786551
988.1934, 3.192176
988.6755, 2.973557
989.1577, 3.039070
989.6398, 3.549484
990.1219, 4.001519
990.6040, 3.558378
991.0861, 2.690941
991.5682, 2.199318
992.0504, 2.653848
992.5325, 2.965695
993.0146, 2.968467
993.4967, 2.912522
993.9788, 3.028439
994.4609, 3.302883
994.9431, 3.705906
995.4252, 4.234432
995.9073, 4.538452
996.3894, 4.054940
996.8715, 3.510957
997.3536, 3.530193
997.8358, 4.086129
998.3179, 4.395218
998.8000, 4.395735
999.2821, 4.247738
999.7642, 3.922151
1000.246, 3.583197
1000.728, 3.702899
1001.211, 4.076201
1001.693, 4.118377
1002.175, 3.359352
1002.657, 2.891461
1003.139, 3.542976
1003.621, 4.457191
1004.103, 4.817867
1004.585, 4.486154
1005.068, 4.490220
1005.550, 4.883212
1006.032, 5.092064
1006.514, 4.347875
1006.996, 3.387280
1007.478, 3.192689
1007.960, 3.672046
1008.442, 4.094349
1008.924, 4.186228
1009.407, 4.309318
1009.889, 4.615731
1010.371, 4.919964
1010.853, 4.702775
1011.335, 4.071887
1011.817, 3.792960
1012.299, 4.109539
1012.781, 4.500281
1013.263, 4.723874
1013.746, 4.738048
1014.228, 4.434343
1014.710, 3.721432
1015.192, 3.171834
1015.674, 2.734836
1016.156, 2.645529
1016.638, 3.215254
1017.120, 4.149106
1017.603, 4.976924
1018.085, 5.633669
1018.567, 5.862022
1019.049, 5.045764
1019.531, 4.398773
1020.013, 4.507298
1020.495, 4.830327
1020.977, 4.461700
1021.459, 3.375766
1021.942, 2.758577
1022.424, 2.789180
1022.906, 3.055967
1023.388, 3.334251
1023.870, 3.549255
1024.352, 3.596462
1024.834, 3.452041
1025.316, 3.339054
1025.799, 3.210018
1026.281, 3.256840
1026.763, 3.659331
1027.245, 4.202441
1027.727, 4.314800
1028.209, 4.090523
1028.691, 3.838399
1029.173, 3.648395
1029.656, 3.502969
1030.138, 3.363316
1030.620, 3.290127
1031.102, 3.370361
1031.584, 3.658086
1032.066, 3.774716
1032.548, 3.699000
1033.030, 3.588220
1033.512, 3.593718
1033.995, 3.623444
1034.477, 3.579239
1034.959, 3.459189
1035.441, 3.280262
1035.923, 2.929367
1036.405, 2.688128
1036.887, 2.589575
1037.369, 2.655915
1037.851, 3.021102
1038.334, 3.596761
1038.816, 4.094756
1039.298, 4.476326
1039.780, 4.653059
1040.262, 4.489978
1040.744, 4.160679
1041.226, 3.777490
1041.708, 3.335186
1042.191, 2.956234
1042.673, 2.627347
1043.155, 2.433333
1043.637, 2.462376
1044.119, 2.612245
1044.601, 2.758648
1045.083, 2.913342
1045.565, 3.097360
1046.047, 3.508218
1046.530, 3.655050
1047.012, 3.429916
1047.494, 3.035486
1047.976, 2.570478
1048.458, 2.110546
1048.940, 2.172767
1049.422, 2.776277
1049.904, 3.241436
1050.386, 2.806742
1050.869, 2.418240
1051.351, 2.859925
1051.833, 3.864718
1052.315, 4.292903
1052.797, 4.070950
1053.279, 3.810339
1053.761, 3.641244
1054.243, 3.585270
1054.726, 3.727404
1055.208, 3.973764
1055.690, 4.218673
1056.172, 4.503070
1056.654, 4.537745
1057.136, 4.112387
1057.618, 3.803432
1058.100, 4.129294
1058.583, 4.819015
1059.065, 4.721545
1059.547, 3.975237
1060.029, 3.214792
1060.511, 2.532429
1060.993, 2.191846
1061.475, 2.571437
1061.957, 3.232354
1062.439, 3.564907
1062.922, 3.523219
1063.404, 3.573371
1063.886, 3.759526
1064.368, 3.957953
1064.850, 4.123519
1065.332, 4.201522
1065.814, 4.064326
1066.296, 3.734384
1066.778, 3.575915
1067.261, 3.644458
1067.743, 3.831615
1068.225, 4.164790
1068.707, 4.508342
1069.189, 4.735763
1069.671, 4.754110
1070.153, 4.179782
1070.635, 2.619119
1071.118, 1.631030
1071.600, 2.459612
1072.082, 3.497533
1072.564, 3.852902
1073.046, 3.573194
1073.528, 3.049199
1074.010, 2.339622
1074.492, 2.260483
1074.974, 4.087401
1075.457, 5.750883
1075.939, 5.324051
1076.421, 3.826388
1076.903, 3.005361
1077.385, 3.161977
1077.867, 3.403954
1078.349, 3.751143
1078.831, 3.929487
1079.313, 3.494426
1079.796, 2.832518
1080.278, 2.475448
1080.760, 2.440809
1081.242, 2.639856
1081.724, 3.377788
1082.206, 3.902735
1082.688, 4.010783
1083.170, 3.887814
1083.652, 3.858314
1084.135, 3.890850
1084.617, 3.823166
1085.099, 3.591648
1085.581, 3.518416
1086.063, 4.128520
1086.545, 4.643143
1087.027, 4.578199
1087.509, 3.975190
1087.992, 3.052264
1088.474, 1.798676
1088.956, 1.184140
1089.438, 1.859702
1089.920, 2.884701
1090.402, 3.492518
1090.884, 3.809298
1091.366, 3.993043
1091.849, 4.043505
1092.331, 4.020143
1092.813, 3.907290
1093.295, 3.773596
1093.777, 3.655883
1094.259, 3.558285
1094.741, 3.548031
1095.223, 3.571296
1095.705, 3.441665
1096.188, 2.701600
1096.670, 2.368374
1097.152, 2.736993
1097.634, 3.380507
1098.116, 3.839786
1098.598, 4.105076
1099.080, 4.063517
1099.562, 3.710843
1100.044, 3.351872
1100.527, 3.057327
1101.009, 2.928054
1101.491, 3.051468
1101.973, 3.371042
1102.455, 3.855036
1102.937, 4.513072
1103.419, 4.617403
1103.901, 3.873411
1104.384, 2.993770
1104.866, 2.542735
1105.348, 2.392857
1105.830, 2.496295
1106.312, 2.895162
1106.794, 3.013626
1107.276, 2.759159
1107.758, 2.604464
1108.240, 2.853252
1108.723, 3.214812
1109.205, 3.231540
1109.687, 3.015921
1110.169, 2.770333
1110.651, 2.321673
1111.133, 2.340019
1111.615, 3.160817
1112.097, 3.905180
1112.579, 3.678977
1113.062, 2.847088
1113.544, 2.796942
1114.026, 3.380302
1114.508, 3.829849
1114.990, 3.693170
1115.472, 3.453427
1115.954, 3.168624
1116.436, 2.942973
1116.919, 3.012270
1117.401, 3.335191
1117.883, 3.154992
1118.365, 2.404758
1118.847, 1.997146
1119.329, 3.211285
1119.811, 4.402450
1120.293, 4.309952
1120.776, 3.280750
1121.258, 2.486623
1121.740, 1.916722
1122.222, 1.729460
1122.704, 2.010075
1123.186, 2.452842
1123.668, 2.897364
1124.150, 3.243665
1124.632, 3.348899
1125.115, 3.168637
1125.597, 3.043484
1126.079, 2.950649
1126.561, 3.029701
1127.043, 3.443310
1127.525, 3.880914
1128.007, 3.654465
1128.489, 3.144535
1128.971, 3.041326
1129.454, 3.735379
1129.936, 4.224304
1130.418, 4.338863
1130.900, 4.387173
1131.382, 4.615645
1131.864, 4.898064
1132.346, 4.759771
1132.828, 4.330949
1133.311, 4.041140
1133.793, 4.325862
1134.275, 4.430101
1134.757, 4.075896
1135.239, 3.598955
1135.721, 3.272907
1136.203, 3.097672
1136.685, 3.107352
1137.167, 3.281912
1137.650, 3.403871
1138.132, 3.252024
1138.614, 3.114493
1139.096, 3.135937
1139.578, 3.261671
1140.060, 3.408107
1140.542, 3.575591
1141.024, 3.909913
1141.506, 4.451969
1141.989, 4.672171
1142.471, 3.578084
1142.953, 2.502605
1143.435, 2.751229
1143.917, 3.983976
1144.399, 4.261149
1144.881, 3.382922
1145.363, 2.952374
1145.846, 3.416227
1146.328, 4.019851
1146.810, 3.821637
1147.292, 3.393779
1147.774, 3.406869
1148.256, 3.984719
1148.738, 4.266822
1149.220, 4.214692
1149.703, 3.938036
1150.185, 3.400212
1150.667, 2.806805
1151.149, 2.347642
1151.631, 2.080709
1152.113, 2.122258
1152.595, 2.587992
1153.077, 3.066381
1153.559, 3.556573
1154.042, 3.990473
1154.524, 4.377389
1155.006, 4.646183
1155.488, 4.655465
1155.970, 4.415216
1156.452, 3.936172
1156.934, 2.991591
1157.416, 2.200023
1157.898, 1.429320
1158.381, 1.127118
1158.863, 1.963044
1159.345, 3.536517
1159.827, 4.227236
1160.309, 4.169591
1160.791, 3.890286
1161.273, 3.380688
1161.755, 3.013331
1162.238, 2.933711
1162.720, 2.966134
1163.202, 2.921556
1163.684, 2.821017
1164.166, 2.801376
1164.648, 2.864475
1165.130, 2.968000
1165.612, 3.328205
1166.094, 3.431715
1166.577, 2.776958
1167.059, 1.932533
1167.541, 1.835006
1168.023, 2.428400
1168.505, 3.167856
1168.987, 4.004458
1169.469, 4.330195
1169.951, 2.939254
1170.433, 1.682029
1170.916, 1.890624
1171.398, 3.023692
1171.880, 3.916885
1172.362, 4.572111
1172.844, 4.614374
1173.326, 3.896020
1173.808, 3.154533
1174.290, 3.078780
1174.773, 3.167010
1175.255, 2.890991
1175.737, 2.388964
1176.219, 2.652407
1176.701, 3.742217
1177.183, 4.297887
1177.665, 3.843362
1178.147, 3.147530
1178.630, 2.817789
1179.112, 2.699798
1179.594, 2.646018
1180.076, 2.643748
1180.558, 2.842046
1181.040, 3.270161
1181.522, 3.628254
1182.004, 3.788525
1182.486, 3.861817
1182.969, 4.023563
1183.451, 3.900068
1183.933, 3.996638
1184.415, 3.535665
1184.897, 3.135360
1185.379, 2.770812
1185.861, 2.622373
1186.343, 2.923597
1186.825, 3.297075
1187.308, 3.335768
1187.790, 3.127438
1188.272, 2.748155
1188.754, 1.962175
1189.236, 1.880313
1189.718, 2.650370
1190.200, 3.363312
1190.682, 3.306354
1191.165, 2.965575
1191.647, 2.981078
1192.129, 3.187341
1192.611, 3.242219
1193.093, 2.988897
1193.575, 2.805718
1194.057, 2.706235
1194.539, 2.640808
1195.021, 2.575152
1195.504, 2.515308
1195.986, 2.401129
1196.468, 2.301128
1196.950, 2.431943
1197.432, 3.003505
1197.914, 3.402303
1198.396, 3.568688
1198.878, 3.643163
1199.360, 3.731631
1199.843, 3.826977
1200.325, 3.967955
1200.807, 4.114177
1201.289, 4.089146
1201.771, 3.786562
1202.253, 3.439594
1202.735, 2.982363
1203.217, 2.787278
1203.700, 3.616826
1204.182, 4.762517
1204.664, 5.208797
1205.146, 4.959795
1205.628, 4.508586
1206.110, 3.672125
1206.592, 3.299558
1207.074, 3.649098
1207.557, 4.127275
1208.039, 3.896740
1208.521, 3.370299
1209.003, 3.216850
1209.485, 3.455518
1209.967, 3.378229
1210.449, 2.684100
1210.931, 2.216166
1211.413, 2.198811
1211.896, 2.327573
1212.378, 2.040009
1212.860, 1.708486
1213.342, 2.026409
1213.824, 3.068141
1214.306, 3.655723
1214.788, 3.549057
1215.270, 3.351283
1215.752, 3.189501
1216.235, 3.085272
1216.717, 3.111848
1217.199, 3.193738
1217.681, 3.233348
1218.163, 3.217083
1218.645, 3.108123
1219.127, 2.841803
1219.609, 2.680359
1220.092, 2.712677
1220.574, 2.872605
1221.056, 3.106793
1221.538, 3.381798
1222.020, 3.724296
1222.502, 4.181121
1222.984, 4.073936
1223.466, 3.050264
1223.948, 2.653945
1224.431, 3.706620
1224.913, 5.127525
1225.395, 5.438751
1225.877, 5.061805
1226.359, 4.514342
1226.841, 3.813637
1227.323, 3.304039
1227.805, 2.973884
1228.287, 2.924553
1228.770, 3.335058
1229.252, 3.794697
1229.734, 3.770945
1230.216, 3.425861
1230.698, 2.860925
1231.180, 1.930036
1231.662, 1.853950
1232.144, 2.808002
1232.627, 3.587576
1233.109, 3.538944
1233.591, 3.230702
1234.073, 3.351360
1234.555, 3.634098
1235.037, 3.716041
1235.519, 3.545314
1236.001, 3.312684
1236.484, 3.030441
1236.966, 2.551665
1237.448, 1.477406
1237.930, 0.6847708
1238.412, 1.480665
1238.894, 2.885493
1239.376, 3.485904
1239.858, 3.082858
1240.340, 3.077897
1240.823, 3.490702
1241.305, 3.858445
1241.787, 3.923988
1242.269, 3.858464
1242.751, 3.737974
1243.233, 3.608620
1243.715, 3.549876
1244.197, 3.583528
1244.679, 3.374064
1245.162, 2.930210
1245.644, 2.761696
1246.126, 3.566518
1246.608, 4.172968
1247.090, 3.504754
1247.572, 2.391330
1248.054, 1.731679
1248.536, 1.515153
1249.019, 2.057642
1249.501, 3.256044
1249.983, 4.000077
1250.465, 3.163383
1250.947, 2.352588
1251.429, 2.380656
1251.911, 2.850983
1252.393, 3.528487
1252.875, 4.380301
1253.358, 4.796836
1253.840, 4.800987
1254.322, 4.568293
1254.804, 4.072775
1255.286, 3.499415
1255.768, 2.756422
1256.250, 2.118356
1256.732, 1.785351
1257.214, 1.765331
1257.697, 2.276498
1258.179, 3.191629
1258.661, 3.918087
1259.143, 4.166747
1259.625, 4.214261
1260.107, 4.042839
1260.589, 3.832458
1261.071, 3.773565
1261.554, 3.789043
1262.036, 3.549827
1262.518, 3.158498
1263.000, 2.961145
1263.482, 3.342429
1263.964, 3.513196
1264.446, 3.320746
1264.928, 3.112105
1265.411, 3.248446
1265.893, 3.530403
1266.375, 3.554433
1266.857, 3.401014
1267.339, 3.294430
1267.821, 3.204396
1268.303, 3.400737
1268.785, 4.000953
1269.267, 4.465213
1269.750, 4.158926
1270.232, 3.626323
1270.714, 3.624429
1271.196, 3.943426
1271.678, 4.085567
1272.160, 4.003378
1272.642, 3.688309
1273.124, 3.091101
1273.606, 2.694611
1274.089, 3.134792
1274.571, 3.653741
1275.053, 3.383805
1275.535, 3.767725
1276.017, 2.811828
1276.499, 3.628782
1276.981, 3.641121
1277.463, 2.833385
1277.946, 2.310488
1278.428, 3.223584
1278.910, 4.171853
1279.392, 4.216753
1279.874, 4.511496
1280.356, 3.726099
1280.838, 3.827679
1281.320, 3.118441
1281.802, 1.735127
1282.285, 0.9219949
1282.767, 1.889889
1283.249, 2.857748
1283.731, 3.132821
1284.213, 3.747585
1284.695, 3.565257
1285.177, 4.089440
1285.659, 4.040748
1286.141, 3.569650
1286.624, 3.310086
1287.106, 3.818936
1287.588, 4.143464
1288.070, 4.186855
1288.552, 3.986348
1289.034, 3.287601
1289.516, 2.495574
1289.998, 2.693092
1290.481, 3.549940
1290.963, 4.210649
1291.445, 4.213760
1291.927, 4.462414
1292.409, 5.089379
1292.891, 5.451010
1293.373, 4.923165
1293.855, 4.000358
1294.338, 3.051898
1294.820, 2.247935
1295.302, 1.969592
1295.784, 2.294133
1296.266, 2.848353
1296.748, 3.656966
1297.230, 4.249555
1297.712, 4.249189
1298.194, 4.026376
1298.677, 3.817547
1299.159, 3.578791
1299.641, 3.200904
1300.123, 2.668766
1300.605, 2.699044
1301.087, 3.215414
1301.569, 3.520823
1302.051, 3.033062
1302.533, 2.626861
1303.016, 2.589891
##END=



