##NAMES=Kobellite
##RRUFFID=R070669
##IDEAL CHEMISTRY=Pb^2+^_11_(Cu^1+^,Fe^2+^)_2_(Bi^3+^,Sb^3+^)_15_S^2-^_35_
##LOCALITY=Jedlovec (Fichtenhubel) deposit, Smolník ore belt, Slovenske Rudohorie Mts, Koický Kraj, Slovak Republic
##OWNER=RRUFF
##SOURCE=Michael Scott
##DESCRIPTION=Steel gray metallic massive associated with chalcopyrite and siderite
##STATUS=The identification of this mineral is confirmed by single-crystal X-ray diffraction and chemical analysis.
##URL=rruff.info/R070669
##MEASURED CHEMISTRY=(Pb_9.66_Ag_0.25_Bi_0.94_)_Σ=10.85_(Cu_1.40_Fe_0.61_)_Σ=2.01_(Sb_7.71_Bi_7.29_)_Σ=15.00_S_35_
128.4501, 1611.554
128.9322, 1619.280
129.4144, 1623.179
129.8965, 1621.969
130.3786, 1614.284
130.8607, 1605.810
131.3428, 1601.269
131.8249, 1594.713
132.3071, 1577.943
132.7892, 1554.118
133.2713, 1541.664
133.7534, 1533.985
134.2355, 1546.758
134.7176, 1552.762
135.1998, 1552.362
135.6819, 1526.379
136.1640, 1533.432
136.6461, 1527.246
137.1282, 1520.517
137.6103, 1532.220
138.0925, 1509.957
138.5746, 1521.368
139.0567, 1519.337
139.5388, 1523.458
140.0209, 1514.257
140.5030, 1509.171
140.9852, 1517.411
141.4673, 1518.272
141.9494, 1507.538
142.4315, 1512.050
142.9136, 1489.322
143.3957, 1490.498
143.8779, 1501.986
144.3600, 1491.922
144.8421, 1496.677
145.3242, 1474.651
145.8063, 1481.819
146.2884, 1490.809
146.7705, 1502.657
147.2527, 1517.050
147.7348, 1523.655
148.2169, 1518.881
148.6990, 1508.949
149.1811, 1499.092
149.6632, 1480.473
150.1454, 1471.740
150.6275, 1479.781
151.1096, 1513.321
151.5917, 1535.262
152.0738, 1535.184
152.5559, 1525.966
153.0381, 1526.676
153.5202, 1552.587
154.0023, 1576.369
154.4844, 1588.560
154.9665, 1581.215
155.4486, 1574.243
155.9308, 1569.893
156.4129, 1567.556
156.8950, 1565.385
157.3771, 1563.590
157.8592, 1561.556
158.3413, 1558.957
158.8235, 1552.859
159.3056, 1549.071
159.7877, 1552.261
160.2698, 1561.566
160.7519, 1564.933
161.2340, 1551.568
161.7162, 1533.241
162.1983, 1521.411
162.6804, 1526.842
163.1625, 1533.695
163.6446, 1533.713
164.1267, 1525.386
164.6089, 1518.133
165.0910, 1518.022
165.5731, 1521.552
166.0552, 1523.090
166.5373, 1516.529
167.0194, 1509.332
167.5016, 1507.455
167.9837, 1513.804
168.4658, 1520.585
168.9479, 1522.704
169.4300, 1521.319
169.9121, 1519.774
170.3943, 1519.045
170.8764, 1519.468
171.3585, 1521.746
171.8406, 1528.317
172.3227, 1534.174
172.8048, 1533.580
173.2870, 1527.329
173.7691, 1521.836
174.2512, 1523.788
174.7333, 1529.248
175.2154, 1531.809
175.6975, 1525.947
176.1797, 1517.404
176.6618, 1512.637
177.1439, 1511.734
177.6260, 1512.934
178.1081, 1515.607
178.5902, 1519.268
179.0724, 1522.552
179.5545, 1523.276
180.0366, 1523.556
180.5187, 1528.346
181.0008, 1539.230
181.4829, 1549.764
181.9651, 1551.991
182.4472, 1546.830
182.9293, 1539.430
183.4114, 1529.041
183.8935, 1518.515
184.3756, 1517.141
184.8578, 1529.929
185.3399, 1546.449
185.8220, 1546.280
186.3041, 1530.119
186.7862, 1515.085
187.2683, 1516.699
187.7504, 1531.611
188.2326, 1543.883
188.7147, 1549.571
189.1968, 1550.398
189.6789, 1550.711
190.1610, 1550.695
190.6431, 1548.252
191.1253, 1537.502
191.6074, 1519.639
192.0895, 1509.383
192.5716, 1516.188
193.0537, 1535.206
193.5358, 1543.122
194.0180, 1538.073
194.5001, 1528.073
194.9822, 1520.918
195.4643, 1516.402
195.9464, 1519.283
196.4285, 1538.456
196.9107, 1572.286
197.3928, 1587.180
197.8749, 1578.307
198.3570, 1558.102
198.8391, 1548.772
199.3212, 1551.693
199.8034, 1555.796
200.2855, 1553.710
200.7676, 1544.790
201.2497, 1541.094
201.7318, 1543.513
202.2139, 1551.515
202.6961, 1566.983
203.1782, 1593.321
203.6603, 1614.375
204.1424, 1615.995
204.6245, 1594.672
205.1066, 1577.569
205.5888, 1568.490
206.0709, 1566.343
206.5530, 1565.929
207.0351, 1567.252
207.5172, 1570.414
207.9993, 1575.568
208.4815, 1582.866
208.9636, 1592.105
209.4457, 1604.788
209.9278, 1620.539
210.4099, 1630.388
210.8920, 1633.273
211.3742, 1631.966
211.8563, 1628.723
212.3384, 1622.306
212.8205, 1617.598
213.3026, 1615.958
213.7847, 1617.533
214.2669, 1621.401
214.7490, 1630.858
215.2311, 1639.198
215.7132, 1633.103
216.1953, 1603.747
216.6774, 1580.871
217.1596, 1576.901
217.6417, 1596.820
218.1238, 1614.791
218.6059, 1631.961
219.0880, 1646.529
219.5701, 1653.846
220.0523, 1649.532
220.5344, 1646.146
221.0165, 1649.813
221.4986, 1663.680
221.9807, 1676.517
222.4628, 1690.329
222.9450, 1702.561
223.4271, 1704.019
223.9092, 1689.067
224.3913, 1671.976
224.8734, 1660.442
225.3555, 1654.855
225.8377, 1654.064
226.3198, 1659.548
226.8019, 1670.088
227.2840, 1679.638
227.7661, 1691.263
228.2482, 1697.835
228.7303, 1691.414
229.2125, 1659.661
229.6946, 1642.451
230.1767, 1649.387
230.6588, 1679.018
231.1409, 1701.773
231.6230, 1716.577
232.1052, 1725.785
232.5873, 1730.679
233.0694, 1728.846
233.5515, 1727.269
234.0336, 1726.423
234.5157, 1726.116
234.9979, 1731.682
235.4800, 1752.830
235.9621, 1771.534
236.4442, 1764.753
236.9263, 1711.751
237.4084, 1669.941
237.8906, 1653.624
238.3727, 1666.497
238.8548, 1682.862
239.3369, 1709.631
239.8190, 1734.996
240.3011, 1740.824
240.7833, 1712.497
241.2654, 1688.346
241.7475, 1679.846
242.2296, 1690.828
242.7117, 1703.494
243.1938, 1722.555
243.6760, 1740.807
244.1581, 1743.717
244.6402, 1719.553
245.1223, 1698.329
245.6044, 1692.700
246.0865, 1711.967
246.5687, 1719.280
247.0508, 1708.567
247.5329, 1688.103
248.0150, 1677.001
248.4971, 1681.789
248.9792, 1686.079
249.4614, 1682.111
249.9435, 1664.244
250.4256, 1651.638
250.9077, 1645.555
251.3898, 1644.597
251.8719, 1645.376
252.3541, 1650.618
252.8362, 1653.573
253.3183, 1650.222
253.8004, 1636.840
254.2825, 1626.592
254.7646, 1622.143
255.2468, 1621.207
255.7289, 1614.471
256.2110, 1597.705
256.6931, 1581.602
257.1752, 1573.078
257.6573, 1576.655
258.1395, 1576.529
258.6216, 1571.277
259.1037, 1561.269
259.5858, 1548.049
260.0679, 1529.200
260.5500, 1510.689
261.0322, 1496.388
261.5143, 1486.273
261.9964, 1481.077
262.4785, 1484.454
262.9606, 1493.620
263.4427, 1489.361
263.9249, 1466.050
264.4070, 1438.430
264.8891, 1416.881
265.3712, 1402.118
265.8533, 1391.882
266.3354, 1386.772
266.8176, 1386.181
267.2997, 1385.604
267.7818, 1386.933
268.2639, 1384.889
268.7460, 1371.836
269.2281, 1342.196
269.7103, 1323.136
270.1924, 1323.750
270.6745, 1341.342
271.1566, 1346.516
271.6387, 1336.461
272.1208, 1319.878
272.6030, 1303.889
273.0851, 1287.757
273.5672, 1276.009
274.0493, 1271.604
274.5314, 1273.384
275.0135, 1267.775
275.4957, 1251.923
275.9778, 1235.487
276.4599, 1230.652
276.9420, 1239.613
277.4241, 1246.021
277.9063, 1246.837
278.3884, 1241.897
278.8705, 1226.643
279.3526, 1197.630
279.8347, 1167.884
280.3168, 1152.123
280.7990, 1151.157
281.2811, 1155.135
281.7632, 1165.099
282.2453, 1178.743
282.7274, 1176.235
283.2095, 1153.653
283.6917, 1128.635
284.1738, 1125.242
284.6559, 1143.811
285.1380, 1156.650
285.6201, 1153.028
286.1022, 1135.891
286.5844, 1119.513
287.0665, 1103.630
287.5486, 1089.617
288.0307, 1078.966
288.5128, 1071.636
288.9949, 1067.228
289.4771, 1067.419
289.9591, 1070.554
290.4413, 1070.182
290.9234, 1066.198
291.4055, 1059.297
291.8876, 1048.692
292.3697, 1035.008
292.8518, 1022.720
293.3340, 1014.464
293.8161, 1008.864
294.2982, 1001.271
294.7803, 991.1368
295.2624, 982.8658
295.7445, 983.8284
296.2267, 991.6724
296.7088, 996.2095
297.1909, 991.4049
297.6730, 980.8484
298.1551, 971.9216
298.6372, 964.5208
299.1194, 958.8856
299.6015, 957.4136
300.0836, 958.3303
300.5657, 956.5166
301.0478, 946.9831
301.5299, 934.4116
302.0121, 926.9910
302.4942, 925.0402
302.9763, 922.6619
303.4584, 912.4746
303.9405, 897.8240
304.4226, 885.7100
304.9048, 882.0499
305.3869, 881.0856
305.8690, 875.6748
306.3511, 865.4841
306.8332, 855.3121
307.3153, 849.3854
307.7975, 845.9479
308.2796, 830.3560
308.7617, 844.8126
309.2438, 852.5015
309.7259, 853.7868
310.2080, 829.4880
310.6902, 838.2255
311.1723, 833.7236
311.6544, 828.6790
312.1365, 842.0663
312.6186, 821.4888
313.1007, 834.5839
313.5829, 834.2372
314.0650, 840.0427
314.5471, 832.5269
315.0292, 829.1256
315.5113, 839.0499
315.9934, 829.2554
316.4756, 813.8153
316.9577, 800.8251
317.4398, 803.6060
317.9219, 822.3151
318.4040, 834.9000
318.8861, 827.7254
319.3683, 812.6178
319.8504, 800.8216
320.3325, 795.2415
320.8146, 793.5355
321.2967, 798.9095
321.7788, 811.0007
322.2610, 814.8002
322.7431, 797.1444
323.2252, 774.7003
323.7073, 760.7491
324.1894, 764.5656
324.6715, 769.7354
325.1537, 773.8115
325.6358, 776.7202
326.1179, 778.2175
326.6000, 778.7171
327.0821, 777.5526
327.5642, 774.2656
328.0464, 767.5112
328.5285, 760.0851
329.0106, 751.7786
329.4927, 742.7302
329.9748, 734.3522
330.4569, 725.9293
330.9391, 718.6778
331.4212, 713.2974
331.9033, 709.5583
332.3854, 708.3870
332.8675, 712.5849
333.3496, 720.4390
333.8318, 719.8825
334.3139, 705.2861
334.7960, 689.5860
335.2781, 680.7748
335.7602, 681.2179
336.2423, 683.2189
336.7245, 687.8438
337.2066, 693.4188
337.6887, 693.1370
338.1708, 685.0540
338.6529, 675.3381
339.1350, 667.0447
339.6172, 660.1782
340.0993, 655.3506
340.5814, 653.4160
341.0635, 652.9362
341.5456, 649.3296
342.0277, 641.5839
342.5099, 635.5431
342.9920, 635.3120
343.4741, 640.8926
343.9562, 646.6790
344.4383, 653.4423
344.9204, 658.4073
345.4026, 654.4590
345.8847, 641.3489
346.3668, 629.6957
346.8489, 625.2958
347.3310, 627.1323
347.8131, 631.5266
348.2953, 639.4045
348.7774, 645.9410
349.2595, 642.3167
349.7416, 630.1640
350.2237, 619.7902
350.7058, 618.2452
351.1880, 621.5327
351.6701, 620.9226
352.1522, 615.6087
352.6343, 609.5668
353.1164, 605.6863
353.5985, 604.2162
354.0807, 605.7933
354.5628, 615.6773
355.0449, 626.2812
355.5270, 627.3227
356.0091, 618.1164
356.4912, 608.4516
356.9734, 607.5486
357.4555, 610.6292
357.9376, 610.3655
358.4197, 598.5024
358.9018, 586.3553
359.3839, 582.4063
359.8661, 586.5869
360.3482, 591.5762
360.8303, 595.5071
361.3124, 597.5411
361.7945, 596.8203
362.2766, 587.2872
362.7588, 580.4261
363.2409, 583.7865
363.7230, 595.8323
364.2051, 602.6194
364.6872, 591.5020
365.1693, 578.4888
365.6515, 574.6980
366.1336, 600.1348
366.6157, 615.1918
367.0978, 605.4407
367.5799, 576.9692
368.0620, 559.8067
368.5442, 566.2271
369.0263, 577.5414
369.5084, 584.9525
369.9905, 586.8851
370.4726, 586.8190
370.9547, 582.9489
371.4369, 577.1522
371.9190, 574.8438
372.4011, 578.6733
372.8832, 582.6013
373.3653, 584.7925
373.8474, 586.5308
374.3295, 582.0857
374.8116, 567.4207
375.2938, 549.4122
375.7759, 541.5167
376.2580, 546.2387
376.7401, 553.9048
377.2222, 562.4636
377.7043, 572.3985
378.1865, 575.3225
378.6686, 569.1550
379.1507, 560.4949
379.6328, 558.9152
380.1149, 564.9280
380.5970, 569.6830
381.0792, 569.4726
381.5613, 565.5160
382.0434, 563.7542
382.5255, 564.4506
383.0076, 565.5985
383.4897, 564.6661
383.9719, 562.2478
384.4540, 561.1865
384.9361, 563.6481
385.4182, 566.9632
385.9003, 565.9819
386.3824, 560.9452
386.8646, 554.7889
387.3467, 547.4001
387.8288, 540.8309
388.3109, 539.5754
388.7930, 548.0284
389.2751, 556.8366
389.7573, 554.6558
390.2394, 544.4456
390.7215, 536.7543
391.2036, 539.1382
391.6857, 545.7763
392.1678, 552.3995
392.6500, 559.9979
393.1321, 562.9755
393.6142, 552.0924
394.0963, 534.6870
394.5784, 525.2806
395.0605, 535.7543
395.5427, 550.0795
396.0248, 562.7778
396.5069, 575.1542
396.9890, 577.7892
397.4711, 557.5570
397.9532, 529.7830
398.4354, 513.7388
398.9175, 521.5615
399.3996, 531.6031
399.8817, 539.0900
400.3638, 543.5812
400.8459, 549.5714
401.3281, 561.4181
401.8102, 571.6478
402.2923, 573.1345
402.7744, 558.7682
403.2565, 548.9195
403.7386, 548.0887
404.2208, 554.6434
404.7029, 556.8995
405.1850, 553.4578
405.6671, 548.3690
406.1492, 543.8353
406.6313, 539.4756
407.1135, 538.7729
407.5956, 544.6400
408.0777, 551.7967
408.5598, 543.8433
409.0419, 518.9985
409.5240, 498.9717
410.0062, 500.4910
410.4883, 519.4836
410.9704, 530.3391
411.4525, 530.7114
411.9346, 526.9108
412.4167, 526.8622
412.8989, 529.8483
413.3810, 532.6259
413.8631, 534.2814
414.3452, 534.5577
414.8273, 531.6531
415.3094, 525.3628
415.7916, 521.0846
416.2737, 525.5631
416.7558, 534.5051
417.2379, 541.2373
417.7200, 541.7028
418.2021, 540.5055
418.6843, 540.7079
419.1664, 542.0977
419.6485, 543.3214
420.1306, 545.0887
420.6127, 545.6575
421.0948, 543.2850
421.5770, 533.5932
422.0591, 526.8098
422.5412, 528.1520
423.0233, 534.7792
423.5054, 538.7939
423.9875, 535.2814
424.4697, 531.7495
424.9518, 531.5818
425.4339, 537.7823
425.9160, 540.9437
426.3981, 540.7393
426.8802, 537.5778
427.3624, 531.3388
427.8445, 516.3107
428.3266, 507.3781
428.8087, 510.7301
429.2908, 526.9551
429.7729, 534.7927
430.2551, 531.1461
430.7372, 524.1993
431.2193, 522.3998
431.7014, 527.0944
432.1835, 527.4834
432.6656, 519.3968
433.1478, 506.8861
433.6299, 503.6499
434.1120, 510.2350
434.5941, 518.7495
435.0762, 525.1735
435.5583, 529.2833
436.0405, 529.9063
436.5226, 526.3803
437.0047, 520.7184
437.4868, 511.9209
437.9689, 502.2489
438.4510, 500.1597
438.9332, 519.9968
439.4153, 545.2262
439.8974, 555.4547
440.3795, 548.9158
440.8616, 535.2257
441.3438, 512.7296
441.8259, 489.5557
442.3080, 476.3524
442.7901, 483.8055
443.2722, 496.0524
443.7543, 507.6288
444.2365, 518.0685
444.7186, 525.2841
445.2007, 529.1170
445.6828, 529.1270
446.1649, 524.8090
446.6470, 508.0434
447.1292, 497.6515
447.6113, 499.7283
448.0934, 509.6363
448.5755, 514.7344
449.0576, 510.9374
449.5397, 507.0502
450.0219, 506.0068
450.5040, 508.2758
450.9861, 511.8895
451.4682, 518.4736
451.9503, 524.6614
452.4324, 525.2751
452.9146, 518.8274
453.3967, 513.4014
453.8788, 511.8768
454.3609, 513.1389
454.8430, 510.4293
455.3251, 502.9243
455.8072, 497.1066
456.2893, 501.2434
456.7715, 512.9665
457.2536, 519.1595
457.7357, 516.1229
458.2178, 509.4604
458.6999, 506.0969
459.1820, 505.8611
459.6642, 507.8654
460.1463, 514.0416
460.6284, 521.0958
461.1105, 525.2230
461.5926, 526.0831
462.0747, 523.9025
462.5569, 515.6043
463.0390, 505.1259
463.5211, 498.0820
464.0032, 501.2370
464.4853, 503.8940
464.9674, 498.2586
465.4496, 485.3682
465.9317, 479.9065
466.4138, 495.3970
466.8959, 513.1651
467.3780, 521.7220
467.8601, 509.0869
468.3423, 500.5644
468.8244, 499.7742
469.3065, 503.2378
469.7886, 501.4272
470.2707, 488.5778
470.7528, 479.7513
471.2350, 482.9027
471.7171, 501.0076
472.1992, 507.2886
472.6813, 498.1099
473.1634, 483.2734
473.6455, 473.2531
474.1277, 467.9187
474.6098, 468.9799
475.0919, 479.5407
475.5740, 495.2337
476.0561, 504.4836
476.5382, 507.3185
477.0204, 505.9036
477.5025, 499.1519
477.9846, 489.6580
478.4667, 483.1991
478.9488, 481.1333
479.4309, 480.8620
479.9131, 479.5752
480.3952, 478.1153
480.8773, 478.4221
481.3594, 484.6187
481.8415, 490.5589
482.3236, 490.5065
482.8058, 483.8015
483.2879, 479.6626
483.7700, 483.1888
484.2521, 490.2173
484.7342, 497.0738
485.2163, 506.4304
485.6985, 511.5766
486.1806, 509.8579
486.6627, 502.4920
487.1448, 495.5798
487.6269, 488.1184
488.1090, 482.3589
488.5912, 479.4805
489.0733, 480.3737
489.5554, 481.1443
490.0375, 481.5082
490.5196, 482.1284
491.0017, 484.3658
491.4839, 488.6471
491.9660, 491.9038
492.4481, 493.4738
492.9302, 493.3287
493.4123, 490.2453
493.8944, 484.0027
494.3766, 479.0567
494.8587, 481.1435
495.3408, 487.2649
495.8229, 489.4273
496.3050, 485.7598
496.7871, 478.9026
497.2693, 466.8222
497.7514, 453.2798
498.2335, 448.1229
498.7156, 466.3114
499.1977, 487.3017
499.6798, 495.7430
500.1620, 490.0319
500.6441, 481.7305
501.1262, 471.3679
501.6083, 462.7272
502.0904, 459.0505
502.5725, 466.9553
503.0547, 473.1209
503.5368, 474.2816
504.0189, 471.8543
504.5010, 471.9074
504.9831, 478.0535
505.4652, 482.0712
505.9474, 479.5261
506.4295, 467.8159
506.9116, 461.7566
507.3937, 462.4742
507.8758, 467.0564
508.3579, 472.7508
508.8401, 479.8064
509.3222, 485.1927
509.8043, 488.4999
510.2864, 489.4713
510.7685, 486.5391
511.2506, 479.7930
511.7328, 472.7374
512.2148, 467.9306
512.6970, 464.5834
513.1791, 460.5053
513.6612, 454.6989
514.1433, 451.0177
514.6254, 454.8515
515.1075, 462.9157
515.5897, 469.2819
516.0718, 472.6122
516.5539, 472.6375
517.0360, 466.6700
517.5181, 455.1846
518.0002, 448.2431
518.4824, 453.8228
518.9645, 461.4300
519.4466, 464.3815
519.9287, 456.2095
520.4108, 451.3676
520.8929, 450.9372
521.3751, 453.5668
521.8572, 457.1876
522.3393, 463.2129
522.8214, 467.1006
523.3035, 466.5877
523.7856, 461.9128
524.2678, 459.6582
524.7499, 460.2278
525.2320, 461.7000
525.7141, 461.9182
526.1962, 461.2372
526.6783, 463.0300
527.1605, 469.8965
527.6426, 475.4972
528.1247, 467.7246
528.6068, 449.9065
529.0889, 433.9684
529.5710, 424.6701
530.0532, 421.3806
530.5353, 425.5139
531.0174, 437.4929
531.4995, 448.1487
531.9816, 451.1901
532.4637, 451.2944
532.9459, 452.9577
533.4280, 460.6968
533.9101, 466.1835
534.3922, 466.8600
534.8743, 463.9091
535.3564, 461.2157
535.8386, 458.5935
536.3207, 456.6551
536.8028, 456.6035
537.2849, 459.4713
537.7670, 455.2940
538.2491, 439.5603
538.7313, 424.6659
539.2134, 426.7346
539.6955, 447.1363
540.1776, 459.3112
540.6597, 455.5703
541.1418, 444.1824
541.6240, 443.2495
542.1061, 451.5134
542.5882, 458.1499
543.0703, 455.7365
543.5524, 448.0590
544.0345, 438.9061
544.5167, 428.1787
544.9988, 421.6631
545.4809, 426.3966
545.9630, 436.5174
546.4451, 445.3248
546.9272, 453.0533
547.4094, 456.5031
547.8915, 451.1397
548.3736, 439.9746
548.8557, 433.2471
549.3378, 436.9293
549.8199, 441.1621
550.3021, 442.2448
550.7842, 439.1077
551.2663, 437.6225
551.7484, 437.3335
552.2305, 439.2760
552.7126, 446.5241
553.1948, 460.9762
553.6769, 468.1135
554.1590, 464.4155
554.6411, 453.0924
555.1232, 437.7497
555.6053, 418.9000
556.0875, 407.5243
556.5696, 417.1132
557.0517, 436.0709
557.5338, 441.9065
558.0159, 433.0525
558.4980, 424.1134
558.9802, 429.5599
559.4623, 440.4674
559.9444, 445.4363
560.4265, 439.7466
560.9086, 429.7410
561.3907, 410.8711
561.8729, 388.9750
562.3550, 380.0185
562.8371, 399.9224
563.3192, 420.9848
563.8013, 433.8349
564.2834, 437.6728
564.7656, 440.7840
565.2477, 444.9420
565.7298, 446.0557
566.2119, 439.0450
566.6940, 421.8372
567.1761, 407.6371
567.6583, 396.2540
568.1404, 391.0553
568.6225, 405.2691
569.1046, 436.6402
569.5867, 457.2639
570.0688, 444.3319
570.5510, 415.5150
571.0331, 400.8977
571.5152, 400.6302
571.9973, 403.9680
572.4794, 405.5405
572.9615, 405.8824
573.4437, 404.8968
573.9258, 399.7532
574.4079, 398.8796
574.8900, 411.2647
575.3721, 429.1410
575.8542, 438.4294
576.3364, 427.2565
576.8185, 417.9788
577.3006, 416.3786
577.7827, 422.1096
578.2648, 425.3969
578.7469, 425.0273
579.2291, 424.4014
579.7112, 426.2498
580.1933, 430.8743
580.6754, 432.8689
581.1575, 431.1975
581.6396, 429.0111
582.1218, 432.3116
582.6039, 439.5476
583.0860, 443.2427
583.5681, 438.4507
584.0502, 430.9182
584.5323, 428.0039
585.0145, 428.8298
585.4966, 429.3201
585.9787, 426.4160
586.4608, 422.8330
586.9429, 420.2643
587.4250, 418.7646
587.9072, 419.1223
588.3893, 423.9760
588.8714, 429.6512
589.3535, 432.1469
589.8356, 426.4456
590.3177, 425.3127
590.7999, 432.5797
591.2820, 444.5856
591.7641, 450.6419
592.2462, 450.2788
592.7283, 445.6126
593.2104, 433.8903
593.6926, 417.3029
594.1747, 414.5774
594.6568, 426.9048
595.1389, 440.2634
595.6210, 439.7525
596.1031, 431.2567
596.5853, 426.9281
597.0674, 430.6263
597.5495, 435.7121
598.0316, 436.5652
598.5137, 435.0143
598.9958, 434.4240
599.4780, 439.2218
599.9601, 442.1394
600.4422, 439.0580
600.9243, 430.1832
601.4064, 423.5289
601.8885, 421.2260
602.3707, 419.7940
602.8528, 417.3968
603.3349, 413.3207
603.8170, 411.0432
604.2991, 411.1030
604.7813, 412.0381
605.2634, 411.7052
605.7455, 410.1482
606.2276, 409.7035
606.7097, 411.3627
607.1918, 413.9505
607.6740, 415.9255
608.1561, 417.1922
608.6382, 417.3685
609.1203, 415.1357
609.6024, 412.3970
610.0845, 410.0121
610.5667, 407.9730
611.0488, 409.5700
611.5309, 423.1411
612.0130, 436.9234
612.4951, 441.4651
612.9772, 425.8771
613.4594, 414.2724
613.9415, 407.2991
614.4236, 404.9174
614.9057, 408.6799
615.3878, 423.4523
615.8699, 430.4872
616.3521, 421.0695
616.8342, 400.4225
617.3163, 395.5533
617.7984, 407.3080
618.2805, 418.7081
618.7626, 414.6748
619.2448, 402.3314
619.7269, 398.0027
620.2090, 403.4868
620.6911, 411.6516
621.1732, 419.2174
621.6553, 425.2980
622.1375, 428.7714
622.6196, 428.2276
623.1017, 426.3931
623.5838, 424.6343
624.0659, 422.2596
624.5480, 417.3988
625.0302, 403.7010
625.5123, 394.7746
625.9944, 395.6609
626.4765, 405.9959
626.9586, 413.4455
627.4407, 418.3245
627.9229, 419.4340
628.4050, 412.9280
628.8871, 399.9910
629.3692, 395.3741
629.8513, 401.4598
630.3334, 410.1945
630.8156, 412.2990
631.2977, 410.2654
631.7798, 409.7072
632.2619, 414.8124
632.7440, 419.1937
633.2261, 417.5347
633.7083, 411.4538
634.1904, 405.7644
634.6725, 402.1738
635.1546, 399.0701
635.6367, 394.5916
636.1188, 388.0191
636.6010, 388.1913
637.0831, 399.5370
637.5652, 411.9315
638.0473, 418.3138
638.5294, 417.8994
639.0115, 416.7782
639.4937, 414.9728
639.9758, 413.2374
640.4579, 413.9291
640.9400, 416.0615
641.4221, 414.3885
641.9042, 404.6677
642.3864, 393.6202
642.8685, 387.4310
643.3506, 386.1733
643.8327, 390.2838
644.3148, 408.9292
644.7969, 425.5102
645.2791, 428.9535
645.7612, 417.4524
646.2433, 408.2848
646.7254, 405.7859
647.2075, 404.9273
647.6896, 402.3495
648.1718, 394.7373
648.6539, 395.8918
649.1360, 410.6704
649.6181, 427.0120
650.1002, 424.8991
650.5823, 405.3069
651.0645, 392.4655
651.5466, 394.6048
652.0287, 404.0531
652.5108, 410.5522
652.9929, 414.1727
653.4750, 414.8574
653.9572, 410.7370
654.4393, 405.1832
654.9214, 398.5979
655.4035, 391.2591
655.8856, 390.0476
656.3677, 406.3328
656.8499, 422.6550
657.3320, 426.9011
657.8141, 411.7440
658.2962, 403.3170
658.7783, 404.6231
659.2604, 409.0963
659.7426, 408.4706
660.2246, 402.2231
660.7067, 396.8092
661.1888, 393.1087
661.6710, 391.4920
662.1531, 393.8879
662.6352, 399.3282
663.1173, 403.6933
663.5994, 402.1416
664.0815, 400.5168
664.5637, 406.4315
665.0458, 418.7099
665.5279, 426.7988
666.0100, 423.2111
666.4921, 416.5313
666.9742, 411.2655
667.4564, 407.7171
667.9385, 406.0992
668.4206, 406.7648
668.9027, 409.0204
669.3848, 413.1462
669.8669, 420.0242
670.3491, 422.8677
670.8312, 420.2772
671.3133, 414.5101
671.7954, 407.3727
672.2775, 399.6832
672.7596, 396.0284
673.2418, 401.1621
673.7239, 408.3383
674.2060, 410.4210
674.6881, 408.3124
675.1702, 405.6920
675.6523, 404.0342
676.1345, 402.4739
676.6166, 401.3065
677.0987, 401.0133
677.5808, 396.5265
678.0629, 380.9405
678.5450, 368.3491
679.0272, 370.0551
679.5093, 390.5896
679.9914, 402.4149
680.4735, 402.5447
680.9556, 398.4244
681.4377, 400.5067
681.9199, 407.1625
682.4020, 410.2011
682.8841, 405.5686
683.3662, 399.6928
683.8483, 399.8349
684.3304, 404.1720
684.8126, 408.2711
685.2947, 411.7380
685.7768, 413.0699
686.2589, 410.2086
686.7410, 403.5526
687.2231, 399.3144
687.7053, 399.8389
688.1874, 400.3706
688.6695, 398.5476
689.1516, 394.0118
689.6337, 390.9947
690.1158, 389.4006
690.5980, 389.6063
691.0801, 393.7597
691.5622, 400.3653
692.0443, 402.8224
692.5264, 399.5324
693.0085, 394.6864
693.4907, 391.0971
693.9728, 388.8633
694.4549, 388.1046
694.9370, 388.8413
695.4191, 391.0766
695.9012, 397.4575
696.3834, 405.4928
696.8655, 407.3867
697.3476, 397.3675
697.8297, 389.5883
698.3118, 388.0305
698.7939, 392.0299
699.2761, 397.5685
699.7582, 405.2720
700.2403, 410.3557
700.7224, 407.6014
701.2045, 400.2148
701.6866, 396.7329
702.1688, 397.5353
702.6509, 400.5769
703.1330, 407.3498
703.6151, 413.9871
704.0972, 416.7176
704.5793, 414.9955
705.0615, 408.8343
705.5436, 391.0415
706.0257, 371.9774
706.5078, 364.3668
706.9899, 373.4196
707.4720, 384.1518
707.9542, 396.6112
708.4363, 408.1400
708.9184, 411.5892
709.4005, 406.9265
709.8826, 402.0391
710.3647, 400.9795
710.8469, 400.7865
711.3290, 393.6137
711.8111, 381.6001
712.2932, 374.8916
712.7753, 383.8542
713.2574, 396.6488
713.7396, 406.3194
714.2217, 412.3240
714.7038, 414.9741
715.1859, 413.7274
715.6680, 409.4989
716.1501, 401.0449
716.6323, 384.2553
717.1144, 380.4443
717.5965, 394.1539
718.0786, 410.0332
718.5607, 408.4604
719.0428, 392.7823
719.5250, 383.6824
720.0071, 386.4602
720.4892, 392.4744
720.9713, 393.2598
721.4534, 390.5378
721.9355, 374.8911
722.4177, 390.2742
722.8998, 398.8899
723.3819, 401.1017
723.8640, 377.7296
724.3461, 387.3939
724.8282, 383.8187
725.3104, 379.7006
725.7925, 394.0146
726.2746, 374.3636
726.7567, 388.3853
727.2388, 388.9655
727.7209, 395.6975
728.2031, 389.1082
728.6852, 386.6335
729.1673, 397.4843
729.6494, 400.9567
730.1315, 392.8340
730.6136, 399.9570
731.0958, 379.8407
731.5779, 383.6273
732.0600, 397.7270
732.5421, 390.2740
733.0242, 397.6407
733.5063, 399.3632
733.9885, 375.4356
734.4706, 396.1161
734.9527, 397.5051
735.4348, 379.0859
735.9169, 398.2379
736.3990, 382.5495
736.8812, 379.2970
737.3633, 385.4033
737.8454, 381.7534
738.3275, 393.4853
738.8096, 390.3987
739.2917, 385.9883
739.7739, 387.3556
740.2560, 372.3504
740.7381, 387.7196
741.2202, 382.3405
741.7023, 387.2749
742.1844, 394.5470
742.6666, 383.9194
743.1487, 392.2419
743.6308, 371.1773
744.1129, 374.7019
744.5950, 375.5787
745.0771, 392.1724
745.5593, 371.2511
746.0414, 374.0926
746.5235, 387.0518
747.0056, 385.8539
747.4877, 390.5752
747.9698, 377.7732
748.4520, 381.4330
748.9341, 380.5553
749.4162, 387.9619
749.8983, 382.7350
750.3804, 380.6084
750.8625, 383.7102
751.3447, 388.3983
751.8268, 390.9369
752.3089, 391.1430
752.7910, 390.8345
753.2731, 390.8145
753.7552, 388.9794
754.2374, 377.7240
754.7195, 361.7365
755.2016, 354.7298
755.6837, 367.1871
756.1658, 383.3468
756.6479, 395.5412
757.1301, 402.9842
757.6122, 403.3769
758.0943, 389.5103
758.5764, 376.0575
759.0585, 365.9330
759.5406, 358.9290
760.0228, 354.1863
760.5049, 351.2538
760.9870, 352.4771
761.4691, 361.9748
761.9512, 375.8654
762.4333, 379.7328
762.9155, 374.4536
763.3976, 368.9952
763.8797, 370.0659
764.3618, 373.4147
764.8439, 375.6299
765.3260, 376.4102
765.8082, 375.6632
766.2903, 368.6041
766.7724, 363.9842
767.2545, 368.3922
767.7366, 386.8521
768.2188, 393.6783
768.7009, 385.5829
769.1830, 373.8177
769.6651, 367.3223
770.1472, 366.2017
770.6293, 373.0378
771.1115, 390.0861
771.5936, 405.6558
772.0757, 408.5678
772.5578, 403.1196
773.0399, 394.7163
773.5220, 379.4069
774.0042, 369.6559
774.4863, 372.9211
774.9684, 382.1182
775.4505, 386.5168
775.9326, 383.4867
776.4147, 382.7749
776.8969, 386.9988
777.3790, 393.1064
777.8611, 394.2105
778.3432, 390.9784
778.8253, 387.7121
779.3074, 385.8333
779.7896, 385.0266
780.2717, 386.2390
780.7538, 388.4038
781.2359, 388.3739
781.7180, 382.5109
782.2001, 376.7707
782.6823, 373.8732
783.1644, 373.2336
783.6465, 370.8279
784.1286, 364.7989
784.6107, 361.7877
785.0928, 366.1221
785.5750, 375.7920
786.0571, 380.9002
786.5392, 381.6470
787.0213, 382.8465
787.5034, 391.2866
787.9855, 399.7307
788.4677, 398.7316
788.9498, 387.5835
789.4319, 379.8554
789.9140, 385.0165
790.3961, 391.1450
790.8782, 390.7238
791.3604, 381.8466
791.8425, 376.2517
792.3246, 374.9356
792.8067, 374.6350
793.2888, 371.7026
793.7709, 367.1040
794.2531, 365.7374
794.7352, 368.0536
795.2173, 373.3926
795.6994, 386.0673
796.1815, 399.0945
796.6636, 403.3050
797.1458, 392.2111
797.6279, 383.0777
798.1100, 379.1181
798.5921, 379.6866
799.0742, 385.9995
799.5563, 402.3434
800.0385, 407.8828
800.5206, 397.9113
801.0027, 382.9761
801.4848, 378.6436
801.9669, 382.5899
802.4490, 386.9061
802.9312, 390.9586
803.4133, 391.4209
803.8954, 381.8261
804.3775, 367.8228
804.8596, 358.2764
805.3417, 357.3595
805.8239, 359.3539
806.3060, 364.6790
806.7881, 371.6142
807.2702, 378.0013
807.7523, 385.1310
808.2344, 382.6003
808.7166, 362.2498
809.1987, 337.6158
809.6808, 338.3113
810.1629, 358.0016
810.6450, 374.6248
811.1271, 373.9906
811.6093, 370.0036
812.0914, 371.6273
812.5735, 377.0357
813.0556, 378.6959
813.5377, 371.4407
814.0198, 365.6386
814.5020, 363.9107
814.9841, 365.7065
815.4662, 369.4169
815.9483, 375.2351
816.4304, 378.7448
816.9125, 376.4977
817.3947, 371.0322
817.8768, 365.0910
818.3589, 359.3117
818.8410, 356.5663
819.3231, 361.8099
819.8052, 367.4338
820.2874, 368.9659
820.7695, 366.1041
821.2516, 363.9451
821.7337, 361.8015
822.2158, 361.7164
822.6979, 366.0507
823.1801, 373.8174
823.6622, 376.2603
824.1443, 373.4402
824.6263, 369.4406
825.1085, 365.2281
825.5906, 362.5421
826.0727, 364.0192
826.5548, 369.8343
827.0369, 376.1076
827.5190, 385.1238
828.0012, 390.9524
828.4833, 389.7752
828.9654, 380.4522
829.4475, 373.3245
829.9296, 368.5698
830.4117, 365.5893
830.8939, 363.3402
831.3760, 362.5009
831.8581, 367.1779
832.3402, 377.6928
832.8223, 385.1707
833.3044, 379.7242
833.7866, 370.4456
834.2687, 364.6128
834.7508, 363.5307
835.2329, 365.3897
835.7150, 373.9186
836.1971, 380.7166
836.6793, 378.9831
837.1614, 368.0192
837.6435, 357.1730
838.1256, 345.8802
838.6077, 341.1272
839.0898, 357.3730
839.5720, 382.0186
840.0541, 393.8942
840.5362, 387.5562
841.0183, 379.6940
841.5004, 379.8849
841.9825, 380.8954
842.4647, 375.5794
842.9468, 357.3028
843.4289, 350.7846
843.9110, 359.9088
844.3931, 372.8168
844.8752, 376.5818
845.3574, 373.0959
845.8395, 372.7891
846.3216, 377.5279
846.8037, 381.4941
847.2858, 378.4538
847.7679, 372.4595
848.2501, 367.8081
848.7322, 364.4234
849.2143, 364.7527
849.6964, 372.8328
850.1785, 381.2184
850.6606, 382.3025
851.1428, 374.8960
851.6249, 370.5198
852.1070, 370.5392
852.5891, 371.7068
853.0712, 369.3860
853.5533, 365.7649
854.0355, 365.2600
854.5176, 369.8196
854.9997, 374.2723
855.4818, 376.8981
855.9639, 377.7918
856.4460, 376.5906
856.9282, 370.1620
857.4103, 369.6496
857.8924, 377.6790
858.3745, 387.0883
858.8566, 388.7430
859.3387, 384.1996
859.8209, 380.5109
860.3030, 378.5746
860.7851, 379.0497
861.2672, 386.5267
861.7493, 394.8264
862.2314, 396.5753
862.7136, 384.8745
863.1957, 376.4957
863.6778, 374.3582
864.1599, 374.4944
864.6420, 372.8989
865.1241, 369.4509
865.6063, 366.0238
866.0884, 362.5314
866.5705, 360.4248
867.0526, 364.0711
867.5347, 369.3653
868.0168, 368.3895
868.4990, 355.8480
868.9811, 347.4280
869.4632, 352.6111
869.9453, 362.6584
870.4274, 368.5688
870.9095, 368.2242
871.3917, 370.3061
871.8738, 375.8174
872.3559, 381.7473
872.8380, 384.7885
873.3201, 385.4761
873.8022, 385.4150
874.2844, 384.8534
874.7665, 383.6412
875.2486, 381.4720
875.7307, 378.7057
876.2128, 375.5787
876.6949, 371.3296
877.1771, 368.4363
877.6592, 367.5021
878.1413, 367.0029
878.6234, 365.0871
879.1055, 361.9623
879.5876, 360.7130
880.0698, 361.8282
880.5519, 362.8651
881.0340, 361.5293
881.5161, 358.8909
881.9982, 355.3996
882.4803, 349.5821
882.9625, 348.5110
883.4446, 357.0429
883.9267, 367.5616
884.4088, 376.0421
884.8909, 382.9885
885.3730, 381.9227
885.8552, 371.2937
886.3373, 361.4188
886.8194, 364.3358
887.3015, 373.3718
887.7836, 378.1660
888.2657, 377.1275
888.7479, 375.1974
889.2300, 373.3124
889.7121, 372.2877
890.1942, 372.8310
890.6763, 375.2570
891.1584, 377.7142
891.6406, 380.7679
892.1227, 381.8629
892.6048, 375.4249
893.0869, 366.0386
893.5690, 368.6234
894.0511, 383.7472
894.5333, 394.0886
895.0154, 381.9980
895.4975, 367.1804
895.9796, 364.2109
896.4617, 376.3524
896.9438, 382.4485
897.4260, 380.7993
897.9081, 376.7589
898.3902, 371.8236
898.8723, 366.9019
899.3544, 368.3675
899.8365, 375.5945
900.3187, 380.4028
900.8008, 371.2595
901.2829, 362.1127
901.7650, 367.8526
902.2471, 388.1608
902.7292, 396.8462
903.2114, 384.1095
903.6935, 371.1740
904.1756, 365.4814
904.6577, 366.0828
905.1398, 369.1386
905.6219, 374.4936
906.1041, 379.3701
906.5862, 381.4254
907.0683, 382.7943
907.5504, 387.9794
908.0325, 394.9074
908.5146, 395.0212
908.9968, 375.6675
909.4789, 361.4652
909.9610, 359.0831
910.4431, 365.6644
910.9252, 372.0458
911.4073, 378.2469
911.8895, 383.0526
912.3716, 385.6417
912.8537, 387.0555
913.3358, 389.1461
913.8179, 391.0579
914.3000, 390.7685
914.7822, 382.1920
915.2643, 378.0450
915.7464, 385.0329
916.2285, 396.4282
916.7106, 398.7752
917.1927, 391.1097
917.6749, 383.5921
918.1570, 378.2570
918.6391, 374.5753
919.1212, 371.9558
919.6033, 370.4279
920.0854, 370.0084
920.5676, 370.2031
921.0497, 372.2983
921.5318, 378.2702
922.0139, 385.4903
922.4960, 391.8583
922.9781, 398.3209
923.4603, 398.0040
923.9424, 388.6334
924.4245, 378.2354
924.9066, 378.0117
925.3887, 383.4773
925.8708, 386.6078
926.3530, 385.5735
926.8351, 383.2899
927.3172, 378.1287
927.7993, 374.3828
928.2814, 376.6319
928.7635, 388.2306
929.2457, 389.4358
929.7278, 377.5592
930.2099, 366.5190
930.6920, 372.3664
931.1741, 386.6331
931.6563, 390.4147
932.1384, 382.3700
932.6205, 376.2738
933.1026, 383.2718
933.5847, 390.9109
934.0668, 390.4351
934.5490, 381.6896
935.0311, 377.5671
935.5132, 378.7175
935.9953, 382.1114
936.4774, 387.7369
936.9595, 393.8102
937.4417, 395.9932
937.9238, 394.6185
938.4059, 391.3514
938.8880, 381.9010
939.3701, 375.8312
939.8522, 381.6952
940.3344, 395.4749
940.8165, 400.6363
941.2986, 394.4216
941.7807, 390.1989
942.2628, 394.2112
942.7449, 399.8191
943.2271, 389.0273
943.7092, 368.8143
944.1913, 357.9933
944.6734, 375.6003
945.1555, 391.6499
945.6376, 391.5809
946.1198, 382.9920
946.6019, 379.4099
947.0840, 382.7712
947.5661, 384.4475
948.0482, 383.0654
948.5303, 380.4119
949.0125, 377.2385
949.4946, 374.9371
949.9767, 377.7135
950.4588, 388.9675
950.9409, 396.9066
951.4230, 392.4117
951.9052, 384.7644
952.3873, 382.3640
952.8694, 386.7343
953.3515, 391.9054
953.8336, 398.5467
954.3157, 403.0240
954.7979, 398.6404
955.2800, 390.9212
955.7621, 382.9646
956.2442, 394.5511
956.7263, 401.1511
957.2084, 403.0324
957.6906, 386.0625
958.1727, 393.4351
958.6548, 391.0522
959.1369, 388.2694
959.6190, 399.0681
960.1011, 384.8400
960.5833, 395.4234
961.0654, 396.1024
961.5475, 401.3144
962.0296, 396.7108
962.5117, 395.1389
962.9938, 403.3857
963.4760, 406.1959
963.9581, 400.4623
964.4402, 405.9624
964.9223, 391.3914
965.4044, 394.4332
965.8865, 405.0739
966.3687, 399.8339
966.8508, 405.5135
967.3329, 407.0343
967.8150, 389.6550
968.2971, 405.1449
968.7792, 406.4199
969.2614, 393.0994
969.7435, 407.4630
970.2256, 396.1547
970.7077, 394.0097
971.1898, 398.7607
971.6719, 396.3228
972.1541, 405.2190
972.6362, 403.1963
973.1183, 400.1980
973.6004, 401.4571
974.0825, 390.6522
974.5646, 402.2284
975.0468, 398.5164
975.5289, 402.4039
976.0110, 408.0138
976.4931, 400.4346
976.9752, 406.8185
977.4573, 391.5488
977.9395, 401.6811
978.4216, 403.3881
978.9037, 407.5840
979.3858, 410.2820
979.8679, 405.2783
980.3500, 395.3213
980.8322, 391.8512
981.3143, 401.8991
981.7964, 408.9312
982.2785, 409.4197
982.7606, 405.5681
983.2427, 399.9698
983.7249, 393.6992
984.2070, 392.1415
984.6891, 399.2382
985.1712, 406.1830
985.6533, 407.6635
986.1354, 405.1646
986.6176, 400.0089
987.0997, 389.1994
987.5818, 383.2225
988.0639, 382.7582
988.5460, 385.6397
989.0281, 391.3855
989.5102, 398.5548
989.9923, 403.9795
990.4744, 407.3885
990.9565, 407.5329
991.4387, 399.3250
991.9208, 391.6161
992.4029, 390.6917
992.8850, 396.1068
993.3671, 398.2530
993.8492, 396.7739
994.3314, 393.9435
994.8135, 389.1892
995.2956, 385.0968
995.7777, 388.0810
996.2598, 395.5101
996.7419, 399.9557
997.2241, 395.2876
997.7062, 391.2228
998.1883, 389.9633
998.6704, 390.7970
999.1525, 392.5328
999.6346, 395.1360
1000.117, 400.6420
1000.599, 410.9713
1001.081, 418.2410
1001.563, 410.7715
1002.045, 397.2429
1002.527, 387.4344
1003.009, 382.3234
1003.492, 384.7790
1003.974, 399.5677
1004.456, 414.0645
1004.938, 418.7327
1005.420, 414.9165
1005.902, 412.8923
1006.384, 412.5721
1006.866, 410.7937
1007.349, 403.5098
1007.831, 395.8445
1008.313, 390.2636
1008.795, 387.2720
1009.277, 388.1836
1009.759, 395.2776
1010.241, 399.3300
1010.723, 396.5148
1011.205, 391.1324
1011.688, 391.3635
1012.170, 395.5029
1012.652, 399.3481
1013.134, 401.7999
1013.616, 403.1734
1014.098, 402.2425
1014.580, 401.1709
1015.062, 402.7130
1015.544, 407.6152
1016.027, 408.4487
1016.509, 404.2117
1016.991, 400.9396
1017.473, 408.1976
1017.955, 417.2262
1018.437, 415.8661
1018.919, 402.9847
1019.401, 393.6508
1019.884, 392.0955
1020.366, 392.9249
1020.848, 394.6467
1021.330, 397.2051
1021.812, 401.7112
1022.294, 407.4162
1022.776, 409.2917
1023.258, 399.5623
1023.740, 391.6615
1024.223, 397.9330
1024.705, 411.1636
1025.187, 417.5112
1025.669, 413.0059
1026.151, 411.0576
1026.633, 413.5474
1027.115, 416.7609
1027.597, 415.7867
1028.080, 412.2918
1028.562, 409.9141
1029.044, 409.3049
1029.526, 408.1829
1030.008, 404.0305
1030.490, 400.6488
1030.972, 400.3735
1031.454, 402.9439
1031.937, 403.9475
1032.419, 403.3569
1032.901, 402.4192
1033.383, 400.0750
1033.865, 399.2275
1034.347, 404.8788
1034.829, 414.2592
1035.311, 420.3104
1035.793, 421.8034
1036.276, 418.6414
1036.758, 407.8285
1037.240, 397.2221
1037.722, 401.1225
1038.204, 415.2650
1038.686, 424.5370
1039.168, 426.0649
1039.650, 425.2051
1040.132, 423.5892
1040.615, 422.1255
1041.097, 421.9728
1041.579, 423.3123
1042.061, 421.1588
1042.543, 414.9311
1043.025, 409.6779
1043.507, 410.2155
1043.989, 412.3049
1044.472, 407.8310
1044.954, 399.8140
1045.436, 397.2361
1045.918, 408.5177
1046.400, 418.3418
1046.882, 425.5975
1047.364, 428.9466
1047.846, 424.2425
1048.328, 412.9897
1048.811, 402.2886
1049.293, 392.3227
1049.775, 389.2217
1050.257, 405.8702
1050.739, 425.3732
1051.221, 431.4598
1051.703, 422.1389
1052.185, 418.2416
1052.667, 421.2347
1053.150, 422.9571
1053.632, 415.6561
1054.114, 405.8864
1054.596, 408.0512
1055.078, 417.6890
1055.560, 420.9037
1056.042, 403.8857
1056.524, 391.4550
1057.007, 388.6181
1057.489, 392.0395
1057.971, 399.2421
1058.453, 409.1406
1058.935, 410.4121
1059.417, 399.6937
1059.899, 391.7116
1060.381, 404.0405
1060.864, 419.6709
1061.346, 422.0055
1061.828, 408.3265
1062.310, 402.7906
1062.792, 407.0171
1063.274, 412.3657
1063.756, 415.7513
1064.238, 416.3595
1064.720, 409.2805
1065.203, 398.1459
1065.685, 392.8917
1066.167, 403.3607
1066.649, 412.0184
1067.131, 416.2199
1067.613, 417.1612
1068.095, 415.0088
1068.577, 410.4516
1069.059, 410.1161
1069.542, 415.3398
1070.024, 418.7326
1070.506, 411.2339
1070.988, 402.5872
1071.470, 401.6761
1071.952, 408.6867
1072.434, 409.6419
1072.916, 402.4177
1073.398, 400.1101
1073.881, 411.8606
1074.363, 427.9651
1074.845, 434.3763
1075.327, 433.2043
1075.809, 428.7368
1076.291, 416.3225
1076.773, 409.4167
1077.255, 410.4744
1077.738, 415.4076
1078.220, 422.1178
1078.702, 429.3815
1079.184, 427.3596
1079.666, 415.4592
1080.148, 408.9830
1080.630, 427.7063
1081.112, 446.1199
1081.594, 446.0950
1082.077, 431.5550
1082.559, 420.9961
1083.041, 414.5499
1083.523, 410.6170
1084.005, 409.7660
1084.487, 408.9951
1084.969, 401.7609
1085.451, 393.1344
1085.933, 391.2359
1086.416, 403.7249
1086.898, 411.1335
1087.380, 410.6208
1087.862, 409.3959
1088.344, 415.3507
1088.826, 424.9158
1089.308, 425.3807
1089.790, 417.7536
1090.273, 411.6604
1090.755, 414.0016
1091.237, 416.7199
1091.719, 416.1656
1092.201, 413.9594
1092.683, 414.4464
1093.165, 417.5194
1093.647, 416.9992
1094.130, 410.4004
1094.612, 404.9618
1095.094, 411.7013
1095.576, 420.2727
1096.058, 418.0388
1096.540, 400.4281
1097.022, 393.4136
1097.504, 399.1803
1097.986, 407.7137
1098.469, 417.4893
1098.951, 423.6441
1099.433, 409.2390
1099.915, 383.5846
1100.397, 372.0635
1100.879, 399.3496
1101.361, 420.2806
1101.843, 428.4041
1102.325, 428.1201
1102.808, 421.9269
1103.290, 411.6586
1103.772, 407.2386
1104.254, 409.7717
1104.736, 412.6705
1105.218, 411.6769
1105.700, 409.9649
1106.182, 410.3434
1106.665, 411.8795
1107.147, 407.6412
1107.629, 397.3281
1108.111, 391.0732
1108.593, 393.1322
1109.075, 399.2699
1109.557, 407.6729
1110.039, 416.3094
1110.521, 421.9149
1111.004, 422.3983
1111.486, 424.9608
1111.968, 431.2399
1112.450, 434.6240
1112.932, 426.5641
1113.414, 413.6162
1113.896, 410.6228
1114.378, 415.4165
1114.860, 416.3105
1115.343, 401.2070
1115.825, 392.2877
1116.307, 396.0439
1116.789, 405.8174
1117.271, 410.3113
1117.753, 410.6752
1118.235, 412.5335
1118.717, 417.1620
1119.200, 420.5591
1119.682, 418.6538
1120.164, 416.1304
1120.646, 415.6184
1121.128, 417.1317
1121.610, 422.5353
1122.092, 431.8491
1122.574, 436.0849
1123.057, 427.4387
1123.539, 417.5461
1124.021, 419.3916
1124.503, 426.3466
1124.985, 427.1925
1125.467, 416.4760
1125.949, 412.5309
1126.431, 416.9064
1126.913, 422.7517
1127.396, 425.7976
1127.878, 425.6831
1128.360, 419.2981
1128.842, 408.2036
1129.324, 401.8914
1129.806, 405.0175
1130.288, 410.8012
1130.770, 420.0207
1131.252, 428.4272
1131.735, 427.4471
1132.217, 419.5435
1132.699, 411.2117
1133.181, 403.0338
1133.663, 398.0439
1134.145, 400.0561
1134.627, 403.2968
1135.109, 404.8188
1135.592, 404.8965
1136.074, 405.1800
1136.556, 405.6939
1137.038, 406.7050
1137.520, 408.8359
1138.002, 410.8028
1138.484, 412.7792
1138.966, 413.5497
1139.448, 410.7642
1139.931, 402.4350
1140.413, 403.3958
1140.895, 415.0196
1141.377, 423.5524
1141.859, 411.6846
1142.341, 396.7555
1142.823, 396.7967
1143.305, 409.3720
1143.787, 417.4709
1144.270, 418.2722
1144.752, 420.1018
1145.234, 424.5216
1145.716, 430.3209
1146.198, 438.3529
1146.680, 445.4944
1147.162, 446.6642
1147.644, 440.4366
1148.127, 432.0140
1148.609, 417.7265
1149.091, 410.0556
1149.573, 417.3926
1150.055, 432.1801
1150.537, 434.5268
1151.019, 427.6086
1151.501, 420.2135
1151.984, 413.8005
1152.466, 409.9883
1152.948, 408.2218
1153.430, 410.1741
1153.912, 420.9275
1154.394, 438.4797
1154.876, 439.3065
1155.358, 425.0721
1155.840, 414.0194
1156.323, 419.5216
1156.805, 427.8994
1157.287, 433.9367
1157.769, 437.9748
1158.251, 441.3232
1158.733, 443.9522
1159.215, 438.8308
1159.697, 424.0439
1160.179, 411.9165
1160.662, 415.7000
1161.144, 423.6801
1161.626, 426.8371
1162.108, 425.2802
1162.590, 422.4844
1163.072, 417.7085
1163.554, 419.4188
1164.036, 433.5069
1164.519, 447.7529
1165.001, 447.4012
1165.483, 439.1129
1165.965, 430.4674
1166.447, 420.9664
1166.929, 418.2129
1167.411, 423.7684
1167.893, 429.7012
1168.375, 430.5625
1168.858, 429.2778
1169.340, 431.4224
1169.822, 435.0289
1170.304, 435.3402
1170.786, 427.2788
1171.268, 422.2991
1171.750, 421.7738
1172.232, 422.4473
1172.714, 419.7655
1173.197, 416.3603
1173.679, 419.1943
1174.161, 427.5963
1174.643, 432.7811
1175.125, 428.8113
1175.607, 425.0065
1176.089, 423.0603
1176.571, 422.4133
1177.054, 422.3325
1177.536, 422.6935
1178.018, 422.9752
1178.500, 422.9453
1178.982, 424.0077
1179.464, 426.6278
1179.946, 430.9925
1180.428, 438.9412
1180.911, 447.8485
1181.393, 445.8856
1181.875, 435.8627
1182.357, 430.6049
1182.839, 436.7448
1183.321, 443.6433
1183.803, 446.9548
1184.285, 448.4287
1184.767, 449.9157
1185.250, 451.2581
1185.732, 446.4650
1186.214, 436.4341
1186.696, 429.6589
1187.178, 433.8828
1187.660, 439.7115
1188.142, 444.5919
1188.624, 446.7425
1189.106, 441.8413
1189.589, 429.1760
1190.071, 425.2054
1190.553, 431.2017
1191.035, 440.3988
1191.517, 453.1799
1191.999, 462.2420
1192.481, 458.2636
1192.963, 446.5769
1193.446, 445.6321
1193.928, 456.8358
1194.410, 460.5061
1194.892, 451.8420
1195.374, 441.1145
1195.856, 435.8102
1196.338, 434.4962
1196.820, 437.7613
1197.302, 445.0538
1197.785, 446.8033
1198.267, 442.2412
1198.749, 438.3067
1199.231, 436.6583
1199.713, 438.2465
1200.195, 450.1985
1200.677, 462.8049
1201.159, 461.4195
1201.641, 439.7897
1202.124, 431.1230
1202.606, 437.4487
1203.088, 444.6586
1203.570, 444.1266
1204.052, 440.6415
1204.534, 438.2177
1205.016, 437.4551
1205.498, 440.2904
1205.981, 451.2631
1206.463, 453.1380
1206.945, 443.5996
1207.427, 433.6930
1207.909, 434.1057
1208.391, 438.6646
1208.873, 439.2451
1209.355, 436.8714
1209.838, 437.2954
1210.320, 442.7790
1210.802, 446.8562
1211.284, 449.1070
1211.766, 448.5151
1212.248, 439.4352
1212.730, 429.3772
1213.212, 431.0329
1213.694, 444.6441
1214.177, 451.4109
1214.659, 447.6403
1215.141, 442.5835
1215.623, 437.9055
1216.105, 434.3370
1216.587, 432.5630
1217.069, 432.8093
1217.551, 436.6508
1218.033, 445.4887
1218.516, 448.2097
1218.998, 440.4543
1219.480, 436.9227
1219.962, 446.7147
1220.444, 460.0508
1220.926, 456.6983
1221.408, 444.9700
1221.890, 440.1982
1222.373, 450.9486
1222.855, 455.7148
1223.337, 451.6870
1223.819, 446.5743
1224.301, 445.4541
1224.783, 446.2426
1225.265, 444.1517
1225.747, 440.9255
1226.229, 440.6778
1226.712, 450.5304
1227.194, 453.3802
1227.676, 446.8658
1228.158, 438.4093
1228.640, 432.9135
1229.122, 430.5230
1229.604, 435.4100
1230.086, 444.3823
1230.568, 443.9550
1231.051, 416.4675
1231.533, 406.1237
1232.015, 421.9760
1232.497, 443.9403
1232.979, 447.5481
1233.461, 442.2284
1233.943, 443.3970
1234.425, 451.6073
1234.908, 457.6662
1235.390, 458.5638
1235.872, 460.9644
1236.354, 467.2262
1236.836, 473.0577
1237.318, 471.2869
1237.800, 465.5831
1238.282, 462.1583
1238.764, 462.0771
1239.247, 459.1735
1239.729, 451.3033
1240.211, 444.9129
1240.693, 442.1505
1241.175, 441.8136
1241.657, 441.6748
1242.139, 442.7283
1242.621, 447.7541
1243.104, 459.5384
1243.586, 462.3229
1244.068, 450.8536
1244.550, 445.9789
1245.032, 463.1087
1245.514, 484.7843
1245.996, 477.3145
1246.478, 456.0084
1246.960, 447.4909
1247.443, 467.1140
1247.925, 472.1614
1248.407, 458.5290
1248.889, 445.9066
1249.371, 449.6795
1249.853, 459.7546
1250.335, 463.0619
1250.817, 461.7803
1251.299, 459.9028
1251.782, 454.6670
1252.264, 459.5962
1252.746, 477.8715
1253.228, 491.9130
1253.710, 482.0574
1254.192, 465.4804
1254.674, 462.0803
1255.156, 467.7308
1255.639, 468.7944
1256.121, 462.8708
1256.603, 457.8127
1257.085, 454.2826
1257.567, 451.7047
1258.049, 448.9219
1258.531, 447.3996
1259.013, 448.9506
1259.495, 453.1599
1259.978, 457.6005
1260.460, 462.2394
1260.942, 467.3755
1261.424, 473.4783
1261.906, 476.9065
1262.388, 470.2727
1262.870, 462.7445
1263.352, 462.2958
1263.834, 468.2540
1264.317, 477.7176
1264.799, 491.4199
1265.281, 492.1843
1265.763, 473.5875
1266.245, 456.5406
1266.727, 463.1822
1267.209, 474.6691
1267.691, 474.7328
1268.174, 465.9832
1268.656, 463.3993
1269.138, 466.4824
1269.620, 465.4290
1270.102, 454.8244
1270.584, 449.0293
1271.066, 465.6376
1271.548, 483.8647
1272.031, 488.6498
1272.513, 481.9902
1272.995, 474.8299
1273.477, 467.4908
1273.959, 461.3568
1274.441, 455.8179
1274.923, 454.4370
1275.405, 464.1205
1275.887, 473.5945
1276.370, 475.5638
1276.852, 471.1454
1277.334, 464.6714
1277.816, 457.2430
1278.298, 453.3925
1278.780, 454.6676
1279.262, 460.7569
1279.744, 476.9842
1280.226, 490.5687
1280.709, 490.4729
1281.191, 480.6350
1281.673, 475.3005
1282.155, 473.6293
1282.637, 472.8011
1283.119, 472.0411
1283.601, 471.6125
1284.083, 471.3752
1284.566, 471.7755
1285.048, 474.9144
1285.530, 478.2018
##END=



