##NAMES=Kobyashevite
##RRUFFID=R160001
##IDEAL CHEMISTRY=Cu^2+^_5_(S^6+^O_4_)_2_(OH)_6_&#183;4H_2_O
##LOCALITY=Ojuela mine (Cumbres lugar), Mapim√≠, Durango, Mexico
##OWNER=RRUFF
##SOURCE=Eugene Schlepp
##DESCRIPTION=Turquoise colored short-bladed or tabular crystals associated with gypsum microcrystals coating calcite and hemimorphite
##STATUS=The identification of this mineral has been confirmed only by single crystal X-ray diffraction.
##URL=rruff.info/R160001
8.930109e+001, 0.000000e+000
8.978320e+001, 2.422491e+002
9.026532e+001, 2.432676e+002
9.074744e+001, 2.436371e+002
9.122955e+001, 2.430860e+002
9.171167e+001, 2.426123e+002
9.219379e+001, 2.436363e+002
9.267590e+001, 2.460097e+002
9.315802e+001, 2.476883e+002
9.364014e+001, 2.469467e+002
9.412225e+001, 2.443667e+002
9.460437e+001, 2.412918e+002
9.508649e+001, 2.375387e+002
9.556860e+001, 2.337431e+002
9.605072e+001, 2.319307e+002
9.653284e+001, 2.324475e+002
9.701495e+001, 2.333359e+002
9.749707e+001, 2.324876e+002
9.797919e+001, 2.299516e+002
9.846130e+001, 2.274257e+002
9.894342e+001, 2.253496e+002
9.942554e+001, 2.236918e+002
9.990765e+001, 2.223796e+002
1.003898e+002, 2.215469e+002
1.008719e+002, 2.207600e+002
1.013540e+002, 2.195075e+002
1.018361e+002, 2.178958e+002
1.023182e+002, 2.155450e+002
1.028004e+002, 2.121630e+002
1.032825e+002, 2.075240e+002
1.037646e+002, 2.030438e+002
1.042467e+002, 1.984626e+002
1.047288e+002, 1.941702e+002
1.052109e+002, 1.911420e+002
1.056931e+002, 1.895837e+002
1.061752e+002, 1.888360e+002
1.066573e+002, 1.885864e+002
1.071394e+002, 1.886844e+002
1.076215e+002, 1.895170e+002
1.081036e+002, 1.917441e+002
1.085858e+002, 1.949499e+002
1.090679e+002, 1.968093e+002
1.095500e+002, 1.970397e+002
1.100321e+002, 1.962421e+002
1.105142e+002, 1.947497e+002
1.109963e+002, 1.909110e+002
1.114785e+002, 1.882248e+002
1.119606e+002, 1.872469e+002
1.124427e+002, 1.879173e+002
1.129248e+002, 1.891221e+002
1.134069e+002, 1.906362e+002
1.138890e+002, 1.926233e+002
1.143712e+002, 1.952378e+002
1.148533e+002, 1.982946e+002
1.153354e+002, 2.021402e+002
1.158175e+002, 2.070273e+002
1.162996e+002, 2.130868e+002
1.167817e+002, 2.193895e+002
1.172639e+002, 2.260677e+002
1.177460e+002, 2.327500e+002
1.182281e+002, 2.389618e+002
1.187102e+002, 2.460246e+002
1.191923e+002, 2.515716e+002
1.196744e+002, 2.543221e+002
1.201566e+002, 2.542301e+002
1.206387e+002, 2.510163e+002
1.211208e+002, 2.425143e+002
1.216029e+002, 2.307136e+002
1.220850e+002, 2.196976e+002
1.225671e+002, 2.107736e+002
1.230493e+002, 2.039752e+002
1.235314e+002, 1.995338e+002
1.240135e+002, 1.978106e+002
1.244956e+002, 1.976015e+002
1.249777e+002, 1.985682e+002
1.254598e+002, 2.003550e+002
1.259420e+002, 2.016095e+002
1.264241e+002, 2.009178e+002
1.269062e+002, 1.991489e+002
1.273883e+002, 1.978637e+002
1.278704e+002, 1.973609e+002
1.283525e+002, 1.975092e+002
1.288347e+002, 1.981344e+002
1.293168e+002, 1.992428e+002
1.297989e+002, 2.008406e+002
1.302810e+002, 2.033077e+002
1.307631e+002, 2.063806e+002
1.312452e+002, 2.090281e+002
1.317274e+002, 2.107515e+002
1.322095e+002, 2.119951e+002
1.326916e+002, 2.141454e+002
1.331737e+002, 2.173557e+002
1.336558e+002, 2.205338e+002
1.341379e+002, 2.224609e+002
1.346201e+002, 2.231614e+002
1.351022e+002, 2.241294e+002
1.355843e+002, 2.258552e+002
1.360664e+002, 2.282474e+002
1.365485e+002, 2.305048e+002
1.370306e+002, 2.325384e+002
1.375128e+002, 2.346829e+002
1.379949e+002, 2.373764e+002
1.384770e+002, 2.406460e+002
1.389591e+002, 2.444105e+002
1.394412e+002, 2.488663e+002
1.399233e+002, 2.540528e+002
1.404055e+002, 2.589979e+002
1.408876e+002, 2.641859e+002
1.413697e+002, 2.686265e+002
1.418518e+002, 2.706943e+002
1.423339e+002, 2.700371e+002
1.428160e+002, 2.678012e+002
1.432982e+002, 2.642105e+002
1.437803e+002, 2.589820e+002
1.442624e+002, 2.533841e+002
1.447445e+002, 2.474082e+002
1.452266e+002, 2.410541e+002
1.457087e+002, 2.345555e+002
1.461909e+002, 2.274429e+002
1.466730e+002, 2.206513e+002
1.471551e+002, 2.144511e+002
1.476372e+002, 2.088292e+002
1.481193e+002, 2.039362e+002
1.486014e+002, 1.999537e+002
1.490836e+002, 1.967292e+002
1.495657e+002, 1.935731e+002
1.500478e+002, 1.902119e+002
1.505299e+002, 1.872075e+002
1.510120e+002, 1.847900e+002
1.514941e+002, 1.828057e+002
1.519763e+002, 1.816033e+002
1.524584e+002, 1.813954e+002
1.529405e+002, 1.820546e+002
1.534226e+002, 1.829151e+002
1.539047e+002, 1.840980e+002
1.543868e+002, 1.853575e+002
1.548690e+002, 1.865594e+002
1.553511e+002, 1.872533e+002
1.558332e+002, 1.883499e+002
1.563153e+002, 1.904789e+002
1.567974e+002, 1.934265e+002
1.572795e+002, 1.954676e+002
1.577617e+002, 1.955918e+002
1.582438e+002, 1.950173e+002
1.587259e+002, 1.946246e+002
1.592080e+002, 1.948488e+002
1.596901e+002, 1.950587e+002
1.601722e+002, 1.951023e+002
1.606544e+002, 1.949776e+002
1.611365e+002, 1.947025e+002
1.616186e+002, 1.942940e+002
1.621007e+002, 1.937362e+002
1.625828e+002, 1.930026e+002
1.630649e+002, 1.920720e+002
1.635471e+002, 1.909761e+002
1.640292e+002, 1.898461e+002
1.645113e+002, 1.886839e+002
1.649934e+002, 1.870335e+002
1.654755e+002, 1.842940e+002
1.659576e+002, 1.810165e+002
1.664398e+002, 1.779227e+002
1.669219e+002, 1.754832e+002
1.674040e+002, 1.731361e+002
1.678861e+002, 1.703891e+002
1.683682e+002, 1.671673e+002
1.688503e+002, 1.642651e+002
1.693325e+002, 1.622661e+002
1.698146e+002, 1.609109e+002
1.702967e+002, 1.598045e+002
1.707788e+002, 1.589471e+002
1.712609e+002, 1.581474e+002
1.717430e+002, 1.572739e+002
1.722252e+002, 1.563215e+002
1.727073e+002, 1.552364e+002
1.731894e+002, 1.537352e+002
1.736715e+002, 1.520408e+002
1.741536e+002, 1.507002e+002
1.746357e+002, 1.501490e+002
1.751179e+002, 1.499939e+002
1.756000e+002, 1.498172e+002
1.760821e+002, 1.496065e+002
1.765642e+002, 1.492666e+002
1.770463e+002, 1.485812e+002
1.775284e+002, 1.476574e+002
1.780106e+002, 1.468362e+002
1.784927e+002, 1.462907e+002
1.789748e+002, 1.459642e+002
1.794569e+002, 1.458085e+002
1.799390e+002, 1.458472e+002
1.804211e+002, 1.459449e+002
1.809033e+002, 1.459125e+002
1.813854e+002, 1.457847e+002
1.818675e+002, 1.457221e+002
1.823496e+002, 1.457984e+002
1.828317e+002, 1.460078e+002
1.833138e+002, 1.463264e+002
1.837960e+002, 1.467318e+002
1.842781e+002, 1.472937e+002
1.847602e+002, 1.482176e+002
1.852423e+002, 1.494639e+002
1.857244e+002, 1.506320e+002
1.862065e+002, 1.515238e+002
1.866887e+002, 1.521514e+002
1.871708e+002, 1.526364e+002
1.876529e+002, 1.530650e+002
1.881350e+002, 1.531968e+002
1.886171e+002, 1.526148e+002
1.890992e+002, 1.513179e+002
1.895814e+002, 1.495120e+002
1.900635e+002, 1.471258e+002
1.905456e+002, 1.442231e+002
1.910277e+002, 1.414226e+002
1.915098e+002, 1.386993e+002
1.919919e+002, 1.362237e+002
1.924741e+002, 1.344569e+002
1.929562e+002, 1.334200e+002
1.934383e+002, 1.327385e+002
1.939204e+002, 1.321794e+002
1.944025e+002, 1.317512e+002
1.948846e+002, 1.316557e+002
1.953668e+002, 1.320219e+002
1.958489e+002, 1.326152e+002
1.963310e+002, 1.328008e+002
1.968131e+002, 1.325184e+002
1.972952e+002, 1.322836e+002
1.977773e+002, 1.324661e+002
1.982595e+002, 1.330758e+002
1.987416e+002, 1.337545e+002
1.992237e+002, 1.344585e+002
1.997058e+002, 1.352007e+002
2.001879e+002, 1.360371e+002
2.006700e+002, 1.370051e+002
2.011522e+002, 1.379394e+002
2.016343e+002, 1.387104e+002
2.021164e+002, 1.393012e+002
2.025985e+002, 1.399115e+002
2.030806e+002, 1.405667e+002
2.035627e+002, 1.412502e+002
2.040449e+002, 1.418862e+002
2.045270e+002, 1.424519e+002
2.050091e+002, 1.430421e+002
2.054912e+002, 1.437297e+002
2.059733e+002, 1.445278e+002
2.064554e+002, 1.453176e+002
2.069376e+002, 1.460210e+002
2.074197e+002, 1.467222e+002
2.079018e+002, 1.478461e+002
2.083839e+002, 1.495515e+002
2.088660e+002, 1.512840e+002
2.093481e+002, 1.525741e+002
2.098303e+002, 1.532790e+002
2.103124e+002, 1.542518e+002
2.107945e+002, 1.557089e+002
2.112766e+002, 1.574814e+002
2.117587e+002, 1.588986e+002
2.122408e+002, 1.598507e+002
2.127230e+002, 1.606857e+002
2.132051e+002, 1.616207e+002
2.136872e+002, 1.626539e+002
2.141693e+002, 1.638060e+002
2.146514e+002, 1.651131e+002
2.151335e+002, 1.665364e+002
2.156157e+002, 1.678514e+002
2.160978e+002, 1.690755e+002
2.165799e+002, 1.701699e+002
2.170620e+002, 1.711049e+002
2.175441e+002, 1.718387e+002
2.180262e+002, 1.725386e+002
2.185084e+002, 1.732556e+002
2.189905e+002, 1.739603e+002
2.194726e+002, 1.744335e+002
2.199547e+002, 1.745279e+002
2.204368e+002, 1.746583e+002
2.209189e+002, 1.751716e+002
2.214011e+002, 1.763927e+002
2.218832e+002, 1.771267e+002
2.223653e+002, 1.770830e+002
2.228474e+002, 1.764790e+002
2.233295e+002, 1.763078e+002
2.238116e+002, 1.767410e+002
2.242938e+002, 1.773416e+002
2.247759e+002, 1.778526e+002
2.252580e+002, 1.782184e+002
2.257401e+002, 1.786216e+002
2.262222e+002, 1.791091e+002
2.267043e+002, 1.796418e+002
2.271865e+002, 1.800664e+002
2.276686e+002, 1.802897e+002
2.281507e+002, 1.805279e+002
2.286328e+002, 1.809794e+002
2.291149e+002, 1.819900e+002
2.295970e+002, 1.823680e+002
2.300792e+002, 1.817996e+002
2.305613e+002, 1.805461e+002
2.310434e+002, 1.796478e+002
2.315255e+002, 1.792433e+002
2.320076e+002, 1.790095e+002
2.324897e+002, 1.788386e+002
2.329719e+002, 1.789459e+002
2.334540e+002, 1.786259e+002
2.339361e+002, 1.777139e+002
2.344182e+002, 1.763650e+002
2.349003e+002, 1.751107e+002
2.353824e+002, 1.740302e+002
2.358646e+002, 1.729305e+002
2.363467e+002, 1.716996e+002
2.368288e+002, 1.702326e+002
2.373109e+002, 1.688802e+002
2.377930e+002, 1.677785e+002
2.382751e+002, 1.667684e+002
2.387573e+002, 1.653943e+002
2.392394e+002, 1.635192e+002
2.397215e+002, 1.614660e+002
2.402036e+002, 1.593159e+002
2.406857e+002, 1.568870e+002
2.411678e+002, 1.547825e+002
2.416500e+002, 1.531237e+002
2.421321e+002, 1.517615e+002
2.426142e+002, 1.502753e+002
2.430963e+002, 1.485453e+002
2.435784e+002, 1.468783e+002
2.440605e+002, 1.454134e+002
2.445427e+002, 1.441613e+002
2.450248e+002, 1.430706e+002
2.455069e+002, 1.421918e+002
2.459890e+002, 1.414532e+002
2.464711e+002, 1.407070e+002
2.469532e+002, 1.399109e+002
2.474354e+002, 1.391699e+002
2.479175e+002, 1.385372e+002
2.483996e+002, 1.380361e+002
2.488817e+002, 1.375551e+002
2.493638e+002, 1.370542e+002
2.498459e+002, 1.365990e+002
2.503281e+002, 1.363249e+002
2.508102e+002, 1.363206e+002
2.512923e+002, 1.363401e+002
2.517744e+002, 1.361994e+002
2.522565e+002, 1.356976e+002
2.527386e+002, 1.359921e+002
2.532208e+002, 1.376617e+002
2.537029e+002, 1.397010e+002
2.541850e+002, 1.404301e+002
2.546671e+002, 1.390927e+002
2.551492e+002, 1.379040e+002
2.556313e+002, 1.374645e+002
2.561135e+002, 1.377772e+002
2.565956e+002, 1.389274e+002
2.570777e+002, 1.414870e+002
2.575598e+002, 1.443130e+002
2.580419e+002, 1.457105e+002
2.585240e+002, 1.449345e+002
2.590062e+002, 1.443743e+002
2.594883e+002, 1.446661e+002
2.599704e+002, 1.458348e+002
2.604525e+002, 1.473701e+002
2.609346e+002, 1.493190e+002
2.614167e+002, 1.515515e+002
2.618989e+002, 1.539373e+002
2.623810e+002, 1.564697e+002
2.628631e+002, 1.591264e+002
2.633452e+002, 1.618910e+002
2.638273e+002, 1.648014e+002
2.643094e+002, 1.677458e+002
2.647916e+002, 1.708114e+002
2.652737e+002, 1.738536e+002
2.657558e+002, 1.767887e+002
2.662379e+002, 1.796018e+002
2.667200e+002, 1.823294e+002
2.672021e+002, 1.851487e+002
2.676843e+002, 1.879635e+002
2.681664e+002, 1.899178e+002
2.686485e+002, 1.908774e+002
2.691306e+002, 1.912493e+002
2.696127e+002, 1.912837e+002
2.700948e+002, 1.909153e+002
2.705770e+002, 1.904570e+002
2.710591e+002, 1.898373e+002
2.715412e+002, 1.891717e+002
2.720233e+002, 1.890583e+002
2.725054e+002, 1.895909e+002
2.729875e+002, 1.904200e+002
2.734697e+002, 1.913081e+002
2.739518e+002, 1.922538e+002
2.744339e+002, 1.932992e+002
2.749160e+002, 1.943974e+002
2.753981e+002, 1.956237e+002
2.758802e+002, 1.973107e+002
2.763624e+002, 1.995230e+002
2.768445e+002, 2.018521e+002
2.773266e+002, 2.038518e+002
2.778087e+002, 2.054472e+002
2.782908e+002, 2.079458e+002
2.787729e+002, 2.116559e+002
2.792551e+002, 2.160869e+002
2.797372e+002, 2.200743e+002
2.802193e+002, 2.235941e+002
2.807014e+002, 2.269191e+002
2.811835e+002, 2.302620e+002
2.816656e+002, 2.336190e+002
2.821478e+002, 2.367071e+002
2.826299e+002, 2.395176e+002
2.831120e+002, 2.420506e+002
2.835941e+002, 2.444049e+002
2.840762e+002, 2.466063e+002
2.845583e+002, 2.482276e+002
2.850405e+002, 2.489527e+002
2.855226e+002, 2.488574e+002
2.860047e+002, 2.487013e+002
2.864868e+002, 2.485581e+002
2.869689e+002, 2.481197e+002
2.874510e+002, 2.470290e+002
2.879332e+002, 2.452854e+002
2.884153e+002, 2.428684e+002
2.888974e+002, 2.396314e+002
2.893795e+002, 2.357308e+002
2.898616e+002, 2.318085e+002
2.903438e+002, 2.278634e+002
2.908259e+002, 2.239008e+002
2.913080e+002, 2.199758e+002
2.917901e+002, 2.160865e+002
2.922722e+002, 2.119641e+002
2.927543e+002, 2.073876e+002
2.932365e+002, 2.026284e+002
2.937186e+002, 1.984278e+002
2.942007e+002, 1.948291e+002
2.946828e+002, 1.913479e+002
2.951649e+002, 1.874122e+002
2.956470e+002, 1.832451e+002
2.961292e+002, 1.794422e+002
2.966113e+002, 1.762114e+002
2.970934e+002, 1.734262e+002
2.975755e+002, 1.709050e+002
2.980576e+002, 1.686323e+002
2.985397e+002, 1.665585e+002
2.990219e+002, 1.646019e+002
2.995040e+002, 1.627929e+002
2.999861e+002, 1.612402e+002
3.004682e+002, 1.600085e+002
3.009503e+002, 1.589537e+002
3.014324e+002, 1.578242e+002
3.019146e+002, 1.566906e+002
3.023967e+002, 1.557979e+002
3.028788e+002, 1.555039e+002
3.033609e+002, 1.554910e+002
3.038430e+002, 1.552300e+002
3.043251e+002, 1.545478e+002
3.048073e+002, 1.540002e+002
3.052894e+002, 1.541985e+002
3.057715e+002, 1.549380e+002
3.062536e+002, 1.557276e+002
3.067357e+002, 1.561960e+002
3.072178e+002, 1.566427e+002
3.077000e+002, 1.574096e+002
3.081821e+002, 1.585474e+002
3.086642e+002, 1.597406e+002
3.091463e+002, 1.607863e+002
3.096284e+002, 1.617234e+002
3.101105e+002, 1.626285e+002
3.105927e+002, 1.635227e+002
3.110748e+002, 1.643881e+002
3.115569e+002, 1.652162e+002
3.120390e+002, 1.660068e+002
3.125211e+002, 1.667822e+002
3.130032e+002, 1.677336e+002
3.134854e+002, 1.686237e+002
3.139675e+002, 1.691867e+002
3.144496e+002, 1.691013e+002
3.149317e+002, 1.688852e+002
3.154138e+002, 1.687681e+002
3.158959e+002, 1.687355e+002
3.163781e+002, 1.686848e+002
3.168602e+002, 1.687288e+002
3.173423e+002, 1.686512e+002
3.178244e+002, 1.682703e+002
3.183065e+002, 1.672858e+002
3.187886e+002, 1.663685e+002
3.192708e+002, 1.659147e+002
3.197529e+002, 1.657240e+002
3.202350e+002, 1.652309e+002
3.207171e+002, 1.640115e+002
3.211992e+002, 1.626444e+002
3.216813e+002, 1.613849e+002
3.221635e+002, 1.602172e+002
3.226456e+002, 1.592636e+002
3.231277e+002, 1.586846e+002
3.236098e+002, 1.583109e+002
3.240919e+002, 1.578578e+002
3.245740e+002, 1.569858e+002
3.250562e+002, 1.563023e+002
3.255383e+002, 1.561324e+002
3.260204e+002, 1.567316e+002
3.265025e+002, 1.568491e+002
3.269846e+002, 1.560723e+002
3.274667e+002, 1.549148e+002
3.279489e+002, 1.539130e+002
3.284310e+002, 1.532173e+002
3.289131e+002, 1.525209e+002
3.293952e+002, 1.518157e+002
3.298773e+002, 1.511066e+002
3.303594e+002, 1.502222e+002
3.308416e+002, 1.490210e+002
3.313237e+002, 1.477759e+002
3.318058e+002, 1.466950e+002
3.322879e+002, 1.459425e+002
3.327700e+002, 1.450678e+002
3.332521e+002, 1.440181e+002
3.337343e+002, 1.428061e+002
3.342164e+002, 1.414669e+002
3.346985e+002, 1.399086e+002
3.351806e+002, 1.383858e+002
3.356627e+002, 1.370825e+002
3.361448e+002, 1.361786e+002
3.366270e+002, 1.349291e+002
3.371091e+002, 1.331450e+002
3.375912e+002, 1.311499e+002
3.380733e+002, 1.296128e+002
3.385554e+002, 1.286621e+002
3.390375e+002, 1.278042e+002
3.395197e+002, 1.268482e+002
3.400018e+002, 1.257962e+002
3.404839e+002, 1.247635e+002
3.409660e+002, 1.237747e+002
3.414481e+002, 1.227937e+002
3.419302e+002, 1.217490e+002
3.424124e+002, 1.206137e+002
3.428945e+002, 1.196665e+002
3.433766e+002, 1.190417e+002
3.438587e+002, 1.186656e+002
3.443408e+002, 1.181434e+002
3.448229e+002, 1.174530e+002
3.453051e+002, 1.167848e+002
3.457872e+002, 1.163522e+002
3.462693e+002, 1.161202e+002
3.467514e+002, 1.158421e+002
3.472335e+002, 1.154732e+002
3.477156e+002, 1.150312e+002
3.481978e+002, 1.145211e+002
3.486799e+002, 1.139517e+002
3.491620e+002, 1.134234e+002
3.496441e+002, 1.129752e+002
3.501262e+002, 1.126210e+002
3.506083e+002, 1.124439e+002
3.510905e+002, 1.125039e+002
3.515726e+002, 1.125499e+002
3.520547e+002, 1.122326e+002
3.525368e+002, 1.116473e+002
3.530189e+002, 1.110835e+002
3.535010e+002, 1.107126e+002
3.539832e+002, 1.104302e+002
3.544653e+002, 1.100760e+002
3.549474e+002, 1.096337e+002
3.554295e+002, 1.092888e+002
3.559116e+002, 1.092722e+002
3.563937e+002, 1.094276e+002
3.568759e+002, 1.095209e+002
3.573580e+002, 1.094116e+002
3.578401e+002, 1.092573e+002
3.583222e+002, 1.091437e+002
3.588043e+002, 1.090711e+002
3.592864e+002, 1.090484e+002
3.597686e+002, 1.091351e+002
3.602507e+002, 1.092451e+002
3.607328e+002, 1.093207e+002
3.612149e+002, 1.094382e+002
3.616970e+002, 1.093700e+002
3.621791e+002, 1.087120e+002
3.626613e+002, 1.077900e+002
3.631434e+002, 1.073547e+002
3.636255e+002, 1.081283e+002
3.641076e+002, 1.090535e+002
3.645897e+002, 1.096672e+002
3.650718e+002, 1.098723e+002
3.655540e+002, 1.098786e+002
3.660361e+002, 1.096008e+002
3.665182e+002, 1.091836e+002
3.670003e+002, 1.088006e+002
3.674824e+002, 1.083578e+002
3.679645e+002, 1.080698e+002
3.684467e+002, 1.080439e+002
3.689288e+002, 1.082961e+002
3.694109e+002, 1.084770e+002
3.698930e+002, 1.085522e+002
3.703751e+002, 1.085862e+002
3.708572e+002, 1.086191e+002
3.713394e+002, 1.086312e+002
3.718215e+002, 1.086766e+002
3.723036e+002, 1.087549e+002
3.727857e+002, 1.088694e+002
3.732678e+002, 1.090364e+002
3.737499e+002, 1.092783e+002
3.742321e+002, 1.095327e+002
3.747142e+002, 1.097387e+002
3.751963e+002, 1.098391e+002
3.756784e+002, 1.101738e+002
3.761605e+002, 1.108536e+002
3.766426e+002, 1.116218e+002
3.771248e+002, 1.120040e+002
3.776069e+002, 1.119258e+002
3.780890e+002, 1.119362e+002
3.785711e+002, 1.122367e+002
3.790532e+002, 1.127896e+002
3.795353e+002, 1.133029e+002
3.800175e+002, 1.137765e+002
3.804996e+002, 1.142362e+002
3.809817e+002, 1.147066e+002
3.814638e+002, 1.151849e+002
3.819459e+002, 1.156687e+002
3.824280e+002, 1.161592e+002
3.829102e+002, 1.166452e+002
3.833923e+002, 1.170574e+002
3.838744e+002, 1.174109e+002
3.843565e+002, 1.178310e+002
3.848386e+002, 1.183433e+002
3.853207e+002, 1.189854e+002
3.858029e+002, 1.198824e+002
3.862850e+002, 1.211009e+002
3.867671e+002, 1.223247e+002
3.872492e+002, 1.231257e+002
3.877313e+002, 1.236865e+002
3.882134e+002, 1.244080e+002
3.886956e+002, 1.254493e+002
3.891777e+002, 1.267359e+002
3.896598e+002, 1.283162e+002
3.901419e+002, 1.301644e+002
3.906240e+002, 1.319566e+002
3.911061e+002, 1.333407e+002
3.915883e+002, 1.346516e+002
3.920704e+002, 1.362533e+002
3.925525e+002, 1.383714e+002
3.930346e+002, 1.406221e+002
3.935167e+002, 1.428619e+002
3.939988e+002, 1.451243e+002
3.944810e+002, 1.475267e+002
3.949631e+002, 1.501112e+002
3.954452e+002, 1.528455e+002
3.959273e+002, 1.557591e+002
3.964094e+002, 1.589494e+002
3.968915e+002, 1.620183e+002
3.973737e+002, 1.643659e+002
3.978558e+002, 1.667254e+002
3.983379e+002, 1.699998e+002
3.988200e+002, 1.753954e+002
3.993021e+002, 1.805211e+002
3.997842e+002, 1.847261e+002
4.002664e+002, 1.880114e+002
4.007485e+002, 1.918476e+002
4.012306e+002, 1.963746e+002
4.017127e+002, 2.012615e+002
4.021948e+002, 2.063153e+002
4.026769e+002, 2.116166e+002
4.031591e+002, 2.168865e+002
4.036412e+002, 2.220405e+002
4.041233e+002, 2.271696e+002
4.046054e+002, 2.327415e+002
4.050875e+002, 2.389055e+002
4.055696e+002, 2.449064e+002
4.060518e+002, 2.503398e+002
4.065339e+002, 2.551851e+002
4.070160e+002, 2.603139e+002
4.074981e+002, 2.657440e+002
4.079802e+002, 2.712768e+002
4.084623e+002, 2.768632e+002
4.089445e+002, 2.825132e+002
4.094266e+002, 2.874428e+002
4.099087e+002, 2.913064e+002
4.103908e+002, 2.944477e+002
4.108729e+002, 2.978322e+002
4.113550e+002, 3.014428e+002
4.118372e+002, 3.042853e+002
4.123193e+002, 3.056623e+002
4.128014e+002, 3.057676e+002
4.132835e+002, 3.049386e+002
4.137656e+002, 3.030859e+002
4.142477e+002, 3.008204e+002
4.147299e+002, 2.988221e+002
4.152120e+002, 2.969235e+002
4.156941e+002, 2.947858e+002
4.161762e+002, 2.924587e+002
4.166583e+002, 2.896426e+002
4.171404e+002, 2.857620e+002
4.176226e+002, 2.808268e+002
4.181047e+002, 2.761339e+002
4.185868e+002, 2.723881e+002
4.190689e+002, 2.692252e+002
4.195510e+002, 2.662435e+002
4.200331e+002, 2.633690e+002
4.205153e+002, 2.606546e+002
4.209974e+002, 2.580454e+002
4.214795e+002, 2.556270e+002
4.219616e+002, 2.537254e+002
4.224437e+002, 2.523965e+002
4.229258e+002, 2.516054e+002
4.234080e+002, 2.513266e+002
4.238901e+002, 2.515367e+002
4.243722e+002, 2.523403e+002
4.248543e+002, 2.539486e+002
4.253364e+002, 2.560690e+002
4.258185e+002, 2.583983e+002
4.263007e+002, 2.607551e+002
4.267828e+002, 2.636434e+002
4.272649e+002, 2.672742e+002
4.277470e+002, 2.715257e+002
4.282291e+002, 2.756907e+002
4.287112e+002, 2.795241e+002
4.291934e+002, 2.836447e+002
4.296755e+002, 2.884181e+002
4.301576e+002, 2.938004e+002
4.306397e+002, 2.999647e+002
4.311218e+002, 3.069655e+002
4.316039e+002, 3.146284e+002
4.320861e+002, 3.226247e+002
4.325682e+002, 3.309068e+002
4.330503e+002, 3.403479e+002
4.335324e+002, 3.514415e+002
4.340145e+002, 3.639554e+002
4.344966e+002, 3.771464e+002
4.349788e+002, 3.910193e+002
4.354609e+002, 4.054692e+002
4.359430e+002, 4.208172e+002
4.364251e+002, 4.368564e+002
4.369072e+002, 4.530282e+002
4.373893e+002, 4.695865e+002
4.378715e+002, 4.856608e+002
4.383536e+002, 5.009291e+002
4.388357e+002, 5.150051e+002
4.393178e+002, 5.268063e+002
4.397999e+002, 5.366610e+002
4.402820e+002, 5.434446e+002
4.407642e+002, 5.460258e+002
4.412463e+002, 5.443612e+002
4.417284e+002, 5.390898e+002
4.422105e+002, 5.289447e+002
4.426926e+002, 5.160925e+002
4.431747e+002, 5.025574e+002
4.436569e+002, 4.876600e+002
4.441390e+002, 4.735610e+002
4.446211e+002, 4.606371e+002
4.451032e+002, 4.489878e+002
4.455853e+002, 4.393244e+002
4.460674e+002, 4.320363e+002
4.465496e+002, 4.264207e+002
4.470317e+002, 4.224797e+002
4.475138e+002, 4.207271e+002
4.479959e+002, 4.189301e+002
4.484780e+002, 4.167828e+002
4.489601e+002, 4.148098e+002
4.494423e+002, 4.135523e+002
4.499244e+002, 4.134276e+002
4.504065e+002, 4.131782e+002
4.508886e+002, 4.125238e+002
4.513707e+002, 4.116147e+002
4.518528e+002, 4.110725e+002
4.523350e+002, 4.109462e+002
4.528171e+002, 4.110224e+002
4.532992e+002, 4.112770e+002
4.537813e+002, 4.117100e+002
4.542634e+002, 4.118574e+002
4.547455e+002, 4.116631e+002
4.552277e+002, 4.113036e+002
4.557098e+002, 4.112139e+002
4.561919e+002, 4.112703e+002
4.566740e+002, 4.106489e+002
4.571561e+002, 4.091302e+002
4.576382e+002, 4.067464e+002
4.581204e+002, 4.034854e+002
4.586025e+002, 3.993649e+002
4.590846e+002, 3.947288e+002
4.595667e+002, 3.899973e+002
4.600488e+002, 3.847642e+002
4.605309e+002, 3.784176e+002
4.610131e+002, 3.708199e+002
4.614952e+002, 3.624847e+002
4.619773e+002, 3.533332e+002
4.624594e+002, 3.438819e+002
4.629415e+002, 3.347556e+002
4.634236e+002, 3.264384e+002
4.639058e+002, 3.184023e+002
4.643879e+002, 3.100987e+002
4.648700e+002, 3.017251e+002
4.653521e+002, 2.941500e+002
4.658342e+002, 2.878169e+002
4.663163e+002, 2.820924e+002
4.667985e+002, 2.765620e+002
4.672806e+002, 2.707298e+002
4.677627e+002, 2.659982e+002
4.682448e+002, 2.629030e+002
4.687269e+002, 2.607346e+002
4.692090e+002, 2.584252e+002
4.696912e+002, 2.555843e+002
4.701733e+002, 2.532830e+002
4.706554e+002, 2.518658e+002
4.711375e+002, 2.512470e+002
4.716196e+002, 2.506348e+002
4.721017e+002, 2.500509e+002
4.725839e+002, 2.494080e+002
4.730660e+002, 2.486181e+002
4.735481e+002, 2.476837e+002
4.740302e+002, 2.467397e+002
4.745123e+002, 2.458173e+002
4.749944e+002, 2.448407e+002
4.754766e+002, 2.436826e+002
4.759587e+002, 2.423628e+002
4.764408e+002, 2.409854e+002
4.769229e+002, 2.396065e+002
4.774050e+002, 2.382074e+002
4.778871e+002, 2.367695e+002
4.783693e+002, 2.352942e+002
4.788514e+002, 2.337779e+002
4.793335e+002, 2.321289e+002
4.798156e+002, 2.304690e+002
4.802977e+002, 2.289586e+002
4.807798e+002, 2.276399e+002
4.812620e+002, 2.264309e+002
4.817441e+002, 2.252764e+002
4.822262e+002, 2.242020e+002
4.827083e+002, 2.232468e+002
4.831904e+002, 2.221642e+002
4.836725e+002, 2.214453e+002
4.841547e+002, 2.214658e+002
4.846368e+002, 2.221612e+002
4.851189e+002, 2.226545e+002
4.856010e+002, 2.227516e+002
4.860831e+002, 2.226677e+002
4.865652e+002, 2.224743e+002
4.870474e+002, 2.219370e+002
4.875295e+002, 2.218180e+002
4.880116e+002, 2.223804e+002
4.884937e+002, 2.231674e+002
4.889758e+002, 2.234783e+002
4.894579e+002, 2.230860e+002
4.899401e+002, 2.229536e+002
4.904222e+002, 2.235026e+002
4.909043e+002, 2.244666e+002
4.913864e+002, 2.244946e+002
4.918685e+002, 2.234679e+002
4.923506e+002, 2.223137e+002
4.928328e+002, 2.218759e+002
4.933149e+002, 2.219092e+002
4.937970e+002, 2.211908e+002
4.942791e+002, 2.195488e+002
4.947612e+002, 2.175535e+002
4.952433e+002, 2.158391e+002
4.957255e+002, 2.142695e+002
4.962076e+002, 2.124749e+002
4.966897e+002, 2.102478e+002
4.971718e+002, 2.078138e+002
4.976539e+002, 2.053873e+002
4.981360e+002, 2.029665e+002
4.986182e+002, 2.004826e+002
4.991003e+002, 1.977740e+002
4.995824e+002, 1.950902e+002
5.000645e+002, 1.926993e+002
5.005466e+002, 1.906516e+002
5.010287e+002, 1.886156e+002
5.015109e+002, 1.864095e+002
5.019930e+002, 1.841969e+002
5.024751e+002, 1.821693e+002
5.029572e+002, 1.805336e+002
5.034393e+002, 1.788641e+002
5.039214e+002, 1.771019e+002
5.044036e+002, 1.752875e+002
5.048857e+002, 1.734700e+002
5.053678e+002, 1.714315e+002
5.058499e+002, 1.697431e+002
5.063320e+002, 1.687359e+002
5.068141e+002, 1.684710e+002
5.072963e+002, 1.679675e+002
5.077784e+002, 1.671549e+002
5.082605e+002, 1.662750e+002
5.087426e+002, 1.655147e+002
5.092247e+002, 1.648777e+002
5.097068e+002, 1.644367e+002
5.101890e+002, 1.642451e+002
5.106711e+002, 1.641787e+002
5.111532e+002, 1.639723e+002
5.116353e+002, 1.636821e+002
5.121174e+002, 1.635818e+002
5.125995e+002, 1.640267e+002
5.130817e+002, 1.646219e+002
5.135638e+002, 1.649299e+002
5.140459e+002, 1.649407e+002
5.145280e+002, 1.647222e+002
5.150101e+002, 1.641916e+002
5.154922e+002, 1.635158e+002
5.159744e+002, 1.628338e+002
5.164565e+002, 1.620778e+002
5.169386e+002, 1.615051e+002
5.174207e+002, 1.615442e+002
5.179028e+002, 1.617549e+002
5.183849e+002, 1.614148e+002
5.188671e+002, 1.599267e+002
5.193492e+002, 1.583907e+002
5.198313e+002, 1.570928e+002
5.203134e+002, 1.560115e+002
5.207955e+002, 1.546144e+002
5.212776e+002, 1.526497e+002
5.217598e+002, 1.507310e+002
5.222419e+002, 1.493680e+002
5.227240e+002, 1.488009e+002
5.232061e+002, 1.473467e+002
5.236882e+002, 1.447106e+002
5.241703e+002, 1.417439e+002
5.246525e+002, 1.395393e+002
5.251346e+002, 1.380549e+002
5.256167e+002, 1.368351e+002
5.260988e+002, 1.359273e+002
5.265809e+002, 1.350378e+002
5.270630e+002, 1.334845e+002
5.275452e+002, 1.313910e+002
5.280273e+002, 1.294327e+002
5.285094e+002, 1.280593e+002
5.289915e+002, 1.270010e+002
5.294736e+002, 1.259157e+002
5.299557e+002, 1.247689e+002
5.304379e+002, 1.237759e+002
5.309200e+002, 1.232357e+002
5.314021e+002, 1.228165e+002
5.318842e+002, 1.221718e+002
5.323663e+002, 1.209189e+002
5.328484e+002, 1.198617e+002
5.333306e+002, 1.193408e+002
5.338127e+002, 1.191420e+002
5.342948e+002, 1.188305e+002
5.347769e+002, 1.183312e+002
5.352590e+002, 1.177526e+002
5.357411e+002, 1.170637e+002
5.362233e+002, 1.162759e+002
5.367054e+002, 1.156889e+002
5.371875e+002, 1.153969e+002
5.376696e+002, 1.151374e+002
5.381517e+002, 1.147133e+002
5.386339e+002, 1.141103e+002
5.391160e+002, 1.135776e+002
5.395981e+002, 1.131065e+002
5.400802e+002, 1.127806e+002
5.405623e+002, 1.127811e+002
5.410444e+002, 1.130517e+002
5.415266e+002, 1.132808e+002
5.420087e+002, 1.134030e+002
5.424908e+002, 1.133967e+002
5.429729e+002, 1.130920e+002
5.434550e+002, 1.125868e+002
5.439371e+002, 1.122637e+002
5.444193e+002, 1.125971e+002
5.449014e+002, 1.130291e+002
5.453835e+002, 1.130531e+002
5.458656e+002, 1.126069e+002
5.463477e+002, 1.121564e+002
5.468298e+002, 1.118346e+002
5.473120e+002, 1.116164e+002
5.477941e+002, 1.114843e+002
5.482762e+002, 1.115032e+002
5.487583e+002, 1.115104e+002
5.492404e+002, 1.114454e+002
5.497225e+002, 1.113747e+002
5.502047e+002, 1.114147e+002
5.506868e+002, 1.115944e+002
5.511689e+002, 1.118420e+002
5.516510e+002, 1.122059e+002
5.521331e+002, 1.126355e+002
5.526152e+002, 1.127133e+002
5.530974e+002, 1.123634e+002
5.535795e+002, 1.120468e+002
5.540616e+002, 1.121140e+002
5.545437e+002, 1.124995e+002
5.550258e+002, 1.128202e+002
5.555079e+002, 1.130554e+002
5.559901e+002, 1.132529e+002
5.564722e+002, 1.134453e+002
5.569543e+002, 1.136427e+002
5.574364e+002, 1.138704e+002
5.579185e+002, 1.141621e+002
5.584006e+002, 1.144432e+002
5.588828e+002, 1.146264e+002
5.593649e+002, 1.147526e+002
5.598470e+002, 1.149224e+002
5.603291e+002, 1.152829e+002
5.608112e+002, 1.155933e+002
5.612933e+002, 1.156262e+002
5.617755e+002, 1.153708e+002
5.622576e+002, 1.154655e+002
5.627397e+002, 1.162599e+002
5.632218e+002, 1.172125e+002
5.637039e+002, 1.180934e+002
5.641860e+002, 1.189569e+002
5.646682e+002, 1.195835e+002
5.651503e+002, 1.198652e+002
5.656324e+002, 1.200568e+002
5.661145e+002, 1.205342e+002
5.665966e+002, 1.213511e+002
5.670787e+002, 1.219784e+002
5.675609e+002, 1.222250e+002
5.680430e+002, 1.223219e+002
5.685251e+002, 1.227872e+002
5.690072e+002, 1.235873e+002
5.694893e+002, 1.244093e+002
5.699714e+002, 1.250057e+002
5.704536e+002, 1.255669e+002
5.709357e+002, 1.264019e+002
5.714178e+002, 1.274981e+002
5.718999e+002, 1.286389e+002
5.723820e+002, 1.296815e+002
5.728641e+002, 1.306961e+002
5.733463e+002, 1.317716e+002
5.738284e+002, 1.330565e+002
5.743105e+002, 1.340647e+002
5.747926e+002, 1.343517e+002
5.752747e+002, 1.343889e+002
5.757568e+002, 1.347699e+002
5.762390e+002, 1.357368e+002
5.767211e+002, 1.368020e+002
5.772032e+002, 1.379768e+002
5.776853e+002, 1.392097e+002
5.781674e+002, 1.402381e+002
5.786495e+002, 1.409386e+002
5.791317e+002, 1.418046e+002
5.796138e+002, 1.431215e+002
5.800959e+002, 1.448176e+002
5.805780e+002, 1.463115e+002
5.810601e+002, 1.476148e+002
5.815422e+002, 1.487371e+002
5.820244e+002, 1.494732e+002
5.825065e+002, 1.500595e+002
5.829886e+002, 1.511656e+002
5.834707e+002, 1.529926e+002
5.839528e+002, 1.548128e+002
5.844349e+002, 1.558126e+002
5.849171e+002, 1.564295e+002
5.853992e+002, 1.573157e+002
5.858813e+002, 1.589782e+002
5.863634e+002, 1.606567e+002
5.868455e+002, 1.619213e+002
5.873276e+002, 1.629495e+002
5.878098e+002, 1.641810e+002
5.882919e+002, 1.658259e+002
5.887740e+002, 1.675592e+002
5.892561e+002, 1.693118e+002
5.897382e+002, 1.710840e+002
5.902203e+002, 1.727650e+002
5.907025e+002, 1.742276e+002
5.911846e+002, 1.757935e+002
5.916667e+002, 1.777644e+002
5.921488e+002, 1.801983e+002
5.926309e+002, 1.821993e+002
5.931130e+002, 1.836229e+002
5.935952e+002, 1.850827e+002
5.940773e+002, 1.874886e+002
5.945594e+002, 1.906168e+002
5.950415e+002, 1.935410e+002
5.955236e+002, 1.960346e+002
5.960057e+002, 1.982792e+002
5.964879e+002, 2.002430e+002
5.969700e+002, 2.020925e+002
5.974521e+002, 2.042000e+002
5.979342e+002, 2.069055e+002
5.984163e+002, 2.097781e+002
5.988984e+002, 2.126287e+002
5.993806e+002, 2.154561e+002
5.998627e+002, 2.182203e+002
6.003448e+002, 2.211126e+002
6.008269e+002, 2.237558e+002
6.013090e+002, 2.259158e+002
6.017911e+002, 2.273787e+002
6.022733e+002, 2.292728e+002
6.027554e+002, 2.318401e+002
6.032375e+002, 2.344930e+002
6.037196e+002, 2.366865e+002
6.042017e+002, 2.384285e+002
6.046838e+002, 2.397829e+002
6.051660e+002, 2.407234e+002
6.056481e+002, 2.413898e+002
6.061302e+002, 2.422038e+002
6.066123e+002, 2.430058e+002
6.070944e+002, 2.430476e+002
6.075765e+002, 2.419288e+002
6.080587e+002, 2.400368e+002
6.085408e+002, 2.375163e+002
6.090229e+002, 2.345368e+002
6.095050e+002, 2.316147e+002
6.099871e+002, 2.292470e+002
6.104692e+002, 2.268636e+002
6.109514e+002, 2.240853e+002
6.114335e+002, 2.208409e+002
6.119156e+002, 2.176219e+002
6.123977e+002, 2.144550e+002
6.128798e+002, 2.113936e+002
6.133619e+002, 2.085146e+002
6.138441e+002, 2.058399e+002
6.143262e+002, 2.031894e+002
6.148083e+002, 2.004561e+002
6.152904e+002, 1.978713e+002
6.157725e+002, 1.958885e+002
6.162546e+002, 1.945569e+002
6.167368e+002, 1.929809e+002
6.172189e+002, 1.908958e+002
6.177010e+002, 1.886080e+002
6.181831e+002, 1.867177e+002
6.186652e+002, 1.851382e+002
6.191473e+002, 1.835059e+002
6.196295e+002, 1.817253e+002
6.201116e+002, 1.797708e+002
6.205937e+002, 1.774328e+002
6.210758e+002, 1.748329e+002
6.215579e+002, 1.725055e+002
6.220400e+002, 1.710370e+002
6.225222e+002, 1.697167e+002
6.230043e+002, 1.680964e+002
6.234864e+002, 1.660444e+002
6.239685e+002, 1.642206e+002
6.244506e+002, 1.628371e+002
6.249327e+002, 1.615735e+002
6.254149e+002, 1.602036e+002
6.258970e+002, 1.586553e+002
6.263791e+002, 1.572456e+002
6.268612e+002, 1.559680e+002
6.273433e+002, 1.548602e+002
6.278254e+002, 1.540518e+002
6.283076e+002, 1.535264e+002
6.287897e+002, 1.529259e+002
6.292718e+002, 1.521487e+002
6.297539e+002, 1.512720e+002
6.302360e+002, 1.503529e+002
6.307181e+002, 1.494323e+002
6.312003e+002, 1.486532e+002
6.316824e+002, 1.483803e+002
6.321645e+002, 1.480440e+002
6.326466e+002, 1.470159e+002
6.331287e+002, 1.454230e+002
6.336108e+002, 1.441823e+002
6.340930e+002, 1.437916e+002
6.345751e+002, 1.436637e+002
6.350572e+002, 1.435735e+002
6.355393e+002, 1.435496e+002
6.360214e+002, 1.433170e+002
6.365035e+002, 1.427347e+002
6.369857e+002, 1.421126e+002
6.374678e+002, 1.416781e+002
6.379499e+002, 1.414425e+002
6.384320e+002, 1.413346e+002
6.389141e+002, 1.413775e+002
6.393962e+002, 1.414717e+002
6.398784e+002, 1.414653e+002
6.403605e+002, 1.413892e+002
6.408426e+002, 1.414000e+002
6.413247e+002, 1.416187e+002
6.418068e+002, 1.417996e+002
6.422889e+002, 1.415330e+002
6.427711e+002, 1.410273e+002
6.432532e+002, 1.407483e+002
6.437353e+002, 1.410005e+002
6.442174e+002, 1.414370e+002
6.446995e+002, 1.420361e+002
6.451816e+002, 1.427355e+002
6.456638e+002, 1.431768e+002
6.461459e+002, 1.429744e+002
6.466280e+002, 1.428493e+002
6.471101e+002, 1.431392e+002
6.475922e+002, 1.438894e+002
6.480743e+002, 1.441114e+002
6.485565e+002, 1.436176e+002
6.490386e+002, 1.430706e+002
6.495207e+002, 1.429683e+002
6.500028e+002, 1.432762e+002
6.504849e+002, 1.438058e+002
6.509670e+002, 1.445783e+002
6.514492e+002, 1.453012e+002
6.519313e+002, 1.456620e+002
6.524134e+002, 1.457426e+002
6.528955e+002, 1.456534e+002
6.533776e+002, 1.452996e+002
6.538597e+002, 1.450624e+002
6.543419e+002, 1.453565e+002
6.548240e+002, 1.458815e+002
6.553061e+002, 1.461723e+002
6.557882e+002, 1.460071e+002
6.562703e+002, 1.457120e+002
6.567524e+002, 1.453012e+002
6.572346e+002, 1.448173e+002
6.577167e+002, 1.443704e+002
6.581988e+002, 1.439518e+002
6.586809e+002, 1.435976e+002
6.591630e+002, 1.433404e+002
6.596451e+002, 1.431592e+002
6.601273e+002, 1.428904e+002
6.606094e+002, 1.425199e+002
6.610915e+002, 1.422586e+002
6.615736e+002, 1.425038e+002
6.620557e+002, 1.428797e+002
6.625378e+002, 1.425743e+002
6.630200e+002, 1.415477e+002
6.635021e+002, 1.403486e+002
6.639842e+002, 1.391120e+002
6.644663e+002, 1.380224e+002
6.649484e+002, 1.373212e+002
6.654305e+002, 1.372084e+002
6.659127e+002, 1.369936e+002
6.663948e+002, 1.365030e+002
6.668769e+002, 1.358348e+002
6.673590e+002, 1.350789e+002
6.678411e+002, 1.341469e+002
6.683232e+002, 1.333372e+002
6.688054e+002, 1.327146e+002
6.692875e+002, 1.321885e+002
6.697696e+002, 1.316161e+002
6.702517e+002, 1.309970e+002
6.707338e+002, 1.303235e+002
6.712159e+002, 1.295255e+002
6.716981e+002, 1.287707e+002
6.721802e+002, 1.284954e+002
6.726623e+002, 1.285573e+002
6.731444e+002, 1.284363e+002
6.736265e+002, 1.277318e+002
6.741086e+002, 1.268526e+002
6.745908e+002, 1.260149e+002
6.750729e+002, 1.252490e+002
6.755550e+002, 1.246394e+002
6.760371e+002, 1.242753e+002
6.765192e+002, 1.240238e+002
6.770013e+002, 1.238701e+002
6.774835e+002, 1.238373e+002
6.779656e+002, 1.236164e+002
6.784477e+002, 1.231238e+002
6.789298e+002, 1.225916e+002
6.794119e+002, 1.221683e+002
6.798940e+002, 1.218491e+002
6.803762e+002, 1.216500e+002
6.808583e+002, 1.215914e+002
6.813404e+002, 1.214996e+002
6.818225e+002, 1.211447e+002
6.823046e+002, 1.206305e+002
6.827867e+002, 1.201431e+002
6.832689e+002, 1.196982e+002
6.837510e+002, 1.193794e+002
6.842331e+002, 1.193598e+002
6.847152e+002, 1.194706e+002
6.851973e+002, 1.194975e+002
6.856794e+002, 1.193400e+002
6.861616e+002, 1.191474e+002
6.866437e+002, 1.188847e+002
6.871258e+002, 1.186190e+002
6.876079e+002, 1.185013e+002
6.880900e+002, 1.186337e+002
6.885721e+002, 1.186311e+002
6.890543e+002, 1.183186e+002
6.895364e+002, 1.178639e+002
6.900185e+002, 1.178537e+002
6.905006e+002, 1.182685e+002
6.909827e+002, 1.185570e+002
6.914648e+002, 1.183023e+002
6.919470e+002, 1.178206e+002
6.924291e+002, 1.175910e+002
6.929112e+002, 1.175829e+002
6.933933e+002, 1.176276e+002
6.938754e+002, 1.176798e+002
6.943575e+002, 1.177168e+002
6.948397e+002, 1.176884e+002
6.953218e+002, 1.175795e+002
6.958039e+002, 1.176055e+002
6.962860e+002, 1.179304e+002
6.967681e+002, 1.182701e+002
6.972502e+002, 1.184809e+002
6.977324e+002, 1.185318e+002
6.982145e+002, 1.185878e+002
6.986966e+002, 1.186232e+002
6.991787e+002, 1.187385e+002
6.996608e+002, 1.191298e+002
7.001429e+002, 1.197123e+002
7.006251e+002, 1.200506e+002
7.011072e+002, 1.200567e+002
7.015893e+002, 1.199886e+002
7.020714e+002, 1.200264e+002
7.025535e+002, 1.201764e+002
7.030356e+002, 1.204549e+002
7.035178e+002, 1.209028e+002
7.039999e+002, 1.214081e+002
7.044820e+002, 1.220220e+002
7.049641e+002, 1.226378e+002
7.054462e+002, 1.230937e+002
7.059283e+002, 1.233190e+002
7.064105e+002, 1.234724e+002
7.068926e+002, 1.234638e+002
7.073747e+002, 1.234614e+002
7.078568e+002, 1.239242e+002
7.083389e+002, 1.248891e+002
7.088210e+002, 1.258569e+002
7.093032e+002, 1.266795e+002
7.097853e+002, 1.273854e+002
7.102674e+002, 1.279581e+002
7.107495e+002, 1.284402e+002
7.112316e+002, 1.289886e+002
7.117137e+002, 1.295868e+002
7.121959e+002, 1.303646e+002
7.126780e+002, 1.316452e+002
7.131601e+002, 1.333126e+002
7.136422e+002, 1.345079e+002
7.141243e+002, 1.349558e+002
7.146064e+002, 1.349078e+002
7.150886e+002, 1.344037e+002
7.155707e+002, 1.334273e+002
7.160528e+002, 1.324496e+002
7.165349e+002, 1.314065e+002
7.170170e+002, 1.305073e+002
7.174991e+002, 1.299012e+002
7.179813e+002, 1.295674e+002
7.184634e+002, 1.292774e+002
7.189455e+002, 1.290237e+002
7.194276e+002, 1.289253e+002
7.199097e+002, 1.292865e+002
7.203918e+002, 1.297782e+002
7.208740e+002, 1.298734e+002
7.213561e+002, 1.294100e+002
7.218382e+002, 1.290993e+002
7.223203e+002, 1.293342e+002
7.228024e+002, 1.298365e+002
7.232845e+002, 1.303651e+002
7.237667e+002, 1.308937e+002
7.242488e+002, 1.314657e+002
7.247309e+002, 1.321535e+002
7.252130e+002, 1.328123e+002
7.256951e+002, 1.332214e+002
7.261772e+002, 1.333525e+002
7.266594e+002, 1.336575e+002
7.271415e+002, 1.342302e+002
7.276236e+002, 1.349056e+002
7.281057e+002, 1.355280e+002
7.285878e+002, 1.360743e+002
7.290699e+002, 1.364853e+002
7.295521e+002, 1.366949e+002
7.300342e+002, 1.368404e+002
7.305163e+002, 1.369219e+002
7.309984e+002, 1.370210e+002
7.314805e+002, 1.372827e+002
7.319626e+002, 1.378532e+002
7.324448e+002, 1.384655e+002
7.329269e+002, 1.391128e+002
7.334090e+002, 1.397603e+002
7.338911e+002, 1.402741e+002
7.343732e+002, 1.406050e+002
7.348553e+002, 1.410029e+002
7.353375e+002, 1.416199e+002
7.358196e+002, 1.422954e+002
7.363017e+002, 1.424597e+002
7.367838e+002, 1.422193e+002
7.372659e+002, 1.422232e+002
7.377480e+002, 1.431009e+002
7.382302e+002, 1.441795e+002
7.387123e+002, 1.448553e+002
7.391944e+002, 1.451746e+002
7.396765e+002, 1.454184e+002
7.401586e+002, 1.456473e+002
7.406407e+002, 1.458615e+002
7.411229e+002, 1.460856e+002
7.416050e+002, 1.463171e+002
7.420871e+002, 1.463853e+002
7.425692e+002, 1.461803e+002
7.430513e+002, 1.460749e+002
7.435334e+002, 1.463687e+002
7.440156e+002, 1.469826e+002
7.444977e+002, 1.471690e+002
7.449798e+002, 1.469298e+002
7.454619e+002, 1.466808e+002
7.459440e+002, 1.467641e+002
7.464261e+002, 1.470141e+002
7.469083e+002, 1.472029e+002
7.473904e+002, 1.473076e+002
7.478725e+002, 1.475254e+002
7.483546e+002, 1.481252e+002
7.488367e+002, 1.487353e+002
7.493188e+002, 1.490923e+002
7.498010e+002, 1.491070e+002
7.502831e+002, 1.490861e+002
7.507652e+002, 1.489438e+002
7.512473e+002, 1.488949e+002
7.517294e+002, 1.491866e+002
7.522115e+002, 1.498098e+002
7.526937e+002, 1.502422e+002
7.531758e+002, 1.504500e+002
7.536579e+002, 1.505035e+002
7.541400e+002, 1.502923e+002
7.546221e+002, 1.500362e+002
7.551042e+002, 1.501678e+002
7.555864e+002, 1.508883e+002
7.560685e+002, 1.515127e+002
7.565506e+002, 1.515440e+002
7.570327e+002, 1.513657e+002
7.575148e+002, 1.513609e+002
7.579969e+002, 1.517853e+002
7.584791e+002, 1.520598e+002
7.589612e+002, 1.521083e+002
7.594433e+002, 1.520896e+002
7.599254e+002, 1.521860e+002
7.604075e+002, 1.523995e+002
7.608896e+002, 1.526932e+002
7.613718e+002, 1.530904e+002
7.618539e+002, 1.534661e+002
7.623360e+002, 1.536148e+002
7.628181e+002, 1.536228e+002
7.633002e+002, 1.536721e+002
7.637823e+002, 1.538338e+002
7.642645e+002, 1.540193e+002
7.647466e+002, 1.542163e+002
7.652287e+002, 1.543956e+002
7.657108e+002, 1.545154e+002
7.661929e+002, 1.544278e+002
7.666750e+002, 1.544930e+002
7.671572e+002, 1.548189e+002
7.676393e+002, 1.552557e+002
7.681214e+002, 1.554931e+002
7.686035e+002, 1.555110e+002
7.690856e+002, 1.556406e+002
7.695677e+002, 1.559973e+002
7.700499e+002, 1.564453e+002
7.705320e+002, 1.569108e+002
7.710141e+002, 1.572993e+002
7.714962e+002, 1.573665e+002
7.719783e+002, 1.565927e+002
7.724604e+002, 1.559059e+002
7.729426e+002, 1.558724e+002
7.734247e+002, 1.562776e+002
7.739068e+002, 1.566337e+002
7.743889e+002, 1.569202e+002
7.748710e+002, 1.570826e+002
7.753531e+002, 1.570346e+002
7.758353e+002, 1.568915e+002
7.763174e+002, 1.570406e+002
7.767995e+002, 1.574998e+002
7.772816e+002, 1.578618e+002
7.777637e+002, 1.579615e+002
7.782458e+002, 1.578987e+002
7.787280e+002, 1.577611e+002
7.792101e+002, 1.575915e+002
7.796922e+002, 1.575263e+002
7.801743e+002, 1.577397e+002
7.806564e+002, 1.579677e+002
7.811385e+002, 1.581227e+002
7.816207e+002, 1.581894e+002
7.821028e+002, 1.580914e+002
7.825849e+002, 1.575770e+002
7.830670e+002, 1.573106e+002
7.835491e+002, 1.575788e+002
7.840313e+002, 1.581964e+002
7.845134e+002, 1.584326e+002
7.849955e+002, 1.582836e+002
7.854776e+002, 1.579803e+002
7.859597e+002, 1.574990e+002
7.864418e+002, 1.570176e+002
7.869240e+002, 1.568818e+002
7.874061e+002, 1.570103e+002
7.878882e+002, 1.571098e+002
7.883703e+002, 1.570903e+002
7.888524e+002, 1.569499e+002
7.893345e+002, 1.566952e+002
7.898167e+002, 1.563170e+002
7.902988e+002, 1.557859e+002
7.907809e+002, 1.550097e+002
7.912630e+002, 1.542485e+002
7.917451e+002, 1.535703e+002
7.922272e+002, 1.529815e+002
7.927094e+002, 1.525006e+002
7.931915e+002, 1.521249e+002
7.936736e+002, 1.516704e+002
7.941557e+002, 1.509577e+002
7.946378e+002, 1.501575e+002
7.951199e+002, 1.495053e+002
7.956021e+002, 1.489792e+002
7.960842e+002, 1.484300e+002
7.965663e+002, 1.477001e+002
7.970484e+002, 1.470296e+002
7.975305e+002, 1.465450e+002
7.980126e+002, 1.462317e+002
7.984948e+002, 1.459537e+002
7.989769e+002, 1.456948e+002
7.994590e+002, 1.455217e+002
7.999411e+002, 1.455063e+002
8.004232e+002, 1.455901e+002
8.009053e+002, 1.455847e+002
8.013875e+002, 1.454840e+002
8.018696e+002, 1.452256e+002
8.023517e+002, 1.446439e+002
8.028338e+002, 1.439729e+002
8.033159e+002, 1.433752e+002
8.037980e+002, 1.428742e+002
8.042802e+002, 1.425776e+002
8.047623e+002, 1.425828e+002
8.052444e+002, 1.427451e+002
8.057265e+002, 1.431269e+002
8.062086e+002, 1.436628e+002
8.066907e+002, 1.437131e+002
8.071729e+002, 1.431472e+002
8.076550e+002, 1.426476e+002
8.081371e+002, 1.426113e+002
8.086192e+002, 1.428403e+002
8.091013e+002, 1.427941e+002
8.095834e+002, 1.425141e+002
8.100656e+002, 1.422350e+002
8.105477e+002, 1.422245e+002
8.110298e+002, 1.421558e+002
8.115119e+002, 1.417256e+002
8.119940e+002, 1.409861e+002
8.124761e+002, 1.403821e+002
8.129583e+002, 1.400188e+002
8.134404e+002, 1.397594e+002
8.139225e+002, 1.395891e+002
8.144046e+002, 1.394946e+002
8.148867e+002, 1.393822e+002
8.153688e+002, 1.392523e+002
8.158510e+002, 1.391248e+002
8.163331e+002, 1.390783e+002
8.168152e+002, 1.389981e+002
8.172973e+002, 1.386350e+002
8.177794e+002, 1.380510e+002
8.182615e+002, 1.375018e+002
8.187437e+002, 1.372047e+002
8.192258e+002, 1.368880e+002
8.197079e+002, 1.363635e+002
8.201900e+002, 1.356711e+002
8.206721e+002, 1.351539e+002
8.211542e+002, 1.348752e+002
8.216364e+002, 1.346261e+002
8.221185e+002, 1.343512e+002
8.226006e+002, 1.340509e+002
8.230827e+002, 1.337256e+002
8.235648e+002, 1.333720e+002
8.240469e+002, 1.329327e+002
8.245291e+002, 1.322985e+002
8.250112e+002, 1.316314e+002
8.254933e+002, 1.310581e+002
8.259754e+002, 1.305750e+002
8.264575e+002, 1.301583e+002
8.269396e+002, 1.300186e+002
8.274218e+002, 1.296804e+002
8.279039e+002, 1.288436e+002
8.283860e+002, 1.277448e+002
8.288681e+002, 1.272793e+002
8.293502e+002, 1.275635e+002
8.298323e+002, 1.277722e+002
8.303145e+002, 1.276070e+002
8.307966e+002, 1.272294e+002
8.312787e+002, 1.269413e+002
8.317608e+002, 1.267013e+002
8.322429e+002, 1.263928e+002
8.327250e+002, 1.257773e+002
8.332072e+002, 1.252592e+002
8.336893e+002, 1.251992e+002
8.341714e+002, 1.253972e+002
8.346535e+002, 1.252965e+002
8.351356e+002, 1.245976e+002
8.356177e+002, 1.241030e+002
8.360999e+002, 1.240195e+002
8.365820e+002, 1.241534e+002
8.370641e+002, 1.240393e+002
8.375462e+002, 1.237034e+002
8.380283e+002, 1.234552e+002
8.385104e+002, 1.234446e+002
8.389926e+002, 1.234673e+002
8.394747e+002, 1.232677e+002
8.399568e+002, 1.229471e+002
8.404389e+002, 1.226791e+002
8.409210e+002, 1.224781e+002
8.414031e+002, 1.223947e+002
8.418853e+002, 1.225913e+002
8.423674e+002, 1.228349e+002
8.428495e+002, 1.227711e+002
8.433316e+002, 1.223341e+002
8.438137e+002, 1.218885e+002
8.442958e+002, 1.214549e+002
8.447780e+002, 1.211266e+002
8.452601e+002, 1.211163e+002
8.457422e+002, 1.213145e+002
8.462243e+002, 1.214550e+002
8.467064e+002, 1.214506e+002
8.471885e+002, 1.214168e+002
8.476707e+002, 1.215347e+002
8.481528e+002, 1.216082e+002
8.486349e+002, 1.213791e+002
8.491170e+002, 1.204270e+002
8.495991e+002, 1.199390e+002
8.500812e+002, 1.200593e+002
8.505634e+002, 1.204535e+002
8.510455e+002, 1.208906e+002
8.515276e+002, 1.213208e+002
8.520097e+002, 1.212583e+002
8.524918e+002, 1.205799e+002
8.529739e+002, 1.198508e+002
8.534561e+002, 1.195672e+002
8.539382e+002, 1.195313e+002
8.544203e+002, 1.195330e+002
8.549024e+002, 1.195291e+002
8.553845e+002, 1.195793e+002
8.558666e+002, 1.198495e+002
8.563488e+002, 1.200333e+002
8.568309e+002, 1.198767e+002
8.573130e+002, 1.193089e+002
8.577951e+002, 1.189416e+002
8.582772e+002, 1.187979e+002
8.587593e+002, 1.187150e+002
8.592415e+002, 1.184748e+002
8.597236e+002, 1.182299e+002
8.602057e+002, 1.183308e+002
8.606878e+002, 1.188014e+002
8.611699e+002, 1.191061e+002
8.616520e+002, 1.188363e+002
8.621342e+002, 1.184467e+002
8.626163e+002, 1.182502e+002
8.630984e+002, 1.182698e+002
8.635805e+002, 1.180357e+002
8.640626e+002, 1.174303e+002
8.645447e+002, 1.169293e+002
8.650269e+002, 1.168627e+002
8.655090e+002, 1.171065e+002
8.659911e+002, 1.173095e+002
8.664732e+002, 1.174538e+002
8.669553e+002, 1.174060e+002
8.674374e+002, 1.168056e+002
8.679196e+002, 1.162214e+002
8.684017e+002, 1.161118e+002
8.688838e+002, 1.164219e+002
8.693659e+002, 1.166705e+002
8.698480e+002, 1.168659e+002
8.703301e+002, 1.168879e+002
8.708123e+002, 1.165905e+002
8.712944e+002, 1.161429e+002
8.717765e+002, 1.162879e+002
8.722586e+002, 1.169464e+002
8.727407e+002, 1.172744e+002
8.732228e+002, 1.166843e+002
8.737050e+002, 1.158348e+002
8.741871e+002, 1.152418e+002
8.746692e+002, 1.149246e+002
8.751513e+002, 1.149205e+002
8.756334e+002, 1.157172e+002
8.761155e+002, 1.162338e+002
8.765977e+002, 1.162279e+002
8.770798e+002, 1.158916e+002
8.775619e+002, 1.155164e+002
8.780440e+002, 1.150915e+002
8.785261e+002, 1.147964e+002
8.790082e+002, 1.146753e+002
8.794904e+002, 1.146660e+002
8.799725e+002, 1.148285e+002
8.804546e+002, 1.150048e+002
8.809367e+002, 1.148673e+002
8.814188e+002, 1.140757e+002
8.819009e+002, 1.135172e+002
8.823831e+002, 1.138062e+002
8.828652e+002, 1.142901e+002
8.833473e+002, 1.142739e+002
8.838294e+002, 1.135630e+002
8.843115e+002, 1.131418e+002
8.847936e+002, 1.130975e+002
8.852758e+002, 1.131442e+002
8.857579e+002, 1.129820e+002
8.862400e+002, 1.126921e+002
8.867221e+002, 1.124060e+002
8.872042e+002, 1.121322e+002
8.876863e+002, 1.120562e+002
8.881685e+002, 1.125854e+002
8.886506e+002, 1.131182e+002
8.891327e+002, 1.131624e+002
8.896148e+002, 1.126157e+002
8.900969e+002, 1.122543e+002
8.905790e+002, 1.121455e+002
8.910612e+002, 1.120320e+002
8.915433e+002, 1.116650e+002
8.920254e+002, 1.111703e+002
8.925075e+002, 1.111053e+002
8.929896e+002, 1.114170e+002
8.934717e+002, 1.116904e+002
8.939539e+002, 1.116277e+002
8.944360e+002, 1.114798e+002
8.949181e+002, 1.114404e+002
8.954002e+002, 1.114823e+002
8.958823e+002, 1.113752e+002
8.963644e+002, 1.109570e+002
8.968466e+002, 1.106890e+002
8.973287e+002, 1.107348e+002
8.978108e+002, 1.109792e+002
8.982929e+002, 1.111463e+002
8.987750e+002, 1.112385e+002
8.992571e+002, 1.112693e+002
8.997393e+002, 1.112504e+002
9.002214e+002, 1.111639e+002
9.007035e+002, 1.109260e+002
9.011856e+002, 1.106261e+002
9.016677e+002, 1.104192e+002
9.021498e+002, 1.102784e+002
9.026320e+002, 1.103519e+002
9.031141e+002, 1.108056e+002
9.035962e+002, 1.112827e+002
9.040783e+002, 1.112208e+002
9.045604e+002, 1.106648e+002
9.050425e+002, 1.102219e+002
9.055247e+002, 1.099788e+002
9.060068e+002, 1.098641e+002
9.064889e+002, 1.098996e+002
9.069710e+002, 1.099791e+002
9.074531e+002, 1.099456e+002
9.079352e+002, 1.096846e+002
9.084174e+002, 1.096818e+002
9.088995e+002, 1.102990e+002
9.093816e+002, 1.108376e+002
9.098637e+002, 1.107814e+002
9.103458e+002, 1.101326e+002
9.108279e+002, 1.098773e+002
9.113101e+002, 1.100215e+002
9.117922e+002, 1.102236e+002
9.122743e+002, 1.101999e+002
9.127564e+002, 1.101253e+002
9.132385e+002, 1.102034e+002
9.137206e+002, 1.104220e+002
9.142028e+002, 1.106351e+002
9.146849e+002, 1.108644e+002
9.151670e+002, 1.110000e+002
9.156491e+002, 1.109776e+002
9.161312e+002, 1.108459e+002
9.166133e+002, 1.107948e+002
9.170955e+002, 1.108262e+002
9.175776e+002, 1.108535e+002
9.180597e+002, 1.107897e+002
9.185418e+002, 1.107915e+002
9.190239e+002, 1.111579e+002
9.195060e+002, 1.117178e+002
9.199882e+002, 1.121337e+002
9.204703e+002, 1.122230e+002
9.209524e+002, 1.122505e+002
9.214345e+002, 1.122069e+002
9.219166e+002, 1.121634e+002
9.223987e+002, 1.122193e+002
9.228809e+002, 1.123808e+002
9.233630e+002, 1.125256e+002
9.238451e+002, 1.126418e+002
9.243272e+002, 1.127265e+002
9.248093e+002, 1.127090e+002
9.252914e+002, 1.126899e+002
9.257736e+002, 1.128091e+002
9.262557e+002, 1.131014e+002
9.267378e+002, 1.134488e+002
9.272199e+002, 1.139515e+002
9.277020e+002, 1.143694e+002
9.281841e+002, 1.145610e+002
9.286663e+002, 1.145266e+002
9.291484e+002, 1.144704e+002
9.296305e+002, 1.143863e+002
9.301126e+002, 1.144123e+002
9.305947e+002, 1.147043e+002
9.310768e+002, 1.151125e+002
9.315590e+002, 1.154786e+002
9.320411e+002, 1.157978e+002
9.325232e+002, 1.160465e+002
9.330053e+002, 1.161038e+002
9.334874e+002, 1.162375e+002
9.339695e+002, 1.165579e+002
9.344517e+002, 1.169757e+002
9.349338e+002, 1.172570e+002
9.354159e+002, 1.173958e+002
9.358980e+002, 1.176010e+002
9.363801e+002, 1.179163e+002
9.368622e+002, 1.183420e+002
9.373444e+002, 1.189628e+002
9.378265e+002, 1.196582e+002
9.383086e+002, 1.202232e+002
9.387907e+002, 1.203081e+002
9.392728e+002, 1.208472e+002
9.397549e+002, 1.220618e+002
9.402371e+002, 1.236866e+002
9.407192e+002, 1.259324e+002
9.412013e+002, 1.288525e+002
9.416834e+002, 1.297264e+002
9.421655e+002, 1.283745e+002
9.426476e+002, 1.267891e+002
9.431298e+002, 1.265847e+002
9.436119e+002, 1.270767e+002
9.440940e+002, 1.275717e+002
9.445761e+002, 1.280252e+002
9.450582e+002, 1.286341e+002
9.455403e+002, 1.295064e+002
9.460225e+002, 1.304807e+002
9.465046e+002, 1.315596e+002
9.469867e+002, 1.326881e+002
9.474688e+002, 1.336373e+002
9.479509e+002, 1.344082e+002
9.484330e+002, 1.351887e+002
9.489152e+002, 1.360412e+002
9.493973e+002, 1.369566e+002
9.498794e+002, 1.380182e+002
9.503615e+002, 1.391154e+002
9.508436e+002, 1.400556e+002
9.513257e+002, 1.407324e+002
9.518079e+002, 1.412872e+002
9.522900e+002, 1.416309e+002
9.527721e+002, 1.419861e+002
9.532542e+002, 1.426861e+002
9.537363e+002, 1.436743e+002
9.542184e+002, 1.445199e+002
9.547006e+002, 1.451725e+002
9.551827e+002, 1.457405e+002
9.556648e+002, 1.461494e+002
9.561469e+002, 1.466405e+002
9.566290e+002, 1.474911e+002
9.571111e+002, 1.487913e+002
9.575933e+002, 1.498525e+002
9.580754e+002, 1.504442e+002
9.585575e+002, 1.512107e+002
9.590396e+002, 1.524603e+002
9.595217e+002, 1.541058e+002
9.600038e+002, 1.559680e+002
9.604860e+002, 1.580044e+002
9.609681e+002, 1.600016e+002
9.614502e+002, 1.616481e+002
9.619323e+002, 1.634019e+002
9.624144e+002, 1.652428e+002
9.628965e+002, 1.674360e+002
9.633787e+002, 1.705437e+002
9.638608e+002, 1.749678e+002
9.643429e+002, 1.792561e+002
9.648250e+002, 1.831508e+002
9.653071e+002, 1.871474e+002
9.657892e+002, 1.918383e+002
9.662714e+002, 1.971173e+002
9.667535e+002, 2.027465e+002
9.672356e+002, 2.085857e+002
9.677177e+002, 2.151684e+002
9.681998e+002, 2.221032e+002
9.686819e+002, 2.303978e+002
9.691641e+002, 2.405749e+002
9.696462e+002, 2.526938e+002
9.701283e+002, 2.666281e+002
9.706104e+002, 2.823908e+002
9.710925e+002, 3.007958e+002
9.715746e+002, 3.224697e+002
9.720568e+002, 3.472621e+002
9.725389e+002, 3.755837e+002
9.730210e+002, 4.070902e+002
9.735031e+002, 4.398148e+002
9.739852e+002, 4.734898e+002
9.744673e+002, 5.076462e+002
9.749495e+002, 5.416436e+002
9.754316e+002, 5.763871e+002
9.759137e+002, 6.122775e+002
9.763958e+002, 6.489803e+002
9.768779e+002, 6.896892e+002
9.773600e+002, 7.344730e+002
9.778422e+002, 7.852146e+002
9.783243e+002, 8.420875e+002
9.788064e+002, 9.078245e+002
9.792885e+002, 9.856039e+002
9.797706e+002, 1.076871e+003
9.802527e+002, 1.176263e+003
9.807349e+002, 1.284885e+003
9.812170e+002, 1.398818e+003
9.816991e+002, 1.515752e+003
9.821812e+002, 1.635210e+003
9.826633e+002, 1.757526e+003
9.831454e+002, 1.880299e+003
9.836276e+002, 1.976728e+003
9.841097e+002, 2.050433e+003
9.845918e+002, 2.073758e+003
9.850739e+002, 2.018211e+003
9.855560e+002, 1.895983e+003
9.860381e+002, 1.733650e+003
9.865203e+002, 1.510844e+003
9.870024e+002, 1.301212e+003
9.874845e+002, 1.110574e+003
9.879666e+002, 9.429583e+002
9.884487e+002, 8.060728e+002
9.889308e+002, 6.974918e+002
9.894130e+002, 6.081800e+002
9.898951e+002, 5.376606e+002
9.903772e+002, 4.786099e+002
9.908593e+002, 4.300966e+002
9.913414e+002, 3.889693e+002
9.918235e+002, 3.534530e+002
9.923057e+002, 3.230460e+002
9.927878e+002, 2.970975e+002
9.932699e+002, 2.756008e+002
9.937520e+002, 2.569419e+002
9.942341e+002, 2.406546e+002
9.947162e+002, 2.263035e+002
9.951984e+002, 2.133588e+002
9.956805e+002, 2.018184e+002
9.961626e+002, 1.920520e+002
9.966447e+002, 1.850005e+002
9.971268e+002, 1.786179e+002
9.976089e+002, 1.724292e+002
9.980911e+002, 1.665421e+002
9.985732e+002, 1.610725e+002
9.990553e+002, 1.560002e+002
9.995374e+002, 1.520334e+002
1.000020e+003, 1.494202e+002
1.000502e+003, 1.470546e+002
1.000984e+003, 1.438091e+002
1.001466e+003, 1.404517e+002
1.001948e+003, 1.377679e+002
1.002430e+003, 1.359217e+002
1.002912e+003, 1.341569e+002
1.003394e+003, 1.323961e+002
1.003876e+003, 1.307599e+002
1.004359e+003, 1.293265e+002
1.004841e+003, 1.280349e+002
1.005323e+003, 1.266982e+002
1.005805e+003, 1.253568e+002
1.006287e+003, 1.242295e+002
1.006769e+003, 1.235384e+002
1.007251e+003, 1.228962e+002
1.007733e+003, 1.220651e+002
1.008216e+003, 1.211894e+002
1.008698e+003, 1.204896e+002
1.009180e+003, 1.200124e+002
1.009662e+003, 1.195434e+002
1.010144e+003, 1.190981e+002
1.010626e+003, 1.185343e+002
1.011108e+003, 1.176296e+002
1.011590e+003, 1.165702e+002
1.012072e+003, 1.156623e+002
1.012555e+003, 1.149097e+002
1.013037e+003, 1.140993e+002
1.013519e+003, 1.129634e+002
1.014001e+003, 1.119912e+002
1.014483e+003, 1.113602e+002
1.014965e+003, 1.109893e+002
1.015447e+003, 1.106383e+002
1.015929e+003, 1.103016e+002
1.016411e+003, 1.099330e+002
1.016894e+003, 1.095133e+002
1.017376e+003, 1.090699e+002
1.017858e+003, 1.085872e+002
1.018340e+003, 1.081177e+002
1.018822e+003, 1.077387e+002
1.019304e+003, 1.074970e+002
1.019786e+003, 1.072448e+002
1.020268e+003, 1.069796e+002
1.020751e+003, 1.067145e+002
1.021233e+003, 1.064342e+002
1.021715e+003, 1.061674e+002
1.022197e+003, 1.059939e+002
1.022679e+003, 1.059093e+002
1.023161e+003, 1.058840e+002
1.023643e+003, 1.059078e+002
1.024125e+003, 1.059862e+002
1.024607e+003, 1.062509e+002
1.025090e+003, 1.065222e+002
1.025572e+003, 1.063289e+002
1.026054e+003, 1.056205e+002
1.026536e+003, 1.051866e+002
1.027018e+003, 1.052052e+002
1.027500e+003, 1.053575e+002
1.027982e+003, 1.052886e+002
1.028464e+003, 1.051696e+002
1.028947e+003, 1.052632e+002
1.029429e+003, 1.057074e+002
1.029911e+003, 1.057814e+002
1.030393e+003, 1.052291e+002
1.030875e+003, 1.047240e+002
1.031357e+003, 1.046432e+002
1.031839e+003, 1.048586e+002
1.032321e+003, 1.049257e+002
1.032803e+003, 1.048875e+002
1.033286e+003, 1.049264e+002
1.033768e+003, 1.052470e+002
1.034250e+003, 1.055332e+002
1.034732e+003, 1.056489e+002
1.035214e+003, 1.056439e+002
1.035696e+003, 1.055822e+002
1.036178e+003, 1.054442e+002
1.036660e+003, 1.053244e+002
1.037143e+003, 1.052129e+002
1.037625e+003, 1.052092e+002
1.038107e+003, 1.054551e+002
1.038589e+003, 1.058295e+002
1.039071e+003, 1.062273e+002
1.039553e+003, 1.066316e+002
1.040035e+003, 1.069081e+002
1.040517e+003, 1.070298e+002
1.041000e+003, 1.070084e+002
1.041482e+003, 1.067935e+002
1.041964e+003, 1.064893e+002
1.042446e+003, 1.063170e+002
1.042928e+003, 1.062760e+002
1.043410e+003, 1.063888e+002
1.043892e+003, 1.067163e+002
1.044374e+003, 1.070385e+002
1.044856e+003, 1.071817e+002
1.045339e+003, 1.072827e+002
1.045821e+003, 1.074791e+002
1.046303e+003, 1.077951e+002
1.046785e+003, 1.079999e+002
1.047267e+003, 1.080715e+002
1.047749e+003, 1.082190e+002
1.048231e+003, 1.086602e+002
1.048713e+003, 1.091955e+002
1.049195e+003, 1.095589e+002
1.049677e+003, 1.098012e+002
1.050160e+003, 1.100646e+002
1.050642e+003, 1.104481e+002
1.051124e+003, 1.107402e+002
1.051606e+003, 1.107926e+002
1.052088e+003, 1.109330e+002
1.052570e+003, 1.118251e+002
1.053052e+003, 1.132041e+002
1.053534e+003, 1.138456e+002
1.054017e+003, 1.135805e+002
1.054499e+003, 1.134767e+002
1.054981e+003, 1.144493e+002
1.055463e+003, 1.155691e+002
1.055945e+003, 1.161987e+002
1.056427e+003, 1.164385e+002
1.056909e+003, 1.169131e+002
1.057391e+003, 1.176516e+002
1.057874e+003, 1.182759e+002
1.058356e+003, 1.185731e+002
1.058838e+003, 1.188816e+002
1.059320e+003, 1.196414e+002
1.059802e+003, 1.206676e+002
1.060284e+003, 1.217247e+002
1.060766e+003, 1.227897e+002
1.061248e+003, 1.238179e+002
1.061730e+003, 1.247838e+002
1.062213e+003, 1.257609e+002
1.062695e+003, 1.267342e+002
1.063177e+003, 1.277659e+002
1.063659e+003, 1.291521e+002
1.064141e+003, 1.308360e+002
1.064623e+003, 1.325278e+002
1.065105e+003, 1.341272e+002
1.065587e+003, 1.356500e+002
1.066070e+003, 1.371055e+002
1.066552e+003, 1.385036e+002
1.067034e+003, 1.397531e+002
1.067516e+003, 1.408303e+002
1.067998e+003, 1.423760e+002
1.068480e+003, 1.444887e+002
1.068962e+003, 1.466804e+002
1.069444e+003, 1.485788e+002
1.069927e+003, 1.502929e+002
1.070409e+003, 1.519348e+002
1.070891e+003, 1.534859e+002
1.071373e+003, 1.550011e+002
1.071855e+003, 1.564809e+002
1.072337e+003, 1.579294e+002
1.072819e+003, 1.593199e+002
1.073301e+003, 1.607553e+002
1.073783e+003, 1.626018e+002
1.074266e+003, 1.646276e+002
1.074748e+003, 1.663123e+002
1.075230e+003, 1.673229e+002
1.075712e+003, 1.685355e+002
1.076194e+003, 1.704850e+002
1.076676e+003, 1.723761e+002
1.077158e+003, 1.737599e+002
1.077640e+003, 1.746610e+002
1.078122e+003, 1.754429e+002
1.078604e+003, 1.760804e+002
1.079087e+003, 1.763612e+002
1.079569e+003, 1.758433e+002
1.080051e+003, 1.752734e+002
1.080533e+003, 1.750779e+002
1.081015e+003, 1.751389e+002
1.081497e+003, 1.752354e+002
1.081979e+003, 1.753980e+002
1.082461e+003, 1.752410e+002
1.082944e+003, 1.745947e+002
1.083426e+003, 1.745706e+002
1.083908e+003, 1.762075e+002
1.084390e+003, 1.790891e+002
1.084872e+003, 1.830492e+002
1.085354e+003, 1.879724e+002
1.085836e+003, 1.926199e+002
1.086318e+003, 1.960546e+002
1.086801e+003, 2.010248e+002
1.087283e+003, 2.090782e+002
1.087765e+003, 2.175882e+002
1.088247e+003, 2.233862e+002
1.088729e+003, 2.255470e+002
1.089211e+003, 2.206512e+002
1.089693e+003, 2.066997e+002
1.090175e+003, 1.925613e+002
1.090657e+003, 1.808664e+002
1.091140e+003, 1.712429e+002
1.091622e+003, 1.635785e+002
1.092104e+003, 1.577796e+002
1.092586e+003, 1.533212e+002
1.093068e+003, 1.501286e+002
1.093550e+003, 1.474798e+002
1.094032e+003, 1.448879e+002
1.094514e+003, 1.429187e+002
1.094997e+003, 1.421152e+002
1.095479e+003, 1.421423e+002
1.095961e+003, 1.425395e+002
1.096443e+003, 1.433109e+002
1.096925e+003, 1.442975e+002
1.097407e+003, 1.455073e+002
1.097889e+003, 1.469048e+002
1.098371e+003, 1.484754e+002
1.098854e+003, 1.501905e+002
1.099336e+003, 1.519990e+002
1.099818e+003, 1.539194e+002
1.100300e+003, 1.559953e+002
1.100782e+003, 1.582408e+002
1.101264e+003, 1.606416e+002
1.101746e+003, 1.631950e+002
1.102228e+003, 1.658562e+002
1.102710e+003, 1.685606e+002
1.103193e+003, 1.713073e+002
1.103675e+003, 1.742206e+002
1.104157e+003, 1.773015e+002
1.104639e+003, 1.802503e+002
1.105121e+003, 1.827589e+002
1.105603e+003, 1.853579e+002
1.106085e+003, 1.883404e+002
1.106567e+003, 1.915433e+002
1.107049e+003, 1.944372e+002
1.107531e+003, 1.970656e+002
1.108014e+003, 1.995017e+002
1.108496e+003, 2.018528e+002
1.108978e+003, 2.038646e+002
1.109460e+003, 2.050548e+002
1.109942e+003, 2.060538e+002
1.110424e+003, 2.074621e+002
1.110906e+003, 2.093270e+002
1.111388e+003, 2.107962e+002
1.111871e+003, 2.118604e+002
1.112353e+003, 2.126218e+002
1.112835e+003, 2.128099e+002
1.113317e+003, 2.131281e+002
1.113799e+003, 2.144277e+002
1.114281e+003, 2.163516e+002
1.114763e+003, 2.183470e+002
1.115245e+003, 2.202463e+002
1.115728e+003, 2.223206e+002
1.116210e+003, 2.245784e+002
1.116692e+003, 2.269752e+002
1.117174e+003, 2.294931e+002
1.117656e+003, 2.320880e+002
1.118138e+003, 2.347824e+002
1.118620e+003, 2.375000e+002
1.119102e+003, 2.399459e+002
1.119584e+003, 2.423194e+002
1.120067e+003, 2.439531e+002
1.120549e+003, 2.448218e+002
1.121031e+003, 2.448254e+002
1.121513e+003, 2.438275e+002
1.121995e+003, 2.418410e+002
1.122477e+003, 2.389721e+002
1.122959e+003, 2.351999e+002
1.123441e+003, 2.305216e+002
1.123924e+003, 2.243611e+002
1.124406e+003, 2.178903e+002
1.124888e+003, 2.115703e+002
1.125370e+003, 2.053601e+002
1.125852e+003, 1.990709e+002
1.126334e+003, 1.927097e+002
1.126816e+003, 1.866002e+002
1.127298e+003, 1.808185e+002
1.127781e+003, 1.753899e+002
1.128263e+003, 1.705476e+002
1.128745e+003, 1.659257e+002
1.129227e+003, 1.611091e+002
1.129709e+003, 1.560999e+002
1.130191e+003, 1.518875e+002
1.130673e+003, 1.484810e+002
1.131155e+003, 1.451816e+002
1.131637e+003, 1.415458e+002
1.132120e+003, 1.381163e+002
1.132602e+003, 1.355134e+002
1.133084e+003, 1.334391e+002
1.133566e+003, 1.315743e+002
1.134048e+003, 1.298884e+002
1.134530e+003, 1.282599e+002
1.135012e+003, 1.266966e+002
1.135494e+003, 1.251356e+002
1.135976e+003, 1.234670e+002
1.136458e+003, 1.217945e+002
1.136941e+003, 1.203428e+002
1.137423e+003, 1.190341e+002
1.137905e+003, 1.176835e+002
1.138387e+003, 1.159511e+002
1.138869e+003, 1.146633e+002
1.139351e+003, 1.140509e+002
1.139833e+003, 1.134962e+002
1.140315e+003, 1.122498e+002
1.140798e+003, 1.106534e+002
1.141280e+003, 1.095693e+002
1.141762e+003, 1.089509e+002
1.142244e+003, 1.083286e+002
1.142726e+003, 1.075516e+002
1.143208e+003, 1.066535e+002
1.143690e+003, 1.054914e+002
1.144172e+003, 1.043959e+002
1.144655e+003, 1.040072e+002
1.145137e+003, 1.041303e+002
1.145619e+003, 1.039247e+002
1.146101e+003, 1.032861e+002
1.146583e+003, 1.025878e+002
1.147065e+003, 1.020267e+002
1.147547e+003, 1.014472e+002
1.148029e+003, 1.006774e+002
1.148511e+003, 9.988079e+001
1.148994e+003, 9.971086e+001
1.149476e+003, 1.000572e+002
1.149958e+003, 9.981664e+001
1.150440e+003, 9.859923e+001
1.150922e+003, 9.745107e+001
1.151404e+003, 9.719325e+001
1.151886e+003, 9.724747e+001
1.152368e+003, 9.723666e+001
1.152851e+003, 9.714147e+001
1.153333e+003, 9.681648e+001
1.153815e+003, 9.625853e+001
1.154297e+003, 9.587211e+001
1.154779e+003, 9.590015e+001
1.155261e+003, 9.594334e+001
1.155743e+003, 9.555675e+001
1.156225e+003, 9.502987e+001
1.156708e+003, 9.471127e+001
1.157190e+003, 9.463974e+001
1.157672e+003, 9.459987e+001
1.158154e+003, 9.461535e+001
1.158636e+003, 9.444953e+001
1.159118e+003, 9.374134e+001
1.159600e+003, 9.304573e+001
1.160082e+003, 9.310996e+001
1.160564e+003, 9.358872e+001
1.161047e+003, 9.388267e+001
1.161529e+003, 9.388467e+001
1.162011e+003, 9.372813e+001
1.162493e+003, 9.335438e+001
1.162975e+003, 9.306841e+001
1.163457e+003, 9.322506e+001
1.163939e+003, 9.352812e+001
1.164421e+003, 9.352404e+001
1.164903e+003, 9.331063e+001
1.165385e+003, 9.320619e+001
1.165868e+003, 9.341274e+001
1.166350e+003, 9.344567e+001
1.166832e+003, 9.318546e+001
1.167314e+003, 9.297533e+001
1.167796e+003, 9.333910e+001
1.168278e+003, 9.392232e+001
1.168760e+003, 9.398421e+001
1.169242e+003, 9.359657e+001
1.169725e+003, 9.347363e+001
1.170207e+003, 9.404077e+001
1.170689e+003, 9.457026e+001
1.171171e+003, 9.487823e+001
1.171653e+003, 9.525062e+001
1.172135e+003, 9.656351e+001
1.172617e+003, 9.811938e+001
1.173099e+003, 9.811111e+001
1.173582e+003, 9.637253e+001
1.174064e+003, 9.484878e+001
1.174546e+003, 9.435677e+001
1.175028e+003, 9.407034e+001
1.175510e+003, 9.384557e+001
1.175992e+003, 9.364181e+001
1.176474e+003, 9.339716e+001
1.176956e+003, 9.310751e+001
1.177438e+003, 9.277296e+001
1.177921e+003, 9.239598e+001
1.178403e+003, 9.195131e+001
1.178885e+003, 9.129738e+001
1.179367e+003, 9.072034e+001
1.179849e+003, 9.033186e+001
1.180331e+003, 9.010036e+001
1.180813e+003, 9.001646e+001
1.181295e+003, 9.002105e+001
1.181778e+003, 8.987045e+001
1.182260e+003, 8.944996e+001
1.182742e+003, 8.904760e+001
1.183224e+003, 8.876558e+001
1.183706e+003, 8.856973e+001
1.184188e+003, 8.845375e+001
1.184670e+003, 8.840334e+001
1.185152e+003, 8.834091e+001
1.185635e+003, 8.827503e+001
1.186117e+003, 8.826314e+001
1.186599e+003, 8.840747e+001
1.187081e+003, 8.843895e+001
1.187563e+003, 8.809583e+001
1.188045e+003, 8.769624e+001
1.188527e+003, 8.746804e+001
1.189009e+003, 8.740496e+001
1.189491e+003, 8.744917e+001
1.189974e+003, 8.757865e+001
1.190456e+003, 8.763161e+001
1.190938e+003, 8.751344e+001
1.191420e+003, 8.731980e+001
1.191902e+003, 8.696259e+001
1.192384e+003, 8.665276e+001
1.192866e+003, 8.663792e+001
1.193348e+003, 8.692741e+001
1.193830e+003, 8.702235e+001
1.194313e+003, 8.693325e+001
1.194795e+003, 8.680669e+001
1.195277e+003, 8.671718e+001
1.195759e+003, 8.662742e+001
1.196241e+003, 8.650667e+001
1.196723e+003, 8.638169e+001
1.197205e+003, 8.628230e+001
1.197687e+003, 8.620856e+001
1.198169e+003, 8.618221e+001
1.198652e+003, 8.620368e+001
1.199134e+003, 8.623737e+001
1.199616e+003, 8.629182e+001
1.200098e+003, 8.631788e+001
1.200580e+003, 8.625216e+001
1.201062e+003, 8.615467e+001
1.201544e+003, 8.612959e+001
1.202026e+003, 8.617960e+001
1.202509e+003, 8.621822e+001
1.202991e+003, 8.623830e+001
1.203473e+003, 8.620356e+001
1.203955e+003, 8.598321e+001
1.204437e+003, 8.580122e+001
1.204919e+003, 8.590914e+001
1.205401e+003, 8.612745e+001
1.205883e+003, 8.598720e+001
1.206365e+003, 8.547330e+001
1.206848e+003, 8.532936e+001
1.207330e+003, 8.567581e+001
1.207812e+003, 8.598097e+001
1.208294e+003, 8.575415e+001
1.208776e+003, 8.541821e+001
1.209258e+003, 8.526599e+001
1.209740e+003, 8.524228e+001
1.210222e+003, 8.514571e+001
1.210705e+003, 8.497367e+001
1.211187e+003, 8.510236e+001
1.211669e+003, 8.564208e+001
1.212151e+003, 8.608692e+001
1.212633e+003, 8.586840e+001
1.213115e+003, 8.554527e+001
1.213597e+003, 8.557198e+001
1.214079e+003, 8.584270e+001
1.214562e+003, 8.595178e+001
1.215044e+003, 8.590353e+001
1.215526e+003, 8.588706e+001
1.216008e+003, 8.595643e+001
1.216490e+003, 8.600314e+001
1.216972e+003, 8.595638e+001
1.217454e+003, 8.583569e+001
1.217936e+003, 8.560449e+001
1.218418e+003, 8.530910e+001
1.218901e+003, 8.522991e+001
1.219383e+003, 8.535170e+001
1.219865e+003, 8.534810e+001
1.220347e+003, 8.508186e+001
1.220829e+003, 8.484739e+001
1.221311e+003, 8.495308e+001
1.221793e+003, 8.509653e+001
1.222275e+003, 8.499956e+001
1.222757e+003, 8.472026e+001
1.223240e+003, 8.476073e+001
1.223722e+003, 8.509023e+001
1.224204e+003, 8.529903e+001
1.224686e+003, 8.523259e+001
1.225168e+003, 8.507118e+001
1.225650e+003, 8.475793e+001
1.226132e+003, 8.457175e+001
1.226614e+003, 8.481991e+001
1.227096e+003, 8.540807e+001
1.227579e+003, 8.537998e+001
1.228061e+003, 8.481221e+001
1.228543e+003, 8.436696e+001
1.229025e+003, 8.429980e+001
1.229507e+003, 8.440917e+001
1.229989e+003, 8.481802e+001
1.230471e+003, 8.513615e+001
1.230953e+003, 8.500532e+001
1.231436e+003, 8.449480e+001
1.231918e+003, 8.425947e+001
1.232400e+003, 8.427540e+001
1.232882e+003, 8.440441e+001
1.233364e+003, 8.472672e+001
1.233846e+003, 8.488734e+001
1.234328e+003, 8.453038e+001
1.234810e+003, 8.410999e+001
1.235292e+003, 8.393722e+001
1.235775e+003, 8.399709e+001
1.236257e+003, 8.426308e+001
1.236739e+003, 8.466915e+001
1.237221e+003, 8.486753e+001
1.237703e+003, 8.464488e+001
1.238185e+003, 8.428652e+001
1.238667e+003, 8.361263e+001
1.239149e+003, 8.313929e+001
1.239632e+003, 8.339699e+001
1.240114e+003, 8.420706e+001
1.240596e+003, 8.447256e+001
1.241078e+003, 8.430965e+001
1.241560e+003, 8.422273e+001
1.242042e+003, 8.462225e+001
1.242524e+003, 8.484355e+001
1.243006e+003, 8.460823e+001
1.243489e+003, 8.430949e+001
1.243971e+003, 8.432343e+001
1.244453e+003, 8.452779e+001
1.244935e+003, 8.433160e+001
1.245417e+003, 8.385195e+001
1.245899e+003, 8.353387e+001
1.246381e+003, 8.369433e+001
1.246863e+003, 8.385308e+001
1.247345e+003, 8.398782e+001
1.247828e+003, 8.401294e+001
1.248310e+003, 8.378099e+001
1.248792e+003, 8.340604e+001
1.249274e+003, 8.319797e+001
1.249756e+003, 8.311907e+001
1.250238e+003, 8.302328e+001
1.250720e+003, 8.281377e+001
1.251202e+003, 8.264680e+001
1.251684e+003, 8.251100e+001
1.252167e+003, 8.247128e+001
1.252649e+003, 8.259724e+001
1.253131e+003, 8.285146e+001
1.253613e+003, 8.332043e+001
1.254095e+003, 8.385985e+001
1.254577e+003, 8.400375e+001
1.255059e+003, 8.330882e+001
1.255541e+003, 8.282468e+001
1.256023e+003, 8.262434e+001
1.256506e+003, 8.257352e+001
1.256988e+003, 8.259587e+001
1.257470e+003, 8.266880e+001
1.257952e+003, 8.285688e+001
1.258434e+003, 8.306667e+001
1.258916e+003, 8.298914e+001
1.259398e+003, 8.246352e+001
1.259880e+003, 8.204150e+001
1.260363e+003, 8.174736e+001
1.260845e+003, 8.160503e+001
1.261327e+003, 8.169473e+001
1.261809e+003, 8.189638e+001
1.262291e+003, 8.223158e+001
1.262773e+003, 8.254986e+001
1.263255e+003, 8.243360e+001
1.263737e+003, 8.171721e+001
1.264219e+003, 8.137081e+001
1.264702e+003, 8.147830e+001
1.265184e+003, 8.165723e+001
1.265666e+003, 8.154320e+001
1.266148e+003, 8.144982e+001
1.266630e+003, 8.173068e+001
1.267112e+003, 8.217204e+001
1.267594e+003, 8.231756e+001
1.268076e+003, 8.215127e+001
1.268559e+003, 8.191765e+001
1.269041e+003, 8.163548e+001
1.269523e+003, 8.147160e+001
1.270005e+003, 8.174715e+001
1.270487e+003, 8.194917e+001
1.270969e+003, 8.164410e+001
1.271451e+003, 8.116032e+001
1.271933e+003, 8.089393e+001
1.272416e+003, 8.084640e+001
1.272898e+003, 8.110892e+001
1.273380e+003, 8.165212e+001
1.273862e+003, 8.208814e+001
1.274344e+003, 8.220786e+001
1.274826e+003, 8.213943e+001
1.275308e+003, 8.182431e+001
1.275790e+003, 8.148112e+001
1.276272e+003, 8.145263e+001
1.276755e+003, 8.162711e+001
1.277237e+003, 8.152622e+001
1.277719e+003, 8.117191e+001
1.278201e+003, 8.090888e+001
1.278683e+003, 8.097539e+001
1.279165e+003, 8.102920e+001
1.279647e+003, 8.097993e+001
1.280129e+003, 8.094805e+001
1.280611e+003, 8.110912e+001
1.281094e+003, 8.137099e+001
1.281576e+003, 8.157809e+001
1.282058e+003, 8.171013e+001
1.282540e+003, 8.170847e+001
1.283022e+003, 8.151006e+001
1.283504e+003, 8.122805e+001
1.283986e+003, 8.081350e+001
1.284468e+003, 8.052376e+001
1.284950e+003, 8.082302e+001
1.285433e+003, 8.125647e+001
1.285915e+003, 8.111543e+001
1.286397e+003, 8.056078e+001
1.286879e+003, 8.031034e+001
1.287361e+003, 8.047434e+001
1.287843e+003, 8.071529e+001
1.288325e+003, 8.101632e+001
1.288807e+003, 8.128897e+001
1.289290e+003, 8.158437e+001
1.289772e+003, 8.170152e+001
1.290254e+003, 8.126905e+001
1.290736e+003, 8.057487e+001
1.291218e+003, 8.029654e+001
1.291700e+003, 8.046232e+001
1.292182e+003, 8.070423e+001
1.292664e+003, 8.099551e+001
1.293146e+003, 8.121329e+001
1.293629e+003, 8.128811e+001
1.294111e+003, 8.124493e+001
1.294593e+003, 8.098210e+001
1.295075e+003, 8.068485e+001
1.295557e+003, 8.061470e+001
1.296039e+003, 8.073559e+001
1.296521e+003, 8.072327e+001
1.297003e+003, 8.058036e+001
1.297486e+003, 8.049740e+001
1.297968e+003, 8.063853e+001
1.298450e+003, 8.078807e+001
1.298932e+003, 8.090129e+001
1.299414e+003, 8.098728e+001
1.299896e+003, 8.106028e+001
1.300378e+003, 8.111436e+001
1.300860e+003, 8.112865e+001
1.301343e+003, 8.110992e+001
1.301825e+003, 8.108464e+001
##END=



