##NAMES=Kornerupine
##RRUFFID=R100155
##IDEAL CHEMISTRY=(Mg,Fe^2+^,Al,[box])_10_(Si,Al,B)_5_O_21_(OH,F)_2_
##LOCALITY=Sri Lanka
##OWNER=RRUFF
##SOURCE=William W. Pinch
##DESCRIPTION=Colorless to pale yellow cut gemstone
##STATUS=The identification of this mineral has been confirmed by single-crystal X-ray diffraction.
##URL=rruff.info/R100155
172.5130, 237.4679
172.9951, 237.1176
173.4772, 237.7050
173.9593, 238.5274
174.4414, 239.4249
174.9236, 240.3527
175.4057, 241.4337
175.8878, 242.6855
176.3699, 243.4796
176.8520, 242.5934
177.3341, 240.8387
177.8163, 239.9937
178.2984, 241.8853
178.7805, 244.7519
179.2626, 245.8846
179.7447, 245.1517
180.2268, 243.6459
180.7090, 241.8398
181.1911, 240.0124
181.6732, 239.0842
182.1553, 240.1023
182.6374, 242.2207
183.1195, 243.6286
183.6017, 244.2513
184.0838, 244.4673
184.5659, 244.5566
185.0480, 244.5674
185.5301, 244.7595
186.0123, 245.4102
186.4944, 246.3507
186.9765, 246.9621
187.4586, 247.1532
187.9407, 247.2883
188.4228, 248.0660
188.9050, 249.4006
189.3871, 250.4292
189.8692, 250.5286
190.3513, 249.8822
190.8334, 249.3794
191.3155, 249.0556
191.7977, 248.9066
192.2798, 249.0567
192.7619, 249.5075
193.2440, 249.7880
193.7261, 249.4357
194.2082, 248.5466
194.6904, 248.3432
195.1725, 249.1020
195.6546, 250.1559
196.1367, 250.1099
196.6188, 248.8872
197.1009, 247.6423
197.5831, 246.9651
198.0652, 246.8455
198.5473, 246.9323
199.0294, 247.2074
199.5115, 247.6677
199.9937, 248.4791
200.4758, 249.7371
200.9579, 250.6733
201.4400, 250.5902
201.9221, 249.3651
202.4042, 248.8529
202.8864, 249.2856
203.3685, 250.3475
203.8506, 251.3797
204.3327, 252.3987
204.8148, 253.2798
205.2969, 253.9086
205.7791, 254.2439
206.2612, 254.5820
206.7433, 254.8297
207.2254, 255.1695
207.7075, 256.2206
208.1896, 258.2743
208.6718, 260.2007
209.1539, 261.3118
209.6360, 261.4052
210.1181, 261.6925
210.6002, 262.3042
211.0823, 263.1172
211.5645, 263.7200
212.0466, 263.9541
212.5287, 264.3754
213.0108, 265.3502
213.4929, 267.0577
213.9750, 268.6496
214.4572, 270.0771
214.9393, 271.3617
215.4214, 272.6784
215.9035, 274.2327
216.3856, 275.4055
216.8678, 275.6128
217.3499, 274.2516
217.8320, 273.9279
218.3141, 275.0143
218.7962, 277.1266
219.2783, 279.2144
219.7605, 281.5585
220.2426, 283.3186
220.7247, 283.7370
221.2068, 281.8599
221.6889, 281.4557
222.1710, 283.3053
222.6532, 286.5866
223.1353, 288.6132
223.6174, 288.8846
224.0995, 288.7854
224.5816, 288.9030
225.0637, 289.0273
225.5459, 290.0016
226.0280, 292.3084
226.5101, 295.3880
226.9922, 297.3553
227.4743, 297.5494
227.9564, 297.7017
228.4386, 298.8268
228.9207, 301.7993
229.4028, 303.4658
229.8849, 303.0498
230.3670, 301.4767
230.8492, 301.4276
231.3313, 303.6647
231.8134, 306.2643
232.2955, 308.4691
232.7776, 310.3511
233.2597, 311.5778
233.7419, 311.9919
234.2240, 311.8070
234.7061, 311.4732
235.1882, 310.6134
235.6703, 310.1869
236.1524, 310.7029
236.6346, 312.7648
237.1167, 314.4001
237.5988, 315.5564
238.0809, 316.3170
238.5630, 316.8606
239.0451, 317.0680
239.5273, 317.2225
240.0094, 317.4146
240.4915, 317.5972
240.9736, 317.8944
241.4557, 318.1425
241.9378, 318.5661
242.4200, 319.6426
242.9021, 321.5241
243.3842, 323.8392
243.8663, 326.5603
244.3484, 329.9830
244.8306, 332.9101
245.3127, 335.1254
245.7948, 336.9360
246.2769, 338.8579
246.7590, 340.7872
247.2411, 342.9731
247.7233, 345.5683
248.2054, 348.7448
248.6875, 351.7094
249.1696, 354.3828
249.6517, 356.8759
250.1338, 359.2699
250.6160, 361.2444
251.0981, 363.7130
251.5802, 366.9641
252.0623, 371.1034
252.5444, 375.6140
253.0265, 380.6460
253.5087, 385.8997
253.9908, 390.8939
254.4729, 395.7426
254.9550, 400.1571
255.4371, 403.8437
255.9192, 406.5689
256.4014, 410.3053
256.8835, 415.6682
257.3656, 421.4335
257.8477, 426.4583
258.3298, 431.1644
258.8120, 434.1783
259.2941, 435.0254
259.7762, 433.6156
260.2583, 431.4624
260.7404, 428.6439
261.2225, 424.9481
261.7047, 419.8623
262.1868, 412.7667
262.6689, 405.8594
263.1510, 399.6847
263.6331, 394.2565
264.1152, 388.0271
264.5974, 380.6025
265.0795, 373.0424
265.5616, 366.5947
266.0437, 361.4105
266.5258, 356.4801
267.0079, 351.4408
267.4901, 346.4011
267.9722, 342.9897
268.4543, 341.9097
268.9364, 340.9979
269.4185, 338.1786
269.9006, 332.7968
270.3828, 328.3993
270.8649, 325.5781
271.3470, 324.1176
271.8291, 323.0909
272.3112, 322.6764
272.7933, 322.1744
273.2755, 321.0093
273.7576, 319.0704
274.2397, 317.2036
274.7218, 315.5631
275.2039, 314.0297
275.6860, 312.1703
276.1682, 309.8503
276.6503, 307.6466
277.1324, 305.8769
277.6145, 304.5647
278.0966, 303.6457
278.5787, 303.1605
279.0609, 303.0316
279.5430, 303.2351
280.0251, 303.8720
280.5072, 304.2667
280.9893, 303.7841
281.4715, 302.4392
281.9536, 301.8539
282.4357, 302.1683
282.9178, 303.1169
283.3999, 304.5049
283.8820, 306.3738
284.3642, 307.8452
284.8463, 307.9961
285.3284, 307.0349
285.8105, 307.5716
286.2926, 309.8268
286.7747, 312.8821
287.2569, 315.6697
287.7390, 318.1847
288.2211, 320.4035
288.7032, 322.1186
289.1853, 323.4946
289.6674, 325.2957
290.1496, 327.5504
290.6317, 330.0999
291.1138, 333.1124
291.5959, 336.4562
292.0780, 339.0514
292.5602, 340.1383
293.0423, 340.4196
293.5244, 341.9990
294.0065, 344.9387
294.4886, 347.6165
294.9707, 348.3207
295.4529, 347.4931
295.9350, 346.7490
296.4171, 346.6864
296.8992, 346.7636
297.3813, 345.9271
297.8634, 344.2428
298.3456, 342.3852
298.8277, 341.0051
299.3098, 339.8374
299.7919, 338.2816
300.2740, 336.1530
300.7561, 333.7158
301.2383, 331.1303
301.7204, 328.4710
302.2025, 326.2562
302.6846, 325.1569
303.1667, 324.5914
303.6488, 323.6529
304.1310, 322.1687
304.6131, 320.4390
305.0952, 318.3456
305.5773, 316.1917
306.0594, 314.8022
306.5415, 315.2487
307.0237, 316.3517
307.5058, 316.7983
307.9879, 316.3797
308.4700, 315.8829
308.9521, 316.1587
309.4343, 316.7411
309.9164, 316.8199
310.3985, 315.0794
310.8806, 313.3573
311.3627, 313.4272
311.8448, 315.3872
312.3270, 317.0534
312.8091, 316.2851
313.2912, 314.7533
313.7733, 314.4326
314.2554, 317.2618
314.7375, 320.4078
315.2197, 322.5399
315.7018, 323.7162
316.1839, 324.3769
316.6660, 323.8919
317.1481, 323.4105
317.6302, 323.9102
318.1124, 326.5169
318.5945, 329.0182
319.0766, 330.5912
319.5587, 331.4489
320.0408, 332.3601
320.5229, 333.5395
321.0051, 334.8559
321.4872, 336.2652
321.9693, 337.8575
322.4514, 339.3287
322.9335, 340.4925
323.4156, 341.5033
323.8978, 342.6592
324.3799, 344.1932
324.8620, 345.7235
325.3441, 347.1631
325.8262, 348.5579
326.3083, 349.6519
326.7905, 350.3434
327.2726, 350.7530
327.7547, 351.0215
328.2368, 351.0396
328.7189, 351.0395
329.2010, 351.0145
329.6832, 350.9448
330.1653, 351.1061
330.6474, 352.2233
331.1295, 353.0498
331.6116, 352.4747
332.0938, 349.0960
332.5759, 346.5757
333.0580, 345.8398
333.5401, 346.5367
334.0222, 346.1061
334.5043, 344.3127
334.9865, 341.7152
335.4686, 338.4145
335.9507, 333.7760
336.4328, 330.1759
336.9149, 327.9553
337.3970, 326.7032
337.8792, 325.4499
338.3613, 324.1982
338.8434, 322.8927
339.3255, 321.5452
339.8076, 320.1849
340.2898, 318.4918
340.7719, 316.3669
341.2540, 314.0654
341.7361, 311.8419
342.2182, 309.7176
342.7003, 307.8446
343.1825, 306.3365
343.6646, 305.1456
344.1467, 304.0575
344.6288, 303.0622
345.1109, 302.1667
345.5930, 301.2721
346.0752, 300.4196
346.5573, 299.9020
347.0394, 299.7436
347.5215, 299.9920
348.0036, 301.0700
348.4857, 302.9438
348.9679, 304.5190
349.4500, 304.3880
349.9321, 303.2875
350.4142, 303.6035
350.8963, 306.1497
351.3784, 309.0593
351.8606, 309.5334
352.3427, 308.1460
352.8248, 307.0201
353.3069, 307.5688
353.7890, 309.0145
354.2711, 310.2733
354.7533, 311.2169
355.2354, 312.3537
355.7175, 313.8666
356.1996, 315.8867
356.6817, 318.6417
357.1638, 323.2234
357.6460, 327.8481
358.1281, 331.0365
358.6102, 332.8594
359.0923, 334.5883
359.5744, 336.8011
360.0565, 339.3071
360.5387, 341.9290
361.0208, 344.6868
361.5029, 347.4774
361.9850, 350.4796
362.4671, 353.5135
362.9492, 355.9769
363.4314, 357.3873
363.9135, 358.3725
364.3956, 359.2202
364.8777, 359.8527
365.3598, 360.6504
365.8419, 362.3281
366.3241, 364.0852
366.8062, 364.7033
367.2883, 362.8185
367.7704, 360.9303
368.2526, 359.6539
368.7347, 359.0532
369.2168, 358.8037
369.6989, 359.5904
370.1810, 360.2912
370.6631, 359.9240
371.1453, 357.2450
371.6274, 355.3661
372.1095, 354.9650
372.5916, 355.7681
373.0737, 355.9156
373.5558, 354.9748
374.0380, 354.0210
374.5201, 353.6941
375.0022, 354.2444
375.4843, 354.5738
375.9664, 354.5404
376.4485, 354.3625
376.9307, 354.4888
377.4128, 354.9688
377.8949, 355.5423
378.3770, 356.2076
378.8591, 356.9393
379.3412, 357.1729
379.8234, 356.8047
380.3055, 356.2955
380.7876, 356.0338
381.2697, 356.0307
381.7518, 356.6334
382.2339, 358.4407
382.7161, 360.5230
383.1982, 360.2077
383.6803, 357.5838
384.1624, 355.1249
384.6445, 355.1027
385.1266, 356.6523
385.6088, 357.5537
386.0909, 357.3246
386.5730, 356.8581
387.0551, 357.2269
387.5372, 358.2116
388.0193, 359.1934
388.5015, 359.9918
388.9836, 360.5363
389.4657, 360.7091
389.9478, 360.4976
390.4299, 360.0998
390.9120, 359.4208
391.3942, 358.7029
391.8763, 358.2586
392.3584, 358.4716
392.8405, 358.7188
393.3226, 358.7584
393.8047, 358.5876
394.2869, 358.1914
394.7690, 357.5419
395.2511, 356.6825
395.7332, 355.5773
396.2154, 353.9485
396.6975, 352.6558
397.1796, 352.2538
397.6617, 352.2330
398.1438, 351.7235
398.6259, 349.9381
399.1081, 348.3008
399.5902, 347.4417
400.0723, 347.6059
400.5544, 346.8143
401.0365, 344.4202
401.5186, 341.5323
402.0008, 339.0474
402.4829, 336.9475
402.9650, 335.2779
403.4471, 334.2918
403.9292, 333.7310
404.4113, 332.5858
404.8935, 330.8659
405.3756, 328.5377
405.8577, 325.2275
406.3398, 320.6769
406.8219, 317.4243
407.3040, 315.7536
407.7862, 314.8933
408.2683, 313.8485
408.7504, 312.6267
409.2325, 311.1124
409.7146, 309.1388
410.1967, 306.8909
410.6789, 304.7012
411.1610, 302.5565
411.6431, 300.8732
412.1252, 300.3802
412.6073, 300.6709
413.0894, 300.5299
413.5716, 299.5783
414.0537, 298.4448
414.5358, 298.0923
415.0179, 298.2539
415.5000, 298.0497
415.9821, 296.3028
416.4643, 294.3192
416.9464, 293.7342
417.4285, 294.7657
417.9106, 295.6003
418.3927, 294.8193
418.8748, 293.2514
419.3570, 291.8968
419.8391, 291.3105
420.3212, 290.7775
420.8033, 289.6387
421.2854, 288.1657
421.7675, 287.5910
422.2497, 289.8220
422.7318, 291.9155
423.2139, 292.1022
423.6960, 288.9528
424.1781, 286.6240
424.6602, 285.8828
425.1424, 286.1418
425.6245, 286.5824
426.1066, 287.6647
426.5887, 288.3104
427.0709, 288.0902
427.5530, 287.0034
428.0351, 286.4684
428.5172, 286.8245
428.9993, 287.2534
429.4814, 287.0174
429.9636, 285.7433
430.4457, 285.3141
430.9278, 286.1422
431.4099, 287.6379
431.8920, 288.6290
432.3741, 289.1309
432.8563, 289.0521
433.3384, 287.9596
433.8205, 286.1009
434.3026, 285.2378
434.7847, 285.4189
435.2668, 286.1446
435.7490, 287.2535
436.2311, 288.5573
436.7132, 289.3321
437.1953, 289.3104
437.6774, 288.7852
438.1595, 287.8471
438.6417, 286.6492
439.1238, 285.8240
439.6059, 285.8597
440.0880, 286.4093
440.5701, 287.2782
441.0522, 288.5399
441.5344, 289.4615
442.0165, 289.4020
442.4986, 288.8014
442.9807, 288.1957
443.4628, 287.4708
443.9449, 287.0582
444.4271, 287.3302
444.9092, 288.1508
445.3913, 288.7521
445.8734, 288.7138
446.3555, 288.5716
446.8376, 288.6294
447.3198, 289.2408
447.8019, 289.3628
448.2840, 288.2562
448.7661, 286.9507
449.2482, 287.0123
449.7303, 289.7165
450.2125, 291.5746
450.6946, 291.4453
451.1767, 289.5406
451.6588, 289.1488
452.1409, 290.8026
452.6230, 292.7271
453.1052, 293.6360
453.5873, 293.4678
454.0694, 293.1414
454.5515, 292.6359
455.0337, 292.1895
455.5158, 292.2619
455.9979, 292.8255
456.4800, 293.4804
456.9621, 294.1266
457.4442, 294.7299
457.9264, 295.2723
458.4085, 295.7478
458.8906, 295.9991
459.3727, 295.5184
459.8548, 294.8209
460.3369, 294.7452
460.8191, 295.5352
461.3012, 296.8365
461.7833, 298.9528
462.2654, 301.3578
462.7475, 302.9492
463.2296, 302.6920
463.7118, 301.9662
464.1939, 301.3266
464.6760, 300.7987
465.1581, 300.8199
465.6402, 302.5749
466.1223, 304.2890
466.6045, 304.6850
467.0866, 301.5819
467.5687, 299.6376
468.0508, 299.7919
468.5329, 301.1889
469.0150, 301.9671
469.4972, 302.0078
469.9793, 301.5894
470.4614, 300.6751
470.9435, 299.2303
471.4256, 297.9960
471.9077, 296.9422
472.3899, 296.1687
472.8720, 295.6935
473.3541, 295.4897
473.8362, 296.0329
474.3183, 297.6252
474.8004, 299.6249
475.2826, 300.9637
475.7647, 301.6333
476.2468, 301.5225
476.7289, 299.9847
477.2110, 297.7315
477.6931, 296.3838
478.1753, 295.9442
478.6574, 295.8856
479.1395, 295.9733
479.6216, 296.1078
480.1037, 296.1873
480.5858, 296.3391
481.0680, 296.1394
481.5501, 294.9755
482.0322, 293.2622
482.5143, 291.8722
482.9964, 291.4638
483.4786, 291.1891
483.9607, 290.6168
484.4428, 289.6989
484.9249, 288.8913
485.4070, 287.9315
485.8892, 287.3398
486.3713, 287.5426
486.8534, 289.8224
487.3355, 290.9482
487.8176, 290.1586
488.2997, 288.3983
488.7819, 287.7926
489.2640, 289.0269
489.7461, 289.8274
490.2282, 289.2344
490.7103, 287.3614
491.1924, 286.3651
491.6746, 286.3742
492.1567, 286.6870
492.6388, 286.7422
493.1209, 286.5617
493.6030, 286.4124
494.0851, 286.4113
494.5673, 286.2162
495.0494, 285.0043
495.5315, 283.0861
496.0136, 281.6287
496.4957, 281.5173
496.9778, 281.9389
497.4600, 281.9830
497.9421, 281.6828
498.4242, 281.4174
498.9063, 281.2663
499.3884, 281.3337
499.8705, 281.8508
500.3527, 283.2832
500.8348, 284.1013
501.3169, 283.2496
501.7990, 281.5883
502.2811, 280.3200
502.7632, 279.7800
503.2454, 279.5386
503.7275, 279.5128
504.2096, 279.7044
504.6917, 280.2279
505.1738, 281.5873
505.6559, 282.5963
506.1381, 282.4063
506.6202, 280.4690
507.1023, 279.7045
507.5844, 280.4819
508.0665, 281.7732
508.5486, 282.1632
509.0308, 281.6317
509.5129, 280.9910
509.9950, 280.2409
510.4771, 279.7082
510.9592, 280.4426
511.4413, 282.2935
511.9235, 283.8835
512.4056, 283.9174
512.8877, 283.2914
513.3698, 283.3911
513.8519, 284.3505
514.3340, 285.5152
514.8162, 286.9043
515.2983, 288.0430
515.7804, 288.3231
516.2625, 286.8083
516.7446, 285.3739
517.2267, 284.8168
517.7089, 284.9088
518.1910, 285.0956
518.6731, 285.1972
519.1552, 285.4431
519.6373, 286.0659
520.1194, 287.1577
520.6016, 287.6836
521.0837, 287.3322
521.5658, 286.7535
522.0479, 286.3538
522.5300, 286.0857
523.0121, 286.2344
523.4943, 286.9915
523.9764, 287.9375
524.4585, 288.3002
524.9406, 288.0641
525.4227, 287.6741
525.9048, 287.1105
526.3870, 286.5920
526.8691, 286.8454
527.3513, 287.8179
527.8334, 288.6788
528.3155, 288.6970
528.7976, 288.2874
529.2797, 287.9215
529.7618, 287.5817
530.2440, 287.7555
530.7261, 289.3681
531.2082, 291.5161
531.6903, 293.0154
532.1724, 292.8980
532.6545, 292.7065
533.1367, 293.1231
533.6188, 293.9047
534.1009, 294.1926
534.5830, 292.9950
535.0651, 292.1264
535.5472, 292.3596
536.0294, 293.9414
536.5115, 294.8306
536.9936, 294.7318
537.4757, 294.3574
537.9578, 294.2219
538.4399, 294.3032
538.9221, 294.7696
539.4042, 295.6660
539.8863, 296.9159
540.3684, 298.7930
540.8505, 301.1784
541.3326, 302.6313
541.8148, 302.2829
542.2969, 300.8150
542.7790, 298.9506
543.2611, 296.8282
543.7432, 295.4651
544.2253, 296.5108
544.7075, 298.1555
545.1896, 298.1866
545.6717, 295.9060
546.1538, 294.2985
546.6359, 295.6290
547.1180, 298.0580
547.6002, 299.6149
548.0823, 299.0020
548.5644, 298.4511
549.0465, 298.4229
549.5286, 298.7447
550.0107, 298.9263
550.4929, 299.0226
550.9750, 298.8709
551.4571, 298.2353
551.9392, 297.1075
552.4213, 296.8611
552.9034, 297.7008
553.3856, 298.7663
553.8677, 299.3842
554.3498, 299.5854
554.8319, 299.7643
555.3140, 299.9809
555.7961, 300.1046
556.2783, 299.8661
556.7604, 299.3882
557.2425, 299.0143
557.7246, 298.8615
558.2067, 298.8828
558.6888, 299.0767
559.1710, 299.4190
559.6531, 299.8234
560.1352, 300.2902
560.6173, 300.7743
561.0994, 301.2902
561.5815, 301.8659
562.0637, 302.2539
562.5458, 301.8580
563.0279, 301.6179
563.5100, 302.2523
563.9921, 304.6650
564.4742, 306.3203
564.9564, 306.8242
565.4385, 306.8026
565.9206, 307.4003
566.4027, 308.7936
566.8848, 309.8841
567.3669, 310.3591
567.8491, 310.2981
568.3312, 309.6017
568.8133, 308.3147
569.2954, 307.6021
569.7775, 308.6938
570.2596, 310.7442
570.7418, 312.3475
571.2239, 313.4429
571.7060, 313.8843
572.1881, 313.0153
572.6702, 311.6838
573.1523, 310.8322
573.6345, 310.8882
574.1166, 311.1170
574.5987, 311.3465
575.0808, 311.5536
575.5629, 311.7037
576.0450, 312.0375
576.5272, 312.0119
577.0093, 311.3094
577.4914, 310.0876
577.9735, 309.4086
578.4556, 309.4878
578.9377, 309.6835
579.4199, 309.7419
579.9020, 309.6660
580.3841, 309.2555
580.8662, 308.4351
581.3483, 307.7090
581.8304, 307.7753
582.3126, 308.3906
582.7947, 308.6574
583.2768, 308.3218
583.7589, 307.8671
584.2410, 307.6120
584.7231, 307.6284
585.2053, 308.0600
585.6874, 309.6034
586.1696, 310.9777
586.6517, 311.3398
587.1338, 310.8840
587.6159, 310.5186
588.0980, 310.4881
588.5801, 310.5767
589.0623, 310.7740
589.5444, 311.1455
590.0265, 311.1286
590.5086, 310.4584
590.9907, 309.7431
591.4728, 309.4617
591.9550, 309.6720
592.4371, 310.0366
592.9192, 310.5938
593.4013, 311.1635
593.8834, 311.4755
594.3655, 311.5587
594.8477, 311.5739
595.3298, 311.6103
595.8119, 311.5653
596.2940, 310.9940
596.7761, 310.1564
597.2582, 309.9056
597.7404, 311.3101
598.2225, 312.9806
598.7046, 313.8910
599.1867, 313.9806
599.6688, 314.1221
600.1509, 314.8995
600.6331, 315.5710
601.1152, 315.5758
601.5973, 314.3307
602.0794, 313.7959
602.5615, 314.3081
603.0436, 315.2124
603.5258, 315.8692
604.0079, 316.3354
604.4900, 316.1332
604.9721, 314.8780
605.4542, 313.3822
605.9363, 313.4863
606.4185, 315.0302
606.9006, 316.5855
607.3827, 317.5831
607.8648, 318.1493
608.3469, 318.2614
608.8290, 318.0044
609.3112, 317.8468
609.7933, 318.3773
610.2754, 318.8922
610.7575, 318.6823
611.2396, 317.5294
611.7217, 316.8181
612.2039, 317.5792
612.6860, 318.5181
613.1681, 318.6182
613.6502, 317.1330
614.1323, 316.0576
614.6144, 315.4869
615.0966, 315.2699
615.5787, 315.2953
616.0608, 315.6550
616.5429, 315.6779
617.0250, 315.2184
617.5071, 314.3288
617.9893, 312.8912
618.4714, 311.0011
618.9535, 309.4376
619.4356, 308.8050
619.9177, 308.5941
620.3998, 308.0523
620.8820, 307.2395
621.3641, 306.7583
621.8462, 307.3767
622.3283, 308.1525
622.8104, 308.3040
623.2925, 307.5087
623.7747, 307.0031
624.2568, 307.5456
624.7389, 308.1167
625.2210, 307.8178
625.7031, 305.9098
626.1852, 304.8181
626.6674, 305.0054
627.1495, 305.6860
627.6316, 305.4782
628.1137, 304.3402
628.5958, 303.3206
629.0779, 302.6357
629.5601, 302.3453
630.0422, 302.9076
630.5243, 304.1005
631.0064, 304.8864
631.4885, 304.1554
631.9706, 303.1167
632.4528, 303.1219
632.9349, 304.0917
633.4170, 304.6658
633.8991, 303.6964
634.3812, 302.5686
634.8633, 302.0780
635.3455, 302.3949
635.8276, 303.1486
636.3097, 304.7160
636.7918, 306.3446
637.2739, 307.4019
637.7560, 307.7810
638.2382, 307.9639
638.7203, 307.9846
639.2024, 307.8062
639.6845, 307.0763
640.1666, 305.9265
640.6487, 305.5211
641.1309, 306.4428
641.6130, 307.9342
642.0951, 309.1983
642.5772, 310.1871
643.0594, 310.7132
643.5415, 310.6119
644.0236, 310.0953
644.5057, 308.9213
644.9879, 307.2355
645.4700, 306.3075
645.9521, 307.2350
646.4342, 308.2577
646.9163, 308.5229
647.3984, 307.8531
647.8806, 307.7399
648.3627, 308.4058
648.8448, 309.2290
649.3269, 309.7747
649.8090, 310.0446
650.2911, 309.9914
650.7733, 309.5422
651.2554, 309.0988
651.7375, 308.9911
652.2196, 309.2641
652.7017, 310.0762
653.1838, 311.6690
653.6660, 313.4110
654.1481, 315.1113
654.6302, 316.5634
655.1123, 317.4249
655.5944, 317.3460
656.0765, 316.8774
656.5587, 315.6280
657.0408, 313.9782
657.5229, 313.7534
658.0050, 316.0727
658.4871, 317.8610
658.9692, 317.6460
659.4514, 315.7313
659.9335, 315.8891
660.4156, 318.3839
660.8977, 320.7585
661.3798, 320.9869
661.8619, 319.7499
662.3441, 318.8120
662.8262, 318.2794
663.3083, 317.9351
663.7904, 317.5207
664.2725, 317.2470
664.7546, 317.4199
665.2368, 318.3293
665.7189, 319.0724
666.2010, 319.2007
666.6831, 319.0840
667.1652, 319.1440
667.6473, 319.4818
668.1295, 319.8482
668.6116, 320.1190
669.0937, 320.4979
669.5758, 321.5518
670.0579, 323.4024
670.5400, 324.7497
671.0222, 325.0045
671.5043, 324.7416
671.9864, 325.3622
672.4685, 326.6441
672.9506, 327.5040
673.4327, 326.6875
673.9149, 325.6346
674.3970, 325.7612
674.8791, 326.9405
675.3612, 328.0526
675.8433, 328.7856
676.3254, 329.2357
676.8076, 329.3413
677.2897, 329.0087
677.7718, 328.9881
678.2539, 329.3743
678.7360, 329.9546
679.2181, 330.5946
679.7003, 331.2854
680.1824, 332.1849
680.6645, 333.3499
681.1466, 334.5010
681.6287, 335.2655
682.1108, 335.7717
682.5930, 336.3056
683.0751, 336.8685
683.5572, 337.6675
684.0393, 339.1360
684.5214, 340.8778
685.0035, 342.3368
685.4857, 343.0483
685.9678, 343.7770
686.4499, 344.5080
686.9320, 345.4036
687.4141, 346.8466
687.8962, 349.1876
688.3784, 351.3987
688.8605, 353.2319
689.3426, 354.7903
689.8247, 356.4618
690.3068, 358.2745
690.7889, 359.8837
691.2711, 360.8036
691.7532, 361.5627
692.2353, 363.4084
692.7174, 366.1623
693.1995, 368.7984
693.6816, 370.6102
694.1638, 372.1235
694.6459, 373.5147
695.1280, 374.7823
695.6101, 376.6622
696.0922, 380.2284
696.5743, 383.7123
697.0565, 386.1564
697.5386, 387.3539
698.0207, 388.3986
698.5028, 389.1160
698.9849, 390.0629
699.4670, 391.9191
699.9492, 394.5884
700.4313, 397.1728
700.9135, 399.6156
701.3956, 401.5844
701.8777, 402.3586
702.3598, 402.4737
702.8419, 402.8721
703.3240, 403.9746
703.8062, 405.0496
704.2883, 405.8631
704.7704, 406.3597
705.2525, 406.4471
705.7346, 406.1015
706.2167, 405.3267
706.6989, 403.9855
707.1810, 402.2855
707.6631, 400.6904
708.1452, 399.2763
708.6273, 397.7630
709.1094, 396.2009
709.5916, 394.3741
710.0737, 391.1807
710.5558, 387.0365
711.0379, 383.9344
711.5200, 384.6617
712.0021, 385.6204
712.4843, 382.9326
712.9664, 377.2862
713.4485, 372.5103
713.9306, 370.9385
714.4127, 369.7670
714.8948, 367.7387
715.3770, 364.8013
715.8591, 361.9958
716.3412, 359.3330
716.8233, 356.7934
717.3054, 354.4698
717.7875, 352.3302
718.2697, 349.8216
718.7518, 346.8667
719.2339, 344.3466
719.7160, 343.4613
720.1981, 343.3461
720.6802, 342.5812
721.1624, 340.9643
721.6445, 339.1501
722.1266, 337.4676
722.6087, 335.8037
723.0908, 333.9698
723.5729, 331.2303
724.0551, 329.9284
724.5372, 331.0582
725.0193, 332.8157
725.5014, 333.3744
725.9835, 332.5687
726.4656, 331.4991
726.9478, 330.1632
727.4299, 328.8681
727.9120, 328.0407
728.3941, 327.6133
728.8762, 327.3958
729.3583, 327.2704
729.8405, 327.4766
730.3226, 328.6470
730.8047, 330.1963
731.2868, 331.1235
731.7689, 330.2037
732.2510, 329.7175
732.7332, 330.3924
733.2153, 331.7836
733.6974, 333.0468
734.1795, 334.0582
734.6616, 335.3011
735.1437, 336.9888
735.6259, 338.8846
736.1080, 340.4379
736.5901, 341.6440
737.0722, 342.4570
737.5543, 342.4647
738.0364, 342.3622
738.5186, 342.8571
739.0007, 343.9169
739.4828, 345.4422
739.9649, 347.9521
740.4470, 350.3790
740.9291, 352.1148
741.4113, 353.1982
741.8934, 354.7041
742.3755, 357.0042
742.8576, 359.0579
743.3397, 360.3348
743.8218, 360.9689
744.3040, 362.1021
744.7861, 363.7378
745.2682, 365.4325
745.7503, 366.7573
746.2324, 368.0089
746.7145, 369.7421
747.1967, 371.9447
747.6788, 373.9692
748.1609, 374.9340
748.6430, 375.9974
749.1251, 378.2440
749.6072, 382.2541
750.0894, 384.7632
750.5715, 384.9377
751.0536, 384.5842
751.5357, 384.7894
752.0178, 385.6063
752.4999, 386.4976
752.9821, 387.5327
753.4642, 388.2284
753.9463, 387.6689
754.4284, 386.5405
754.9105, 386.4511
755.3926, 387.7305
755.8748, 388.6926
756.3569, 387.8932
756.8390, 386.4938
757.3211, 385.6157
757.8032, 386.1202
758.2853, 385.5401
758.7675, 383.1190
759.2496, 380.2321
759.7318, 378.1960
760.2139, 377.2098
760.6960, 375.6222
761.1781, 373.2138
761.6602, 370.5542
762.1423, 368.0605
762.6245, 365.8817
763.1066, 364.5319
763.5887, 364.4007
764.0708, 364.1721
764.5529, 363.1079
765.0350, 361.3596
765.5172, 359.1036
765.9993, 354.8676
766.4814, 352.2645
766.9635, 352.5320
767.4456, 353.6660
767.9277, 352.8938
768.4099, 349.8555
768.8920, 347.1912
769.3741, 345.3024
769.8562, 343.9414
770.3383, 342.8188
770.8204, 341.9033
771.3026, 341.1237
771.7847, 340.5112
772.2668, 339.9359
772.7489, 339.1060
773.2310, 338.3145
773.7131, 338.0276
774.1953, 338.9765
774.6774, 339.6262
775.1595, 339.7163
775.6416, 339.4896
776.1237, 339.3847
776.6058, 339.4232
777.0880, 339.4067
777.5701, 339.2605
778.0522, 339.0816
778.5343, 338.9035
779.0164, 338.8147
779.4985, 339.1111
779.9807, 340.4316
780.4628, 341.5201
780.9449, 341.1050
781.4270, 339.9520
781.9091, 339.6525
782.3912, 341.5898
782.8734, 343.0505
783.3555, 343.5165
783.8376, 343.3519
784.3197, 343.3378
784.8018, 343.4536
785.2839, 344.0730
785.7661, 345.5514
786.2482, 347.2428
786.7303, 348.0675
787.2124, 348.1935
787.6945, 348.1214
788.1766, 347.4868
788.6588, 347.3120
789.1409, 348.6938
789.6230, 350.9498
790.1051, 352.1015
790.5872, 350.7084
791.0693, 350.2369
791.5515, 351.8648
792.0336, 354.6005
792.5157, 355.1220
792.9978, 353.4164
793.4799, 352.6451
793.9620, 354.5383
794.4442, 357.3349
794.9263, 358.4159
795.4084, 358.2618
795.8905, 358.2313
796.3726, 359.2841
796.8547, 360.2125
797.3369, 360.4655
797.8190, 360.1697
798.3011, 359.8433
798.7832, 359.4521
799.2653, 359.1072
799.7474, 358.8558
800.2296, 358.6461
800.7117, 358.4645
801.1938, 358.2710
801.6759, 357.5961
802.1580, 355.7846
802.6401, 353.8940
803.1223, 353.3923
803.6044, 353.8156
804.0865, 353.9554
804.5686, 353.3300
805.0507, 352.4034
805.5328, 351.4577
806.0150, 350.3115
806.4971, 348.1654
806.9792, 344.3196
807.4613, 341.8190
807.9434, 341.8625
808.4255, 343.3600
808.9077, 344.0563
809.3898, 344.0170
809.8719, 343.5369
810.3540, 342.5348
810.8361, 341.3574
811.3182, 340.1176
811.8004, 338.9183
812.2825, 337.9784
812.7646, 337.3780
813.2467, 337.0487
813.7288, 337.2131
814.2109, 337.5431
814.6931, 337.0625
815.1752, 335.6479
815.6573, 334.5659
816.1394, 334.2220
816.6215, 334.3243
817.1037, 334.6091
817.5858, 334.9478
818.0679, 335.0006
818.5500, 334.1187
819.0322, 333.4659
819.5143, 333.8966
819.9964, 334.9154
820.4785, 335.4733
820.9606, 335.1775
821.4427, 335.0337
821.9249, 335.2188
822.4070, 335.5987
822.8891, 336.0720
823.3712, 336.5854
823.8533, 336.4256
824.3354, 335.0276
824.8176, 333.6609
825.2997, 334.1631
825.7818, 335.6329
826.2639, 336.5121
826.7460, 335.8116
827.2281, 335.0518
827.7103, 334.1202
828.1924, 333.5273
828.6745, 334.2508
829.1566, 336.9126
829.6387, 338.2011
830.1208, 337.2847
830.6030, 335.6295
831.0851, 335.5497
831.5672, 336.5669
832.0493, 337.3911
832.5314, 337.6466
833.0135, 337.7006
833.4957, 337.6781
833.9778, 337.6474
834.4599, 337.6897
834.9420, 338.0900
835.4241, 338.1592
835.9063, 337.7649
836.3884, 337.2084
836.8705, 336.8451
837.3526, 336.6723
837.8347, 336.4144
838.3168, 335.9657
838.7990, 335.8258
839.2811, 336.8543
839.7632, 338.3735
840.2453, 339.4705
840.7274, 339.9518
841.2095, 340.0648
841.6917, 339.7690
842.1738, 339.2049
842.6559, 338.3675
843.1380, 336.8957
843.6201, 336.5329
844.1022, 337.4702
844.5844, 338.8583
845.0665, 340.0051
845.5486, 340.9726
846.0307, 342.0066
846.5128, 343.1464
846.9949, 343.9016
847.4771, 343.5887
847.9592, 343.0198
848.4413, 342.6467
848.9234, 342.3960
849.4055, 343.3024
849.8876, 346.0702
850.3698, 348.8537
850.8519, 350.6084
851.3340, 351.3871
851.8161, 351.5177
852.2982, 351.0037
852.7803, 350.7367
853.2625, 351.6763
853.7446, 352.9941
854.2267, 353.8266
854.7088, 354.1650
855.1909, 354.4668
855.6730, 354.6470
856.1552, 355.0754
856.6373, 355.9677
857.1194, 357.2571
857.6015, 358.4509
858.0836, 359.5870
858.5657, 360.4387
859.0479, 360.8190
859.5300, 360.9200
860.0121, 360.7919
860.4942, 360.6417
860.9763, 361.2096
861.4584, 363.6729
861.9406, 366.0997
862.4227, 367.3532
862.9048, 367.8179
863.3869, 368.9401
863.8690, 371.1869
864.3511, 372.8831
864.8333, 373.4330
865.3154, 373.4925
865.7975, 374.4085
866.2796, 376.0874
866.7617, 378.2258
867.2438, 381.2884
867.7260, 383.8271
868.2081, 383.8281
868.6902, 382.8680
869.1723, 383.4108
869.6544, 387.7130
870.1365, 391.0827
870.6187, 392.9772
871.1008, 394.1915
871.5829, 395.7219
872.0650, 397.5556
872.5471, 399.3648
873.0292, 401.0747
873.5114, 402.9014
873.9935, 404.8101
874.4756, 407.0875
874.9577, 410.3506
875.4399, 415.4145
875.9220, 419.3027
876.4041, 420.0163
876.8862, 420.3303
877.3683, 422.3458
877.8505, 426.6504
878.3326, 428.2235
878.8147, 426.7398
879.2968, 424.8620
879.7789, 424.8540
880.2610, 425.9970
880.7432, 427.5063
881.2253, 429.2608
881.7074, 430.1272
882.1895, 428.5389
882.6716, 426.8595
883.1537, 426.7633
883.6359, 428.1170
884.1180, 427.8469
884.6001, 425.6831
885.0822, 423.0632
885.5643, 420.7569
886.0464, 418.4304
886.5286, 414.8644
887.0107, 410.4363
887.4928, 406.6713
887.9749, 405.0757
888.4570, 403.7374
888.9391, 401.7177
889.4213, 399.1859
889.9034, 396.7634
890.3855, 394.5468
890.8676, 392.2854
891.3497, 389.8521
891.8318, 387.4528
892.3140, 385.4965
892.7961, 383.8568
893.2782, 381.9259
893.7603, 379.2031
894.2424, 376.9437
894.7245, 376.6671
895.2067, 377.1665
895.6888, 376.9545
896.1709, 375.2254
896.6530, 373.6654
897.1351, 372.2870
897.6172, 371.0786
898.0994, 370.0900
898.5815, 369.2924
899.0636, 368.5892
899.5457, 368.0014
900.0278, 367.1559
900.5099, 365.2829
900.9921, 363.3130
901.4742, 362.0957
901.9563, 361.8046
902.4384, 361.8214
902.9205, 362.5117
903.4026, 362.8294
903.8848, 362.0525
904.3669, 360.3881
904.8490, 359.5997
905.3311, 359.6669
905.8132, 359.9350
906.2953, 360.4521
906.7775, 360.6313
907.2596, 359.4248
907.7417, 357.3150
908.2238, 355.9742
908.7059, 356.8347
909.1880, 357.3136
909.6702, 356.6853
910.1523, 355.4813
910.6344, 354.9134
911.1165, 354.9773
911.5986, 355.4770
912.0807, 356.5545
912.5629, 357.5633
913.0450, 357.7606
913.5271, 357.4072
914.0092, 356.8326
914.4913, 355.6358
914.9734, 355.1836
915.4556, 356.4654
915.9377, 357.8072
916.4198, 357.3184
916.9019, 354.8037
917.3840, 354.2855
917.8661, 356.1746
918.3483, 358.1143
918.8304, 357.2295
919.3125, 355.5893
919.7946, 356.2003
920.2767, 359.3823
920.7589, 361.5129
921.2410, 360.7404
921.7231, 359.4186
922.2052, 358.1942
922.6873, 357.1597
923.1694, 357.3285
923.6516, 358.7272
924.1337, 360.2513
924.6158, 361.4406
925.0979, 362.3667
925.5800, 363.3585
926.0621, 364.1467
926.5443, 364.0706
927.0264, 361.3484
927.5085, 359.7364
927.9906, 360.4262
928.4727, 362.2606
928.9548, 363.3118
929.4370, 363.5448
929.9191, 364.0259
930.4012, 364.9830
930.8833, 366.0239
931.3654, 366.6790
931.8475, 367.1512
932.3297, 367.8115
932.8118, 368.9103
933.2939, 369.4824
933.7761, 368.8300
934.2582, 368.0419
934.7403, 367.6936
935.2224, 367.7824
935.7045, 368.2202
936.1866, 369.0145
936.6688, 369.9932
937.1509, 371.4692
937.6330, 372.7719
938.1151, 372.6001
938.5972, 371.3735
939.0793, 371.2701
939.5615, 374.4735
940.0436, 377.0553
940.5257, 378.0057
941.0078, 377.7271
941.4899, 376.7684
941.9720, 375.1983
942.4542, 374.9874
942.9363, 377.1285
943.4184, 379.7598
943.9005, 380.6862
944.3826, 380.8777
944.8647, 381.7060
945.3469, 383.6012
945.8290, 386.0308
946.3111, 389.4855
946.7932, 392.7139
947.2753, 394.3613
947.7574, 394.5509
948.2396, 395.4235
948.7217, 397.0587
949.2038, 399.3096
949.6859, 402.5280
950.1680, 405.9698
950.6501, 408.8717
951.1323, 411.2425
951.6144, 414.0086
952.0965, 417.4697
952.5786, 420.9949
953.0607, 424.5716
953.5428, 427.9574
954.0250, 430.0625
954.5071, 431.1522
954.9892, 432.8442
955.4713, 436.0176
955.9534, 439.5083
956.4355, 442.6363
956.9177, 445.4456
957.3998, 448.0303
957.8819, 450.2351
958.3640, 452.5918
958.8461, 455.2529
959.3282, 457.8049
959.8104, 459.6700
960.2925, 461.0329
960.7746, 462.4246
961.2567, 463.8970
961.7388, 465.4151
962.2209, 466.6710
962.7031, 468.2304
963.1852, 470.8314
963.6673, 474.3630
964.1494, 476.7794
964.6315, 477.9463
965.1136, 478.2988
965.5958, 477.6678
966.0779, 476.6788
966.5600, 476.7753
967.0421, 477.5919
967.5242, 478.1303
968.0063, 477.7518
968.4885, 477.3784
968.9706, 477.5069
969.4527, 477.7491
969.9348, 477.7418
970.4169, 477.6185
970.8990, 476.3398
971.3812, 473.6405
971.8633, 470.9835
972.3454, 470.0625
972.8275, 470.0290
973.3096, 469.8116
973.7917, 469.2907
974.2739, 468.1996
974.7560, 465.7635
975.2381, 463.4648
975.7202, 461.7905
976.2023, 460.7083
976.6844, 460.2873
977.1666, 460.5110
977.6487, 460.1370
978.1308, 458.5204
978.6129, 456.3459
979.0950, 454.1885
979.5771, 451.9994
980.0593, 449.6813
980.5414, 446.6400
981.0235, 444.3709
981.5056, 443.1456
981.9877, 442.3422
982.4698, 441.3170
982.9520, 440.1231
983.4341, 439.2905
983.9162, 438.8383
984.3983, 437.9056
984.8804, 435.3501
985.3625, 432.5064
985.8447, 430.2169
986.3268, 428.5669
986.8089, 427.5778
987.2910, 427.5441
987.7731, 427.3465
988.2552, 426.5964
988.7374, 425.5173
989.2195, 424.4883
989.7016, 423.5181
990.1837, 422.6222
990.6658, 421.7345
991.1479, 421.0664
991.6301, 421.4611
992.1122, 421.5903
992.5944, 419.8320
993.0765, 415.4702
993.5586, 413.6017
994.0407, 414.5283
994.5228, 415.8917
995.0049, 415.6443
995.4871, 414.7511
995.9692, 414.4349
996.4513, 414.6943
996.9334, 415.0812
997.4155, 415.3359
997.8976, 415.8879
998.3798, 417.0148
998.8619, 418.3719
999.3440, 419.2025
999.8261, 419.5211
1000.308, 419.3372
1000.790, 418.4313
1001.272, 417.7755
1001.755, 418.5150
1002.237, 419.7484
1002.719, 420.4378
1003.201, 420.1110
1003.683, 420.5229
1004.165, 422.1249
1004.647, 423.3467
1005.129, 422.7698
1005.612, 421.1227
1006.094, 420.6057
1006.576, 421.0087
1007.058, 421.2995
1007.540, 420.6273
1008.022, 420.1035
1008.504, 420.2487
1008.986, 420.8167
1009.468, 421.5088
1009.951, 422.3840
1010.433, 422.8010
1010.915, 422.5967
1011.397, 422.2204
1011.879, 422.1863
1012.361, 422.2704
1012.843, 422.1708
1013.325, 421.8118
1013.807, 421.5175
1014.290, 421.2567
1014.772, 421.1952
1015.254, 421.4943
1015.736, 422.0280
1016.218, 422.3054
1016.700, 422.3450
1017.182, 422.2404
1017.664, 421.8735
1018.147, 421.5919
1018.629, 421.7229
1019.111, 422.0430
1019.593, 422.1941
1020.075, 422.0701
1020.557, 422.0944
1021.039, 422.3238
1021.521, 422.5481
1022.003, 422.5918
1022.486, 422.4819
1022.968, 422.2994
1023.450, 422.0359
1023.932, 421.5460
1024.414, 420.2372
1024.896, 419.3254
1025.378, 419.1421
1025.860, 419.6299
1026.343, 420.9951
1026.825, 423.1049
1027.307, 424.3380
1027.789, 424.0742
1028.271, 423.3801
1028.753, 423.0268
1029.235, 422.8644
1029.717, 422.6989
1030.199, 422.3968
1030.682, 422.5976
1031.164, 423.5681
1031.646, 424.2979
1032.128, 424.0295
1032.610, 423.1114
1033.092, 422.4763
1033.574, 422.0013
1034.056, 421.2527
1034.539, 419.0919
1035.021, 417.7964
1035.503, 418.7936
1035.985, 420.5667
1036.467, 421.0013
1036.949, 420.0479
1037.431, 419.7402
1037.913, 420.3896
1038.396, 420.7792
1038.878, 419.3875
1039.360, 417.5335
1039.842, 416.3817
1040.324, 416.0591
1040.806, 416.1735
1041.288, 417.2407
1041.770, 417.3427
1042.252, 415.4416
1042.734, 412.8009
1043.217, 412.1991
1043.699, 412.9650
1044.181, 413.2051
1044.663, 411.7558
1045.145, 411.1315
1045.627, 413.8052
1046.109, 416.4157
1046.591, 416.0387
1047.074, 412.4819
1047.556, 411.2919
1048.038, 412.4677
1048.520, 413.6864
1049.002, 413.3456
1049.484, 412.4239
1049.966, 411.3208
1050.448, 410.3314
1050.931, 410.3329
1051.413, 412.1406
1051.895, 413.1944
1052.377, 413.0903
1052.859, 412.4745
1053.341, 412.1747
1053.823, 411.9527
1054.305, 411.0072
1054.787, 409.2438
1055.270, 408.2057
1055.752, 409.7446
1056.234, 410.8524
1056.716, 409.9324
1057.198, 407.6845
1057.680, 406.9751
1058.162, 407.7030
1058.644, 408.3683
1059.126, 408.6061
1059.609, 408.3148
1060.091, 406.8952
1060.573, 405.1819
1061.055, 404.2666
1061.537, 404.6728
1062.019, 403.9702
1062.501, 401.7870
1062.983, 399.8790
1063.466, 399.7863
1063.948, 400.5600
1064.430, 400.3409
1064.912, 399.4638
1065.394, 398.9229
1065.876, 399.6910
1066.358, 400.0391
1066.840, 399.7272
1067.323, 398.8569
1067.805, 397.2014
1068.287, 394.9612
1068.769, 393.6922
1069.251, 393.5075
1069.733, 393.9356
1070.215, 395.2882
1070.697, 396.5524
1071.179, 396.8732
1071.661, 396.4781
1072.144, 396.3958
1072.626, 396.6991
1073.108, 396.8710
1073.590, 396.8765
1074.072, 396.4159
1074.554, 394.5891
1075.036, 392.3292
1075.518, 390.9082
1076.001, 390.7371
1076.483, 390.6224
1076.965, 390.4309
1077.447, 390.3690
1077.929, 390.5907
1078.411, 390.9940
1078.893, 391.4673
1079.375, 391.8757
1079.858, 391.7650
1080.340, 390.3453
1080.822, 389.2172
1081.304, 389.3015
1081.786, 389.6313
1082.268, 389.2474
1082.750, 388.1273
1083.232, 387.5724
1083.714, 387.6042
1084.197, 387.8095
1084.679, 387.8119
1085.161, 387.9531
1085.643, 388.9286
1086.125, 390.2437
1086.607, 390.2993
1087.089, 388.6628
1087.571, 387.1521
1088.054, 385.9347
1088.536, 385.2904
1089.018, 385.9132
1089.500, 387.1372
1089.982, 388.2057
1090.464, 389.0359
1090.946, 388.9055
1091.428, 386.8487
1091.911, 385.1734
1092.393, 384.6405
1092.875, 384.8785
1093.357, 385.2954
1093.839, 385.7355
1094.321, 385.6373
1094.803, 384.6192
1095.285, 383.7897
1095.767, 383.9833
1096.250, 384.2720
1096.732, 383.9034
1097.214, 382.9506
1097.696, 382.8984
1098.178, 383.7168
1098.660, 384.7095
1099.142, 385.3999
1099.624, 386.2784
1100.106, 388.3454
1100.589, 390.5942
1101.071, 391.2964
1101.553, 389.6372
1102.035, 389.2247
1102.517, 390.3522
1102.999, 391.4577
1103.481, 390.8901
1103.963, 389.7423
1104.446, 389.4351
1104.928, 389.8576
1105.410, 390.3621
1105.892, 390.9989
1106.374, 391.3616
1106.856, 391.3911
1107.338, 391.1220
1107.820, 390.2355
1108.302, 389.1678
1108.785, 389.1196
1109.267, 390.2252
1109.749, 391.1935
1110.231, 391.2938
1110.713, 391.3597
1111.195, 391.6562
1111.677, 392.1703
1112.159, 393.0378
1112.641, 394.1530
1113.124, 394.7924
1113.606, 394.7008
1114.088, 394.4703
1114.570, 394.1172
1115.052, 394.1237
1115.534, 395.1800
1116.016, 397.1780
1116.498, 397.7213
1116.981, 396.7651
1117.463, 395.8156
1117.945, 395.4854
1118.427, 395.5147
1118.909, 395.9606
1119.391, 396.4626
1119.873, 396.4359
1120.355, 395.4944
1120.838, 395.0234
1121.320, 395.0512
1121.802, 395.4082
1122.284, 396.3484
1122.766, 397.3036
1123.248, 397.3384
1123.730, 396.6855
1124.212, 395.9873
1124.694, 395.5385
1125.177, 394.8511
1125.659, 393.7487
1126.141, 392.6986
1126.623, 392.4234
1127.105, 392.5379
1127.587, 391.7231
1128.069, 390.1090
1128.551, 389.1790
1129.033, 390.6425
1129.516, 391.5000
1129.998, 390.6664
1130.480, 389.0792
1130.962, 388.2143
1131.444, 387.9990
1131.926, 388.2044
1132.408, 388.8311
1132.890, 389.0915
1133.373, 388.1906
1133.855, 387.0777
1134.337, 386.2942
1134.819, 385.7466
1135.301, 385.0721
1135.783, 384.2871
1136.265, 383.5776
1136.747, 382.9759
1137.229, 382.5322
1137.712, 382.6520
1138.194, 382.6844
1138.676, 381.8001
1139.158, 380.0002
1139.640, 378.9483
1140.122, 378.6490
1140.604, 379.0525
1141.086, 380.5509
1141.569, 381.9814
1142.051, 381.9484
1142.533, 381.1029
1143.015, 380.3028
1143.497, 379.7150
1143.979, 379.0001
1144.461, 378.0806
1144.943, 377.3610
1145.426, 377.3183
1145.908, 377.4452
1146.390, 376.7355
1146.872, 375.6035
1147.354, 374.9099
1147.836, 375.3182
1148.318, 375.5699
1148.800, 375.6503
1149.282, 375.5352
1149.765, 375.1100
1150.247, 374.5166
1150.729, 373.7774
1151.211, 373.1018
1151.693, 373.2797
1152.175, 376.2021
1152.657, 377.6996
1153.139, 376.7225
1153.621, 374.7836
1154.104, 373.4252
1154.586, 372.6108
1155.068, 372.3110
1155.550, 372.4853
1156.032, 372.7962
1156.514, 373.4930
1156.996, 373.7286
1157.478, 372.9614
1157.961, 371.8961
1158.443, 371.9544
1158.925, 372.9028
1159.407, 373.4289
1159.889, 373.3414
1160.371, 373.0736
1160.853, 372.6390
1161.335, 372.3582
1161.818, 372.4596
1162.300, 372.7982
1162.782, 373.0424
1163.264, 373.1723
1163.746, 372.9174
1164.228, 372.1473
1164.710, 371.4211
1165.192, 371.2145
1165.674, 371.1491
1166.156, 370.8907
1166.639, 370.9547
1167.121, 370.5595
1167.603, 371.0472
1168.085, 371.3958
1168.567, 371.4247
1169.049, 371.2719
1169.531, 370.9154
1170.013, 370.5331
1170.496, 370.3249
1170.978, 370.0867
1171.460, 370.1430
1171.942, 369.8498
1172.424, 369.6762
1172.906, 369.7514
1173.388, 369.9642
1173.870, 370.7126
1174.353, 371.2735
1174.835, 370.2527
1175.317, 366.8938
1175.799, 366.6036
1176.281, 369.8546
1176.763, 372.3740
1177.245, 371.1475
1177.727, 368.6328
1178.209, 367.2855
1178.692, 366.7289
1179.174, 366.3105
1179.656, 365.7614
1180.138, 365.9550
1180.620, 367.0551
1181.102, 368.0498
1181.584, 368.0562
1182.066, 367.6569
1182.548, 367.5417
1183.031, 367.6132
1183.513, 367.6343
1183.995, 367.6076
1184.477, 367.3824
1184.959, 366.8623
1185.441, 366.4990
1185.923, 367.1066
1186.405, 367.8398
1186.888, 367.2215
1187.370, 365.6606
1187.852, 364.7300
1188.334, 365.0526
1188.816, 365.2764
1189.298, 365.2400
1189.780, 365.2246
1190.262, 365.5674
1190.745, 366.0880
1191.227, 366.6676
1191.709, 367.2099
1192.191, 367.2750
1192.673, 366.6116
1193.155, 365.6979
1193.637, 364.4059
1194.119, 363.3984
1194.601, 363.8129
1195.084, 364.8517
1195.566, 365.0610
1196.048, 364.4583
1196.530, 364.4943
1197.012, 366.0076
1197.494, 367.0327
1197.976, 367.1555
1198.458, 366.7578
1198.941, 366.2086
1199.423, 365.5818
1199.905, 364.8954
1200.387, 364.1643
1200.869, 363.9883
1201.351, 364.8950
1201.833, 365.4800
1202.315, 365.3224
1202.797, 364.8569
1203.280, 364.5686
1203.762, 364.5570
1204.244, 365.1571
1204.726, 366.4578
1205.208, 367.3908
1205.690, 367.9569
1206.172, 367.7108
1206.654, 366.1187
1207.136, 364.3686
1207.619, 364.8667
1208.101, 366.5636
1208.583, 367.6823
1209.065, 367.8806
1209.547, 367.6337
1210.029, 366.5865
1210.511, 366.0887
1210.993, 366.7722
1211.476, 368.0161
1211.958, 368.8989
1212.440, 369.4496
1212.922, 369.6360
1213.404, 369.3608
1213.886, 369.2619
1214.368, 369.5525
1214.850, 369.6702
1215.333, 369.2900
1215.815, 368.7488
1216.297, 368.6245
1216.779, 368.8013
1217.261, 369.1548
1217.743, 369.8449
1218.225, 369.8424
1218.707, 368.7479
1219.189, 367.9010
1219.672, 368.1193
1220.154, 368.6924
1220.636, 368.0496
1221.118, 366.8894
1221.600, 366.5035
1222.082, 367.5036
1222.564, 368.3714
1223.046, 369.1085
1223.528, 369.4642
1224.011, 369.0975
1224.493, 368.5255
1224.975, 368.7650
1225.457, 368.5481
1225.939, 368.5246
1226.421, 368.9528
1226.903, 368.9337
1227.385, 369.7392
1227.868, 370.6915
1228.350, 371.6633
1228.832, 372.2809
1229.314, 371.5718
1229.796, 370.2326
1230.278, 369.4989
1230.760, 369.9660
1231.242, 369.8898
1231.724, 369.0981
1232.207, 368.5873
1232.689, 369.2318
1233.171, 370.1767
1233.653, 370.2587
1234.135, 369.8918
1234.617, 369.7695
1235.099, 369.9944
1235.581, 370.5234
1236.063, 371.4447
1236.546, 372.0725
1237.028, 371.9594
1237.510, 371.3624
1237.992, 369.9066
1238.474, 368.4015
1238.956, 368.4609
1239.438, 370.8677
1239.920, 371.3946
1240.403, 369.8967
1240.885, 368.3927
1241.367, 368.1691
1241.849, 368.4908
1242.331, 368.8647
1242.813, 369.3096
1243.295, 369.8138
1243.777, 370.3250
1244.260, 371.3310
1244.742, 372.8414
1245.224, 374.0019
1245.706, 374.1829
1246.188, 373.9597
1246.670, 373.4953
1247.152, 372.9964
1247.634, 372.7963
1248.116, 372.9430
1248.599, 372.5474
1249.081, 371.6718
1249.563, 371.2347
1250.045, 372.3197
1250.527, 373.3766
1251.009, 373.2039
1251.491, 372.8734
1251.973, 373.8146
1252.455, 375.9082
1252.938, 375.8366
1253.420, 373.8812
1253.902, 372.5179
1254.384, 374.1280
1254.866, 375.2374
1255.348, 373.8826
1255.830, 372.2122
1256.313, 372.3578
1256.795, 373.9405
1257.277, 374.3589
1257.759, 373.8783
1258.241, 373.9398
1258.723, 376.1330
1259.205, 377.6104
1259.687, 377.6988
1260.169, 377.1740
1260.651, 376.2200
1261.134, 375.2883
1261.616, 376.4231
1262.098, 378.9413
1262.580, 380.4713
1263.062, 379.5835
1263.544, 378.2710
1264.026, 376.3375
1264.508, 374.9173
1264.991, 375.3366
1265.473, 376.7289
1265.955, 377.5558
1266.437, 377.9478
1266.919, 378.2915
1267.401, 378.9198
1267.883, 379.0425
1268.365, 378.5980
1268.848, 377.8675
1269.330, 376.5702
1269.812, 375.5108
1270.294, 376.0874
1270.776, 377.6193
1271.258, 378.6008
1271.740, 378.8557
1272.222, 378.6065
1272.704, 377.7761
1273.187, 377.1416
1273.669, 377.1957
1274.151, 377.7147
1274.633, 379.0645
1275.115, 380.4749
1275.597, 380.7575
1276.079, 379.7667
1276.561, 378.2107
1277.043, 376.1571
1277.526, 375.2874
1278.008, 377.7226
1278.490, 380.4129
1278.972, 382.1308
1279.454, 382.7212
1279.936, 381.7154
1280.418, 379.2119
1280.900, 377.5229
1281.383, 376.6686
1281.865, 376.7321
1282.347, 378.3715
1282.829, 380.0725
1283.311, 381.5712
1283.793, 382.6625
1284.275, 383.1262
1284.757, 383.0373
1285.240, 382.6540
1285.722, 382.0019
1286.204, 381.1635
1286.686, 379.9033
1287.168, 378.9502
1287.650, 378.3765
1288.132, 378.1178
1288.614, 378.1399
1289.096, 378.4582
1289.578, 379.1920
1290.061, 380.2224
1290.543, 381.3890
1291.025, 383.3017
1291.507, 383.3442
1291.989, 381.0362
1292.471, 379.0791
1292.953, 379.1863
1293.435, 380.2258
1293.918, 381.1961
1294.400, 382.0456
1294.882, 382.7035
1295.364, 383.1773
1295.846, 383.5644
1296.328, 383.8772
1296.810, 383.8538
1297.292, 383.0145
1297.775, 382.3765
1298.257, 383.1787
1298.739, 384.2660
1299.221, 384.5558
1299.703, 384.1105
1300.185, 383.3653
1300.667, 382.4436
1301.149, 382.1412
1301.631, 383.1405
1302.114, 383.6376
1302.596, 383.4688
##END=



