##NAMES=Kotoite
##RRUFFID=R060940
##IDEAL CHEMISTRY=Mg_3_(BO_3_)_2_
##LOCALITY=Hol Kol mine, Samdung, near Pyongyang, Suan County, North Korea
##OWNER=RRUFF
##SOURCE=Michael Scott
##DESCRIPTION=Aggregate of pale green micro grains
##STATUS=The identification of this mineral is confirmed by single-crystal X-ray diffraction and chemical analysis.
##URL=rruff.info/R060940
##MEASURED CHEMISTRY=(Mg_2.98_Fe_0.02_)_Î£=3_(BO_3_)_2_ ; trace amounts of Mn; B_2_O_3_ estimated by difference
158.1689, 152.4718
158.6510, 150.8300
159.1331, 141.0153
159.6152, 136.9212
160.0974, 144.0388
160.5795, 149.7922
161.0616, 149.2458
161.5437, 144.5087
162.0258, 140.6114
162.5079, 140.7262
162.9901, 143.9916
163.4722, 144.5879
163.9543, 139.6353
164.4364, 135.5857
164.9185, 135.6328
165.4006, 138.6311
165.8828, 141.5059
166.3649, 142.7036
166.8470, 142.1578
167.3291, 139.9376
167.8112, 133.2015
168.2933, 127.8524
168.7755, 127.8539
169.2576, 131.8005
169.7397, 134.6835
170.2218, 133.1982
170.7039, 128.4804
171.1860, 126.2441
171.6682, 129.5473
172.1503, 132.1683
172.6324, 130.3406
173.1145, 124.8885
173.5966, 119.0636
174.0787, 113.8282
174.5609, 110.1329
175.0430, 110.4645
175.5251, 119.1061
176.0072, 127.4120
176.4893, 129.5727
176.9714, 126.6153
177.4536, 124.1640
177.9357, 125.7359
178.4178, 129.9001
178.8999, 131.5985
179.3820, 128.7409
179.8641, 125.7166
180.3463, 126.3332
180.8284, 129.8995
181.3105, 131.3665
181.7926, 127.0762
182.2747, 119.1954
182.7568, 114.0433
183.2390, 111.5821
183.7211, 111.8293
184.2032, 117.4817
184.6853, 127.5113
185.1674, 133.0224
185.6495, 127.0391
186.1316, 114.8366
186.6138, 109.2573
187.0959, 114.2903
187.5780, 120.3680
188.0601, 120.9609
188.5422, 116.4912
189.0243, 110.2085
189.5065, 101.9635
189.9886, 93.85751
190.4707, 89.75323
190.9528, 91.43052
191.4349, 94.01991
191.9170, 93.36887
192.3992, 89.96805
192.8813, 88.40846
193.3634, 91.95851
193.8455, 97.47581
194.3276, 99.46931
194.8097, 96.39491
195.2919, 93.05070
195.7740, 93.18932
196.2561, 96.39527
196.7382, 99.24718
197.2203, 100.3140
197.7024, 100.5359
198.1846, 101.6100
198.6667, 104.0470
199.1488, 105.8122
199.6309, 104.7209
200.1130, 101.2738
200.5951, 99.43047
201.0773, 102.2942
201.5594, 105.4909
202.0415, 102.0691
202.5236, 89.93964
203.0057, 80.69628
203.4878, 85.58345
203.9700, 101.5332
204.4521, 110.9117
204.9342, 105.9913
205.4163, 95.57720
205.8984, 90.71470
206.3805, 91.83157
206.8626, 94.35117
207.3448, 96.05022
207.8269, 97.02144
208.3090, 97.93014
208.7911, 99.82906
209.2732, 100.3372
209.7553, 95.51129
210.2375, 85.20570
210.7196, 77.78979
211.2017, 80.89489
211.6838, 90.94888
212.1659, 96.06253
212.6480, 93.03436
213.1302, 86.00138
213.6123, 77.94222
214.0944, 69.00724
214.5765, 62.41494
215.0586, 59.53535
215.5407, 60.07079
216.0229, 64.15745
216.5050, 73.56654
216.9871, 82.77325
217.4692, 86.25410
217.9513, 84.98869
218.4334, 82.78966
218.9156, 80.73239
219.3977, 78.81678
219.8798, 76.85199
220.3619, 74.55973
220.8440, 72.99225
221.3261, 74.57727
221.8083, 78.02147
222.2904, 78.88821
222.7725, 72.50648
223.2546, 63.85645
223.7367, 61.20443
224.2188, 65.89724
224.7010, 72.19440
225.1831, 76.91650
225.6652, 80.00753
226.1473, 80.74735
226.6294, 76.53971
227.1115, 71.15109
227.5937, 69.59377
228.0758, 72.27095
228.5579, 74.99245
229.0400, 74.13738
229.5221, 71.42183
230.0042, 71.20882
230.4863, 77.32394
230.9685, 83.54462
231.4506, 83.48352
231.9327, 77.31831
232.4148, 70.49412
232.8969, 64.75002
233.3790, 61.00266
233.8612, 60.86657
234.3433, 67.12517
234.8254, 73.55769
235.3075, 75.35547
235.7896, 73.15246
236.2717, 71.18276
236.7539, 71.91251
237.2360, 73.45371
237.7181, 71.44382
238.2002, 63.30664
238.6823, 56.89382
239.1644, 57.77825
239.6466, 63.91018
240.1287, 68.93698
240.6108, 70.53231
241.0929, 70.06240
241.5750, 69.63136
242.0571, 68.68679
242.5393, 69.38227
243.0214, 75.26653
243.5035, 82.97826
243.9856, 84.32218
244.4677, 75.36866
244.9498, 65.03935
245.4320, 69.30956
245.9141, 90.83256
246.3962, 106.2122
246.8783, 107.1150
247.3604, 100.4903
247.8425, 93.53248
248.3247, 87.37373
248.8068, 84.60000
249.2889, 89.45210
249.7710, 103.3389
250.2531, 114.0505
250.7352, 122.0256
251.2174, 125.6822
251.6995, 122.1832
252.1816, 111.7125
252.6637, 98.66213
253.1458, 85.79651
253.6279, 73.15888
254.1100, 66.70706
254.5922, 73.06579
255.0743, 79.61140
255.5564, 76.58094
256.0385, 66.06644
256.5206, 58.71389
257.0027, 63.13348
257.4849, 77.82472
257.9670, 82.92685
258.4491, 70.91975
258.9312, 59.37087
259.4133, 53.84265
259.8954, 53.42815
260.3776, 56.37069
260.8597, 62.20753
261.3418, 69.59983
261.8239, 73.45235
262.3060, 70.95687
262.7881, 68.45038
263.2703, 65.82467
263.7524, 63.97152
264.2345, 64.51054
264.7166, 68.07625
265.1987, 72.92020
265.6808, 75.46256
266.1630, 73.86733
266.6451, 72.42063
267.1272, 72.70379
267.6093, 72.20363
268.0914, 67.03237
268.5735, 57.06302
269.0557, 47.78050
269.5378, 47.25662
270.0199, 61.04286
270.5020, 67.99826
270.9841, 63.90588
271.4662, 57.93669
271.9484, 54.46300
272.4305, 53.97035
272.9126, 55.28052
273.3947, 57.70507
273.8768, 61.50854
274.3589, 63.01905
274.8411, 59.16123
275.3232, 55.96700
275.8053, 55.55793
276.2874, 57.22408
276.7695, 59.39312
277.2516, 61.26754
277.7338, 62.64585
278.2159, 62.19419
278.6980, 58.24709
279.1801, 54.69094
279.6622, 52.26303
280.1443, 50.74914
280.6265, 50.05358
281.1086, 50.22328
281.5907, 50.73058
282.0728, 49.83622
282.5549, 45.62733
283.0370, 45.11762
283.5192, 54.70560
284.0013, 65.47544
284.4834, 70.37957
284.9655, 67.72382
285.4476, 61.37354
285.9297, 54.19067
286.4118, 45.73505
286.8940, 41.49496
287.3761, 45.31821
287.8582, 51.21181
288.3403, 56.57204
288.8224, 60.88541
289.3045, 62.40015
289.7867, 56.90848
290.2688, 46.65441
290.7509, 43.32806
291.2330, 51.08786
291.7151, 60.12585
292.1972, 63.79397
292.6794, 63.32549
293.1615, 61.74102
293.6436, 59.63922
294.1257, 57.35049
294.6078, 55.06953
295.0899, 52.62202
295.5721, 51.36760
296.0542, 52.98389
296.5363, 56.26218
297.0184, 58.72920
297.5005, 61.30464
297.9826, 61.57519
298.4648, 54.63415
298.9469, 42.28483
299.4290, 35.61350
299.9111, 41.27108
300.3932, 53.53288
300.8753, 60.18385
301.3575, 60.22665
301.8396, 58.24095
302.3217, 54.06699
302.8038, 49.30388
303.2859, 46.70251
303.7680, 47.03712
304.2502, 49.55555
304.7323, 53.87889
305.2144, 61.08407
305.6965, 65.66263
306.1786, 65.25470
306.6607, 63.41941
307.1429, 63.67888
307.6250, 66.05099
308.1071, 67.44418
308.5892, 64.94025
309.0713, 58.25686
309.5534, 52.21336
310.0356, 45.14591
310.5177, 40.23695
310.9998, 39.80036
311.4819, 42.45076
311.9640, 45.39471
312.4461, 47.11644
312.9283, 47.70471
313.4104, 47.54236
313.8925, 44.34598
314.3746, 43.31794
314.8567, 46.35068
315.3388, 51.00536
315.8210, 55.53640
316.3031, 59.19643
316.7852, 60.97337
317.2673, 58.37574
317.7494, 48.09546
318.2315, 42.15279
318.7137, 44.76959
319.1958, 48.42348
319.6779, 48.46142
320.1600, 45.18593
320.6421, 42.44984
321.1242, 44.57826
321.6064, 51.34016
322.0885, 54.75536
322.5706, 53.02756
323.0527, 50.08244
323.5348, 45.81833
324.0169, 41.83490
324.4991, 41.36092
324.9812, 47.43528
325.4633, 56.23273
325.9454, 60.19151
326.4275, 58.32512
326.9096, 55.77592
327.3918, 53.15066
327.8739, 51.67720
328.3560, 53.75953
328.8381, 61.11755
329.3202, 66.92010
329.8023, 63.81635
330.2844, 53.71870
330.7665, 46.42427
331.2487, 44.92309
331.7308, 46.13102
332.2129, 47.00028
332.6950, 47.62847
333.1771, 46.67591
333.6592, 40.85336
334.1414, 34.53271
334.6235, 33.98423
335.1056, 39.91233
335.5877, 47.77975
336.0698, 54.70502
336.5519, 60.44481
337.0341, 63.39530
337.5162, 63.37290
337.9983, 60.86692
338.4804, 53.44473
338.9625, 43.59161
339.4446, 37.92870
339.9268, 40.28473
340.4089, 47.54449
340.8910, 50.40376
341.3731, 41.28933
341.8552, 37.31345
342.3373, 44.53615
342.8195, 54.35115
343.3016, 57.80816
343.7837, 53.27950
344.2658, 46.23563
344.7479, 43.85973
345.2300, 47.94489
345.7122, 49.57029
346.1943, 45.52738
346.6764, 42.17876
347.1585, 42.17001
347.6406, 45.09819
348.1227, 49.82275
348.6049, 56.59479
349.0870, 63.88900
349.5691, 63.70090
350.0512, 48.83446
350.5333, 39.69069
351.0154, 46.24554
351.4976, 58.90442
351.9797, 67.74261
352.4618, 69.53905
352.9439, 68.70770
353.4260, 69.86623
353.9081, 73.01656
354.3903, 77.84724
354.8724, 85.45651
355.3545, 93.53194
355.8366, 101.6275
356.3187, 109.3891
356.8008, 112.1066
357.2830, 103.1159
357.7651, 88.94580
358.2472, 82.00912
358.7293, 84.08574
359.2114, 86.76357
359.6935, 84.42393
360.1757, 77.41173
360.6578, 69.17392
361.1399, 55.40679
361.6220, 44.69505
362.1041, 44.91052
362.5862, 52.02058
363.0684, 55.13434
363.5505, 49.08719
364.0326, 38.52598
364.5147, 33.34826
364.9968, 36.61697
365.4789, 39.98942
365.9611, 44.06672
366.4432, 47.45199
366.9253, 48.56278
367.4074, 47.43673
367.8895, 45.77986
368.3716, 45.53751
368.8538, 47.04794
369.3359, 45.54937
369.8180, 35.54079
370.3001, 28.34056
370.7822, 28.58650
371.2643, 33.37078
371.7465, 38.00132
372.2286, 40.14909
372.7107, 40.80911
373.1928, 42.21524
373.6749, 44.77139
374.1570, 46.91494
374.6392, 50.07463
375.1213, 51.48995
375.6034, 47.23880
376.0855, 37.47633
376.5676, 29.73363
377.0497, 32.18341
377.5318, 42.21083
378.0139, 47.71913
378.4961, 46.15052
378.9782, 43.78671
379.4603, 46.59241
379.9424, 52.17438
380.4245, 54.87175
380.9066, 50.66264
381.3888, 45.40289
381.8709, 44.79918
382.3530, 47.92775
382.8351, 49.73062
383.3172, 47.61231
383.7993, 43.55812
384.2815, 42.23302
384.7636, 44.68946
385.2457, 46.74199
385.7278, 46.90452
386.2099, 46.75249
386.6920, 48.87615
387.1742, 53.19193
387.6563, 55.93900
388.1384, 52.86343
388.6205, 43.31340
389.1026, 37.82839
389.5847, 40.16091
390.0669, 42.19449
390.5490, 40.65448
391.0311, 37.47762
391.5132, 36.13139
391.9953, 38.32471
392.4774, 42.10944
392.9596, 43.00010
393.4417, 39.21072
393.9238, 37.73271
394.4059, 42.87628
394.8880, 48.08787
395.3701, 48.39176
395.8523, 44.18512
396.3344, 40.80858
396.8165, 43.25333
397.2986, 49.72928
397.7807, 54.37810
398.2628, 57.60707
398.7450, 57.29087
399.2271, 47.84151
399.7092, 34.71510
400.1913, 28.45407
400.6734, 34.22471
401.1555, 41.86044
401.6377, 45.50512
402.1198, 45.54226
402.6019, 42.07435
403.0840, 34.26490
403.5661, 26.29377
404.0482, 25.02271
404.5304, 33.21051
405.0125, 37.77960
405.4946, 33.15952
405.9767, 28.63420
406.4588, 32.99204
406.9409, 44.16685
407.4231, 52.45996
407.9052, 50.64991
408.3873, 41.07111
408.8694, 37.41149
409.3515, 46.73857
409.8336, 52.62974
410.3158, 51.30178
410.7979, 46.88319
411.2800, 42.39944
411.7621, 38.87176
412.2442, 37.10338
412.7263, 38.96966
413.2085, 44.71202
413.6906, 48.14841
414.1727, 48.79845
414.6548, 47.26140
415.1369, 41.55562
415.6190, 34.26348
416.1012, 31.49418
416.5833, 38.51376
417.0654, 47.69159
417.5475, 48.79042
418.0296, 42.48833
418.5117, 38.13430
418.9939, 40.21988
419.4760, 44.62301
419.9581, 43.92715
420.4402, 37.30951
420.9223, 31.18102
421.4044, 23.86633
421.8865, 19.68026
422.3687, 26.43741
422.8508, 42.81969
423.3329, 56.79619
423.8150, 58.51675
424.2971, 49.02438
424.7792, 41.09270
425.2614, 33.03933
425.7435, 28.60446
426.2256, 30.06935
426.7077, 34.70080
427.1898, 40.47681
427.6719, 46.47588
428.1541, 51.08612
428.6362, 51.64647
429.1183, 47.51784
429.6004, 43.92484
430.0825, 40.86452
430.5646, 38.54526
431.0468, 37.43776
431.5289, 37.06702
432.0110, 36.25644
432.4931, 33.79264
432.9752, 31.54237
433.4573, 33.12962
433.9395, 38.38494
434.4216, 41.18351
434.9037, 38.80826
435.3858, 33.66883
435.8679, 28.57943
436.3500, 22.92306
436.8322, 20.66356
437.3143, 26.15553
437.7964, 33.38379
438.2785, 36.10186
438.7606, 34.24144
439.2427, 31.37717
439.7249, 29.76413
440.2070, 29.48122
440.6891, 31.03349
441.1712, 38.57448
441.6533, 42.84684
442.1354, 38.88410
442.6176, 33.41508
443.0997, 34.59913
443.5818, 43.37589
444.0639, 52.07002
444.5460, 50.58997
445.0281, 38.42820
445.5103, 31.86618
445.9924, 34.14458
446.4745, 37.53902
446.9566, 38.63387
447.4387, 38.37391
447.9208, 38.31121
448.4030, 39.06184
448.8851, 39.84999
449.3672, 39.63937
449.8493, 38.67283
450.3314, 38.43691
450.8135, 39.61246
451.2957, 40.91198
451.7778, 40.67389
452.2599, 38.82145
452.7420, 36.87883
453.2241, 34.54101
453.7062, 32.55532
454.1884, 31.28539
454.6705, 30.77685
455.1526, 31.20420
455.6347, 32.73361
456.1168, 34.84150
456.5989, 36.11431
457.0811, 35.82721
457.5632, 35.99318
458.0453, 36.36964
458.5274, 37.40171
459.0095, 41.06266
459.4916, 46.10104
459.9738, 47.76210
460.4559, 40.43624
460.9380, 27.93334
461.4201, 23.98971
461.9022, 31.16617
462.3843, 37.34487
462.8665, 36.21199
463.3486, 32.27356
463.8307, 31.52144
464.3128, 35.13611
464.7949, 37.68495
465.2770, 34.83305
465.7591, 29.77014
466.2412, 28.25834
466.7234, 30.92026
467.2055, 32.94949
467.6876, 30.12220
468.1697, 23.00865
468.6518, 19.06469
469.1339, 17.28674
469.6161, 19.38605
470.0982, 30.63062
470.5803, 43.55612
471.0624, 49.65213
471.5445, 46.98608
472.0266, 39.90466
472.5088, 31.74037
472.9909, 21.99476
473.4730, 20.03020
473.9551, 30.87899
474.4372, 42.75018
474.9193, 53.33016
475.4015, 61.13600
475.8836, 63.67183
476.3657, 59.70315
476.8478, 51.87640
477.3299, 39.04768
477.8120, 23.64512
478.2942, 17.45043
478.7763, 24.92785
479.2584, 34.84673
479.7405, 35.32796
480.2226, 25.87719
480.7047, 19.95554
481.1869, 20.44090
481.6690, 21.87130
482.1511, 21.60509
482.6332, 20.41393
483.1153, 19.82278
483.5974, 20.43555
484.0796, 21.96324
484.5617, 23.89300
485.0438, 26.06747
485.5259, 29.18011
486.0080, 35.97239
486.4901, 41.04084
486.9723, 41.11036
487.4544, 37.95913
487.9365, 35.01490
488.4186, 33.16608
488.9007, 33.60820
489.3828, 40.49737
489.8650, 53.20321
490.3471, 59.59694
490.8292, 54.56241
491.3113, 45.46390
491.7934, 41.28233
492.2755, 41.78663
492.7577, 40.27740
493.2398, 33.08033
493.7219, 25.91914
494.2040, 22.32895
494.6861, 22.01001
495.1682, 24.31865
495.6504, 29.09651
496.1325, 34.59185
496.6146, 37.12878
497.0967, 35.02852
497.5788, 33.75259
498.0609, 33.74501
498.5431, 34.08782
499.0252, 35.08259
499.5073, 36.06597
499.9894, 35.42281
500.4715, 31.67154
500.9536, 27.03178
501.4358, 25.34357
501.9179, 26.64921
502.4000, 27.86963
502.8821, 27.70845
503.3642, 27.79390
503.8463, 31.22813
504.3285, 37.89072
504.8106, 41.43759
505.2927, 37.55270
505.7748, 32.78359
506.2569, 32.76418
506.7390, 35.94476
507.2212, 37.80249
507.7033, 36.29553
508.1854, 31.87336
508.6675, 24.63096
509.1496, 10.55529
509.6317, 3.211223
510.1138, 5.208560
510.5959, 11.08955
511.0781, 22.56477
511.5602, 35.77002
512.0423, 42.27765
512.5244, 36.14742
513.0065, 24.94984
513.4886, 18.88617
513.9708, 17.92719
514.4529, 23.02360
514.9350, 38.28629
515.4171, 53.11603
515.8992, 52.64510
516.3813, 37.75467
516.8635, 27.43861
517.3456, 28.65105
517.8277, 30.92765
518.3098, 25.94683
518.7919, 17.22963
519.2740, 13.31297
519.7562, 17.66003
520.2383, 26.18660
520.7204, 32.32941
521.2025, 35.67237
521.6846, 38.07321
522.1667, 38.94742
522.6489, 39.37440
523.1310, 39.96159
523.6131, 40.32202
524.0952, 39.40860
524.5773, 36.24697
525.0594, 33.39492
525.5416, 36.76349
526.0237, 43.97666
526.5058, 40.14088
526.9879, 18.79527
527.4700, -1.843389
527.9521, -3.111106
528.4343, 15.19679
528.9164, 27.25577
529.3985, 29.13685
529.8806, 29.30268
530.3627, 30.02602
530.8448, 31.36273
531.3270, 34.18922
531.8091, 38.34942
532.2912, 40.75410
532.7733, 36.63749
533.2554, 25.61164
533.7375, 19.10884
534.2197, 19.85143
534.7018, 20.88203
535.1839, 17.70585
535.6660, 13.99937
536.1481, 15.07919
536.6302, 22.80708
537.1124, 30.77748
537.5945, 35.09249
538.0766, 36.55423
538.5587, 36.03921
539.0408, 33.73592
539.5229, 31.78722
540.0051, 32.17544
540.4872, 34.07084
540.9693, 32.84048
541.4514, 22.08572
541.9335, 16.75934
542.4156, 23.35384
542.8978, 32.13203
543.3799, 34.56240
543.8620, 30.66182
544.3441, 26.48752
544.8262, 27.05588
545.3083, 30.49869
545.7905, 30.76969
546.2726, 27.24062
546.7547, 24.09517
547.2368, 23.55858
547.7189, 23.18580
548.2010, 19.28087
548.6832, 11.62070
549.1653, 5.857094
549.6474, 1.959854
550.1295, 1.770361
550.6116, 10.17743
551.0938, 23.75106
551.5759, 32.81961
552.0580, 32.81966
552.5401, 27.14953
553.0222, 21.46213
553.5043, 14.01918
553.9865, 11.56214
554.4686, 19.51268
554.9507, 27.30952
555.4328, 29.84558
555.9149, 29.59799
556.3970, 32.23854
556.8792, 41.33510
557.3613, 49.30894
557.8434, 46.42427
558.3255, 35.73242
558.8076, 28.16249
559.2897, 25.91620
559.7719, 25.29204
560.2540, 22.61998
560.7361, 18.28569
561.2182, 18.64456
561.7003, 17.43685
562.1824, 31.31534
562.6646, 38.93113
563.1467, 40.62098
563.6288, 18.63575
564.1109, 27.22200
564.5930, 23.55656
565.0751, 19.38880
565.5573, 32.27776
566.0394, 13.73597
566.5215, 26.35460
567.0036, 26.53452
567.4857, 32.40730
567.9678, 25.95279
568.4500, 22.31485
568.9321, 26.64640
569.4142, 29.22661
569.8963, 23.87996
570.3784, 19.38323
570.8605, 26.92798
571.3427, 41.80287
571.8248, 48.59352
572.3069, 39.93835
572.7890, 25.24112
573.2711, 23.11729
573.7532, 39.91010
574.2354, 46.82698
574.7175, 34.74089
575.1996, 22.66515
575.6817, 18.95107
576.1638, 20.40697
576.6459, 21.01728
577.1281, 18.46512
577.6101, 16.67841
578.0922, 21.42803
578.5743, 28.87081
579.0565, 28.30734
579.5386, 18.21174
580.0207, 10.00170
580.5028, 13.33932
580.9849, 25.72867
581.4670, 31.60712
581.9492, 21.92346
582.4313, 17.41871
582.9134, 24.20578
583.3955, 32.68179
583.8776, 35.07393
584.3597, 31.77875
584.8419, 28.09987
585.3240, 26.98814
585.8061, 27.98753
586.2882, 31.27466
586.7703, 36.75777
587.2524, 39.97970
587.7346, 39.76580
588.2167, 36.65688
588.6988, 29.77847
589.1809, 18.63174
589.6630, 12.93054
590.1451, 18.23272
590.6273, 23.10201
591.1094, 20.60707
591.5915, 15.69611
592.0736, 16.76479
592.5557, 25.37514
593.0378, 33.79905
593.5200, 32.10692
594.0021, 21.92374
594.4842, 20.47081
594.9663, 31.99376
595.4484, 38.83971
595.9305, 27.96583
596.4127, 12.09941
596.8948, 11.86044
597.3769, 31.07106
597.8590, 42.36819
598.3411, 30.18678
598.8232, 13.23663
599.3054, 6.909801
599.7875, 9.347335
600.2696, 11.86626
600.7517, 10.42868
601.2338, 8.753139
601.7159, 14.68117
602.1981, 30.83628
602.6802, 40.74724
603.1623, 41.63154
603.6444, 39.56337
604.1265, 35.34884
604.6086, 30.91257
605.0908, 29.73216
605.5729, 33.38788
606.0550, 37.18248
606.5371, 39.68188
607.0192, 40.10923
607.5013, 36.48381
607.9835, 29.19734
608.4656, 20.88439
608.9477, 12.61942
609.4298, 6.169007
609.9119, 7.812028
610.3940, 23.51369
610.8762, 33.71481
611.3583, 35.60892
611.8404, 33.06979
612.3225, 24.62663
612.8046, 13.37233
613.2867, 5.976530
613.7689, 5.004423
614.2510, 8.343531
614.7331, 16.85642
615.2152, 27.85363
615.6973, 35.38198
616.1794, 38.37072
616.6616, 37.20628
617.1437, 31.39585
617.6258, 22.04139
618.1079, 16.33841
618.5900, 17.43418
619.0721, 17.41508
619.5543, 13.49317
620.0364, 10.05159
620.5185, 10.58439
621.0006, 14.48716
621.4827, 18.59258
621.9648, 21.52156
622.4470, 23.60575
622.9291, 24.24835
623.4112, 24.21470
623.8933, 27.61281
624.3754, 35.84123
624.8575, 43.34759
625.3397, 44.83896
625.8218, 40.43716
626.3039, 33.82116
626.7860, 20.56758
627.2681, 10.84115
627.7502, 5.160842
628.2324, 4.019829
628.7145, 11.07593
629.1966, 24.20163
629.6787, 33.03617
630.1608, 28.14925
630.6429, 17.88824
631.1251, 15.41647
631.6072, 19.64499
632.0893, 23.39066
632.5714, 24.42176
633.0535, 25.42466
633.5356, 30.13082
634.0178, 39.01525
634.4999, 41.95253
634.9820, 34.29618
635.4641, 26.86270
635.9462, 19.69760
636.4283, 15.03362
636.9105, 17.21510
637.3926, 25.25506
637.8747, 30.64120
638.3568, 24.80388
638.8389, 14.30997
639.3210, 11.00261
639.8032, 14.27516
640.2853, 19.18922
640.7674, 24.90736
641.2495, 28.65395
641.7316, 26.08553
642.2137, 16.22049
642.6959, 11.48891
643.1780, 15.36444
643.6601, 19.69190
644.1422, 21.18537
644.6243, 23.10908
645.1064, 31.94279
645.5886, 46.70364
646.0707, 55.29900
646.5528, 43.74917
647.0349, 23.48565
647.5170, 15.25014
647.9991, 17.80712
648.4813, 21.00838
648.9634, 21.87022
649.4455, 20.95580
649.9276, 18.29278
650.4097, 13.33330
650.8918, 12.74113
651.3740, 23.30173
651.8561, 29.67070
652.3382, 25.15697
652.8203, 17.07668
653.3024, 11.32096
653.7845, 9.293384
654.2667, 11.96991
654.7488, 24.11263
655.2309, 38.85826
655.7130, 46.39714
656.1951, 47.08920
656.6772, 41.21836
657.1594, 27.92932
657.6415, 14.77965
658.1236, 11.09500
658.6057, 17.42114
659.0878, 21.67878
659.5699, 21.67805
660.0521, 22.33860
660.5342, 25.76256
661.0163, 29.28207
661.4984, 31.06335
661.9805, 30.67513
662.4626, 27.66689
662.9448, 17.50295
663.4269, 7.925896
663.9090, 11.13097
664.3911, 22.99979
664.8732, 29.14390
665.3553, 25.50798
665.8375, 17.53022
666.3196, 10.10821
666.8017, 3.396432
667.2838, 1.425708
667.7659, 7.576817
668.2480, 12.99433
668.7301, 16.67598
669.2122, 18.64254
669.6943, 17.50246
670.1765, 14.14311
670.6586, 13.15304
671.1407, 18.72732
671.6228, 25.05623
672.1049, 27.31104
672.5870, 26.68754
673.0692, 25.50962
673.5513, 24.29533
674.0334, 22.16022
674.5155, 17.75534
674.9976, 12.18978
675.4797, 12.30089
675.9619, 21.02499
676.4440, 27.45556
676.9261, 28.28709
677.4082, 27.43978
677.8903, 27.65708
678.3724, 28.64196
678.8546, 29.10739
679.3367, 28.29167
679.8188, 27.50311
680.3009, 28.18685
680.7830, 28.88433
681.2651, 27.33837
681.7473, 23.62358
682.2294, 19.76217
682.7115, 17.09053
683.1936, 15.36348
683.6757, 13.89211
684.1578, 12.61339
684.6400, 11.91205
685.1221, 10.95354
685.6042, 12.36237
686.0863, 20.51786
686.5684, 32.61500
687.0505, 38.47478
687.5327, 34.38192
688.0148, 30.05197
688.4969, 27.35145
688.9790, 25.53012
689.4611, 23.56865
689.9432, 21.97738
690.4254, 22.11533
690.9075, 24.63197
691.3896, 29.22493
691.8717, 38.60326
692.3538, 50.67392
692.8359, 51.51526
693.3181, 38.52660
693.8002, 24.42750
694.2823, 15.95643
694.7644, 11.59156
695.2465, 7.172999
695.7286, -0.9570520
696.2108, -0.5201104
696.6929, 17.53088
697.1750, 34.19100
697.6571, 41.52158
698.1392, 41.54424
698.6213, 36.43149
699.1035, 26.65301
699.5856, 18.80599
700.0677, 19.72524
700.5498, 24.97124
701.0319, 27.92340
701.5140, 28.34964
701.9962, 26.21950
702.4783, 21.21899
702.9604, 16.52325
703.4425, 16.98566
703.9246, 23.26525
704.4067, 27.74623
704.8889, 30.08956
705.3710, 31.17494
705.8531, 30.02552
706.3352, 28.59957
706.8173, 28.99027
707.2994, 31.21427
707.7816, 32.91806
708.2637, 33.06142
708.7458, 32.66280
709.2279, 32.49392
709.7100, 32.23613
710.1921, 31.37524
710.6743, 29.78841
711.1564, 27.49768
711.6385, 24.26651
712.1206, 20.61081
712.6027, 18.46350
713.0848, 17.99426
713.5670, 17.38485
714.0491, 16.15829
714.5312, 14.85283
715.0133, 13.47284
715.4954, 12.29505
715.9775, 13.09735
716.4597, 17.36902
716.9418, 21.48849
717.4239, 26.52112
717.9060, 29.81939
718.3881, 27.66191
718.8702, 22.06930
719.3524, 18.97705
719.8345, 21.66974
720.3166, 24.90458
720.7987, 21.39556
721.2808, 14.20829
721.7629, 11.56256
722.2451, 14.18364
722.7272, 19.54160
723.2093, 26.94029
723.6914, 33.99127
724.1735, 35.16249
724.6556, 27.90351
725.1378, 24.02662
725.6199, 27.43114
726.1020, 29.10035
726.5841, 23.66420
727.0662, 15.98554
727.5483, 12.21880
728.0305, 13.26767
728.5126, 14.73205
728.9947, 14.82953
729.4768, 14.83404
729.9589, 16.09527
730.4410, 17.88969
730.9232, 18.84836
731.4053, 18.61671
731.8874, 17.62985
732.3695, 15.67982
732.8516, 13.68437
733.3337, 16.24064
733.8159, 23.93953
734.2980, 26.97718
734.7801, 21.37753
735.2622, 14.12833
735.7443, 11.29979
736.2264, 12.70605
736.7086, 15.94906
737.1907, 24.44965
737.6728, 29.91642
738.1549, 30.59466
738.6370, 28.79594
739.1191, 23.91342
739.6013, 18.08267
740.0834, 16.65003
740.5655, 23.09556
741.0476, 29.44202
741.5297, 27.13071
742.0118, 21.16849
742.4940, 20.39861
742.9761, 24.81960
743.4582, 29.72105
743.9403, 32.80401
744.4224, 34.56266
744.9045, 36.44763
745.3867, 38.87909
745.8688, 35.33238
746.3509, 20.61493
746.8330, 13.05904
747.3151, 26.76519
747.7972, 46.38380
748.2794, 49.02957
748.7615, 33.48085
749.2436, 21.81424
749.7257, 17.20287
750.2078, 16.01282
750.6899, 21.21259
751.1721, 26.35621
751.6542, 20.84845
752.1363, 6.226557
752.6184, -2.345537
753.1005, 7.121902
753.5826, 24.14082
754.0648, 37.24295
754.5469, 45.68188
755.0290, 45.43775
755.5111, 36.04241
755.9932, 24.38489
756.4753, 14.72859
756.9574, 7.532203
757.4395, 4.265456
757.9216, 5.320556
758.4037, 9.377451
758.8859, 20.82341
759.3680, 29.03676
759.8501, 25.50403
760.3322, 16.33695
760.8143, 10.53270
761.2964, 8.827844
761.7786, 9.556501
762.2607, 14.34896
762.7428, 19.37494
763.2249, 21.66291
763.7070, 22.85731
764.1891, 27.42106
764.6713, 35.50830
765.1534, 39.33899
765.6355, 28.42526
766.1176, 11.84849
766.5997, 8.139759
767.0818, 15.03661
767.5640, 20.45300
768.0461, 21.42252
768.5282, 21.27586
769.0103, 23.01867
769.4924, 26.04483
769.9745, 27.20910
770.4567, 25.55269
770.9388, 24.67077
771.4209, 26.17371
771.9030, 27.01311
772.3851, 23.72779
772.8672, 18.89286
773.3494, 18.09286
773.8315, 23.44494
774.3136, 28.02769
774.7957, 29.72972
775.2778, 30.27869
775.7599, 31.03982
776.2421, 31.45329
776.7242, 29.32481
777.2063, 24.42790
777.6884, 21.54657
778.1705, 28.77471
778.6526, 38.98008
779.1348, 35.63206
779.6169, 21.97236
780.0990, 15.07207
780.5811, 19.63092
781.0632, 26.65734
781.5453, 27.69221
782.0275, 23.90100
782.5096, 21.49777
782.9917, 20.83616
783.4738, 20.44291
783.9559, 19.89560
784.4380, 19.90874
784.9202, 21.17500
785.4023, 23.32320
785.8844, 25.48203
786.3665, 27.55818
786.8486, 29.78986
787.3307, 33.97221
787.8129, 36.54758
788.2950, 34.08502
788.7771, 29.07581
789.2592, 25.29154
789.7413, 23.75496
790.2234, 23.48562
790.7056, 23.74357
791.1877, 24.87855
791.6698, 29.08139
792.1519, 34.50031
792.6340, 34.47825
793.1161, 27.84882
793.5983, 21.87768
794.0804, 23.25449
794.5625, 29.26527
795.0446, 30.12234
795.5267, 24.83199
796.0089, 22.12090
796.4910, 23.55177
796.9731, 26.81332
797.4552, 32.10714
797.9373, 37.39656
798.4194, 36.89473
798.9016, 26.72626
799.3837, 19.84518
799.8658, 15.96665
800.3479, 15.75574
800.8300, 23.37375
801.3121, 32.65444
801.7943, 36.12437
802.2764, 32.83353
802.7585, 27.42961
803.2406, 19.39518
803.7227, 12.88283
804.2048, 11.57042
804.6870, 13.79605
805.1691, 18.23182
805.6512, 23.74835
806.1333, 26.96539
806.6154, 25.12346
807.0975, 21.81346
807.5797, 25.09074
808.0618, 33.30439
808.5439, 34.47501
809.0260, 27.09868
809.5081, 20.04050
809.9902, 17.81487
810.4724, 18.69751
810.9545, 20.02685
811.4366, 22.11500
811.9187, 22.32206
812.4008, 18.73682
812.8829, 16.60858
813.3651, 19.20665
813.8472, 22.52135
814.3293, 22.98937
814.8114, 20.80350
815.2935, 17.88572
815.7756, 12.33201
816.2578, 8.975868
816.7399, 10.80713
817.2220, 14.11503
817.7041, 15.10463
818.1862, 14.97478
818.6683, 18.74458
819.1505, 29.21643
819.6326, 36.04653
820.1147, 24.65635
820.5968, 7.776679
821.0789, 6.211519
821.5610, 16.59677
822.0432, 24.06724
822.5253, 23.85389
823.0074, 22.70089
823.4895, 29.09752
823.9716, 39.30419
824.4537, 35.68381
824.9359, 17.15658
825.4180, 8.360986
825.9001, 16.59420
826.3822, 24.90950
826.8643, 19.03111
827.3464, 4.817581
827.8286, 2.934413
828.3107, 23.33879
828.7928, 33.61275
829.2749, 24.30129
829.7570, 16.20819
830.2391, 19.45720
830.7213, 26.95512
831.2034, 29.76730
831.6855, 27.08396
832.1676, 24.31516
832.6497, 23.38511
833.1318, 21.92246
833.6140, 18.39661
834.0961, 14.09307
834.5782, 10.15100
835.0603, 6.781353
835.5424, 3.168107
836.0245, -2.366669
836.5067, -3.986918
836.9888, 10.57451
837.4709, 29.67879
837.9530, 29.29363
838.4351, 13.01026
838.9172, 3.245013
839.3994, 9.044070
839.8815, 19.99488
840.3636, 23.48293
840.8457, 20.97382
841.3278, 19.97175
841.8099, 20.54720
842.2921, 20.29468
842.7742, 18.31530
843.2563, 16.93841
843.7384, 18.70292
844.2205, 22.31450
844.7026, 21.78945
845.1848, 13.80869
845.6669, -1.569262
846.1490, 13.04337
846.6310, 21.39337
847.1132, 23.81750
847.5953, 2.566357
848.0774, 11.88680
848.5595, 8.955551
849.0416, 5.521920
849.5237, 19.14513
850.0059, 1.337607
850.4880, 14.69032
850.9701, 15.60443
851.4522, 22.21140
851.9343, 16.49101
852.4164, 14.57811
852.8986, 5.147906
853.3807, 1.120419
853.8628, 9.207164
854.3449, 20.84991
854.8270, 27.75496
855.3091, 28.72102
855.7913, 20.78115
856.2734, 3.629990
856.7555, -10.91741
857.2376, -9.114929
857.7197, 3.239530
858.2018, 14.09199
858.6840, 23.14037
859.1661, 28.35536
859.6482, 29.29523
860.1303, 28.43954
860.6124, 27.59898
861.0945, 26.44284
861.5767, 24.13753
862.0588, 20.67724
862.5409, 15.20475
863.0230, 5.707873
863.5051, 1.120700
863.9872, 7.346855
864.4694, 17.61293
864.9515, 22.56191
865.4336, 21.83749
865.9157, 20.73874
866.3978, 19.49310
866.8799, 17.51386
867.3621, 9.381919
867.8442, 5.482766
868.3263, 18.01234
868.8084, 39.68136
869.2905, 50.61765
869.7726, 45.38989
870.2548, 37.16094
870.7369, 22.83481
871.2190, 13.36462
871.7011, 21.73438
872.1832, 35.80642
872.6653, 36.25942
873.1475, 21.73031
873.6296, 10.22521
874.1117, 13.41707
874.5938, 21.40764
875.0759, 29.12833
875.5580, 34.59429
876.0402, 34.06906
876.5223, 28.37800
877.0044, 21.16177
877.4865, 14.05232
877.9686, 8.477702
878.4507, 6.155441
878.9329, 6.623448
879.4150, 9.966928
879.8971, 15.37801
880.3792, 18.71441
880.8613, 18.83504
881.3434, 16.65281
881.8256, 12.51460
882.3077, 7.599605
882.7898, 5.138401
883.2719, 5.108126
883.7540, 8.896521
884.2361, 17.78528
884.7183, 24.44772
885.2004, 24.72370
885.6825, 21.94850
886.1646, 21.83253
886.6467, 24.88330
887.1288, 23.01724
887.6110, 10.27331
888.0931, 5.377940
888.5752, 18.04184
889.0573, 33.09749
889.5394, 40.32580
890.0215, 40.37884
890.5037, 35.36890
890.9858, 18.60284
891.4679, 11.06218
891.9500, 23.67493
892.4321, 34.84316
892.9142, 33.56017
893.3964, 26.97946
893.8785, 23.03842
894.3606, 22.71613
894.8427, 25.27577
895.3248, 34.84782
895.8069, 41.72236
896.2891, 40.74994
896.7712, 35.90639
897.2533, 28.28151
897.7354, 20.40118
898.2175, 17.51221
898.6996, 21.49518
899.1818, 25.76033
899.6639, 24.70862
900.1460, 22.41549
900.6281, 23.59199
901.1102, 26.65114
901.5923, 28.85024
902.0745, 29.48153
902.5566, 28.01138
903.0387, 23.44482
903.5208, 19.42796
904.0029, 23.36451
904.4850, 31.16506
904.9672, 30.80580
905.4493, 23.27609
905.9314, 19.03234
906.4135, 21.80168
906.8956, 26.15315
907.3777, 25.80167
907.8599, 23.03160
908.3420, 27.76359
908.8241, 39.46733
909.3062, 41.71935
909.7883, 30.93028
910.2704, 27.21244
910.7526, 44.45818
911.2347, 68.35538
911.7168, 70.77161
912.1989, 49.96979
912.6810, 42.04326
913.1631, 50.23606
913.6453, 60.03893
914.1274, 69.73570
914.6095, 75.74017
915.0916, 73.90479
915.5737, 66.12415
916.0558, 59.93073
916.5380, 53.57529
917.0201, 53.07458
917.5022, 64.20039
917.9843, 72.80928
918.4664, 69.68721
918.9485, 64.04641
919.4307, 68.81604
919.9128, 83.55656
920.3949, 91.19170
920.8770, 87.00521
921.3591, 81.48013
921.8412, 72.90988
922.3234, 66.60034
922.8055, 68.48521
923.2876, 73.79072
923.7697, 73.65612
924.2518, 66.35977
924.7339, 59.16883
925.2161, 54.68876
925.6982, 49.98177
926.1803, 43.29051
926.6624, 36.05492
927.1445, 27.63761
927.6266, 20.08026
928.1088, 19.50823
928.5909, 29.75971
929.0730, 39.03584
929.5551, 39.41631
930.0372, 37.37093
930.5193, 37.38258
931.0015, 39.18763
931.4836, 43.37897
931.9657, 48.87645
932.4478, 50.70985
932.9299, 45.27303
933.4120, 37.06658
933.8942, 26.65183
934.3763, 18.28885
934.8584, 20.85596
935.3405, 30.56861
935.8226, 35.74601
936.3047, 33.05046
936.7868, 29.51030
937.2689, 32.68055
937.7510, 36.82065
938.2332, 30.76462
938.7153, 18.98997
939.1974, 12.56801
939.6795, 12.22987
940.1616, 12.49888
940.6437, 10.71839
941.1259, 10.77557
941.6080, 20.70571
942.0901, 35.48151
942.5722, 37.37420
943.0543, 28.80990
943.5364, 24.65633
944.0186, 27.72320
944.5007, 30.41968
944.9828, 27.64419
945.4649, 21.65741
945.9470, 15.51066
946.4291, 9.574772
946.9113, 8.435681
947.3934, 12.19612
947.8755, 18.14602
948.3576, 25.93391
948.8397, 31.30751
949.3218, 29.75972
949.8040, 24.28889
950.2861, 25.16522
950.7682, 33.19173
951.2503, 37.95046
951.7324, 38.64202
952.2145, 37.72459
952.6967, 36.63144
953.1788, 32.33636
953.6609, 19.11632
954.1430, -0.2843502
954.6251, -2.241666
955.1072, 19.97157
955.5894, 31.27348
956.0715, 24.04705
956.5536, 15.96355
957.0357, 14.93571
957.5178, 19.52052
957.9999, 29.82616
958.4821, 46.52078
958.9642, 47.06167
959.4463, 20.47913
959.9284, 3.869440
960.4105, 7.076149
960.8926, 14.89828
961.3748, 21.59935
961.8569, 24.26066
962.3390, 14.38128
962.8211, -14.17229
963.3032, -24.25391
963.7853, -2.438930
964.2675, 16.55320
964.7496, 27.07701
965.2317, 31.35253
965.7138, 27.74835
966.1959, 19.46442
966.6780, 16.32326
967.1602, 21.33766
967.6423, 23.16507
968.1244, 17.67748
968.6065, 14.15094
969.0886, 18.45617
969.5707, 22.97722
970.0529, 19.92923
970.5350, 11.23752
971.0171, 5.260939
971.4992, 1.226601
971.9813, 2.892494
972.4634, 22.17308
972.9456, 33.36373
973.4277, 14.71235
973.9098, -9.102258
974.3919, -7.776283
974.8740, 15.38987
975.3561, 27.86998
975.8383, 14.86438
976.3204, 7.980717
976.8025, 20.75074
977.2846, 32.43532
977.7667, 30.31113
978.2488, 21.73759
978.7310, 15.30510
979.2131, 12.09274
979.6952, 12.53796
980.1773, 23.57257
980.6594, 28.46684
981.1415, 15.42144
981.6237, 2.489838
982.1058, 1.968223
982.5879, 9.008017
983.0700, 3.678426
983.5521, 18.73069
984.0342, 27.52030
984.5164, 30.38417
984.9985, 9.572600
985.4806, 19.33267
985.9627, 16.84105
986.4448, 13.84705
986.9269, 27.90983
987.4091, 10.54204
987.8912, 24.33433
988.3733, 25.68806
988.8554, 32.73465
989.3375, 27.45389
989.8196, 25.98056
990.3018, 36.83881
990.7839, 28.61303
991.2660, 22.24497
991.7481, 15.55434
992.2302, 10.24090
992.7123, 9.284550
993.1945, 19.82441
993.6766, 27.73599
994.1587, 21.79629
994.6408, 13.11765
995.1229, 12.35302
995.6050, 17.88383
996.0872, 24.69921
996.5693, 31.97394
997.0514, 34.69706
997.5335, 26.15541
998.0156, 17.84469
998.4977, 15.65229
998.9799, 17.37501
999.4620, 23.55358
999.9441, 31.01596
1000.426, 32.13046
1000.908, 24.04455
1001.390, 16.00352
1001.873, 10.78423
1002.355, 8.600880
1002.837, 11.56395
1003.319, 16.12992
1003.801, 18.01292
1004.283, 18.15160
1004.765, 20.71219
1005.247, 27.40096
1005.729, 33.30204
1006.212, 38.38051
1006.694, 39.46323
1007.176, 32.95540
1007.658, 22.67681
1008.140, 9.740171
1008.622, -2.860258
1009.104, -8.100287
1009.586, -3.430109
1010.069, 5.948724
1010.551, 24.68019
1011.033, 39.42612
1011.515, 40.73402
1011.997, 34.79414
1012.479, 24.37294
1012.961, 13.41333
1013.443, 12.61226
1013.925, 28.45346
1014.408, 37.87254
1014.890, 21.57651
1015.372, 7.470644
1015.854, 17.08937
1016.336, 33.34132
1016.818, 37.44166
1017.300, 30.76012
1017.782, 24.17501
1018.265, 20.59998
1018.747, 17.09662
1019.229, 9.367085
1019.711, 5.262971
1020.193, 11.69506
1020.675, 21.78903
1021.157, 29.84418
1021.639, 34.93786
1022.121, 37.00035
1022.604, 36.18970
1023.086, 31.55930
1023.568, 16.43124
1024.050, 5.226759
1024.532, 4.947298
1025.014, 11.59847
1025.496, 26.35770
1025.978, 44.00205
1026.460, 49.77925
1026.943, 37.81450
1027.425, 26.09999
1027.907, 15.54786
1028.389, 10.19640
1028.871, 16.18443
1029.353, 24.25932
1029.835, 25.63529
1030.317, 22.13763
1030.800, 21.15580
1031.282, 25.62851
1031.764, 25.17585
1032.246, 11.10714
1032.728, 1.137343
1033.210, 2.591858
1033.692, 8.966769
1034.174, 16.21513
1034.656, 23.86305
1035.139, 32.41114
1035.621, 44.63842
1036.103, 47.28423
1036.585, 25.98145
1037.067, 13.18242
1037.549, 24.62390
1038.031, 39.51360
1038.513, 45.27254
1038.995, 42.60617
1039.478, 31.38976
1039.960, 6.267171
1040.442, -4.484828
1040.924, 10.28041
1041.406, 21.69561
1041.888, 22.02069
1042.370, 20.79040
1042.852, 24.35954
1043.335, 30.49735
1043.817, 35.06373
1044.299, 38.44593
1044.781, 37.01981
1045.263, 28.22465
1045.745, 20.20919
1046.227, 13.97991
1046.709, 9.341059
1047.192, 6.144217
1047.674, 4.521116
1048.156, 4.980712
1048.638, 7.601916
1049.120, 9.145023
1049.602, 8.325581
1050.084, 12.36699
1050.566, 25.99000
1051.048, 31.96825
1051.531, 17.70718
1052.013, -1.264779
1052.495, -1.215074
1052.977, 15.91186
1053.459, 27.93586
1053.941, 34.45130
1054.423, 39.03318
1054.905, 42.15398
1055.387, 42.68378
1055.870, 39.92451
1056.352, 35.01377
1056.834, 28.94499
1057.316, 22.33130
1057.798, 17.40694
1058.280, 14.24396
1058.762, 15.40423
1059.244, 21.01587
1059.727, 24.67448
1060.209, 23.95255
1060.691, 19.17014
1061.173, 9.128792
1061.655, -1.419354
1062.137, 0.6293200
1062.619, 12.29841
1063.101, 21.57596
1063.583, 27.26966
1064.066, 26.69500
1064.548, 19.72173
1065.030, 14.87596
1065.512, 19.61066
1065.994, 27.27949
1066.476, 27.81350
1066.958, 23.41693
1067.440, 17.48491
1067.922, 11.21164
1068.405, 5.999274
1068.887, 2.966296
1069.369, 6.638841
1069.851, 20.95636
1070.333, 36.05077
1070.815, 41.96920
1071.297, 42.37822
1071.779, 39.92324
1072.261, 36.46905
1072.744, 35.55935
1073.226, 36.71969
1073.708, 36.29255
1074.190, 32.76594
1074.672, 27.05747
1075.154, 13.14449
1075.636, 4.552238
1076.118, 20.97152
1076.601, 42.07696
1077.083, 40.00806
1077.565, 21.66056
1078.047, 12.46485
1078.529, 19.65512
1079.011, 24.97175
1079.493, 15.64740
1079.975, 9.885647
1080.458, 21.77171
1080.940, 34.51566
1081.422, 32.51318
1081.904, 22.59099
1082.386, 17.84437
1082.868, 19.89115
1083.350, 24.13921
1083.832, 38.59579
1084.314, 42.15338
1084.797, 17.64690
1085.279, -2.822390
1085.761, 0.8656734
1086.243, 14.68720
1086.725, 21.56626
1087.207, 22.05565
1087.689, 22.80466
1088.171, 26.94148
1088.653, 23.40650
1089.136, 3.972448
1089.618, -6.140806
1090.100, 6.045382
1090.582, 23.18790
1091.064, 29.65371
1091.546, 27.57511
1092.028, 22.79437
1092.510, 13.96723
1092.993, 12.61900
1093.475, 20.22556
1093.957, 25.18687
1094.439, 24.34035
1094.921, 22.74280
1095.403, 24.32853
1095.885, 25.43276
1096.367, 17.45861
1096.849, 2.907957
1097.332, -3.140023
1097.814, -1.123612
1098.296, 7.855203
1098.778, 22.26853
1099.260, 29.47480
1099.742, 23.35992
1100.224, 14.02128
1100.706, 12.36596
1101.188, 15.29857
1101.671, 18.40776
1102.153, 21.12985
1102.635, 22.67871
1103.117, 22.66525
1103.599, 19.68513
1104.081, 13.71483
1104.563, 7.792023
1105.045, 2.572006
1105.528, 1.226471
1106.010, 11.72132
1106.492, 22.93850
1106.974, 20.71512
1107.456, 11.89811
1107.938, 8.172276
1108.420, 10.72514
1108.902, 14.92685
1109.385, 20.37137
1109.867, 23.28282
1110.349, 19.94792
1110.831, 16.35153
1111.313, 13.93799
1111.795, 14.09702
1112.277, 20.40724
1112.759, 29.82244
1113.241, 34.25842
1113.724, 32.42880
1114.206, 28.63559
1114.688, 19.17123
1115.170, 13.91090
1115.652, 17.42503
1116.134, 20.87462
1116.616, 19.09766
1117.098, 14.94413
1117.580, 11.78206
1118.063, 9.867672
1118.545, 14.20608
1119.027, 28.14312
1119.509, 30.81137
1119.991, 18.18198
1120.473, 7.660469
1120.955, 5.690013
1121.437, 7.632370
1121.920, 9.482810
1122.402, 11.41019
1122.884, 15.11534
1123.366, 19.55204
1123.848, 15.50314
1124.330, 4.713363
1124.812, 0.6858872
1125.294, 5.641042
1125.776, 12.13491
1126.259, 16.02111
1126.741, 18.43064
1127.223, 24.06260
1127.705, 26.31410
1128.187, 7.013152
1128.669, -18.51013
1129.151, -20.12710
1129.633, -3.502540
1130.115, 6.922741
1130.598, 4.233106
1131.080, -7.0882186E-02
1131.562, 0.9845073
1132.044, 1.523729
1132.526, -5.933190
1133.008, -11.07704
1133.490, -8.4326163E-02
1133.972, 14.61971
1134.455, 11.25640
1134.937, -6.737527
1135.419, -9.525956
1135.901, 18.67315
1136.383, 35.10323
1136.865, 32.05891
1137.347, 19.90009
1137.829, -12.50196
1138.312, -35.51037
1138.794, -21.60115
1139.276, 10.21646
1139.758, 20.82301
1140.240, 9.412642
1140.722, 0.2445241
1141.204, -7.865671
1141.686, -5.084148
1142.168, 12.40140
1142.651, 23.61609
1143.133, 18.77341
1143.615, 9.121575
1144.097, 6.104369
1144.579, 7.997066
1145.061, 10.31196
1145.543, 13.56501
1146.025, 23.14569
1146.507, 35.99850
1146.990, 36.70556
1147.472, 23.45131
1147.954, 7.518066
1148.436, -5.378408
1148.918, -11.90700
1149.400, -5.388588
1149.882, 5.826674
1150.364, 15.29443
1150.847, 21.90040
1151.329, 23.40734
1151.811, 21.43865
1152.293, 19.31834
1152.775, 17.90443
1153.257, 18.27595
1153.739, 28.59840
1154.221, 29.32698
1154.703, -0.3744907
1155.186, -23.70711
1155.668, -15.04901
1156.150, 6.650920
1156.632, 25.18317
1157.114, 37.58365
1157.596, 30.82374
1158.078, -5.387519
1158.560, -20.46925
1159.042, -6.725001
1159.525, 4.780014
1160.007, 7.861729
1160.489, 6.330132
1160.971, 0.9872614
1161.453, -1.837440
1161.935, 9.453354
1162.417, 28.98570
1162.899, 29.44854
1163.381, 14.80550
1163.864, 7.289042
1164.346, 8.342117
1164.828, 15.55985
1165.310, 26.96534
1165.792, 33.17762
1166.274, 26.64569
1166.756, 17.85275
1167.238, 17.25482
1167.721, 21.47731
1168.203, 32.88524
1168.685, 42.31123
1169.167, 31.31952
1169.649, 7.725972
1170.131, -1.746207
1170.613, 10.17158
1171.095, 19.44826
1171.578, 15.19328
1172.060, 11.49270
1172.542, 12.22091
1173.024, 14.73190
1173.506, 22.78719
1173.988, 27.42005
1174.470, 13.90091
1174.952, -11.07456
1175.434, -16.69959
1175.917, 2.082552
1176.399, 18.68405
1176.881, 34.40101
1177.363, 39.66472
1177.845, 31.31319
1178.327, 20.70539
1178.809, 14.06500
1179.291, 11.55077
1179.773, 15.18215
1180.256, 20.97597
1180.738, 15.26517
1181.220, 3.958558
1181.702, 5.429719
1182.184, 17.11602
1182.666, 26.54957
1183.148, 30.50370
1183.630, 32.47756
1184.113, 34.54047
1184.595, 34.32727
1185.077, 28.07621
1185.559, 21.32226
1186.041, 17.77886
1186.523, 16.06341
1187.005, 13.19630
1187.487, 11.38779
1187.969, 17.80267
1188.452, 33.99825
1188.934, 41.13821
1189.416, 34.00513
1189.898, 24.49419
1190.380, 10.36655
1190.862, -0.5302469
1191.344, -6.483898
1191.826, -5.147268
1192.308, 7.401367
1192.791, 24.83821
1193.273, 32.28794
1193.755, 30.57517
1194.237, 26.77030
1194.719, 21.47965
1195.201, 20.25458
1195.683, 23.06296
1196.165, 24.78375
1196.648, 23.27602
1197.130, 17.78716
1197.612, 5.023806
1198.094, -5.810651
1198.576, -5.516280
1199.058, 2.002162
1199.540, 21.15206
1200.022, 39.09704
1200.505, 33.17809
1200.987, 9.768635
1201.469, -3.835630
1201.951, -1.126569
1202.433, 5.592054
1202.915, 19.74347
1203.397, 28.94724
1203.879, 30.53795
1204.361, 27.57702
1204.844, 17.64169
1205.326, 10.49497
1205.808, 19.98928
1206.290, 37.48293
1206.772, 28.82362
1207.254, -5.485476
1207.736, -18.02190
1208.218, -9.657707
1208.700, 1.935353
1209.183, 12.66174
1209.665, 19.54951
1210.147, 21.25835
1210.629, 21.82374
1211.111, 27.06869
1211.593, 29.70751
1212.075, 13.51442
1212.557, -2.883539
1213.040, 9.045559
1213.522, 32.03745
1214.004, 35.90166
1214.486, 21.70342
1214.968, 10.52421
1215.450, 7.275123
1215.932, 5.639781
1216.414, 5.091341
1216.896, 5.342171
1217.379, 6.911710
1217.861, 8.177085
1218.343, 7.682165
1218.825, 7.891117
1219.307, 12.13748
1219.789, 18.73857
1220.271, 22.13517
1220.753, 22.37329
1221.235, 19.93867
1221.718, 15.04297
1222.200, 7.093994
1222.682, -2.610872
1223.164, -4.695469
1223.646, 4.769217
1224.128, 14.05457
1224.610, 13.14437
1225.092, 8.008945
1225.575, 0.2037208
1226.057, -5.419722
1226.539, -2.742859
1227.021, 4.041426
1227.503, 10.20061
1227.985, 14.70240
1228.467, 15.84251
1228.949, 11.93178
1229.432, 11.16545
1229.914, 15.92958
1230.396, 18.82019
1230.878, 17.55064
1231.360, 18.75032
1231.842, 26.45822
1232.324, 32.91096
1232.806, 29.77276
1233.288, 21.80365
1233.771, 20.16276
1234.253, 22.95299
1234.735, 23.95412
1235.217, 23.05624
1235.699, 18.73207
1236.181, 12.70414
1236.663, 13.05153
1237.145, 21.54396
1237.627, 24.35141
1238.110, 6.552417
1238.592, -5.889552
1239.074, 8.273063
1239.556, 22.18033
1240.038, 15.58958
1240.520, 5.018951
1241.002, 11.01821
1241.484, 24.22162
1241.967, 22.99551
1242.449, 7.050254
1242.931, 2.041560
1243.413, 9.973028
1243.895, 14.64421
1244.377, 14.68113
1244.859, 10.01718
1245.341, 0.8082434
1245.823, -3.244869
1246.306, 5.138650
1246.788, 16.25298
1247.270, 17.41917
1247.752, 14.36441
1248.234, 15.12230
1248.716, 16.27151
1249.198, 9.431174
1249.680, 0.8447987
1250.162, 7.640153
1250.645, 28.35151
1251.127, 34.03423
1251.609, 7.388598
1252.091, -5.457536
1252.573, 11.40551
1253.055, 20.81318
1253.537, 12.51054
1254.019, 3.223714
1254.501, 1.853907
1254.984, 3.839524
1255.466, 4.033371
1255.948, 2.608901
1256.430, -3.149978
1256.912, -9.486740
1257.394, 2.353383
1257.876, 24.83569
1258.358, 33.24239
1258.841, 26.60115
1259.323, 17.83193
1259.805, 11.71797
1260.287, 11.91792
1260.769, 28.33406
1261.251, 39.32495
1261.733, 31.08687
1262.215, 20.93474
1262.698, 16.81795
1263.180, 16.26997
1263.662, 16.77771
1264.144, 19.20474
1264.626, 27.03065
1265.108, 39.33788
1265.590, 34.87186
1266.072, 13.89069
1266.554, 7.645580
1267.036, 16.81791
1267.519, 18.89762
1268.001, 9.024920
1268.483, 3.282001
1268.965, 11.38598
1269.447, 20.18857
1269.929, 17.91630
1270.411, 11.18203
##END=



