##NAMES=Kovdorskite
##RRUFFID=R050505
##IDEAL CHEMISTRY=Mg_2_PO_4_(OH)&#183;3H_2_O
##LOCALITY=Kovdor Massif, Kola Peninsula, Russia
##OWNER=RRUFF
##SOURCE=Bob Downs
##DESCRIPTION=Colorless prismatic crystals, slightly pink in color when viewed in bulk. This sample was used in the structural study by Morrison et al (2012)
##STATUS=The identification of this mineral has been confirmed by X-ray diffraction and chemical analysis
##URL=rruff.info/R050505
##MEASURED CHEMISTRY=Mg_2.00_P_1.00_O_4_(OH)Â·2.67H_2_O ; trace amounts of Mn; H_2_O estimated by difference
90.92609, 0.0000000E+00
91.40820, 49.89289
91.89032, 52.44815
92.37244, 51.52637
92.85455, 47.57466
93.33667, 43.27079
93.81879, 40.16048
94.30090, 38.16758
94.78302, 37.06182
95.26514, 37.10985
95.74725, 37.77369
96.22937, 37.91858
96.71149, 37.52521
97.19360, 36.82038
97.67572, 35.90110
98.15784, 34.78755
98.63995, 33.73514
99.12207, 32.72095
99.60419, 31.79676
100.0863, 31.52626
100.5684, 32.20813
101.0505, 32.94431
101.5327, 32.31835
102.0148, 29.77728
102.4969, 27.74732
102.9790, 27.05988
103.4611, 27.91297
103.9432, 29.11539
104.4253, 30.90112
104.9075, 32.90399
105.3896, 34.31748
105.8717, 34.78836
106.3538, 35.16676
106.8359, 35.77570
107.3180, 36.67689
107.8002, 37.70780
108.2823, 39.21294
108.7644, 40.91311
109.2465, 41.83115
109.7286, 40.13805
110.2107, 38.96904
110.6929, 39.65247
111.1750, 44.55999
111.6571, 48.71596
112.1392, 51.06552
112.6213, 51.93944
113.1034, 53.94809
113.5856, 58.22253
114.0677, 63.42801
114.5498, 68.56829
115.0319, 72.81441
115.5140, 77.60651
115.9961, 83.22005
116.4783, 89.66930
116.9604, 97.05312
117.4425, 106.7515
117.9246, 117.0904
118.4067, 126.1386
118.8888, 131.9554
119.3710, 137.3228
119.8531, 144.2300
120.3352, 152.9951
120.8173, 161.0396
121.2994, 165.6802
121.7815, 168.4944
122.2637, 172.2437
122.7458, 179.5361
123.2279, 187.7266
123.7100, 193.9106
124.1921, 197.3736
124.6742, 200.5414
125.1564, 205.0297
125.6385, 210.9130
126.1206, 218.4631
126.6027, 227.5677
127.0848, 238.4263
127.5669, 251.6492
128.0491, 267.8500
128.5312, 285.3586
129.0133, 301.3443
129.4954, 315.9589
129.9775, 331.9386
130.4596, 350.9619
130.9418, 372.7689
131.4239, 397.2042
131.9060, 424.5877
132.3881, 454.3701
132.8702, 487.1461
133.3523, 523.6444
133.8345, 555.7836
134.3166, 579.0388
134.7987, 593.3857
135.2808, 592.7094
135.7629, 572.1023
136.2450, 535.5552
136.7272, 502.1472
137.2093, 471.0226
137.6914, 444.9674
138.1735, 427.6190
138.6556, 420.1459
139.1377, 415.9674
139.6199, 413.5007
140.1020, 412.7668
140.5841, 415.0430
141.0662, 420.6666
141.5483, 428.7964
142.0304, 438.6183
142.5126, 450.4591
142.9947, 462.9346
143.4768, 474.4046
143.9589, 484.2243
144.4410, 491.8788
144.9231, 495.8223
145.4053, 498.7274
145.8874, 504.9144
146.3695, 515.9754
146.8516, 527.9283
147.3337, 539.4471
147.8158, 550.7333
148.2980, 561.6014
148.7801, 571.2275
149.2622, 580.6329
149.7443, 591.5970
150.2264, 604.0585
150.7085, 618.2813
151.1907, 634.2820
151.6728, 653.7734
152.1549, 672.6119
152.6370, 687.8815
153.1191, 702.3184
153.6012, 722.3884
154.0834, 752.7040
154.5655, 785.3362
155.0476, 817.4179
155.5297, 847.7227
156.0118, 877.8253
156.4939, 909.4679
156.9761, 941.6136
157.4582, 969.6635
157.9403, 997.0831
158.4224, 1017.452
158.9045, 1027.182
159.3866, 1026.264
159.8688, 1014.092
160.3509, 988.5718
160.8330, 951.0214
161.3151, 907.2130
161.7972, 854.1707
162.2793, 798.3521
162.7615, 744.6367
163.2436, 691.2454
163.7257, 643.1041
164.2078, 602.0676
164.6899, 567.7938
165.1720, 538.2614
165.6541, 513.8345
166.1363, 493.0617
166.6184, 474.5134
167.1005, 457.4756
167.5826, 442.6660
168.0647, 430.6143
168.5468, 421.2231
169.0290, 413.4266
169.5111, 407.5220
169.9932, 402.5834
170.4753, 397.3672
170.9574, 390.9272
171.4395, 384.3843
171.9217, 378.3140
172.4038, 372.7253
172.8859, 368.2671
173.3680, 366.1274
173.8501, 365.4155
174.3322, 364.5167
174.8144, 362.4561
175.2965, 359.9864
175.7786, 358.0659
176.2607, 356.6976
176.7428, 355.5601
177.2249, 354.0980
177.7071, 352.6151
178.1892, 351.8266
178.6713, 352.4946
179.1534, 353.9322
179.6355, 354.7707
180.1176, 354.8574
180.5998, 355.3786
181.0819, 358.5572
181.5640, 363.5072
182.0461, 367.1786
182.5282, 367.0473
183.0103, 364.6815
183.4925, 363.5712
183.9746, 363.8968
184.4567, 365.1952
184.9388, 367.4642
185.4209, 370.5023
185.9030, 372.9398
186.3852, 373.8339
186.8673, 373.5753
187.3494, 373.3937
187.8315, 373.2426
188.3136, 373.5296
188.7957, 374.6905
189.2779, 376.7227
189.7600, 379.7767
190.2421, 384.8134
190.7242, 391.2607
191.2063, 395.5991
191.6884, 397.1559
192.1706, 397.8191
192.6527, 400.6898
193.1348, 405.7840
193.6169, 411.2558
194.0990, 416.0101
194.5811, 420.1287
195.0633, 425.2574
195.5454, 431.4908
196.0275, 438.6797
196.5096, 446.6854
196.9917, 455.6562
197.4738, 464.1936
197.9560, 471.4260
198.4381, 477.3288
198.9202, 483.4942
199.4023, 490.2989
199.8844, 496.9308
200.3665, 502.0799
200.8487, 505.9711
201.3308, 507.4037
201.8129, 505.4300
202.2950, 499.8877
202.7771, 493.0177
203.2592, 484.3742
203.7414, 474.9221
204.2235, 466.3582
204.7056, 458.5870
205.1877, 452.3248
205.6698, 447.9871
206.1519, 445.6441
206.6341, 444.8133
207.1162, 445.7703
207.5983, 447.9594
208.0804, 449.9721
208.5625, 451.3868
209.0446, 453.8336
209.5268, 458.3161
210.0089, 465.2443
210.4910, 472.2367
210.9731, 479.1120
211.4552, 486.1428
211.9373, 493.8126
212.4195, 502.0302
212.9016, 511.0264
213.3837, 521.2221
213.8658, 533.3157
214.3479, 544.1768
214.8300, 553.6833
215.3121, 562.0463
215.7943, 569.7060
216.2764, 576.4063
216.7585, 582.7939
217.2406, 589.2907
217.7227, 596.0685
218.2048, 602.0355
218.6870, 606.6143
219.1691, 610.6348
219.6512, 616.5821
220.1333, 626.2249
220.6154, 634.5485
221.0975, 639.1571
221.5797, 638.3251
222.0618, 638.6126
222.5439, 639.9118
223.0260, 642.3887
223.5081, 646.3488
223.9902, 651.3196
224.4724, 658.6165
224.9545, 669.0498
225.4366, 684.2850
225.9187, 698.3660
226.4008, 711.4581
226.8829, 723.4558
227.3651, 734.6931
227.8472, 747.4494
228.3293, 755.8809
228.8114, 758.1320
229.2935, 754.7592
229.7757, 743.3339
230.2578, 722.1205
230.7399, 693.8338
231.2220, 662.5784
231.7041, 625.4984
232.1862, 590.3382
232.6684, 559.8152
233.1505, 534.5206
233.6326, 511.9596
234.1147, 492.2309
234.5968, 475.1346
235.0789, 460.8301
235.5611, 450.0711
236.0432, 440.9402
236.5253, 432.9351
237.0074, 426.5499
237.4895, 419.8311
237.9716, 412.0058
238.4538, 404.3218
238.9359, 398.9918
239.4180, 397.4005
239.9001, 395.8213
240.3822, 393.0016
240.8643, 388.5823
241.3465, 384.6412
241.8286, 380.7943
242.3107, 377.6907
242.7928, 376.3595
243.2749, 377.5435
243.7570, 379.2341
244.2392, 381.0981
244.7213, 383.3016
245.2034, 384.6188
245.6855, 384.6068
246.1676, 384.0939
246.6497, 384.0541
247.1319, 384.3966
247.6140, 385.4029
248.0961, 387.2880
248.5782, 390.1751
249.0603, 392.8376
249.5424, 394.8272
250.0246, 397.0468
250.5067, 400.5988
250.9888, 406.0529
251.4709, 411.7116
251.9530, 417.0874
252.4351, 422.1759
252.9173, 428.2574
253.3994, 436.1885
253.8815, 444.2238
254.3636, 450.8277
254.8457, 456.0782
255.3278, 459.5953
255.8100, 461.5471
256.2921, 461.8836
256.7742, 459.0250
257.2563, 452.1034
257.7384, 443.1725
258.2205, 433.7539
258.7026, 423.1276
259.1848, 413.6406
259.6669, 405.6837
260.1490, 399.1793
260.6311, 394.1245
261.1132, 390.8778
261.5953, 388.5134
262.0775, 386.3471
262.5596, 384.1304
263.0417, 382.8462
263.5238, 382.8524
264.0059, 383.8723
264.4880, 384.6805
264.9702, 385.4456
265.4523, 385.6385
265.9344, 384.4806
266.4165, 381.0584
266.8986, 379.6837
267.3807, 381.2127
267.8629, 384.8226
268.3450, 387.8596
268.8271, 390.1974
269.3092, 392.3648
269.7913, 394.8792
270.2734, 398.0002
270.7556, 400.0882
271.2377, 400.8553
271.7198, 400.7643
272.2019, 400.6209
272.6840, 400.1344
273.1661, 400.6200
273.6483, 403.2747
274.1304, 408.5547
274.6125, 412.0725
275.0946, 413.3495
275.5767, 413.3602
276.0588, 413.6147
276.5410, 414.0418
277.0231, 415.0291
277.5052, 417.1192
277.9873, 420.3496
278.4694, 422.0978
278.9515, 421.9726
279.4337, 421.1631
279.9158, 421.2184
280.3979, 422.1565
280.8800, 423.7539
281.3621, 426.4657
281.8442, 430.0256
282.3264, 431.3131
282.8085, 429.7999
283.2906, 427.8646
283.7727, 428.4306
284.2548, 431.5265
284.7369, 434.7863
285.2191, 437.6886
285.7012, 440.2064
286.1833, 442.1143
286.6654, 443.3038
287.1475, 444.6293
287.6296, 447.1924
288.1118, 450.8434
288.5939, 453.8950
289.0760, 455.7440
289.5581, 456.8996
290.0402, 458.7269
290.5223, 461.2497
291.0045, 463.8657
291.4866, 465.8529
291.9687, 467.4548
292.4508, 469.8288
292.9329, 473.2155
293.4150, 477.4347
293.8972, 482.6230
294.3793, 488.7057
294.8614, 494.7918
295.3435, 499.7290
295.8256, 504.1549
296.3077, 509.7373
296.7899, 516.5983
297.2720, 524.7653
297.7541, 534.7581
298.2362, 546.1871
298.7183, 557.5333
299.2004, 567.7594
299.6826, 577.3157
300.1647, 587.5635
300.6468, 598.7285
301.1289, 609.3362
301.6110, 618.7396
302.0931, 626.5063
302.5753, 631.7789
303.0574, 634.2018
303.5395, 633.8160
304.0216, 630.4505
304.5037, 624.0660
304.9858, 615.3854
305.4680, 604.3155
305.9501, 591.4552
306.4322, 577.8344
306.9143, 561.9391
307.3964, 546.7493
307.8785, 534.8148
308.3607, 526.0616
308.8428, 519.1449
309.3249, 513.9475
309.8070, 509.8178
310.2891, 505.9962
310.7712, 502.0699
311.2534, 498.5736
311.7355, 495.6393
312.2176, 493.3405
312.6997, 492.0764
313.1818, 492.1891
313.6639, 493.3427
314.1461, 495.4042
314.6282, 498.6764
315.1103, 502.1022
315.5924, 505.3664
316.0745, 508.3906
316.5566, 511.0634
317.0388, 513.0055
317.5209, 514.7987
318.0030, 516.9241
318.4851, 519.6467
318.9672, 521.8475
319.4493, 522.9697
319.9315, 523.3979
320.4136, 523.6518
320.8957, 523.9987
321.3778, 524.0782
321.8599, 523.6296
322.3420, 522.5834
322.8242, 521.7180
323.3063, 520.9158
323.7884, 520.4954
324.2705, 520.7346
324.7526, 521.1918
325.2347, 522.8366
325.7169, 526.0995
326.1990, 530.8985
326.6811, 536.0522
327.1632, 541.2522
327.6453, 546.9379
328.1274, 553.3517
328.6096, 560.6992
329.0917, 568.5810
329.5738, 577.3931
330.0559, 586.7128
330.5380, 595.2808
331.0201, 602.1307
331.5023, 609.2866
331.9844, 617.7635
332.4665, 628.5048
332.9486, 637.9843
333.4307, 645.2491
333.9128, 651.7035
334.3950, 659.4707
334.8771, 668.5597
335.3592, 679.0970
335.8413, 691.3333
336.3234, 705.5358
336.8055, 719.1545
337.2877, 731.5566
337.7698, 744.0511
338.2519, 758.3172
338.7340, 774.5051
339.2161, 791.3634
339.6982, 808.2679
340.1803, 825.5768
340.6624, 844.8929
341.1446, 867.0820
341.6267, 889.1539
342.1088, 909.7068
342.5909, 928.5875
343.0730, 945.7294
343.5551, 961.4100
344.0373, 974.7911
344.5194, 983.7632
345.0015, 988.3976
345.4836, 988.6891
345.9657, 984.9788
346.4478, 977.0645
346.9300, 963.5433
347.4121, 943.8747
347.8942, 919.9105
348.3763, 892.2781
348.8584, 861.6329
349.3405, 831.1387
349.8227, 801.7017
350.3048, 773.5067
350.7869, 746.4554
351.2690, 720.6104
351.7511, 697.3484
352.2332, 679.2294
352.7154, 664.8655
353.1975, 651.2562
353.6796, 637.1407
354.1617, 623.6797
354.6438, 612.4101
355.1259, 603.0836
355.6081, 594.4506
356.0902, 584.8532
356.5723, 575.7463
357.0544, 568.9388
357.5365, 565.4703
358.0186, 562.8673
358.5008, 559.8585
358.9829, 556.4759
359.4650, 552.7939
359.9471, 547.4644
360.4292, 542.8498
360.9113, 540.5123
361.3935, 540.7675
361.8756, 542.3007
362.3577, 545.6535
362.8398, 549.6420
363.3219, 552.9201
363.8040, 554.3038
364.2862, 555.7354
364.7683, 557.6360
365.2504, 560.0583
365.7325, 563.2848
366.2146, 567.5173
366.6967, 572.4989
367.1789, 578.0703
367.6610, 584.4114
368.1431, 591.1171
368.6252, 598.1048
369.1073, 605.4886
369.5894, 613.4814
370.0716, 623.1058
370.5537, 632.3503
371.0358, 640.5484
371.5179, 647.4354
372.0000, 654.0621
372.4821, 660.1247
372.9643, 666.0622
373.4464, 672.7175
373.9285, 681.1956
374.4106, 687.9577
374.8927, 692.4370
375.3748, 694.6074
375.8570, 693.6661
376.3391, 688.9416
376.8212, 682.4791
377.3033, 676.0970
377.7854, 670.0901
378.2675, 662.0494
378.7497, 651.1886
379.2318, 638.4852
379.7139, 626.0234
380.1960, 613.9551
380.6781, 601.6454
381.1602, 587.9901
381.6424, 573.5296
382.1245, 562.3009
382.6066, 554.9313
383.0887, 548.5400
383.5708, 538.6849
384.0529, 526.2460
384.5351, 514.9993
385.0172, 506.9697
385.4993, 501.0013
385.9814, 494.8858
386.4635, 488.6961
386.9456, 482.8925
387.4278, 477.8356
387.9099, 473.4948
388.3920, 469.8277
388.8741, 467.0723
389.3562, 464.5997
389.8383, 461.6583
390.3205, 458.4764
390.8026, 455.7857
391.2847, 454.2381
391.7668, 453.1562
392.2489, 451.9898
392.7310, 450.6297
393.2132, 449.4552
393.6953, 448.6428
394.1774, 448.1356
394.6595, 447.8632
395.1416, 448.1575
395.6237, 448.3544
396.1059, 448.1778
396.5880, 447.6461
397.0701, 447.1147
397.5522, 446.4206
398.0343, 445.9170
398.5164, 445.8035
398.9986, 445.4161
399.4807, 446.3286
399.9628, 449.4359
400.4449, 453.8083
400.9270, 457.3059
401.4091, 459.3529
401.8913, 461.2180
402.3734, 463.1887
402.8555, 465.1820
403.3376, 467.7882
403.8197, 471.1899
404.3018, 474.9865
404.7840, 478.8734
405.2661, 483.0466
405.7482, 486.6054
406.2303, 489.2416
406.7124, 491.1692
407.1945, 493.3096
407.6767, 495.6159
408.1588, 498.3332
408.6409, 502.1940
409.1230, 507.0102
409.6051, 510.2749
410.0872, 511.7790
410.5694, 511.8087
411.0515, 510.2500
411.5336, 507.3389
412.0157, 504.5639
412.4978, 503.0429
412.9799, 501.9738
413.4621, 499.4776
413.9442, 495.5710
414.4263, 491.6998
414.9084, 489.2269
415.3905, 487.5115
415.8727, 485.3969
416.3548, 482.2307
416.8369, 479.1736
417.3190, 477.2415
417.8011, 476.2017
418.2832, 475.4075
418.7654, 474.5997
419.2475, 473.8874
419.7296, 473.2194
420.2117, 472.4855
420.6938, 472.4112
421.1759, 473.3875
421.6581, 475.1120
422.1402, 477.2846
422.6223, 480.8384
423.1044, 483.7517
423.5865, 485.0940
424.0686, 485.0983
424.5508, 485.6686
425.0329, 486.5496
425.5150, 488.3889
425.9971, 491.6121
426.4792, 497.2596
426.9613, 502.1100
427.4435, 505.7467
427.9256, 508.7941
428.4077, 512.1332
428.8898, 515.6309
429.3719, 519.8593
429.8540, 525.2012
430.3362, 531.5388
430.8183, 537.4881
431.3004, 542.8753
431.7825, 548.2784
432.2646, 554.2355
432.7467, 560.7211
433.2289, 567.2042
433.7110, 573.5114
434.1931, 579.7382
434.6752, 585.7566
435.1573, 591.6360
435.6394, 598.1727
436.1216, 605.9401
436.6036, 614.6599
437.0858, 623.9172
437.5679, 633.7696
438.0500, 643.1227
438.5321, 650.5504
439.0142, 656.9095
439.4963, 663.6313
439.9785, 671.1290
440.4606, 679.1812
440.9427, 688.0858
441.4248, 697.4563
441.9069, 706.0214
442.3890, 712.4988
442.8712, 718.4642
443.3533, 724.8890
443.8354, 731.9329
444.3175, 739.2601
444.7996, 746.8367
445.2817, 754.5251
445.7639, 762.2445
446.2460, 770.3395
446.7281, 778.0808
447.2102, 785.1756
447.6923, 791.7048
448.1744, 798.0453
448.6566, 803.8693
449.1387, 809.8488
449.6208, 816.3672
450.1029, 823.8759
450.5850, 830.8152
451.0671, 837.6357
451.5493, 843.3386
452.0314, 846.2077
452.5135, 845.7347
452.9956, 844.5837
453.4777, 843.5624
453.9598, 842.4059
454.4420, 839.8463
454.9241, 835.8646
455.4062, 830.9058
455.8883, 825.3375
456.3704, 819.1147
456.8525, 812.0670
457.3347, 804.3251
457.8168, 795.7068
458.2989, 786.2155
458.7810, 775.7582
459.2631, 764.3757
459.7452, 751.0496
460.2274, 737.2340
460.7095, 724.4775
461.1916, 712.6109
461.6737, 701.7064
462.1558, 692.0370
462.6379, 683.0682
463.1201, 674.2020
463.6022, 664.8627
464.0843, 656.4689
464.5664, 650.6107
465.0485, 645.8480
465.5306, 639.8856
466.0128, 629.8150
466.4949, 620.8179
466.9770, 614.9843
467.4591, 612.4750
467.9412, 609.3573
468.4233, 604.9180
468.9055, 600.3583
469.3876, 596.2907
469.8697, 592.7393
470.3518, 589.7538
470.8339, 587.7635
471.3160, 586.0054
471.7982, 582.7943
472.2803, 577.6644
472.7624, 572.9549
473.2445, 569.5574
473.7266, 567.2672
474.2087, 565.0665
474.6909, 562.9729
475.1730, 560.8397
475.6551, 558.7704
476.1372, 556.6173
476.6193, 553.5629
477.1014, 549.2372
477.5836, 544.8414
478.0657, 541.9719
478.5478, 540.2651
479.0299, 538.7308
479.5120, 536.8912
479.9941, 534.9915
480.4763, 533.1705
480.9584, 531.4542
481.4405, 530.1126
481.9226, 530.3030
482.4047, 530.3509
482.8868, 528.6221
483.3690, 523.4297
483.8511, 519.3564
484.3332, 519.1392
484.8153, 520.5757
485.2974, 520.0652
485.7795, 514.8458
486.2617, 510.0370
486.7438, 506.9279
487.2259, 505.4757
487.7080, 503.5770
488.1901, 500.5461
488.6722, 497.9398
489.1544, 496.9344
489.6365, 498.2351
490.1186, 498.3589
490.6007, 496.9185
491.0828, 494.6860
491.5649, 492.8840
492.0471, 491.5599
492.5292, 489.8467
493.0113, 487.1204
493.4934, 484.0017
493.9755, 482.4369
494.4576, 482.3614
494.9398, 482.1602
495.4219, 480.3627
495.9040, 477.6808
496.3861, 475.3755
496.8682, 473.5251
497.3503, 472.2611
497.8325, 472.3395
498.3146, 472.9264
498.7967, 472.7295
499.2788, 470.6208
499.7609, 468.2048
500.2430, 466.0919
500.7252, 464.3079
501.2073, 462.8712
501.6894, 461.3710
502.1715, 460.5931
502.6536, 461.2071
503.1357, 464.2442
503.6179, 465.8493
504.1000, 465.0162
504.5821, 463.3245
505.0642, 462.2559
505.5463, 461.7643
506.0284, 462.0417
506.5106, 463.4147
506.9927, 465.4634
507.4748, 466.6084
507.9569, 466.5607
508.4390, 466.9742
508.9211, 469.1601
509.4033, 472.7827
509.8854, 474.8636
510.3675, 475.2645
510.8496, 475.2729
511.3317, 476.0342
511.8138, 477.4137
512.2960, 479.0368
512.7781, 480.8751
513.2602, 482.8747
513.7423, 484.8184
514.2244, 486.8773
514.7065, 489.4652
515.1887, 493.1532
515.6708, 497.1621
516.1529, 501.1323
516.6350, 505.0438
517.1171, 508.4876
517.5992, 510.3728
518.0814, 512.3373
518.5635, 515.4565
519.0456, 520.3478
519.5277, 525.6329
520.0098, 531.2578
520.4919, 537.1844
520.9741, 543.3847
521.4562, 549.9357
521.9383, 556.4479
522.4204, 562.6943
522.9025, 568.7970
523.3846, 575.6501
523.8668, 583.3353
524.3489, 591.2278
524.8310, 598.8926
525.3131, 606.4358
525.7952, 614.6983
526.2773, 623.9149
526.7595, 632.9494
527.2416, 639.8387
527.7237, 645.4107
528.2058, 652.0018
528.6879, 660.7510
529.1700, 670.0296
529.6522, 678.3588
530.1343, 685.8777
530.6164, 693.2441
531.0985, 700.9976
531.5806, 708.4603
532.0627, 715.6446
532.5449, 722.6278
533.0270, 727.3234
533.5091, 726.4734
533.9912, 724.7528
534.4733, 725.4937
534.9554, 732.3220
535.4376, 736.8976
535.9197, 738.8162
536.4018, 738.6479
536.8839, 737.1659
537.3660, 733.9750
537.8481, 730.4664
538.3303, 726.9562
538.8124, 723.4035
539.2945, 719.6441
539.7766, 715.7293
540.2587, 711.1855
540.7408, 705.3707
541.2230, 698.6005
541.7051, 692.4323
542.1872, 687.0918
542.6693, 681.4498
543.1514, 673.8951
543.6335, 665.2898
544.1157, 656.9195
544.5978, 648.6125
545.0799, 641.5023
545.5620, 637.6336
546.0441, 635.6990
546.5262, 632.4645
547.0084, 625.4964
547.4905, 618.1019
547.9726, 611.3265
548.4547, 605.2567
548.9368, 600.0985
549.4189, 596.9170
549.9011, 593.7664
550.3832, 589.3488
550.8653, 582.3033
551.3474, 577.3382
551.8295, 575.4384
552.3116, 574.5883
552.7938, 571.5377
553.2759, 565.9806
553.7580, 561.2596
554.2401, 558.5997
554.7222, 557.0512
555.2043, 553.9885
555.6865, 549.5898
556.1686, 545.5097
556.6507, 543.1653
557.1328, 541.6448
557.6149, 539.3471
558.0970, 536.1834
558.5792, 533.3936
559.0613, 532.3282
559.5434, 531.8843
560.0255, 530.9711
560.5076, 529.3195
560.9897, 527.2260
561.4719, 524.1241
561.9540, 520.7604
562.4361, 518.4187
562.9182, 518.7636
563.4003, 518.3813
563.8824, 516.1812
564.3646, 512.5458
564.8467, 510.1788
565.3288, 509.5186
565.8109, 509.1981
566.2930, 508.6324
566.7751, 507.8246
567.2573, 506.3472
567.7394, 504.0019
568.2215, 501.8218
568.7036, 501.2432
569.1857, 501.7940
569.6678, 501.5590
570.1500, 499.8579
570.6321, 497.9650
571.1142, 497.6735
571.5963, 498.3269
572.0784, 498.4443
572.5605, 497.1226
573.0427, 495.2907
573.5248, 493.2533
574.0069, 491.1122
574.4890, 489.2713
574.9711, 488.5558
575.4532, 487.6498
575.9354, 485.7874
576.4175, 482.5408
576.8996, 479.8449
577.3817, 478.6503
577.8638, 477.1085
578.3459, 473.1072
578.8281, 465.7457
579.3102, 459.8744
579.7923, 456.2564
580.2744, 454.0015
580.7565, 451.9088
581.2386, 449.9274
581.7208, 447.1388
582.2029, 442.3875
582.6850, 437.1444
583.1671, 434.3988
583.6492, 433.7514
584.1313, 432.8305
584.6134, 429.5271
585.0955, 425.6093
585.5776, 422.7734
586.0598, 421.2646
586.5419, 420.0126
587.0240, 418.9789
587.5061, 417.7588
587.9882, 415.9970
588.4703, 412.6187
588.9525, 410.1361
589.4346, 409.0729
589.9167, 408.7571
590.3988, 408.0628
590.8809, 406.7111
591.3630, 405.7402
591.8452, 405.5629
592.3273, 405.8754
592.8094, 405.2150
593.2915, 403.4755
593.7736, 402.3919
594.2557, 403.7558
594.7379, 406.4527
595.2200, 407.3868
595.7021, 406.4945
596.1842, 405.2001
596.6663, 404.5204
597.1484, 404.1428
597.6306, 403.6438
598.1127, 402.8430
598.5948, 402.2545
599.0769, 402.2940
599.5590, 402.6309
600.0411, 402.8490
600.5233, 403.1875
601.0054, 403.0103
601.4875, 401.8251
601.9696, 400.0661
602.4517, 399.0364
602.9338, 398.9020
603.4160, 399.1389
603.8981, 399.6908
604.3802, 400.5042
604.8623, 400.9349
605.3444, 400.9357
605.8265, 400.9534
606.3087, 401.4643
606.7908, 402.2499
607.2729, 402.7388
607.7550, 402.8824
608.2371, 402.6856
608.7192, 401.5737
609.2014, 400.3117
609.6835, 400.0272
610.1656, 401.6855
610.6477, 403.2912
611.1298, 403.9980
611.6119, 404.0666
612.0941, 403.9817
612.5762, 403.2622
613.0583, 403.0604
613.5404, 403.9229
614.0225, 405.5637
614.5046, 406.5460
614.9868, 406.8447
615.4689, 406.5116
615.9510, 405.3796
616.4331, 403.5008
616.9152, 401.5869
617.3973, 399.5153
617.8795, 398.4972
618.3616, 401.0944
618.8437, 405.4561
619.3258, 406.5654
619.8079, 403.1905
620.2900, 399.5108
620.7722, 399.6890
621.2543, 401.6630
621.7364, 402.5228
622.2185, 400.5708
622.7006, 398.3614
623.1827, 396.2454
623.6649, 394.4825
624.1470, 393.6959
624.6291, 395.3827
625.1112, 396.2399
625.5933, 395.1267
626.0754, 392.4193
626.5576, 391.0217
627.0397, 391.2246
627.5218, 391.7701
628.0039, 392.1701
628.4860, 392.3815
628.9681, 391.8015
629.4503, 390.3551
629.9324, 389.1129
630.4145, 389.3140
630.8966, 390.2878
631.3787, 390.9515
631.8608, 391.1648
632.3430, 390.8377
632.8251, 389.2113
633.3072, 387.2704
633.7893, 386.2021
634.2714, 387.1552
634.7535, 388.0565
635.2357, 388.3687
635.7178, 388.3627
636.1999, 388.6259
636.6820, 389.0591
637.1641, 389.9906
637.6462, 391.8283
638.1284, 394.2247
638.6105, 395.1980
639.0926, 394.6566
639.5747, 393.5736
640.0568, 392.3806
640.5389, 391.0913
641.0211, 389.6722
641.5032, 388.1382
641.9853, 386.8683
642.4674, 386.1339
642.9495, 385.8557
643.4316, 386.1085
643.9138, 387.1078
644.3959, 387.7798
644.8780, 387.6120
645.3601, 386.9176
645.8422, 386.0061
646.3243, 383.6350
646.8065, 382.8546
647.2886, 384.7349
647.7707, 387.7122
648.2528, 388.9492
648.7349, 388.0621
649.2170, 386.9349
649.6992, 385.8070
650.1813, 384.9259
650.6634, 385.1501
651.1455, 386.3742
651.6276, 387.5349
652.1097, 387.9903
652.5919, 388.0892
653.0740, 388.2429
653.5561, 388.4575
654.0382, 388.7285
654.5203, 389.0022
655.0024, 389.3603
655.4846, 389.9480
655.9667, 390.8907
656.4488, 391.4804
656.9309, 391.6378
657.4130, 391.3842
657.8951, 390.5469
658.3773, 388.5359
658.8594, 387.8349
659.3415, 388.9282
659.8236, 390.6061
660.3057, 391.0078
660.7878, 390.2953
661.2700, 390.4014
661.7521, 392.0396
662.2342, 394.0717
662.7163, 394.9964
663.1984, 395.1207
663.6805, 395.2273
664.1627, 396.0088
664.6448, 396.5681
665.1269, 396.1311
665.6090, 394.9755
666.0911, 394.1703
666.5732, 394.3267
667.0554, 394.5036
667.5375, 394.1997
668.0196, 393.4329
668.5017, 393.7518
668.9838, 395.7447
669.4659, 397.4319
669.9481, 397.2036
670.4302, 395.2366
670.9123, 394.9248
671.3944, 396.4537
671.8765, 397.9028
672.3586, 397.3214
672.8408, 395.4556
673.3229, 393.3522
673.8050, 390.9821
674.2871, 389.3837
674.7692, 389.6987
675.2513, 390.9801
675.7335, 392.2012
676.2156, 393.4234
676.6977, 394.1416
677.1798, 393.9121
677.6619, 393.3023
678.1440, 393.1786
678.6262, 393.7374
679.1083, 394.3006
679.5904, 394.8273
680.0725, 395.1949
680.5546, 394.8526
681.0367, 393.8534
681.5189, 393.3695
682.0010, 394.3478
682.4831, 395.8793
682.9652, 396.8811
683.4473, 397.2804
683.9294, 396.8436
684.4116, 393.9049
684.8937, 391.3300
685.3758, 391.4001
685.8579, 394.3754
686.3400, 396.4687
686.8221, 396.5910
687.3043, 396.0314
687.7864, 395.3001
688.2685, 394.3756
688.7506, 393.3246
689.2327, 391.9756
689.7148, 390.9325
690.1970, 390.8985
690.6791, 391.7294
691.1612, 392.6058
691.6433, 393.4783
692.1254, 394.0736
692.6075, 393.8219
693.0897, 393.1890
693.5718, 392.9816
694.0539, 393.8667
694.5360, 394.3802
695.0181, 393.4515
695.5002, 391.8590
695.9824, 390.8054
696.4645, 390.9795
696.9466, 390.9650
697.4287, 390.3568
697.9108, 389.5694
698.3929, 389.7110
698.8751, 390.9193
699.3572, 392.3468
699.8393, 393.9973
700.3214, 395.4698
700.8035, 395.3402
701.2856, 393.9193
701.7678, 393.0214
702.2499, 394.9152
702.7320, 396.9330
703.2141, 395.6967
703.6962, 391.7420
704.1783, 389.5821
704.6605, 393.5352
705.1426, 397.3975
705.6247, 397.3961
706.1068, 392.8376
706.5889, 390.7820
707.0710, 392.2130
707.5532, 394.4698
708.0353, 396.1227
708.5174, 397.1731
708.9995, 397.2587
709.4816, 396.2780
709.9637, 395.0466
710.4459, 394.2208
710.9280, 393.7379
711.4101, 393.5067
711.8922, 393.5211
712.3743, 393.7572
712.8564, 394.4537
713.3386, 395.2511
713.8207, 395.7827
714.3028, 395.9628
714.7849, 395.8482
715.2670, 395.0312
715.7491, 394.1933
716.2313, 394.3292
716.7134, 395.7457
717.1955, 396.7831
717.6776, 397.0748
718.1597, 397.0013
718.6418, 397.4724
719.1240, 398.2825
719.6061, 398.3969
720.0882, 396.7698
720.5703, 395.0967
721.0524, 395.5350
721.5345, 397.2909
722.0167, 398.4599
722.4988, 397.5541
722.9809, 396.7386
723.4630, 397.0190
723.9451, 398.1398
724.4272, 398.6951
724.9094, 398.4128
725.3915, 398.1129
725.8736, 398.1507
726.3557, 398.4202
726.8378, 398.1273
727.3199, 397.2592
727.8021, 396.7527
728.2842, 397.8452
728.7663, 399.3983
729.2484, 399.1404
729.7305, 397.2133
730.2126, 395.7774
730.6948, 396.4161
731.1769, 397.6758
731.6590, 398.4988
732.1411, 398.6103
732.6232, 399.4704
733.1053, 402.0249
733.5875, 404.3554
734.0696, 405.3129
734.5517, 404.7914
735.0338, 403.4974
735.5159, 401.1591
735.9980, 399.2333
736.4802, 399.4477
736.9623, 401.1772
737.4444, 402.8227
737.9265, 404.2306
738.4086, 405.2310
738.8907, 405.6003
739.3729, 405.5428
739.8550, 405.2472
740.3371, 404.6089
740.8192, 404.0185
741.3013, 403.3348
741.7834, 402.8576
742.2656, 402.9107
742.7477, 403.5941
743.2298, 404.5669
743.7119, 406.0206
744.1940, 407.2517
744.6761, 406.8360
745.1583, 405.1340
745.6404, 403.8689
746.1225, 403.4105
746.6046, 403.7362
747.0867, 405.6951
747.5688, 408.2650
748.0510, 409.6776
748.5331, 408.2694
749.0152, 406.8900
749.4973, 406.2845
749.9794, 406.2214
750.4615, 406.1591
750.9437, 405.7288
751.4258, 406.3918
751.9079, 409.0849
752.3900, 412.4899
752.8721, 412.8825
753.3542, 410.5909
753.8364, 408.7774
754.3185, 409.2211
754.8006, 410.3815
755.2827, 410.1536
755.7648, 409.1064
756.2469, 408.8875
756.7291, 411.4711
757.2112, 413.7121
757.6933, 413.8029
758.1754, 412.2432
758.6575, 412.2046
759.1396, 414.6175
759.6218, 416.6766
760.1039, 417.3448
760.5860, 416.9155
761.0681, 416.8241
761.5502, 417.0563
762.0323, 417.0331
762.5145, 415.7393
762.9966, 414.3809
763.4787, 415.0187
763.9608, 417.3239
764.4429, 419.1329
764.9250, 418.8018
765.4072, 418.2565
765.8893, 418.6934
766.3714, 420.2144
766.8535, 420.7807
767.3356, 419.7867
767.8177, 418.9050
768.2999, 418.9814
768.7820, 419.9242
769.2641, 421.0985
769.7462, 422.5098
770.2283, 423.4650
770.7104, 423.1231
771.1926, 422.1678
771.6747, 421.5110
772.1568, 421.2111
772.6389, 421.0102
773.1210, 420.9992
773.6031, 420.8824
774.0853, 420.4628
774.5674, 419.6970
775.0495, 418.7466
775.5316, 417.1384
776.0137, 416.1865
776.4958, 417.0992
776.9780, 419.7631
777.4601, 421.6055
777.9422, 422.5859
778.4243, 423.0328
778.9064, 423.0384
779.3885, 422.7807
779.8707, 422.3653
780.3528, 421.7665
780.8349, 421.5671
781.3170, 422.7929
781.7991, 423.9671
782.2812, 423.8338
782.7633, 421.7618
783.2454, 420.7135
783.7275, 421.2112
784.2097, 421.7611
784.6918, 420.5987
785.1739, 418.0551
785.6560, 417.7121
786.1381, 419.9680
786.6202, 422.3062
787.1024, 422.2182
787.5845, 420.9529
788.0666, 419.8947
788.5487, 419.1462
789.0308, 419.2348
789.5129, 422.0757
789.9951, 424.6132
790.4772, 424.1202
790.9593, 418.5912
791.4414, 416.0716
791.9235, 417.2892
792.4056, 419.7259
792.8878, 421.0866
793.3699, 421.5254
793.8520, 421.9698
794.3341, 422.5504
794.8162, 422.8021
795.2983, 422.2347
795.7805, 421.1750
796.2626, 419.9256
796.7447, 418.4640
797.2268, 417.1162
797.7089, 415.8353
798.1910, 414.7902
798.6732, 413.9698
799.1553, 413.0216
799.6374, 413.9619
800.1195, 417.3929
800.6016, 420.9330
801.0837, 421.7860
801.5659, 420.7057
802.0480, 419.9755
802.5301, 419.9212
803.0122, 420.2160
803.4943, 420.8121
803.9764, 421.5294
804.4586, 422.2248
804.9407, 422.9869
805.4228, 423.3968
805.9049, 423.0750
806.3870, 422.7525
806.8691, 423.1276
807.3513, 424.3227
807.8334, 425.0654
808.3155, 425.2467
808.7976, 425.1906
809.2797, 425.1170
809.7618, 425.0797
810.2440, 425.2796
810.7261, 425.8189
811.2082, 426.0911
811.6903, 425.6474
812.1724, 424.8524
812.6545, 423.9379
813.1367, 422.5531
813.6188, 422.0680
814.1009, 422.8002
814.5830, 423.9271
815.0651, 424.7427
815.5472, 425.2758
816.0294, 426.1630
816.5115, 427.5414
816.9936, 428.1901
817.4757, 425.7073
817.9578, 422.4454
818.4399, 421.6671
818.9221, 424.4099
819.4042, 426.5912
819.8863, 425.8154
820.3684, 424.7934
820.8505, 425.6349
821.3326, 429.2617
821.8148, 430.6122
822.2969, 429.0311
822.7790, 427.2850
823.2611, 428.1547
823.7432, 430.8057
824.2253, 432.7041
824.7075, 433.6408
825.1896, 433.9356
825.6717, 433.4445
826.1538, 432.6638
826.6359, 431.9113
827.1180, 431.1693
827.6002, 430.8515
828.0823, 431.0555
828.5644, 431.5990
829.0465, 432.4803
829.5286, 433.7082
830.0107, 434.8656
830.4929, 435.9877
830.9750, 436.6067
831.4571, 435.9009
831.9392, 434.6580
832.4213, 434.1434
832.9034, 434.4174
833.3856, 434.6685
833.8677, 434.0657
834.3498, 433.7106
834.8319, 434.3707
835.3140, 436.0757
835.7961, 437.7569
836.2783, 439.5352
836.7604, 440.9487
837.2425, 441.5947
837.7246, 441.6613
838.2067, 441.8618
838.6888, 442.1955
839.1710, 442.6804
839.6531, 443.1434
840.1352, 443.9039
840.6173, 445.4775
841.0994, 447.7556
841.5815, 449.5160
842.0637, 450.3188
842.5458, 450.8011
843.0279, 450.9420
843.5100, 450.8923
843.9921, 451.8556
844.4742, 453.8834
844.9564, 455.5051
845.4385, 455.7062
845.9206, 455.2627
846.4027, 455.1669
846.8848, 455.4174
847.3669, 455.9896
847.8491, 457.2931
848.3312, 458.4966
848.8133, 458.9806
849.2954, 459.1078
849.7775, 460.1898
850.2596, 462.7502
850.7418, 464.5797
851.2239, 464.8792
851.7060, 464.2852
852.1881, 463.7972
852.6702, 463.5704
853.1523, 464.2962
853.6345, 466.8713
854.1166, 469.6877
854.5987, 472.0036
855.0808, 473.7013
855.5629, 474.5923
856.0450, 473.6780
856.5272, 473.3229
857.0093, 473.7677
857.4914, 474.8769
857.9735, 476.8124
858.4556, 479.4842
858.9377, 481.1925
859.4199, 481.4034
859.9020, 481.0201
860.3841, 480.6808
860.8662, 480.5089
861.3483, 480.6667
861.8304, 481.1663
862.3126, 482.0761
862.7947, 484.0024
863.2768, 485.9495
863.7589, 486.8756
864.2410, 486.4774
864.7231, 486.7271
865.2053, 487.8247
865.6874, 489.1859
866.1695, 490.3348
866.6516, 491.2450
867.1337, 491.8817
867.6158, 492.2308
868.0980, 492.3325
868.5801, 491.9428
869.0622, 491.5077
869.5443, 491.3935
870.0264, 491.6687
870.5085, 492.0866
870.9907, 492.8425
871.4728, 493.2672
871.9549, 492.5757
872.4370, 491.1271
872.9191, 490.5076
873.4012, 490.6925
873.8834, 490.7574
874.3655, 489.8671
874.8476, 488.7640
875.3297, 487.8379
875.8118, 487.1291
876.2939, 487.0347
876.7761, 488.0587
877.2582, 488.8848
877.7403, 489.0533
878.2224, 488.6206
878.7045, 487.8958
879.1866, 486.8702
879.6688, 485.4607
880.1509, 482.9031
880.6330, 480.5326
881.1151, 480.0479
881.5972, 480.8695
882.0793, 481.3416
882.5615, 481.2987
883.0436, 480.3695
883.5257, 477.9344
884.0078, 474.9062
884.4899, 473.5192
884.9720, 473.8752
885.4542, 473.8841
885.9363, 472.7531
886.4184, 471.6876
886.9005, 473.0994
887.3826, 475.5146
887.8647, 476.2682
888.3469, 473.5147
888.8290, 470.7933
889.3111, 469.3264
889.7932, 468.3199
890.2753, 466.9351
890.7574, 464.9985
891.2396, 463.4623
891.7217, 462.4200
892.2038, 461.5664
892.6859, 460.6290
893.1680, 459.6181
893.6501, 458.3579
894.1323, 456.7324
894.6144, 455.8451
895.0965, 457.0298
895.5786, 458.5507
896.0607, 459.1806
896.5428, 458.8222
897.0250, 458.3598
897.5071, 457.8062
897.9892, 457.1310
898.4713, 456.1124
898.9534, 454.9900
899.4355, 454.4429
899.9177, 454.4374
900.3998, 454.6983
900.8819, 455.1000
901.3640, 455.6765
901.8461, 456.7581
902.3282, 458.1152
902.8104, 458.4943
903.2925, 457.5391
903.7746, 456.3297
904.2567, 454.8759
904.7388, 453.6901
905.2209, 454.5995
905.7031, 456.9911
906.1852, 458.3115
906.6673, 456.8521
907.1494, 455.1887
907.6315, 454.9933
908.1136, 455.7366
908.5958, 456.6259
909.0779, 457.9187
909.5600, 458.6618
910.0421, 458.6001
910.5242, 458.3342
911.0063, 458.5594
911.4885, 459.2389
911.9706, 460.3680
912.4527, 462.0294
912.9348, 463.2655
913.4169, 462.2699
913.8990, 461.1693
914.3812, 462.1632
914.8633, 466.2386
915.3454, 469.1712
915.8275, 470.2643
916.3096, 471.1536
916.7917, 472.9580
917.2739, 475.4442
917.7560, 476.8322
918.2381, 477.2279
918.7202, 477.9803
919.2023, 480.3442
919.6844, 483.0887
920.1666, 485.3482
920.6487, 487.1542
921.1308, 488.7886
921.6129, 489.4063
922.0950, 491.4738
922.5771, 496.3299
923.0593, 502.3167
923.5414, 504.5932
924.0235, 503.7676
924.5056, 504.1510
924.9877, 507.4520
925.4698, 511.7755
925.9520, 515.9503
926.4341, 519.9703
926.9162, 523.7817
927.3983, 526.6515
927.8804, 530.5018
928.3625, 535.7798
928.8447, 541.3371
929.3268, 545.8343
929.8089, 549.4088
930.2910, 553.3110
930.7731, 557.6534
931.2552, 562.7254
931.7374, 569.2595
932.2195, 576.3776
932.7016, 583.5058
933.1837, 590.5235
933.6658, 597.3210
934.1479, 603.4401
934.6301, 610.1409
935.1122, 618.0472
935.5943, 626.9642
936.0764, 636.2193
936.5585, 645.8252
937.0406, 655.2382
937.5228, 663.3546
938.0049, 672.0940
938.4870, 683.1574
938.9691, 695.9432
939.4512, 709.0082
939.9333, 722.7000
940.4155, 735.9056
940.8976, 748.2502
941.3797, 760.3975
941.8618, 772.5066
942.3439, 785.0385
942.8260, 800.2400
943.3082, 819.1331
943.7903, 838.4893
944.2724, 855.0667
944.7545, 871.3746
945.2366, 890.0587
945.7188, 912.2277
946.2009, 934.0433
946.6830, 955.2516
947.1651, 976.9385
947.6472, 999.7635
948.1293, 1023.565
948.6115, 1048.094
949.0936, 1073.345
949.5757, 1100.043
950.0578, 1128.007
950.5399, 1157.783
951.0220, 1190.306
951.5042, 1225.046
951.9863, 1259.386
952.4684, 1292.310
952.9505, 1327.518
953.4326, 1366.385
953.9147, 1407.154
954.3969, 1447.607
954.8790, 1487.984
955.3611, 1528.876
955.8432, 1569.514
956.3253, 1612.093
956.8074, 1660.093
957.2896, 1708.939
957.7717, 1754.650
958.2538, 1796.086
958.7359, 1838.340
959.2180, 1881.208
959.7001, 1924.005
960.1823, 1968.815
960.6644, 2012.343
961.1465, 2045.956
961.6286, 2070.300
962.1107, 2090.751
962.5928, 2113.826
963.0750, 2129.199
963.5571, 2132.685
964.0392, 2125.369
964.5213, 2110.393
965.0034, 2088.016
965.4855, 2056.188
965.9677, 2013.618
966.4498, 1962.339
966.9319, 1903.386
967.4140, 1838.577
967.8961, 1772.381
968.3782, 1705.831
968.8604, 1636.861
969.3425, 1560.958
969.8246, 1484.987
970.3067, 1413.349
970.7888, 1346.649
971.2709, 1281.443
971.7531, 1217.795
972.2352, 1157.737
972.7173, 1103.000
973.1994, 1052.503
973.6815, 1006.342
974.1636, 964.4802
974.6458, 924.9105
975.1279, 886.9803
975.6100, 852.1686
976.0921, 821.2742
976.5742, 793.5237
977.0563, 766.9199
977.5385, 741.3669
978.0206, 717.5739
978.5027, 695.5441
978.9848, 675.7819
979.4669, 659.3289
979.9490, 645.0917
980.4311, 631.8232
980.9132, 620.0616
981.3953, 607.4755
981.8774, 593.5903
982.3596, 580.1588
982.8417, 569.0021
983.3238, 559.6279
983.8059, 550.7778
984.2880, 542.3722
984.7701, 534.8213
985.2523, 528.7232
985.7344, 523.1843
986.2165, 517.8853
986.6986, 512.7513
987.1807, 507.5913
987.6628, 502.4457
988.1450, 497.1870
988.6271, 491.5298
989.1092, 486.2661
989.5913, 482.7611
990.0734, 480.4616
990.5555, 478.4920
991.0377, 477.4361
991.5198, 474.9106
992.0019, 468.6614
992.4840, 462.3975
992.9661, 459.2115
993.4482, 459.2337
993.9304, 457.9948
994.4125, 455.4006
994.8946, 453.0376
995.3767, 452.2642
995.8588, 452.0387
996.3409, 451.5810
996.8231, 450.8282
997.3052, 449.6189
997.7873, 447.3003
998.2694, 445.7045
998.7515, 445.5047
999.2336, 445.8676
999.7158, 445.0863
1000.198, 443.4080
1000.680, 441.6672
1001.162, 439.9648
1001.644, 438.6820
1002.126, 438.3648
1002.608, 438.4130
1003.091, 438.3385
1003.573, 438.1454
1004.055, 437.5707
1004.537, 436.4489
1005.019, 435.7318
1005.501, 436.7146
1005.983, 438.1910
1006.465, 437.5469
1006.948, 435.4245
1007.430, 434.2743
1007.912, 436.9825
1008.394, 438.3565
1008.876, 435.9909
1009.358, 432.3644
1009.840, 432.3140
1010.322, 435.7088
1010.804, 437.8816
1011.287, 437.9257
1011.769, 437.5039
1012.251, 437.9843
1012.733, 438.9306
1013.215, 440.0040
1013.697, 441.2209
1014.179, 442.0135
1014.661, 442.0031
1015.143, 442.4445
1015.626, 444.6323
1016.108, 447.3671
1016.590, 445.9174
1017.072, 441.5732
1017.554, 439.0783
1018.036, 443.2884
1018.518, 446.7474
1019.000, 445.3741
1019.483, 441.9108
1019.965, 440.1238
1020.447, 440.3367
1020.929, 440.3362
1021.411, 439.9038
1021.893, 439.6330
1022.375, 440.2990
1022.857, 441.3413
1023.339, 442.1205
1023.822, 442.5797
1024.304, 442.7896
1024.786, 442.4590
1025.268, 442.3418
1025.750, 442.7972
1026.232, 443.5175
1026.714, 443.3535
1027.196, 442.5778
1027.679, 442.6962
1028.161, 444.6729
1028.643, 446.5368
1029.125, 447.0841
1029.607, 446.7944
1030.089, 446.0405
1030.571, 444.5261
1031.053, 444.0047
1031.536, 444.6865
1032.018, 445.3067
1032.500, 444.7658
1032.982, 443.6535
1033.464, 442.7785
1033.946, 442.1781
1034.428, 441.8905
1034.910, 442.1050
1035.392, 442.4209
1035.875, 442.6450
1036.357, 443.0126
1036.839, 443.9701
1037.321, 445.4810
1037.803, 447.2065
1038.285, 449.1621
1038.767, 450.8863
1039.249, 451.8418
1039.731, 452.5327
1040.214, 453.1753
1040.696, 453.7541
1041.178, 455.5187
1041.660, 458.8065
1042.142, 461.8944
1042.624, 463.5524
1043.106, 465.1313
1043.588, 470.0753
1044.071, 476.8364
1044.553, 481.8743
1045.035, 481.6357
1045.517, 483.2566
1045.999, 489.3271
1046.481, 496.4112
1046.963, 500.7316
1047.445, 502.6096
1047.927, 507.3030
1048.410, 514.9617
1048.892, 523.0800
1049.374, 530.0295
1049.856, 536.6949
1050.338, 543.4573
1050.820, 550.4554
1051.302, 557.6943
1051.784, 565.0121
1052.266, 573.4179
1052.749, 583.6826
1053.231, 593.5027
1053.713, 599.2806
1054.195, 602.5248
1054.677, 606.2288
1055.159, 611.3905
1055.641, 614.0584
1056.123, 611.8820
1056.606, 608.4439
1057.088, 605.6809
1057.570, 602.9385
1058.052, 596.2984
1058.534, 586.2208
1059.016, 575.3855
1059.498, 564.4653
1059.980, 553.9400
1060.463, 543.8717
1060.945, 534.5228
1061.427, 526.1556
1061.909, 518.8473
1062.391, 512.4575
1062.873, 507.0845
1063.355, 502.3427
1063.837, 497.9786
1064.319, 494.0023
1064.802, 490.5814
1065.284, 487.6552
1065.766, 484.7770
1066.248, 481.4743
1066.730, 478.7238
1067.212, 476.7439
1067.694, 475.3159
1068.176, 474.3322
1068.658, 473.5889
1069.141, 472.1554
1069.623, 469.6989
1070.105, 467.7903
1070.587, 468.1073
1071.069, 468.5970
1071.551, 467.3624
1072.033, 468.4411
1072.515, 465.2676
1072.998, 469.2222
1073.480, 472.4169
1073.962, 472.2469
1074.444, 471.6475
1074.926, 474.6052
1075.408, 478.9618
1075.890, 481.2387
1076.372, 479.0270
1076.854, 478.2090
1077.337, 479.0841
1077.819, 480.5451
1078.301, 481.3433
1078.783, 482.1532
1079.265, 485.3565
1079.747, 490.3384
1080.229, 493.7749
1080.711, 492.3554
1081.193, 491.5511
1081.676, 493.1354
1082.158, 495.7827
1082.640, 497.1089
1083.122, 497.3035
1083.604, 498.5585
1084.086, 501.3087
1084.568, 503.3792
1085.050, 502.0768
1085.532, 500.3458
1086.015, 500.5025
1086.497, 502.4083
1086.979, 504.1195
1087.461, 505.5847
1087.943, 507.2690
1088.425, 509.4198
1088.907, 511.6682
1089.389, 514.3304
1089.872, 516.4597
1090.354, 516.4566
1090.836, 512.8738
1091.318, 510.3742
1091.800, 509.7788
1092.282, 509.0242
1092.764, 506.7403
1093.246, 503.3554
1093.729, 499.9137
1094.211, 496.4566
1094.693, 493.2967
1095.175, 490.8550
1095.657, 488.2510
1096.139, 484.9550
1096.621, 481.6271
1097.103, 479.0659
1097.585, 477.2270
1098.068, 475.3488
1098.550, 473.3927
1099.032, 471.0152
1099.514, 466.7090
1099.996, 463.0963
1100.478, 462.5377
1100.960, 464.1955
1101.442, 464.7415
1101.924, 463.9953
1102.407, 463.2307
1102.889, 462.7045
1103.371, 462.1042
1103.853, 460.4371
1104.335, 458.8526
1104.817, 458.9711
1105.299, 461.2046
1105.781, 462.7621
1106.264, 463.4614
1106.746, 463.4060
1107.228, 462.4578
1107.710, 461.0027
1108.192, 459.4459
1108.674, 458.0526
1109.156, 457.4287
1109.638, 457.9869
1110.120, 458.8240
1110.603, 460.3105
1111.085, 461.2910
1111.567, 460.7225
1112.049, 458.9306
1112.531, 458.3519
1113.013, 458.8087
1113.495, 459.1072
1113.977, 458.0924
1114.459, 457.3799
1114.942, 458.9972
1115.424, 460.6267
1115.906, 458.7270
1116.388, 452.7615
1116.870, 449.3546
1117.352, 448.8993
1117.834, 449.5554
1118.316, 450.6336
1118.799, 451.5571
1119.281, 451.5734
1119.763, 450.9724
1120.245, 451.1965
1120.727, 452.8689
1121.209, 452.9431
1121.691, 450.5281
1122.173, 447.8850
1122.656, 448.0168
1123.138, 449.3880
1123.620, 449.9937
1124.102, 449.5775
1124.584, 448.9933
1125.066, 448.3779
1125.548, 447.5073
1126.030, 445.9906
1126.512, 444.6495
1126.995, 445.5184
1127.477, 447.8083
1127.959, 449.7550
1128.441, 451.0394
1128.923, 451.6043
1129.405, 450.8791
1129.887, 450.0561
1130.369, 449.6495
1130.851, 449.6419
1131.334, 450.1863
1131.816, 451.1052
1132.298, 451.5845
1132.780, 451.1003
1133.262, 450.3662
1133.744, 449.2127
1134.226, 448.3286
1134.708, 448.4825
1135.191, 449.7594
1135.673, 450.5576
1136.155, 450.8916
1136.637, 451.0995
1137.119, 451.7055
1137.601, 451.9706
1138.083, 450.6901
1138.565, 448.9209
1139.047, 449.0424
1139.530, 451.6700
1140.012, 452.7549
1140.494, 451.8322
1140.976, 450.7856
1141.458, 451.4383
1141.940, 452.7099
1142.422, 453.6401
1142.904, 454.1867
1143.386, 454.4947
1143.869, 454.5086
1144.351, 454.4840
1144.833, 454.4187
1145.315, 454.4703
1145.797, 454.9842
1146.279, 455.6706
1146.761, 456.1945
1147.243, 456.5185
1147.726, 456.3607
1148.208, 455.3056
1148.690, 454.6224
1149.172, 454.7933
1149.654, 455.3795
1150.136, 455.5898
1150.618, 455.5575
1151.100, 455.4691
1151.583, 455.2426
1152.065, 455.5480
1152.547, 456.8486
1153.029, 458.3184
1153.511, 459.8632
1153.993, 461.1285
1154.475, 460.5996
1154.957, 458.7795
1155.439, 457.3033
1155.922, 456.5778
1156.404, 456.6449
1156.886, 459.0897
1157.368, 460.8418
1157.850, 459.1857
1158.332, 454.7163
1158.814, 453.3075
1159.296, 454.6241
1159.778, 456.4788
1160.261, 458.2379
1160.743, 459.6613
1161.225, 460.7555
1161.707, 461.3004
1162.189, 460.7198
1162.671, 458.9554
1163.153, 458.6591
1163.635, 459.8492
1164.118, 461.1630
1164.600, 461.8050
1165.082, 462.1351
1165.564, 462.2936
1166.046, 462.3126
1166.528, 462.1017
1167.010, 461.5557
1167.492, 462.1190
1167.974, 464.0115
1168.457, 465.6260
1168.939, 465.1554
1169.421, 464.3071
1169.903, 464.5093
1170.385, 465.5611
1170.867, 466.3955
1171.349, 467.1716
1171.831, 466.3448
1172.313, 463.2587
1172.796, 460.9401
1173.278, 463.6388
1173.760, 467.8217
1174.242, 470.2741
1174.724, 470.6567
1175.206, 470.2322
1175.688, 468.9230
1176.170, 467.0883
1176.653, 464.4501
1177.135, 462.5413
1177.617, 464.0944
1178.099, 467.0833
1178.581, 468.9590
1179.063, 469.2201
1179.545, 469.8482
1180.027, 470.8622
1180.510, 472.4613
1180.992, 475.1718
1181.474, 477.6013
1181.956, 476.9872
1182.438, 474.9694
1182.920, 474.1689
1183.402, 475.4624
1183.884, 476.5667
1184.366, 477.4182
1184.849, 477.9637
1185.331, 478.0192
1185.813, 477.9548
1186.295, 479.0592
1186.777, 480.3969
1187.259, 480.0000
1187.741, 475.6341
1188.223, 473.8051
1188.705, 475.8122
1189.188, 477.9203
1189.670, 477.2043
1190.152, 475.2508
1190.634, 475.4729
1191.116, 477.2201
1191.598, 478.9370
1192.080, 481.1823
1192.562, 481.3906
1193.045, 478.6221
1193.527, 475.6479
1194.009, 475.0347
1194.491, 475.7794
1194.973, 475.4202
1195.455, 474.3272
1195.937, 473.8375
1196.419, 474.8821
1196.901, 476.0119
1197.384, 477.3712
1197.866, 478.1790
1198.348, 476.8714
1198.830, 474.7160
1199.312, 475.6082
1199.794, 478.8675
1200.276, 480.5167
1200.758, 477.0006
1201.240, 474.6010
1201.723, 474.3882
1202.205, 475.3464
1202.687, 476.7564
1203.169, 478.2462
1203.651, 478.7076
1204.133, 478.1899
1204.615, 477.7714
1205.097, 477.2924
1205.580, 477.9285
1206.062, 480.4307
1206.544, 483.2161
1207.026, 483.4283
1207.508, 482.2276
1207.990, 482.9009
1208.472, 485.6329
1208.954, 487.3119
1209.437, 485.6172
1209.919, 484.2751
1210.401, 484.1668
1210.883, 484.7393
1211.365, 485.1846
1211.847, 485.5456
1212.329, 485.9092
1212.811, 486.2866
1213.293, 486.8188
1213.776, 487.8020
1214.258, 488.6337
1214.740, 489.1915
1215.222, 489.4695
1215.704, 488.8947
1216.186, 488.1640
1216.668, 489.3436
1217.150, 493.0509
1217.632, 495.4307
1218.115, 494.5563
1218.597, 493.4691
1219.079, 493.0174
1219.561, 493.0868
1220.043, 493.6046
1220.525, 494.4172
1221.007, 495.2400
1221.489, 496.0562
1221.972, 496.5977
1222.454, 496.6299
1222.936, 496.6742
1223.418, 496.7819
1223.900, 497.2192
1224.382, 499.3617
1224.864, 502.0757
1225.346, 502.5370
1225.828, 499.0617
1226.311, 498.0488
1226.793, 501.9231
1227.275, 504.9302
1227.757, 503.9276
1228.239, 501.1078
1228.721, 500.9957
1229.203, 502.5676
1229.685, 503.8690
1230.167, 504.6272
1230.650, 504.1472
1231.132, 501.6304
1231.614, 499.8963
1232.096, 500.6194
1232.578, 502.7472
1233.060, 504.8831
1233.542, 506.7129
1234.024, 507.5415
1234.507, 506.7882
1234.989, 506.0614
1235.471, 505.4712
1235.953, 504.7606
1236.435, 503.4284
1236.917, 502.2588
1237.399, 503.2343
1237.881, 505.1276
1238.364, 505.5377
1238.846, 502.3879
1239.328, 502.0504
1239.810, 505.2570
1240.292, 508.3649
1240.774, 508.8452
1241.256, 508.2589
1241.738, 508.6779
1242.220, 509.6390
1242.703, 510.2950
1243.185, 510.3400
1243.667, 510.6068
1244.149, 511.1067
1244.631, 511.7121
1245.113, 512.7470
1245.595, 513.4243
1246.077, 511.7725
1246.559, 509.5118
1247.042, 510.1288
1247.524, 515.4383
1248.006, 516.7966
1248.488, 513.9127
1248.970, 510.7847
1249.452, 509.9423
1249.934, 510.1189
1250.416, 510.4488
1250.899, 511.0360
1251.381, 512.0970
1251.863, 513.7813
1252.345, 515.2129
1252.827, 516.3950
1253.309, 516.9796
1253.791, 516.1281
1254.273, 515.2348
1254.755, 515.1000
1255.238, 515.5922
1255.720, 516.7346
1256.202, 518.6044
1256.684, 518.7817
1257.166, 517.2923
1257.648, 515.5723
1258.130, 513.5018
1258.612, 512.5744
1259.094, 514.8514
1259.577, 517.7797
1260.059, 518.5331
1260.541, 517.3096
1261.023, 516.5070
1261.505, 516.2012
1261.987, 516.3874
1262.469, 517.2203
1262.951, 518.3853
1263.434, 520.0707
1263.916, 521.6973
1264.398, 522.7538
1264.880, 523.2592
1265.362, 522.7908
1265.844, 521.6928
1266.326, 521.7945
1266.808, 525.7341
1267.291, 528.2457
1267.773, 528.1685
1268.255, 527.0413
1268.737, 526.1067
1269.219, 525.4041
1269.701, 525.0069
1270.183, 524.9176
1270.665, 525.1067
1271.147, 525.6932
1271.630, 526.4653
1272.112, 527.5295
1272.594, 528.4348
1273.076, 528.7672
1273.558, 528.6596
1274.040, 527.9450
1274.522, 526.9782
1275.004, 526.9662
1275.486, 528.9590
1275.969, 529.2731
1276.451, 527.3140
1276.933, 525.7550
1277.415, 527.6696
1277.897, 530.5023
1278.379, 531.3967
1278.861, 531.0919
1279.343, 531.6263
1279.825, 533.3888
1280.308, 534.5165
1280.790, 534.9149
1281.272, 534.7242
1281.754, 532.8079
1282.236, 531.6136
1282.718, 534.1425
1283.200, 537.9387
1283.682, 538.6362
1284.165, 536.0852
1284.647, 535.6415
1285.129, 537.3962
1285.611, 539.2511
1286.093, 540.2865
1286.575, 540.6871
1287.057, 540.1364
1287.539, 539.3431
1288.021, 538.8836
1288.504, 538.8136
1288.986, 539.8378
1289.468, 541.7076
1289.950, 542.8693
1290.432, 541.1400
1290.914, 540.8411
1291.396, 543.4709
1291.878, 546.4498
1292.360, 546.9997
1292.843, 544.0580
1293.325, 547.2104
1293.807, 549.0728
1294.289, 549.7147
1294.771, 545.4802
1295.253, 547.5426
1295.735, 547.0814
1296.217, 546.5168
1296.700, 549.4658
1297.182, 545.9406
1297.664, 548.8334
1298.146, 549.1642
1298.628, 550.6677
1299.110, 549.6320
1299.592, 549.3806
1300.074, 551.6691
1300.557, 552.5516
1301.039, 551.2237
1301.521, 552.8016
1302.003, 550.7831
1302.485, 551.8917
1302.967, 551.9017
1303.449, 551.1343
##END=



