##NAMES=Krasnoite
##RRUFFID=R120056
##IDEAL CHEMISTRY=Ca_3_Al_7.7_Si_3_P_4_O_23.5_(OH)_12.1_F_2_&#183;8H_2_O
##LOCALITY=Horn√≠ Slavkov, Czech Republic
##OWNER=RRUFF
##SOURCE=Bob Jenkins
##DESCRIPTION=Aggregate of colorless thin hexagonal plates on quartz
##STATUS=The identification of this mineral has been confirmed by single-crystal X-ray diffraction.
##URL=rruff.info/R120056
9.112140e+001, 0.000000e+000
9.160352e+001, 3.427841e+002
9.208563e+001, 3.375094e+002
9.256775e+001, 3.369639e+002
9.304987e+001, 3.439001e+002
9.353198e+001, 3.518735e+002
9.401410e+001, 3.548253e+002
9.449622e+001, 3.532949e+002
9.497833e+001, 3.494530e+002
9.546045e+001, 3.448977e+002
9.594257e+001, 3.395787e+002
9.642468e+001, 3.347647e+002
9.690680e+001, 3.307185e+002
9.738892e+001, 3.271758e+002
9.787103e+001, 3.242992e+002
9.835315e+001, 3.215492e+002
9.883527e+001, 3.183102e+002
9.931738e+001, 3.148217e+002
9.979950e+001, 3.110221e+002
1.002816e+002, 3.075679e+002
1.007637e+002, 3.041172e+002
1.012458e+002, 3.009958e+002
1.017280e+002, 2.985248e+002
1.022101e+002, 2.967422e+002
1.026922e+002, 2.955120e+002
1.031743e+002, 2.947147e+002
1.036564e+002, 2.942616e+002
1.041385e+002, 2.940555e+002
1.046207e+002, 2.941641e+002
1.051028e+002, 2.944969e+002
1.055849e+002, 2.947906e+002
1.060670e+002, 2.950109e+002
1.065491e+002, 2.949611e+002
1.070313e+002, 2.945063e+002
1.075134e+002, 2.936137e+002
1.079955e+002, 2.924132e+002
1.084776e+002, 2.908369e+002
1.089597e+002, 2.886641e+002
1.094418e+002, 2.870502e+002
1.099240e+002, 2.863142e+002
1.104061e+002, 2.862072e+002
1.108882e+002, 2.867831e+002
1.113703e+002, 2.881080e+002
1.118524e+002, 2.897975e+002
1.123345e+002, 2.907791e+002
1.128167e+002, 2.902129e+002
1.132988e+002, 2.900254e+002
1.137809e+002, 2.907891e+002
1.142630e+002, 2.920126e+002
1.147451e+002, 2.930162e+002
1.152272e+002, 2.933332e+002
1.157094e+002, 2.930277e+002
1.161915e+002, 2.933152e+002
1.166736e+002, 2.947870e+002
1.171557e+002, 2.961675e+002
1.176378e+002, 2.966871e+002
1.181199e+002, 2.966152e+002
1.186021e+002, 2.969583e+002
1.190842e+002, 2.986474e+002
1.195663e+002, 3.018234e+002
1.200484e+002, 3.046502e+002
1.205305e+002, 3.069450e+002
1.210126e+002, 3.090194e+002
1.214948e+002, 3.111559e+002
1.219769e+002, 3.134035e+002
1.224590e+002, 3.155666e+002
1.229411e+002, 3.173368e+002
1.234232e+002, 3.188158e+002
1.239053e+002, 3.203035e+002
1.243875e+002, 3.216092e+002
1.248696e+002, 3.229755e+002
1.253517e+002, 3.251125e+002
1.258338e+002, 3.283983e+002
1.263159e+002, 3.321403e+002
1.267980e+002, 3.358691e+002
1.272802e+002, 3.395811e+002
1.277623e+002, 3.432271e+002
1.282444e+002, 3.468650e+002
1.287265e+002, 3.505110e+002
1.292086e+002, 3.538184e+002
1.296907e+002, 3.562661e+002
1.301729e+002, 3.587255e+002
1.306550e+002, 3.613928e+002
1.311371e+002, 3.643827e+002
1.316192e+002, 3.678964e+002
1.321013e+002, 3.723544e+002
1.325834e+002, 3.787403e+002
1.330656e+002, 3.841931e+002
1.335477e+002, 3.878156e+002
1.340298e+002, 3.911541e+002
1.345119e+002, 3.953616e+002
1.349940e+002, 4.008190e+002
1.354761e+002, 4.071800e+002
1.359583e+002, 4.136290e+002
1.364404e+002, 4.200605e+002
1.369225e+002, 4.266957e+002
1.374046e+002, 4.337428e+002
1.378867e+002, 4.409897e+002
1.383688e+002, 4.479457e+002
1.388510e+002, 4.543420e+002
1.393331e+002, 4.605077e+002
1.398152e+002, 4.675136e+002
1.402973e+002, 4.760043e+002
1.407794e+002, 4.842493e+002
1.412615e+002, 4.915101e+002
1.417437e+002, 4.978782e+002
1.422258e+002, 5.039674e+002
1.427079e+002, 5.102635e+002
1.431900e+002, 5.162540e+002
1.436721e+002, 5.211922e+002
1.441542e+002, 5.251334e+002
1.446364e+002, 5.278973e+002
1.451185e+002, 5.292371e+002
1.456006e+002, 5.290835e+002
1.460827e+002, 5.279062e+002
1.465648e+002, 5.259065e+002
1.470469e+002, 5.230048e+002
1.475291e+002, 5.188408e+002
1.480112e+002, 5.130508e+002
1.484933e+002, 5.061760e+002
1.489754e+002, 4.994780e+002
1.494575e+002, 4.932858e+002
1.499396e+002, 4.865820e+002
1.504218e+002, 4.788787e+002
1.509039e+002, 4.705733e+002
1.513860e+002, 4.622309e+002
1.518681e+002, 4.541668e+002
1.523502e+002, 4.462921e+002
1.528323e+002, 4.383026e+002
1.533145e+002, 4.298824e+002
1.537966e+002, 4.216336e+002
1.542787e+002, 4.137787e+002
1.547608e+002, 4.061570e+002
1.552429e+002, 3.983696e+002
1.557250e+002, 3.900081e+002
1.562072e+002, 3.810132e+002
1.566893e+002, 3.726194e+002
1.571714e+002, 3.642212e+002
1.576535e+002, 3.567726e+002
1.581356e+002, 3.512606e+002
1.586177e+002, 3.473142e+002
1.590999e+002, 3.433282e+002
1.595820e+002, 3.377247e+002
1.600641e+002, 3.301148e+002
1.605462e+002, 3.234672e+002
1.610283e+002, 3.180325e+002
1.615104e+002, 3.133527e+002
1.619926e+002, 3.092823e+002
1.624747e+002, 3.057945e+002
1.629568e+002, 3.024755e+002
1.634389e+002, 2.988802e+002
1.639210e+002, 2.950252e+002
1.644031e+002, 2.914918e+002
1.648853e+002, 2.884529e+002
1.653674e+002, 2.857743e+002
1.658495e+002, 2.833741e+002
1.663316e+002, 2.813018e+002
1.668137e+002, 2.793105e+002
1.672958e+002, 2.770043e+002
1.677780e+002, 2.744993e+002
1.682601e+002, 2.723525e+002
1.687422e+002, 2.711281e+002
1.692243e+002, 2.705560e+002
1.697064e+002, 2.695197e+002
1.701885e+002, 2.675484e+002
1.706707e+002, 2.655406e+002
1.711528e+002, 2.640092e+002
1.716349e+002, 2.629270e+002
1.721170e+002, 2.621153e+002
1.725991e+002, 2.616013e+002
1.730812e+002, 2.614167e+002
1.735634e+002, 2.608469e+002
1.740455e+002, 2.588326e+002
1.745276e+002, 2.572535e+002
1.750097e+002, 2.572522e+002
1.754918e+002, 2.586374e+002
1.759739e+002, 2.602576e+002
1.764561e+002, 2.608050e+002
1.769382e+002, 2.599010e+002
1.774203e+002, 2.591917e+002
1.779024e+002, 2.587982e+002
1.783845e+002, 2.584799e+002
1.788666e+002, 2.580721e+002
1.793488e+002, 2.575783e+002
1.798309e+002, 2.571437e+002
1.803130e+002, 2.569752e+002
1.807951e+002, 2.571676e+002
1.812772e+002, 2.574547e+002
1.817593e+002, 2.577781e+002
1.822415e+002, 2.582162e+002
1.827236e+002, 2.587636e+002
1.832057e+002, 2.594395e+002
1.836878e+002, 2.603688e+002
1.841699e+002, 2.617646e+002
1.846520e+002, 2.639352e+002
1.851342e+002, 2.660193e+002
1.856163e+002, 2.682637e+002
1.860984e+002, 2.703045e+002
1.865805e+002, 2.716178e+002
1.870626e+002, 2.720163e+002
1.875447e+002, 2.720425e+002
1.880269e+002, 2.726542e+002
1.885090e+002, 2.740200e+002
1.889911e+002, 2.751807e+002
1.894732e+002, 2.760840e+002
1.899553e+002, 2.766196e+002
1.904374e+002, 2.765402e+002
1.909196e+002, 2.756959e+002
1.914017e+002, 2.743556e+002
1.918838e+002, 2.729334e+002
1.923659e+002, 2.714831e+002
1.928480e+002, 2.696933e+002
1.933301e+002, 2.672691e+002
1.938123e+002, 2.643500e+002
1.942944e+002, 2.614112e+002
1.947765e+002, 2.584832e+002
1.952586e+002, 2.557007e+002
1.957407e+002, 2.532375e+002
1.962228e+002, 2.511060e+002
1.967050e+002, 2.489308e+002
1.971871e+002, 2.462016e+002
1.976692e+002, 2.429698e+002
1.981513e+002, 2.404318e+002
1.986334e+002, 2.395162e+002
1.991155e+002, 2.388068e+002
1.995977e+002, 2.371992e+002
2.000798e+002, 2.346714e+002
2.005619e+002, 2.321623e+002
2.010440e+002, 2.307727e+002
2.015261e+002, 2.307429e+002
2.020082e+002, 2.301792e+002
2.024904e+002, 2.282222e+002
2.029725e+002, 2.261022e+002
2.034546e+002, 2.243360e+002
2.039367e+002, 2.230191e+002
2.044188e+002, 2.220262e+002
2.049009e+002, 2.213277e+002
2.053831e+002, 2.211741e+002
2.058652e+002, 2.205262e+002
2.063473e+002, 2.189011e+002
2.068294e+002, 2.171544e+002
2.073115e+002, 2.158528e+002
2.077936e+002, 2.150498e+002
2.082758e+002, 2.143366e+002
2.087579e+002, 2.130945e+002
2.092400e+002, 2.108605e+002
2.097221e+002, 2.091283e+002
2.102042e+002, 2.080487e+002
2.106863e+002, 2.072703e+002
2.111685e+002, 2.066617e+002
2.116506e+002, 2.061487e+002
2.121327e+002, 2.055947e+002
2.126148e+002, 2.047765e+002
2.130969e+002, 2.034685e+002
2.135790e+002, 2.023849e+002
2.140612e+002, 2.018327e+002
2.145433e+002, 2.013042e+002
2.150254e+002, 2.003163e+002
2.155075e+002, 1.987838e+002
2.159896e+002, 1.970509e+002
2.164717e+002, 1.956004e+002
2.169539e+002, 1.944950e+002
2.174360e+002, 1.935890e+002
2.179181e+002, 1.930060e+002
2.184002e+002, 1.925570e+002
2.188823e+002, 1.920447e+002
2.193644e+002, 1.914225e+002
2.198466e+002, 1.907901e+002
2.203287e+002, 1.902888e+002
2.208108e+002, 1.899334e+002
2.212929e+002, 1.896077e+002
2.217750e+002, 1.894985e+002
2.222571e+002, 1.893350e+002
2.227393e+002, 1.886501e+002
2.232214e+002, 1.872763e+002
2.237035e+002, 1.858149e+002
2.241856e+002, 1.851641e+002
2.246677e+002, 1.852568e+002
2.251498e+002, 1.851523e+002
2.256320e+002, 1.843734e+002
2.261141e+002, 1.833068e+002
2.265962e+002, 1.826156e+002
2.270783e+002, 1.824722e+002
2.275604e+002, 1.825143e+002
2.280425e+002, 1.825105e+002
2.285247e+002, 1.824400e+002
2.290068e+002, 1.820888e+002
2.294889e+002, 1.809814e+002
2.299710e+002, 1.795702e+002
2.304531e+002, 1.789587e+002
2.309352e+002, 1.795383e+002
2.314174e+002, 1.803430e+002
2.318995e+002, 1.806769e+002
2.323816e+002, 1.806455e+002
2.328637e+002, 1.804995e+002
2.333458e+002, 1.803710e+002
2.338279e+002, 1.802225e+002
2.343101e+002, 1.798813e+002
2.347922e+002, 1.791608e+002
2.352743e+002, 1.785714e+002
2.357564e+002, 1.783861e+002
2.362385e+002, 1.785191e+002
2.367206e+002, 1.788207e+002
2.372028e+002, 1.793222e+002
2.376849e+002, 1.799324e+002
2.381670e+002, 1.802257e+002
2.386491e+002, 1.799145e+002
2.391312e+002, 1.797134e+002
2.396133e+002, 1.801405e+002
2.400955e+002, 1.808385e+002
2.405776e+002, 1.811548e+002
2.410597e+002, 1.805327e+002
2.415418e+002, 1.792658e+002
2.420239e+002, 1.788289e+002
2.425060e+002, 1.798454e+002
2.429882e+002, 1.808956e+002
2.434703e+002, 1.816519e+002
2.439524e+002, 1.821535e+002
2.444345e+002, 1.824590e+002
2.449166e+002, 1.825770e+002
2.453987e+002, 1.825530e+002
2.458809e+002, 1.825881e+002
2.463630e+002, 1.825554e+002
2.468451e+002, 1.827766e+002
2.473272e+002, 1.836117e+002
2.478093e+002, 1.846428e+002
2.482914e+002, 1.852639e+002
2.487736e+002, 1.851132e+002
2.492557e+002, 1.844518e+002
2.497378e+002, 1.843498e+002
2.502199e+002, 1.852945e+002
2.507020e+002, 1.862478e+002
2.511841e+002, 1.871669e+002
2.516663e+002, 1.879869e+002
2.521484e+002, 1.886257e+002
2.526305e+002, 1.890461e+002
2.531126e+002, 1.892907e+002
2.535947e+002, 1.894932e+002
2.540768e+002, 1.892832e+002
2.545590e+002, 1.895126e+002
2.550411e+002, 1.904238e+002
2.555232e+002, 1.917197e+002
2.560053e+002, 1.931384e+002
2.564874e+002, 1.945631e+002
2.569695e+002, 1.959525e+002
2.574517e+002, 1.972055e+002
2.579338e+002, 1.983023e+002
2.584159e+002, 1.992646e+002
2.588980e+002, 1.999571e+002
2.593801e+002, 2.005747e+002
2.598622e+002, 2.013638e+002
2.603444e+002, 2.024043e+002
2.608265e+002, 2.035333e+002
2.613086e+002, 2.044423e+002
2.617907e+002, 2.050107e+002
2.622728e+002, 2.055247e+002
2.627549e+002, 2.056692e+002
2.632371e+002, 2.059163e+002
2.637192e+002, 2.069644e+002
2.642013e+002, 2.089663e+002
2.646834e+002, 2.111042e+002
2.651655e+002, 2.121127e+002
2.656476e+002, 2.113234e+002
2.661298e+002, 2.109404e+002
2.666119e+002, 2.114241e+002
2.670940e+002, 2.121019e+002
2.675761e+002, 2.122472e+002
2.680582e+002, 2.117382e+002
2.685403e+002, 2.111472e+002
2.690225e+002, 2.111569e+002
2.695046e+002, 2.119371e+002
2.699867e+002, 2.126692e+002
2.704688e+002, 2.136149e+002
2.709509e+002, 2.143327e+002
2.714330e+002, 2.142279e+002
2.719152e+002, 2.132823e+002
2.723973e+002, 2.123463e+002
2.728794e+002, 2.123699e+002
2.733615e+002, 2.134316e+002
2.738436e+002, 2.137047e+002
2.743257e+002, 2.125799e+002
2.748079e+002, 2.110645e+002
2.752900e+002, 2.099023e+002
2.757721e+002, 2.091301e+002
2.762542e+002, 2.085321e+002
2.767363e+002, 2.081017e+002
2.772184e+002, 2.077191e+002
2.777006e+002, 2.067047e+002
2.781827e+002, 2.044506e+002
2.786648e+002, 2.020502e+002
2.791469e+002, 2.003037e+002
2.796290e+002, 1.991610e+002
2.801111e+002, 1.980600e+002
2.805933e+002, 1.965529e+002
2.810754e+002, 1.949004e+002
2.815575e+002, 1.939174e+002
2.820396e+002, 1.942536e+002
2.825217e+002, 1.944711e+002
2.830038e+002, 1.935626e+002
2.834860e+002, 1.917028e+002
2.839681e+002, 1.897900e+002
2.844502e+002, 1.881999e+002
2.849323e+002, 1.868280e+002
2.854144e+002, 1.853725e+002
2.858965e+002, 1.836762e+002
2.863787e+002, 1.822630e+002
2.868608e+002, 1.817266e+002
2.873429e+002, 1.817867e+002
2.878250e+002, 1.813013e+002
2.883071e+002, 1.795806e+002
2.887892e+002, 1.776001e+002
2.892714e+002, 1.768679e+002
2.897535e+002, 1.775088e+002
2.902356e+002, 1.781435e+002
2.907177e+002, 1.781326e+002
2.911998e+002, 1.776282e+002
2.916819e+002, 1.769320e+002
2.921641e+002, 1.759172e+002
2.926462e+002, 1.751135e+002
2.931283e+002, 1.753239e+002
2.936104e+002, 1.764130e+002
2.940925e+002, 1.772727e+002
2.945746e+002, 1.773122e+002
2.950568e+002, 1.768496e+002
2.955389e+002, 1.765673e+002
2.960210e+002, 1.766417e+002
2.965031e+002, 1.766022e+002
2.969852e+002, 1.757708e+002
2.974673e+002, 1.744501e+002
2.979495e+002, 1.734922e+002
2.984316e+002, 1.734484e+002
2.989137e+002, 1.738222e+002
2.993958e+002, 1.738311e+002
2.998779e+002, 1.733756e+002
3.003600e+002, 1.729566e+002
3.008422e+002, 1.730478e+002
3.013243e+002, 1.733840e+002
3.018064e+002, 1.734981e+002
3.022885e+002, 1.731519e+002
3.027706e+002, 1.726753e+002
3.032527e+002, 1.724841e+002
3.037349e+002, 1.726020e+002
3.042170e+002, 1.726488e+002
3.046991e+002, 1.722966e+002
3.051812e+002, 1.718456e+002
3.056633e+002, 1.717332e+002
3.061454e+002, 1.721147e+002
3.066276e+002, 1.725871e+002
3.071097e+002, 1.728746e+002
3.075918e+002, 1.729742e+002
3.080739e+002, 1.727845e+002
3.085560e+002, 1.719735e+002
3.090381e+002, 1.711291e+002
3.095203e+002, 1.709511e+002
3.100024e+002, 1.715096e+002
3.104845e+002, 1.721748e+002
3.109666e+002, 1.726284e+002
3.114487e+002, 1.728606e+002
3.119308e+002, 1.727538e+002
3.124130e+002, 1.720589e+002
3.128951e+002, 1.713464e+002
3.133772e+002, 1.711417e+002
3.138593e+002, 1.713882e+002
3.143414e+002, 1.717707e+002
3.148235e+002, 1.721519e+002
3.153057e+002, 1.725520e+002
3.157878e+002, 1.731438e+002
3.162699e+002, 1.741660e+002
3.167520e+002, 1.748205e+002
3.172341e+002, 1.740946e+002
3.177162e+002, 1.725594e+002
3.181984e+002, 1.714557e+002
3.186805e+002, 1.714666e+002
3.191626e+002, 1.720586e+002
3.196447e+002, 1.724106e+002
3.201268e+002, 1.724830e+002
3.206089e+002, 1.725160e+002
3.210911e+002, 1.725987e+002
3.215732e+002, 1.727417e+002
3.220553e+002, 1.730002e+002
3.225374e+002, 1.735020e+002
3.230195e+002, 1.739338e+002
3.235016e+002, 1.738466e+002
3.239838e+002, 1.732343e+002
3.244659e+002, 1.728248e+002
3.249480e+002, 1.730840e+002
3.254301e+002, 1.735568e+002
3.259122e+002, 1.736224e+002
3.263943e+002, 1.731615e+002
3.268765e+002, 1.727545e+002
3.273586e+002, 1.729125e+002
3.278407e+002, 1.735289e+002
3.283228e+002, 1.739871e+002
3.288049e+002, 1.740550e+002
3.292870e+002, 1.740501e+002
3.297692e+002, 1.744240e+002
3.302513e+002, 1.751277e+002
3.307334e+002, 1.755331e+002
3.312155e+002, 1.751452e+002
3.316976e+002, 1.742568e+002
3.321797e+002, 1.734691e+002
3.326619e+002, 1.727551e+002
3.331440e+002, 1.723960e+002
3.336261e+002, 1.729643e+002
3.341082e+002, 1.740947e+002
3.345903e+002, 1.749239e+002
3.350724e+002, 1.747792e+002
3.355546e+002, 1.743964e+002
3.360367e+002, 1.748889e+002
3.365188e+002, 1.763547e+002
3.370009e+002, 1.776655e+002
3.374830e+002, 1.780134e+002
3.379651e+002, 1.778191e+002
3.384473e+002, 1.778960e+002
3.389294e+002, 1.784698e+002
3.394115e+002, 1.791092e+002
3.398936e+002, 1.794229e+002
3.403757e+002, 1.794611e+002
3.408578e+002, 1.795860e+002
3.413400e+002, 1.799264e+002
3.418221e+002, 1.804359e+002
3.423042e+002, 1.810482e+002
3.427863e+002, 1.817888e+002
3.432684e+002, 1.824969e+002
3.437505e+002, 1.831664e+002
3.442327e+002, 1.837434e+002
3.447148e+002, 1.840276e+002
3.451969e+002, 1.838790e+002
3.456790e+002, 1.836933e+002
3.461611e+002, 1.839590e+002
3.466432e+002, 1.846062e+002
3.471254e+002, 1.853456e+002
3.476075e+002, 1.862920e+002
3.480896e+002, 1.871983e+002
3.485717e+002, 1.876478e+002
3.490538e+002, 1.875905e+002
3.495359e+002, 1.875462e+002
3.500181e+002, 1.879085e+002
3.505002e+002, 1.886186e+002
3.509823e+002, 1.893256e+002
3.514644e+002, 1.902910e+002
3.519465e+002, 1.910048e+002
3.524286e+002, 1.907546e+002
3.529108e+002, 1.898043e+002
3.533929e+002, 1.894728e+002
3.538750e+002, 1.905474e+002
3.543571e+002, 1.925010e+002
3.548392e+002, 1.939957e+002
3.553214e+002, 1.948752e+002
3.558035e+002, 1.957271e+002
3.562856e+002, 1.967646e+002
3.567677e+002, 1.979107e+002
3.572498e+002, 1.990265e+002
3.577319e+002, 2.000721e+002
3.582141e+002, 2.010885e+002
3.586962e+002, 2.021271e+002
3.591783e+002, 2.031732e+002
3.596604e+002, 2.043359e+002
3.601425e+002, 2.060676e+002
3.606246e+002, 2.076576e+002
3.611068e+002, 2.083553e+002
3.615889e+002, 2.081278e+002
3.620710e+002, 2.075253e+002
3.625531e+002, 2.069582e+002
3.630352e+002, 2.064258e+002
3.635173e+002, 2.058960e+002
3.639995e+002, 2.053931e+002
3.644816e+002, 2.048665e+002
3.649637e+002, 2.044523e+002
3.654458e+002, 2.040072e+002
3.659279e+002, 2.030943e+002
3.664100e+002, 2.014154e+002
3.668922e+002, 1.992830e+002
3.673743e+002, 1.977578e+002
3.678564e+002, 1.973200e+002
3.683385e+002, 1.967605e+002
3.688206e+002, 1.959362e+002
3.693027e+002, 1.949055e+002
3.697849e+002, 1.936670e+002
3.702670e+002, 1.922397e+002
3.707491e+002, 1.907995e+002
3.712312e+002, 1.896191e+002
3.717133e+002, 1.888898e+002
3.721954e+002, 1.878396e+002
3.726776e+002, 1.860884e+002
3.731597e+002, 1.843630e+002
3.736418e+002, 1.830792e+002
3.741239e+002, 1.822425e+002
3.746060e+002, 1.816421e+002
3.750881e+002, 1.811013e+002
3.755703e+002, 1.806291e+002
3.760524e+002, 1.804380e+002
3.765345e+002, 1.811991e+002
3.770166e+002, 1.814745e+002
3.774987e+002, 1.803718e+002
3.779808e+002, 1.787265e+002
3.784630e+002, 1.778208e+002
3.789451e+002, 1.782505e+002
3.794272e+002, 1.794675e+002
3.799093e+002, 1.801982e+002
3.803914e+002, 1.803910e+002
3.808735e+002, 1.801097e+002
3.813557e+002, 1.788953e+002
3.818378e+002, 1.775887e+002
3.823199e+002, 1.767853e+002
3.828020e+002, 1.765721e+002
3.832841e+002, 1.766995e+002
3.837662e+002, 1.769819e+002
3.842484e+002, 1.775073e+002
3.847305e+002, 1.775679e+002
3.852126e+002, 1.762171e+002
3.856947e+002, 1.753083e+002
3.861768e+002, 1.759466e+002
3.866589e+002, 1.774548e+002
3.871411e+002, 1.784133e+002
3.876232e+002, 1.778904e+002
3.881053e+002, 1.763213e+002
3.885874e+002, 1.752486e+002
3.890695e+002, 1.747720e+002
3.895516e+002, 1.746480e+002
3.900338e+002, 1.750934e+002
3.905159e+002, 1.756608e+002
3.909980e+002, 1.759271e+002
3.914801e+002, 1.757766e+002
3.919622e+002, 1.754377e+002
3.924443e+002, 1.751844e+002
3.929265e+002, 1.750320e+002
3.934086e+002, 1.748279e+002
3.938907e+002, 1.745350e+002
3.943728e+002, 1.742010e+002
3.948549e+002, 1.740201e+002
3.953370e+002, 1.738728e+002
3.958192e+002, 1.733190e+002
3.963013e+002, 1.716843e+002
3.967834e+002, 1.694339e+002
3.972655e+002, 1.682223e+002
3.977476e+002, 1.684002e+002
3.982297e+002, 1.687161e+002
3.987119e+002, 1.685516e+002
3.991940e+002, 1.681175e+002
3.996761e+002, 1.676601e+002
4.001582e+002, 1.672485e+002
4.006403e+002, 1.668114e+002
4.011224e+002, 1.662156e+002
4.016046e+002, 1.654730e+002
4.020867e+002, 1.648692e+002
4.025688e+002, 1.644598e+002
4.030509e+002, 1.642734e+002
4.035330e+002, 1.644615e+002
4.040151e+002, 1.650428e+002
4.044973e+002, 1.653025e+002
4.049794e+002, 1.646838e+002
4.054615e+002, 1.636088e+002
4.059436e+002, 1.627734e+002
4.064257e+002, 1.622625e+002
4.069078e+002, 1.619869e+002
4.073900e+002, 1.619495e+002
4.078721e+002, 1.621171e+002
4.083542e+002, 1.622768e+002
4.088363e+002, 1.625317e+002
4.093184e+002, 1.626709e+002
4.098005e+002, 1.625238e+002
4.102827e+002, 1.621379e+002
4.107648e+002, 1.616585e+002
4.112469e+002, 1.611234e+002
4.117290e+002, 1.605831e+002
4.122111e+002, 1.601582e+002
4.126932e+002, 1.598561e+002
4.131754e+002, 1.596251e+002
4.136575e+002, 1.595190e+002
4.141396e+002, 1.594462e+002
4.146217e+002, 1.592872e+002
4.151038e+002, 1.590303e+002
4.155859e+002, 1.587825e+002
4.160681e+002, 1.586459e+002
4.165502e+002, 1.586263e+002
4.170323e+002, 1.586783e+002
4.175144e+002, 1.587981e+002
4.179965e+002, 1.589783e+002
4.184786e+002, 1.592454e+002
4.189608e+002, 1.595673e+002
4.194429e+002, 1.599281e+002
4.199250e+002, 1.603288e+002
4.204071e+002, 1.606799e+002
4.208892e+002, 1.607201e+002
4.213713e+002, 1.601811e+002
4.218535e+002, 1.597224e+002
4.223356e+002, 1.592267e+002
4.228177e+002, 1.589036e+002
4.232998e+002, 1.590876e+002
4.237819e+002, 1.597144e+002
4.242640e+002, 1.602432e+002
4.247462e+002, 1.599934e+002
4.252283e+002, 1.588630e+002
4.257104e+002, 1.584630e+002
4.261925e+002, 1.596225e+002
4.266746e+002, 1.606495e+002
4.271567e+002, 1.608199e+002
4.276389e+002, 1.605967e+002
4.281210e+002, 1.608458e+002
4.286031e+002, 1.620836e+002
4.290852e+002, 1.635829e+002
4.295673e+002, 1.636676e+002
4.300494e+002, 1.618096e+002
4.305316e+002, 1.604459e+002
4.310137e+002, 1.607551e+002
4.314958e+002, 1.613427e+002
4.319779e+002, 1.612297e+002
4.324600e+002, 1.603990e+002
4.329421e+002, 1.596820e+002
4.334243e+002, 1.598429e+002
4.339064e+002, 1.606718e+002
4.343885e+002, 1.612600e+002
4.348706e+002, 1.615381e+002
4.353527e+002, 1.616414e+002
4.358348e+002, 1.615869e+002
4.363170e+002, 1.614301e+002
4.367991e+002, 1.612414e+002
4.372812e+002, 1.609802e+002
4.377633e+002, 1.607731e+002
4.382454e+002, 1.608286e+002
4.387275e+002, 1.610923e+002
4.392097e+002, 1.611790e+002
4.396918e+002, 1.609314e+002
4.401739e+002, 1.604842e+002
4.406560e+002, 1.599152e+002
4.411381e+002, 1.591607e+002
4.416202e+002, 1.588203e+002
4.421024e+002, 1.594268e+002
4.425845e+002, 1.603350e+002
4.430666e+002, 1.607171e+002
4.435487e+002, 1.605322e+002
4.440308e+002, 1.604527e+002
4.445129e+002, 1.610880e+002
4.449951e+002, 1.623023e+002
4.454772e+002, 1.628195e+002
4.459593e+002, 1.620109e+002
4.464414e+002, 1.613425e+002
4.469235e+002, 1.611655e+002
4.474056e+002, 1.614345e+002
4.478878e+002, 1.623230e+002
4.483699e+002, 1.638611e+002
4.488520e+002, 1.652812e+002
4.493341e+002, 1.653010e+002
4.498162e+002, 1.630855e+002
4.502983e+002, 1.618342e+002
4.507805e+002, 1.617848e+002
4.512626e+002, 1.623205e+002
4.517447e+002, 1.634751e+002
4.522268e+002, 1.649594e+002
4.527089e+002, 1.662379e+002
4.531910e+002, 1.669599e+002
4.536732e+002, 1.671725e+002
4.541553e+002, 1.669870e+002
4.546374e+002, 1.658290e+002
4.551195e+002, 1.652774e+002
4.556016e+002, 1.657837e+002
4.560837e+002, 1.667775e+002
4.565659e+002, 1.680092e+002
4.570480e+002, 1.693488e+002
4.575301e+002, 1.703368e+002
4.580122e+002, 1.701598e+002
4.584943e+002, 1.688555e+002
4.589764e+002, 1.685813e+002
4.594586e+002, 1.700936e+002
4.599407e+002, 1.716201e+002
4.604228e+002, 1.721701e+002
4.609049e+002, 1.721090e+002
4.613870e+002, 1.720976e+002
4.618691e+002, 1.724449e+002
4.623513e+002, 1.728037e+002
4.628334e+002, 1.725803e+002
4.633155e+002, 1.718104e+002
4.637976e+002, 1.714771e+002
4.642797e+002, 1.720738e+002
4.647618e+002, 1.730200e+002
4.652440e+002, 1.736430e+002
4.657261e+002, 1.739562e+002
4.662082e+002, 1.740020e+002
4.666903e+002, 1.736033e+002
4.671724e+002, 1.730484e+002
4.676545e+002, 1.727311e+002
4.681367e+002, 1.726667e+002
4.686188e+002, 1.725399e+002
4.691009e+002, 1.721273e+002
4.695830e+002, 1.714860e+002
4.700651e+002, 1.708977e+002
4.705472e+002, 1.703409e+002
4.710294e+002, 1.698590e+002
4.715115e+002, 1.695509e+002
4.719936e+002, 1.692880e+002
4.724757e+002, 1.688504e+002
4.729578e+002, 1.682001e+002
4.734399e+002, 1.675748e+002
4.739221e+002, 1.672895e+002
4.744042e+002, 1.674443e+002
4.748863e+002, 1.673542e+002
4.753684e+002, 1.664527e+002
4.758505e+002, 1.659286e+002
4.763326e+002, 1.665925e+002
4.768148e+002, 1.678625e+002
4.772969e+002, 1.687463e+002
4.777790e+002, 1.687555e+002
4.782611e+002, 1.681959e+002
4.787432e+002, 1.676286e+002
4.792253e+002, 1.669164e+002
4.797075e+002, 1.666016e+002
4.801896e+002, 1.670236e+002
4.806717e+002, 1.676321e+002
4.811538e+002, 1.681848e+002
4.816359e+002, 1.686614e+002
4.821180e+002, 1.691079e+002
4.826002e+002, 1.694323e+002
4.830823e+002, 1.697847e+002
4.835644e+002, 1.707720e+002
4.840465e+002, 1.726685e+002
4.845286e+002, 1.741647e+002
4.850107e+002, 1.743353e+002
4.854929e+002, 1.739568e+002
4.859750e+002, 1.738464e+002
4.864571e+002, 1.740412e+002
4.869392e+002, 1.747312e+002
4.874213e+002, 1.763514e+002
4.879034e+002, 1.785089e+002
4.883856e+002, 1.803340e+002
4.888677e+002, 1.816936e+002
4.893498e+002, 1.827615e+002
4.898319e+002, 1.834895e+002
4.903140e+002, 1.839762e+002
4.907961e+002, 1.851398e+002
4.912783e+002, 1.875203e+002
4.917604e+002, 1.900112e+002
4.922425e+002, 1.922492e+002
4.927246e+002, 1.942279e+002
4.932067e+002, 1.957668e+002
4.936888e+002, 1.967945e+002
4.941710e+002, 1.979746e+002
4.946531e+002, 2.004046e+002
4.951352e+002, 2.047307e+002
4.956173e+002, 2.082768e+002
4.960994e+002, 2.107727e+002
4.965815e+002, 2.128720e+002
4.970637e+002, 2.144166e+002
4.975458e+002, 2.158373e+002
4.980279e+002, 2.180392e+002
4.985100e+002, 2.216119e+002
4.989921e+002, 2.258745e+002
4.994742e+002, 2.291008e+002
4.999564e+002, 2.308279e+002
5.004385e+002, 2.326623e+002
5.009206e+002, 2.348823e+002
5.014027e+002, 2.372492e+002
5.018848e+002, 2.397277e+002
5.023669e+002, 2.422511e+002
5.028491e+002, 2.445496e+002
5.033312e+002, 2.461412e+002
5.038133e+002, 2.474425e+002
5.042954e+002, 2.499492e+002
5.047775e+002, 2.541111e+002
5.052596e+002, 2.572825e+002
5.057418e+002, 2.576980e+002
5.062239e+002, 2.566479e+002
5.067060e+002, 2.559601e+002
5.071881e+002, 2.557493e+002
5.076702e+002, 2.558053e+002
5.081523e+002, 2.562552e+002
5.086345e+002, 2.568295e+002
5.091166e+002, 2.570117e+002
5.095987e+002, 2.567243e+002
5.100808e+002, 2.564109e+002
5.105629e+002, 2.564926e+002
5.110450e+002, 2.569019e+002
5.115272e+002, 2.568675e+002
5.120093e+002, 2.563583e+002
5.124914e+002, 2.555079e+002
5.129735e+002, 2.542951e+002
5.134556e+002, 2.527866e+002
5.139377e+002, 2.509481e+002
5.144199e+002, 2.488226e+002
5.149020e+002, 2.466988e+002
5.153841e+002, 2.450456e+002
5.158662e+002, 2.440334e+002
5.163483e+002, 2.423477e+002
5.168304e+002, 2.390891e+002
5.173126e+002, 2.361055e+002
5.177947e+002, 2.342332e+002
5.182768e+002, 2.328732e+002
5.187589e+002, 2.310846e+002
5.192410e+002, 2.284795e+002
5.197231e+002, 2.255764e+002
5.202053e+002, 2.231297e+002
5.206874e+002, 2.211835e+002
5.211695e+002, 2.191187e+002
5.216516e+002, 2.167946e+002
5.221337e+002, 2.144092e+002
5.226158e+002, 2.121145e+002
5.230980e+002, 2.098724e+002
5.235801e+002, 2.075472e+002
5.240622e+002, 2.048248e+002
5.245443e+002, 2.022731e+002
5.250264e+002, 2.007442e+002
5.255085e+002, 2.000387e+002
5.259907e+002, 1.990357e+002
5.264728e+002, 1.973026e+002
5.269549e+002, 1.951802e+002
5.274370e+002, 1.930933e+002
5.279191e+002, 1.909817e+002
5.284012e+002, 1.891667e+002
5.288834e+002, 1.878980e+002
5.293655e+002, 1.867502e+002
5.298476e+002, 1.854927e+002
5.303297e+002, 1.841032e+002
5.308118e+002, 1.825750e+002
5.312939e+002, 1.808889e+002
5.317761e+002, 1.791490e+002
5.322582e+002, 1.776248e+002
5.327403e+002, 1.764098e+002
5.332224e+002, 1.752492e+002
5.337045e+002, 1.740138e+002
5.341866e+002, 1.729315e+002
5.346688e+002, 1.723328e+002
5.351509e+002, 1.720255e+002
5.356330e+002, 1.714232e+002
5.361151e+002, 1.700559e+002
5.365972e+002, 1.682487e+002
5.370793e+002, 1.668782e+002
5.375615e+002, 1.660506e+002
5.380436e+002, 1.652516e+002
5.385257e+002, 1.642505e+002
5.390078e+002, 1.633049e+002
5.394899e+002, 1.627718e+002
5.399720e+002, 1.626227e+002
5.404542e+002, 1.622149e+002
5.409363e+002, 1.609854e+002
5.414184e+002, 1.594407e+002
5.419005e+002, 1.581997e+002
5.423826e+002, 1.572983e+002
5.428647e+002, 1.568863e+002
5.433469e+002, 1.572027e+002
5.438290e+002, 1.578933e+002
5.443111e+002, 1.580352e+002
5.447932e+002, 1.575363e+002
5.452753e+002, 1.568112e+002
5.457574e+002, 1.554214e+002
5.462396e+002, 1.541745e+002
5.467217e+002, 1.540749e+002
5.472038e+002, 1.548974e+002
5.476859e+002, 1.553970e+002
5.481680e+002, 1.546337e+002
5.486501e+002, 1.529745e+002
5.491323e+002, 1.520721e+002
5.496144e+002, 1.523764e+002
5.500965e+002, 1.526950e+002
5.505786e+002, 1.529939e+002
5.510607e+002, 1.531828e+002
5.515428e+002, 1.531311e+002
5.520250e+002, 1.528774e+002
5.525071e+002, 1.526435e+002
5.529892e+002, 1.526394e+002
5.534713e+002, 1.527584e+002
5.539534e+002, 1.527246e+002
5.544355e+002, 1.525589e+002
5.549177e+002, 1.520786e+002
5.553998e+002, 1.507405e+002
5.558819e+002, 1.494036e+002
5.563640e+002, 1.493730e+002
5.568461e+002, 1.508646e+002
5.573282e+002, 1.520315e+002
5.578104e+002, 1.520249e+002
5.582925e+002, 1.513963e+002
5.587746e+002, 1.506572e+002
5.592567e+002, 1.498845e+002
5.597388e+002, 1.492359e+002
5.602209e+002, 1.488092e+002
5.607031e+002, 1.485591e+002
5.611852e+002, 1.483383e+002
5.616673e+002, 1.481294e+002
5.621494e+002, 1.479762e+002
5.626315e+002, 1.477863e+002
5.631136e+002, 1.477254e+002
5.635958e+002, 1.481142e+002
5.640779e+002, 1.487851e+002
5.645600e+002, 1.491335e+002
5.650421e+002, 1.486752e+002
5.655242e+002, 1.476826e+002
5.660063e+002, 1.470664e+002
5.664885e+002, 1.469147e+002
5.669706e+002, 1.468896e+002
5.674527e+002, 1.469339e+002
5.679348e+002, 1.470731e+002
5.684169e+002, 1.474674e+002
5.688990e+002, 1.480453e+002
5.693812e+002, 1.483510e+002
5.698633e+002, 1.478337e+002
5.703454e+002, 1.470661e+002
5.708275e+002, 1.468976e+002
5.713096e+002, 1.473064e+002
5.717917e+002, 1.479050e+002
5.722739e+002, 1.486471e+002
5.727560e+002, 1.493168e+002
5.732381e+002, 1.494637e+002
5.737202e+002, 1.489265e+002
5.742023e+002, 1.485458e+002
5.746844e+002, 1.483961e+002
5.751666e+002, 1.484287e+002
5.756487e+002, 1.487128e+002
5.761308e+002, 1.491501e+002
5.766129e+002, 1.495368e+002
5.770950e+002, 1.497709e+002
5.775771e+002, 1.498557e+002
5.780593e+002, 1.497335e+002
5.785414e+002, 1.491690e+002
5.790235e+002, 1.490404e+002
5.795056e+002, 1.498757e+002
5.799877e+002, 1.507070e+002
5.804698e+002, 1.513164e+002
5.809520e+002, 1.515647e+002
5.814341e+002, 1.511152e+002
5.819162e+002, 1.495146e+002
5.823983e+002, 1.477874e+002
5.828804e+002, 1.474643e+002
5.833625e+002, 1.484145e+002
5.838447e+002, 1.492497e+002
5.843268e+002, 1.496329e+002
5.848089e+002, 1.498569e+002
5.852910e+002, 1.502949e+002
5.857731e+002, 1.508958e+002
5.862552e+002, 1.510955e+002
5.867374e+002, 1.502707e+002
5.872195e+002, 1.496346e+002
5.877016e+002, 1.500567e+002
5.881837e+002, 1.510355e+002
5.886658e+002, 1.516480e+002
5.891479e+002, 1.516275e+002
5.896301e+002, 1.514420e+002
5.901122e+002, 1.517086e+002
5.905943e+002, 1.525132e+002
5.910764e+002, 1.529426e+002
5.915585e+002, 1.528055e+002
5.920406e+002, 1.524896e+002
5.925228e+002, 1.518860e+002
5.930049e+002, 1.512466e+002
5.934870e+002, 1.508375e+002
5.939691e+002, 1.507277e+002
5.944512e+002, 1.508628e+002
5.949333e+002, 1.512787e+002
5.954155e+002, 1.519116e+002
5.958976e+002, 1.524600e+002
5.963797e+002, 1.528753e+002
5.968618e+002, 1.533668e+002
5.973439e+002, 1.542360e+002
5.978260e+002, 1.551835e+002
5.983082e+002, 1.553961e+002
5.987903e+002, 1.543050e+002
5.992724e+002, 1.539152e+002
5.997545e+002, 1.556118e+002
6.002366e+002, 1.578730e+002
6.007188e+002, 1.588366e+002
6.012009e+002, 1.585749e+002
6.016830e+002, 1.586193e+002
6.021651e+002, 1.600672e+002
6.026472e+002, 1.624654e+002
6.031293e+002, 1.640952e+002
6.036115e+002, 1.643210e+002
6.040936e+002, 1.649438e+002
6.045757e+002, 1.664933e+002
6.050578e+002, 1.680715e+002
6.055399e+002, 1.689305e+002
6.060220e+002, 1.693012e+002
6.065042e+002, 1.700894e+002
6.069863e+002, 1.719970e+002
6.074684e+002, 1.742801e+002
6.079505e+002, 1.755442e+002
6.084326e+002, 1.758285e+002
6.089147e+002, 1.766912e+002
6.093969e+002, 1.787447e+002
6.098790e+002, 1.811230e+002
6.103611e+002, 1.827960e+002
6.108432e+002, 1.838482e+002
6.113253e+002, 1.852646e+002
6.118074e+002, 1.873902e+002
6.122896e+002, 1.896528e+002
6.127717e+002, 1.917168e+002
6.132538e+002, 1.937230e+002
6.137359e+002, 1.959751e+002
6.142180e+002, 1.985498e+002
6.147001e+002, 2.011793e+002
6.151823e+002, 2.035861e+002
6.156644e+002, 2.057711e+002
6.161465e+002, 2.077247e+002
6.166286e+002, 2.097478e+002
6.171107e+002, 2.110616e+002
6.175928e+002, 2.110582e+002
6.180750e+002, 2.105331e+002
6.185571e+002, 2.102267e+002
6.190392e+002, 2.102927e+002
6.195213e+002, 2.106039e+002
6.200034e+002, 2.115841e+002
6.204855e+002, 2.126173e+002
6.209677e+002, 2.121014e+002
6.214498e+002, 2.099287e+002
6.219319e+002, 2.075059e+002
6.224140e+002, 2.053152e+002
6.228961e+002, 2.035211e+002
6.233782e+002, 2.026659e+002
6.238604e+002, 2.032589e+002
6.243425e+002, 2.030730e+002
6.248246e+002, 2.010040e+002
6.253067e+002, 1.988398e+002
6.257888e+002, 1.979470e+002
6.262709e+002, 1.979538e+002
6.267531e+002, 1.976643e+002
6.272352e+002, 1.964836e+002
6.277173e+002, 1.949960e+002
6.281994e+002, 1.944276e+002
6.286815e+002, 1.950722e+002
6.291636e+002, 1.949386e+002
6.296458e+002, 1.931204e+002
6.301279e+002, 1.915524e+002
6.306100e+002, 1.914320e+002
6.310921e+002, 1.921273e+002
6.315742e+002, 1.925283e+002
6.320563e+002, 1.923172e+002
6.325385e+002, 1.919044e+002
6.330206e+002, 1.913614e+002
6.335027e+002, 1.908842e+002
6.339848e+002, 1.910324e+002
6.344669e+002, 1.918661e+002
6.349490e+002, 1.926108e+002
6.354312e+002, 1.927768e+002
6.359133e+002, 1.923554e+002
6.363954e+002, 1.912863e+002
6.368775e+002, 1.884901e+002
6.373596e+002, 1.865108e+002
6.378417e+002, 1.859835e+002
6.383239e+002, 1.858532e+002
6.388060e+002, 1.855488e+002
6.392881e+002, 1.849614e+002
6.397702e+002, 1.840513e+002
6.402523e+002, 1.827111e+002
6.407344e+002, 1.812520e+002
6.412166e+002, 1.803925e+002
6.416987e+002, 1.801667e+002
6.421808e+002, 1.796593e+002
6.426629e+002, 1.785793e+002
6.431450e+002, 1.773493e+002
6.436271e+002, 1.762020e+002
6.441093e+002, 1.751835e+002
6.445914e+002, 1.745631e+002
6.450735e+002, 1.750516e+002
6.455556e+002, 1.751787e+002
6.460377e+002, 1.739830e+002
6.465198e+002, 1.721204e+002
6.470020e+002, 1.704950e+002
6.474841e+002, 1.692935e+002
6.479662e+002, 1.682229e+002
6.484483e+002, 1.670116e+002
6.489304e+002, 1.657119e+002
6.494125e+002, 1.646217e+002
6.498947e+002, 1.636140e+002
6.503768e+002, 1.630887e+002
6.508589e+002, 1.639499e+002
6.513410e+002, 1.646312e+002
6.518231e+002, 1.638114e+002
6.523052e+002, 1.616813e+002
6.527874e+002, 1.595788e+002
6.532695e+002, 1.580650e+002
6.537516e+002, 1.570119e+002
6.542337e+002, 1.564822e+002
6.547158e+002, 1.563416e+002
6.551979e+002, 1.559308e+002
6.556801e+002, 1.550310e+002
6.561622e+002, 1.539960e+002
6.566443e+002, 1.532005e+002
6.571264e+002, 1.526582e+002
6.576085e+002, 1.521398e+002
6.580906e+002, 1.514811e+002
6.585728e+002, 1.510465e+002
6.590549e+002, 1.511936e+002
6.595370e+002, 1.514419e+002
6.600191e+002, 1.512155e+002
6.605012e+002, 1.504896e+002
6.609833e+002, 1.497700e+002
6.614655e+002, 1.495247e+002
6.619476e+002, 1.495697e+002
6.624297e+002, 1.493546e+002
6.629118e+002, 1.488706e+002
6.633939e+002, 1.481604e+002
6.638760e+002, 1.470162e+002
6.643582e+002, 1.459189e+002
6.648403e+002, 1.456404e+002
6.653224e+002, 1.460987e+002
6.658045e+002, 1.461406e+002
6.662866e+002, 1.452707e+002
6.667687e+002, 1.442670e+002
6.672509e+002, 1.434866e+002
6.677330e+002, 1.428896e+002
6.682151e+002, 1.423793e+002
6.686972e+002, 1.419332e+002
6.691793e+002, 1.416292e+002
6.696614e+002, 1.415984e+002
6.701436e+002, 1.418025e+002
6.706257e+002, 1.416303e+002
6.711078e+002, 1.407357e+002
6.715899e+002, 1.401795e+002
6.720720e+002, 1.406210e+002
6.725541e+002, 1.412590e+002
6.730363e+002, 1.414121e+002
6.735184e+002, 1.410921e+002
6.740005e+002, 1.408717e+002
6.744826e+002, 1.413175e+002
6.749647e+002, 1.417136e+002
6.754468e+002, 1.410916e+002
6.759290e+002, 1.398130e+002
6.764111e+002, 1.389835e+002
6.768932e+002, 1.389492e+002
6.773753e+002, 1.393745e+002
6.778574e+002, 1.399652e+002
6.783395e+002, 1.407516e+002
6.788217e+002, 1.409140e+002
6.793038e+002, 1.396040e+002
6.797859e+002, 1.387508e+002
6.802680e+002, 1.391933e+002
6.807501e+002, 1.398833e+002
6.812322e+002, 1.395966e+002
6.817144e+002, 1.384102e+002
6.821965e+002, 1.377514e+002
6.826786e+002, 1.391099e+002
6.831607e+002, 1.411772e+002
6.836428e+002, 1.416707e+002
6.841249e+002, 1.407583e+002
6.846071e+002, 1.397434e+002
6.850892e+002, 1.388826e+002
6.855713e+002, 1.385784e+002
6.860534e+002, 1.395073e+002
6.865355e+002, 1.417864e+002
6.870176e+002, 1.431021e+002
6.874998e+002, 1.429783e+002
6.879819e+002, 1.425819e+002
6.884640e+002, 1.418163e+002
6.889461e+002, 1.411609e+002
6.894282e+002, 1.412285e+002
6.899103e+002, 1.419783e+002
6.903925e+002, 1.427021e+002
6.908746e+002, 1.427737e+002
6.913567e+002, 1.425316e+002
6.918388e+002, 1.427705e+002
6.923209e+002, 1.435004e+002
6.928030e+002, 1.446015e+002
6.932852e+002, 1.464080e+002
6.937673e+002, 1.478862e+002
6.942494e+002, 1.476480e+002
6.947315e+002, 1.458376e+002
6.952136e+002, 1.448612e+002
6.956957e+002, 1.451365e+002
6.961779e+002, 1.458563e+002
6.966600e+002, 1.471810e+002
6.971421e+002, 1.485488e+002
6.976242e+002, 1.492637e+002
6.981063e+002, 1.493105e+002
6.985884e+002, 1.492564e+002
6.990706e+002, 1.495732e+002
6.995527e+002, 1.500282e+002
7.000348e+002, 1.497443e+002
7.005169e+002, 1.484817e+002
7.009990e+002, 1.481299e+002
7.014811e+002, 1.496571e+002
7.019633e+002, 1.513469e+002
7.024454e+002, 1.515182e+002
7.029275e+002, 1.506216e+002
7.034096e+002, 1.501452e+002
7.038917e+002, 1.503650e+002
7.043738e+002, 1.509224e+002
7.048560e+002, 1.520601e+002
7.053381e+002, 1.532327e+002
7.058202e+002, 1.537148e+002
7.063023e+002, 1.535115e+002
7.067844e+002, 1.531947e+002
7.072665e+002, 1.531705e+002
7.077487e+002, 1.532558e+002
7.082308e+002, 1.529010e+002
7.087129e+002, 1.519829e+002
7.091950e+002, 1.511897e+002
7.096771e+002, 1.505544e+002
7.101592e+002, 1.501270e+002
7.106414e+002, 1.501840e+002
7.111235e+002, 1.504295e+002
7.116056e+002, 1.501723e+002
7.120877e+002, 1.490547e+002
7.125698e+002, 1.480064e+002
7.130519e+002, 1.476168e+002
7.135341e+002, 1.474651e+002
7.140162e+002, 1.470553e+002
7.144983e+002, 1.463833e+002
7.149804e+002, 1.457058e+002
7.154625e+002, 1.451715e+002
7.159446e+002, 1.446694e+002
7.164268e+002, 1.439224e+002
7.169089e+002, 1.428350e+002
7.173910e+002, 1.419222e+002
7.178731e+002, 1.412561e+002
7.183552e+002, 1.406795e+002
7.188373e+002, 1.400774e+002
7.193195e+002, 1.395262e+002
7.198016e+002, 1.392301e+002
7.202837e+002, 1.393096e+002
7.207658e+002, 1.390853e+002
7.212479e+002, 1.378306e+002
7.217300e+002, 1.363936e+002
7.222122e+002, 1.358390e+002
7.226943e+002, 1.359620e+002
7.231764e+002, 1.358321e+002
7.236585e+002, 1.350410e+002
7.241406e+002, 1.339610e+002
7.246227e+002, 1.331451e+002
7.251049e+002, 1.326031e+002
7.255870e+002, 1.321978e+002
7.260691e+002, 1.320185e+002
7.265512e+002, 1.318341e+002
7.270333e+002, 1.314854e+002
7.275154e+002, 1.311430e+002
7.279976e+002, 1.310584e+002
7.284797e+002, 1.312400e+002
7.289618e+002, 1.312514e+002
7.294439e+002, 1.305072e+002
7.299260e+002, 1.298597e+002
7.304081e+002, 1.305133e+002
7.308903e+002, 1.318278e+002
7.313724e+002, 1.320978e+002
7.318545e+002, 1.308765e+002
7.323366e+002, 1.293413e+002
7.328187e+002, 1.287552e+002
7.333008e+002, 1.290246e+002
7.337830e+002, 1.289695e+002
7.342651e+002, 1.283874e+002
7.347472e+002, 1.279207e+002
7.352293e+002, 1.279451e+002
7.357114e+002, 1.279384e+002
7.361935e+002, 1.272947e+002
7.366757e+002, 1.262307e+002
7.371578e+002, 1.257574e+002
7.376399e+002, 1.266941e+002
7.381220e+002, 1.276423e+002
7.386041e+002, 1.275888e+002
7.390862e+002, 1.269689e+002
7.395684e+002, 1.263841e+002
7.400505e+002, 1.259651e+002
7.405326e+002, 1.256826e+002
7.410147e+002, 1.254989e+002
7.414968e+002, 1.254882e+002
7.419789e+002, 1.260762e+002
7.424611e+002, 1.277534e+002
7.429432e+002, 1.281443e+002
7.434253e+002, 1.259640e+002
7.439074e+002, 1.237922e+002
7.443895e+002, 1.230728e+002
7.448716e+002, 1.233687e+002
7.453538e+002, 1.240090e+002
7.458359e+002, 1.251152e+002
7.463180e+002, 1.258231e+002
7.468001e+002, 1.253762e+002
7.472822e+002, 1.246054e+002
7.477643e+002, 1.243036e+002
7.482465e+002, 1.244650e+002
7.487286e+002, 1.248579e+002
7.492107e+002, 1.253772e+002
7.496928e+002, 1.258921e+002
7.501749e+002, 1.262273e+002
7.506570e+002, 1.263836e+002
7.511392e+002, 1.263202e+002
7.516213e+002, 1.259595e+002
7.521034e+002, 1.255454e+002
7.525855e+002, 1.249911e+002
7.530676e+002, 1.245626e+002
7.535497e+002, 1.247033e+002
7.540319e+002, 1.254388e+002
7.545140e+002, 1.258879e+002
7.549961e+002, 1.256127e+002
7.554782e+002, 1.252282e+002
7.559603e+002, 1.250979e+002
7.564424e+002, 1.251030e+002
7.569246e+002, 1.250941e+002
7.574067e+002, 1.250089e+002
7.578888e+002, 1.247326e+002
7.583709e+002, 1.240726e+002
7.588530e+002, 1.232461e+002
7.593351e+002, 1.230627e+002
7.598173e+002, 1.236049e+002
7.602994e+002, 1.241172e+002
7.607815e+002, 1.245372e+002
7.612636e+002, 1.247103e+002
7.617457e+002, 1.243287e+002
7.622278e+002, 1.235534e+002
7.627100e+002, 1.231736e+002
7.631921e+002, 1.234702e+002
7.636742e+002, 1.237561e+002
7.641563e+002, 1.238512e+002
7.646384e+002, 1.238943e+002
7.651205e+002, 1.239242e+002
7.656027e+002, 1.240084e+002
7.660848e+002, 1.243759e+002
7.665669e+002, 1.251625e+002
7.670490e+002, 1.258204e+002
7.675311e+002, 1.252627e+002
7.680132e+002, 1.238351e+002
7.684954e+002, 1.237087e+002
7.689775e+002, 1.251935e+002
7.694596e+002, 1.264015e+002
7.699417e+002, 1.263846e+002
7.704238e+002, 1.256383e+002
7.709059e+002, 1.249558e+002
7.713881e+002, 1.242871e+002
7.718702e+002, 1.239234e+002
7.723523e+002, 1.239849e+002
7.728344e+002, 1.241936e+002
7.733165e+002, 1.246287e+002
7.737986e+002, 1.250580e+002
7.742808e+002, 1.251742e+002
7.747629e+002, 1.249770e+002
7.752450e+002, 1.248021e+002
7.757271e+002, 1.248608e+002
7.762092e+002, 1.250814e+002
7.766913e+002, 1.253785e+002
7.771735e+002, 1.257471e+002
7.776556e+002, 1.261185e+002
7.781377e+002, 1.264715e+002
7.786198e+002, 1.271009e+002
7.791019e+002, 1.284157e+002
7.795840e+002, 1.301077e+002
7.800662e+002, 1.305168e+002
7.805483e+002, 1.287459e+002
7.810304e+002, 1.273856e+002
7.815125e+002, 1.266001e+002
7.819946e+002, 1.262461e+002
7.824767e+002, 1.266970e+002
7.829589e+002, 1.274214e+002
7.834410e+002, 1.273276e+002
7.839231e+002, 1.259656e+002
7.844052e+002, 1.247267e+002
7.848873e+002, 1.246362e+002
7.853694e+002, 1.250004e+002
7.858516e+002, 1.248304e+002
7.863337e+002, 1.243223e+002
7.868158e+002, 1.244674e+002
7.872979e+002, 1.256521e+002
7.877800e+002, 1.270089e+002
7.882621e+002, 1.273202e+002
7.887443e+002, 1.266299e+002
7.892264e+002, 1.264889e+002
7.897085e+002, 1.271782e+002
7.901906e+002, 1.276199e+002
7.906727e+002, 1.272509e+002
7.911548e+002, 1.267527e+002
7.916370e+002, 1.268881e+002
7.921191e+002, 1.275551e+002
7.926012e+002, 1.280329e+002
7.930833e+002, 1.280292e+002
7.935654e+002, 1.280538e+002
7.940475e+002, 1.284673e+002
7.945297e+002, 1.288841e+002
7.950118e+002, 1.288766e+002
7.954939e+002, 1.284779e+002
7.959760e+002, 1.279171e+002
7.964581e+002, 1.272733e+002
7.969402e+002, 1.268338e+002
7.974224e+002, 1.272409e+002
7.979045e+002, 1.283237e+002
7.983866e+002, 1.289164e+002
7.988687e+002, 1.288978e+002
7.993508e+002, 1.285600e+002
7.998329e+002, 1.279228e+002
8.003151e+002, 1.272533e+002
8.007972e+002, 1.270898e+002
8.012793e+002, 1.276190e+002
8.017614e+002, 1.279197e+002
8.022435e+002, 1.280219e+002
8.027256e+002, 1.278849e+002
8.032078e+002, 1.271174e+002
8.036899e+002, 1.263510e+002
8.041720e+002, 1.262948e+002
8.046541e+002, 1.269559e+002
8.051362e+002, 1.277560e+002
8.056183e+002, 1.286141e+002
8.061005e+002, 1.292054e+002
8.065826e+002, 1.289961e+002
8.070647e+002, 1.282986e+002
8.075468e+002, 1.276397e+002
8.080289e+002, 1.271802e+002
8.085110e+002, 1.274806e+002
8.089932e+002, 1.290993e+002
8.094753e+002, 1.312130e+002
8.099574e+002, 1.314175e+002
8.104395e+002, 1.290890e+002
8.109216e+002, 1.276696e+002
8.114037e+002, 1.276135e+002
8.118859e+002, 1.280096e+002
8.123680e+002, 1.287484e+002
8.128501e+002, 1.295110e+002
8.133322e+002, 1.298445e+002
8.138143e+002, 1.297087e+002
8.142964e+002, 1.292890e+002
8.147786e+002, 1.280630e+002
8.152607e+002, 1.271631e+002
8.157428e+002, 1.276248e+002
8.162249e+002, 1.286508e+002
8.167070e+002, 1.289938e+002
8.171891e+002, 1.285183e+002
8.176713e+002, 1.281361e+002
8.181534e+002, 1.286494e+002
8.186355e+002, 1.295174e+002
8.191176e+002, 1.295410e+002
8.195997e+002, 1.288632e+002
8.200818e+002, 1.287319e+002
8.205640e+002, 1.294367e+002
8.210461e+002, 1.300401e+002
8.215282e+002, 1.298439e+002
8.220103e+002, 1.291013e+002
8.224924e+002, 1.285695e+002
8.229745e+002, 1.282071e+002
8.234567e+002, 1.281445e+002
8.239388e+002, 1.288737e+002
8.244209e+002, 1.293384e+002
8.249030e+002, 1.288632e+002
8.253851e+002, 1.280673e+002
8.258672e+002, 1.277173e+002
8.263494e+002, 1.279260e+002
8.268315e+002, 1.284039e+002
8.273136e+002, 1.292339e+002
8.277957e+002, 1.300732e+002
8.282778e+002, 1.307788e+002
8.287599e+002, 1.312324e+002
8.292421e+002, 1.311156e+002
8.297242e+002, 1.304481e+002
8.302063e+002, 1.297026e+002
8.306884e+002, 1.292198e+002
8.311705e+002, 1.289501e+002
8.316526e+002, 1.287720e+002
8.321348e+002, 1.286848e+002
8.326169e+002, 1.287878e+002
8.330990e+002, 1.292385e+002
8.335811e+002, 1.293392e+002
8.340632e+002, 1.283356e+002
8.345453e+002, 1.269664e+002
8.350275e+002, 1.270176e+002
8.355096e+002, 1.293859e+002
8.359917e+002, 1.304672e+002
8.364738e+002, 1.291270e+002
8.369559e+002, 1.278129e+002
8.374380e+002, 1.272204e+002
8.379202e+002, 1.272514e+002
8.384023e+002, 1.279847e+002
8.388844e+002, 1.292714e+002
8.393665e+002, 1.303386e+002
8.398486e+002, 1.307572e+002
8.403307e+002, 1.308005e+002
8.408129e+002, 1.306122e+002
8.412950e+002, 1.302955e+002
8.417771e+002, 1.300050e+002
8.422592e+002, 1.297903e+002
8.427413e+002, 1.298049e+002
8.432234e+002, 1.301801e+002
8.437056e+002, 1.306247e+002
8.441877e+002, 1.304638e+002
8.446698e+002, 1.296302e+002
8.451519e+002, 1.290295e+002
8.456340e+002, 1.286974e+002
8.461161e+002, 1.285839e+002
8.465983e+002, 1.287610e+002
8.470804e+002, 1.290575e+002
8.475625e+002, 1.292256e+002
8.480446e+002, 1.292543e+002
8.485267e+002, 1.293414e+002
8.490089e+002, 1.298342e+002
8.494910e+002, 1.299479e+002
8.499731e+002, 1.289735e+002
8.504552e+002, 1.279050e+002
8.509373e+002, 1.277740e+002
8.514194e+002, 1.283815e+002
8.519016e+002, 1.287853e+002
8.523837e+002, 1.285365e+002
8.528658e+002, 1.281255e+002
8.533479e+002, 1.279077e+002
8.538300e+002, 1.278749e+002
8.543121e+002, 1.280715e+002
8.547943e+002, 1.284536e+002
8.552764e+002, 1.288464e+002
8.557585e+002, 1.291730e+002
8.562406e+002, 1.294503e+002
8.567227e+002, 1.297426e+002
8.572048e+002, 1.300224e+002
8.576870e+002, 1.298767e+002
8.581691e+002, 1.291668e+002
8.586512e+002, 1.285729e+002
8.591333e+002, 1.282545e+002
8.596154e+002, 1.281118e+002
8.600975e+002, 1.280616e+002
8.605797e+002, 1.281147e+002
8.610618e+002, 1.283220e+002
8.615439e+002, 1.288634e+002
8.620260e+002, 1.292556e+002
8.625081e+002, 1.295718e+002
8.629902e+002, 1.296029e+002
8.634724e+002, 1.290442e+002
8.639545e+002, 1.281869e+002
8.644366e+002, 1.273443e+002
8.649187e+002, 1.266133e+002
8.654008e+002, 1.264592e+002
8.658829e+002, 1.279058e+002
8.663651e+002, 1.295131e+002
8.668472e+002, 1.293769e+002
8.673293e+002, 1.281171e+002
8.678114e+002, 1.271100e+002
8.682935e+002, 1.267213e+002
8.687756e+002, 1.271079e+002
8.692578e+002, 1.285654e+002
8.697399e+002, 1.302992e+002
8.702220e+002, 1.299396e+002
8.707041e+002, 1.273312e+002
8.711862e+002, 1.260772e+002
8.716683e+002, 1.268070e+002
8.721505e+002, 1.277055e+002
8.726326e+002, 1.278912e+002
8.731147e+002, 1.276607e+002
8.735968e+002, 1.274962e+002
8.740789e+002, 1.274150e+002
8.745610e+002, 1.273056e+002
8.750432e+002, 1.270811e+002
8.755253e+002, 1.269446e+002
8.760074e+002, 1.271781e+002
8.764895e+002, 1.273303e+002
8.769716e+002, 1.267140e+002
8.774537e+002, 1.256413e+002
8.779359e+002, 1.253717e+002
8.784180e+002, 1.267271e+002
8.789001e+002, 1.279640e+002
8.793822e+002, 1.278534e+002
8.798643e+002, 1.271745e+002
8.803464e+002, 1.267296e+002
8.808286e+002, 1.265164e+002
8.813107e+002, 1.262198e+002
8.817928e+002, 1.257474e+002
8.822749e+002, 1.254661e+002
8.827570e+002, 1.258889e+002
8.832391e+002, 1.267620e+002
8.837213e+002, 1.272905e+002
8.842034e+002, 1.274886e+002
8.846855e+002, 1.275907e+002
8.851676e+002, 1.276586e+002
8.856497e+002, 1.275332e+002
8.861318e+002, 1.270019e+002
8.866140e+002, 1.262807e+002
8.870961e+002, 1.261819e+002
8.875782e+002, 1.272263e+002
8.880603e+002, 1.275186e+002
8.885424e+002, 1.263223e+002
8.890245e+002, 1.253749e+002
8.895067e+002, 1.255870e+002
8.899888e+002, 1.262812e+002
8.904709e+002, 1.268046e+002
8.909530e+002, 1.271219e+002
8.914351e+002, 1.270481e+002
8.919172e+002, 1.259966e+002
8.923994e+002, 1.252289e+002
8.928815e+002, 1.254760e+002
8.933636e+002, 1.260813e+002
8.938457e+002, 1.265166e+002
8.943278e+002, 1.267043e+002
8.948099e+002, 1.266766e+002
8.952921e+002, 1.264354e+002
8.957742e+002, 1.260872e+002
8.962563e+002, 1.255255e+002
8.967384e+002, 1.250327e+002
8.972205e+002, 1.253838e+002
8.977026e+002, 1.263023e+002
8.981848e+002, 1.264432e+002
8.986669e+002, 1.254350e+002
8.991490e+002, 1.245512e+002
8.996311e+002, 1.251303e+002
9.001132e+002, 1.266952e+002
9.005953e+002, 1.273430e+002
9.010775e+002, 1.269697e+002
9.015596e+002, 1.269059e+002
9.020417e+002, 1.274562e+002
9.025238e+002, 1.278830e+002
9.030059e+002, 1.275816e+002
9.034880e+002, 1.270535e+002
9.039702e+002, 1.274581e+002
9.044523e+002, 1.292845e+002
9.049344e+002, 1.300597e+002
9.054165e+002, 1.289215e+002
9.058986e+002, 1.278450e+002
9.063807e+002, 1.271340e+002
9.068629e+002, 1.267577e+002
9.073450e+002, 1.267774e+002
9.078271e+002, 1.271130e+002
9.083092e+002, 1.274947e+002
9.087913e+002, 1.279606e+002
9.092734e+002, 1.282472e+002
9.097556e+002, 1.280922e+002
9.102377e+002, 1.278358e+002
9.107198e+002, 1.278626e+002
9.112019e+002, 1.280047e+002
9.116840e+002, 1.278150e+002
9.121661e+002, 1.271997e+002
9.126483e+002, 1.266371e+002
9.131304e+002, 1.265531e+002
9.136125e+002, 1.267399e+002
9.140946e+002, 1.268350e+002
9.145767e+002, 1.269149e+002
9.150588e+002, 1.273390e+002
9.155410e+002, 1.281144e+002
9.160231e+002, 1.286340e+002
9.165052e+002, 1.284816e+002
9.169873e+002, 1.280509e+002
9.174694e+002, 1.281521e+002
9.179515e+002, 1.288112e+002
9.184337e+002, 1.293627e+002
9.189158e+002, 1.298989e+002
9.193979e+002, 1.298035e+002
9.198800e+002, 1.285802e+002
9.203621e+002, 1.272138e+002
9.208442e+002, 1.267609e+002
9.213264e+002, 1.271424e+002
9.218085e+002, 1.275327e+002
9.222906e+002, 1.280751e+002
9.227727e+002, 1.283927e+002
9.232548e+002, 1.284071e+002
9.237369e+002, 1.282733e+002
9.242191e+002, 1.280057e+002
9.247012e+002, 1.276610e+002
9.251833e+002, 1.272962e+002
9.256654e+002, 1.269144e+002
9.261475e+002, 1.266116e+002
9.266296e+002, 1.262792e+002
9.271118e+002, 1.261972e+002
9.275939e+002, 1.266613e+002
9.280760e+002, 1.273405e+002
9.285581e+002, 1.278357e+002
9.290402e+002, 1.281961e+002
9.295223e+002, 1.288185e+002
9.300045e+002, 1.299518e+002
9.304866e+002, 1.308916e+002
9.309687e+002, 1.309351e+002
9.314508e+002, 1.304167e+002
9.319329e+002, 1.293872e+002
9.324150e+002, 1.282791e+002
9.328972e+002, 1.286770e+002
9.333793e+002, 1.308328e+002
9.338614e+002, 1.327153e+002
9.343435e+002, 1.324411e+002
9.348256e+002, 1.309205e+002
9.353077e+002, 1.304384e+002
9.357899e+002, 1.309115e+002
9.362720e+002, 1.310385e+002
9.367541e+002, 1.306398e+002
9.372362e+002, 1.304734e+002
9.377183e+002, 1.310393e+002
9.382004e+002, 1.315916e+002
9.386826e+002, 1.308057e+002
9.391647e+002, 1.286191e+002
9.396468e+002, 1.281612e+002
9.401289e+002, 1.304769e+002
9.406110e+002, 1.319459e+002
9.410931e+002, 1.312923e+002
9.415753e+002, 1.304014e+002
9.420574e+002, 1.307128e+002
9.425395e+002, 1.317645e+002
9.430216e+002, 1.322354e+002
9.435037e+002, 1.317878e+002
9.439858e+002, 1.317875e+002
9.444680e+002, 1.327846e+002
9.449501e+002, 1.337091e+002
9.454322e+002, 1.339803e+002
9.459143e+002, 1.341178e+002
9.463964e+002, 1.346484e+002
9.468785e+002, 1.355765e+002
9.473607e+002, 1.366579e+002
9.478428e+002, 1.379827e+002
9.483249e+002, 1.390934e+002
9.488070e+002, 1.396852e+002
9.492891e+002, 1.399955e+002
9.497712e+002, 1.400042e+002
9.502534e+002, 1.399787e+002
9.507355e+002, 1.404669e+002
9.512176e+002, 1.415531e+002
9.516997e+002, 1.426396e+002
9.521818e+002, 1.430933e+002
9.526639e+002, 1.435332e+002
9.531461e+002, 1.450905e+002
9.536282e+002, 1.472139e+002
9.541103e+002, 1.484487e+002
9.545924e+002, 1.487895e+002
9.550745e+002, 1.493546e+002
9.555566e+002, 1.507079e+002
9.560388e+002, 1.523022e+002
9.565209e+002, 1.533973e+002
9.570030e+002, 1.540936e+002
9.574851e+002, 1.548533e+002
9.579672e+002, 1.556822e+002
9.584493e+002, 1.566592e+002
9.589315e+002, 1.577923e+002
9.594136e+002, 1.592027e+002
9.598957e+002, 1.610033e+002
9.603778e+002, 1.631116e+002
9.608599e+002, 1.653251e+002
9.613420e+002, 1.676319e+002
9.618242e+002, 1.701466e+002
9.623063e+002, 1.732095e+002
9.627884e+002, 1.756348e+002
9.632705e+002, 1.771056e+002
9.637526e+002, 1.776717e+002
9.642347e+002, 1.771556e+002
9.647169e+002, 1.757085e+002
9.651990e+002, 1.744364e+002
9.656811e+002, 1.738801e+002
9.661632e+002, 1.726636e+002
9.666453e+002, 1.705755e+002
9.671274e+002, 1.680710e+002
9.676096e+002, 1.650607e+002
9.680917e+002, 1.618898e+002
9.685738e+002, 1.588313e+002
9.690559e+002, 1.559382e+002
9.695380e+002, 1.537012e+002
9.700201e+002, 1.524624e+002
9.705023e+002, 1.515688e+002
9.709844e+002, 1.509164e+002
9.714665e+002, 1.503960e+002
9.719486e+002, 1.501629e+002
9.724307e+002, 1.499122e+002
9.729128e+002, 1.489087e+002
9.733950e+002, 1.469873e+002
9.738771e+002, 1.453691e+002
9.743592e+002, 1.447268e+002
9.748413e+002, 1.447363e+002
9.753234e+002, 1.453130e+002
9.758055e+002, 1.462418e+002
9.762877e+002, 1.474194e+002
9.767698e+002, 1.486510e+002
9.772519e+002, 1.494365e+002
9.777340e+002, 1.495346e+002
9.782161e+002, 1.493376e+002
9.786982e+002, 1.490486e+002
9.791804e+002, 1.488699e+002
9.796625e+002, 1.492820e+002
9.801446e+002, 1.501506e+002
9.806267e+002, 1.510334e+002
9.811088e+002, 1.518241e+002
9.815909e+002, 1.526251e+002
9.820731e+002, 1.535275e+002
9.825552e+002, 1.543512e+002
9.830373e+002, 1.546780e+002
9.835194e+002, 1.545972e+002
9.840015e+002, 1.547559e+002
9.844836e+002, 1.551755e+002
9.849658e+002, 1.557480e+002
9.854479e+002, 1.564479e+002
9.859300e+002, 1.572400e+002
9.864121e+002, 1.581267e+002
9.868942e+002, 1.590261e+002
9.873763e+002, 1.595333e+002
9.878585e+002, 1.595093e+002
9.883406e+002, 1.600487e+002
9.888227e+002, 1.613204e+002
9.893048e+002, 1.627847e+002
9.897869e+002, 1.642765e+002
9.902690e+002, 1.657513e+002
9.907512e+002, 1.671711e+002
9.912333e+002, 1.685261e+002
9.917154e+002, 1.696581e+002
9.921975e+002, 1.704879e+002
9.926796e+002, 1.712412e+002
9.931617e+002, 1.715811e+002
9.936439e+002, 1.723271e+002
9.941260e+002, 1.738466e+002
9.946081e+002, 1.760229e+002
9.950902e+002, 1.789654e+002
9.955723e+002, 1.827265e+002
9.960544e+002, 1.856823e+002
9.965366e+002, 1.871900e+002
9.970187e+002, 1.887441e+002
9.975008e+002, 1.902690e+002
9.979829e+002, 1.922289e+002
9.984650e+002, 1.952411e+002
9.989471e+002, 1.987581e+002
9.994293e+002, 2.018596e+002
9.999114e+002, 2.044272e+002
1.000393e+003, 2.067022e+002
1.000876e+003, 2.081523e+002
1.001358e+003, 2.100693e+002
1.001840e+003, 2.134525e+002
1.002322e+003, 2.171207e+002
1.002804e+003, 2.200180e+002
1.003286e+003, 2.223312e+002
1.003768e+003, 2.247679e+002
1.004250e+003, 2.275223e+002
1.004733e+003, 2.301683e+002
1.005215e+003, 2.323466e+002
1.005697e+003, 2.344583e+002
1.006179e+003, 2.368853e+002
1.006661e+003, 2.393596e+002
1.007143e+003, 2.416788e+002
1.007625e+003, 2.436904e+002
1.008107e+003, 2.451681e+002
1.008589e+003, 2.460061e+002
1.009072e+003, 2.463256e+002
1.009554e+003, 2.462132e+002
1.010036e+003, 2.456468e+002
1.010518e+003, 2.442255e+002
1.011000e+003, 2.424608e+002
1.011482e+003, 2.417852e+002
1.011964e+003, 2.419755e+002
1.012446e+003, 2.408204e+002
1.012929e+003, 2.369785e+002
1.013411e+003, 2.325048e+002
1.013893e+003, 2.300732e+002
1.014375e+003, 2.286803e+002
1.014857e+003, 2.261562e+002
1.015339e+003, 2.228173e+002
1.015821e+003, 2.199380e+002
1.016303e+003, 2.177887e+002
1.016785e+003, 2.159037e+002
1.017268e+003, 2.140056e+002
1.017750e+003, 2.119357e+002
1.018232e+003, 2.090638e+002
1.018714e+003, 2.057735e+002
1.019196e+003, 2.037486e+002
1.019678e+003, 2.029341e+002
1.020160e+003, 2.024387e+002
1.020642e+003, 2.020043e+002
1.021125e+003, 2.010809e+002
1.021607e+003, 1.990247e+002
1.022089e+003, 1.968924e+002
1.022571e+003, 1.972510e+002
1.023053e+003, 1.999917e+002
1.023535e+003, 2.032387e+002
1.024017e+003, 2.069866e+002
1.024499e+003, 2.095586e+002
1.024981e+003, 2.103035e+002
1.025464e+003, 2.106454e+002
1.025946e+003, 2.117791e+002
1.026428e+003, 2.136679e+002
1.026910e+003, 2.163550e+002
1.027392e+003, 2.199671e+002
1.027874e+003, 2.230668e+002
1.028356e+003, 2.254256e+002
1.028838e+003, 2.282947e+002
1.029321e+003, 2.324273e+002
1.029803e+003, 2.362805e+002
1.030285e+003, 2.383438e+002
1.030767e+003, 2.389019e+002
1.031249e+003, 2.393013e+002
1.031731e+003, 2.397764e+002
1.032213e+003, 2.391094e+002
1.032695e+003, 2.368993e+002
1.033177e+003, 2.344939e+002
1.033660e+003, 2.324714e+002
1.034142e+003, 2.303112e+002
1.034624e+003, 2.274648e+002
1.035106e+003, 2.239911e+002
1.035588e+003, 2.203839e+002
1.036070e+003, 2.166190e+002
1.036552e+003, 2.127476e+002
1.037034e+003, 2.084392e+002
1.037516e+003, 2.046190e+002
1.037999e+003, 2.019926e+002
1.038481e+003, 1.996734e+002
1.038963e+003, 1.966484e+002
1.039445e+003, 1.930452e+002
1.039927e+003, 1.898535e+002
1.040409e+003, 1.872387e+002
1.040891e+003, 1.847401e+002
1.041373e+003, 1.822424e+002
1.041855e+003, 1.800192e+002
1.042338e+003, 1.781682e+002
1.042820e+003, 1.766646e+002
1.043302e+003, 1.756215e+002
1.043784e+003, 1.749634e+002
1.044266e+003, 1.740793e+002
1.044748e+003, 1.729078e+002
1.045230e+003, 1.715904e+002
1.045712e+003, 1.695645e+002
1.046195e+003, 1.680852e+002
1.046677e+003, 1.680157e+002
1.047159e+003, 1.684755e+002
1.047641e+003, 1.688499e+002
1.048123e+003, 1.689644e+002
1.048605e+003, 1.679510e+002
1.049087e+003, 1.643623e+002
1.049569e+003, 1.621030e+002
1.050052e+003, 1.625751e+002
1.050534e+003, 1.634972e+002
1.051016e+003, 1.644153e+002
1.051498e+003, 1.648328e+002
1.051980e+003, 1.638065e+002
1.052462e+003, 1.616716e+002
1.052944e+003, 1.605299e+002
1.053426e+003, 1.615083e+002
1.053908e+003, 1.619467e+002
1.054391e+003, 1.606589e+002
1.054873e+003, 1.593737e+002
1.055355e+003, 1.592060e+002
1.055837e+003, 1.593433e+002
1.056319e+003, 1.587116e+002
1.056801e+003, 1.574193e+002
1.057283e+003, 1.564557e+002
1.057765e+003, 1.561445e+002
1.058248e+003, 1.559643e+002
1.058730e+003, 1.562269e+002
1.059212e+003, 1.560528e+002
1.059694e+003, 1.543799e+002
1.060176e+003, 1.524032e+002
1.060658e+003, 1.513881e+002
1.061140e+003, 1.513846e+002
1.061622e+003, 1.520717e+002
1.062104e+003, 1.539545e+002
1.062587e+003, 1.548208e+002
1.063069e+003, 1.529736e+002
1.063551e+003, 1.509057e+002
1.064033e+003, 1.502094e+002
1.064515e+003, 1.499863e+002
1.064997e+003, 1.490991e+002
1.065479e+003, 1.476208e+002
1.065961e+003, 1.462699e+002
1.066443e+003, 1.452012e+002
1.066926e+003, 1.444701e+002
1.067408e+003, 1.440881e+002
1.067890e+003, 1.440626e+002
1.068372e+003, 1.449727e+002
1.068854e+003, 1.458247e+002
1.069336e+003, 1.450594e+002
1.069818e+003, 1.432178e+002
1.070300e+003, 1.425566e+002
1.070782e+003, 1.440795e+002
1.071265e+003, 1.450119e+002
1.071747e+003, 1.434622e+002
1.072229e+003, 1.417328e+002
1.072711e+003, 1.410999e+002
1.073193e+003, 1.411037e+002
1.073675e+003, 1.414671e+002
1.074157e+003, 1.419378e+002
1.074639e+003, 1.419679e+002
1.075122e+003, 1.413123e+002
1.075604e+003, 1.409520e+002
1.076086e+003, 1.416493e+002
1.076568e+003, 1.423994e+002
1.077050e+003, 1.424731e+002
1.077532e+003, 1.424152e+002
1.078014e+003, 1.430547e+002
1.078496e+003, 1.440104e+002
1.078979e+003, 1.440716e+002
1.079461e+003, 1.428690e+002
1.079943e+003, 1.419863e+002
1.080425e+003, 1.423831e+002
1.080907e+003, 1.430086e+002
1.081389e+003, 1.434400e+002
1.081871e+003, 1.436940e+002
1.082353e+003, 1.436461e+002
1.082835e+003, 1.434909e+002
1.083318e+003, 1.436497e+002
1.083800e+003, 1.442124e+002
1.084282e+003, 1.447363e+002
1.084764e+003, 1.447574e+002
1.085246e+003, 1.450460e+002
1.085728e+003, 1.463009e+002
1.086210e+003, 1.476998e+002
1.086692e+003, 1.485120e+002
1.087175e+003, 1.489445e+002
1.087657e+003, 1.494540e+002
1.088139e+003, 1.501198e+002
1.088621e+003, 1.507242e+002
1.089103e+003, 1.506998e+002
1.089585e+003, 1.512715e+002
1.090067e+003, 1.542019e+002
1.090549e+003, 1.567051e+002
1.091031e+003, 1.559241e+002
1.091514e+003, 1.536523e+002
1.091996e+003, 1.527785e+002
1.092478e+003, 1.535577e+002
1.092960e+003, 1.542518e+002
1.093442e+003, 1.543214e+002
1.093924e+003, 1.541494e+002
1.094406e+003, 1.540051e+002
1.094888e+003, 1.535275e+002
1.095370e+003, 1.523024e+002
1.095853e+003, 1.507215e+002
1.096335e+003, 1.493091e+002
1.096817e+003, 1.480493e+002
1.097299e+003, 1.465175e+002
1.097781e+003, 1.443166e+002
1.098263e+003, 1.425784e+002
1.098745e+003, 1.421228e+002
1.099227e+003, 1.416777e+002
1.099709e+003, 1.405567e+002
1.100192e+003, 1.391192e+002
1.100674e+003, 1.376356e+002
1.101156e+003, 1.362127e+002
1.101638e+003, 1.349572e+002
1.102120e+003, 1.336682e+002
1.102602e+003, 1.333974e+002
1.103084e+003, 1.363904e+002
1.103566e+003, 1.378887e+002
1.104049e+003, 1.345947e+002
1.104531e+003, 1.302934e+002
1.105013e+003, 1.279402e+002
1.105495e+003, 1.272264e+002
1.105977e+003, 1.269852e+002
1.106459e+003, 1.271127e+002
1.106941e+003, 1.274421e+002
1.107423e+003, 1.280026e+002
1.107906e+003, 1.286841e+002
1.108388e+003, 1.299487e+002
1.108870e+003, 1.308230e+002
1.109352e+003, 1.305689e+002
1.109834e+003, 1.295315e+002
1.110316e+003, 1.280541e+002
1.110798e+003, 1.260911e+002
1.111280e+003, 1.251886e+002
1.111762e+003, 1.265279e+002
1.112245e+003, 1.273290e+002
1.112727e+003, 1.267609e+002
1.113209e+003, 1.261515e+002
1.113691e+003, 1.261557e+002
1.114173e+003, 1.264688e+002
1.114655e+003, 1.268357e+002
1.115137e+003, 1.272203e+002
1.115619e+003, 1.271526e+002
1.116102e+003, 1.261125e+002
1.116584e+003, 1.255564e+002
1.117066e+003, 1.261123e+002
1.117548e+003, 1.262197e+002
1.118030e+003, 1.247477e+002
1.118512e+003, 1.232552e+002
1.118994e+003, 1.234519e+002
1.119476e+003, 1.248307e+002
1.119958e+003, 1.252677e+002
1.120441e+003, 1.241740e+002
1.120923e+003, 1.241079e+002
1.121405e+003, 1.258503e+002
1.121887e+003, 1.268560e+002
1.122369e+003, 1.261276e+002
1.122851e+003, 1.251421e+002
1.123333e+003, 1.249983e+002
1.123815e+003, 1.253372e+002
1.124297e+003, 1.253340e+002
1.124780e+003, 1.249372e+002
1.125262e+003, 1.249693e+002
1.125744e+003, 1.257486e+002
1.126226e+003, 1.256384e+002
1.126708e+003, 1.240205e+002
1.127190e+003, 1.226348e+002
1.127672e+003, 1.224920e+002
1.128154e+003, 1.229756e+002
1.128636e+003, 1.232394e+002
1.129119e+003, 1.232888e+002
1.129601e+003, 1.231165e+002
1.130083e+003, 1.226809e+002
1.130565e+003, 1.225289e+002
1.131047e+003, 1.227661e+002
1.131529e+003, 1.227356e+002
1.132011e+003, 1.221144e+002
1.132493e+003, 1.216030e+002
1.132976e+003, 1.220004e+002
1.133458e+003, 1.228617e+002
1.133940e+003, 1.227767e+002
1.134422e+003, 1.218489e+002
1.134904e+003, 1.212689e+002
1.135386e+003, 1.211113e+002
1.135868e+003, 1.219864e+002
1.136350e+003, 1.240231e+002
1.136833e+003, 1.254497e+002
1.137315e+003, 1.249565e+002
1.137797e+003, 1.235361e+002
1.138279e+003, 1.228072e+002
1.138761e+003, 1.225537e+002
1.139243e+003, 1.218049e+002
1.139725e+003, 1.208327e+002
1.140207e+003, 1.211419e+002
1.140689e+003, 1.227031e+002
1.141172e+003, 1.234924e+002
1.141654e+003, 1.225661e+002
1.142136e+003, 1.216704e+002
1.142618e+003, 1.231633e+002
1.143100e+003, 1.253117e+002
1.143582e+003, 1.246612e+002
1.144064e+003, 1.226578e+002
1.144546e+003, 1.225217e+002
1.145029e+003, 1.239060e+002
1.145511e+003, 1.245526e+002
1.145993e+003, 1.239184e+002
1.146475e+003, 1.235906e+002
1.146957e+003, 1.249034e+002
1.147439e+003, 1.262882e+002
1.147921e+003, 1.259743e+002
1.148403e+003, 1.250458e+002
1.148885e+003, 1.246648e+002
1.149368e+003, 1.247224e+002
1.149850e+003, 1.251888e+002
1.150332e+003, 1.257647e+002
1.150814e+003, 1.253953e+002
1.151296e+003, 1.234423e+002
1.151778e+003, 1.217756e+002
1.152260e+003, 1.215367e+002
1.152742e+003, 1.219516e+002
1.153224e+003, 1.229696e+002
1.153707e+003, 1.239809e+002
1.154189e+003, 1.244624e+002
1.154671e+003, 1.243975e+002
1.155153e+003, 1.236501e+002
1.155635e+003, 1.221774e+002
1.156117e+003, 1.214927e+002
1.156599e+003, 1.227236e+002
1.157081e+003, 1.238830e+002
1.157563e+003, 1.241341e+002
1.158046e+003, 1.243685e+002
1.158528e+003, 1.257197e+002
1.159010e+003, 1.270160e+002
1.159492e+003, 1.262474e+002
1.159974e+003, 1.236902e+002
1.160456e+003, 1.223665e+002
1.160938e+003, 1.232439e+002
1.161420e+003, 1.239497e+002
1.161903e+003, 1.244804e+002
1.162385e+003, 1.246947e+002
1.162867e+003, 1.242626e+002
1.163349e+003, 1.238391e+002
1.163831e+003, 1.239902e+002
1.164313e+003, 1.244942e+002
1.164795e+003, 1.248581e+002
1.165277e+003, 1.251219e+002
1.165760e+003, 1.248156e+002
1.166242e+003, 1.235465e+002
1.166724e+003, 1.229842e+002
1.167206e+003, 1.234749e+002
1.167688e+003, 1.244727e+002
1.168170e+003, 1.258565e+002
1.168652e+003, 1.271768e+002
1.169134e+003, 1.278545e+002
1.169616e+003, 1.279652e+002
1.170099e+003, 1.277165e+002
1.170581e+003, 1.270988e+002
1.171063e+003, 1.270669e+002
1.171545e+003, 1.276840e+002
1.172027e+003, 1.281139e+002
1.172509e+003, 1.281018e+002
1.172991e+003, 1.280802e+002
1.173473e+003, 1.284215e+002
1.173956e+003, 1.287007e+002
1.174438e+003, 1.278579e+002
1.174920e+003, 1.264362e+002
1.175402e+003, 1.263214e+002
1.175884e+003, 1.272170e+002
1.176366e+003, 1.281673e+002
1.176848e+003, 1.289398e+002
1.177330e+003, 1.292572e+002
1.177813e+003, 1.290251e+002
1.178295e+003, 1.287892e+002
1.178777e+003, 1.289990e+002
1.179259e+003, 1.295143e+002
1.179741e+003, 1.301943e+002
1.180223e+003, 1.310420e+002
1.180705e+003, 1.323892e+002
1.181187e+003, 1.337826e+002
1.181669e+003, 1.343006e+002
1.182151e+003, 1.338201e+002
1.182634e+003, 1.326815e+002
1.183116e+003, 1.307042e+002
1.183598e+003, 1.293774e+002
1.184080e+003, 1.298457e+002
1.184562e+003, 1.309505e+002
1.185044e+003, 1.325112e+002
1.185526e+003, 1.338168e+002
1.186008e+003, 1.339722e+002
1.186490e+003, 1.333600e+002
1.186973e+003, 1.329698e+002
1.187455e+003, 1.329729e+002
1.187937e+003, 1.330113e+002
1.188419e+003, 1.330707e+002
1.188901e+003, 1.330762e+002
1.189383e+003, 1.330128e+002
1.189865e+003, 1.328930e+002
1.190347e+003, 1.324436e+002
1.190830e+003, 1.321660e+002
1.191312e+003, 1.327555e+002
1.191794e+003, 1.339999e+002
1.192276e+003, 1.348738e+002
1.192758e+003, 1.354104e+002
1.193240e+003, 1.353608e+002
1.193722e+003, 1.342740e+002
1.194204e+003, 1.341050e+002
1.194687e+003, 1.357244e+002
1.195169e+003, 1.369244e+002
1.195651e+003, 1.361731e+002
1.196133e+003, 1.345879e+002
1.196615e+003, 1.339445e+002
1.197097e+003, 1.340842e+002
1.197579e+003, 1.340074e+002
1.198061e+003, 1.337344e+002
1.198543e+003, 1.337141e+002
1.199026e+003, 1.339654e+002
1.199508e+003, 1.341174e+002
1.199990e+003, 1.340446e+002
1.200472e+003, 1.338451e+002
1.200954e+003, 1.335810e+002
1.201436e+003, 1.333095e+002
1.201918e+003, 1.333416e+002
1.202400e+003, 1.332953e+002
1.202883e+003, 1.318862e+002
1.203365e+003, 1.299548e+002
1.203847e+003, 1.296767e+002
1.204329e+003, 1.308938e+002
1.204811e+003, 1.319873e+002
1.205293e+003, 1.323345e+002
1.205775e+003, 1.320479e+002
1.206257e+003, 1.307520e+002
1.206740e+003, 1.294801e+002
1.207222e+003, 1.286965e+002
1.207704e+003, 1.285516e+002
1.208186e+003, 1.297151e+002
1.208668e+003, 1.312893e+002
1.209150e+003, 1.319602e+002
1.209632e+003, 1.317367e+002
1.210114e+003, 1.314658e+002
1.210596e+003, 1.312494e+002
1.211078e+003, 1.312737e+002
1.211561e+003, 1.319333e+002
1.212043e+003, 1.323439e+002
1.212525e+003, 1.319555e+002
1.213007e+003, 1.315486e+002
1.213489e+003, 1.319647e+002
1.213971e+003, 1.324099e+002
1.214453e+003, 1.314370e+002
1.214935e+003, 1.291707e+002
1.215417e+003, 1.279327e+002
1.215900e+003, 1.278738e+002
1.216382e+003, 1.283776e+002
1.216864e+003, 1.296045e+002
1.217346e+003, 1.305242e+002
1.217828e+003, 1.307840e+002
1.218310e+003, 1.308375e+002
1.218792e+003, 1.310484e+002
1.219274e+003, 1.312030e+002
1.219757e+003, 1.307547e+002
1.220239e+003, 1.299332e+002
1.220721e+003, 1.299139e+002
1.221203e+003, 1.305501e+002
1.221685e+003, 1.312569e+002
1.222167e+003, 1.318716e+002
1.222649e+003, 1.319037e+002
1.223131e+003, 1.312629e+002
1.223614e+003, 1.308465e+002
1.224096e+003, 1.313200e+002
1.224578e+003, 1.323507e+002
1.225060e+003, 1.343311e+002
1.225542e+003, 1.359862e+002
1.226024e+003, 1.354431e+002
1.226506e+003, 1.337062e+002
1.226988e+003, 1.320843e+002
1.227470e+003, 1.308865e+002
1.227953e+003, 1.302782e+002
1.228435e+003, 1.303246e+002
1.228917e+003, 1.305520e+002
1.229399e+003, 1.310268e+002
1.229881e+003, 1.312953e+002
1.230363e+003, 1.308392e+002
1.230845e+003, 1.305584e+002
1.231327e+003, 1.313637e+002
1.231810e+003, 1.323486e+002
1.232292e+003, 1.323519e+002
1.232774e+003, 1.315932e+002
1.233256e+003, 1.309590e+002
1.233738e+003, 1.304738e+002
1.234220e+003, 1.299698e+002
1.234702e+003, 1.293042e+002
1.235184e+003, 1.291792e+002
1.235667e+003, 1.299237e+002
1.236149e+003, 1.303956e+002
1.236631e+003, 1.299454e+002
1.237113e+003, 1.292163e+002
1.237595e+003, 1.289248e+002
1.238077e+003, 1.290478e+002
1.238559e+003, 1.296547e+002
1.239041e+003, 1.306164e+002
1.239523e+003, 1.314272e+002
1.240005e+003, 1.319688e+002
1.240488e+003, 1.315589e+002
1.240970e+003, 1.302864e+002
1.241452e+003, 1.295016e+002
1.241934e+003, 1.298711e+002
1.242416e+003, 1.304770e+002
1.242898e+003, 1.304254e+002
1.243380e+003, 1.302553e+002
1.243862e+003, 1.304642e+002
1.244344e+003, 1.308891e+002
1.244827e+003, 1.315027e+002
1.245309e+003, 1.321114e+002
1.245791e+003, 1.325749e+002
1.246273e+003, 1.327672e+002
1.246755e+003, 1.321242e+002
1.247237e+003, 1.298890e+002
1.247719e+003, 1.289592e+002
1.248201e+003, 1.314023e+002
1.248684e+003, 1.332383e+002
1.249166e+003, 1.328954e+002
1.249648e+003, 1.320674e+002
1.250130e+003, 1.314009e+002
1.250612e+003, 1.311131e+002
1.251094e+003, 1.316823e+002
1.251576e+003, 1.328812e+002
1.252058e+003, 1.331363e+002
1.252541e+003, 1.322619e+002
1.253023e+003, 1.318545e+002
1.253505e+003, 1.320091e+002
1.253987e+003, 1.318630e+002
1.254469e+003, 1.312011e+002
1.254951e+003, 1.309322e+002
1.255433e+003, 1.315990e+002
1.255915e+003, 1.325480e+002
1.256397e+003, 1.330743e+002
1.256880e+003, 1.332210e+002
1.257362e+003, 1.326543e+002
1.257844e+003, 1.320001e+002
1.258326e+003, 1.329356e+002
1.258808e+003, 1.347230e+002
1.259290e+003, 1.353532e+002
1.259772e+003, 1.346783e+002
1.260254e+003, 1.339738e+002
1.260737e+003, 1.337272e+002
1.261219e+003, 1.337201e+002
1.261701e+003, 1.340738e+002
1.262183e+003, 1.343226e+002
1.262665e+003, 1.341373e+002
1.263147e+003, 1.338755e+002
1.263629e+003, 1.334529e+002
1.264111e+003, 1.333350e+002
1.264594e+003, 1.346760e+002
1.265076e+003, 1.370147e+002
1.265558e+003, 1.375449e+002
1.266040e+003, 1.355015e+002
1.266522e+003, 1.344488e+002
1.267004e+003, 1.346326e+002
1.267486e+003, 1.349801e+002
1.267968e+003, 1.353520e+002
1.268450e+003, 1.355358e+002
1.268932e+003, 1.354002e+002
1.269415e+003, 1.351797e+002
1.269897e+003, 1.351183e+002
1.270379e+003, 1.352092e+002
1.270861e+003, 1.355562e+002
1.271343e+003, 1.360031e+002
1.271825e+003, 1.358761e+002
1.272307e+003, 1.354635e+002
1.272789e+003, 1.357793e+002
1.273271e+003, 1.368013e+002
1.273754e+003, 1.376688e+002
1.274236e+003, 1.380666e+002
1.274718e+003, 1.384841e+002
1.275200e+003, 1.396911e+002
1.275682e+003, 1.403338e+002
1.276164e+003, 1.387770e+002
1.276646e+003, 1.372917e+002
1.277128e+003, 1.378412e+002
1.277611e+003, 1.391157e+002
1.278093e+003, 1.398755e+002
1.278575e+003, 1.399561e+002
1.279057e+003, 1.388011e+002
1.279539e+003, 1.360361e+002
1.280021e+003, 1.353402e+002
1.280503e+003, 1.377014e+002
1.280985e+003, 1.391757e+002
1.281468e+003, 1.391479e+002
1.281950e+003, 1.393180e+002
1.282432e+003, 1.404100e+002
1.282914e+003, 1.411714e+002
1.283396e+003, 1.404224e+002
1.283878e+003, 1.393204e+002
1.284360e+003, 1.402884e+002
1.284842e+003, 1.424565e+002
1.285324e+003, 1.433905e+002
##END=



