##NAMES=Krausite
##RRUFFID=R110211
##IDEAL CHEMISTRY=KFe^3+^(S^6+^O_4_)_2_&#183;H_2_O
##LOCALITY=Mina Alcaparrosa, Cerritos Bayos, Calama, Atacama, II Region, Chile
##OWNER=RRUFF
##SOURCE=Gunnar Farber
##DESCRIPTION=Aggregates of colorless bladed crystals associated with pertlikite R110209 and coquimbite R110210
##STATUS=The identification of this mineral has been confirmed only by single crystal X-ray diffraction.
##URL=rruff.info/R110211
9.112140e+001, 0.000000e+000
9.160352e+001, 2.052038e+002
9.208563e+001, 2.012744e+002
9.256775e+001, 2.008163e+002
9.304987e+001, 2.057678e+002
9.353198e+001, 2.116207e+002
9.401410e+001, 2.144554e+002
9.449622e+001, 2.146378e+002
9.497833e+001, 2.135562e+002
9.546045e+001, 2.122178e+002
9.594257e+001, 2.105695e+002
9.642468e+001, 2.094983e+002
9.690680e+001, 2.093512e+002
9.738892e+001, 2.095450e+002
9.787103e+001, 2.099348e+002
9.835315e+001, 2.102419e+002
9.883527e+001, 2.104005e+002
9.931738e+001, 2.109682e+002
9.979950e+001, 2.121640e+002
1.002816e+002, 2.133378e+002
1.007637e+002, 2.142977e+002
1.012458e+002, 2.152654e+002
1.017280e+002, 2.165574e+002
1.022101e+002, 2.183028e+002
1.026922e+002, 2.200347e+002
1.031743e+002, 2.209719e+002
1.036564e+002, 2.212081e+002
1.041385e+002, 2.209810e+002
1.046207e+002, 2.202827e+002
1.051028e+002, 2.191603e+002
1.055849e+002, 2.177787e+002
1.060670e+002, 2.162190e+002
1.065491e+002, 2.142408e+002
1.070313e+002, 2.116568e+002
1.075134e+002, 2.083984e+002
1.079955e+002, 2.047964e+002
1.084776e+002, 2.011099e+002
1.089597e+002, 1.972769e+002
1.094418e+002, 1.935849e+002
1.099240e+002, 1.902784e+002
1.104061e+002, 1.870491e+002
1.108882e+002, 1.836472e+002
1.113703e+002, 1.799577e+002
1.118524e+002, 1.761464e+002
1.123345e+002, 1.726369e+002
1.128167e+002, 1.693027e+002
1.132988e+002, 1.665324e+002
1.137809e+002, 1.645927e+002
1.142630e+002, 1.631580e+002
1.147451e+002, 1.618044e+002
1.152272e+002, 1.602737e+002
1.157094e+002, 1.585733e+002
1.161915e+002, 1.571167e+002
1.166736e+002, 1.555954e+002
1.171557e+002, 1.545459e+002
1.176378e+002, 1.543711e+002
1.181199e+002, 1.549027e+002
1.186021e+002, 1.555659e+002
1.190842e+002, 1.558595e+002
1.195663e+002, 1.557527e+002
1.200484e+002, 1.559460e+002
1.205305e+002, 1.566059e+002
1.210126e+002, 1.574535e+002
1.214948e+002, 1.581898e+002
1.219769e+002, 1.587513e+002
1.224590e+002, 1.594450e+002
1.229411e+002, 1.607480e+002
1.234232e+002, 1.624921e+002
1.239053e+002, 1.641582e+002
1.243875e+002, 1.653197e+002
1.248696e+002, 1.662537e+002
1.253517e+002, 1.677468e+002
1.258338e+002, 1.700956e+002
1.263159e+002, 1.727912e+002
1.267980e+002, 1.753311e+002
1.272802e+002, 1.777938e+002
1.277623e+002, 1.805155e+002
1.282444e+002, 1.838892e+002
1.287265e+002, 1.879694e+002
1.292086e+002, 1.919710e+002
1.296907e+002, 1.958893e+002
1.301729e+002, 1.996797e+002
1.306550e+002, 2.032527e+002
1.311371e+002, 2.066209e+002
1.316192e+002, 2.099013e+002
1.321013e+002, 2.133536e+002
1.325834e+002, 2.176311e+002
1.330656e+002, 2.207309e+002
1.335477e+002, 2.223600e+002
1.340298e+002, 2.232023e+002
1.345119e+002, 2.236761e+002
1.349940e+002, 2.239452e+002
1.354761e+002, 2.240317e+002
1.359583e+002, 2.239733e+002
1.364404e+002, 2.235091e+002
1.369225e+002, 2.232245e+002
1.374046e+002, 2.232487e+002
1.378867e+002, 2.234514e+002
1.383688e+002, 2.236484e+002
1.388510e+002, 2.237520e+002
1.393331e+002, 2.238047e+002
1.398152e+002, 2.239365e+002
1.402973e+002, 2.240929e+002
1.407794e+002, 2.243718e+002
1.412615e+002, 2.249776e+002
1.417437e+002, 2.258071e+002
1.422258e+002, 2.263564e+002
1.427079e+002, 2.261036e+002
1.431900e+002, 2.255366e+002
1.436721e+002, 2.256764e+002
1.441542e+002, 2.268702e+002
1.446364e+002, 2.284119e+002
1.451185e+002, 2.295662e+002
1.456006e+002, 2.302453e+002
1.460827e+002, 2.310688e+002
1.465648e+002, 2.325299e+002
1.470469e+002, 2.342601e+002
1.475291e+002, 2.359458e+002
1.480112e+002, 2.375523e+002
1.484933e+002, 2.389746e+002
1.489754e+002, 2.399787e+002
1.494575e+002, 2.405376e+002
1.499396e+002, 2.406568e+002
1.504218e+002, 2.404112e+002
1.509039e+002, 2.398142e+002
1.513860e+002, 2.388997e+002
1.518681e+002, 2.377051e+002
1.523502e+002, 2.362004e+002
1.528323e+002, 2.342116e+002
1.533145e+002, 2.315430e+002
1.537966e+002, 2.284936e+002
1.542787e+002, 2.249594e+002
1.547608e+002, 2.210644e+002
1.552429e+002, 2.169751e+002
1.557250e+002, 2.127661e+002
1.562072e+002, 2.084204e+002
1.566893e+002, 2.043681e+002
1.571714e+002, 2.008238e+002
1.576535e+002, 1.972938e+002
1.581356e+002, 1.933819e+002
1.586177e+002, 1.892027e+002
1.590999e+002, 1.852576e+002
1.595820e+002, 1.820494e+002
1.600641e+002, 1.797132e+002
1.605462e+002, 1.772923e+002
1.610283e+002, 1.747275e+002
1.615104e+002, 1.721366e+002
1.619926e+002, 1.695643e+002
1.624747e+002, 1.670254e+002
1.629568e+002, 1.646010e+002
1.634389e+002, 1.624185e+002
1.639210e+002, 1.604664e+002
1.644031e+002, 1.586793e+002
1.648853e+002, 1.570831e+002
1.653674e+002, 1.556386e+002
1.658495e+002, 1.543151e+002
1.663316e+002, 1.530981e+002
1.668137e+002, 1.520206e+002
1.672958e+002, 1.510429e+002
1.677780e+002, 1.501795e+002
1.682601e+002, 1.496106e+002
1.687422e+002, 1.494427e+002
1.692243e+002, 1.496451e+002
1.697064e+002, 1.501421e+002
1.701885e+002, 1.511516e+002
1.706707e+002, 1.521766e+002
1.711528e+002, 1.527759e+002
1.716349e+002, 1.530591e+002
1.721170e+002, 1.534956e+002
1.725991e+002, 1.544923e+002
1.730812e+002, 1.560721e+002
1.735634e+002, 1.577179e+002
1.740455e+002, 1.593402e+002
1.745276e+002, 1.611068e+002
1.750097e+002, 1.630639e+002
1.754918e+002, 1.652270e+002
1.759739e+002, 1.676018e+002
1.764561e+002, 1.701409e+002
1.769382e+002, 1.727845e+002
1.774203e+002, 1.759001e+002
1.779024e+002, 1.798486e+002
1.783845e+002, 1.839223e+002
1.788666e+002, 1.876629e+002
1.793488e+002, 1.910409e+002
1.798309e+002, 1.944324e+002
1.803130e+002, 1.983110e+002
1.807951e+002, 2.029228e+002
1.812772e+002, 2.074986e+002
1.817593e+002, 2.120991e+002
1.822415e+002, 2.166207e+002
1.827236e+002, 2.210384e+002
1.832057e+002, 2.253258e+002
1.836878e+002, 2.293480e+002
1.841699e+002, 2.328777e+002
1.846520e+002, 2.356199e+002
1.851342e+002, 2.383934e+002
1.856163e+002, 2.412934e+002
1.860984e+002, 2.441891e+002
1.865805e+002, 2.470122e+002
1.870626e+002, 2.497575e+002
1.875447e+002, 2.522657e+002
1.880269e+002, 2.541093e+002
1.885090e+002, 2.550780e+002
1.889911e+002, 2.563647e+002
1.894732e+002, 2.583254e+002
1.899553e+002, 2.607589e+002
1.904374e+002, 2.633366e+002
1.909196e+002, 2.660406e+002
1.914017e+002, 2.687508e+002
1.918838e+002, 2.712806e+002
1.923659e+002, 2.735938e+002
1.928480e+002, 2.760154e+002
1.933301e+002, 2.789164e+002
1.938123e+002, 2.820966e+002
1.942944e+002, 2.848735e+002
1.947765e+002, 2.871518e+002
1.952586e+002, 2.887863e+002
1.957407e+002, 2.899114e+002
1.962228e+002, 2.905287e+002
1.967050e+002, 2.903663e+002
1.971871e+002, 2.891006e+002
1.976692e+002, 2.867612e+002
1.981513e+002, 2.839865e+002
1.986334e+002, 2.806705e+002
1.991155e+002, 2.771052e+002
1.995977e+002, 2.735479e+002
2.000798e+002, 2.699937e+002
2.005619e+002, 2.662316e+002
2.010440e+002, 2.619896e+002
2.015261e+002, 2.571771e+002
2.020082e+002, 2.523244e+002
2.024904e+002, 2.473666e+002
2.029725e+002, 2.424561e+002
2.034546e+002, 2.377117e+002
2.039367e+002, 2.331212e+002
2.044188e+002, 2.285012e+002
2.049009e+002, 2.235750e+002
2.053831e+002, 2.181396e+002
2.058652e+002, 2.130551e+002
2.063473e+002, 2.084930e+002
2.068294e+002, 2.041497e+002
2.073115e+002, 1.998310e+002
2.077936e+002, 1.955359e+002
2.082758e+002, 1.914305e+002
2.087579e+002, 1.878460e+002
2.092400e+002, 1.852349e+002
2.097221e+002, 1.821508e+002
2.102042e+002, 1.779932e+002
2.106863e+002, 1.738730e+002
2.111685e+002, 1.706096e+002
2.116506e+002, 1.683256e+002
2.121327e+002, 1.664840e+002
2.126148e+002, 1.642896e+002
2.130969e+002, 1.615085e+002
2.135790e+002, 1.588829e+002
2.140612e+002, 1.564558e+002
2.145433e+002, 1.541513e+002
2.150254e+002, 1.519525e+002
2.155075e+002, 1.498532e+002
2.159896e+002, 1.476905e+002
2.164717e+002, 1.452362e+002
2.169539e+002, 1.422847e+002
2.174360e+002, 1.394902e+002
2.179181e+002, 1.368249e+002
2.184002e+002, 1.343341e+002
2.188823e+002, 1.320749e+002
2.193644e+002, 1.300696e+002
2.198466e+002, 1.282091e+002
2.203287e+002, 1.263750e+002
2.208108e+002, 1.245662e+002
2.212929e+002, 1.227368e+002
2.217750e+002, 1.207099e+002
2.222571e+002, 1.187242e+002
2.227393e+002, 1.171409e+002
2.232214e+002, 1.160768e+002
2.237035e+002, 1.151780e+002
2.241856e+002, 1.140020e+002
2.246677e+002, 1.125769e+002
2.251498e+002, 1.111953e+002
2.256320e+002, 1.099014e+002
2.261141e+002, 1.087045e+002
2.265962e+002, 1.076178e+002
2.270783e+002, 1.066393e+002
2.275604e+002, 1.057840e+002
2.280425e+002, 1.050684e+002
2.285247e+002, 1.044784e+002
2.290068e+002, 1.039980e+002
2.294889e+002, 1.036508e+002
2.299710e+002, 1.034113e+002
2.304531e+002, 1.032513e+002
2.309352e+002, 1.032322e+002
2.314174e+002, 1.031552e+002
2.318995e+002, 1.028129e+002
2.323816e+002, 1.022892e+002
2.328637e+002, 1.018096e+002
2.333458e+002, 1.013392e+002
2.338279e+002, 1.009811e+002
2.343101e+002, 1.011651e+002
2.347922e+002, 1.022940e+002
2.352743e+002, 1.032939e+002
2.357564e+002, 1.033272e+002
2.362385e+002, 1.028027e+002
2.367206e+002, 1.025568e+002
2.372028e+002, 1.031819e+002
2.376849e+002, 1.044697e+002
2.381670e+002, 1.055201e+002
2.386491e+002, 1.061219e+002
2.391312e+002, 1.067980e+002
2.396133e+002, 1.077647e+002
2.400955e+002, 1.089408e+002
2.405776e+002, 1.102304e+002
2.410597e+002, 1.116503e+002
2.415418e+002, 1.131167e+002
2.420239e+002, 1.141545e+002
2.425060e+002, 1.143532e+002
2.429882e+002, 1.146783e+002
2.434703e+002, 1.154230e+002
2.439524e+002, 1.164600e+002
2.444345e+002, 1.176265e+002
2.449166e+002, 1.188569e+002
2.453987e+002, 1.201128e+002
2.458809e+002, 1.211883e+002
2.463630e+002, 1.220310e+002
2.468451e+002, 1.227304e+002
2.473272e+002, 1.230868e+002
2.478093e+002, 1.233798e+002
2.482914e+002, 1.239654e+002
2.487736e+002, 1.250441e+002
2.492557e+002, 1.265263e+002
2.497378e+002, 1.280331e+002
2.502199e+002, 1.295130e+002
2.507020e+002, 1.311026e+002
2.511841e+002, 1.326694e+002
2.516663e+002, 1.343911e+002
2.521484e+002, 1.365130e+002
2.526305e+002, 1.391716e+002
2.531126e+002, 1.421839e+002
2.535947e+002, 1.450401e+002
2.540768e+002, 1.474293e+002
2.545590e+002, 1.500077e+002
2.550411e+002, 1.528321e+002
2.555232e+002, 1.558582e+002
2.560053e+002, 1.590353e+002
2.564874e+002, 1.623325e+002
2.569695e+002, 1.658107e+002
2.574517e+002, 1.696116e+002
2.579338e+002, 1.745139e+002
2.584159e+002, 1.788077e+002
2.588980e+002, 1.824766e+002
2.593801e+002, 1.855439e+002
2.598622e+002, 1.881043e+002
2.603444e+002, 1.901836e+002
2.608265e+002, 1.916765e+002
2.613086e+002, 1.923803e+002
2.617907e+002, 1.921245e+002
2.622728e+002, 1.911799e+002
2.627549e+002, 1.896518e+002
2.632371e+002, 1.873819e+002
2.637192e+002, 1.840300e+002
2.642013e+002, 1.795289e+002
2.646834e+002, 1.744556e+002
2.651655e+002, 1.696194e+002
2.656476e+002, 1.650796e+002
2.661298e+002, 1.607329e+002
2.666119e+002, 1.564138e+002
2.670940e+002, 1.523562e+002
2.675761e+002, 1.488644e+002
2.680582e+002, 1.459695e+002
2.685403e+002, 1.433774e+002
2.690225e+002, 1.406723e+002
2.695046e+002, 1.377177e+002
2.699867e+002, 1.355616e+002
2.704688e+002, 1.346655e+002
2.709509e+002, 1.343147e+002
2.714330e+002, 1.338943e+002
2.719152e+002, 1.333355e+002
2.723973e+002, 1.329502e+002
2.728794e+002, 1.330414e+002
2.733615e+002, 1.336671e+002
2.738436e+002, 1.344717e+002
2.743257e+002, 1.354965e+002
2.748079e+002, 1.366686e+002
2.752900e+002, 1.378778e+002
2.757721e+002, 1.391361e+002
2.762542e+002, 1.405976e+002
2.767363e+002, 1.423864e+002
2.772184e+002, 1.445189e+002
2.777006e+002, 1.468600e+002
2.781827e+002, 1.496150e+002
2.786648e+002, 1.523985e+002
2.791469e+002, 1.547724e+002
2.796290e+002, 1.568095e+002
2.801111e+002, 1.591589e+002
2.805933e+002, 1.622868e+002
2.810754e+002, 1.660272e+002
2.815575e+002, 1.696573e+002
2.820396e+002, 1.730012e+002
2.825217e+002, 1.764380e+002
2.830038e+002, 1.802152e+002
2.834860e+002, 1.843000e+002
2.839681e+002, 1.885628e+002
2.844502e+002, 1.929722e+002
2.849323e+002, 1.975171e+002
2.854144e+002, 2.021962e+002
2.858965e+002, 2.071388e+002
2.863787e+002, 2.119025e+002
2.868608e+002, 2.158680e+002
2.873429e+002, 2.193535e+002
2.878250e+002, 2.237432e+002
2.883071e+002, 2.299419e+002
2.887892e+002, 2.366075e+002
2.892714e+002, 2.418032e+002
2.897535e+002, 2.454371e+002
2.902356e+002, 2.486707e+002
2.907177e+002, 2.521119e+002
2.911998e+002, 2.555681e+002
2.916819e+002, 2.585748e+002
2.921641e+002, 2.610247e+002
2.926462e+002, 2.629922e+002
2.931283e+002, 2.645938e+002
2.936104e+002, 2.658552e+002
2.940925e+002, 2.666733e+002
2.945746e+002, 2.669715e+002
2.950568e+002, 2.667998e+002
2.955389e+002, 2.661974e+002
2.960210e+002, 2.650921e+002
2.965031e+002, 2.637826e+002
2.969852e+002, 2.623778e+002
2.974673e+002, 2.609435e+002
2.979495e+002, 2.596893e+002
2.984316e+002, 2.588593e+002
2.989137e+002, 2.581853e+002
2.993958e+002, 2.571308e+002
2.998779e+002, 2.555442e+002
3.003600e+002, 2.542660e+002
3.008422e+002, 2.540745e+002
3.013243e+002, 2.545552e+002
3.018064e+002, 2.550436e+002
3.022885e+002, 2.552738e+002
3.027706e+002, 2.555778e+002
3.032527e+002, 2.563300e+002
3.037349e+002, 2.575456e+002
3.042170e+002, 2.590459e+002
3.046991e+002, 2.608498e+002
3.051812e+002, 2.628625e+002
3.056633e+002, 2.649348e+002
3.061454e+002, 2.670179e+002
3.066276e+002, 2.692278e+002
3.071097e+002, 2.716328e+002
3.075918e+002, 2.742311e+002
3.080739e+002, 2.771121e+002
3.085560e+002, 2.803750e+002
3.090381e+002, 2.838663e+002
3.095203e+002, 2.873871e+002
3.100024e+002, 2.909485e+002
3.104845e+002, 2.945243e+002
3.109666e+002, 2.982421e+002
3.114487e+002, 3.020078e+002
3.119308e+002, 3.052794e+002
3.124130e+002, 3.077438e+002
3.128951e+002, 3.099413e+002
3.133772e+002, 3.126225e+002
3.138593e+002, 3.156505e+002
3.143414e+002, 3.179424e+002
3.148235e+002, 3.189059e+002
3.153057e+002, 3.187455e+002
3.157878e+002, 3.179833e+002
3.162699e+002, 3.166653e+002
3.167520e+002, 3.147126e+002
3.172341e+002, 3.121081e+002
3.177162e+002, 3.088879e+002
3.181984e+002, 3.049450e+002
3.186805e+002, 3.002342e+002
3.191626e+002, 2.947971e+002
3.196447e+002, 2.885752e+002
3.201268e+002, 2.814676e+002
3.206089e+002, 2.741031e+002
3.210911e+002, 2.667313e+002
3.215732e+002, 2.592967e+002
3.220553e+002, 2.517405e+002
3.225374e+002, 2.439841e+002
3.230195e+002, 2.361479e+002
3.235016e+002, 2.283562e+002
3.239838e+002, 2.205621e+002
3.244659e+002, 2.129123e+002
3.249480e+002, 2.053524e+002
3.254301e+002, 1.981042e+002
3.259122e+002, 1.914827e+002
3.263943e+002, 1.854937e+002
3.268765e+002, 1.798810e+002
3.273586e+002, 1.744774e+002
3.278407e+002, 1.692717e+002
3.283228e+002, 1.643390e+002
3.288049e+002, 1.597389e+002
3.292870e+002, 1.553811e+002
3.297692e+002, 1.511581e+002
3.302513e+002, 1.470766e+002
3.307334e+002, 1.431713e+002
3.312155e+002, 1.393910e+002
3.316976e+002, 1.358194e+002
3.321797e+002, 1.327258e+002
3.326619e+002, 1.302592e+002
3.331440e+002, 1.279325e+002
3.336261e+002, 1.252696e+002
3.341082e+002, 1.224315e+002
3.345903e+002, 1.197944e+002
3.350724e+002, 1.175015e+002
3.355546e+002, 1.154762e+002
3.360367e+002, 1.136430e+002
3.365188e+002, 1.120125e+002
3.370009e+002, 1.105452e+002
3.374830e+002, 1.093690e+002
3.379651e+002, 1.082965e+002
3.384473e+002, 1.069597e+002
3.389294e+002, 1.051454e+002
3.394115e+002, 1.033377e+002
3.398936e+002, 1.019962e+002
3.403757e+002, 1.010550e+002
3.408578e+002, 1.000437e+002
3.413400e+002, 9.870245e+001
3.418221e+002, 9.729328e+001
3.423042e+002, 9.623040e+001
3.427863e+002, 9.556400e+001
3.432684e+002, 9.490809e+001
3.437505e+002, 9.407570e+001
3.442327e+002, 9.311362e+001
3.447148e+002, 9.208870e+001
3.451969e+002, 9.095763e+001
3.456790e+002, 8.992110e+001
3.461611e+002, 8.928081e+001
3.466432e+002, 8.897392e+001
3.471254e+002, 8.870412e+001
3.476075e+002, 8.850468e+001
3.480896e+002, 8.824883e+001
3.485717e+002, 8.767957e+001
3.490538e+002, 8.675725e+001
3.495359e+002, 8.596999e+001
3.500181e+002, 8.579147e+001
3.505002e+002, 8.606580e+001
3.509823e+002, 8.604031e+001
3.514644e+002, 8.542204e+001
3.519465e+002, 8.471046e+001
3.524286e+002, 8.425706e+001
3.529108e+002, 8.401292e+001
3.533929e+002, 8.371633e+001
3.538750e+002, 8.320398e+001
3.543571e+002, 8.260296e+001
3.548392e+002, 8.222445e+001
3.553214e+002, 8.209586e+001
3.558035e+002, 8.207764e+001
3.562856e+002, 8.233862e+001
3.567677e+002, 8.263843e+001
3.572498e+002, 8.244814e+001
3.577319e+002, 8.155699e+001
3.582141e+002, 8.048228e+001
3.586962e+002, 7.996895e+001
3.591783e+002, 8.012425e+001
3.596604e+002, 8.014534e+001
3.601425e+002, 7.980404e+001
3.606246e+002, 7.937486e+001
3.611068e+002, 7.913462e+001
3.615889e+002, 7.909916e+001
3.620710e+002, 7.908943e+001
3.625531e+002, 7.896764e+001
3.630352e+002, 7.872805e+001
3.635173e+002, 7.842678e+001
3.639995e+002, 7.800761e+001
3.644816e+002, 7.758720e+001
3.649637e+002, 7.713175e+001
3.654458e+002, 7.671404e+001
3.659279e+002, 7.655375e+001
3.664100e+002, 7.680488e+001
3.668922e+002, 7.729688e+001
3.673743e+002, 7.746318e+001
3.678564e+002, 7.705188e+001
3.683385e+002, 7.669642e+001
3.688206e+002, 7.645962e+001
3.693027e+002, 7.632640e+001
3.697849e+002, 7.630642e+001
3.702670e+002, 7.639695e+001
3.707491e+002, 7.653786e+001
3.712312e+002, 7.666110e+001
3.717133e+002, 7.680997e+001
3.721954e+002, 7.677627e+001
3.726776e+002, 7.639520e+001
3.731597e+002, 7.598506e+001
3.736418e+002, 7.570886e+001
3.741239e+002, 7.558327e+001
3.746060e+002, 7.558224e+001
3.750881e+002, 7.570798e+001
3.755703e+002, 7.595200e+001
3.760524e+002, 7.602929e+001
3.765345e+002, 7.577536e+001
3.770166e+002, 7.554858e+001
3.774987e+002, 7.547377e+001
3.779808e+002, 7.546412e+001
3.784630e+002, 7.533289e+001
3.789451e+002, 7.499187e+001
3.794272e+002, 7.462232e+001
3.799093e+002, 7.469023e+001
3.803914e+002, 7.568305e+001
3.808735e+002, 7.629738e+001
3.813557e+002, 7.634539e+001
3.818378e+002, 7.614416e+001
3.823199e+002, 7.578123e+001
3.828020e+002, 7.535098e+001
3.832841e+002, 7.510897e+001
3.837662e+002, 7.543144e+001
3.842484e+002, 7.646243e+001
3.847305e+002, 7.705038e+001
3.852126e+002, 7.666676e+001
3.856947e+002, 7.633370e+001
3.861768e+002, 7.640650e+001
3.866589e+002, 7.677485e+001
3.871411e+002, 7.717036e+001
3.876232e+002, 7.743240e+001
3.881053e+002, 7.760584e+001
3.885874e+002, 7.784518e+001
3.890695e+002, 7.815163e+001
3.895516e+002, 7.852808e+001
3.900338e+002, 7.905672e+001
3.905159e+002, 7.960294e+001
3.909980e+002, 8.004105e+001
3.914801e+002, 8.033747e+001
3.919622e+002, 8.054922e+001
3.924443e+002, 8.072492e+001
3.929265e+002, 8.085590e+001
3.934086e+002, 8.103193e+001
3.938907e+002, 8.123999e+001
3.943728e+002, 8.152724e+001
3.948549e+002, 8.187782e+001
3.953370e+002, 8.231626e+001
3.958192e+002, 8.292486e+001
3.963013e+002, 8.385901e+001
3.967834e+002, 8.500326e+001
3.972655e+002, 8.595374e+001
3.977476e+002, 8.664654e+001
3.982297e+002, 8.730636e+001
3.987119e+002, 8.805552e+001
3.991940e+002, 8.884232e+001
3.996761e+002, 8.956597e+001
4.001582e+002, 9.012443e+001
4.006403e+002, 9.078529e+001
4.011224e+002, 9.195012e+001
4.016046e+002, 9.358692e+001
4.020867e+002, 9.497472e+001
4.025688e+002, 9.577427e+001
4.030509e+002, 9.636835e+001
4.035330e+002, 9.719019e+001
4.040151e+002, 9.823661e+001
4.044973e+002, 9.942188e+001
4.049794e+002, 1.007805e+002
4.054615e+002, 1.022335e+002
4.059436e+002, 1.036178e+002
4.064257e+002, 1.048899e+002
4.069078e+002, 1.062330e+002
4.073900e+002, 1.078430e+002
4.078721e+002, 1.096583e+002
4.083542e+002, 1.113683e+002
4.088363e+002, 1.128293e+002
4.093184e+002, 1.142848e+002
4.098005e+002, 1.158755e+002
4.102827e+002, 1.175838e+002
4.107648e+002, 1.193087e+002
4.112469e+002, 1.209880e+002
4.117290e+002, 1.226907e+002
4.122111e+002, 1.245975e+002
4.126932e+002, 1.267967e+002
4.131754e+002, 1.289360e+002
4.136575e+002, 1.310084e+002
4.141396e+002, 1.329604e+002
4.146217e+002, 1.346999e+002
4.151038e+002, 1.362231e+002
4.155859e+002, 1.376982e+002
4.160681e+002, 1.393147e+002
4.165502e+002, 1.411055e+002
4.170323e+002, 1.426245e+002
4.175144e+002, 1.435362e+002
4.179965e+002, 1.445681e+002
4.184786e+002, 1.461546e+002
4.189608e+002, 1.480596e+002
4.194429e+002, 1.498864e+002
4.199250e+002, 1.514434e+002
4.204071e+002, 1.526706e+002
4.208892e+002, 1.533816e+002
4.213713e+002, 1.531761e+002
4.218535e+002, 1.530247e+002
4.223356e+002, 1.529282e+002
4.228177e+002, 1.529130e+002
4.232998e+002, 1.531263e+002
4.237819e+002, 1.535091e+002
4.242640e+002, 1.537215e+002
4.247462e+002, 1.533589e+002
4.252283e+002, 1.523691e+002
4.257104e+002, 1.515558e+002
4.261925e+002, 1.510246e+002
4.266746e+002, 1.505712e+002
4.271567e+002, 1.503770e+002
4.276389e+002, 1.501672e+002
4.281210e+002, 1.495270e+002
4.286031e+002, 1.482414e+002
4.290852e+002, 1.464945e+002
4.295673e+002, 1.446701e+002
4.300494e+002, 1.428140e+002
4.305316e+002, 1.407102e+002
4.310137e+002, 1.383118e+002
4.314958e+002, 1.356407e+002
4.319779e+002, 1.326944e+002
4.324600e+002, 1.294719e+002
4.329421e+002, 1.260070e+002
4.334243e+002, 1.221047e+002
4.339064e+002, 1.179350e+002
4.343885e+002, 1.142198e+002
4.348706e+002, 1.110350e+002
4.353527e+002, 1.081781e+002
4.358348e+002, 1.054268e+002
4.363170e+002, 1.029116e+002
4.367991e+002, 1.009058e+002
4.372812e+002, 9.959805e+001
4.377633e+002, 9.866221e+001
4.382454e+002, 9.778014e+001
4.387275e+002, 9.698120e+001
4.392097e+002, 9.652193e+001
4.396918e+002, 9.655863e+001
4.401739e+002, 9.687785e+001
4.406560e+002, 9.714864e+001
4.411381e+002, 9.734598e+001
4.416202e+002, 9.771908e+001
4.421024e+002, 9.834074e+001
4.425845e+002, 9.917093e+001
4.430666e+002, 1.002242e+002
4.435487e+002, 1.014844e+002
4.440308e+002, 1.027510e+002
4.445129e+002, 1.038489e+002
4.449951e+002, 1.048111e+002
4.454772e+002, 1.059947e+002
4.459593e+002, 1.074221e+002
4.464414e+002, 1.089976e+002
4.469235e+002, 1.106709e+002
4.474056e+002, 1.124816e+002
4.478878e+002, 1.144719e+002
4.483699e+002, 1.166585e+002
4.488520e+002, 1.190823e+002
4.493341e+002, 1.218424e+002
4.498162e+002, 1.250538e+002
4.502983e+002, 1.282765e+002
4.507805e+002, 1.312731e+002
4.512626e+002, 1.344851e+002
4.517447e+002, 1.382266e+002
4.522268e+002, 1.423949e+002
4.527089e+002, 1.467110e+002
4.531910e+002, 1.509720e+002
4.536732e+002, 1.552158e+002
4.541553e+002, 1.595901e+002
4.546374e+002, 1.642898e+002
4.551195e+002, 1.687847e+002
4.556016e+002, 1.732451e+002
4.560837e+002, 1.773299e+002
4.565659e+002, 1.808734e+002
4.570480e+002, 1.838141e+002
4.575301e+002, 1.858272e+002
4.580122e+002, 1.864658e+002
4.584943e+002, 1.857480e+002
4.589764e+002, 1.845337e+002
4.594586e+002, 1.828423e+002
4.599407e+002, 1.806173e+002
4.604228e+002, 1.776330e+002
4.609049e+002, 1.742054e+002
4.613870e+002, 1.708637e+002
4.618691e+002, 1.677316e+002
4.623513e+002, 1.648633e+002
4.628334e+002, 1.623366e+002
4.633155e+002, 1.601513e+002
4.637976e+002, 1.582388e+002
4.642797e+002, 1.563321e+002
4.647618e+002, 1.550260e+002
4.652440e+002, 1.551588e+002
4.657261e+002, 1.567220e+002
4.662082e+002, 1.585425e+002
4.666903e+002, 1.604658e+002
4.671724e+002, 1.623132e+002
4.676545e+002, 1.637187e+002
4.681367e+002, 1.646913e+002
4.686188e+002, 1.658774e+002
4.691009e+002, 1.677573e+002
4.695830e+002, 1.701770e+002
4.700651e+002, 1.724053e+002
4.705472e+002, 1.746328e+002
4.710294e+002, 1.764480e+002
4.715115e+002, 1.777514e+002
4.719936e+002, 1.785819e+002
4.724757e+002, 1.790843e+002
4.729578e+002, 1.792640e+002
4.734399e+002, 1.788203e+002
4.739221e+002, 1.773528e+002
4.744042e+002, 1.747309e+002
4.748863e+002, 1.717991e+002
4.753684e+002, 1.688458e+002
4.758505e+002, 1.653000e+002
4.763326e+002, 1.607089e+002
4.768148e+002, 1.554358e+002
4.772969e+002, 1.500270e+002
4.777790e+002, 1.447733e+002
4.782611e+002, 1.396546e+002
4.787432e+002, 1.346700e+002
4.792253e+002, 1.297771e+002
4.797075e+002, 1.252039e+002
4.801896e+002, 1.211174e+002
4.806717e+002, 1.172635e+002
4.811538e+002, 1.134496e+002
4.816359e+002, 1.097345e+002
4.821180e+002, 1.063523e+002
4.826002e+002, 1.034538e+002
4.830823e+002, 1.010132e+002
4.835644e+002, 9.900483e+001
4.840465e+002, 9.756151e+001
4.845286e+002, 9.609689e+001
4.850107e+002, 9.423515e+001
4.854929e+002, 9.228043e+001
4.859750e+002, 9.059039e+001
4.864571e+002, 8.924135e+001
4.869392e+002, 8.800570e+001
4.874213e+002, 8.676172e+001
4.879034e+002, 8.552901e+001
4.883856e+002, 8.436321e+001
4.888677e+002, 8.326634e+001
4.893498e+002, 8.222637e+001
4.898319e+002, 8.127546e+001
4.903140e+002, 8.039058e+001
4.907961e+002, 7.937352e+001
4.912783e+002, 7.801767e+001
4.917604e+002, 7.674012e+001
4.922425e+002, 7.574519e+001
4.927246e+002, 7.495391e+001
4.932067e+002, 7.426061e+001
4.936888e+002, 7.363138e+001
4.941710e+002, 7.294520e+001
4.946531e+002, 7.200481e+001
4.951352e+002, 7.067605e+001
4.956173e+002, 6.951795e+001
4.960994e+002, 6.857851e+001
4.965815e+002, 6.773626e+001
4.970637e+002, 6.697002e+001
4.975458e+002, 6.625549e+001
4.980279e+002, 6.555344e+001
4.985100e+002, 6.483751e+001
4.989921e+002, 6.413828e+001
4.994742e+002, 6.351330e+001
4.999564e+002, 6.295066e+001
5.004385e+002, 6.249918e+001
5.009206e+002, 6.231020e+001
5.014027e+002, 6.211560e+001
5.018848e+002, 6.169747e+001
5.023669e+002, 6.109159e+001
5.028491e+002, 6.055528e+001
5.033312e+002, 6.032168e+001
5.038133e+002, 6.027221e+001
5.042954e+002, 6.007478e+001
5.047775e+002, 5.970006e+001
5.052596e+002, 5.932534e+001
5.057418e+002, 5.909901e+001
5.062239e+002, 5.888052e+001
5.067060e+002, 5.840109e+001
5.071881e+002, 5.753629e+001
5.076702e+002, 5.688940e+001
5.081523e+002, 5.701181e+001
5.086345e+002, 5.746703e+001
5.091166e+002, 5.746284e+001
5.095987e+002, 5.688026e+001
5.100808e+002, 5.625685e+001
5.105629e+002, 5.607607e+001
5.110450e+002, 5.627498e+001
5.115272e+002, 5.610431e+001
5.120093e+002, 5.525222e+001
5.124914e+002, 5.445231e+001
5.129735e+002, 5.387949e+001
5.134556e+002, 5.349477e+001
5.139377e+002, 5.325868e+001
5.144199e+002, 5.315357e+001
5.149020e+002, 5.314127e+001
5.153841e+002, 5.319756e+001
5.158662e+002, 5.335283e+001
5.163483e+002, 5.336819e+001
5.168304e+002, 5.307993e+001
5.173126e+002, 5.282273e+001
5.177947e+002, 5.270605e+001
5.182768e+002, 5.267465e+001
5.187589e+002, 5.265784e+001
5.192410e+002, 5.263088e+001
5.197231e+002, 5.256062e+001
5.202053e+002, 5.238380e+001
5.206874e+002, 5.209322e+001
5.211695e+002, 5.179415e+001
5.216516e+002, 5.143221e+001
5.221337e+002, 5.115690e+001
5.226158e+002, 5.115914e+001
5.230980e+002, 5.132682e+001
5.235801e+002, 5.132626e+001
5.240622e+002, 5.088292e+001
5.245443e+002, 5.037712e+001
5.250264e+002, 5.025601e+001
5.255085e+002, 5.045623e+001
5.259907e+002, 5.063653e+001
5.264728e+002, 5.071822e+001
5.269549e+002, 5.063821e+001
5.274370e+002, 5.019522e+001
5.279191e+002, 4.926713e+001
5.284012e+002, 4.875149e+001
5.288834e+002, 4.911039e+001
5.293655e+002, 4.958888e+001
5.298476e+002, 4.965624e+001
5.303297e+002, 4.939138e+001
5.308118e+002, 4.913583e+001
5.312939e+002, 4.907797e+001
5.317761e+002, 4.910908e+001
5.322582e+002, 4.909657e+001
5.327403e+002, 5.031724e+001
5.332224e+002, 4.898947e+001
5.337045e+002, 4.124688e+001
5.341866e+002, 3.459795e+001
5.346688e+002, 3.440477e+001
5.351509e+002, 3.941473e+001
5.356330e+002, 4.479232e+001
5.361151e+002, 4.752855e+001
5.365972e+002, 4.831109e+001
5.370793e+002, 4.893109e+001
5.375615e+002, 4.940285e+001
5.380436e+002, 4.963540e+001
5.385257e+002, 4.940562e+001
5.390078e+002, 4.906795e+001
5.394899e+002, 4.894184e+001
5.399720e+002, 4.902838e+001
5.404542e+002, 4.911449e+001
5.409363e+002, 4.910250e+001
5.414184e+002, 4.902702e+001
5.419005e+002, 4.892390e+001
5.423826e+002, 4.879696e+001
5.428647e+002, 4.867912e+001
5.433469e+002, 4.859515e+001
5.438290e+002, 4.852205e+001
5.443111e+002, 4.837108e+001
5.447932e+002, 4.799529e+001
5.452753e+002, 4.788810e+001
5.457574e+002, 4.847879e+001
5.462396e+002, 4.910833e+001
5.467217e+002, 4.909498e+001
5.472038e+002, 4.852266e+001
5.476859e+002, 4.801198e+001
5.481680e+002, 4.801207e+001
5.486501e+002, 4.839368e+001
5.491323e+002, 4.858245e+001
5.496144e+002, 4.847411e+001
5.500965e+002, 4.834395e+001
5.505786e+002, 4.815633e+001
5.510607e+002, 4.801114e+001
5.515428e+002, 4.801386e+001
5.520250e+002, 4.814629e+001
5.525071e+002, 4.828064e+001
5.529892e+002, 4.837214e+001
5.534713e+002, 4.838123e+001
5.539534e+002, 4.810220e+001
5.544355e+002, 4.743324e+001
5.549177e+002, 4.700888e+001
5.553998e+002, 4.723969e+001
5.558819e+002, 4.773673e+001
5.563640e+002, 4.796444e+001
5.568461e+002, 4.788834e+001
5.573282e+002, 4.776966e+001
5.578104e+002, 4.766135e+001
5.582925e+002, 4.759181e+001
5.587746e+002, 4.762344e+001
5.592567e+002, 4.774403e+001
5.597388e+002, 4.783945e+001
5.602209e+002, 4.783276e+001
5.607031e+002, 4.776621e+001
5.611852e+002, 4.777492e+001
5.616673e+002, 4.795394e+001
5.621494e+002, 4.807582e+001
5.626315e+002, 4.809951e+001
5.631136e+002, 4.809516e+001
5.635958e+002, 4.809348e+001
5.640779e+002, 4.810943e+001
5.645600e+002, 4.818864e+001
5.650421e+002, 4.839819e+001
5.655242e+002, 4.863389e+001
5.660063e+002, 4.846482e+001
5.664885e+002, 4.764820e+001
5.669706e+002, 4.713831e+001
5.674527e+002, 4.738885e+001
5.679348e+002, 4.786193e+001
5.684169e+002, 4.828754e+001
5.688990e+002, 4.862328e+001
5.693812e+002, 4.879359e+001
5.698633e+002, 4.859135e+001
5.703454e+002, 4.828588e+001
5.708275e+002, 4.831594e+001
5.713096e+002, 4.865977e+001
5.717917e+002, 4.895469e+001
5.722739e+002, 4.904099e+001
5.727560e+002, 4.901379e+001
5.732381e+002, 4.903989e+001
5.737202e+002, 4.913266e+001
5.742023e+002, 4.922287e+001
5.746844e+002, 4.933996e+001
5.751666e+002, 4.942226e+001
5.756487e+002, 4.933947e+001
5.761308e+002, 4.918653e+001
5.766129e+002, 4.922918e+001
5.770950e+002, 4.961528e+001
5.775771e+002, 5.016959e+001
5.780593e+002, 5.045446e+001
5.785414e+002, 5.022939e+001
5.790235e+002, 5.039404e+001
5.795056e+002, 5.144305e+001
5.799877e+002, 5.247273e+001
5.804698e+002, 5.315316e+001
5.809520e+002, 5.348867e+001
5.814341e+002, 5.352421e+001
5.819162e+002, 5.317245e+001
5.823983e+002, 5.275441e+001
5.828804e+002, 5.274688e+001
5.833625e+002, 5.310967e+001
5.838447e+002, 5.340163e+001
5.843268e+002, 5.348975e+001
5.848089e+002, 5.354950e+001
5.852910e+002, 5.372938e+001
5.857731e+002, 5.403074e+001
5.862552e+002, 5.447630e+001
5.867374e+002, 5.521718e+001
5.872195e+002, 5.594737e+001
5.877016e+002, 5.654499e+001
5.881837e+002, 5.701225e+001
5.886658e+002, 5.736213e+001
5.891479e+002, 5.759832e+001
5.896301e+002, 5.770620e+001
5.901122e+002, 5.764402e+001
5.905943e+002, 5.738293e+001
5.910764e+002, 5.722905e+001
5.915585e+002, 5.731386e+001
5.920406e+002, 5.735323e+001
5.925228e+002, 5.722360e+001
5.930049e+002, 5.703931e+001
5.934870e+002, 5.694181e+001
5.939691e+002, 5.696584e+001
5.944512e+002, 5.702686e+001
5.949333e+002, 5.702294e+001
5.954155e+002, 5.698418e+001
5.958976e+002, 5.704152e+001
5.963797e+002, 5.720553e+001
5.968618e+002, 5.744824e+001
5.973439e+002, 5.775035e+001
5.978260e+002, 5.812752e+001
5.983082e+002, 5.859972e+001
5.987903e+002, 5.919460e+001
5.992724e+002, 5.981389e+001
5.997545e+002, 6.033671e+001
6.002366e+002, 6.092400e+001
6.007188e+002, 6.187637e+001
6.012009e+002, 6.312211e+001
6.016830e+002, 6.415170e+001
6.021651e+002, 6.458610e+001
6.026472e+002, 6.464108e+001
6.031293e+002, 6.513900e+001
6.036115e+002, 6.642876e+001
6.040936e+002, 6.752336e+001
6.045757e+002, 6.832913e+001
6.050578e+002, 6.896455e+001
6.055399e+002, 6.950587e+001
6.060220e+002, 6.993929e+001
6.065042e+002, 7.022435e+001
6.069863e+002, 7.038464e+001
6.074684e+002, 7.031072e+001
6.079505e+002, 6.976778e+001
6.084326e+002, 6.876286e+001
6.089147e+002, 6.761207e+001
6.093969e+002, 6.631430e+001
6.098790e+002, 6.504957e+001
6.103611e+002, 6.405836e+001
6.108432e+002, 6.331132e+001
6.113253e+002, 6.251281e+001
6.118074e+002, 6.165136e+001
6.122896e+002, 6.071118e+001
6.127717e+002, 5.961044e+001
6.132538e+002, 5.844590e+001
6.137359e+002, 5.732162e+001
6.142180e+002, 5.628369e+001
6.147001e+002, 5.546917e+001
6.151823e+002, 5.508146e+001
6.156644e+002, 5.514956e+001
6.161465e+002, 5.502988e+001
6.166286e+002, 5.453004e+001
6.171107e+002, 5.410638e+001
6.175928e+002, 5.385081e+001
6.180750e+002, 5.373651e+001
6.185571e+002, 5.372087e+001
6.190392e+002, 5.379960e+001
6.195213e+002, 5.404223e+001
6.200034e+002, 5.456684e+001
6.204855e+002, 5.527608e+001
6.209677e+002, 5.595147e+001
6.214498e+002, 5.658044e+001
6.219319e+002, 5.723713e+001
6.224140e+002, 5.789436e+001
6.228961e+002, 5.866782e+001
6.233782e+002, 5.988689e+001
6.238604e+002, 6.174555e+001
6.243425e+002, 6.337437e+001
6.248246e+002, 6.443179e+001
6.253067e+002, 6.543633e+001
6.257888e+002, 6.675255e+001
6.262709e+002, 6.830666e+001
6.267531e+002, 6.984703e+001
6.272352e+002, 7.123885e+001
6.277173e+002, 7.264353e+001
6.281994e+002, 7.434695e+001
6.286815e+002, 7.638843e+001
6.291636e+002, 7.853439e+001
6.296458e+002, 8.078745e+001
6.301279e+002, 8.311800e+001
6.306100e+002, 8.535414e+001
6.310921e+002, 8.769200e+001
6.315742e+002, 9.049710e+001
6.320563e+002, 9.394003e+001
6.325385e+002, 9.761974e+001
6.330206e+002, 1.012604e+002
6.335027e+002, 1.049229e+002
6.339848e+002, 1.087473e+002
6.344669e+002, 1.127537e+002
6.349490e+002, 1.169642e+002
6.354312e+002, 1.215136e+002
6.359133e+002, 1.262279e+002
6.363954e+002, 1.303314e+002
6.368775e+002, 1.340531e+002
6.373596e+002, 1.367483e+002
6.378417e+002, 1.386865e+002
6.383239e+002, 1.393413e+002
6.388060e+002, 1.384429e+002
6.392881e+002, 1.359135e+002
6.397702e+002, 1.315734e+002
6.402523e+002, 1.251202e+002
6.407344e+002, 1.173212e+002
6.412166e+002, 1.094524e+002
6.416987e+002, 1.014547e+002
6.421808e+002, 9.404447e+001
6.426629e+002, 8.720551e+001
6.431450e+002, 8.117567e+001
6.436271e+002, 7.640950e+001
6.441093e+002, 7.265417e+001
6.445914e+002, 6.921324e+001
6.450735e+002, 6.604125e+001
6.455556e+002, 6.313210e+001
6.460377e+002, 6.033641e+001
6.465198e+002, 5.786255e+001
6.470020e+002, 5.617275e+001
6.474841e+002, 5.527975e+001
6.479662e+002, 5.457710e+001
6.484483e+002, 5.350493e+001
6.489304e+002, 5.216184e+001
6.494125e+002, 5.123433e+001
6.498947e+002, 5.100379e+001
6.503768e+002, 5.067445e+001
6.508589e+002, 5.000011e+001
6.513410e+002, 4.927412e+001
6.518231e+002, 4.870826e+001
6.523052e+002, 4.828986e+001
6.527874e+002, 4.785986e+001
6.532695e+002, 4.726909e+001
6.537516e+002, 4.669368e+001
6.542337e+002, 4.637267e+001
6.547158e+002, 4.626784e+001
6.551979e+002, 4.620150e+001
6.556801e+002, 4.612074e+001
6.561622e+002, 4.608739e+001
6.566443e+002, 4.620285e+001
6.571264e+002, 4.648493e+001
6.576085e+002, 4.655749e+001
6.580906e+002, 4.626327e+001
6.585728e+002, 4.598816e+001
6.590549e+002, 4.584401e+001
6.595370e+002, 4.575028e+001
6.600191e+002, 4.556269e+001
6.605012e+002, 4.529805e+001
6.609833e+002, 4.518498e+001
6.614655e+002, 4.550853e+001
6.619476e+002, 4.607092e+001
6.624297e+002, 4.616918e+001
6.629118e+002, 4.572376e+001
6.633939e+002, 4.545095e+001
6.638760e+002, 4.562939e+001
6.643582e+002, 4.600143e+001
6.648403e+002, 4.624010e+001
6.653224e+002, 4.636123e+001
6.658045e+002, 4.663692e+001
6.662866e+002, 4.726696e+001
6.667687e+002, 4.789794e+001
6.672509e+002, 4.835131e+001
6.677330e+002, 4.866603e+001
6.682151e+002, 4.888291e+001
6.686972e+002, 4.902719e+001
6.691793e+002, 4.917013e+001
6.696614e+002, 4.937313e+001
6.701436e+002, 4.964221e+001
6.706257e+002, 5.007440e+001
6.711078e+002, 5.078223e+001
6.715899e+002, 5.142260e+001
6.720720e+002, 5.177613e+001
6.725541e+002, 5.211831e+001
6.730363e+002, 5.274364e+001
6.735184e+002, 5.362545e+001
6.740005e+002, 5.436469e+001
6.744826e+002, 5.472929e+001
6.749647e+002, 5.493070e+001
6.754468e+002, 5.524093e+001
6.759290e+002, 5.556855e+001
6.764111e+002, 5.558794e+001
6.768932e+002, 5.519395e+001
6.773753e+002, 5.465997e+001
6.778574e+002, 5.431586e+001
6.783395e+002, 5.417448e+001
6.788217e+002, 5.389599e+001
6.793038e+002, 5.359535e+001
6.797859e+002, 5.299073e+001
6.802680e+002, 5.169910e+001
6.807501e+002, 5.031860e+001
6.812322e+002, 4.944690e+001
6.817144e+002, 4.909570e+001
6.821965e+002, 4.876114e+001
6.826786e+002, 4.806293e+001
6.831607e+002, 4.722673e+001
6.836428e+002, 4.663416e+001
6.841249e+002, 4.626139e+001
6.846071e+002, 4.594501e+001
6.850892e+002, 4.565542e+001
6.855713e+002, 4.532069e+001
6.860534e+002, 4.482592e+001
6.865355e+002, 4.415570e+001
6.870176e+002, 4.364374e+001
6.874998e+002, 4.328894e+001
6.879819e+002, 4.307729e+001
6.884640e+002, 4.313852e+001
6.889461e+002, 4.325773e+001
6.894282e+002, 4.323512e+001
6.899103e+002, 4.304008e+001
6.903925e+002, 4.272807e+001
6.908746e+002, 4.226816e+001
6.913567e+002, 4.179315e+001
6.918388e+002, 4.169659e+001
6.923209e+002, 4.199810e+001
6.928030e+002, 4.216638e+001
6.932852e+002, 4.202744e+001
6.937673e+002, 4.177567e+001
6.942494e+002, 4.156802e+001
6.947315e+002, 4.141069e+001
6.952136e+002, 4.136760e+001
6.956957e+002, 4.165419e+001
6.961779e+002, 4.179711e+001
6.966600e+002, 4.146217e+001
6.971421e+002, 4.100056e+001
6.976242e+002, 4.085429e+001
6.981063e+002, 4.103279e+001
6.985884e+002, 4.118306e+001
6.990706e+002, 4.101794e+001
6.995527e+002, 4.066490e+001
7.000348e+002, 4.048930e+001
7.005169e+002, 4.051282e+001
7.009990e+002, 4.058345e+001
7.014811e+002, 4.069911e+001
7.019633e+002, 4.081579e+001
7.024454e+002, 4.090702e+001
7.029275e+002, 4.097042e+001
7.034096e+002, 4.099071e+001
7.038917e+002, 4.089051e+001
7.043738e+002, 4.085036e+001
7.048560e+002, 4.097285e+001
7.053381e+002, 4.118022e+001
7.058202e+002, 4.144292e+001
7.063023e+002, 4.171262e+001
7.067844e+002, 4.183862e+001
7.072665e+002, 4.170557e+001
7.077487e+002, 4.140229e+001
7.082308e+002, 4.117199e+001
7.087129e+002, 4.103209e+001
7.091950e+002, 4.087992e+001
7.096771e+002, 4.066789e+001
7.101592e+002, 4.048997e+001
7.106414e+002, 4.043334e+001
7.111235e+002, 4.044889e+001
7.116056e+002, 4.042272e+001
7.120877e+002, 4.028979e+001
7.125698e+002, 4.022421e+001
7.130519e+002, 4.042320e+001
7.135341e+002, 4.066741e+001
7.140162e+002, 4.065615e+001
7.144983e+002, 4.041754e+001
7.149804e+002, 4.019746e+001
7.154625e+002, 4.013554e+001
7.159446e+002, 4.017220e+001
7.164268e+002, 4.016029e+001
7.169089e+002, 4.005193e+001
7.173910e+002, 4.012843e+001
7.178731e+002, 4.061954e+001
7.183552e+002, 4.098915e+001
7.188373e+002, 4.085258e+001
7.193195e+002, 4.050291e+001
7.198016e+002, 4.037767e+001
7.202837e+002, 4.057581e+001
7.207658e+002, 4.077706e+001
7.212479e+002, 4.082440e+001
7.217300e+002, 4.080088e+001
7.222122e+002, 4.077423e+001
7.226943e+002, 4.075719e+001
7.231764e+002, 4.077063e+001
7.236585e+002, 4.082403e+001
7.241406e+002, 4.089447e+001
7.246227e+002, 4.095707e+001
7.251049e+002, 4.102031e+001
7.255870e+002, 4.098810e+001
7.260691e+002, 4.076659e+001
7.265512e+002, 4.060260e+001
7.270333e+002, 4.060439e+001
7.275154e+002, 4.068683e+001
7.279976e+002, 4.077248e+001
7.284797e+002, 4.085399e+001
7.289618e+002, 4.095680e+001
7.294439e+002, 4.118994e+001
7.299260e+002, 4.136372e+001
7.304081e+002, 4.122632e+001
7.308903e+002, 4.090178e+001
7.313724e+002, 4.068656e+001
7.318545e+002, 4.066662e+001
7.323366e+002, 4.075371e+001
7.328187e+002, 4.088007e+001
7.333008e+002, 4.103018e+001
7.337830e+002, 4.098259e+001
7.342651e+002, 4.052955e+001
7.347472e+002, 4.033067e+001
7.352293e+002, 4.085868e+001
7.357114e+002, 4.142202e+001
7.361935e+002, 4.147448e+001
7.366757e+002, 4.111014e+001
7.371578e+002, 4.082397e+001
7.376399e+002, 4.076770e+001
7.381220e+002, 4.083069e+001
7.386041e+002, 4.108857e+001
7.390862e+002, 4.135763e+001
7.395684e+002, 4.122386e+001
7.400505e+002, 4.070724e+001
7.405326e+002, 4.035381e+001
7.410147e+002, 4.059148e+001
7.414968e+002, 4.118564e+001
7.419789e+002, 4.137927e+001
7.424611e+002, 4.100286e+001
7.429432e+002, 4.086398e+001
7.434253e+002, 4.125092e+001
7.439074e+002, 4.161799e+001
7.443895e+002, 4.163036e+001
7.448716e+002, 4.141867e+001
7.453538e+002, 4.120083e+001
7.458359e+002, 4.097929e+001
7.463180e+002, 4.085538e+001
7.468001e+002, 4.096200e+001
7.472822e+002, 4.112590e+001
7.477643e+002, 4.115166e+001
7.482465e+002, 4.106947e+001
7.487286e+002, 4.103299e+001
7.492107e+002, 4.111230e+001
7.496928e+002, 4.121741e+001
7.501749e+002, 4.118142e+001
7.506570e+002, 4.098978e+001
7.511392e+002, 4.098011e+001
7.516213e+002, 4.121204e+001
7.521034e+002, 4.149639e+001
7.525855e+002, 4.189442e+001
7.530676e+002, 4.221004e+001
7.535497e+002, 4.212476e+001
7.540319e+002, 4.162056e+001
7.545140e+002, 4.130202e+001
7.549961e+002, 4.149986e+001
7.554782e+002, 4.172832e+001
7.559603e+002, 4.162152e+001
7.564424e+002, 4.138342e+001
7.569246e+002, 4.137413e+001
7.574067e+002, 4.164326e+001
7.578888e+002, 4.193566e+001
7.583709e+002, 4.205517e+001
7.588530e+002, 4.200544e+001
7.593351e+002, 4.170702e+001
7.598173e+002, 4.109316e+001
7.602994e+002, 4.084679e+001
7.607815e+002, 4.129089e+001
7.612636e+002, 4.181570e+001
7.617457e+002, 4.184945e+001
7.622278e+002, 4.151202e+001
7.627100e+002, 4.140849e+001
7.631921e+002, 4.178591e+001
7.636742e+002, 4.203304e+001
7.641563e+002, 4.188451e+001
7.646384e+002, 4.165398e+001
7.651205e+002, 4.158788e+001
7.656027e+002, 4.166717e+001
7.660848e+002, 4.178410e+001
7.665669e+002, 4.189370e+001
7.670490e+002, 4.194829e+001
7.675311e+002, 4.181347e+001
7.680132e+002, 4.154846e+001
7.684954e+002, 4.154490e+001
7.689775e+002, 4.186890e+001
7.694596e+002, 4.206122e+001
7.699417e+002, 4.184510e+001
7.704238e+002, 4.145506e+001
7.709059e+002, 4.130622e+001
7.713881e+002, 4.147600e+001
7.718702e+002, 4.158580e+001
7.723523e+002, 4.152168e+001
7.728344e+002, 4.153493e+001
7.733165e+002, 4.183444e+001
7.737986e+002, 4.218383e+001
7.742808e+002, 4.227877e+001
7.747629e+002, 4.210714e+001
7.752450e+002, 4.195058e+001
7.757271e+002, 4.202172e+001
7.762092e+002, 4.219030e+001
7.766913e+002, 4.222529e+001
7.771735e+002, 4.218064e+001
7.776556e+002, 4.235155e+001
7.781377e+002, 4.281887e+001
7.786198e+002, 4.315515e+001
7.791019e+002, 4.294456e+001
7.795840e+002, 4.233125e+001
7.800662e+002, 4.206897e+001
7.805483e+002, 4.240766e+001
7.810304e+002, 4.262381e+001
7.815125e+002, 4.260120e+001
7.819946e+002, 4.252225e+001
7.824767e+002, 4.245472e+001
7.829589e+002, 4.239889e+001
7.834410e+002, 4.233727e+001
7.839231e+002, 4.225438e+001
7.844052e+002, 4.222268e+001
7.848873e+002, 4.230852e+001
7.853694e+002, 4.245416e+001
7.858516e+002, 4.262238e+001
7.863337e+002, 4.278768e+001
7.868158e+002, 4.287798e+001
7.872979e+002, 4.286531e+001
7.877800e+002, 4.280973e+001
7.882621e+002, 4.277729e+001
7.887443e+002, 4.276997e+001
7.892264e+002, 4.286847e+001
7.897085e+002, 4.316711e+001
7.901906e+002, 4.330034e+001
7.906727e+002, 4.303959e+001
7.911548e+002, 4.268826e+001
7.916370e+002, 4.252547e+001
7.921191e+002, 4.253752e+001
7.926012e+002, 4.264933e+001
7.930833e+002, 4.295642e+001
7.935654e+002, 4.322897e+001
7.940475e+002, 4.338642e+001
7.945297e+002, 4.346200e+001
7.950118e+002, 4.346461e+001
7.954939e+002, 4.341717e+001
7.959760e+002, 4.336871e+001
7.964581e+002, 4.334458e+001
7.969402e+002, 4.334221e+001
7.974224e+002, 4.338496e+001
7.979045e+002, 4.345575e+001
7.983866e+002, 4.340266e+001
7.988687e+002, 4.319030e+001
7.993508e+002, 4.307411e+001
7.998329e+002, 4.321218e+001
8.003151e+002, 4.348034e+001
8.007972e+002, 4.365526e+001
8.012793e+002, 4.372775e+001
8.017614e+002, 4.374194e+001
8.022435e+002, 4.357278e+001
8.027256e+002, 4.350411e+001
8.032078e+002, 4.367581e+001
8.036899e+002, 4.395133e+001
8.041720e+002, 4.423581e+001
8.046541e+002, 4.449187e+001
8.051362e+002, 4.463802e+001
8.056183e+002, 4.459119e+001
8.061005e+002, 4.446078e+001
8.065826e+002, 4.432237e+001
8.070647e+002, 4.419561e+001
8.075468e+002, 4.411975e+001
8.080289e+002, 4.410299e+001
8.085110e+002, 4.413695e+001
8.089932e+002, 4.420685e+001
8.094753e+002, 4.435297e+001
8.099574e+002, 4.475188e+001
8.104395e+002, 4.554459e+001
8.109216e+002, 4.593255e+001
8.114037e+002, 4.564020e+001
8.118859e+002, 4.533418e+001
8.123680e+002, 4.549120e+001
8.128501e+002, 4.576506e+001
8.133322e+002, 4.559237e+001
8.138143e+002, 4.486800e+001
8.142964e+002, 4.430896e+001
8.147786e+002, 4.416053e+001
8.152607e+002, 4.413258e+001
8.157428e+002, 4.415767e+001
8.162249e+002, 4.414986e+001
8.167070e+002, 4.393229e+001
8.171891e+002, 4.352620e+001
8.176713e+002, 4.322430e+001
8.181534e+002, 4.328355e+001
8.186355e+002, 4.353425e+001
8.191176e+002, 4.367251e+001
8.195997e+002, 4.370443e+001
8.200818e+002, 4.366550e+001
8.205640e+002, 4.355452e+001
8.210461e+002, 4.343779e+001
8.215282e+002, 4.336498e+001
8.220103e+002, 4.331652e+001
8.224924e+002, 4.322866e+001
8.229745e+002, 4.303988e+001
8.234567e+002, 4.294815e+001
8.239388e+002, 4.297437e+001
8.244209e+002, 4.307264e+001
8.249030e+002, 4.331919e+001
8.253851e+002, 4.358204e+001
8.258672e+002, 4.366651e+001
8.263494e+002, 4.355023e+001
8.268315e+002, 4.346130e+001
8.273136e+002, 4.359737e+001
8.277957e+002, 4.371855e+001
8.282778e+002, 4.353468e+001
8.287599e+002, 4.321910e+001
8.292421e+002, 4.312778e+001
8.297242e+002, 4.329983e+001
8.302063e+002, 4.346954e+001
8.306884e+002, 4.342828e+001
8.311705e+002, 4.326469e+001
8.316526e+002, 4.320535e+001
8.321348e+002, 4.325459e+001
8.326169e+002, 4.326738e+001
8.330990e+002, 4.321288e+001
8.335811e+002, 4.316060e+001
8.340632e+002, 4.312604e+001
8.345453e+002, 4.313908e+001
8.350275e+002, 4.329184e+001
8.355096e+002, 4.369008e+001
8.359917e+002, 4.390140e+001
8.364738e+002, 4.369410e+001
8.369559e+002, 4.357030e+001
8.374380e+002, 4.377755e+001
8.379202e+002, 4.412630e+001
8.384023e+002, 4.446405e+001
8.388844e+002, 4.473519e+001
8.393665e+002, 4.482087e+001
8.398486e+002, 4.448410e+001
8.403307e+002, 4.415219e+001
8.408129e+002, 4.438308e+001
8.412950e+002, 4.489895e+001
8.417771e+002, 4.512670e+001
8.422592e+002, 4.500955e+001
8.427413e+002, 4.482100e+001
8.432234e+002, 4.472760e+001
8.437056e+002, 4.470295e+001
8.441877e+002, 4.467573e+001
8.446698e+002, 4.463347e+001
8.451519e+002, 4.476774e+001
8.456340e+002, 4.516238e+001
8.461161e+002, 4.550688e+001
8.465983e+002, 4.565247e+001
8.470804e+002, 4.569865e+001
8.475625e+002, 4.573410e+001
8.480446e+002, 4.574438e+001
8.485267e+002, 4.598462e+001
8.490089e+002, 4.682695e+001
8.494910e+002, 4.743309e+001
8.499731e+002, 4.738371e+001
8.504552e+002, 4.714460e+001
8.509373e+002, 4.714711e+001
8.514194e+002, 4.735335e+001
8.519016e+002, 4.745650e+001
8.523837e+002, 4.727535e+001
8.528658e+002, 4.713523e+001
8.533479e+002, 4.745979e+001
8.538300e+002, 4.796960e+001
8.543121e+002, 4.810744e+001
8.547943e+002, 4.792286e+001
8.552764e+002, 4.785052e+001
8.557585e+002, 4.807797e+001
8.562406e+002, 4.846291e+001
8.567227e+002, 4.888366e+001
8.572048e+002, 4.930937e+001
8.576870e+002, 4.927804e+001
8.581691e+002, 4.862682e+001
8.586512e+002, 4.816862e+001
8.591333e+002, 4.815419e+001
8.596154e+002, 4.831275e+001
8.600975e+002, 4.846156e+001
8.605797e+002, 4.858828e+001
8.610618e+002, 4.863480e+001
8.615439e+002, 4.864254e+001
8.620260e+002, 4.850488e+001
8.625081e+002, 4.801825e+001
8.629902e+002, 4.757716e+001
8.634724e+002, 4.749894e+001
8.639545e+002, 4.759452e+001
8.644366e+002, 4.751056e+001
8.649187e+002, 4.716591e+001
8.654008e+002, 4.685513e+001
8.658829e+002, 4.686005e+001
8.663651e+002, 4.693016e+001
8.668472e+002, 4.671706e+001
8.673293e+002, 4.634698e+001
8.678114e+002, 4.611340e+001
8.682935e+002, 4.608373e+001
8.687756e+002, 4.621223e+001
8.692578e+002, 4.648849e+001
8.697399e+002, 4.681711e+001
8.702220e+002, 4.696758e+001
8.707041e+002, 4.693620e+001
8.711862e+002, 4.673417e+001
8.716683e+002, 4.627301e+001
8.721505e+002, 4.599097e+001
8.726326e+002, 4.622509e+001
8.731147e+002, 4.663787e+001
8.735968e+002, 4.662326e+001
8.740789e+002, 4.605367e+001
8.745610e+002, 4.574682e+001
8.750432e+002, 4.584043e+001
8.755253e+002, 4.600349e+001
8.760074e+002, 4.622918e+001
8.764895e+002, 4.644107e+001
8.769716e+002, 4.658908e+001
8.774537e+002, 4.666887e+001
8.779359e+002, 4.668037e+001
8.784180e+002, 4.658549e+001
8.789001e+002, 4.651759e+001
8.793822e+002, 4.659385e+001
8.798643e+002, 4.671491e+001
8.803464e+002, 4.675438e+001
8.808286e+002, 4.673938e+001
8.813107e+002, 4.676155e+001
8.817928e+002, 4.685579e+001
8.822749e+002, 4.701378e+001
8.827570e+002, 4.727691e+001
8.832391e+002, 4.757351e+001
8.837213e+002, 4.761958e+001
8.842034e+002, 4.743575e+001
8.846855e+002, 4.738084e+001
8.851676e+002, 4.754626e+001
8.856497e+002, 4.779694e+001
8.861318e+002, 4.804354e+001
8.866140e+002, 4.827668e+001
8.870961e+002, 4.846901e+001
8.875782e+002, 4.864211e+001
8.880603e+002, 4.871362e+001
8.885424e+002, 4.859472e+001
8.890245e+002, 4.849560e+001
8.895067e+002, 4.848373e+001
8.899888e+002, 4.854498e+001
8.904709e+002, 4.864975e+001
8.909530e+002, 4.879827e+001
8.914351e+002, 4.907112e+001
8.919172e+002, 4.973411e+001
8.923994e+002, 5.021529e+001
8.928815e+002, 5.004729e+001
8.933636e+002, 4.976691e+001
8.938457e+002, 5.004372e+001
8.943278e+002, 5.068834e+001
8.948099e+002, 5.093571e+001
8.952921e+002, 5.041018e+001
8.957742e+002, 4.985654e+001
8.962563e+002, 5.007330e+001
8.967384e+002, 5.068161e+001
8.972205e+002, 5.102492e+001
8.977026e+002, 5.114814e+001
8.981848e+002, 5.138361e+001
8.986669e+002, 5.182872e+001
8.991490e+002, 5.223407e+001
8.996311e+002, 5.233013e+001
9.001132e+002, 5.223108e+001
9.005953e+002, 5.243986e+001
9.010775e+002, 5.301011e+001
9.015596e+002, 5.323701e+001
9.020417e+002, 5.293938e+001
9.025238e+002, 5.254606e+001
9.030059e+002, 5.221728e+001
9.034880e+002, 5.205126e+001
9.039702e+002, 5.228937e+001
9.044523e+002, 5.306756e+001
9.049344e+002, 5.369918e+001
9.054165e+002, 5.415998e+001
9.058986e+002, 5.450447e+001
9.063807e+002, 5.469208e+001
9.068629e+002, 5.481322e+001
9.073450e+002, 5.488561e+001
9.078271e+002, 5.495366e+001
9.083092e+002, 5.516836e+001
9.087913e+002, 5.564016e+001
9.092734e+002, 5.611788e+001
9.097556e+002, 5.652784e+001
9.102377e+002, 5.686538e+001
9.107198e+002, 5.708504e+001
9.112019e+002, 5.724210e+001
9.116840e+002, 5.742115e+001
9.121661e+002, 5.765368e+001
9.126483e+002, 5.796670e+001
9.131304e+002, 5.844085e+001
9.136125e+002, 5.895780e+001
9.140946e+002, 5.927874e+001
9.145767e+002, 5.947756e+001
9.150588e+002, 5.981645e+001
9.155410e+002, 6.032505e+001
9.160231e+002, 6.078824e+001
9.165052e+002, 6.106199e+001
9.169873e+002, 6.127380e+001
9.174694e+002, 6.167906e+001
9.179515e+002, 6.228451e+001
9.184337e+002, 6.294551e+001
9.189158e+002, 6.369677e+001
9.193979e+002, 6.433407e+001
9.198800e+002, 6.474154e+001
9.203621e+002, 6.509521e+001
9.208442e+002, 6.557360e+001
9.213264e+002, 6.616814e+001
9.218085e+002, 6.676682e+001
9.222906e+002, 6.729368e+001
9.227727e+002, 6.795578e+001
9.232548e+002, 6.884701e+001
9.237369e+002, 6.977774e+001
9.242191e+002, 7.063101e+001
9.247012e+002, 7.147938e+001
9.251833e+002, 7.245387e+001
9.256654e+002, 7.357630e+001
9.261475e+002, 7.464785e+001
9.266296e+002, 7.549940e+001
9.271118e+002, 7.641103e+001
9.275939e+002, 7.745885e+001
9.280760e+002, 7.869131e+001
9.285581e+002, 8.028111e+001
9.290402e+002, 8.210593e+001
9.295223e+002, 8.372152e+001
9.300045e+002, 8.489192e+001
9.304866e+002, 8.614418e+001
9.309687e+002, 8.802991e+001
9.314508e+002, 9.027250e+001
9.319329e+002, 9.245792e+001
9.324150e+002, 9.460373e+001
9.328972e+002, 9.679350e+001
9.333793e+002, 9.906635e+001
9.338614e+002, 1.015716e+002
9.343435e+002, 1.044480e+002
9.348256e+002, 1.075923e+002
9.353077e+002, 1.107093e+002
9.357899e+002, 1.138152e+002
9.362720e+002, 1.172774e+002
9.367541e+002, 1.211279e+002
9.372362e+002, 1.251610e+002
9.377183e+002, 1.292581e+002
9.382004e+002, 1.335221e+002
9.386826e+002, 1.380728e+002
9.391647e+002, 1.429136e+002
9.396468e+002, 1.483692e+002
9.401289e+002, 1.547031e+002
9.406110e+002, 1.609506e+002
9.410931e+002, 1.665177e+002
9.415753e+002, 1.724263e+002
9.420574e+002, 1.796053e+002
9.425395e+002, 1.876451e+002
9.430216e+002, 1.954856e+002
9.435037e+002, 2.029125e+002
9.439858e+002, 2.107344e+002
9.444680e+002, 2.191395e+002
9.449501e+002, 2.277863e+002
9.454322e+002, 2.365563e+002
9.459143e+002, 2.455446e+002
9.463964e+002, 2.548682e+002
9.468785e+002, 2.645421e+002
9.473607e+002, 2.744842e+002
9.478428e+002, 2.849471e+002
9.483249e+002, 2.952675e+002
9.488070e+002, 3.049632e+002
9.492891e+002, 3.144280e+002
9.497712e+002, 3.241005e+002
9.502534e+002, 3.337764e+002
9.507355e+002, 3.428669e+002
9.512176e+002, 3.512125e+002
9.516997e+002, 3.591107e+002
9.521818e+002, 3.670880e+002
9.526639e+002, 3.742641e+002
9.531461e+002, 3.793674e+002
9.536282e+002, 3.827052e+002
9.541103e+002, 3.849886e+002
9.545924e+002, 3.862430e+002
9.550745e+002, 3.860005e+002
9.555566e+002, 3.840206e+002
9.560388e+002, 3.806142e+002
9.565209e+002, 3.763033e+002
9.570030e+002, 3.709203e+002
9.574851e+002, 3.634338e+002
9.579672e+002, 3.538097e+002
9.584493e+002, 3.431837e+002
9.589315e+002, 3.316656e+002
9.594136e+002, 3.199684e+002
9.598957e+002, 3.085679e+002
9.603778e+002, 2.973163e+002
9.608599e+002, 2.858011e+002
9.613420e+002, 2.740040e+002
9.618242e+002, 2.621772e+002
9.623063e+002, 2.501404e+002
9.627884e+002, 2.386273e+002
9.632705e+002, 2.280198e+002
9.637526e+002, 2.178992e+002
9.642347e+002, 2.077274e+002
9.647169e+002, 1.976407e+002
9.651990e+002, 1.885020e+002
9.656811e+002, 1.807853e+002
9.661632e+002, 1.733378e+002
9.666453e+002, 1.661506e+002
9.671274e+002, 1.592534e+002
9.676096e+002, 1.525030e+002
9.680917e+002, 1.460982e+002
9.685738e+002, 1.403809e+002
9.690559e+002, 1.353233e+002
9.695380e+002, 1.304518e+002
9.700201e+002, 1.254311e+002
9.705023e+002, 1.208069e+002
9.709844e+002, 1.167557e+002
9.714665e+002, 1.131697e+002
9.719486e+002, 1.100964e+002
9.724307e+002, 1.073382e+002
9.729128e+002, 1.044931e+002
9.733950e+002, 1.014620e+002
9.738771e+002, 9.861580e+001
9.743592e+002, 9.628594e+001
9.748413e+002, 9.408643e+001
9.753234e+002, 9.163169e+001
9.758055e+002, 8.910461e+001
9.762877e+002, 8.664395e+001
9.767698e+002, 8.437991e+001
9.772519e+002, 8.266053e+001
9.777340e+002, 8.166196e+001
9.782161e+002, 8.086467e+001
9.786982e+002, 7.969245e+001
9.791804e+002, 7.835062e+001
9.796625e+002, 7.726718e+001
9.801446e+002, 7.637543e+001
9.806267e+002, 7.542966e+001
9.811088e+002, 7.437334e+001
9.815909e+002, 7.317639e+001
9.820731e+002, 7.178674e+001
9.825552e+002, 7.043032e+001
9.830373e+002, 6.952332e+001
9.835194e+002, 6.902562e+001
9.840015e+002, 6.870500e+001
9.844836e+002, 6.854961e+001
9.849658e+002, 6.821612e+001
9.854479e+002, 6.758401e+001
9.859300e+002, 6.684914e+001
9.864121e+002, 6.617249e+001
9.868942e+002, 6.556672e+001
9.873763e+002, 6.507339e+001
9.878585e+002, 6.467897e+001
9.883406e+002, 6.452919e+001
9.888227e+002, 6.473474e+001
9.893048e+002, 6.482146e+001
9.897869e+002, 6.456376e+001
9.902690e+002, 6.415285e+001
9.907512e+002, 6.376824e+001
9.912333e+002, 6.342563e+001
9.917154e+002, 6.335055e+001
9.921975e+002, 6.371889e+001
9.926796e+002, 6.398383e+001
9.931617e+002, 6.409682e+001
9.936439e+002, 6.411646e+001
9.941260e+002, 6.395313e+001
9.946081e+002, 6.378081e+001
9.950902e+002, 6.384370e+001
9.955723e+002, 6.414511e+001
9.960544e+002, 6.456226e+001
9.965366e+002, 6.516311e+001
9.970187e+002, 6.577843e+001
9.975008e+002, 6.638846e+001
9.979829e+002, 6.699863e+001
9.984650e+002, 6.752580e+001
9.989471e+002, 6.809533e+001
9.994293e+002, 6.895036e+001
9.999114e+002, 7.013880e+001
1.000393e+003, 7.127058e+001
1.000876e+003, 7.213564e+001
1.001358e+003, 7.304848e+001
1.001840e+003, 7.406963e+001
1.002322e+003, 7.524315e+001
1.002804e+003, 7.666172e+001
1.003286e+003, 7.825168e+001
1.003768e+003, 7.979970e+001
1.004250e+003, 8.122099e+001
1.004733e+003, 8.298741e+001
1.005215e+003, 8.550969e+001
1.005697e+003, 8.829079e+001
1.006179e+003, 9.090426e+001
1.006661e+003, 9.357630e+001
1.007143e+003, 9.664807e+001
1.007625e+003, 1.000641e+002
1.008107e+003, 1.035358e+002
1.008589e+003, 1.069132e+002
1.009072e+003, 1.105754e+002
1.009554e+003, 1.149967e+002
1.010036e+003, 1.197143e+002
1.010518e+003, 1.242382e+002
1.011000e+003, 1.286154e+002
1.011482e+003, 1.330645e+002
1.011964e+003, 1.375751e+002
1.012446e+003, 1.419140e+002
1.012929e+003, 1.459716e+002
1.013411e+003, 1.500246e+002
1.013893e+003, 1.544337e+002
1.014375e+003, 1.590763e+002
1.014857e+003, 1.638540e+002
1.015339e+003, 1.686530e+002
1.015821e+003, 1.733257e+002
1.016303e+003, 1.777566e+002
1.016785e+003, 1.815383e+002
1.017268e+003, 1.843999e+002
1.017750e+003, 1.864437e+002
1.018232e+003, 1.880794e+002
1.018714e+003, 1.890678e+002
1.019196e+003, 1.881053e+002
1.019678e+003, 1.853624e+002
1.020160e+003, 1.825764e+002
1.020642e+003, 1.802143e+002
1.021125e+003, 1.777489e+002
1.021607e+003, 1.746002e+002
1.022089e+003, 1.715508e+002
1.022571e+003, 1.704042e+002
1.023053e+003, 1.710986e+002
1.023535e+003, 1.725745e+002
1.024017e+003, 1.747905e+002
1.024499e+003, 1.781246e+002
1.024981e+003, 1.828623e+002
1.025464e+003, 1.877671e+002
1.025946e+003, 1.920060e+002
1.026428e+003, 1.949978e+002
1.026910e+003, 1.950338e+002
1.027392e+003, 1.921389e+002
1.027874e+003, 1.857328e+002
1.028356e+003, 1.753250e+002
1.028838e+003, 1.634618e+002
1.029321e+003, 1.505591e+002
1.029803e+003, 1.377355e+002
1.030285e+003, 1.257464e+002
1.030767e+003, 1.147830e+002
1.031249e+003, 1.057749e+002
1.031731e+003, 9.896950e+001
1.032213e+003, 9.310836e+001
1.032695e+003, 8.829458e+001
1.033177e+003, 8.400890e+001
1.033660e+003, 8.001994e+001
1.034142e+003, 7.659961e+001
1.034624e+003, 7.415210e+001
1.035106e+003, 7.251560e+001
1.035588e+003, 7.076182e+001
1.036070e+003, 6.854701e+001
1.036552e+003, 6.707266e+001
1.037034e+003, 6.675505e+001
1.037516e+003, 6.650101e+001
1.037999e+003, 6.590549e+001
1.038481e+003, 6.519760e+001
1.038963e+003, 6.458910e+001
1.039445e+003, 6.408103e+001
1.039927e+003, 6.367908e+001
1.040409e+003, 6.333270e+001
1.040891e+003, 6.318366e+001
1.041373e+003, 6.336080e+001
1.041855e+003, 6.357170e+001
1.042338e+003, 6.373281e+001
1.042820e+003, 6.385974e+001
1.043302e+003, 6.394103e+001
1.043784e+003, 6.399118e+001
1.044266e+003, 6.411811e+001
1.044748e+003, 6.418058e+001
1.045230e+003, 6.456356e+001
1.045712e+003, 6.576627e+001
1.046195e+003, 6.671475e+001
1.046677e+003, 6.676535e+001
1.047159e+003, 6.650816e+001
1.047641e+003, 6.648924e+001
1.048123e+003, 6.674107e+001
1.048605e+003, 6.727683e+001
1.049087e+003, 6.832787e+001
1.049569e+003, 6.924780e+001
1.050052e+003, 6.976306e+001
1.050534e+003, 7.033802e+001
1.051016e+003, 7.125246e+001
1.051498e+003, 7.228794e+001
1.051980e+003, 7.315629e+001
1.052462e+003, 7.389202e+001
1.052944e+003, 7.481327e+001
1.053426e+003, 7.609672e+001
1.053908e+003, 7.732844e+001
1.054391e+003, 7.827489e+001
1.054873e+003, 7.930369e+001
1.055355e+003, 8.045365e+001
1.055837e+003, 8.189159e+001
1.056319e+003, 8.389507e+001
1.056801e+003, 8.638304e+001
1.057283e+003, 8.888667e+001
1.057765e+003, 9.113548e+001
1.058248e+003, 9.374857e+001
1.058730e+003, 9.691547e+001
1.059212e+003, 1.005000e+002
1.059694e+003, 1.044770e+002
1.060176e+003, 1.087970e+002
1.060658e+003, 1.133778e+002
1.061140e+003, 1.182663e+002
1.061622e+003, 1.236359e+002
1.062104e+003, 1.293923e+002
1.062587e+003, 1.359822e+002
1.063069e+003, 1.437332e+002
1.063551e+003, 1.521271e+002
1.064033e+003, 1.607408e+002
1.064515e+003, 1.699234e+002
1.064997e+003, 1.801281e+002
1.065479e+003, 1.912932e+002
1.065961e+003, 2.031425e+002
1.066443e+003, 2.156264e+002
1.066926e+003, 2.285592e+002
1.067408e+003, 2.415247e+002
1.067890e+003, 2.552805e+002
1.068372e+003, 2.698172e+002
1.068854e+003, 2.857998e+002
1.069336e+003, 3.042215e+002
1.069818e+003, 3.247371e+002
1.070300e+003, 3.460215e+002
1.070782e+003, 3.675181e+002
1.071265e+003, 3.912148e+002
1.071747e+003, 4.194207e+002
1.072229e+003, 4.486295e+002
1.072711e+003, 4.767057e+002
1.073193e+003, 5.047403e+002
1.073675e+003, 5.347997e+002
1.074157e+003, 5.654992e+002
1.074639e+003, 5.939622e+002
1.075122e+003, 6.200178e+002
1.075604e+003, 6.389222e+002
1.076086e+003, 6.494435e+002
1.076568e+003, 6.511289e+002
1.077050e+003, 6.434818e+002
1.077532e+003, 6.270668e+002
1.078014e+003, 6.004472e+002
1.078496e+003, 5.659445e+002
1.078979e+003, 5.280450e+002
1.079461e+003, 4.877044e+002
1.079943e+003, 4.474583e+002
1.080425e+003, 4.075487e+002
1.080907e+003, 3.696153e+002
1.081389e+003, 3.340134e+002
1.081871e+003, 3.015481e+002
1.082353e+003, 2.730880e+002
1.082835e+003, 2.483508e+002
1.083318e+003, 2.270333e+002
1.083800e+003, 2.090582e+002
1.084282e+003, 1.930815e+002
1.084764e+003, 1.787057e+002
1.085246e+003, 1.659574e+002
1.085728e+003, 1.551373e+002
1.086210e+003, 1.456665e+002
1.086692e+003, 1.371790e+002
1.087175e+003, 1.296031e+002
1.087657e+003, 1.231567e+002
1.088139e+003, 1.178029e+002
1.088621e+003, 1.126527e+002
1.089103e+003, 1.070788e+002
1.089585e+003, 1.020235e+002
1.090067e+003, 9.802268e+001
1.090549e+003, 9.455931e+001
1.091031e+003, 9.133993e+001
1.091514e+003, 8.835594e+001
1.091996e+003, 8.567998e+001
1.092478e+003, 8.329878e+001
1.092960e+003, 8.108696e+001
1.093442e+003, 7.905291e+001
1.093924e+003, 7.709256e+001
1.094406e+003, 7.502862e+001
1.094888e+003, 7.315157e+001
1.095370e+003, 7.164027e+001
1.095853e+003, 7.043012e+001
1.096335e+003, 6.961726e+001
1.096817e+003, 6.905044e+001
1.097299e+003, 6.804714e+001
1.097781e+003, 6.614933e+001
1.098263e+003, 6.452559e+001
1.098745e+003, 6.371094e+001
1.099227e+003, 6.306812e+001
1.099709e+003, 6.234994e+001
1.100192e+003, 6.156578e+001
1.100674e+003, 6.069712e+001
1.101156e+003, 5.979176e+001
1.101638e+003, 5.898114e+001
1.102120e+003, 5.826899e+001
1.102602e+003, 5.772879e+001
1.103084e+003, 5.754601e+001
1.103566e+003, 5.731820e+001
1.104049e+003, 5.678790e+001
1.104531e+003, 5.623185e+001
1.105013e+003, 5.590212e+001
1.105495e+003, 5.573017e+001
1.105977e+003, 5.551543e+001
1.106459e+003, 5.521799e+001
1.106941e+003, 5.498003e+001
1.107423e+003, 5.499445e+001
1.107906e+003, 5.483461e+001
1.108388e+003, 5.424488e+001
1.108870e+003, 5.359444e+001
1.109352e+003, 5.303368e+001
1.109834e+003, 5.261974e+001
1.110316e+003, 5.249912e+001
1.110798e+003, 5.269652e+001
1.111280e+003, 5.274041e+001
1.111762e+003, 5.247353e+001
1.112245e+003, 5.223431e+001
1.112727e+003, 5.205120e+001
1.113209e+003, 5.191860e+001
1.113691e+003, 5.184639e+001
1.114173e+003, 5.181593e+001
1.114655e+003, 5.183614e+001
1.115137e+003, 5.189602e+001
1.115619e+003, 5.184423e+001
1.116102e+003, 5.156718e+001
1.116584e+003, 5.138166e+001
1.117066e+003, 5.139429e+001
1.117548e+003, 5.134201e+001
1.118030e+003, 5.105423e+001
1.118512e+003, 5.075108e+001
1.118994e+003, 5.067185e+001
1.119476e+003, 5.074641e+001
1.119958e+003, 5.067710e+001
1.120441e+003, 5.035901e+001
1.120923e+003, 5.025056e+001
1.121405e+003, 5.050957e+001
1.121887e+003, 5.061537e+001
1.122369e+003, 5.032428e+001
1.122851e+003, 5.006184e+001
1.123333e+003, 5.019949e+001
1.123815e+003, 5.052139e+001
1.124297e+003, 5.051599e+001
1.124780e+003, 5.013708e+001
1.125262e+003, 5.006335e+001
1.125744e+003, 5.042128e+001
1.126226e+003, 5.058849e+001
1.126708e+003, 5.038153e+001
1.127190e+003, 5.021968e+001
1.127672e+003, 5.030576e+001
1.128154e+003, 5.064436e+001
1.128636e+003, 5.130446e+001
1.129119e+003, 5.221685e+001
1.129601e+003, 5.276045e+001
1.130083e+003, 5.290207e+001
1.130565e+003, 5.307473e+001
1.131047e+003, 5.332764e+001
1.131529e+003, 5.352505e+001
1.132011e+003, 5.359840e+001
1.132493e+003, 5.368844e+001
1.132976e+003, 5.393535e+001
1.133458e+003, 5.431322e+001
1.133940e+003, 5.476604e+001
1.134422e+003, 5.528862e+001
1.134904e+003, 5.583038e+001
1.135386e+003, 5.638255e+001
1.135868e+003, 5.677656e+001
1.136350e+003, 5.697440e+001
1.136833e+003, 5.736744e+001
1.137315e+003, 5.826049e+001
1.137797e+003, 5.934015e+001
1.138279e+003, 6.009496e+001
1.138761e+003, 6.059379e+001
1.139243e+003, 6.098801e+001
1.139725e+003, 6.133494e+001
1.140207e+003, 6.194978e+001
1.140689e+003, 6.281761e+001
1.141172e+003, 6.345882e+001
1.141654e+003, 6.365131e+001
1.142136e+003, 6.379289e+001
1.142618e+003, 6.438545e+001
1.143100e+003, 6.510545e+001
1.143582e+003, 6.539671e+001
1.144064e+003, 6.540041e+001
1.144546e+003, 6.537302e+001
1.145029e+003, 6.534532e+001
1.145511e+003, 6.526789e+001
1.145993e+003, 6.514550e+001
1.146475e+003, 6.515023e+001
1.146957e+003, 6.550562e+001
1.147439e+003, 6.575750e+001
1.147921e+003, 6.540265e+001
1.148403e+003, 6.473717e+001
1.148885e+003, 6.397849e+001
1.149368e+003, 6.325012e+001
1.149850e+003, 6.276982e+001
1.150332e+003, 6.250262e+001
1.150814e+003, 6.217011e+001
1.151296e+003, 6.165852e+001
1.151778e+003, 6.109156e+001
1.152260e+003, 6.054665e+001
1.152742e+003, 5.997339e+001
1.153224e+003, 5.925512e+001
1.153707e+003, 5.855115e+001
1.154189e+003, 5.805828e+001
1.154671e+003, 5.770968e+001
1.155153e+003, 5.728108e+001
1.155635e+003, 5.672298e+001
1.156117e+003, 5.638512e+001
1.156599e+003, 5.664952e+001
1.157081e+003, 5.676199e+001
1.157563e+003, 5.633898e+001
1.158046e+003, 5.585741e+001
1.158528e+003, 5.557583e+001
1.159010e+003, 5.543732e+001
1.159492e+003, 5.544649e+001
1.159974e+003, 5.554824e+001
1.160456e+003, 5.533464e+001
1.160938e+003, 5.446807e+001
1.161420e+003, 5.387781e+001
1.161903e+003, 5.376443e+001
1.162385e+003, 5.369769e+001
1.162867e+003, 5.360487e+001
1.163349e+003, 5.346168e+001
1.163831e+003, 5.316274e+001
1.164313e+003, 5.284922e+001
1.164795e+003, 5.290185e+001
1.165277e+003, 5.338520e+001
1.165760e+003, 5.368925e+001
1.166242e+003, 5.377251e+001
1.166724e+003, 5.381095e+001
1.167206e+003, 5.383897e+001
1.167688e+003, 5.379113e+001
1.168170e+003, 5.361299e+001
1.168652e+003, 5.340433e+001
1.169134e+003, 5.330387e+001
1.169616e+003, 5.327551e+001
1.170099e+003, 5.308644e+001
1.170581e+003, 5.273104e+001
1.171063e+003, 5.281895e+001
1.171545e+003, 5.339191e+001
1.172027e+003, 5.365538e+001
1.172509e+003, 5.336460e+001
1.172991e+003, 5.300813e+001
1.173473e+003, 5.296995e+001
1.173956e+003, 5.301345e+001
1.174438e+003, 5.262410e+001
1.174920e+003, 5.200946e+001
1.175402e+003, 5.189515e+001
1.175884e+003, 5.216330e+001
1.176366e+003, 5.240775e+001
1.176848e+003, 5.255571e+001
1.177330e+003, 5.263050e+001
1.177813e+003, 5.264455e+001
1.178295e+003, 5.263471e+001
1.178777e+003, 5.266471e+001
1.179259e+003, 5.264246e+001
1.179741e+003, 5.232746e+001
1.180223e+003, 5.197753e+001
1.180705e+003, 5.203333e+001
1.181187e+003, 5.233458e+001
1.181669e+003, 5.246629e+001
1.182151e+003, 5.239136e+001
1.182634e+003, 5.241973e+001
1.183116e+003, 5.272213e+001
1.183598e+003, 5.302955e+001
1.184080e+003, 5.324609e+001
1.184562e+003, 5.334209e+001
1.185044e+003, 5.323880e+001
1.185526e+003, 5.305362e+001
1.186008e+003, 5.284819e+001
1.186490e+003, 5.267662e+001
1.186973e+003, 5.262812e+001
1.187455e+003, 5.271913e+001
1.187937e+003, 5.289888e+001
1.188419e+003, 5.331053e+001
1.188901e+003, 5.358237e+001
1.189383e+003, 5.360273e+001
1.189865e+003, 5.351557e+001
1.190347e+003, 5.316592e+001
1.190830e+003, 5.292978e+001
1.191312e+003, 5.339292e+001
1.191794e+003, 5.433252e+001
1.192276e+003, 5.461049e+001
1.192758e+003, 5.394224e+001
1.193240e+003, 5.358489e+001
1.193722e+003, 5.360936e+001
1.194204e+003, 5.374921e+001
1.194687e+003, 5.397055e+001
1.195169e+003, 5.421661e+001
1.195651e+003, 5.446514e+001
1.196133e+003, 5.468336e+001
1.196615e+003, 5.481931e+001
1.197097e+003, 5.487842e+001
1.197579e+003, 5.485273e+001
1.198061e+003, 5.475513e+001
1.198543e+003, 5.489535e+001
1.199026e+003, 5.527729e+001
1.199508e+003, 5.547403e+001
1.199990e+003, 5.535163e+001
1.200472e+003, 5.524335e+001
1.200954e+003, 5.542153e+001
1.201436e+003, 5.571486e+001
1.201918e+003, 5.583596e+001
1.202400e+003, 5.590258e+001
1.202883e+003, 5.621542e+001
1.203365e+003, 5.664476e+001
1.203847e+003, 5.678125e+001
1.204329e+003, 5.671165e+001
1.204811e+003, 5.705040e+001
1.205293e+003, 5.799411e+001
1.205775e+003, 5.865442e+001
1.206257e+003, 5.816626e+001
1.206740e+003, 5.753800e+001
1.207222e+003, 5.743573e+001
1.207704e+003, 5.758573e+001
1.208186e+003, 5.785563e+001
1.208668e+003, 5.814069e+001
1.209150e+003, 5.828998e+001
1.209632e+003, 5.833088e+001
1.210114e+003, 5.845695e+001
1.210596e+003, 5.870018e+001
1.211078e+003, 5.906386e+001
1.211561e+003, 5.982023e+001
1.212043e+003, 6.032624e+001
1.212525e+003, 6.009892e+001
1.213007e+003, 5.987533e+001
1.213489e+003, 6.023810e+001
1.213971e+003, 6.080933e+001
1.214453e+003, 6.095710e+001
1.214935e+003, 6.071766e+001
1.215417e+003, 6.078226e+001
1.215900e+003, 6.124582e+001
1.216382e+003, 6.165224e+001
1.216864e+003, 6.196648e+001
1.217346e+003, 6.225566e+001
1.217828e+003, 6.253074e+001
1.218310e+003, 6.286583e+001
1.218792e+003, 6.335508e+001
1.219274e+003, 6.380396e+001
1.219757e+003, 6.379993e+001
1.220239e+003, 6.345388e+001
1.220721e+003, 6.324897e+001
1.221203e+003, 6.319081e+001
1.221685e+003, 6.335060e+001
1.222167e+003, 6.369835e+001
1.222649e+003, 6.407067e+001
1.223131e+003, 6.439919e+001
1.223614e+003, 6.460790e+001
1.224096e+003, 6.458657e+001
1.224578e+003, 6.458558e+001
1.225060e+003, 6.505589e+001
1.225542e+003, 6.554460e+001
1.226024e+003, 6.533133e+001
1.226506e+003, 6.486456e+001
1.226988e+003, 6.494736e+001
1.227470e+003, 6.545384e+001
1.227953e+003, 6.569557e+001
1.228435e+003, 6.547177e+001
1.228917e+003, 6.528694e+001
1.229399e+003, 6.538707e+001
1.229881e+003, 6.548052e+001
1.230363e+003, 6.538718e+001
1.230845e+003, 6.535651e+001
1.231327e+003, 6.564297e+001
1.231810e+003, 6.599207e+001
1.232292e+003, 6.606130e+001
1.232774e+003, 6.592948e+001
1.233256e+003, 6.593108e+001
1.233738e+003, 6.613334e+001
1.234220e+003, 6.617515e+001
1.234702e+003, 6.602436e+001
1.235184e+003, 6.578437e+001
1.235667e+003, 6.540542e+001
1.236149e+003, 6.524020e+001
1.236631e+003, 6.551522e+001
1.237113e+003, 6.587543e+001
1.237595e+003, 6.586891e+001
1.238077e+003, 6.566740e+001
1.238559e+003, 6.586254e+001
1.239041e+003, 6.633652e+001
1.239523e+003, 6.637855e+001
1.240005e+003, 6.609566e+001
1.240488e+003, 6.624155e+001
1.240970e+003, 6.687759e+001
1.241452e+003, 6.727805e+001
1.241934e+003, 6.708265e+001
1.242416e+003, 6.700313e+001
1.242898e+003, 6.802293e+001
1.243380e+003, 6.909758e+001
1.243862e+003, 6.895516e+001
1.244344e+003, 6.848943e+001
1.244827e+003, 6.870206e+001
1.245309e+003, 6.934978e+001
1.245791e+003, 6.991560e+001
1.246273e+003, 7.034464e+001
1.246755e+003, 7.082742e+001
1.247237e+003, 7.141550e+001
1.247719e+003, 7.204926e+001
1.248201e+003, 7.284342e+001
1.248684e+003, 7.350530e+001
1.249166e+003, 7.369449e+001
1.249648e+003, 7.402269e+001
1.250130e+003, 7.487308e+001
1.250612e+003, 7.601064e+001
1.251094e+003, 7.714082e+001
1.251576e+003, 7.827803e+001
1.252058e+003, 7.948580e+001
1.252541e+003, 8.074996e+001
1.253023e+003, 8.222026e+001
1.253505e+003, 8.392902e+001
1.253987e+003, 8.552443e+001
1.254469e+003, 8.692058e+001
1.254951e+003, 8.863670e+001
1.255433e+003, 9.098333e+001
1.255915e+003, 9.356133e+001
1.256397e+003, 9.581543e+001
1.256880e+003, 9.807582e+001
1.257362e+003, 1.010796e+002
1.257844e+003, 1.045029e+002
1.258326e+003, 1.076873e+002
1.258808e+003, 1.107239e+002
1.259290e+003, 1.139894e+002
1.259772e+003, 1.175165e+002
1.260254e+003, 1.210523e+002
1.260737e+003, 1.244156e+002
1.261219e+003, 1.283482e+002
1.261701e+003, 1.335220e+002
1.262183e+003, 1.389767e+002
1.262665e+003, 1.444660e+002
1.263147e+003, 1.498684e+002
1.263629e+003, 1.551521e+002
1.264111e+003, 1.602768e+002
1.264594e+003, 1.654420e+002
1.265076e+003, 1.704503e+002
1.265558e+003, 1.742719e+002
1.266040e+003, 1.769687e+002
1.266522e+003, 1.782021e+002
1.267004e+003, 1.778010e+002
1.267486e+003, 1.765908e+002
1.267968e+003, 1.747948e+002
1.268450e+003, 1.717854e+002
1.268932e+003, 1.671848e+002
1.269415e+003, 1.615774e+002
1.269897e+003, 1.554261e+002
1.270379e+003, 1.490368e+002
1.270861e+003, 1.429975e+002
1.271343e+003, 1.373248e+002
1.271825e+003, 1.322569e+002
1.272307e+003, 1.275535e+002
1.272789e+003, 1.223606e+002
1.273271e+003, 1.168040e+002
1.273754e+003, 1.119971e+002
1.274236e+003, 1.083209e+002
1.274718e+003, 1.052305e+002
1.275200e+003, 1.025582e+002
1.275682e+003, 1.001115e+002
1.276164e+003, 9.776099e+001
1.276646e+003, 9.561253e+001
1.277128e+003, 9.379328e+001
1.277611e+003, 9.218884e+001
1.278093e+003, 9.073251e+001
1.278575e+003, 8.937431e+001
1.279057e+003, 8.799582e+001
1.279539e+003, 8.656178e+001
1.280021e+003, 8.541270e+001
1.280503e+003, 8.465810e+001
1.280985e+003, 8.382351e+001
1.281468e+003, 8.286148e+001
1.281950e+003, 8.191073e+001
1.282432e+003, 8.099800e+001
1.282914e+003, 8.022639e+001
1.283396e+003, 7.967404e+001
1.283878e+003, 7.934209e+001
1.284360e+003, 7.937181e+001
1.284842e+003, 7.952561e+001
1.285324e+003, 7.915137e+001
##END=



