##NAMES=Krohnkite
##RRUFFID=R050604
##IDEAL CHEMISTRY=Na_2_Cu^2+^(S^6+^O_4_)_2_&#183;2H_2_O
##LOCALITY=Chuquicamata, Chile
##OWNER=RRUFF
##SOURCE=University of Arizona Mineral Museum
##DESCRIPTION=Green elongated prismatic crystals with orange natrojarosite and minor colorless leightonite
##STATUS=The identification of this mineral has been confirmed by X-ray diffraction and chemical analysis
##URL=rruff.info/R050604
##MEASURED CHEMISTRY=Na_2.00_Cu_1.00_(S_1.00_O_4_)_2_Â·2H_2_O
91.11523, 57.18128
91.59735, 57.45589
92.07947, 57.19670
92.56158, 56.57743
93.04370, 56.14566
93.52582, 56.44274
94.00793, 57.13155
94.49006, 57.31548
94.97218, 56.66940
95.45429, 56.03821
95.93641, 57.25494
96.41853, 60.26426
96.90064, 62.80226
97.38276, 62.58752
97.86488, 59.94689
98.34699, 58.67639
98.82911, 59.82738
99.31123, 62.51445
99.79334, 63.56921
100.2755, 62.57314
100.7576, 61.36401
101.2397, 61.88685
101.7218, 64.68436
102.2039, 66.61221
102.6861, 66.81737
103.1682, 65.31976
103.6503, 64.07498
104.1324, 63.05437
104.6145, 62.30496
105.0966, 61.88911
105.5788, 61.91750
106.0609, 62.09008
106.5430, 62.25855
107.0251, 62.25445
107.5072, 62.92776
107.9893, 65.40528
108.4715, 68.28516
108.9536, 69.02151
109.4357, 63.64591
109.9178, 59.68138
110.3999, 59.55586
110.8820, 65.30900
111.3642, 71.52573
111.8463, 79.47281
112.3284, 87.96040
112.8105, 93.79061
113.2926, 96.13212
113.7747, 96.07750
114.2569, 94.05486
114.7390, 86.09270
115.2211, 80.80688
115.7032, 81.93473
116.1853, 88.20494
116.6674, 93.14359
117.1496, 92.99736
117.6317, 91.39373
118.1138, 91.33337
118.5959, 94.82884
119.0780, 99.11024
119.5602, 102.9856
120.0423, 106.4952
120.5244, 110.0075
121.0065, 113.5029
121.4886, 117.1800
121.9707, 121.3195
122.4529, 126.3176
122.9350, 131.6114
123.4171, 136.9438
123.8992, 142.3517
124.3813, 147.1709
124.8634, 150.4486
125.3456, 152.6880
125.8277, 155.0424
126.3098, 158.1421
126.7919, 161.6674
127.2740, 165.0294
127.7561, 168.0793
128.2383, 171.3791
128.7204, 175.8706
129.2025, 181.3484
129.6846, 186.7335
130.1667, 190.7190
130.6488, 193.9797
131.1310, 199.1587
131.6131, 207.1300
132.0952, 216.1075
132.5773, 222.8624
133.0594, 227.3896
133.5415, 231.1567
134.0237, 234.7841
134.5058, 238.3566
134.9879, 243.0025
135.4700, 249.3666
135.9521, 256.6689
136.4343, 262.6007
136.9164, 267.0001
137.3985, 270.7536
137.8806, 274.0960
138.3627, 276.7409
138.8448, 281.5211
139.3270, 290.2033
139.8091, 302.0356
140.2912, 309.2778
140.7733, 310.8946
141.2554, 309.8675
141.7375, 308.9310
142.2197, 307.8330
142.7018, 307.4898
143.1839, 308.1830
143.6660, 309.9518
144.1481, 312.0720
144.6302, 314.6089
145.1124, 317.4281
145.5945, 320.4039
146.0766, 324.1187
146.5587, 327.1318
147.0408, 328.8079
147.5230, 328.5292
148.0051, 329.1926
148.4872, 329.8933
148.9693, 329.4530
149.4514, 328.7462
149.9335, 327.0826
150.4157, 325.8968
150.8978, 325.7556
151.3799, 327.6325
151.8620, 328.4969
152.3441, 327.0223
152.8262, 324.6844
153.3084, 324.3029
153.7905, 327.9106
154.2726, 331.8452
154.7547, 334.8431
155.2368, 336.3046
155.7189, 337.6003
156.2011, 338.7172
156.6832, 339.7667
157.1653, 341.0048
157.6474, 342.5762
158.1295, 344.2642
158.6116, 345.9665
159.0938, 347.7450
159.5759, 349.4147
160.0580, 351.3728
160.5401, 353.3027
161.0222, 354.1060
161.5044, 352.5256
161.9865, 350.2270
162.4686, 348.3364
162.9507, 347.3151
163.4328, 346.5214
163.9149, 345.9576
164.3971, 345.5081
164.8792, 344.6082
165.3613, 341.5157
165.8434, 338.4881
166.3255, 337.6129
166.8076, 341.9804
167.2898, 346.5341
167.7719, 347.8658
168.2540, 346.3710
168.7361, 345.4730
169.2182, 348.4697
169.7003, 352.8236
170.1825, 355.5011
170.6646, 353.6519
171.1467, 350.8950
171.6288, 350.1211
172.1109, 351.2805
172.5931, 352.9286
173.0752, 354.1448
173.5573, 355.1395
174.0394, 356.2605
174.5215, 357.4404
175.0036, 358.9062
175.4858, 361.2148
175.9679, 364.4174
176.4500, 367.2544
176.9321, 368.0711
177.4142, 367.7007
177.8963, 368.0295
178.3785, 371.1938
178.8606, 375.1425
179.3427, 376.3103
179.8248, 374.5016
180.3069, 371.8431
180.7890, 370.6072
181.2712, 370.3677
181.7533, 369.7764
182.2354, 367.9594
182.7175, 365.3839
183.1996, 363.2405
183.6818, 361.6470
184.1639, 359.8652
184.6460, 356.9331
185.1281, 352.9883
185.6102, 348.5832
186.0923, 343.3299
186.5745, 337.7631
187.0566, 333.9178
187.5387, 332.0096
188.0208, 331.1656
188.5029, 330.6386
188.9850, 330.3501
189.4672, 329.3100
189.9493, 326.1232
190.4314, 321.4560
190.9135, 318.9815
191.3956, 319.3726
191.8777, 320.7657
192.3599, 319.9819
192.8420, 317.0104
193.3241, 314.3170
193.8062, 313.2360
194.2883, 313.6499
194.7704, 314.4191
195.2526, 315.5125
195.7347, 316.8678
196.2168, 318.4170
196.6989, 320.1633
197.1810, 321.9810
197.6632, 324.1982
198.1453, 326.8253
198.6274, 327.6949
199.1095, 326.1220
199.5916, 323.5369
200.0737, 322.9780
200.5559, 324.6456
201.0380, 326.9922
201.5201, 329.4864
202.0022, 332.2241
202.4843, 333.9611
202.9664, 334.1954
203.4486, 333.8549
203.9307, 335.2586
204.4128, 338.7472
204.8949, 342.5520
205.3770, 345.8640
205.8591, 348.7108
206.3413, 350.7001
206.8234, 351.3290
207.3055, 351.4390
207.7876, 353.4042
208.2697, 357.7076
208.7519, 362.3483
209.2340, 366.4404
209.7161, 370.0219
210.1982, 372.7509
210.6803, 374.3277
211.1624, 375.1993
211.6446, 376.7119
212.1267, 379.2020
212.6088, 381.4906
213.0909, 382.8545
213.5730, 382.9757
214.0551, 383.4589
214.5373, 384.5279
215.0194, 385.9559
215.5015, 387.1961
215.9836, 388.4175
216.4657, 389.1221
216.9478, 388.9766
217.4300, 387.7059
217.9121, 386.4250
218.3942, 385.0874
218.8763, 383.7953
219.3584, 382.9881
219.8405, 383.0664
220.3227, 382.8753
220.8048, 381.7147
221.2869, 379.0820
221.7690, 376.9349
222.2511, 375.6677
222.7333, 374.8351
223.2154, 373.1387
223.6975, 370.2219
224.1796, 367.0254
224.6617, 363.9233
225.1438, 360.7773
225.6260, 358.1525
226.1081, 356.2154
226.5902, 354.7880
227.0723, 353.4388
227.5544, 352.2123
228.0365, 350.9809
228.5187, 349.6723
229.0008, 348.2282
229.4829, 346.8533
229.9650, 345.5815
230.4471, 344.3506
230.9292, 342.9805
231.4114, 341.3501
231.8935, 339.7114
232.3756, 338.1738
232.8577, 336.6711
233.3398, 335.3162
233.8220, 333.9602
234.3041, 332.7899
234.7862, 332.4172
235.2683, 333.5261
235.7504, 334.3820
236.2325, 334.1961
236.7147, 332.4727
237.1968, 330.9653
237.6789, 329.4273
238.1610, 328.2177
238.6431, 328.2245
239.1252, 330.1651
239.6074, 332.2385
240.0895, 333.7219
240.5716, 334.2794
241.0537, 335.2213
241.5358, 336.8076
242.0179, 338.6521
242.5001, 339.8223
242.9822, 339.3029
243.4643, 339.7635
243.9464, 342.5690
244.4285, 349.0753
244.9106, 353.2834
245.3928, 354.0058
245.8749, 353.1544
246.3570, 354.0431
246.8391, 357.1652
247.3212, 361.1949
247.8034, 366.0507
248.2855, 372.3101
248.7676, 376.8488
249.2497, 378.6694
249.7318, 379.5426
250.2139, 382.2352
250.6961, 387.6598
251.1782, 393.2725
251.6603, 398.3700
252.1424, 402.8588
252.6245, 407.4636
253.1066, 411.9413
253.5888, 416.7934
254.0709, 422.8606
254.5530, 430.7112
255.0351, 438.6746
255.5172, 446.4154
255.9993, 454.0391
256.4815, 460.5150
256.9636, 464.7940
257.4457, 468.9619
257.9278, 475.5706
258.4099, 485.4864
258.8921, 495.9539
259.3742, 506.7220
259.8563, 517.7181
260.3384, 527.8101
260.8205, 536.5923
261.3026, 544.8722
261.7848, 553.5400
262.2669, 562.6080
262.7490, 571.8896
263.2311, 581.5746
263.7132, 591.5964
264.1953, 600.3717
264.6775, 608.2422
265.1596, 614.1895
265.6417, 617.1400
266.1238, 616.6226
266.6059, 614.7242
267.0880, 611.7140
267.5702, 607.5848
268.0523, 602.4387
268.5344, 596.0449
269.0165, 588.9620
269.4986, 581.5211
269.9807, 573.6489
270.4629, 565.3837
270.9450, 556.6224
271.4271, 547.4655
271.9092, 538.5473
272.3913, 529.7527
272.8734, 521.5170
273.3556, 514.0370
273.8377, 507.2630
274.3198, 501.6480
274.8019, 497.3559
275.2840, 494.0986
275.7661, 491.0130
276.2483, 488.0409
276.7304, 485.4997
277.2125, 483.6664
277.6946, 482.5558
278.1768, 481.7193
278.6589, 480.9912
279.1410, 480.7157
279.6231, 481.5396
280.1052, 483.4843
280.5873, 486.4825
281.0695, 491.2800
281.5516, 497.8524
282.0337, 501.7062
282.5158, 501.7884
282.9979, 501.1522
283.4800, 505.1615
283.9622, 514.0151
284.4443, 523.1814
284.9264, 530.5668
285.4085, 536.3528
285.8906, 542.7655
286.3727, 549.8367
286.8549, 557.3878
287.3370, 565.0448
287.8191, 572.8348
288.3012, 581.5049
288.7833, 591.8430
289.2654, 603.1722
289.7476, 612.5705
290.2297, 619.7077
290.7118, 627.5012
291.1939, 639.9488
291.6760, 656.1911
292.1581, 671.6378
292.6403, 684.6019
293.1224, 696.0145
293.6045, 708.3629
294.0866, 721.5520
294.5687, 734.9618
295.0508, 749.1013
295.5330, 763.2567
296.0151, 774.4933
296.4972, 781.5262
296.9793, 786.2524
297.4614, 792.2744
297.9435, 799.2968
298.4257, 804.3311
298.9078, 805.4349
299.3899, 802.9288
299.8720, 797.3038
300.3541, 788.2723
300.8362, 776.8469
301.3184, 764.4846
301.8005, 750.8216
302.2826, 734.9054
302.7647, 714.8802
303.2469, 692.5579
303.7290, 669.9224
304.2111, 647.2861
304.6932, 624.8486
305.1753, 603.4785
305.6574, 582.7639
306.1396, 562.5673
306.6217, 541.4620
307.1038, 521.2762
307.5859, 504.2854
308.0680, 490.6778
308.5501, 478.1153
309.0323, 464.7253
309.5144, 451.1859
309.9965, 438.6271
310.4786, 426.8594
310.9607, 416.5644
311.4428, 408.8106
311.9250, 403.5471
312.4071, 398.3204
312.8892, 391.7999
313.3713, 384.6621
313.8534, 377.5511
314.3355, 370.2232
314.8177, 363.4747
315.2998, 357.3019
315.7819, 351.8954
316.2640, 348.1354
316.7461, 348.3523
317.2282, 349.3361
317.7104, 348.5009
318.1925, 343.5886
318.6746, 339.3085
319.1567, 337.7856
319.6388, 338.1571
320.1209, 338.1705
320.6031, 337.6803
321.0852, 336.2405
321.5673, 333.3092
322.0494, 327.6971
322.5315, 323.2322
323.0136, 321.3687
323.4958, 321.0327
323.9779, 320.4787
324.4600, 319.6920
324.9421, 318.3922
325.4242, 316.1733
325.9064, 312.5675
326.3885, 310.0582
326.8706, 309.6088
327.3527, 310.0435
327.8348, 310.1120
328.3170, 310.1060
328.7991, 309.3546
329.2812, 307.2268
329.7633, 303.6409
330.2454, 301.4429
330.7275, 301.1061
331.2097, 301.7817
331.6918, 302.9353
332.1739, 304.9238
332.6560, 306.8324
333.1381, 308.7349
333.6202, 310.5049
334.1024, 311.4798
334.5845, 311.6736
335.0666, 311.0365
335.5487, 309.3313
336.0308, 305.9676
336.5129, 303.3271
336.9951, 301.5976
337.4772, 300.5455
337.9593, 299.6182
338.4414, 298.7720
338.9235, 298.1964
339.4056, 297.8703
339.8878, 297.7617
340.3699, 298.6871
340.8520, 301.1610
341.3341, 303.7042
341.8162, 304.1916
342.2983, 302.4185
342.7805, 300.7113
343.2626, 299.7824
343.7447, 299.4976
344.2268, 299.2112
344.7089, 298.8929
345.1910, 298.6954
345.6732, 299.0059
346.1553, 299.7051
346.6374, 299.6591
347.1195, 298.2116
347.6016, 296.4008
348.0837, 296.6998
348.5659, 298.9903
349.0480, 301.2066
349.5301, 301.7579
350.0122, 301.1642
350.4944, 300.7254
350.9765, 300.6569
351.4586, 300.6129
351.9407, 299.9105
352.4228, 298.8153
352.9049, 298.1998
353.3871, 298.9336
353.8692, 300.2216
354.3513, 301.0341
354.8334, 301.3067
355.3155, 301.3691
355.7976, 301.3942
356.2798, 301.3928
356.7619, 301.3839
357.2440, 301.1487
357.7261, 301.0764
358.2082, 301.7602
358.6903, 303.0378
359.1725, 303.8102
359.6546, 302.9425
360.1367, 301.5660
360.6188, 300.6502
361.1009, 300.3916
361.5830, 300.7033
362.0652, 302.1278
362.5473, 304.1390
363.0294, 305.4391
363.5115, 304.9600
363.9936, 304.1528
364.4757, 303.7342
364.9579, 303.8656
365.4400, 304.1234
365.9221, 304.7440
366.4042, 305.3509
366.8863, 305.4648
367.3684, 304.1485
367.8506, 303.2230
368.3327, 303.4490
368.8148, 304.9965
369.2969, 305.6006
369.7790, 303.7067
370.2611, 301.9531
370.7433, 302.3279
371.2254, 307.4733
371.7075, 310.5287
372.1896, 310.2333
372.6717, 307.3711
373.1538, 305.1357
373.6360, 303.4564
374.1181, 302.5088
374.6002, 302.5333
375.0823, 303.8767
375.5645, 304.9327
376.0466, 305.6229
376.5287, 306.0986
377.0108, 306.6438
377.4929, 307.3104
377.9750, 307.7365
378.4572, 307.5926
378.9393, 307.0059
379.4214, 307.3688
379.9035, 308.8760
380.3856, 310.5144
380.8677, 311.2559
381.3499, 311.1496
381.8320, 310.6834
382.3141, 309.5238
382.7962, 308.5436
383.2783, 310.1353
383.7604, 314.1341
384.2426, 317.9121
384.7247, 319.3223
385.2068, 319.2604
385.6889, 320.1927
386.1710, 322.7109
386.6531, 324.8216
387.1353, 323.4617
387.6174, 319.9052
388.0995, 317.4577
388.5816, 318.3044
389.0637, 320.6257
389.5458, 322.8952
390.0280, 325.0789
390.5101, 326.7545
390.9922, 327.4598
391.4743, 327.5853
391.9564, 327.5420
392.4385, 327.1899
392.9207, 327.0189
393.4028, 327.4472
393.8849, 328.2850
394.3670, 328.9707
394.8491, 328.5060
395.3312, 328.3938
395.8134, 329.7474
396.2955, 333.5326
396.7776, 336.4484
397.2597, 337.2717
397.7418, 336.9572
398.2239, 336.7516
398.7061, 336.1116
399.1882, 336.3072
399.6703, 337.9210
400.1524, 341.0217
400.6346, 343.8926
401.1167, 346.8377
401.5988, 349.2637
402.0809, 350.6476
402.5630, 350.0774
403.0451, 350.2896
403.5273, 351.8002
404.0094, 354.1013
404.4915, 355.5172
404.9736, 355.3480
405.4557, 356.0101
405.9378, 359.2369
406.4200, 365.4695
406.9021, 368.5970
407.3842, 367.6430
407.8663, 365.7947
408.3484, 367.3555
408.8305, 372.4037
409.3127, 377.3462
409.7948, 381.0081
410.2769, 383.9940
410.7590, 388.0487
411.2411, 393.2025
411.7232, 398.4184
412.2054, 403.0983
412.6875, 407.3167
413.1696, 410.8858
413.6517, 413.5533
414.1338, 416.4887
414.6159, 421.3485
415.0981, 427.5916
415.5802, 433.7262
416.0623, 438.8729
416.5444, 443.5815
417.0265, 447.9089
417.5086, 451.9107
417.9908, 456.6831
418.4729, 462.9596
418.9550, 470.3241
419.4371, 478.2772
419.9192, 487.5337
420.4013, 496.4278
420.8835, 504.6822
421.3656, 512.0725
421.8477, 518.0696
422.3298, 519.6163
422.8119, 521.9996
423.2940, 528.2474
423.7762, 540.3500
424.2583, 550.8924
424.7404, 558.4128
425.2225, 564.1053
425.7047, 569.5555
426.1868, 574.5579
426.6689, 579.5374
427.1510, 584.8981
427.6331, 590.4916
428.1152, 594.7463
428.5974, 597.0350
429.0795, 598.9963
429.5616, 601.9908
430.0437, 606.7636
430.5258, 609.1458
431.0079, 608.2802
431.4901, 605.7625
431.9722, 604.3176
432.4543, 604.0030
432.9364, 604.1835
433.4185, 604.9545
433.9006, 606.0420
434.3828, 605.9405
434.8649, 604.5587
435.3470, 603.1249
435.8291, 602.1381
436.3112, 601.9402
436.7933, 603.7295
437.2755, 608.0118
437.7576, 613.7817
438.2397, 619.9958
438.7218, 626.6472
439.2039, 633.6966
439.6860, 641.2890
440.1682, 649.2462
440.6503, 657.3277
441.1324, 665.6031
441.6145, 673.5809
442.0966, 681.2497
442.5787, 688.3324
443.0609, 694.5408
443.5430, 700.6892
444.0251, 704.9543
444.5072, 705.8683
444.9893, 704.1622
445.4714, 702.5485
445.9536, 701.9872
446.4357, 701.3539
446.9178, 699.7945
447.3999, 695.9937
447.8820, 694.8129
448.3641, 696.5004
448.8463, 700.7341
449.3284, 707.4247
449.8105, 717.7412
450.2926, 728.1849
450.7747, 737.4877
451.2569, 746.3409
451.7390, 758.7379
452.2211, 775.3585
452.7032, 794.1064
453.1853, 813.6635
453.6674, 834.1248
454.1496, 856.4263
454.6317, 880.7726
455.1138, 906.8919
455.5959, 933.2464
456.0780, 960.3231
456.5602, 991.2732
457.0423, 1028.531
457.5244, 1069.389
458.0065, 1109.502
458.4886, 1148.589
458.9707, 1187.457
459.4529, 1227.235
459.9350, 1266.870
460.4171, 1304.040
460.8992, 1339.694
461.3813, 1370.559
461.8634, 1396.153
462.3456, 1415.196
462.8277, 1424.965
463.3098, 1426.617
463.7919, 1416.927
464.2740, 1394.133
464.7561, 1358.282
465.2383, 1310.981
465.7204, 1246.021
466.2025, 1174.197
466.6846, 1102.325
467.1667, 1028.764
467.6488, 959.3766
468.1310, 892.6930
468.6131, 830.5393
469.0952, 774.3185
469.5773, 724.7269
470.0594, 680.1932
470.5415, 640.2899
471.0237, 605.1503
471.5058, 573.1296
471.9879, 544.0768
472.4700, 518.3975
472.9521, 497.1361
473.4342, 480.3265
473.9164, 465.3315
474.3985, 452.0230
474.8806, 439.8712
475.3627, 427.7444
475.8448, 415.7367
476.3270, 404.7924
476.8091, 395.6613
477.2912, 387.8193
477.7733, 380.1864
478.2554, 372.8128
478.7375, 366.4720
479.2197, 362.5443
479.7018, 359.7179
480.1839, 356.0351
480.6660, 350.6199
481.1481, 345.7248
481.6302, 343.2985
482.1124, 342.3300
482.5945, 341.1087
483.0766, 338.8065
483.5587, 336.2939
484.0408, 333.9855
484.5229, 331.8932
485.0051, 329.6093
485.4872, 326.9118
485.9693, 324.0980
486.4514, 321.3244
486.9335, 318.1067
487.4156, 315.7425
487.8978, 314.3689
488.3799, 313.7865
488.8620, 313.8365
489.3441, 315.0948
489.8262, 315.4708
490.3083, 313.9344
490.7905, 310.9320
491.2726, 310.2274
491.7547, 312.3084
492.2368, 314.2702
492.7189, 313.6215
493.2010, 310.7447
493.6832, 308.1553
494.1653, 305.9487
494.6474, 304.4890
495.1295, 304.9082
495.6116, 306.5407
496.0938, 307.2849
496.5759, 305.2040
497.0580, 302.7521
497.5401, 303.2786
498.0222, 306.1454
498.5044, 308.0741
498.9865, 306.0034
499.4686, 303.0027
499.9507, 301.7296
500.4328, 303.1274
500.9149, 304.0909
501.3971, 302.7239
501.8792, 300.6937
502.3613, 299.9242
502.8434, 301.9435
503.3255, 303.8655
503.8076, 305.5521
504.2898, 306.8536
504.7719, 306.9533
505.2540, 305.0583
505.7361, 303.1192
506.2182, 301.9267
506.7003, 301.5768
507.1825, 301.4601
507.6646, 301.6979
508.1467, 301.9129
508.6288, 301.4164
509.1109, 300.2164
509.5930, 299.9596
510.0752, 301.2975
510.5573, 303.2782
511.0394, 303.8114
511.5215, 303.1645
512.0037, 303.0122
512.4858, 305.6005
512.9679, 308.6696
513.4500, 308.3300
513.9321, 304.5103
514.4142, 300.9869
514.8964, 301.0313
515.3785, 302.4657
515.8606, 302.8851
516.3427, 300.9684
516.8248, 299.2968
517.3069, 298.7640
517.7891, 299.1680
518.2712, 300.1395
518.7533, 302.6744
519.2354, 304.6766
519.7175, 305.3744
520.1996, 304.8058
520.6818, 304.1959
521.1639, 303.2040
521.6460, 302.5922
522.1281, 302.8744
522.6102, 304.2764
523.0923, 305.8531
523.5745, 307.9305
524.0566, 309.6130
524.5387, 308.9880
525.0208, 306.0551
525.5029, 304.4121
525.9850, 305.5124
526.4672, 308.1901
526.9493, 309.9647
527.4314, 310.9506
527.9135, 312.0206
528.3956, 314.3195
528.8777, 316.8119
529.3599, 317.8327
529.8420, 317.1679
530.3241, 316.4205
530.8062, 316.9687
531.2883, 317.8959
531.7704, 318.1339
532.2526, 316.5155
532.7347, 315.3391
533.2168, 315.5818
533.6989, 316.7651
534.1810, 317.7716
534.6631, 317.8546
535.1453, 318.3691
535.6274, 319.9901
536.1095, 322.7992
536.5916, 324.3797
537.0737, 324.4203
537.5558, 323.7367
538.0380, 322.5226
538.5201, 320.4789
539.0022, 320.0236
539.4843, 321.5404
539.9664, 324.0898
540.4485, 326.8041
540.9307, 329.5331
541.4128, 331.0053
541.8949, 330.2128
542.3770, 328.4810
542.8591, 327.9550
543.3412, 328.4620
543.8234, 329.0580
544.3055, 329.0595
544.7876, 328.9312
545.2697, 329.1812
545.7518, 329.8882
546.2339, 330.5191
546.7161, 330.7436
547.1982, 330.8111
547.6803, 330.9464
548.1624, 331.0863
548.6445, 331.4451
549.1266, 331.9943
549.6088, 332.8048
550.0909, 334.1077
550.5730, 336.8335
551.0551, 338.5399
551.5372, 338.2112
552.0193, 336.1328
552.5015, 335.2147
552.9836, 335.7149
553.4657, 336.4691
553.9478, 336.5482
554.4299, 336.0628
554.9120, 336.3703
555.3942, 337.6774
555.8763, 339.0139
556.3584, 339.0223
556.8405, 338.1780
557.3226, 337.7634
557.8047, 338.5270
558.2869, 339.3040
558.7690, 338.6645
559.2511, 337.1593
559.7332, 336.1904
560.2154, 336.6953
560.6975, 337.6451
561.1796, 338.8864
561.6617, 340.4184
562.1439, 340.8928
562.6260, 338.8969
563.1081, 336.6305
563.5902, 335.3740
564.0723, 335.7323
564.5544, 335.8225
565.0366, 335.5686
565.5187, 335.1183
566.0008, 334.6852
566.4829, 334.2878
566.9650, 333.7889
567.4471, 333.2404
567.9293, 332.4851
568.4114, 330.7063
568.8935, 328.0153
569.3756, 326.1376
569.8577, 327.2485
570.3398, 329.4156
570.8220, 328.7091
571.3041, 325.1832
571.7862, 321.9083
572.2683, 321.4044
572.7504, 322.0123
573.2325, 322.1225
573.7147, 321.4021
574.1968, 320.2091
574.6789, 318.2240
575.1610, 316.0068
575.6431, 314.2560
576.1252, 313.1202
576.6074, 312.4734
577.0895, 312.7088
577.5716, 313.4420
578.0537, 313.0129
578.5358, 310.6845
579.0179, 308.9505
579.5001, 309.2578
579.9822, 311.3902
580.4643, 311.6118
580.9464, 309.7311
581.4285, 307.2542
581.9106, 305.3305
582.3928, 303.8266
582.8749, 302.2707
583.3570, 300.5471
583.8391, 298.9769
584.3212, 297.8526
584.8033, 297.0909
585.2855, 296.5282
585.7676, 295.6862
586.2497, 295.4844
586.7318, 297.0863
587.2139, 299.7550
587.6960, 301.3825
588.1782, 300.2527
588.6603, 299.1490
589.1424, 299.1313
589.6245, 300.2561
590.1066, 301.1133
590.5887, 301.6437
591.0709, 301.9716
591.5530, 302.0636
592.0351, 301.8252
592.5172, 302.0005
592.9993, 302.5771
593.4814, 303.6679
593.9636, 305.6193
594.4457, 308.2792
594.9278, 310.9981
595.4099, 313.7945
595.8920, 316.2595
596.3741, 317.0585
596.8563, 317.0238
597.3384, 318.3246
597.8205, 323.6208
598.3026, 329.2599
598.7847, 332.3787
599.2668, 333.2901
599.7490, 335.2216
600.2311, 339.8255
600.7132, 345.1282
601.1953, 350.1835
601.6774, 354.9156
602.1595, 359.6031
602.6417, 364.1881
603.1238, 368.8777
603.6059, 373.7099
604.0880, 378.6086
604.5701, 384.1708
605.0522, 390.3654
605.5344, 397.3645
606.0165, 405.7510
606.4986, 415.2946
606.9807, 424.0813
607.4628, 431.0068
607.9449, 437.1009
608.4271, 443.3592
608.9092, 449.8851
609.3913, 456.8410
609.8735, 465.5376
610.3556, 473.7494
610.8377, 480.0826
611.3198, 484.3751
611.8019, 487.4741
612.2841, 490.1507
612.7662, 491.3382
613.2483, 490.4294
613.7304, 487.8773
614.2125, 482.1563
614.6946, 471.9102
615.1768, 459.8515
615.6589, 449.0712
616.1410, 439.5885
616.6231, 430.4732
617.1052, 421.4077
617.5873, 412.8364
618.0695, 406.2142
618.5516, 401.2715
619.0337, 396.6685
619.5158, 391.9664
619.9979, 387.1594
620.4800, 382.3563
620.9622, 377.5069
621.4443, 372.4845
621.9264, 366.7651
622.4085, 361.1684
622.8906, 355.7676
623.3727, 350.3710
623.8549, 346.9727
624.3370, 347.5077
624.8191, 349.0473
625.3012, 349.7053
625.7833, 349.1689
626.2654, 348.3954
626.7476, 347.1396
627.2297, 345.9816
627.7118, 345.9116
628.1939, 346.9634
628.6760, 347.6408
629.1581, 347.3313
629.6403, 346.9532
630.1224, 348.1044
630.6045, 350.5700
631.0866, 353.5296
631.5687, 357.2780
632.0508, 360.8502
632.5330, 362.8364
633.0151, 363.6147
633.4972, 365.2406
633.9793, 368.9829
634.4614, 373.4531
634.9435, 378.7015
635.4257, 385.4578
635.9078, 388.3253
636.3899, 383.9593
636.8720, 379.0129
637.3541, 378.1177
637.8362, 381.8927
638.3184, 387.0569
638.8005, 393.8920
639.2826, 400.9891
639.7647, 406.2111
640.2468, 409.8709
640.7289, 414.0579
641.2111, 419.5030
641.6932, 425.1937
642.1753, 429.3964
642.6574, 432.9142
643.1395, 437.6055
643.6216, 445.3286
644.1038, 453.5975
644.5859, 460.9771
645.0680, 467.6473
645.5501, 474.7622
646.0322, 482.7681
646.5143, 490.9989
646.9965, 498.7387
647.4786, 505.9104
647.9607, 515.4055
648.4428, 528.1781
648.9249, 541.5357
649.4070, 554.0234
649.8892, 565.6082
650.3713, 577.1516
650.8534, 588.8241
651.3355, 600.2698
651.8176, 611.2231
652.2997, 621.6964
652.7819, 631.8508
653.2640, 641.9647
653.7461, 651.0151
654.2282, 659.7526
654.7103, 666.4252
655.1924, 668.4203
655.6746, 664.2408
656.1567, 656.0909
656.6388, 643.9984
657.1209, 628.3038
657.6030, 610.1352
658.0851, 588.5185
658.5673, 565.7424
659.0494, 541.9285
659.5316, 517.4332
660.0137, 493.9873
660.4958, 471.6837
660.9779, 451.6178
661.4600, 434.4906
661.9421, 420.0094
662.4243, 407.4192
662.9064, 396.6825
663.3885, 387.2687
663.8706, 379.2741
664.3527, 372.2351
664.8348, 365.7976
665.3170, 359.9635
665.7991, 354.4632
666.2812, 349.0849
666.7633, 344.0637
667.2454, 339.5907
667.7275, 335.0970
668.2097, 332.2540
668.6918, 331.7261
669.1739, 332.2537
669.6560, 331.8596
670.1381, 330.4514
670.6202, 329.1389
671.1024, 328.2326
671.5845, 327.5097
672.0666, 326.7789
672.5487, 325.9395
673.0308, 324.5972
673.5129, 321.2142
673.9951, 318.3057
674.4772, 318.9514
674.9593, 322.2720
675.4414, 324.3959
675.9235, 322.9201
676.4056, 320.7353
676.8878, 318.9224
677.3699, 317.5179
677.8520, 316.7832
678.3341, 317.2721
678.8162, 317.6101
679.2983, 316.7098
679.7805, 314.3996
680.2626, 313.6917
680.7447, 314.8378
681.2268, 316.2435
681.7089, 315.9497
682.1910, 314.7173
682.6732, 314.7397
683.1553, 316.5881
683.6374, 318.4229
684.1195, 318.8802
684.6016, 318.4310
685.0837, 317.6081
685.5659, 315.5407
686.0480, 314.5700
686.5301, 316.1134
687.0122, 318.8741
687.4943, 320.6699
687.9764, 321.3737
688.4586, 321.3257
688.9407, 320.3654
689.4228, 318.8358
689.9049, 317.5620
690.3870, 316.5314
690.8691, 315.7712
691.3513, 315.1808
691.8334, 314.9503
692.3155, 315.9581
692.7976, 317.8353
693.2797, 318.8704
693.7618, 316.8014
694.2440, 314.5685
694.7261, 314.3720
695.2082, 316.2691
695.6903, 318.2106
696.1724, 320.2803
696.6545, 321.7622
697.1367, 322.1227
697.6188, 321.0795
698.1009, 321.0288
698.5830, 322.3073
699.0651, 323.8256
699.5472, 324.8473
700.0294, 325.3722
700.5115, 325.2387
700.9936, 324.3495
701.4757, 323.4550
701.9578, 323.3442
702.4399, 323.7110
702.9221, 324.1309
703.4042, 324.5994
703.8863, 324.8325
704.3684, 324.4323
704.8505, 323.8094
705.3326, 323.4515
705.8148, 322.9586
706.2969, 323.4192
706.7790, 325.1142
707.2611, 327.6603
707.7432, 330.7802
708.2253, 334.8502
708.7075, 336.9559
709.1896, 335.7617
709.6718, 333.0246
710.1539, 332.2526
710.6360, 333.1316
711.1181, 334.3525
711.6002, 335.8940
712.0823, 337.0282
712.5645, 336.8441
713.0466, 335.6670
713.5287, 334.7075
714.0108, 333.9052
714.4929, 333.8616
714.9750, 335.6442
715.4572, 338.9606
715.9393, 339.6354
716.4214, 336.0862
716.9035, 333.2364
717.3856, 334.0795
717.8677, 338.1610
718.3499, 339.9571
718.8320, 339.4211
719.3141, 338.9261
719.7962, 340.6459
720.2783, 343.4420
720.7604, 345.5988
721.2426, 346.9355
721.7247, 348.1491
722.2068, 350.0467
722.6889, 351.7085
723.1710, 352.3749
723.6531, 351.5352
724.1353, 350.7158
724.6174, 349.5524
725.0995, 348.8764
725.5816, 349.7060
726.0637, 352.4098
726.5458, 353.9099
727.0280, 353.7707
727.5101, 353.1488
727.9922, 353.5208
728.4743, 354.5850
728.9564, 355.5464
729.4385, 356.2793
729.9207, 356.6283
730.4028, 355.9439
730.8849, 354.9540
731.3670, 354.6815
731.8491, 355.5437
732.3312, 357.0066
732.8134, 360.1170
733.2955, 363.3957
733.7776, 364.1482
734.2597, 361.3926
734.7418, 359.2033
735.2239, 358.4638
735.7061, 358.7494
736.1882, 359.2707
736.6703, 360.0092
737.1524, 360.7870
737.6345, 361.5918
738.1166, 362.3528
738.5988, 363.3180
739.0809, 364.2072
739.5630, 364.2189
740.0451, 362.1797
740.5272, 360.0147
741.0093, 358.2677
741.4915, 357.0269
741.9736, 356.8234
742.4557, 358.4006
742.9378, 359.5573
743.4199, 359.3708
743.9020, 358.0907
744.3842, 357.1562
744.8663, 356.5596
745.3484, 356.0829
745.8305, 355.7870
746.3126, 355.4266
746.7947, 354.3426
747.2769, 352.6669
747.7590, 351.5740
748.2411, 352.4680
748.7232, 353.5150
749.2053, 353.5970
749.6874, 352.5164
750.1696, 351.3292
750.6517, 349.6748
751.1338, 348.4591
751.6159, 348.3170
752.0980, 349.2953
752.5801, 350.2882
753.0623, 351.3810
753.5444, 351.7462
754.0265, 350.1490
754.5086, 347.4670
754.9907, 345.5569
755.4728, 344.6304
755.9550, 343.4373
756.4371, 340.2102
756.9192, 337.0153
757.4013, 335.7039
757.8835, 337.5078
758.3656, 338.5396
758.8477, 338.3372
759.3298, 337.6133
759.8120, 337.0420
760.2941, 336.7569
760.7762, 335.2307
761.2583, 332.0345
761.7404, 329.0833
762.2225, 329.1224
762.7047, 330.9492
763.1868, 331.8846
763.6689, 331.4165
764.1510, 330.0609
764.6331, 326.9480
765.1152, 323.7183
765.5974, 322.2175
766.0795, 325.0781
766.5616, 325.9190
767.0437, 322.8231
767.5258, 318.9144
768.0079, 318.3396
768.4901, 321.7237
768.9722, 322.9085
769.4543, 320.5941
769.9364, 317.2961
770.4185, 316.7868
770.9006, 318.0356
771.3828, 318.3424
771.8649, 316.6291
772.3470, 314.5217
772.8291, 313.0993
773.3112, 311.9511
773.7933, 310.5086
774.2755, 307.6953
774.7576, 305.9164
775.2397, 305.7739
775.7218, 306.4677
776.2039, 306.7734
776.6860, 306.6674
777.1682, 306.4385
777.6503, 306.1829
778.1324, 305.7468
778.6145, 304.5668
779.0966, 302.9995
779.5787, 302.0573
780.0609, 302.7962
780.5430, 303.2194
781.0251, 301.6628
781.5072, 299.0481
781.9893, 297.0815
782.4714, 296.2285
782.9536, 295.8903
783.4357, 296.2657
783.9178, 296.9677
784.3999, 297.1477
784.8820, 296.7657
785.3641, 296.4941
785.8463, 296.6029
786.3284, 296.7667
786.8105, 296.6727
787.2926, 296.2133
787.7747, 295.1022
788.2568, 292.1758
788.7390, 289.6677
789.2211, 288.7702
789.7032, 289.0797
790.1853, 289.6772
790.6674, 291.2701
791.1495, 291.7184
791.6317, 290.0138
792.1138, 287.4006
792.5959, 287.2507
793.0780, 289.5537
793.5601, 291.9028
794.0422, 293.9326
794.5244, 294.9866
795.0065, 293.4808
795.4886, 290.3109
795.9707, 287.6620
796.4528, 286.0919
796.9349, 285.5846
797.4171, 286.9129
797.8992, 289.2949
798.3813, 290.4997
798.8634, 290.0083
799.3455, 289.4139
799.8276, 289.0511
800.3098, 288.7885
800.7919, 288.3600
801.2740, 287.7534
801.7561, 286.8472
802.2382, 285.1665
802.7203, 283.7421
803.2025, 283.8761
803.6846, 285.1171
804.1667, 286.4290
804.6488, 287.8861
805.1309, 288.8575
805.6130, 288.6342
806.0952, 287.8873
806.5773, 288.1846
807.0594, 289.9920
807.5416, 291.2404
808.0237, 291.2657
808.5058, 290.6327
808.9879, 290.5603
809.4700, 290.9149
809.9521, 291.1198
810.4343, 290.8618
810.9164, 290.4681
811.3985, 289.8930
811.8806, 289.3961
812.3627, 289.5238
812.8448, 291.1590
813.3270, 292.5045
813.8091, 293.1268
814.2912, 293.3422
814.7733, 293.6062
815.2554, 293.8279
815.7375, 295.2870
816.2197, 298.9955
816.7018, 302.9260
817.1839, 303.6039
817.6660, 301.8384
818.1481, 299.4355
818.6302, 296.3071
819.1124, 293.7071
819.5945, 291.9296
820.0766, 291.1114
820.5587, 291.6950
821.0408, 295.0134
821.5229, 297.0634
822.0051, 297.0416
822.4872, 295.8886
822.9693, 295.1930
823.4514, 294.9217
823.9335, 294.7587
824.4156, 294.6303
824.8978, 294.5390
825.3799, 294.1203
825.8620, 293.8242
826.3441, 294.4136
826.8262, 297.8708
827.3083, 299.9565
827.7905, 298.7024
828.2726, 296.0827
828.7547, 294.3062
829.2368, 293.3510
829.7189, 293.6391
830.2010, 295.5611
830.6832, 297.8830
831.1653, 299.1869
831.6474, 299.4922
832.1295, 298.6305
832.6116, 296.0514
833.0938, 293.8851
833.5759, 293.5416
834.0580, 294.3550
834.5401, 295.5876
835.0222, 298.2223
835.5043, 299.4828
835.9865, 298.7008
836.4686, 297.3925
836.9507, 297.4583
837.4328, 298.8147
837.9149, 299.0728
838.3970, 297.8152
838.8792, 296.4478
839.3613, 296.5293
839.8434, 297.3414
840.3255, 297.8060
840.8076, 297.5075
841.2897, 297.7388
841.7719, 299.3036
842.2540, 301.2867
842.7361, 303.2716
843.2182, 305.8326
843.7003, 305.5220
844.1824, 301.5498
844.6646, 297.6293
845.1467, 297.9679
845.6288, 300.8578
846.1109, 301.5079
846.5930, 299.5041
847.0751, 297.8627
847.5573, 299.5781
848.0394, 301.7049
848.5215, 301.7949
849.0036, 299.1157
849.4857, 297.3981
849.9678, 296.5974
850.4500, 297.0003
850.9321, 299.2303
851.4142, 303.0629
851.8963, 305.9596
852.3784, 307.9369
852.8605, 308.8683
853.3427, 308.1094
853.8248, 306.6285
854.3069, 305.2742
854.7890, 304.1034
855.2711, 303.1394
855.7532, 301.9192
856.2354, 301.4917
856.7175, 302.5568
857.1996, 304.8106
857.6818, 306.0435
858.1639, 306.1278
858.6460, 306.1336
859.1281, 306.7432
859.6102, 307.4535
860.0923, 307.0505
860.5745, 305.8791
861.0566, 305.1346
861.5387, 305.6698
862.0208, 306.4572
862.5029, 307.4153
862.9850, 308.2672
863.4672, 308.1581
863.9493, 306.5567
864.4314, 305.3983
864.9135, 305.2040
865.3956, 305.5702
865.8777, 305.8406
866.3599, 305.9606
866.8420, 305.6933
867.3241, 304.9543
867.8062, 303.8003
868.2883, 301.8867
868.7704, 299.6944
869.2526, 297.9680
869.7347, 296.8942
870.2168, 296.3082
870.6989, 296.4498
871.1810, 296.7950
871.6631, 296.4710
872.1453, 295.5500
872.6274, 295.2343
873.1095, 295.6348
873.5916, 297.0418
874.0737, 302.0032
874.5558, 307.0918
875.0380, 307.4277
875.5201, 300.1117
876.0022, 294.5549
876.4843, 294.2840
876.9664, 295.4278
877.4485, 295.6598
877.9307, 294.8437
878.4128, 293.9130
878.8949, 292.7715
879.3770, 292.2350
879.8591, 293.5670
880.3412, 295.6957
880.8234, 296.9621
881.3055, 297.2634
881.7876, 297.1456
882.2697, 296.4839
882.7518, 295.8166
883.2339, 295.5862
883.7161, 295.7401
884.1982, 295.0089
884.6803, 293.0727
885.1624, 291.5673
885.6445, 291.6190
886.1266, 292.4769
886.6088, 292.2271
887.0909, 291.1289
887.5730, 290.2574
888.0551, 290.3048
888.5372, 290.5676
889.0193, 291.0537
889.5015, 291.4683
889.9836, 290.8731
890.4657, 288.5861
890.9478, 287.0124
891.4299, 286.9122
891.9120, 287.3763
892.3942, 286.3474
892.8763, 284.2690
893.3584, 283.1316
893.8405, 283.9326
894.3226, 284.8085
894.8047, 284.0920
895.2869, 282.7813
895.7690, 282.1219
896.2511, 283.1890
896.7332, 283.4579
897.2153, 282.5646
897.6974, 281.4361
898.1796, 280.9345
898.6617, 281.0467
899.1438, 281.9669
899.6259, 283.7887
900.1080, 285.2641
900.5901, 285.0592
901.0723, 284.2238
901.5544, 283.7934
902.0365, 284.0122
902.5186, 283.6674
903.0007, 281.9532
903.4828, 280.6862
903.9650, 281.0597
904.4471, 282.7935
904.9292, 282.7798
905.4113, 281.1336
905.8935, 280.4075
906.3756, 284.2480
906.8577, 288.2001
907.3398, 286.7314
907.8220, 281.2194
908.3041, 277.4121
908.7862, 277.6183
909.2683, 278.7901
909.7504, 280.9789
910.2325, 283.3085
910.7147, 283.0998
911.1968, 280.4086
911.6789, 278.7076
912.1610, 279.3504
912.6431, 280.5585
913.1252, 279.9764
913.6074, 278.7246
914.0895, 278.5828
914.5716, 281.1894
915.0537, 282.9768
915.5358, 283.2145
916.0179, 282.6845
916.5001, 281.7705
916.9822, 280.3886
917.4643, 280.6079
917.9464, 282.7093
918.4285, 284.9079
918.9106, 285.4287
919.3928, 285.1241
919.8749, 284.7969
920.3570, 284.5248
920.8391, 284.9576
921.3212, 287.8168
921.8033, 289.7904
922.2855, 289.0945
922.7676, 286.0831
923.2497, 284.5034
923.7318, 284.3742
924.2139, 284.9710
924.6960, 286.4591
925.1782, 288.0248
925.6603, 288.6214
926.1424, 288.4214
926.6245, 287.8687
927.1066, 286.4051
927.5887, 285.5031
928.0709, 285.4622
928.5530, 286.0971
929.0351, 287.3628
929.5172, 289.3223
929.9993, 290.2245
930.4814, 289.4992
930.9636, 288.5267
931.4457, 288.8286
931.9278, 289.8936
932.4099, 291.0441
932.8920, 292.1013
933.3741, 293.3452
933.8563, 295.3829
934.3384, 297.1022
934.8205, 297.7496
935.3026, 297.3070
935.7847, 296.1209
936.2668, 294.1178
936.7490, 292.8089
937.2311, 293.6843
937.7132, 295.6052
938.1953, 297.5803
938.6774, 299.4772
939.1595, 300.7238
939.6417, 301.4012
940.1238, 300.9129
940.6059, 298.1512
941.0880, 294.5562
941.5701, 295.2723
942.0522, 300.1683
942.5344, 303.1610
943.0165, 301.7422
943.4986, 299.1320
943.9807, 298.7089
944.4628, 299.4466
944.9449, 299.8077
945.4271, 298.8192
945.9092, 298.4655
946.3913, 299.0900
946.8734, 300.1235
947.3555, 300.9428
947.8376, 301.5911
948.3198, 303.2130
948.8019, 305.9132
949.2840, 308.0316
949.7661, 306.8260
950.2482, 305.3861
950.7303, 307.2680
951.2125, 312.6202
951.6946, 315.7529
952.1767, 314.8577
952.6588, 313.6560
953.1409, 313.1057
953.6230, 313.3141
954.1052, 315.2982
954.5873, 318.6540
955.0695, 320.7823
955.5516, 319.5796
956.0337, 318.2203
956.5158, 319.0694
956.9979, 321.3802
957.4800, 324.0335
957.9622, 327.6040
958.4443, 329.9751
958.9264, 330.5670
959.4085, 330.8916
959.8906, 332.7341
960.3727, 335.7657
960.8549, 338.7223
961.3370, 341.4962
961.8191, 344.4492
962.3012, 348.2181
962.7833, 351.9777
963.2654, 354.9931
963.7476, 357.2491
964.2297, 359.9108
964.7118, 363.1230
965.1939, 366.0530
965.6760, 368.0425
966.1581, 369.7832
966.6403, 372.8554
967.1224, 376.9987
967.6045, 381.5345
968.0866, 386.7676
968.5687, 391.5695
969.0508, 394.5352
969.5330, 397.3603
970.0151, 402.4799
970.4972, 410.2342
970.9793, 418.5379
971.4614, 427.2750
971.9435, 436.0261
972.4257, 443.6628
972.9078, 451.2838
973.3899, 460.3498
973.8720, 470.9718
974.3541, 483.9103
974.8362, 499.4312
975.3184, 517.7542
975.8005, 538.6060
976.2826, 562.2107
976.7647, 587.4570
977.2468, 614.2604
977.7289, 647.1448
978.2111, 687.0651
978.6932, 735.0420
979.1753, 791.9824
979.6574, 857.8314
980.1395, 932.4889
980.6216, 1016.397
981.1038, 1109.631
981.5859, 1213.426
982.0680, 1324.209
982.5501, 1436.813
983.0322, 1551.941
983.5143, 1667.554
983.9965, 1783.695
984.4786, 1912.531
984.9607, 2057.347
985.4428, 2223.152
985.9249, 2415.632
986.4070, 2636.505
986.8892, 2870.906
987.3713, 3111.606
987.8534, 3380.019
988.3355, 3690.512
988.8176, 4026.731
989.2997, 4355.092
989.7819, 4677.983
990.2640, 5007.751
990.7461, 5402.407
991.2282, 5718.482
991.7103, 5960.137
992.1924, 6046.773
992.6746, 5886.054
993.1567, 5444.679
993.6388, 4906.459
994.1209, 4261.573
994.6030, 3616.431
995.0851, 3038.297
995.5673, 2533.853
996.0494, 2121.452
996.5315, 1798.464
997.0136, 1537.485
997.4957, 1350.898
997.9778, 1199.645
998.4600, 1079.630
998.9421, 985.4516
999.4242, 906.5938
999.9063, 843.0657
1000.388, 789.2528
1000.871, 744.6819
1001.353, 706.0314
1001.835, 671.8795
1002.317, 641.1547
1002.799, 612.4022
1003.281, 585.5673
1003.763, 560.0496
1004.245, 535.1344
1004.728, 512.7791
1005.210, 494.8889
1005.692, 480.4883
1006.174, 466.2075
1006.656, 452.1922
1007.138, 439.9611
1007.620, 430.6317
1008.102, 422.8027
1008.584, 415.7918
1009.067, 409.7354
1009.549, 405.5371
1010.031, 403.4663
1010.513, 400.5299
1010.995, 395.9990
1011.477, 390.8759
1011.959, 385.8828
1012.441, 381.3503
1012.924, 377.7521
1013.406, 375.2274
1013.888, 373.4594
1014.370, 373.0772
1014.852, 372.3961
1015.334, 370.1314
1015.816, 366.7801
1016.298, 365.6453
1016.780, 366.4575
1017.263, 367.1302
1017.745, 365.8219
1018.227, 364.7391
1018.709, 366.1012
1019.191, 368.4691
1019.673, 368.7948
1020.155, 365.5768
1020.637, 364.6353
1021.120, 366.8744
1021.602, 369.9247
1022.084, 371.1367
1022.566, 371.3175
1023.048, 371.8110
1023.530, 372.7638
1024.012, 374.2000
1024.494, 375.5643
1024.976, 378.1364
1025.458, 382.8234
1025.941, 388.9955
1026.423, 393.5166
1026.905, 396.5521
1027.387, 401.0623
1027.869, 408.6977
1028.351, 416.7260
1028.833, 421.5762
1029.316, 425.7245
1029.798, 432.5186
1030.280, 443.6062
1030.762, 454.6525
1031.244, 465.1395
1031.726, 476.6868
1032.208, 490.7547
1032.690, 506.9124
1033.172, 523.6112
1033.655, 541.0311
1034.137, 560.0243
1034.619, 579.6175
1035.101, 602.4215
1035.583, 629.7015
1036.065, 660.1820
1036.547, 691.4450
1037.029, 723.1794
1037.511, 757.6053
1037.994, 794.7048
1038.476, 835.1531
1038.958, 879.4453
1039.440, 926.5068
1039.922, 974.1611
1040.404, 1022.402
1040.886, 1073.656
1041.368, 1129.584
1041.851, 1185.778
1042.333, 1241.099
1042.815, 1295.894
1043.297, 1351.183
1043.779, 1406.774
1044.261, 1459.984
1044.743, 1510.551
1045.225, 1557.377
1045.708, 1602.557
1046.190, 1641.094
1046.672, 1668.863
1047.154, 1685.951
1047.636, 1692.217
1048.118, 1687.911
1048.600, 1667.366
1049.082, 1622.909
1049.564, 1562.485
1050.047, 1491.920
1050.529, 1411.851
1051.011, 1326.303
1051.493, 1231.314
1051.975, 1140.611
1052.457, 1056.089
1052.939, 977.9074
1053.421, 906.3211
1053.903, 841.7593
1054.386, 782.2230
1054.868, 727.5504
1055.350, 680.0867
1055.832, 643.9881
1056.314, 612.7565
1056.796, 582.6151
1057.278, 553.8010
1057.760, 529.4450
1058.243, 509.3675
1058.725, 491.9884
1059.207, 477.2501
1059.689, 463.9223
1060.171, 450.3608
1060.653, 437.5237
1061.135, 426.9771
1061.617, 420.4271
1062.099, 412.5157
1062.582, 402.7393
1063.064, 393.1054
1063.546, 384.7744
1064.028, 377.8150
1064.510, 373.0347
1064.992, 370.0012
1065.474, 366.3620
1065.956, 360.4155
1066.438, 354.5980
1066.921, 348.9514
1067.403, 344.2565
1067.885, 342.4204
1068.367, 343.0342
1068.849, 342.3590
1069.331, 339.7475
1069.813, 336.7584
1070.295, 334.1328
1070.778, 331.8868
1071.260, 330.1736
1071.742, 328.9344
1072.224, 327.7303
1072.706, 326.6097
1073.188, 325.1647
1073.670, 322.9819
1074.152, 320.8716
1074.635, 320.3341
1075.117, 320.4863
1075.599, 319.7372
1076.081, 316.5753
1076.563, 315.3803
1077.045, 317.2121
1077.527, 319.5917
1078.009, 321.2119
1078.491, 321.9474
1078.974, 320.6854
1079.456, 317.8658
1079.938, 315.7385
1080.420, 315.9268
1080.902, 316.3785
1081.384, 316.5323
1081.866, 316.3596
1082.348, 315.6190
1082.831, 314.2687
1083.313, 313.6779
1083.795, 314.0036
1084.277, 314.3053
1084.759, 313.2962
1085.241, 312.3346
1085.723, 313.0299
1086.205, 315.1092
1086.688, 315.6943
1087.170, 314.3448
1087.652, 312.5780
1088.134, 310.3088
1088.616, 308.8926
1089.098, 311.7623
1089.580, 316.2998
1090.062, 317.7565
1090.544, 314.4895
1091.026, 312.5172
1091.509, 313.6880
1091.991, 315.3562
1092.473, 316.5333
1092.955, 317.2379
1093.437, 317.3968
1093.919, 317.1133
1094.401, 316.7914
1094.883, 316.3252
1095.366, 316.3017
1095.848, 317.3257
1096.330, 318.6823
1096.812, 319.5681
1097.294, 319.8389
1097.776, 321.6805
1098.258, 325.1131
1098.740, 327.2633
1099.223, 324.5083
1099.705, 321.2172
1100.187, 321.5862
1100.669, 324.2162
1101.151, 325.1533
1101.633, 323.3452
1102.115, 322.4396
1102.597, 322.7915
1103.079, 323.9892
1103.562, 326.3274
1104.044, 328.8336
1104.526, 329.3801
1105.008, 328.1016
1105.490, 328.8714
1105.972, 334.9683
1106.454, 339.2831
1106.936, 339.6819
1107.418, 338.0674
1107.901, 337.5938
1108.383, 338.1346
1108.865, 339.4130
1109.347, 341.4289
1109.829, 343.8077
1110.311, 347.1730
1110.793, 350.0327
1111.275, 351.5194
1111.758, 351.8768
1112.240, 352.2773
1112.722, 352.8105
1113.204, 354.3951
1113.686, 358.0888
1114.168, 361.5162
1114.650, 362.2051
1115.132, 362.2338
1115.615, 363.9923
1116.097, 367.8690
1116.579, 371.0218
1117.061, 373.3512
1117.543, 375.8292
1118.025, 379.5039
1118.507, 383.2496
1118.989, 385.7634
1119.471, 387.4675
1119.953, 389.1440
1120.436, 389.9607
1120.918, 393.1362
1121.400, 399.3874
1121.882, 406.1372
1122.364, 410.4654
1122.846, 413.8644
1123.328, 418.5456
1123.810, 424.6624
1124.293, 432.0927
1124.775, 440.7377
1125.257, 451.3673
1125.739, 464.7415
1126.221, 478.9853
1126.703, 490.3200
1127.185, 500.2266
1127.667, 513.2654
1128.150, 530.1385
1128.632, 547.3279
1129.114, 561.5633
1129.596, 577.7344
1130.078, 598.4238
1130.560, 622.1049
1131.042, 642.3571
1131.524, 660.2570
1132.006, 684.5832
1132.489, 719.2355
1132.971, 753.4572
1133.453, 777.9296
1133.935, 800.3096
1134.417, 826.7706
1134.899, 857.2934
1135.381, 886.0679
1135.863, 913.3342
1136.346, 936.6946
1136.828, 955.2155
1137.310, 968.8051
1137.792, 979.3480
1138.274, 983.8068
1138.756, 977.2697
1139.238, 958.8926
1139.720, 935.1691
1140.203, 905.5242
1140.685, 873.1163
1141.167, 838.6407
1141.649, 803.2289
1142.131, 767.3087
1142.613, 731.4861
1143.095, 695.3165
1143.577, 656.0511
1144.059, 622.5871
1144.542, 596.1797
1145.024, 573.4122
1145.506, 551.7501
1145.988, 531.8504
1146.470, 514.1280
1146.952, 498.6729
1147.434, 485.4681
1147.916, 474.7934
1148.398, 466.0082
1148.881, 459.1755
1149.363, 453.9143
1149.845, 450.2944
1150.327, 447.8989
1150.809, 445.4892
1151.291, 443.0512
1151.773, 441.8268
1152.255, 442.3427
1152.738, 444.3255
1153.220, 447.8929
1153.702, 452.5838
1154.184, 457.4618
1154.666, 462.7318
1155.148, 469.3034
1155.630, 477.3710
1156.112, 486.0811
1156.594, 494.4893
1157.077, 504.1355
1157.559, 515.6227
1158.041, 528.8789
1158.523, 544.2393
1159.005, 561.3984
1159.487, 577.8380
1159.969, 592.5030
1160.451, 607.8894
1160.933, 626.8489
1161.416, 645.9818
1161.898, 663.2301
1162.380, 678.4181
1162.862, 692.1338
1163.344, 704.1906
1163.826, 709.1635
1164.308, 704.0092
1164.790, 692.9238
1165.273, 677.9330
1165.755, 659.3985
1166.237, 636.9972
1166.719, 610.4213
1167.201, 584.5507
1167.683, 559.1486
1168.165, 535.3467
1168.647, 512.7678
1169.130, 492.3880
1169.612, 475.8288
1170.094, 462.0122
1170.576, 449.4759
1171.058, 438.1540
1171.540, 427.9620
1172.022, 419.0165
1172.504, 410.7525
1172.986, 402.1439
1173.469, 394.4147
1173.951, 389.3759
1174.433, 386.2533
1174.915, 383.2976
1175.397, 379.7563
1175.879, 378.1520
1176.361, 379.0377
1176.843, 379.7160
1177.326, 376.9366
1177.808, 373.1944
1178.290, 372.1390
1178.772, 369.9240
1179.254, 367.9840
1179.736, 368.0249
1180.218, 365.7346
1180.700, 366.4132
1181.182, 367.4517
1181.665, 366.0628
1182.147, 363.2108
1182.629, 359.7761
1183.111, 356.0875
1183.593, 353.7796
1184.075, 353.5423
1184.557, 353.8786
1185.039, 354.7582
1185.521, 355.5623
1186.004, 355.5070
1186.486, 354.7740
1186.968, 353.3613
1187.450, 351.3342
1187.932, 350.0186
1188.414, 350.3050
1188.896, 349.9745
1189.378, 348.1091
1189.861, 346.1769
1190.343, 347.1407
1190.825, 349.5464
1191.307, 350.8599
1191.789, 350.6798
1192.271, 349.6001
1192.753, 346.9200
1193.235, 344.9688
1193.718, 344.7623
1194.200, 345.2540
1194.682, 344.0912
1195.164, 342.2432
1195.646, 341.9225
1196.128, 343.9288
1196.610, 345.1712
1197.092, 344.3471
1197.574, 343.8246
1198.057, 344.7614
1198.539, 346.2948
1199.021, 346.3164
1199.503, 345.4512
1199.985, 345.1996
1200.467, 346.2303
1200.949, 346.7946
1201.431, 346.6055
1201.913, 345.7918
1202.396, 343.9259
1202.878, 341.8843
1203.360, 342.1698
1203.842, 344.0919
1204.324, 345.9221
1204.806, 347.3716
1205.288, 348.1941
1205.770, 348.5008
1206.253, 347.9379
1206.735, 345.5564
1207.217, 342.5848
1207.699, 343.0987
1208.181, 345.9115
1208.663, 347.8372
1209.145, 347.1857
1209.627, 346.7220
1210.109, 346.7869
1210.592, 347.2360
1211.074, 348.2309
1211.556, 349.4455
1212.038, 349.4695
1212.520, 348.8260
1213.002, 349.0120
1213.484, 351.9756
1213.966, 353.4443
1214.448, 352.4735
1214.931, 350.9310
1215.413, 350.1766
1215.895, 350.0085
1216.377, 349.9648
1216.859, 349.9872
1217.341, 349.8947
1217.823, 348.8620
1218.305, 348.9982
1218.788, 351.0130
1219.270, 353.1532
1219.752, 353.6795
1220.234, 353.2975
1220.716, 353.8356
1221.198, 355.0491
1221.680, 355.9931
1222.162, 355.4219
1222.645, 356.1764
1223.127, 359.2508
1223.609, 362.0516
1224.091, 361.2513
1224.573, 358.7472
1225.055, 359.1065
1225.537, 361.5966
1226.019, 362.9003
1226.501, 360.3656
1226.984, 359.0060
1227.466, 359.4964
1227.948, 360.4968
1228.430, 360.7611
1228.912, 360.5434
1229.394, 360.4629
1229.876, 360.3618
1230.358, 359.4152
1230.841, 355.8400
1231.323, 354.6454
1231.805, 356.8378
1232.287, 359.8148
1232.769, 360.9779
1233.251, 361.1200
1233.733, 361.4102
1234.215, 361.8242
1234.698, 361.8718
1235.180, 361.1544
1235.662, 360.9854
1236.144, 361.6873
1236.626, 362.2728
1237.108, 361.0033
1237.590, 359.4871
1238.072, 360.2097
1238.554, 362.7065
1239.036, 363.8786
1239.519, 362.7935
1240.001, 362.9665
1240.483, 365.1858
1240.965, 366.9173
1241.447, 364.3726
1241.929, 360.9239
1242.411, 360.4162
1242.893, 362.4514
1243.376, 364.0614
1243.858, 365.3319
1244.340, 364.8445
1244.822, 362.0588
1245.304, 360.0707
1245.786, 363.8608
1246.268, 368.0262
1246.750, 366.5997
1247.233, 361.0274
1247.715, 358.5585
1248.197, 359.4639
1248.679, 361.3639
1249.161, 364.0237
1249.643, 366.4305
1250.125, 367.2392
1250.607, 367.8518
1251.089, 370.1888
1251.572, 368.9715
1252.054, 372.1533
1252.536, 367.6332
1253.018, 365.0093
1253.500, 365.0786
1253.982, 366.1620
1254.464, 367.9917
1254.946, 369.4077
1255.428, 369.3051
1255.911, 368.4957
1256.393, 368.7691
1256.875, 369.9726
1257.357, 370.5706
1257.839, 370.3492
1258.321, 370.1284
1258.803, 370.9124
1259.285, 371.1577
1259.768, 369.8671
1260.250, 368.0671
1260.732, 367.8981
1261.214, 368.9572
1261.696, 369.4449
1262.178, 369.1520
1262.660, 369.3725
1263.142, 371.6879
1263.625, 373.2684
1264.107, 373.0838
1264.589, 372.1145
1265.071, 371.9445
1265.553, 372.2549
1266.035, 371.9955
1266.517, 371.1248
1266.999, 371.3376
1267.481, 374.5273
1267.964, 376.4193
1268.446, 375.7913
1268.928, 374.3675
1269.410, 374.6218
1269.892, 375.7307
1270.374, 376.5958
1270.856, 377.0705
1271.338, 376.7350
1271.820, 375.1591
1272.303, 373.9223
1272.785, 373.2027
1273.267, 373.3241
1273.749, 375.7602
1274.231, 378.4668
1274.713, 378.7928
1275.195, 376.9082
1275.677, 375.4728
1276.160, 374.4680
1276.642, 374.5139
1277.124, 375.8456
1277.606, 377.2125
1278.088, 377.5965
1278.570, 377.3634
1279.052, 376.3167
1279.534, 374.9722
1280.016, 374.9457
1280.499, 376.2836
1280.981, 377.5048
1281.463, 378.4636
1281.945, 378.3565
1282.427, 374.8165
1282.909, 371.9904
1283.391, 372.6603
1283.873, 375.2885
1284.356, 377.2396
1284.838, 378.6745
1285.320, 380.9879
1285.802, 384.2368
1286.284, 386.3494
1286.766, 385.2102
1287.248, 383.9258
1287.730, 383.3130
1288.213, 383.2679
1288.695, 383.6468
1289.177, 384.4643
1289.659, 386.0219
1290.141, 388.2077
1290.623, 389.9102
1291.105, 390.7907
1291.587, 390.9531
1292.069, 390.1785
1292.552, 389.3331
1293.034, 390.0371
1293.516, 390.9361
1293.998, 389.4504
1294.480, 386.0819
1294.962, 384.1781
1295.444, 384.0709
1295.926, 385.2943
1296.408, 388.0310
1296.891, 390.5477
1297.373, 390.6860
1297.855, 390.3345
1298.337, 391.5837
1298.819, 393.7721
1299.301, 394.8929
1299.783, 394.9154
1300.265, 393.8378
1300.748, 391.6569
1301.230, 390.1115
1301.712, 390.8561
1302.194, 392.1357
1302.676, 393.3051
##END=



