##NAMES=Krupkaite
##RRUFFID=R061038
##IDEAL CHEMISTRY=Cu^1+^Pb^2+^Bi^3+^_3_S^2-^_6_
##LOCALITY=Vysna Boca, Slovakia
##OWNER=RRUFF
##SOURCE=Michael Scott
##DESCRIPTION=Silver metallic stringers associated with orange siderite and white quartz
##STATUS=The identification of this mineral is confirmed by single-crystal X-ray diffraction and chemical analysis.
##URL=rruff.info/R061038
##MEASURED CHEMISTRY=Pb_1.00_Cu_1.00_Bi_3.00_S_6.00_
174.9654, 19.08847
175.4475, 19.18124
175.9296, 19.32277
176.4117, 19.45148
176.8938, 19.43211
177.3760, 19.12976
177.8581, 18.52850
178.3402, 18.27980
178.8223, 18.75305
179.3044, 19.17577
179.7865, 19.24656
180.2687, 19.01812
180.7508, 18.71198
181.2329, 18.50949
181.7150, 18.42081
182.1971, 18.34313
182.6792, 18.24159
183.1614, 18.17661
183.6435, 18.18757
184.1256, 18.27419
184.6077, 18.40698
185.0898, 18.56843
185.5719, 18.76093
186.0541, 18.94667
186.5362, 19.23336
187.0183, 19.44968
187.5004, 19.32976
187.9825, 18.82290
188.4646, 18.38404
188.9468, 18.56189
189.4289, 19.20209
189.9110, 19.68881
190.3931, 19.74896
190.8752, 19.61582
191.3573, 19.72468
191.8395, 20.24162
192.3216, 20.60870
192.8037, 20.20756
193.2858, 19.32236
193.7679, 18.58312
194.2500, 18.30574
194.7322, 18.39537
195.2143, 18.57364
195.6964, 18.93839
196.1785, 19.22530
196.6606, 19.24705
197.1427, 19.09384
197.6249, 18.96181
198.1070, 18.97782
198.5891, 19.13037
199.0712, 19.31226
199.5533, 19.62375
200.0354, 19.84557
200.5176, 19.81467
200.9997, 19.62475
201.4818, 19.49054
201.9639, 19.61842
202.4460, 20.01985
202.9281, 20.22689
203.4103, 20.04091
203.8924, 19.82615
204.3745, 19.61308
204.8566, 19.45097
205.3387, 19.42893
205.8208, 19.64583
206.3030, 20.13998
206.7851, 20.52382
207.2672, 20.74721
207.7493, 20.92267
208.2314, 21.10584
208.7135, 21.28288
209.1957, 21.38265
209.6778, 21.31677
210.1599, 21.03670
210.6420, 20.99934
211.1241, 21.48640
211.6062, 21.92303
212.0884, 21.89874
212.5705, 21.48067
213.0526, 21.12030
213.5347, 21.25992
214.0168, 21.98173
214.4989, 22.39155
214.9811, 22.35297
215.4632, 22.14204
215.9453, 21.84015
216.4274, 21.48364
216.9095, 21.25003
217.3916, 21.32729
217.8737, 21.72927
218.3559, 22.05050
218.8380, 22.30382
219.3201, 22.46469
219.8022, 22.49614
220.2843, 22.39571
220.7664, 22.22638
221.2486, 21.98463
221.7307, 21.70498
222.2128, 21.54122
222.6949, 21.58857
223.1770, 21.72425
223.6591, 21.81693
224.1413, 21.85931
224.6234, 21.88386
225.1055, 21.91316
225.5876, 21.94036
226.0697, 21.95078
226.5518, 21.93853
227.0340, 21.90824
227.5161, 21.83474
227.9982, 21.67783
228.4803, 21.62065
228.9624, 21.84516
229.4445, 22.21469
229.9267, 22.56968
230.4088, 22.86256
230.8909, 23.09830
231.3730, 23.30178
231.8551, 23.51476
232.3372, 23.57915
232.8194, 23.28155
233.3015, 22.85939
233.7836, 22.59319
234.2657, 22.61704
234.7478, 22.83227
235.2299, 23.02749
235.7121, 23.20962
236.1942, 23.35559
236.6763, 23.41929
237.1584, 23.46505
237.6405, 23.58370
238.1227, 23.82930
238.6048, 24.11485
239.0869, 24.19547
239.5690, 23.88795
240.0511, 23.69726
240.5332, 23.79342
241.0154, 24.00105
241.4975, 24.12959
241.9796, 24.09564
242.4617, 23.99315
242.9438, 24.08235
243.4259, 24.64602
243.9081, 24.94303
244.3902, 24.63254
244.8723, 24.17057
245.3544, 24.00800
245.8365, 24.31665
246.3186, 24.91002
246.8008, 25.37444
247.2829, 25.69230
247.7650, 25.87634
248.2471, 25.83555
248.7292, 25.71936
249.2113, 25.66717
249.6935, 25.72563
250.1756, 25.83834
250.6577, 25.89136
251.1398, 25.76421
251.6219, 25.75793
252.1040, 25.93936
252.5862, 26.19928
253.0683, 26.48791
253.5504, 26.77775
254.0325, 26.99230
254.5146, 26.99402
254.9967, 26.59511
255.4789, 26.32205
255.9610, 26.30130
256.4431, 26.33368
256.9252, 26.21382
257.4073, 25.90176
257.8894, 25.55935
258.3716, 25.41639
258.8537, 25.60464
259.3358, 25.64677
259.8179, 25.39465
260.3000, 25.08536
260.7821, 24.97342
261.2643, 25.09067
261.7464, 25.19994
262.2285, 25.02974
262.7106, 24.50205
263.1927, 24.00951
263.6748, 23.55815
264.1570, 23.14441
264.6391, 22.73709
265.1212, 22.33947
265.6033, 22.05518
266.0854, 22.04677
266.5675, 22.32429
267.0497, 22.36031
267.5318, 21.96566
268.0139, 21.44905
268.4960, 21.00859
268.9781, 20.66388
269.4602, 20.44668
269.9424, 20.47948
270.4245, 20.68292
270.9066, 20.55626
271.3887, 19.79252
271.8708, 18.91746
272.3529, 18.27197
272.8351, 17.85955
273.3172, 17.67924
273.7993, 17.88961
274.2814, 18.29182
274.7635, 18.27347
275.2456, 17.52333
275.7278, 16.68609
276.2099, 16.26107
276.6920, 16.19629
277.1741, 16.04980
277.6562, 15.54341
278.1383, 14.87499
278.6205, 14.45700
279.1026, 14.34921
279.5847, 14.35276
280.0668, 14.42696
280.5489, 14.53804
281.0310, 14.45601
281.5132, 13.98515
281.9953, 13.39776
282.4774, 13.08215
282.9595, 13.06760
283.4416, 13.13848
283.9237, 13.25288
284.4059, 13.37064
284.8880, 13.28217
285.3701, 12.79574
285.8522, 12.28427
286.3343, 12.18059
286.8164, 12.46264
287.2986, 12.72752
287.7807, 12.77170
288.2628, 12.63158
288.7449, 12.40383
289.2270, 12.04435
289.7091, 11.70238
290.1913, 11.53792
290.6734, 11.50215
291.1555, 11.41303
291.6376, 11.11686
292.1197, 10.71490
292.6018, 10.46673
293.0840, 10.45049
293.5661, 10.43301
294.0482, 10.19552
294.5303, 9.852343
295.0124, 9.615748
295.4945, 9.617960
295.9767, 9.750009
296.4588, 9.819946
296.9409, 9.814432
297.4230, 9.792296
297.9051, 9.783182
298.3872, 9.775426
298.8694, 9.754322
299.3515, 9.714410
299.8336, 9.661791
300.3157, 9.607537
300.7978, 9.554319
301.2799, 9.480680
301.7621, 9.358914
302.2442, 9.221778
302.7263, 9.077082
303.2084, 8.915002
303.6905, 8.812745
304.1726, 8.931444
304.6548, 9.288278
305.1369, 9.427839
305.6190, 9.015138
306.1011, 8.524210
306.5832, 8.327292
307.0653, 8.444392
307.5475, 8.650689
308.0296, 8.798273
308.5117, 8.887804
308.9938, 8.928406
309.4759, 8.920207
309.9580, 8.855912
310.4402, 8.745051
310.9223, 8.585272
311.4044, 8.365986
311.8865, 8.018156
312.3686, 7.591282
312.8507, 7.292334
313.3329, 7.125971
313.8150, 7.098761
314.2971, 7.313857
314.7792, 7.643430
315.2613, 7.849748
315.7434, 7.801372
316.2256, 7.579240
316.7077, 7.317818
317.1898, 6.951046
317.6719, 6.728514
318.1540, 6.905693
318.6361, 7.224995
319.1183, 7.401735
319.6004, 7.327566
320.0825, 7.155210
320.5646, 7.058919
321.0467, 7.031039
321.5288, 7.132936
322.0110, 7.606000
322.4931, 8.080397
322.9752, 8.243441
323.4573, 8.042324
323.9394, 7.698050
324.4215, 7.365130
324.9037, 7.046535
325.3858, 6.812376
325.8679, 6.726189
326.3500, 6.682881
326.8321, 6.591357
327.3142, 6.462260
327.7964, 6.373192
328.2785, 6.407763
328.7606, 6.535665
329.2427, 6.609881
329.7248, 6.614627
330.2069, 6.576327
330.6891, 6.476183
331.1712, 6.349858
331.6533, 6.274154
332.1354, 6.289527
332.6175, 6.374082
333.0996, 6.509013
333.5818, 6.730875
334.0639, 6.885866
334.5460, 6.870983
335.0281, 6.754034
335.5102, 6.582677
335.9923, 6.339790
336.4745, 6.111280
336.9566, 5.997746
337.4387, 6.003519
337.9208, 6.061014
338.4029, 6.201969
338.8850, 6.347629
339.3671, 6.419701
339.8492, 6.409583
340.3314, 6.366275
340.8135, 6.296207
341.2956, 6.211600
341.7777, 6.211983
342.2598, 6.394115
342.7419, 6.547846
343.2241, 6.436594
343.7062, 6.116865
344.1883, 5.878285
344.6704, 5.892627
345.1525, 6.078005
345.6346, 6.311520
346.1168, 6.650512
346.5989, 6.831453
347.0810, 6.443930
347.5631, 5.780207
348.0452, 5.358797
348.5273, 5.424763
349.0095, 5.686005
349.4916, 5.822845
349.9737, 5.831933
350.4558, 5.848195
350.9379, 5.941643
351.4200, 6.074357
351.9022, 6.197389
352.3843, 6.331349
352.8664, 6.390454
353.3485, 6.280076
353.8306, 6.037307
354.3127, 5.802657
354.7949, 5.601812
355.2770, 5.443141
355.7591, 5.323173
356.2412, 5.237085
356.7233, 5.229641
357.2054, 5.362023
357.6876, 5.568704
358.1697, 5.763461
358.6518, 5.941512
359.1339, 6.065122
359.6160, 6.099682
360.0981, 6.047318
360.5803, 5.923524
361.0624, 5.584562
361.5445, 5.284099
362.0266, 5.243268
362.5087, 5.446072
362.9908, 5.772883
363.4730, 6.252882
363.9551, 6.747972
364.4372, 6.859495
364.9193, 6.411105
365.4014, 5.913223
365.8835, 5.475528
366.3657, 5.146356
366.8478, 5.073879
367.3299, 5.345064
367.8120, 5.734437
368.2941, 5.879408
368.7762, 5.732467
369.2584, 5.576701
369.7405, 5.406216
370.2226, 5.269215
370.7047, 5.217612
371.1868, 5.256202
371.6689, 5.358024
372.1511, 5.525175
372.6332, 5.760382
373.1153, 5.844333
373.5974, 5.665251
374.0795, 5.462083
374.5616, 5.303937
375.0438, 5.211936
375.5259, 5.248572
376.0080, 5.471343
376.4901, 5.791734
376.9722, 5.888986
377.4543, 5.544466
377.9365, 5.263211
378.4186, 5.039146
378.9007, 4.928818
379.3828, 5.073116
379.8649, 5.488889
380.3470, 5.937003
380.8292, 6.069165
381.3113, 5.736754
381.7934, 5.520569
382.2755, 5.497658
382.7576, 5.507323
383.2397, 5.507321
383.7219, 5.465151
384.2040, 5.296046
384.6861, 4.897635
385.1682, 4.303145
385.6503, 4.064689
386.1324, 4.633727
386.6146, 5.073224
387.0967, 5.149462
387.5788, 5.028741
388.0609, 4.925231
388.5430, 4.930417
389.0251, 4.997229
389.5073, 5.032094
389.9894, 5.021680
390.4715, 5.005383
390.9536, 4.914908
391.4357, 4.872866
391.9178, 5.014148
392.4000, 5.313339
392.8821, 5.588468
393.3642, 5.645870
393.8463, 5.477548
394.3284, 5.359012
394.8105, 5.327071
395.2927, 5.304750
395.7748, 5.246995
396.2569, 5.183879
396.7390, 5.168073
397.2211, 5.230714
397.7032, 5.345386
398.1854, 5.477232
398.6675, 5.671862
399.1496, 5.744534
399.6317, 5.565567
400.1138, 5.291681
400.5959, 4.975866
401.0781, 4.634310
401.5602, 4.420114
402.0423, 4.553590
402.5244, 4.996820
403.0065, 5.337009
403.4886, 5.533533
403.9708, 5.599063
404.4529, 5.542903
404.9350, 5.379671
405.4171, 5.137766
405.8992, 4.681256
406.3813, 4.229561
406.8635, 4.186566
407.3456, 4.595483
407.8277, 5.020147
408.3098, 5.269816
408.7919, 5.392339
409.2740, 5.483198
409.7562, 5.560372
410.2383, 5.573530
410.7204, 5.482588
411.2025, 5.302862
411.6846, 5.030358
412.1667, 4.602739
412.6489, 4.256299
413.1310, 4.381521
413.6131, 4.962486
414.0952, 5.396334
414.5773, 5.574843
415.0594, 5.566280
415.5416, 5.315777
416.0237, 4.871220
416.5058, 4.579285
416.9879, 4.727761
417.4700, 5.198267
417.9521, 5.338705
418.4343, 4.876963
418.9164, 4.471668
419.3985, 4.287696
419.8806, 4.272531
420.3627, 4.383927
420.8448, 4.606215
421.3270, 4.861503
421.8091, 5.039878
422.2912, 5.136958
422.7733, 5.147472
423.2554, 5.030110
423.7375, 4.870251
424.2197, 4.706854
424.7018, 4.545692
425.1839, 4.366093
425.6660, 4.137940
426.1481, 3.892972
426.6302, 3.852216
427.1124, 4.216844
427.5945, 4.552338
428.0766, 4.848704
428.5587, 5.069961
429.0408, 5.160397
429.5229, 5.111249
430.0051, 5.009568
430.4872, 4.998092
430.9693, 5.127759
431.4514, 5.134962
431.9335, 4.817162
432.4156, 4.548442
432.8978, 4.513701
433.3799, 4.653907
433.8620, 4.795692
434.3441, 4.824492
434.8262, 4.786277
435.3083, 4.815705
435.7905, 4.930994
436.2726, 5.063672
436.7547, 5.254731
437.2368, 5.417748
437.7189, 5.470273
438.2010, 5.395525
438.6832, 5.236043
439.1653, 4.929685
439.6474, 4.535042
440.1295, 4.407181
440.6116, 4.710960
441.0938, 5.077542
441.5759, 5.179295
442.0580, 5.084758
442.5401, 4.983053
443.0222, 4.911826
443.5043, 4.866643
443.9865, 4.887212
444.4686, 4.956534
444.9507, 4.897275
445.4328, 4.549942
445.9149, 4.102071
446.3970, 4.007198
446.8792, 4.363091
447.3613, 4.710940
447.8434, 4.990883
448.3255, 5.165886
448.8076, 5.158124
449.2897, 4.963422
449.7719, 4.699785
450.2540, 4.461073
450.7361, 4.244782
451.2182, 4.139804
451.7003, 4.170474
452.1824, 4.266194
452.6646, 4.442388
453.1467, 4.657649
453.6288, 4.858024
454.1109, 5.020429
454.5930, 5.133572
455.0751, 5.169918
455.5573, 5.074440
456.0394, 5.007782
456.5215, 5.011243
457.0036, 5.003767
457.4857, 4.911695
457.9678, 4.758807
458.4500, 4.641029
458.9321, 4.650464
459.4142, 4.749997
459.8963, 4.711453
460.3784, 4.452251
460.8605, 4.199088
461.3427, 3.938349
461.8248, 3.748111
462.3069, 3.724512
462.7890, 3.891139
463.2711, 4.138059
463.7532, 4.414055
464.2354, 4.706988
464.7175, 4.794034
465.1996, 4.542127
465.6817, 4.250527
466.1638, 4.151614
466.6459, 4.179889
467.1281, 4.167497
467.6102, 3.964731
468.0923, 3.783389
468.5744, 3.944735
469.0565, 4.405631
469.5386, 4.689179
470.0208, 4.530886
470.5029, 4.198419
470.9850, 4.219247
471.4671, 4.676672
471.9492, 4.951663
472.4313, 4.743637
472.9135, 4.361678
473.3956, 4.121122
473.8777, 4.052496
474.3598, 4.046117
474.8419, 4.017150
475.3240, 3.975822
475.8062, 4.026639
476.2883, 4.299823
476.7704, 4.492729
477.2525, 4.489672
477.7346, 4.397589
478.2167, 4.335004
478.6989, 4.337050
479.1810, 4.378417
479.6631, 4.431002
480.1452, 4.498634
480.6273, 4.556032
481.1094, 4.574188
481.5916, 4.611787
482.0737, 4.748836
482.5558, 4.907191
483.0379, 4.940901
483.5200, 4.768415
484.0021, 4.497211
484.4843, 4.309470
484.9664, 4.194611
485.4485, 4.215657
485.9306, 4.566197
486.4127, 4.902499
486.8948, 5.010747
487.3770, 4.896977
487.8591, 4.661262
488.3412, 4.212662
488.8233, 3.725676
489.3054, 3.624573
489.7875, 3.960348
490.2697, 4.196586
490.7518, 3.979557
491.2339, 3.534235
491.7160, 3.310789
492.1981, 3.336585
492.6802, 3.505242
493.1624, 3.975957
493.6445, 4.487687
494.1266, 4.558420
494.6087, 4.119241
495.0908, 3.657181
495.5729, 3.631688
496.0551, 4.035720
496.5372, 4.198734
497.0193, 3.828231
497.5014, 3.593769
497.9835, 3.864238
498.4656, 4.337251
498.9478, 4.562030
499.4299, 4.397751
499.9120, 4.073443
500.3941, 3.924821
500.8762, 4.009875
501.3583, 4.036147
501.8405, 3.891364
502.3226, 3.802077
502.8047, 3.902131
503.2868, 4.108891
503.7689, 4.264509
504.2510, 4.288627
504.7331, 4.242251
505.2152, 4.247857
505.6974, 4.323642
506.1795, 4.331403
506.6616, 4.128875
507.1437, 3.962226
507.6258, 4.087605
508.1079, 4.443332
508.5901, 4.677230
509.0722, 4.497381
509.5543, 4.157794
510.0364, 4.076712
510.5185, 4.251330
511.0006, 4.315671
511.4828, 4.024993
511.9649, 3.588113
512.4470, 3.469708
512.9291, 3.751482
513.4113, 4.003928
513.8934, 4.113204
514.3755, 4.142697
514.8576, 4.143890
515.3397, 4.127518
515.8218, 4.097925
516.3040, 4.054484
516.7861, 4.002314
517.2682, 3.979079
517.7503, 4.135027
518.2324, 4.127442
518.7145, 3.713480
519.1967, 3.248655
519.6788, 3.115817
520.1609, 3.346342
520.6430, 3.632207
521.1251, 3.634260
521.6072, 3.365838
522.0894, 3.316639
522.5715, 3.684649
523.0536, 3.956285
523.5357, 3.823240
524.0178, 3.571351
524.4999, 3.570694
524.9821, 3.935874
525.4642, 4.327035
525.9463, 4.394420
526.4284, 4.211699
526.9105, 4.125056
527.3926, 4.208435
527.8748, 4.310119
528.3569, 4.318754
528.8390, 4.248903
529.3211, 4.151124
529.8032, 4.009179
530.2853, 3.864353
530.7675, 3.757566
531.2496, 3.661142
531.7317, 3.476559
532.2138, 3.171789
532.6959, 2.934264
533.1780, 3.030195
533.6602, 3.554277
534.1423, 3.817015
534.6244, 3.634829
535.1065, 3.437318
535.5886, 3.337353
536.0707, 3.341565
536.5529, 3.477573
537.0350, 3.750169
537.5171, 4.046440
537.9992, 4.171735
538.4813, 4.091208
538.9634, 4.014995
539.4456, 3.883998
539.9277, 3.837980
540.4098, 4.073574
540.8919, 4.420967
541.3740, 4.512990
541.8561, 4.110909
542.3383, 3.601542
542.8204, 3.495056
543.3025, 3.748040
543.7846, 3.946484
544.2667, 3.991410
544.7488, 3.948162
545.2310, 3.864488
545.7131, 3.745265
546.1952, 3.630248
546.6773, 3.502542
547.1594, 3.402558
547.6415, 3.373156
548.1237, 3.392231
548.6058, 3.396830
549.0879, 3.360302
549.5700, 3.322818
550.0521, 3.351032
550.5342, 3.458797
551.0164, 3.593743
551.4985, 3.878073
551.9806, 4.061328
552.4627, 3.993976
552.9448, 3.752087
553.4269, 3.455397
553.9091, 3.151107
554.3912, 2.916179
554.8733, 2.915262
555.3554, 3.185340
555.8375, 3.441600
556.3196, 3.692226
556.8018, 3.865777
557.2839, 3.879947
557.7660, 3.787604
558.2481, 3.738309
558.7302, 3.812663
559.2123, 3.919057
559.6945, 3.980732
560.1766, 3.997522
560.6587, 3.963331
561.1408, 3.871435
561.6229, 3.740272
562.1050, 3.560645
562.5872, 3.309463
563.0693, 3.234854
563.5514, 3.578170
564.0335, 3.858862
564.5156, 3.768840
564.9977, 3.454767
565.4799, 3.168613
565.9620, 3.014741
566.4441, 2.993259
566.9262, 3.137490
567.4083, 3.522790
567.8904, 3.767583
568.3726, 3.796498
568.8547, 3.752668
569.3368, 3.640187
569.8189, 3.497757
570.3010, 3.384667
570.7831, 3.324778
571.2653, 3.283438
571.7474, 3.168475
572.2295, 3.008009
572.7116, 3.076870
573.1937, 3.521313
573.6758, 3.943429
574.1580, 3.968255
574.6401, 3.684015
575.1222, 3.435544
575.6043, 3.247905
576.0864, 3.110257
576.5685, 2.988129
577.0507, 2.922742
577.5328, 3.015901
578.0149, 3.284293
578.4970, 3.598477
578.9791, 3.835442
579.4612, 3.998161
579.9434, 4.008328
580.4255, 3.732480
580.9076, 3.456515
581.3897, 3.097579
581.8718, 2.833236
582.3539, 2.956017
582.8361, 3.485427
583.3182, 3.987994
583.8003, 3.945044
584.2824, 3.449008
584.7645, 3.216892
585.2466, 3.348780
585.7288, 3.461641
586.2108, 3.290334
586.6929, 3.024873
587.1750, 2.939159
587.6572, 3.073261
588.1393, 3.294265
588.6214, 3.674172
589.1035, 4.039472
589.5856, 4.066901
590.0677, 3.775969
590.5499, 3.609769
591.0320, 3.905185
591.5141, 4.469842
591.9962, 4.582518
592.4783, 3.706618
592.9604, 3.123948
593.4426, 3.042799
593.9247, 3.093912
594.4068, 2.976653
594.8889, 2.747816
595.3710, 2.699806
595.8531, 3.068377
596.3353, 3.639143
596.8174, 3.900845
597.2995, 3.808725
597.7816, 3.639549
598.2637, 3.336706
598.7458, 3.106424
599.2280, 3.212606
599.7101, 3.574774
600.1922, 3.752271
600.6743, 3.410418
601.1564, 2.999202
601.6385, 2.926734
602.1207, 3.096800
602.6028, 3.216000
603.0849, 3.184902
603.5670, 3.099220
604.0491, 3.093945
604.5313, 3.204880
605.0134, 3.167631
605.4955, 2.730536
605.9776, 2.453731
606.4597, 2.675678
606.9418, 3.090013
607.4240, 3.264464
607.9061, 3.089149
608.3882, 2.851315
608.8703, 2.906169
609.3524, 3.225676
609.8345, 3.438080
610.3167, 3.530460
610.7988, 3.536203
611.2809, 3.399074
611.7630, 3.216092
612.2451, 3.129216
612.7272, 3.171841
613.2094, 3.206855
613.6915, 3.149877
614.1736, 3.063257
614.6557, 3.006953
615.1378, 2.992844
615.6199, 3.063590
616.1021, 3.263360
616.5842, 3.517517
617.0663, 3.605724
617.5484, 3.373110
618.0305, 3.235261
618.5126, 3.242866
618.9948, 3.288761
619.4769, 3.307362
619.9590, 3.315081
620.4411, 3.388412
620.9232, 3.593515
621.4053, 3.773501
621.8875, 3.612833
622.3696, 3.119687
622.8517, 2.764045
623.3338, 2.627076
623.8159, 2.640411
624.2980, 2.862967
624.7802, 3.202784
625.2623, 3.342678
625.7444, 3.059412
626.2265, 2.811672
626.7086, 2.828143
627.1907, 3.000446
627.6729, 3.230772
628.1550, 3.475531
628.6371, 3.615742
629.1192, 3.536445
629.6013, 3.262760
630.0834, 2.986937
630.5656, 2.543007
631.0477, 2.385324
631.5298, 2.802824
632.0119, 3.319120
632.4940, 3.620588
632.9761, 3.682333
633.4583, 3.603349
633.9404, 3.387877
634.4225, 3.111346
634.9046, 2.864396
635.3867, 2.651407
635.8688, 2.536583
636.3510, 2.531857
636.8331, 2.658752
637.3152, 3.017926
637.7973, 3.652410
638.2794, 3.971935
638.7615, 3.673583
639.2437, 3.390443
639.7258, 3.461973
640.2079, 3.677405
640.6900, 3.698952
641.1721, 3.457565
641.6542, 3.185995
642.1364, 3.141046
642.6185, 3.303746
643.1006, 3.452637
643.5827, 3.660847
644.0648, 3.690304
644.5469, 3.248196
645.0291, 2.717689
645.5112, 2.406916
645.9933, 2.341426
646.4754, 2.475626
646.9575, 3.003024
647.4396, 3.566928
647.9218, 3.716321
648.4039, 3.535157
648.8860, 3.450408
649.3681, 3.648080
649.8502, 3.898141
650.3323, 3.817865
650.8145, 3.268251
651.2966, 3.030757
651.7787, 3.474045
652.2608, 3.791356
652.7429, 3.555519
653.2250, 3.139268
653.7072, 3.078694
654.1893, 3.492078
654.6714, 3.927036
655.1535, 3.973653
655.6356, 3.702034
656.1177, 3.266792
656.5999, 2.632516
657.0820, 2.188981
657.5641, 2.140174
658.0462, 2.362850
658.5283, 2.701276
659.0104, 3.219557
659.4926, 3.522961
659.9747, 3.353848
660.4568, 3.144576
660.9389, 3.207914
661.4210, 3.434552
661.9031, 3.585728
662.3853, 3.565635
662.8674, 3.413472
663.3495, 3.104272
663.8316, 2.606533
664.3137, 2.488716
664.7958, 2.977202
665.2780, 3.433943
665.7601, 3.619890
666.2422, 3.600286
666.7243, 3.342788
667.2064, 2.795783
667.6885, 2.471612
668.1707, 2.846119
668.6528, 3.410870
669.1349, 3.581317
669.6170, 3.389766
670.0991, 3.113389
670.5812, 2.873451
671.0634, 2.680510
671.5455, 2.533107
672.0276, 2.371126
672.5097, 2.489508
672.9918, 3.282673
673.4739, 3.924453
673.9561, 4.194955
674.4382, 4.155211
674.9203, 3.796206
675.4024, 3.120077
675.8845, 2.534958
676.3666, 2.415873
676.8488, 2.612885
677.3309, 2.845572
677.8130, 3.096769
678.2951, 3.285681
678.7772, 3.365411
679.2593, 3.379351
679.7415, 3.405410
680.2236, 3.448426
680.7057, 3.489222
681.1878, 3.513631
681.6699, 3.551133
682.1520, 3.684228
682.6342, 3.813507
683.1163, 3.760278
683.5984, 3.481334
684.0805, 3.166158
684.5626, 3.005074
685.0447, 2.981853
685.5269, 3.036046
686.0090, 3.195469
686.4911, 3.270425
686.9732, 3.131527
687.4553, 2.906127
687.9374, 2.817011
688.4196, 2.883477
688.9017, 2.885560
689.3838, 2.640295
689.8659, 2.471166
690.3480, 2.673783
690.8301, 3.058122
691.3123, 3.260901
691.7944, 3.177876
692.2765, 3.048151
692.7586, 3.188913
693.2407, 3.566479
693.7228, 3.682733
694.2050, 3.458405
694.6871, 3.183854
695.1692, 2.880949
695.6513, 2.635371
696.1334, 2.558767
696.6155, 2.650047
697.0977, 2.731364
697.5798, 2.681933
698.0619, 2.668636
698.5440, 2.885096
699.0261, 3.215479
699.5082, 3.426054
699.9904, 3.449034
700.4725, 3.351587
700.9546, 3.185669
701.4367, 2.961163
701.9188, 2.841426
702.4009, 2.925060
702.8831, 2.917015
703.3652, 2.524854
703.8473, 2.179613
704.3294, 2.285415
704.8115, 2.782139
705.2936, 3.197883
705.7758, 3.319917
706.2579, 3.315014
706.7400, 3.286746
707.2221, 3.242472
707.7042, 3.200023
708.1863, 3.163110
708.6685, 3.122932
709.1506, 3.078546
709.6327, 3.021111
710.1148, 2.856023
710.5969, 2.334127
711.0790, 2.171178
711.5612, 2.793499
712.0433, 3.490813
712.5254, 3.830729
713.0075, 3.859165
713.4896, 3.803905
713.9717, 3.726048
714.4539, 3.642616
714.9360, 3.524396
715.4181, 3.420359
715.9002, 3.496542
716.3823, 3.764896
716.8644, 3.964729
717.3466, 3.892323
717.8287, 3.625097
718.3108, 3.439503
718.7929, 3.295892
719.2750, 3.316605
719.7571, 3.763540
720.2393, 4.106849
720.7214, 3.983540
721.2035, 3.585929
721.6856, 3.310813
722.1677, 3.309397
722.6498, 3.331421
723.1320, 3.042627
723.6141, 2.666209
724.0962, 2.745518
724.5783, 3.285483
725.0604, 3.783828
725.5425, 3.984947
726.0247, 3.936250
726.5068, 3.700632
726.9889, 3.121987
727.4710, 2.835999
727.9531, 3.127991
728.4352, 3.381481
728.9174, 3.278695
729.3995, 3.075222
729.8816, 3.176215
730.3637, 3.653987
730.8458, 4.031060
731.3279, 3.874918
731.8101, 3.457512
732.2922, 3.216758
732.7743, 3.136616
733.2564, 3.025093
733.7385, 2.802685
734.2206, 2.592214
734.7028, 2.554541
735.1849, 2.700259
735.6670, 2.859736
736.1491, 3.106790
736.6312, 3.269476
737.1133, 3.255641
737.5955, 3.195373
738.0776, 3.194210
738.5597, 3.258336
739.0418, 3.347923
739.5239, 3.484368
740.0060, 3.585618
740.4882, 3.500001
740.9703, 3.300935
741.4524, 3.214272
741.9345, 3.286898
742.4166, 3.459457
742.8987, 3.707075
743.3809, 3.994304
743.8630, 4.148883
744.3451, 4.196397
744.8272, 4.057273
745.3093, 3.436798
745.7914, 2.925280
746.2736, 2.913307
746.7557, 3.231878
747.2378, 3.531467
747.7199, 3.724100
748.2020, 3.785863
748.6841, 3.604074
749.1663, 3.320491
749.6484, 3.170277
750.1305, 3.165555
750.6126, 3.241042
751.0947, 3.368858
751.5768, 3.529953
752.0590, 3.715323
752.5411, 3.980614
753.0232, 3.990628
753.5053, 3.389565
753.9874, 3.013945
754.4695, 3.335417
754.9517, 3.862423
755.4338, 4.071157
755.9159, 3.906716
756.3980, 3.658337
756.8801, 3.327420
757.3622, 3.086196
757.8444, 3.193940
758.3265, 3.510284
758.8086, 3.675887
759.2907, 3.605712
759.7728, 3.523962
760.2549, 3.663105
760.7371, 3.969528
761.2192, 4.108510
761.7013, 4.056111
762.1834, 3.893555
762.6655, 3.461961
763.1476, 3.105517
763.6298, 3.102726
764.1119, 3.350003
764.5940, 3.559636
765.0761, 3.680229
765.5582, 3.741992
766.0403, 3.713622
766.5225, 3.664421
767.0046, 3.701820
767.4867, 3.797843
767.9688, 3.815841
768.4509, 3.684345
768.9330, 3.491174
769.4152, 3.361972
769.8973, 3.294283
770.3794, 3.362652
770.8615, 3.644839
771.3436, 3.853125
771.8257, 3.827479
772.3079, 3.682650
772.7900, 3.570478
773.2721, 3.488057
773.7542, 3.468924
774.2363, 3.558272
774.7184, 3.667799
775.2006, 3.772321
775.6827, 3.860502
776.1648, 3.924971
776.6469, 3.961604
777.1290, 3.961018
777.6111, 3.910037
778.0933, 3.825027
778.5754, 3.731647
779.0575, 3.631179
779.5396, 3.569682
780.0217, 3.561882
780.5038, 3.569973
780.9860, 3.555127
781.4681, 3.533965
781.9502, 3.583780
782.4323, 3.833843
782.9144, 3.938754
783.3965, 3.744741
783.8787, 3.539814
784.3608, 3.476827
784.8429, 3.522825
785.3250, 3.642383
785.8071, 3.825703
786.2892, 3.896720
786.7714, 3.569824
787.2535, 3.088356
787.7356, 2.913679
788.2177, 3.031557
788.6998, 3.250107
789.1819, 3.511069
789.6641, 3.744424
790.1462, 3.860921
790.6283, 3.861009
791.1104, 3.847359
791.5925, 3.816471
792.0746, 3.777624
792.5568, 3.765143
793.0389, 3.717404
793.5210, 3.545000
794.0031, 3.296180
794.4852, 3.130943
794.9673, 3.088448
795.4495, 3.153861
795.9316, 3.450796
796.4137, 3.772790
796.8958, 3.824172
797.3779, 3.625139
797.8600, 3.365672
798.3422, 3.140315
798.8243, 2.980646
799.3064, 2.951896
799.7885, 3.057897
800.2706, 3.186889
800.7527, 3.354404
801.2349, 3.494934
801.7170, 3.584221
802.1991, 3.631981
802.6812, 3.638508
803.1633, 3.603663
803.6454, 3.585740
804.1276, 3.574223
804.6097, 3.599765
805.0918, 3.726311
805.5739, 3.860073
806.0560, 3.910399
806.5381, 3.870370
807.0203, 3.768435
807.5024, 3.605445
807.9845, 3.436508
808.4666, 3.307809
808.9487, 3.236195
809.4308, 3.313931
809.9130, 3.553777
810.3951, 3.824510
810.8772, 4.072910
811.3593, 4.253090
811.8414, 4.250680
812.3235, 3.971829
812.8057, 3.865406
813.2878, 4.121826
813.7699, 4.313967
814.2520, 4.298354
814.7341, 4.185075
815.2162, 4.081059
815.6984, 3.994767
816.1805, 3.884207
816.6626, 3.662711
817.1447, 3.482128
817.6268, 3.485931
818.1089, 3.591220
818.5911, 3.672019
819.0732, 3.711277
819.5553, 3.765307
820.0374, 3.879702
820.5195, 3.984999
821.0016, 3.899387
821.4838, 3.614452
821.9659, 3.438685
822.4480, 3.385704
822.9301, 3.486815
823.4122, 3.879563
823.8943, 4.330575
824.3765, 4.377959
824.8586, 3.902426
825.3407, 3.654891
825.8228, 3.907899
826.3049, 4.091805
826.7870, 3.893527
827.2692, 3.608590
827.7513, 3.585153
828.2334, 3.811555
828.7155, 4.001271
829.1976, 3.988352
829.6797, 3.896812
830.1619, 3.812488
830.6440, 3.768157
831.1261, 3.911413
831.6082, 4.224526
832.0903, 4.390427
832.5724, 4.211488
833.0546, 3.867568
833.5367, 3.716311
834.0188, 3.789442
834.5009, 3.831914
834.9830, 3.838363
835.4651, 3.824813
835.9473, 3.796217
836.4294, 3.750362
836.9115, 3.666520
837.3936, 3.549627
837.8757, 3.490109
838.3578, 3.551119
838.8400, 3.610085
839.3221, 3.586139
839.8042, 3.563988
840.2863, 3.654710
840.7684, 3.828594
841.2505, 3.954239
841.7327, 3.959740
842.2148, 3.958831
842.6969, 4.170849
843.1790, 4.471102
843.6611, 4.412617
844.1432, 4.007617
844.6254, 3.829111
845.1075, 4.151453
845.5896, 4.583301
846.0717, 4.578053
846.5538, 4.133070
847.0359, 3.893586
847.5181, 3.985371
848.0002, 4.038856
848.4823, 3.935956
848.9644, 3.815656
849.4465, 3.778196
849.9286, 3.800367
850.4108, 3.796487
850.8929, 3.686888
851.3750, 3.701030
851.8571, 4.108492
852.3392, 4.505587
852.8214, 4.545506
853.3035, 4.317003
853.7856, 4.015108
854.2677, 3.713685
854.7498, 3.445606
855.2319, 3.155812
855.7141, 2.966094
856.1962, 3.310876
856.6783, 4.083445
857.1604, 4.497572
857.6425, 4.343713
858.1246, 4.029186
858.6068, 3.872930
859.0889, 3.846138
859.5710, 3.857501
860.0531, 3.980618
860.5352, 3.938491
861.0173, 3.564915
861.4995, 3.231937
861.9816, 3.115243
862.4637, 3.126420
862.9458, 3.143276
863.4279, 3.152443
863.9100, 3.257881
864.3922, 3.714748
864.8743, 4.014032
865.3564, 3.682902
865.8385, 3.169371
866.3206, 3.009433
866.8027, 3.228542
867.2849, 3.583906
867.7670, 3.988388
868.2491, 4.264321
868.7312, 4.112161
869.2133, 3.654673
869.6954, 3.128476
870.1776, 2.590207
870.6597, 2.461550
871.1418, 2.969323
871.6239, 3.666173
872.1060, 3.906607
872.5881, 3.694589
873.0703, 3.731001
873.5524, 4.196863
874.0345, 4.442129
874.5166, 4.216026
874.9987, 3.852003
875.4808, 3.533803
875.9630, 3.289625
876.4451, 3.233539
876.9272, 3.503773
877.4093, 3.678227
877.8914, 3.601210
878.3735, 3.479324
878.8557, 3.444833
879.3378, 3.447718
879.8199, 3.394284
880.3020, 3.266662
880.7841, 3.119723
881.2662, 2.878616
881.7484, 2.743561
882.2305, 3.121598
882.7126, 3.766783
883.1947, 4.059012
883.6768, 3.930724
884.1589, 3.739276
884.6411, 3.711462
885.1232, 3.770878
885.6053, 3.809924
886.0874, 3.834476
886.5695, 3.548268
887.0516, 2.797428
887.5338, 2.391572
888.0159, 2.784504
888.4980, 3.421978
888.9801, 3.644097
889.4622, 3.452032
889.9443, 3.312566
890.4265, 3.215621
890.9086, 3.185241
891.3907, 3.354280
891.8728, 3.463830
892.3549, 3.252147
892.8370, 2.893104
893.3192, 2.770735
893.8013, 3.004704
894.2834, 3.156687
894.7655, 2.813501
895.2476, 2.489912
895.7297, 2.741902
896.2119, 3.268911
896.6940, 3.518018
897.1761, 3.417388
897.6582, 3.302723
898.1403, 3.422453
898.6224, 3.607961
899.1046, 3.541147
899.5867, 3.292316
900.0688, 3.191840
900.5509, 3.266750
901.0330, 3.320158
901.5151, 3.253302
901.9973, 3.154897
902.4794, 3.166907
902.9615, 3.289558
903.4436, 3.298228
903.9257, 3.104130
904.4078, 3.038991
904.8900, 3.287676
905.3721, 3.533931
905.8542, 3.509526
906.3363, 3.292493
906.8184, 3.114902
907.3005, 2.952949
907.7827, 2.900095
908.2648, 3.096304
908.7469, 3.260108
909.2290, 3.187276
909.7111, 3.043660
910.1932, 3.098087
910.6754, 3.338709
911.1575, 3.425603
911.6396, 3.060724
912.1217, 2.681660
912.6038, 2.770710
913.0859, 2.991937
913.5681, 2.703518
914.0502, 2.067039
914.5323, 1.893334
915.0144, 2.528317
915.4965, 3.345063
915.9786, 3.601888
916.4607, 3.425835
916.9428, 3.205966
917.4249, 2.954325
917.9070, 2.893729
918.3892, 3.100571
918.8713, 3.237812
919.3534, 3.008985
919.8355, 2.561305
920.3176, 2.347935
920.7997, 2.413654
921.2819, 2.553996
921.7640, 2.831022
922.2461, 3.057177
922.7282, 3.162053
923.2103, 3.176729
923.6924, 3.148491
924.1746, 3.075328
924.6567, 2.877330
925.1388, 2.267551
925.6209, 1.933437
926.1030, 2.275461
926.5851, 2.665715
927.0673, 2.612095
927.5494, 2.320353
928.0315, 2.223181
928.5136, 2.428537
928.9957, 2.644730
929.4778, 2.718851
929.9600, 2.742811
930.4421, 2.779878
930.9242, 2.823564
931.4063, 2.880235
931.8884, 2.933646
932.3705, 2.906819
932.8527, 2.741832
933.3348, 2.586465
933.8169, 2.674949
934.2990, 2.914402
934.7811, 3.071485
935.2632, 3.134023
935.7454, 3.096428
936.2275, 2.956502
936.7096, 2.768858
937.1917, 2.571984
937.6738, 2.392580
938.1559, 2.329172
938.6381, 2.383147
939.1202, 2.589800
939.6023, 3.047182
940.0844, 3.326927
940.5665, 3.136546
941.0486, 2.746507
941.5308, 2.584999
942.0129, 2.674731
942.4950, 2.735915
942.9771, 2.694897
943.4592, 2.737944
943.9413, 3.082059
944.4235, 3.328656
944.9056, 3.106358
945.3877, 2.632236
945.8698, 2.412571
946.3519, 2.587591
946.8340, 2.663178
947.3162, 2.298276
947.7983, 2.050572
948.2804, 2.370097
948.7625, 2.859790
949.2446, 3.066932
949.7267, 2.979583
950.2089, 2.813076
950.6910, 2.619760
951.1731, 2.511140
951.6552, 2.648991
952.1373, 2.866417
952.6194, 2.988005
953.1016, 3.004670
953.5837, 2.890317
954.0658, 2.664653
954.5479, 2.506382
955.0300, 2.589251
955.5121, 2.772238
955.9943, 2.766959
956.4764, 2.632727
956.9585, 2.648165
957.4406, 2.824502
957.9227, 2.849337
958.4048, 2.561949
958.8870, 2.283285
959.3691, 2.500173
959.8512, 3.113704
960.3333, 3.285289
960.8154, 2.951133
961.2975, 2.623682
961.7797, 2.363459
962.2618, 2.236573
962.7439, 2.348079
963.2260, 2.546749
963.7081, 2.475309
964.1902, 2.025504
964.6724, 1.897675
965.1545, 2.401163
965.6366, 2.708515
966.1187, 2.400454
966.6008, 2.050803
967.0829, 2.184584
967.5651, 2.626076
968.0472, 2.822829
968.5293, 2.637721
969.0114, 2.492132
969.4935, 2.500257
969.9756, 2.491216
970.4578, 2.388095
970.9399, 2.229528
971.4220, 1.989799
971.9041, 1.724284
972.3862, 1.662799
972.8683, 1.980167
973.3505, 2.295336
973.8326, 2.425809
974.3147, 2.459107
974.7968, 2.420948
975.2789, 2.363721
975.7610, 2.375462
976.2432, 2.465175
976.7253, 2.541716
977.2074, 2.496772
977.6895, 2.500513
978.1716, 2.881214
978.6537, 3.365863
979.1359, 3.465506
979.6180, 3.213808
980.1001, 2.852623
980.5822, 2.491573
981.0643, 2.293380
981.5464, 2.469464
982.0286, 2.873746
982.5107, 3.250262
982.9928, 3.558829
983.4749, 3.554650
983.9570, 3.221231
984.4391, 2.824998
984.9213, 2.494508
985.4034, 2.293464
985.8855, 2.347529
986.3676, 2.620546
986.8497, 2.835186
987.3318, 3.006700
987.8140, 2.861983
988.2961, 2.246321
988.7782, 1.806731
989.2603, 2.019592
989.7424, 2.585104
990.2245, 2.878527
990.7067, 2.858603
991.1888, 2.902483
991.6709, 3.021428
992.1530, 3.193878
992.6351, 3.537543
993.1172, 3.748710
993.5994, 3.532295
994.0815, 3.018715
994.5636, 2.589768
995.0457, 2.190235
995.5278, 2.033430
996.0099, 2.335325
996.4921, 2.595392
996.9742, 2.613022
997.4563, 2.602113
997.9384, 2.839956
998.4205, 3.207934
998.9026, 3.242530
999.3848, 2.681502
999.8669, 2.321522
1000.349, 2.445752
1000.831, 2.652671
1001.313, 2.804075
1001.795, 2.900270
1002.277, 2.941440
1002.760, 2.938273
1003.242, 2.940473
1003.724, 3.018142
1004.206, 2.962619
1004.688, 2.463034
1005.170, 2.007295
1005.652, 2.043164
1006.134, 2.335758
1006.617, 2.495746
1007.099, 2.488590
1007.581, 2.566767
1008.063, 2.918796
1008.545, 3.235261
1009.027, 3.180803
1009.509, 3.022676
1009.991, 3.139483
1010.473, 3.395054
1010.956, 3.439818
1011.438, 3.206584
1011.920, 2.878351
1012.402, 2.519993
1012.884, 2.268554
1013.366, 2.371116
1013.848, 2.664772
1014.330, 2.914532
1014.813, 3.062138
1015.295, 2.950068
1015.777, 2.558587
1016.259, 2.176893
1016.741, 2.049288
1017.223, 2.092475
1017.705, 2.200915
1018.187, 2.345423
1018.669, 2.406028
1019.152, 2.386740
1019.634, 2.425625
1020.116, 2.570548
1020.598, 2.619451
1021.080, 2.321355
1021.562, 1.850300
1022.044, 1.717561
1022.526, 1.895759
1023.008, 2.155725
1023.491, 2.476010
1023.973, 2.623622
1024.455, 2.487287
1024.937, 2.270944
1025.419, 2.207283
1025.901, 2.263953
1026.383, 2.296683
1026.865, 2.304918
1027.348, 2.286159
1027.830, 2.228350
1028.312, 2.214524
1028.794, 2.280612
1029.276, 2.416206
1029.758, 2.621886
1030.240, 2.882422
1030.722, 3.091913
1031.204, 3.290426
1031.687, 3.201988
1032.169, 2.639683
1032.651, 2.292461
1033.133, 2.619264
1033.615, 3.065073
1034.097, 2.823558
1034.579, 1.969154
1035.061, 1.705176
1035.544, 2.365765
1036.026, 2.729436
1036.508, 2.506607
1036.990, 2.345068
1037.472, 2.653908
1037.954, 3.066049
1038.436, 3.081645
1038.918, 2.715384
1039.401, 2.391420
1039.883, 2.115408
1040.365, 1.870368
1040.847, 1.516122
1041.329, 1.381228
1041.811, 1.797572
1042.293, 2.384940
1042.775, 2.640065
1043.257, 2.571446
1043.740, 2.543573
1044.222, 2.770946
1044.704, 2.707515
1045.186, 1.907000
1045.668, 1.296812
1046.150, 1.383043
1046.632, 1.812918
1047.114, 2.247006
1047.596, 2.656282
1048.079, 2.865963
1048.561, 2.665470
1049.043, 2.563227
1049.525, 2.730927
1050.007, 2.879086
1050.489, 2.852931
1050.971, 2.742127
1051.453, 2.643327
1051.936, 2.564816
1052.418, 2.507439
1052.900, 2.484966
1053.382, 2.459615
1053.864, 2.391582
1054.346, 2.355644
1054.828, 2.441329
1055.310, 2.546795
1055.792, 2.549946
1056.275, 2.452316
1056.757, 2.316980
1057.239, 2.040267
1057.721, 1.972646
1058.203, 2.481869
1058.685, 2.914628
1059.167, 2.751761
1059.649, 2.422502
1060.131, 2.508646
1060.614, 2.941622
1061.096, 3.146802
1061.578, 2.856928
1062.060, 2.643515
1062.542, 2.869271
1063.024, 3.032621
1063.506, 2.718187
1063.988, 2.278185
1064.471, 2.142799
1064.953, 2.276551
1065.435, 2.371265
1065.917, 2.333943
1066.399, 2.289333
1066.881, 2.259426
1067.363, 2.267880
1067.845, 2.387995
1068.328, 2.509547
1068.810, 2.473672
1069.292, 2.331264
1069.774, 2.292151
1070.256, 2.443258
1070.738, 2.527468
1071.220, 2.338044
1071.702, 2.163024
1072.184, 2.181477
1072.667, 2.290359
1073.149, 2.439957
1073.631, 2.570189
1074.113, 2.545562
1074.595, 2.315908
1075.077, 2.119497
1075.559, 2.028811
1076.041, 2.043890
1076.523, 2.333514
1077.006, 2.587030
1077.488, 2.362988
1077.970, 1.897362
1078.452, 1.797791
1078.934, 2.206608
1079.416, 2.538336
1079.898, 2.432947
1080.380, 2.314495
1080.862, 2.476779
1081.345, 2.658712
1081.827, 2.572441
1082.309, 2.345854
1082.791, 2.262419
1083.273, 2.365890
1083.755, 2.437445
1084.237, 2.365322
1084.719, 2.269191
1085.202, 2.152346
1085.684, 2.086436
1086.166, 2.246487
1086.648, 2.436631
1087.130, 2.305456
1087.612, 1.849700
1088.094, 1.446683
1088.576, 1.162628
1089.058, 1.101504
1089.541, 1.517953
1090.023, 1.951616
1090.505, 2.014352
1090.987, 1.936972
1091.469, 2.090266
1091.951, 2.440877
1092.433, 2.614419
1092.915, 2.408740
1093.397, 2.275038
1093.880, 2.446046
1094.362, 2.674814
1094.844, 2.925923
1095.326, 3.075198
1095.808, 2.902515
1096.290, 2.522116
1096.772, 2.325387
1097.254, 2.457808
1097.737, 2.512088
1098.219, 2.268488
1098.701, 2.022533
1099.183, 1.832963
1099.665, 1.765231
1100.147, 1.996168
1100.629, 2.355331
1101.111, 2.458066
1101.594, 2.222672
1102.076, 1.992368
1102.558, 1.823054
1103.040, 1.718744
1103.522, 1.661393
1104.004, 1.688059
1104.486, 1.862856
1104.968, 2.120878
1105.450, 2.382867
1105.932, 2.635876
1106.415, 2.806426
1106.897, 2.867802
1107.379, 2.863503
1107.861, 2.721641
1108.343, 2.607691
1108.825, 2.710672
1109.307, 2.818999
1109.789, 2.559582
1110.272, 2.014216
1110.754, 1.847349
1111.236, 2.471087
1111.718, 2.786632
1112.200, 2.451070
1112.682, 2.108338
1113.164, 1.935992
1113.646, 1.887148
1114.129, 1.974321
1114.611, 2.144972
1115.093, 2.230656
1115.575, 2.220154
1116.057, 2.151080
1116.539, 1.986988
1117.021, 1.817612
1117.503, 1.606256
1117.985, 1.457491
1118.468, 1.427614
1118.950, 1.515360
1119.432, 1.762704
1119.914, 2.201162
1120.396, 2.400394
1120.878, 2.185621
1121.360, 2.120880
1121.842, 2.395949
1122.324, 2.590712
1122.807, 2.442790
1123.289, 2.186454
1123.771, 2.109143
1124.253, 2.198207
1124.735, 2.376399
1125.217, 2.756307
1125.699, 2.785206
1126.181, 2.273600
1126.664, 1.934576
1127.146, 2.053323
1127.628, 2.316642
1128.110, 2.439519
1128.592, 2.487696
1129.074, 2.700379
1129.556, 3.123221
1130.038, 3.171430
1130.521, 2.785659
1131.003, 2.416224
1131.485, 2.143018
1131.967, 2.069976
1132.449, 2.305509
1132.931, 2.604948
1133.413, 2.524795
1133.895, 2.146076
1134.377, 2.075073
1134.859, 2.298976
1135.342, 2.455844
1135.824, 2.496357
1136.306, 2.352650
1136.788, 1.985888
1137.270, 1.746768
1137.752, 2.065027
1138.234, 2.656022
1138.716, 2.769600
1139.199, 2.534658
1139.681, 2.581757
1140.163, 2.863760
1140.645, 2.783291
1141.127, 2.229635
1141.609, 1.815682
1142.091, 1.979971
1142.573, 2.367053
1143.056, 2.522532
1143.538, 2.519414
1144.020, 2.554105
1144.502, 2.540019
1144.984, 2.099803
1145.466, 1.342651
1145.948, 0.9437979
1146.430, 1.184554
1146.912, 1.605388
1147.395, 1.817563
1147.877, 1.983892
1148.359, 2.402969
1148.841, 2.814825
1149.323, 2.750340
1149.805, 2.399520
1150.287, 2.267483
1150.769, 2.443383
1151.251, 2.623885
1151.734, 2.686658
1152.216, 2.622122
1152.698, 2.256321
1153.180, 1.933892
1153.662, 2.069128
1154.144, 2.338125
1154.626, 2.261832
1155.108, 1.909078
1155.591, 1.666970
1156.073, 1.635909
1156.555, 1.734280
1157.037, 2.134963
1157.519, 2.391282
1158.001, 2.155356
1158.483, 1.869597
1158.965, 1.856086
1159.448, 2.036752
1159.930, 2.312100
1160.412, 2.666293
1160.894, 2.808345
1161.376, 2.503493
1161.858, 2.305306
1162.340, 2.318655
1162.822, 2.371704
1163.304, 2.446279
1163.786, 2.489533
1164.269, 2.432003
1164.751, 2.307480
1165.233, 2.230582
1165.715, 2.206256
1166.197, 2.209544
1166.679, 2.243071
1167.161, 2.300806
1167.643, 2.395365
1168.126, 2.492580
1168.608, 2.612735
1169.090, 2.621466
1169.572, 2.266617
1170.054, 1.627042
1170.536, 1.289781
1171.018, 1.254212
1171.500, 1.637596
1171.983, 2.476404
1172.465, 2.929489
1172.947, 2.691662
1173.429, 2.326405
1173.911, 2.314091
1174.393, 2.434547
1174.875, 2.181885
1175.357, 1.715740
1175.839, 1.717927
1176.322, 2.075737
1176.804, 2.291007
1177.286, 2.284822
1177.768, 2.170640
1178.250, 2.003786
1178.732, 1.829433
1179.214, 1.663410
1179.696, 1.549558
1180.178, 1.538035
1180.661, 1.621544
1181.143, 1.841544
1181.625, 2.129300
1182.107, 2.374593
1182.589, 2.531899
1183.071, 2.517008
1183.553, 2.233524
1184.035, 2.002100
1184.518, 2.114784
1185.000, 2.248170
1185.482, 2.164108
1185.964, 1.989643
1186.446, 1.813869
1186.928, 1.683049
1187.410, 1.657938
1187.892, 1.749025
1188.375, 1.933578
1188.857, 2.313856
1189.339, 2.625266
1189.821, 2.804494
1190.303, 2.914188
1190.785, 3.106961
1191.267, 3.143917
1191.749, 2.552063
1192.231, 1.607175
1192.714, 1.442904
1193.196, 2.400595
1193.678, 2.773507
1194.160, 2.245105
1194.642, 2.032743
1195.124, 2.508644
1195.606, 2.932415
1196.088, 2.852904
1196.570, 2.570614
1197.053, 2.504036
1197.535, 2.602585
1198.017, 2.587729
1198.499, 2.465695
1198.981, 2.550015
1199.463, 2.846410
1199.945, 2.974226
1200.427, 2.830796
1200.910, 2.660674
1201.392, 2.637079
1201.874, 2.628977
1202.356, 2.391897
1202.838, 2.067077
1203.320, 1.990951
1203.802, 2.057337
1204.284, 1.955908
1204.766, 1.759385
1205.249, 1.887407
1205.731, 2.416878
1206.213, 2.816656
1206.695, 2.731097
1207.177, 2.481681
1207.659, 2.173245
1208.141, 1.953459
1208.623, 2.018312
1209.105, 2.203102
1209.588, 2.299716
1210.070, 2.321775
1210.552, 2.423130
1211.034, 2.662478
1211.516, 2.707053
1211.998, 2.216974
1212.480, 1.909160
1212.962, 2.130845
1213.445, 2.371914
1213.927, 2.319394
1214.409, 2.186323
1214.891, 2.220600
1215.373, 2.372697
1215.855, 2.420965
1216.337, 2.352899
1216.819, 2.205126
1217.302, 1.899751
1217.784, 1.864445
1218.266, 2.260326
1218.748, 2.572807
1219.230, 2.502637
1219.712, 2.286027
1220.194, 2.207488
1220.676, 2.258763
1221.158, 2.532654
1221.641, 2.923473
1222.123, 2.714524
1222.605, 2.033553
1223.087, 1.786749
1223.569, 2.130299
1224.051, 2.494994
1224.533, 2.565415
1225.015, 2.513329
1225.497, 2.537034
1225.980, 2.507347
1226.462, 2.168535
1226.944, 1.763812
1227.426, 1.598514
1227.908, 1.631567
1228.390, 1.744922
1228.872, 1.903091
1229.354, 2.079237
1229.837, 2.285604
1230.319, 2.447618
1230.801, 2.638962
1231.283, 2.650811
1231.765, 2.084877
1232.247, 1.610603
1232.729, 1.938223
1233.211, 2.624639
1233.693, 2.827753
1234.176, 2.567628
1234.658, 2.442853
1235.140, 2.507452
1235.622, 2.567447
1236.104, 2.678579
1236.586, 2.498243
1237.068, 1.834967
1237.550, 1.289159
1238.032, 1.309713
1238.515, 1.649920
1238.997, 1.949388
1239.479, 2.189254
1239.961, 2.251989
1240.443, 2.187953
1240.925, 2.244561
1241.407, 2.410497
1241.889, 2.543335
1242.372, 2.587424
1242.854, 2.451743
1243.336, 2.030080
1243.818, 1.725704
1244.300, 2.053116
1244.782, 2.534221
1245.264, 2.787026
1245.746, 2.852415
1246.229, 2.724629
1246.711, 2.491480
1247.193, 2.284820
1247.675, 2.131646
1248.157, 2.027624
1248.639, 1.917963
1249.121, 1.966907
1249.603, 2.478463
1250.085, 2.768394
1250.568, 2.449024
1251.050, 2.062416
1251.532, 1.965777
1252.014, 2.016409
1252.496, 1.956956
1252.978, 1.813353
1253.460, 1.914535
1253.942, 2.297965
1254.424, 2.531357
1254.907, 2.588667
1255.389, 2.376600
1255.871, 1.878344
1256.353, 1.628042
1256.835, 1.988341
1257.317, 2.486969
1257.799, 2.472239
1258.281, 2.239657
1258.764, 2.376244
1259.246, 2.651045
1259.728, 2.602165
1260.210, 2.348279
1260.692, 2.225054
1261.174, 2.294245
1261.656, 2.483971
1262.138, 2.815866
1262.620, 2.994761
1263.103, 2.693805
1263.585, 2.465614
1264.067, 2.699801
1264.549, 2.939967
1265.031, 2.860473
1265.513, 2.590157
1265.995, 2.234911
1266.477, 1.860994
1266.959, 1.831578
1267.442, 2.287178
1267.924, 2.503380
1268.406, 2.446919
1268.888, 2.274200
1269.370, 1.987679
1269.852, 1.800436
1270.334, 1.822969
1270.816, 1.966788
1271.299, 2.163465
1271.781, 2.344948
1272.263, 2.363280
1272.745, 2.262937
1273.227, 2.061670
1273.709, 1.867081
1274.191, 2.004929
1274.673, 2.397570
1275.156, 2.615096
1275.638, 2.525137
1276.120, 2.440148
1276.602, 2.590305
1277.084, 2.678888
##END=



