##NAMES=Krupkaite
##RRUFFID=R070310
##IDEAL CHEMISTRY=Cu^1+^Pb^2+^Bi^3+^_3_S^2-^_6_
##LOCALITY=MaGruder Peak Quadrangle, near Goldfield, Esmerelda County, Nevada, USA
##OWNER=RRUFF
##SOURCE=James Shigley
##DESCRIPTION=Acicular metallic golden crystal with blue iridescence, embedded in quartz. Space group determined in order to help with the identification.
##STATUS=The identification of this mineral is confirmed by single-crystal X-ray diffraction and chemical analysis.
##URL=rruff.info/R070310
##MEASURED CHEMISTRY=Pb_1.00_(Cu_0.99_Zn_0.01_)_Σ=1_(Bi_2.84_Pb_0.16_)_Σ=3_S_6.00_
151.5903, 396.5355
152.0724, 406.4951
152.5545, 415.7007
153.0366, 424.0437
153.5188, 431.3486
154.0009, 437.2451
154.4830, 441.1096
154.9651, 444.0377
155.4472, 446.4644
155.9293, 447.7131
156.4115, 449.5420
156.8936, 453.0968
157.3757, 457.7140
157.8578, 461.1548
158.3399, 462.3163
158.8221, 462.3521
159.3042, 462.0162
159.7863, 459.7046
160.2684, 458.7904
160.7505, 460.6331
161.2326, 465.0419
161.7148, 470.4430
162.1969, 478.0237
162.6790, 485.5977
163.1611, 490.9718
163.6432, 492.7277
164.1253, 492.7338
164.6075, 490.8893
165.0896, 487.1520
165.5717, 484.9929
166.0538, 487.7083
166.5359, 492.9946
167.0180, 497.5489
167.5002, 499.6924
167.9823, 500.8247
168.4644, 501.9459
168.9465, 503.1475
169.4286, 504.2082
169.9107, 504.2249
170.3929, 503.9461
170.8750, 504.9530
171.3571, 509.6012
171.8392, 515.2657
172.3213, 519.2121
172.8034, 521.0013
173.2856, 521.2599
173.7677, 519.8073
174.2498, 517.0599
174.7319, 514.4778
175.2140, 512.3102
175.6961, 510.9978
176.1783, 511.4550
176.6604, 514.3504
177.1425, 518.1442
177.6246, 521.3751
178.1067, 523.9850
178.5888, 525.8060
179.0710, 526.1986
179.5531, 525.6840
180.0352, 525.2575
180.5173, 524.7026
180.9994, 524.8237
181.4815, 527.8198
181.9637, 533.6115
182.4458, 538.8824
182.9279, 539.7532
183.4100, 537.4709
183.8921, 536.9319
184.3742, 540.9077
184.8564, 546.9214
185.3385, 548.0359
185.8206, 543.8475
186.3027, 539.7764
186.7848, 542.5806
187.2669, 551.2858
187.7491, 558.6145
188.2312, 562.7200
188.7133, 563.5120
189.1954, 559.4509
189.6775, 549.7142
190.1596, 538.9062
190.6418, 531.8915
191.1239, 528.6968
191.6060, 528.4166
192.0881, 532.1274
192.5702, 539.2119
193.0524, 544.1943
193.5345, 546.8333
194.0166, 547.9830
194.4987, 548.1851
194.9808, 547.2963
195.4629, 547.6299
195.9451, 551.6866
196.4272, 559.3793
196.9093, 562.6511
197.3914, 560.3923
197.8735, 555.0598
198.3556, 550.2543
198.8378, 545.6088
199.3199, 543.8274
199.8020, 548.0793
200.2841, 558.9663
200.7662, 566.0983
201.2483, 568.1312
201.7305, 566.7720
202.2126, 565.7847
202.6947, 564.9975
203.1768, 565.2241
203.6589, 567.9543
204.1410, 573.9705
204.6232, 576.3082
205.1053, 572.8605
205.5874, 565.9894
206.0695, 564.0398
206.5516, 568.4389
207.0337, 574.0128
207.5159, 577.2715
207.9980, 577.7159
208.4801, 577.9301
208.9622, 578.1816
209.4443, 578.4412
209.9264, 578.6341
210.4086, 578.9033
210.8907, 578.8157
211.3728, 577.5008
211.8549, 573.8815
212.3370, 572.9259
212.8191, 576.5584
213.3013, 583.8995
213.7834, 587.5981
214.2655, 586.6470
214.7476, 583.6603
215.2297, 580.3583
215.7118, 575.7477
216.1940, 573.5226
216.6761, 574.4739
217.1582, 578.5228
217.6403, 584.7233
218.1224, 595.0962
218.6045, 604.8310
219.0867, 608.6630
219.5688, 603.7604
220.0509, 599.6461
220.5330, 598.9901
221.0151, 601.9165
221.4972, 601.5552
221.9794, 595.8263
222.4615, 589.1296
222.9436, 586.5124
223.4257, 590.4745
223.9078, 593.2603
224.3899, 592.1335
224.8721, 586.4512
225.3542, 585.4655
225.8363, 591.6247
226.3184, 600.1457
226.8005, 605.6346
227.2827, 607.7050
227.7648, 607.2606
228.2469, 603.5154
228.7290, 595.6264
229.2111, 591.0223
229.6932, 590.0823
230.1754, 592.1664
230.6575, 596.9765
231.1396, 606.6646
231.6217, 615.2312
232.1038, 621.1249
232.5859, 624.1674
233.0681, 625.1052
233.5502, 621.8694
234.0323, 618.0082
234.5144, 619.3152
234.9965, 630.0837
235.4786, 638.7072
235.9608, 640.9713
236.4429, 634.9904
236.9250, 631.3088
237.4071, 630.3367
237.8892, 631.4493
238.3713, 634.0276
238.8535, 639.7285
239.3356, 644.0439
239.8177, 644.4153
240.2998, 638.1978
240.7819, 638.8732
241.2640, 650.8303
241.7462, 667.1371
242.2283, 675.5167
242.7104, 671.6385
243.1925, 666.9171
243.6746, 664.7272
244.1567, 665.0806
244.6389, 668.3402
245.1210, 676.3861
245.6031, 686.2043
246.0852, 692.1089
246.5673, 691.7501
247.0494, 691.4827
247.5316, 693.6874
248.0137, 699.2845
248.4958, 704.4071
248.9779, 709.5818
249.4600, 713.9526
249.9421, 715.0837
250.4243, 709.6184
250.9064, 706.9758
251.3885, 711.9713
251.8706, 728.9023
252.3527, 738.7387
252.8348, 738.5729
253.3170, 733.1302
253.7991, 731.5931
254.2812, 736.2122
254.7633, 740.4628
255.2454, 741.9921
255.7275, 740.4329
256.2097, 737.1502
256.6918, 730.8854
257.1739, 723.7983
257.6560, 720.3688
258.1381, 722.8217
258.6202, 724.3164
259.1024, 721.7416
259.5845, 713.6879
260.0666, 707.6468
260.5487, 704.3849
261.0308, 702.5684
261.5129, 699.9965
261.9951, 697.3389
262.4772, 692.3522
262.9593, 683.6256
263.4414, 670.0333
263.9235, 657.6339
264.4056, 646.2477
264.8878, 636.0863
265.3699, 627.0255
265.8520, 618.5829
266.3341, 612.4293
266.8162, 610.0942
267.2983, 612.6395
267.7805, 612.1581
268.2626, 607.9357
268.7447, 601.4665
269.2268, 595.2025
269.7089, 589.2382
270.1910, 583.1605
270.6732, 576.5494
271.1553, 569.2982
271.6374, 562.7480
272.1195, 556.6872
272.6016, 551.6287
273.0837, 549.9184
273.5659, 552.8843
274.0480, 552.3625
274.5301, 542.9706
275.0122, 524.2303
275.4943, 512.5355
275.9764, 509.6037
276.4586, 510.4873
276.9407, 508.1030
277.4228, 502.2578
277.9049, 495.1374
278.3870, 486.4576
278.8691, 476.4403
279.3513, 470.9691
279.8334, 471.1555
280.3155, 473.0299
280.7976, 470.1566
281.2798, 462.2493
281.7619, 456.9842
282.2440, 459.8965
282.7261, 469.1226
283.2082, 468.9644
283.6903, 457.6558
284.1725, 443.4614
284.6546, 437.1403
285.1367, 438.4421
285.6188, 439.3009
286.1009, 435.7438
286.5830, 429.3334
287.0652, 428.0769
287.5473, 432.8846
288.0294, 437.4827
288.5115, 433.2675
288.9936, 421.3842
289.4757, 411.5516
289.9579, 407.9236
290.4400, 408.4061
290.9221, 406.8959
291.4042, 403.2249
291.8863, 399.6589
292.3684, 399.1243
292.8506, 400.8781
293.3327, 401.7452
293.8148, 400.9727
294.2969, 398.5682
294.7790, 393.6166
295.2611, 386.0912
295.7433, 379.0843
296.2254, 374.9526
296.7075, 373.3667
297.1896, 373.6703
297.6717, 376.8768
298.1538, 380.8089
298.6360, 382.0296
299.1181, 380.6991
299.6002, 378.5835
300.0823, 376.8252
300.5644, 375.2535
301.0465, 373.5592
301.5287, 371.7806
302.0108, 369.7000
302.4929, 366.0303
302.9750, 361.2816
303.4571, 358.5815
303.9392, 362.5516
304.4214, 369.0611
304.9035, 372.4295
305.3856, 370.1773
305.8677, 366.1386
306.3498, 363.6270
306.8319, 362.1626
307.3141, 359.9847
307.7962, 355.0805
308.2783, 349.4498
308.7604, 344.6912
309.2425, 340.6051
309.7246, 338.8189
310.2068, 343.1438
310.6889, 350.9341
311.1710, 355.3842
311.6531, 349.3784
312.1352, 341.1180
312.6173, 336.7038
313.0995, 337.8653
313.5816, 340.8212
314.0637, 346.1232
314.5458, 351.8690
315.0279, 354.5399
315.5100, 349.6401
315.9922, 343.6820
316.4743, 340.3905
316.9564, 340.9281
317.4385, 341.0891
317.9206, 337.3061
318.4027, 332.8102
318.8849, 332.1168
319.3670, 342.9872
319.8491, 352.1062
320.3312, 353.3345
320.8133, 344.6673
321.2954, 337.6622
321.7776, 335.0950
322.2597, 335.0292
322.7418, 335.4010
323.2239, 336.9959
323.7060, 337.9226
324.1881, 337.9813
324.6703, 337.2185
325.1524, 334.8223
325.6345, 328.2668
326.1166, 321.3880
326.5987, 317.2095
327.0808, 316.8174
327.5630, 317.8938
328.0451, 321.1621
328.5272, 326.4369
329.0093, 329.7397
329.4914, 331.2701
329.9735, 330.6004
330.4557, 327.0486
330.9378, 317.3577
331.4199, 310.3892
331.9020, 306.6184
332.3841, 306.0298
332.8662, 309.4174
333.3484, 320.6160
333.8305, 329.9237
334.3126, 330.7863
334.7947, 318.7350
335.2768, 312.3978
335.7589, 314.7003
336.2411, 322.1226
336.7232, 325.6460
337.2053, 324.0922
337.6874, 322.0009
338.1695, 321.7750
338.6516, 323.7826
339.1338, 324.5200
339.6159, 323.9579
340.0980, 322.0528
340.5801, 317.8926
341.0622, 311.0170
341.5443, 305.7383
342.0265, 304.1381
342.5086, 305.8848
342.9907, 307.7432
343.4728, 309.6084
343.9549, 311.9379
344.4370, 316.0502
344.9192, 321.6202
345.4013, 325.6928
345.8834, 327.0558
346.3655, 326.1747
346.8476, 323.5073
347.3297, 318.9947
347.8119, 314.6992
348.2940, 312.8992
348.7761, 312.9448
349.2582, 312.9189
349.7403, 312.1818
350.2225, 311.2135
350.7046, 310.1752
351.1867, 309.2182
351.6688, 309.5868
352.1509, 314.7084
352.6331, 321.0807
353.1152, 322.6796
353.5973, 315.5991
354.0794, 308.2869
354.5615, 310.4876
355.0436, 319.1348
355.5258, 324.8967
356.0079, 319.3816
356.4900, 310.5472
356.9721, 305.4493
357.4542, 305.9377
357.9363, 307.5597
358.4185, 307.8347
358.9006, 307.5531
359.3827, 308.0821
359.8648, 310.6608
360.3469, 313.6279
360.8290, 316.3471
361.3112, 318.8480
361.7933, 320.4834
362.2754, 320.8971
362.7575, 320.4179
363.2396, 319.3986
363.7217, 316.5631
364.2039, 314.5618
364.6860, 315.5447
365.1681, 319.5634
365.6502, 319.5862
366.1323, 308.5366
366.6144, 297.0410
367.0966, 292.4631
367.5787, 303.3187
368.0608, 310.9597
368.5429, 312.8272
369.0250, 310.1256
369.5071, 309.0277
369.9893, 310.6752
370.4714, 312.5950
370.9535, 313.6607
371.4356, 313.7986
371.9177, 313.1797
372.3998, 311.5423
372.8820, 309.2747
373.3641, 307.0748
373.8462, 304.6119
374.3283, 303.0801
374.8104, 303.0100
375.2925, 304.4625
375.7747, 306.9889
376.2568, 311.1403
376.7389, 315.3175
377.2210, 317.4128
377.7031, 317.3738
378.1852, 315.8904
378.6674, 312.3330
379.1495, 307.5439
379.6316, 305.7188
380.1137, 307.2310
380.5958, 308.4633
381.0779, 304.8058
381.5601, 297.4473
382.0422, 292.6128
382.5243, 292.0570
383.0064, 294.0809
383.4885, 296.3330
383.9706, 298.7944
384.4528, 301.1683
384.9349, 302.9324
385.4170, 304.5770
385.8991, 307.4996
386.3812, 312.7067
386.8633, 316.6731
387.3455, 315.4730
387.8276, 310.5078
388.3097, 304.9344
388.7918, 298.3698
389.2739, 293.1521
389.7560, 291.8779
390.2382, 295.0592
390.7203, 298.3656
391.2024, 298.9677
391.6845, 298.5719
392.1666, 299.1545
392.6487, 302.5084
393.1309, 305.8929
393.6130, 308.9321
394.0951, 311.4577
394.5772, 311.6854
395.0593, 306.0939
395.5414, 300.0019
396.0236, 296.7906
396.5057, 298.9915
396.9878, 301.6374
397.4699, 304.5002
397.9520, 307.5176
398.4341, 310.5419
398.9163, 315.6361
399.3984, 318.5656
399.8805, 317.0810
400.3626, 308.4636
400.8447, 303.6040
401.3268, 303.7373
401.8090, 306.7257
402.2911, 309.7715
402.7732, 312.9690
403.2553, 315.9724
403.7374, 319.1372
404.2195, 322.3218
404.7017, 322.4896
405.1838, 318.8390
405.6659, 314.3114
406.1480, 311.7708
406.6301, 311.2421
407.1122, 310.0047
407.5944, 307.1336
408.0765, 303.7197
408.5586, 302.2377
409.0407, 302.6639
409.5228, 304.5481
410.0049, 309.1900
410.4871, 315.0777
410.9692, 317.3997
411.4513, 315.0002
411.9334, 311.7487
412.4155, 312.7501
412.8976, 316.6096
413.3798, 319.2652
413.8619, 318.4757
414.3440, 315.8275
414.8261, 312.4442
415.3082, 308.3645
415.7903, 304.8397
416.2725, 300.9311
416.7546, 298.6493
417.2367, 300.3908
417.7188, 311.5368
418.2009, 321.7290
418.6830, 325.9591
419.1652, 325.2400
419.6473, 323.1139
420.1294, 319.1915
420.6115, 315.3417
421.0937, 312.6130
421.5758, 311.8008
422.0579, 310.8116
422.5400, 308.3586
423.0221, 305.7710
423.5042, 305.2256
423.9864, 309.3945
424.4685, 312.6654
424.9506, 313.3437
425.4327, 311.1090
425.9148, 310.4442
426.3969, 312.4761
426.8791, 314.7932
427.3612, 315.4157
427.8433, 314.2827
428.3254, 311.1740
428.8075, 304.2296
429.2896, 296.0060
429.7718, 296.4177
430.2539, 306.8620
430.7360, 318.3944
431.2181, 326.8488
431.7002, 332.1489
432.1823, 332.2531
432.6645, 326.0872
433.1466, 317.9471
433.6287, 313.6242
434.1108, 312.5762
434.5929, 312.1481
435.0750, 310.9413
435.5572, 309.8248
436.0393, 310.5273
436.5214, 312.9909
437.0035, 315.9995
437.4856, 319.0659
437.9677, 321.9251
438.4499, 324.3789
438.9320, 327.1700
439.4141, 328.1901
439.8962, 323.9728
440.3783, 316.6337
440.8604, 311.5016
441.3426, 313.0041
441.8247, 315.8770
442.3068, 317.2928
442.7889, 316.7855
443.2710, 315.5614
443.7531, 311.0534
444.2353, 307.1234
444.7174, 307.9670
445.1995, 323.1104
445.6816, 333.2749
446.1637, 332.8424
446.6458, 323.0171
447.1280, 316.4713
447.6101, 314.8152
448.0922, 314.6615
448.5743, 313.9966
449.0564, 311.7298
449.5385, 312.3612
450.0207, 317.8911
450.5028, 324.6452
450.9849, 324.5532
451.4670, 316.0200
451.9491, 308.7539
452.4312, 306.8356
452.9134, 309.6163
453.3955, 312.2402
453.8776, 314.7696
454.3597, 316.6556
454.8418, 316.4109
455.3239, 314.7878
455.8061, 315.2910
456.2882, 319.9070
456.7703, 325.1354
457.2524, 325.6407
457.7345, 322.2563
458.2166, 318.3616
458.6988, 314.3611
459.1809, 311.7323
459.6630, 313.0179
460.1451, 319.0738
460.6272, 324.6194
461.1093, 325.1663
461.5915, 323.5938
462.0736, 323.4667
462.5557, 328.1432
463.0378, 332.3309
463.5199, 333.5476
464.0020, 332.1920
464.4842, 331.4843
464.9663, 334.9467
465.4484, 337.1026
465.9305, 334.5406
466.4126, 320.4008
466.8947, 313.5554
467.3769, 318.1829
467.8590, 328.2630
468.3411, 334.0781
468.8232, 334.1168
469.3053, 332.6298
469.7874, 329.7374
470.2696, 325.7035
470.7517, 326.4854
471.2338, 333.7546
471.7159, 340.6893
472.1980, 339.7034
472.6801, 331.0590
473.1623, 327.1534
473.6444, 331.2269
474.1265, 337.7849
474.6086, 336.2468
475.0907, 327.8620
475.5728, 320.7107
476.0550, 320.0740
476.5371, 323.0433
477.0192, 325.1166
477.5013, 326.1438
477.9834, 326.9496
478.4655, 328.5487
478.9477, 330.1939
479.4298, 330.9152
479.9119, 330.5703
480.3940, 329.0680
480.8761, 325.2606
481.3582, 320.1078
481.8404, 316.4220
482.3225, 314.6777
482.8046, 314.9794
483.2867, 318.2968
483.7688, 326.5924
484.2509, 331.3392
484.7331, 328.8078
485.2152, 323.9441
485.6973, 321.3563
486.1794, 322.8437
486.6615, 323.4927
487.1436, 322.2684
487.6258, 319.6664
488.1079, 318.0239
488.5900, 317.4988
489.0721, 317.5335
489.5542, 317.5164
490.0363, 317.4271
490.5185, 319.9126
491.0006, 325.8790
491.4827, 331.5504
491.9648, 330.9608
492.4470, 325.1988
492.9291, 320.1410
493.4112, 317.9142
493.8933, 317.4611
494.3754, 317.3955
494.8575, 317.7447
495.3397, 318.6819
495.8218, 322.3764
496.3039, 325.7348
496.7860, 324.3511
497.2681, 315.9283
497.7502, 309.2977
498.2324, 311.0573
498.7145, 316.8641
499.1966, 320.8474
499.6787, 318.9637
500.1608, 317.3064
500.6429, 318.1788
501.1251, 321.4059
501.6072, 323.5386
502.0893, 323.2588
502.5714, 322.8201
503.0535, 323.4909
503.5356, 326.6912
504.0178, 327.4604
504.4999, 324.8512
504.9820, 320.6570
505.4641, 317.5246
505.9462, 315.6378
506.4283, 313.8255
506.9105, 311.4013
507.3926, 308.8934
507.8747, 309.0207
508.3568, 311.9419
508.8389, 314.5831
509.3210, 313.0709
509.8032, 309.5413
510.2853, 310.9348
510.7674, 319.2889
511.2495, 327.5354
511.7316, 326.9783
512.2137, 321.0234
512.6959, 316.6212
513.1780, 317.7930
513.6601, 320.5178
514.1422, 322.2661
514.6243, 323.1997
515.1064, 324.6477
515.5886, 329.9344
516.0707, 333.9337
516.5528, 332.7880
517.0349, 321.5666
517.5170, 314.5060
517.9991, 316.4353
518.4813, 321.9323
518.9634, 324.0837
519.4455, 320.2383
519.9276, 317.6174
520.4097, 317.9410
520.8918, 320.7615
521.3740, 323.6042
521.8561, 326.9391
522.3382, 328.7383
522.8203, 326.4406
523.3024, 320.4475
523.7845, 318.0936
524.2667, 320.5746
524.7488, 323.6237
525.2309, 321.0331
525.7130, 314.3990
526.1951, 309.2895
526.6772, 307.5671
527.1594, 308.3139
527.6415, 311.4955
528.1236, 316.5652
528.6057, 321.2065
529.0878, 324.7395
529.5699, 326.8688
530.0521, 326.6373
530.5342, 323.0466
531.0163, 321.1407
531.4984, 324.2936
531.9805, 329.1783
532.4626, 332.2675
532.9448, 332.5496
533.4269, 331.5863
533.9090, 328.6021
534.3911, 324.3950
534.8732, 322.2283
535.3553, 322.6803
535.8375, 324.0993
536.3196, 326.2940
536.8017, 329.4310
537.2838, 329.8138
537.7659, 326.6039
538.2480, 323.4197
538.7302, 325.1598
539.2123, 330.9753
539.6944, 334.8337
540.1765, 335.1470
540.6586, 333.4615
541.1407, 331.6778
541.6229, 329.6999
542.1050, 327.1662
542.5871, 322.2317
543.0692, 317.7294
543.5513, 316.7813
544.0334, 319.5271
544.5156, 322.4066
544.9977, 323.5038
545.4798, 324.1947
545.9619, 325.6636
546.4440, 330.1324
546.9261, 332.4086
547.4083, 330.6275
547.8904, 326.4097
548.3725, 322.5605
548.8546, 318.1877
549.3367, 315.6350
549.8188, 315.8135
550.3010, 318.5084
550.7831, 321.7468
551.2652, 326.1876
551.7473, 328.9736
552.2294, 326.6777
552.7115, 320.0121
553.1937, 316.7253
553.6758, 318.0153
554.1579, 320.2554
554.6400, 318.2984
555.1221, 313.5680
555.6042, 310.1446
556.0864, 309.4178
556.5685, 310.6455
557.0506, 314.2177
557.5327, 319.4421
558.0148, 323.6859
558.4969, 325.3179
558.9791, 325.8404
559.4612, 325.9484
559.9433, 325.5847
560.4254, 325.5165
560.9075, 326.5247
561.3896, 327.5194
561.8718, 327.5179
562.3539, 325.5943
562.8360, 324.2804
563.3181, 324.0540
563.8002, 324.4202
564.2823, 323.7485
564.7645, 321.4409
565.2466, 320.9587
565.7287, 325.1710
566.2108, 332.4466
566.6929, 333.8201
567.1750, 329.0661
567.6572, 323.2646
568.1393, 319.9971
568.6214, 318.9066
569.1035, 319.5691
569.5856, 322.0942
570.0677, 325.6364
570.5499, 331.2953
571.0320, 337.1679
571.5141, 340.2934
571.9962, 336.7028
572.4783, 333.0344
572.9604, 332.8551
573.4426, 335.2620
573.9247, 335.4135
574.4068, 328.3703
574.8889, 322.7935
575.3710, 322.7361
575.8531, 329.8095
576.3353, 333.7570
576.8174, 333.4455
577.2995, 331.6310
577.7816, 330.7644
578.2637, 330.9068
578.7458, 331.6400
579.2280, 333.3224
579.7101, 334.8028
580.1922, 332.8772
580.6743, 328.3535
581.1564, 325.7931
581.6385, 330.3963
582.1207, 336.5051
582.6028, 335.5594
583.0849, 328.4276
583.5670, 321.8614
584.0491, 318.8194
584.5313, 318.5945
585.0134, 321.6211
585.4955, 329.9057
585.9776, 334.9861
586.4597, 332.5208
586.9418, 326.6131
587.4240, 321.8188
587.9061, 317.3611
588.3882, 315.5080
588.8703, 317.3802
589.3524, 321.7744
589.8345, 325.2853
590.3167, 327.8650
590.7988, 329.7530
591.2809, 330.9603
591.7630, 331.5368
592.2451, 331.1719
592.7272, 329.7927
593.2094, 329.2580
593.6915, 333.6375
594.1736, 339.4511
594.6557, 338.7000
595.1378, 328.3886
595.6199, 318.9046
596.1021, 319.3005
596.5842, 325.1222
597.0663, 330.0372
597.5485, 332.1485
598.0306, 332.7204
598.5127, 331.3347
598.9948, 328.5067
599.4769, 326.4203
599.9590, 325.6292
600.4412, 325.0671
600.9233, 324.5995
601.4054, 324.2928
601.8875, 322.2733
602.3696, 317.0326
602.8517, 313.8442
603.3339, 319.7388
603.8160, 333.6988
604.2981, 341.2678
604.7802, 340.1868
605.2623, 334.5124
605.7444, 326.7212
606.2266, 318.2981
606.7087, 313.6474
607.1908, 316.7057
607.6729, 321.5780
608.1550, 324.0503
608.6371, 324.5344
609.1193, 324.4554
609.6014, 323.0232
610.0835, 322.3230
610.5656, 323.5483
611.0477, 326.9976
611.5298, 330.7390
612.0120, 336.9421
612.4941, 341.1716
612.9762, 339.5277
613.4583, 329.2940
613.9404, 323.2735
614.4225, 322.8236
614.9047, 325.2646
615.3868, 327.7293
615.8689, 330.0856
616.3510, 329.9103
616.8331, 324.8304
617.3152, 319.0486
617.7974, 320.8752
618.2795, 328.1852
618.7616, 332.8194
619.2437, 326.3574
619.7258, 318.4306
620.2079, 316.8189
620.6901, 321.9023
621.1722, 326.7104
621.6543, 328.9936
622.1364, 330.1060
622.6185, 330.8810
623.1006, 331.5652
623.5828, 331.4838
624.0649, 330.2285
624.5470, 328.5821
625.0291, 327.3701
625.5112, 326.5481
625.9933, 326.5128
626.4755, 327.6128
626.9576, 329.1623
627.4397, 329.2226
627.9218, 328.0986
628.4039, 328.1174
628.8860, 333.7726
629.3682, 339.4752
629.8503, 334.6796
630.3324, 321.0658
630.8145, 311.4587
631.2966, 317.3614
631.7787, 327.2303
632.2609, 332.6938
632.7430, 331.3524
633.2251, 330.8498
633.7072, 333.5389
634.1893, 337.1028
634.6714, 339.8640
635.1536, 342.6646
635.6357, 342.3307
636.1178, 336.9340
636.5999, 330.0925
637.0820, 329.3318
637.5641, 334.9461
638.0463, 339.6238
638.5284, 341.0609
639.0105, 340.0866
639.4926, 337.1609
639.9747, 332.8030
640.4568, 330.0749
640.9390, 332.0673
641.4211, 335.7076
641.9032, 338.7668
642.3853, 341.0686
642.8674, 341.4435
643.3495, 337.6217
643.8317, 332.9081
644.3138, 329.4593
644.7959, 327.4050
645.2780, 327.1226
645.7601, 330.0926
646.2422, 333.5347
646.7244, 333.9484
647.2065, 330.7236
647.6886, 327.2178
648.1707, 323.1198
648.6528, 320.3330
649.1349, 324.8883
649.6171, 335.4887
650.0992, 343.1104
650.5813, 341.4980
651.0634, 335.8799
651.5455, 331.7593
652.0276, 329.0761
652.5098, 327.7158
652.9919, 327.5498
653.4740, 328.7288
653.9561, 332.6361
654.4382, 340.6241
654.9203, 343.6118
655.4025, 335.6685
655.8846, 326.3329
656.3667, 321.9003
656.8488, 323.5153
657.3309, 327.0693
657.8130, 333.3551
658.2952, 339.8763
658.7773, 342.6435
659.2594, 341.9955
659.7415, 341.9533
660.2236, 344.3548
660.7057, 346.5250
661.1879, 343.1640
661.6700, 336.2589
662.1521, 331.3951
662.6342, 333.0446
663.1163, 336.0761
663.5984, 337.6761
664.0806, 337.8568
664.5627, 337.5086
665.0448, 335.4713
665.5269, 334.2576
666.0090, 335.5958
666.4911, 340.2540
666.9733, 341.3571
667.4554, 337.6855
667.9375, 332.8760
668.4196, 329.7337
668.9017, 328.2166
669.3839, 327.2439
669.8660, 326.7155
670.3481, 326.7326
670.8302, 327.6700
671.3123, 329.2254
671.7944, 330.8440
672.2766, 332.8394
672.7587, 334.0336
673.2408, 333.0297
673.7229, 330.7523
674.2050, 328.9943
674.6871, 327.6049
675.1693, 327.5215
675.6514, 330.0575
676.1335, 334.4101
676.6156, 335.9432
677.0977, 332.8228
677.5798, 331.1281
678.0620, 334.7001
678.5441, 342.6663
679.0262, 345.4976
679.5083, 342.9354
679.9904, 339.8575
680.4725, 341.3586
680.9547, 344.6574
681.4368, 344.0789
681.9189, 338.5074
682.4010, 333.6015
682.8831, 333.7339
683.3652, 336.2172
683.8474, 338.4688
684.3295, 340.8290
684.8116, 341.4748
685.2937, 338.7267
685.7758, 334.7541
686.2579, 332.3866
686.7401, 332.1044
687.2222, 331.9314
687.7043, 330.9062
688.1864, 330.3808
688.6685, 335.5804
689.1506, 345.9503
689.6328, 352.4458
690.1149, 347.9764
690.5970, 339.3044
691.0791, 336.8705
691.5612, 339.6184
692.0433, 342.1989
692.5255, 339.5174
693.0076, 337.5475
693.4897, 342.1649
693.9718, 354.8077
694.4539, 360.5416
694.9360, 350.1303
695.4182, 339.0399
695.9003, 335.9289
696.3824, 343.3723
696.8645, 348.1253
697.3466, 349.8964
697.8287, 349.7415
698.3109, 347.7657
698.7930, 344.5330
699.2751, 343.4343
699.7572, 345.6089
700.2393, 348.0158
700.7214, 346.9844
701.2036, 344.1110
701.6857, 342.0610
702.1678, 342.3578
702.6499, 342.9679
703.1320, 343.9005
703.6141, 344.5732
704.0963, 343.3575
704.5784, 337.6379
705.0605, 334.0410
705.5426, 334.7970
706.0247, 338.6975
706.5068, 339.9576
706.9890, 338.2039
707.4711, 336.9984
707.9532, 338.4736
708.4353, 341.7865
708.9174, 345.9602
709.3995, 350.6670
709.8817, 352.3967
710.3638, 344.5154
710.8459, 335.3099
711.3280, 332.8392
711.8101, 338.6803
712.2922, 344.2565
712.7744, 348.2694
713.2565, 350.3574
713.7386, 350.0261
714.2207, 345.0639
714.7028, 344.0182
715.1849, 348.9428
715.6671, 354.1942
716.1492, 351.9641
716.6313, 343.1206
717.1134, 338.2409
717.5955, 339.8127
718.0776, 343.7233
718.5598, 345.9183
719.0419, 346.6625
719.5240, 346.4133
720.0061, 344.0363
720.4882, 342.2904
720.9703, 343.4247
721.4525, 346.0409
721.9346, 346.9395
722.4167, 343.4209
722.8988, 341.2043
723.3809, 342.0212
723.8630, 344.8629
724.3452, 344.9943
724.8273, 341.7838
725.3094, 340.4813
725.7915, 345.6609
726.2736, 353.7680
726.7557, 354.4077
727.2379, 348.4922
727.7200, 343.2065
728.2021, 343.6569
728.6842, 346.3862
729.1663, 348.5767
729.6484, 349.9489
730.1306, 352.1897
730.6127, 359.1672
731.0948, 364.2225
731.5769, 363.0111
732.0590, 352.9689
732.5411, 347.5635
733.0233, 347.7617
733.5054, 350.4272
733.9875, 355.0149
734.4696, 360.4786
734.9517, 356.6213
735.4338, 340.5185
735.9160, 325.8986
736.3981, 329.7187
736.8802, 343.0817
737.3623, 352.8757
737.8444, 354.4783
738.3266, 354.2824
738.8087, 353.8574
739.2908, 353.3977
739.7729, 353.1832
740.2551, 353.1682
740.7372, 353.5879
741.2193, 354.9666
741.7014, 356.3784
742.1835, 355.0246
742.6656, 350.8645
743.1478, 348.9778
743.6299, 352.1250
744.1120, 356.9848
744.5941, 357.7088
745.0762, 355.6169
745.5583, 354.8357
746.0405, 360.9351
746.5226, 365.6151
747.0047, 361.6456
747.4868, 351.0897
747.9689, 346.5121
748.4510, 355.7777
748.9332, 362.9084
749.4153, 361.9323
749.8974, 353.7610
750.3795, 349.3493
750.8616, 349.0500
751.3438, 349.8217
751.8259, 349.4269
752.3080, 348.7686
752.7901, 351.1081
753.2722, 356.2436
753.7543, 359.3718
754.2365, 354.7048
754.7186, 348.4912
755.2007, 346.3217
755.6828, 349.7827
756.1649, 351.3495
756.6470, 347.8012
757.1292, 343.7568
757.6113, 341.7113
758.0934, 341.6431
758.5755, 344.5208
759.0576, 351.5027
759.5397, 357.6359
760.0219, 355.1988
760.5040, 347.5694
760.9861, 346.6246
761.4682, 355.4072
761.9503, 364.2967
762.4324, 365.4466
762.9146, 362.5272
763.3967, 359.8599
763.8788, 358.8984
764.3609, 357.5595
764.8430, 355.2607
765.3251, 352.5694
765.8073, 350.0475
766.2894, 347.7049
766.7715, 345.2717
767.2536, 342.2056
767.7357, 340.0268
768.2178, 342.3724
768.7000, 348.1308
769.1821, 352.5760
769.6642, 353.8449
770.1463, 353.8638
770.6284, 354.1001
771.1105, 354.3080
771.5927, 354.0124
772.0748, 354.0234
772.5569, 352.3193
773.0390, 347.0198
773.5211, 339.9854
774.0032, 335.7528
774.4854, 334.3637
774.9675, 335.8221
775.4496, 340.9237
775.9317, 348.1800
776.4138, 355.3754
776.8959, 361.8683
777.3781, 364.5223
777.8602, 357.8755
778.3423, 349.7440
778.8244, 347.0946
779.3065, 348.7938
779.7886, 349.7129
780.2708, 346.7428
780.7529, 344.3687
781.2350, 343.5084
781.7171, 344.2873
782.1992, 349.4012
782.6813, 360.9976
783.1635, 368.0974
783.6456, 361.0679
784.1277, 345.8186
784.6098, 343.5698
785.0919, 353.0433
785.5740, 361.3700
786.0562, 358.0003
786.5383, 351.6223
787.0204, 349.8303
787.5025, 353.0639
787.9846, 355.2782
788.4667, 352.2254
788.9489, 350.6611
789.4310, 354.5752
789.9131, 364.5078
790.3952, 368.3746
790.8773, 365.0420
791.3594, 360.7859
791.8416, 361.4973
792.3237, 364.7415
792.8058, 363.5756
793.2879, 357.7088
793.7700, 351.1288
794.2521, 344.3476
794.7343, 339.5301
795.2164, 339.1994
795.6985, 344.8089
796.1806, 349.4807
796.6627, 352.4394
797.1448, 354.3619
797.6270, 355.6884
798.1091, 356.4940
798.5912, 355.9824
799.0733, 354.0393
799.5554, 351.3277
800.0375, 347.2408
800.5197, 343.1914
801.0018, 342.1258
801.4839, 344.6521
801.9660, 348.5005
802.4481, 354.3133
802.9302, 359.5977
803.4124, 361.9016
803.8945, 358.2361
804.3766, 357.8880
804.8587, 363.2897
805.3408, 368.7976
805.8229, 368.3309
806.3051, 361.9426
806.7872, 358.2106
807.2693, 358.1131
807.7514, 359.1169
808.2335, 358.2445
808.7156, 356.8729
809.1978, 357.8112
809.6799, 363.2105
810.1620, 365.6108
810.6441, 356.8904
811.1262, 346.5547
811.6083, 344.6030
812.0905, 357.8893
812.5726, 363.3691
813.0547, 357.9167
813.5368, 349.7147
814.0189, 348.8865
814.5010, 354.1559
814.9832, 358.0774
815.4653, 359.3580
815.9474, 359.5858
816.4295, 359.9557
816.9116, 360.2660
817.3937, 360.3940
817.8759, 361.1048
818.3580, 360.0189
818.8401, 353.0471
819.3222, 346.4730
819.8043, 347.1975
820.2864, 357.5874
820.7686, 364.1815
821.2507, 365.2629
821.7328, 363.8025
822.2149, 362.6930
822.6970, 362.1122
823.1791, 363.1366
823.6613, 367.1323
824.1434, 368.9345
824.6255, 361.5882
825.1076, 351.7560
825.5897, 346.9621
826.0718, 354.1455
826.5540, 358.2102
827.0361, 357.5163
827.5182, 355.5776
828.0003, 357.5723
828.4824, 363.4011
828.9645, 364.9801
829.4467, 360.3065
829.9288, 354.5455
830.4109, 352.9901
830.8930, 354.4282
831.3751, 357.5389
831.8572, 363.9822
832.3394, 367.3952
832.8215, 361.4832
833.3036, 353.6638
833.7857, 352.5078
834.2678, 361.2806
834.7499, 367.1412
835.2321, 368.9163
835.7142, 368.5239
836.1963, 369.0450
836.6784, 369.5303
837.1605, 365.1505
837.6426, 353.4733
838.1248, 344.0088
838.6069, 345.8401
839.0890, 353.1308
839.5711, 359.7271
840.0532, 366.2115
840.5353, 368.1512
841.0175, 362.4858
841.4996, 355.3187
841.9817, 352.9993
842.4638, 355.6792
842.9459, 359.4676
843.4280, 364.4654
843.9102, 368.1064
844.3923, 365.5560
844.8744, 360.4116
845.3565, 359.2381
845.8386, 364.9809
846.3207, 368.4476
846.8029, 362.5445
847.2850, 354.9169
847.7671, 352.3979
848.2492, 357.2393
848.7313, 361.4525
849.2134, 365.1210
849.6956, 367.8656
850.1777, 369.9684
850.6598, 370.8959
851.1419, 367.2890
851.6240, 358.0673
852.1061, 351.3750
852.5883, 355.6367
853.0704, 363.8766
853.5525, 369.8752
854.0346, 372.1118
854.5167, 373.7368
854.9988, 376.3020
855.4810, 376.6497
855.9631, 370.4471
856.4452, 357.4722
856.9273, 353.6761
857.4094, 360.0028
857.8915, 367.6863
858.3737, 368.5283
858.8558, 366.3857
859.3379, 366.3116
859.8200, 369.0671
860.3021, 371.2165
860.7842, 371.2076
861.2664, 370.3731
861.7485, 369.1710
862.2306, 367.3975
862.7127, 367.9555
863.1948, 371.7164
863.6769, 373.9912
864.1591, 369.5983
864.6412, 361.6762
865.1233, 357.0493
865.6054, 355.9056
866.0875, 357.8221
866.5696, 365.6089
867.0518, 373.8145
867.5339, 379.4379
868.0160, 382.1609
868.4981, 382.1349
868.9802, 378.6339
869.4623, 373.8444
869.9445, 367.4827
870.4266, 360.7693
870.9087, 360.1737
871.3908, 365.2616
871.8729, 371.3812
872.3550, 378.0171
872.8372, 382.6576
873.3193, 382.2481
873.8014, 377.5537
874.2835, 373.0597
874.7656, 367.4832
875.2477, 365.2724
875.7299, 369.2254
876.2120, 377.0565
876.6941, 379.7137
877.1762, 377.2095
877.6583, 373.3411
878.1404, 368.7587
878.6226, 364.7471
879.1047, 363.6149
879.5869, 364.4441
880.0690, 364.8413
880.5511, 364.6014
881.0332, 362.9405
881.5153, 357.2002
881.9974, 350.6664
882.4796, 351.0515
882.9617, 360.0346
883.4438, 366.1642
883.9259, 365.9321
884.4080, 363.2075
884.8901, 363.9838
885.3723, 367.0700
885.8544, 369.7241
886.3365, 371.0406
886.8186, 371.6435
887.3007, 370.9070
887.7828, 369.9796
888.2650, 370.6045
888.7471, 373.8013
889.2292, 376.1268
889.7113, 377.8381
890.1934, 377.3849
890.6755, 369.3883
891.1577, 357.5063
891.6398, 354.1731
892.1219, 363.1964
892.6040, 373.2559
893.0861, 376.5154
893.5682, 377.0018
894.0504, 378.8311
894.5325, 384.9501
895.0146, 385.4182
895.4967, 377.5007
895.9788, 368.9941
896.4609, 367.1244
896.9431, 370.7625
897.4252, 373.2015
897.9073, 374.0888
898.3894, 374.2669
898.8715, 373.4234
899.3536, 372.8505
899.8358, 373.7730
900.3179, 376.3981
900.8000, 379.3694
901.2821, 384.1208
901.7642, 386.7598
902.2463, 384.2460
902.7285, 377.7592
903.2106, 376.9602
903.6927, 381.6266
904.1748, 385.6953
904.6569, 384.3302
905.1390, 381.4283
905.6212, 380.7484
906.1033, 382.0021
906.5854, 383.5226
907.0675, 385.1530
907.5496, 386.7472
908.0317, 389.0104
908.5139, 390.9302
908.9960, 388.5967
909.4781, 381.9948
909.9602, 376.1992
910.4423, 373.3120
910.9244, 371.6317
911.4066, 368.2890
911.8887, 364.8369
912.3708, 364.1109
912.8529, 369.2680
913.3350, 374.5920
913.8171, 380.2965
914.2993, 384.7497
914.7814, 385.1917
915.2635, 381.3024
915.7456, 377.0938
916.2277, 372.6048
916.7098, 370.2010
917.1920, 375.2567
917.6741, 383.1705
918.1562, 386.3246
918.6383, 381.0233
919.1204, 378.6953
919.6025, 386.6884
920.0847, 395.6450
920.5668, 399.0811
921.0489, 396.0543
921.5310, 394.3475
922.0131, 394.1440
922.4952, 393.7843
922.9774, 390.8684
923.4595, 387.4626
923.9416, 387.1371
924.4237, 389.8822
924.9058, 392.2754
925.3879, 394.9945
925.8701, 394.7929
926.3522, 389.2585
926.8343, 379.3362
927.3164, 372.3807
927.7985, 368.2744
928.2806, 367.9824
928.7628, 373.8767
929.2449, 382.0135
929.7270, 387.7195
930.2091, 390.6216
930.6912, 389.8648
931.1733, 380.1727
931.6555, 372.4904
932.1376, 370.7088
932.6197, 372.7252
933.1018, 375.6515
933.5839, 379.6832
934.0660, 383.5555
934.5482, 387.3903
935.0303, 390.0103
935.5124, 389.8000
935.9945, 387.3623
936.4766, 382.6776
936.9587, 372.3499
937.4409, 369.1277
937.9230, 387.0966
938.4051, 406.1262
938.8872, 409.3883
939.3693, 392.9217
939.8514, 384.9442
940.3336, 386.5520
940.8157, 389.5095
941.2978, 385.5376
941.7799, 379.3303
942.2620, 378.7357
942.7441, 383.8158
943.2263, 387.1052
943.7084, 381.9051
944.1905, 378.4343
944.6726, 381.8300
945.1547, 390.5950
945.6368, 395.5842
946.1190, 396.7674
946.6011, 395.1089
947.0832, 389.3950
947.5653, 382.8850
948.0474, 379.7894
948.5295, 379.2829
949.0117, 379.4458
949.4938, 378.1773
949.9759, 379.6608
950.4580, 387.5684
950.9401, 396.3532
951.4222, 395.8730
951.9044, 385.8942
952.3865, 381.3074
952.8686, 385.2268
953.3507, 391.3658
953.8328, 392.9149
954.3149, 392.7465
954.7971, 395.3711
955.2792, 403.6475
955.7613, 406.3652
956.2434, 396.4219
956.7255, 387.1744
957.2076, 387.9883
957.6898, 398.4609
958.1719, 403.6969
958.6540, 403.7741
959.1361, 401.3114
959.6182, 395.6761
960.1003, 390.2408
960.5825, 387.8716
961.0646, 388.4700
961.5467, 390.9973
962.0288, 399.3259
962.5109, 403.0797
962.9930, 398.4984
963.4752, 388.9342
963.9573, 380.5844
964.4394, 374.1810
964.9215, 374.7188
965.4036, 387.6104
965.8857, 400.3470
966.3679, 402.1242
966.8500, 398.0236
967.3321, 394.6869
967.8142, 394.7669
968.2963, 392.0547
968.7784, 384.8143
969.2606, 378.2790
969.7427, 378.4651
970.2248, 383.8625
970.7069, 390.1863
971.1890, 397.0352
971.6711, 400.9582
972.1533, 396.1635
972.6354, 390.5492
973.1175, 390.6331
973.5996, 396.3669
974.0817, 397.0208
974.5638, 390.9397
975.0460, 385.5579
975.5281, 383.5851
976.0102, 384.5734
976.4923, 389.1827
976.9744, 396.0223
977.4565, 401.0072
977.9387, 400.8652
978.4208, 400.3098
978.9029, 401.0900
979.3850, 402.3310
979.8671, 403.2719
980.3492, 404.3370
980.8314, 401.2895
981.3135, 392.3528
981.7956, 385.1972
982.2777, 391.3132
982.7598, 403.1218
983.2419, 409.3912
983.7241, 407.8041
984.2062, 406.3624
984.6883, 409.6485
985.1704, 411.0852
985.6525, 405.7780
986.1346, 395.0926
986.6168, 396.3300
987.0989, 409.0072
987.5810, 417.9920
988.0631, 410.5427
988.5452, 398.8025
989.0273, 392.9830
989.5095, 392.0506
989.9916, 393.5211
990.4737, 400.6861
990.9558, 403.8239
991.4379, 399.9388
991.9200, 394.2003
992.4022, 396.2501
992.8843, 403.8139
993.3664, 406.3119
993.8485, 400.9526
994.3306, 395.7141
994.8127, 397.5099
995.2949, 400.8879
995.7770, 400.6252
996.2591, 395.7085
996.7412, 393.2578
997.2233, 394.0003
997.7054, 394.6212
998.1876, 391.9103
998.6697, 388.1582
999.1518, 389.0345
999.6339, 393.5693
1000.116, 397.8573
1000.598, 400.1410
1001.080, 401.9464
1001.562, 404.8099
1002.044, 407.1068
1002.527, 405.0215
1003.009, 398.1417
1003.491, 392.8801
1003.973, 390.3355
1004.455, 390.2716
1004.937, 395.1523
1005.419, 401.0938
1005.901, 402.7348
1006.384, 397.9645
1006.866, 393.8263
1007.348, 390.7057
1007.830, 389.0705
1008.312, 389.4353
1008.794, 391.5424
1009.276, 394.5834
1009.758, 398.3038
1010.240, 400.7213
1010.723, 399.6452
1011.205, 397.9205
1011.687, 397.6990
1012.169, 398.1551
1012.651, 396.5419
1013.133, 390.5838
1013.615, 389.7267
1014.097, 396.7060
1014.580, 405.6733
1015.062, 408.3465
1015.544, 407.1140
1016.026, 406.3732
1016.508, 406.9628
1016.990, 407.8943
1017.472, 410.9382
1017.954, 412.0128
1018.436, 407.7523
1018.919, 398.6062
1019.401, 394.5149
1019.883, 395.4919
1020.365, 396.4823
1020.847, 391.8290
1021.329, 388.0791
1021.811, 395.3808
1022.293, 408.4691
1022.776, 414.3178
1023.258, 404.3619
1023.740, 396.9266
1024.222, 393.5915
1024.704, 393.6801
1025.186, 399.2520
1025.668, 407.5656
1026.150, 407.2550
1026.632, 395.9886
1027.115, 386.8793
1027.597, 388.4036
1028.079, 394.4447
1028.561, 402.6857
1029.043, 412.6858
1029.525, 415.4337
1030.007, 409.8244
1030.489, 405.8277
1030.972, 409.1470
1031.454, 415.3315
1031.936, 419.6413
1032.418, 421.8655
1032.900, 421.5214
1033.382, 416.7002
1033.864, 411.4193
1034.346, 404.6937
1034.828, 399.5369
1035.311, 401.0641
1035.793, 407.8831
1036.275, 409.6497
1036.757, 405.5168
1037.239, 402.6288
1037.721, 408.6527
1038.203, 415.4980
1038.685, 416.8523
1039.167, 413.1602
1039.650, 411.3116
1040.132, 411.7115
1040.614, 412.4730
1041.096, 413.6525
1041.578, 413.6780
1042.060, 407.3868
1042.542, 398.7010
1043.024, 395.2628
1043.507, 402.9472
1043.989, 408.8788
1044.471, 410.1529
1044.953, 409.7211
1045.435, 409.3048
1045.917, 409.0084
1046.399, 411.8228
1046.881, 417.4616
1047.364, 419.4284
1047.846, 406.3581
1048.328, 394.5523
1048.810, 398.6996
1049.292, 414.4075
1049.774, 420.4846
1050.256, 413.9059
1050.738, 407.6367
1051.220, 403.9570
1051.703, 402.3812
1052.185, 401.0934
1052.667, 401.8883
1053.149, 410.0326
1053.631, 429.8716
1054.113, 440.9046
1054.595, 431.0385
1055.077, 418.5527
1055.559, 411.8248
1056.042, 410.3781
1056.524, 411.8626
1057.006, 415.8163
1057.488, 418.4624
1057.970, 415.8391
1058.452, 413.2285
1058.934, 415.1344
1059.416, 418.9515
1059.899, 419.5436
1060.381, 415.6652
1060.863, 412.9369
1061.345, 412.1310
1061.827, 411.1093
1062.309, 405.5934
1062.791, 399.4301
1063.273, 399.0248
1063.755, 404.7881
1064.238, 410.7786
1064.720, 417.5347
1065.202, 421.2975
1065.684, 419.8956
1066.166, 415.4539
1066.648, 413.6450
1067.130, 414.1688
1067.612, 415.8580
1068.094, 419.5885
1068.577, 421.3837
1069.059, 416.8298
1069.541, 410.5279
1070.023, 406.4887
1070.505, 404.4623
1070.987, 407.8164
1071.469, 417.3115
1071.951, 425.1642
1072.434, 424.8998
1072.916, 420.9066
1073.398, 417.2881
1073.880, 414.3154
1074.362, 412.5172
1074.844, 410.1388
1075.326, 412.9510
1075.808, 424.7807
1076.291, 436.5825
1076.773, 432.0981
1077.255, 417.6023
1077.737, 411.8139
1078.219, 417.7826
1078.701, 424.8087
1079.183, 431.7392
1079.665, 433.5361
1080.147, 425.1227
1080.630, 409.5839
1081.112, 407.0761
1081.594, 417.1025
1082.076, 424.1348
1082.558, 420.6907
1083.040, 415.2193
1083.522, 415.7065
1084.004, 418.5664
1084.486, 418.7002
1084.969, 413.5843
1085.451, 412.0772
1085.933, 415.3979
1086.415, 417.7887
1086.897, 411.4642
1087.379, 402.9667
1087.861, 406.4035
1088.343, 418.7943
1088.826, 426.6187
1089.308, 419.5697
1089.790, 414.5362
1090.272, 414.2926
1090.754, 417.7069
1091.236, 425.9218
1091.718, 436.7569
1092.200, 438.5790
1092.682, 429.0053
1093.165, 419.9020
1093.647, 419.6996
1094.129, 421.4573
1094.611, 420.2814
1095.093, 416.8508
1095.575, 417.2079
1096.057, 421.5398
1096.539, 424.8756
1097.022, 424.6358
1097.504, 424.0198
1097.986, 427.2148
1098.468, 431.6965
1098.950, 433.8026
1099.432, 431.7625
1099.914, 430.7220
1100.396, 430.9428
1100.879, 431.3691
1101.361, 430.8412
1101.843, 430.1830
1102.325, 430.8822
1102.807, 432.8732
1103.289, 435.8072
1103.771, 443.1915
1104.253, 446.2672
1104.735, 442.3848
1105.218, 435.4478
1105.700, 429.9200
1106.182, 425.9869
1106.664, 425.4403
1107.146, 428.5164
1107.628, 431.5421
1108.110, 432.4218
1108.592, 432.4601
1109.074, 432.0376
1109.557, 431.4099
1110.039, 431.4138
1110.521, 432.0471
1111.003, 434.0296
1111.485, 438.4152
1111.967, 441.5744
1112.449, 438.5349
1112.931, 433.2213
1113.414, 429.9607
1113.896, 429.6705
1114.378, 428.9461
1114.860, 427.5900
1115.342, 426.7011
1115.824, 427.6403
1116.306, 428.7922
1116.788, 427.5351
1117.271, 424.4850
1117.753, 420.9819
1118.235, 413.3145
1118.717, 412.1821
1119.199, 420.4835
1119.681, 430.9325
1120.163, 438.2478
1120.645, 441.6285
1121.127, 436.0464
1121.609, 422.5358
1122.092, 412.2234
1122.574, 412.2106
1123.056, 414.8791
1123.538, 419.0426
1124.020, 423.0206
1124.502, 422.5344
1124.984, 418.2692
1125.466, 416.0647
1125.949, 417.0750
1126.431, 419.4987
1126.913, 423.8832
1127.395, 427.6726
1127.877, 428.2327
1128.359, 426.1779
1128.841, 426.3906
1129.323, 428.9416
1129.806, 433.3273
1130.288, 441.5910
1130.770, 446.8279
1131.252, 437.3148
1131.734, 422.7386
1132.216, 416.4016
1132.698, 422.3856
1133.180, 426.9898
1133.662, 430.1741
1134.145, 432.0189
1134.627, 432.4390
1135.109, 431.6642
1135.591, 429.5325
1136.073, 426.5225
1136.555, 423.9044
1137.037, 420.9006
1137.519, 420.4258
1138.001, 423.6434
1138.484, 427.2840
1138.966, 427.3673
1139.448, 425.3774
1139.930, 424.7209
1140.412, 425.5486
1140.894, 427.2256
1141.376, 431.3570
1141.858, 433.9749
1142.341, 434.5477
1142.823, 432.6811
1143.305, 425.0585
1143.787, 413.9223
1144.269, 409.8627
1144.751, 415.0996
1145.233, 422.2771
1145.715, 431.2086
1146.198, 436.6545
1146.680, 434.5764
1147.162, 427.1067
1147.644, 423.7473
1148.126, 424.4297
1148.608, 428.9001
1149.090, 439.3029
1149.572, 447.5781
1150.054, 444.7586
1150.536, 438.9623
1151.019, 439.0309
1151.501, 446.0170
1151.983, 444.4839
1152.465, 433.9803
1152.947, 426.0715
1153.429, 428.9592
1153.911, 435.0179
1154.393, 437.6238
1154.876, 438.1617
1155.358, 439.3946
1155.840, 443.8905
1156.322, 440.6260
1156.804, 427.6133
1157.286, 416.6587
1157.768, 419.0987
1158.250, 427.7866
1158.733, 435.5470
1159.215, 441.8118
1159.697, 445.7334
1160.179, 447.3889
1160.661, 446.1817
1161.143, 441.2932
1161.625, 435.6239
1162.107, 431.4410
1162.589, 429.2007
1163.072, 430.4297
1163.554, 434.9821
1164.036, 439.2312
1164.518, 443.1342
1165.000, 445.0390
1165.482, 443.9833
1165.964, 441.6042
1166.446, 441.3096
1166.928, 441.9114
1167.411, 440.3771
1167.893, 435.7534
1168.375, 431.8834
1168.857, 428.8153
1169.339, 428.5208
1169.821, 433.1521
1170.303, 440.1427
1170.785, 440.2909
1171.268, 436.2652
1171.750, 438.0092
1172.232, 453.2469
1172.714, 462.4589
1173.196, 450.3194
1173.678, 436.8457
1174.160, 434.2916
1174.642, 440.9762
1175.125, 448.1283
1175.607, 455.0992
1176.089, 457.8975
1176.571, 450.4824
1177.053, 444.0685
1177.535, 446.2729
1178.017, 449.7091
1178.499, 447.0810
1178.981, 438.4568
1179.464, 430.6618
1179.946, 423.9912
1180.428, 421.6810
1180.910, 429.9427
1181.392, 438.5153
1181.874, 440.7742
1182.356, 440.5305
1182.838, 445.0295
1183.320, 454.6996
1183.803, 454.8286
1184.285, 443.9312
1184.767, 435.4771
1185.249, 444.2572
1185.731, 454.4563
1186.213, 452.9061
1186.695, 444.3855
1187.177, 443.6526
1187.660, 451.3844
1188.142, 456.4255
1188.624, 456.7977
1189.106, 455.4274
1189.588, 455.6071
1190.070, 454.5198
1190.552, 447.2469
1191.034, 435.6237
1191.516, 433.2261
1191.999, 441.0274
1192.481, 449.7682
1192.963, 458.2979
1193.445, 462.8092
1193.927, 455.5575
1194.409, 445.0356
1194.891, 439.8488
1195.373, 440.6780
1195.855, 442.8262
1196.338, 446.5904
1196.820, 449.0494
1197.302, 448.4228
1197.784, 447.3263
1198.266, 449.7040
1198.748, 452.7356
1199.230, 452.3251
1199.712, 447.2771
1200.195, 444.7518
1200.677, 445.2373
1201.159, 444.5904
1201.641, 437.9888
1202.123, 432.4262
1202.605, 438.6066
1203.087, 450.3942
1203.569, 457.7726
1204.052, 458.7672
1204.534, 457.4566
1205.016, 453.0262
1205.498, 451.1162
1205.980, 458.8866
1206.462, 468.6288
1206.944, 470.8613
1207.426, 468.2708
1207.908, 467.2488
1208.391, 470.4027
1208.873, 468.6844
1209.355, 460.6121
1209.837, 453.5475
1210.319, 456.0593
1210.801, 461.2303
1211.283, 459.5493
1211.765, 453.5916
1212.247, 453.9158
1212.730, 464.5024
1213.212, 470.4705
1213.694, 469.8067
1214.176, 466.6112
1214.658, 464.1031
1215.140, 461.7978
1215.622, 458.4666
1216.104, 454.6039
1216.587, 453.5161
1217.069, 456.3787
1217.551, 458.0351
1218.033, 457.2577
1218.515, 456.8027
1218.997, 462.3190
1219.479, 468.1030
1219.961, 466.6459
1220.443, 457.9188
1220.926, 450.3323
1221.408, 442.5603
1221.890, 444.4976
1222.372, 461.4396
1222.854, 478.2941
1223.336, 473.6504
1223.818, 460.9164
1224.300, 455.5876
1224.782, 459.8268
1225.265, 461.7620
1225.747, 460.5447
1226.229, 461.1360
1226.711, 465.9120
1227.193, 470.7366
1227.675, 469.1611
1228.157, 465.6172
1228.639, 465.9179
1229.122, 471.1923
1229.604, 474.0037
1230.086, 474.3052
1230.568, 472.4279
1231.050, 467.8848
1231.532, 462.5150
1232.014, 457.7082
1232.496, 453.7349
1232.979, 450.5056
1233.461, 447.7005
1233.943, 449.1436
1234.425, 455.3568
1234.907, 460.3221
1235.389, 460.0408
1235.871, 459.1995
1236.353, 464.4341
1236.835, 470.8912
1237.318, 471.2950
1237.800, 464.3331
1238.282, 460.3141
1238.764, 459.2274
1239.246, 462.1190
1239.728, 473.8540
1240.210, 484.3413
1240.692, 483.7159
1241.175, 477.1406
1241.657, 471.6346
1242.139, 467.5056
1242.621, 463.3994
1243.103, 459.2643
1243.585, 456.6202
1244.067, 456.2969
1244.549, 457.7889
1245.031, 462.3957
1245.514, 467.7154
1245.996, 470.4877
1246.478, 470.5728
1246.960, 469.5467
1247.442, 467.5338
1247.924, 466.4634
1248.406, 469.0610
1248.888, 471.3217
1249.370, 470.1544
1249.853, 467.8445
1250.335, 467.8556
1250.817, 470.0446
1251.299, 468.5268
1251.781, 463.4893
1252.263, 461.2772
1252.745, 470.5614
1253.227, 477.8310
1253.710, 473.5726
1254.192, 466.8860
1254.674, 471.9405
1255.156, 485.9980
1255.638, 487.4505
1256.120, 476.0942
1256.602, 465.5150
1257.084, 461.3911
1257.567, 462.1824
1258.049, 469.9719
1258.531, 478.5507
1259.013, 476.6140
1259.495, 468.1889
1259.977, 470.3148
1260.459, 482.9962
1260.941, 491.3274
1261.423, 484.9108
1261.906, 477.6199
1262.388, 471.3761
1262.870, 467.6646
1263.352, 470.5127
1263.834, 477.0057
1264.316, 479.5110
1264.798, 477.8477
1265.280, 479.2169
1265.762, 492.0703
1266.245, 496.9924
1266.727, 488.4263
1267.209, 475.6468
1267.691, 470.5112
1268.173, 470.2522
1268.655, 469.9361
1269.137, 469.3121
1269.619, 473.2020
1270.102, 485.4790
1270.584, 492.7927
1271.066, 492.3066
1271.548, 486.1208
1272.030, 470.3643
1272.512, 454.8360
1272.994, 453.6609
1273.476, 466.9079
1273.958, 474.6366
1274.441, 475.3439
1274.923, 474.5117
1275.405, 472.7504
1275.887, 472.4199
1276.369, 478.5053
1276.851, 485.2416
1277.333, 486.0999
1277.815, 482.0436
1278.297, 481.3972
1278.780, 484.4529
1279.262, 484.1732
1279.744, 478.3597
1280.226, 472.7885
1280.708, 472.6162
1281.190, 474.0229
1281.672, 474.8765
1282.154, 474.8615
1282.637, 471.4073
1283.119, 465.3124
1283.601, 465.1136
1284.083, 473.4648
1284.565, 481.3701
1285.047, 485.2817
1285.529, 484.5239
1286.011, 476.0639
1286.494, 465.3360
1286.976, 471.7682
1287.458, 489.2687
1287.940, 495.8060
1288.422, 485.3366
1288.904, 477.0934
1289.386, 481.6113
1289.868, 484.7358
1290.350, 480.8936
1290.833, 474.5227
1291.315, 475.2776
1291.797, 479.9222
1292.279, 481.4066
1292.761, 477.7198
1293.243, 478.2745
1293.725, 486.6249
1294.207, 491.8373
1294.689, 489.0944
1295.172, 484.5679
1295.654, 490.0018
1296.136, 497.6774
1296.618, 494.9706
1297.100, 478.7975
1297.582, 475.8540
1298.064, 488.7050
1298.546, 498.2206
1299.029, 498.0732
1299.511, 493.7499
1299.993, 488.1320
1300.475, 483.2993
1300.957, 481.8456
1301.439, 483.2818
1301.921, 484.9825
1302.403, 486.9244
1302.885, 488.7122
1303.368, 490.8989
1303.850, 490.0536
1304.332, 475.4521
1304.814, 466.2820
1305.296, 477.3433
1305.778, 500.6412
1306.260, 508.2408
1306.742, 502.8564
1307.224, 494.1573
1307.707, 483.0963
1308.189, 477.0040
1308.671, 481.7525
1309.153, 489.1089
1309.635, 498.2510
1310.117, 505.5786
1310.599, 499.4277
1311.081, 486.7631
1311.564, 483.5083
1312.046, 494.8153
1312.528, 495.9232
1313.010, 479.3873
1313.492, 468.9129
1313.974, 473.6385
1314.456, 485.2296
1314.938, 496.4237
##END=



