##NAMES=Krupkaite
##RRUFFID=R100098
##IDEAL CHEMISTRY=Cu^1+^Pb^2+^Bi^3+^_3_S^2-^_6_
##LOCALITY=Julcani District, Peru
##OWNER=RRUFF
##SOURCE=Peter Megaw
##DESCRIPTION=Bladed steel-gray metallic crystals with blue irridescence
##STATUS=The identification of this mineral has been confirmed only by single crystal X-ray diffraction.
##URL=rruff.info/R100098
91.53320, 12.37019
92.01532, 13.38161
92.49744, 13.69372
92.97955, 13.01910
93.46167, 11.82341
93.94379, 11.12923
94.42590, 11.24183
94.90802, 11.65873
95.39014, 11.79150
95.87225, 11.56905
96.35437, 11.38039
96.83649, 11.49330
97.31860, 11.69389
97.80072, 11.74084
98.28284, 11.46605
98.76495, 10.94172
99.24707, 10.57437
99.72919, 10.54381
100.2113, 10.46929
100.6934, 10.18749
101.1755, 9.780114
101.6577, 9.434272
102.1398, 9.332638
102.6219, 9.558389
103.1040, 9.580111
103.5861, 9.250506
104.0682, 8.892941
104.5504, 8.688813
105.0325, 8.662474
105.5146, 8.705592
105.9967, 8.661327
106.4788, 8.454091
106.9609, 8.360535
107.4431, 8.510553
107.9252, 8.752175
108.4073, 8.842285
108.8894, 8.654169
109.3715, 8.399894
109.8536, 8.505657
110.3358, 9.063564
110.8179, 9.523256
111.3000, 9.461936
111.7821, 8.943759
112.2642, 8.615278
112.7463, 8.971807
113.2285, 9.483790
113.7106, 9.580318
114.1927, 9.082447
114.6748, 8.388715
115.1569, 8.115457
115.6390, 8.513663
116.1212, 8.673251
116.6033, 7.977763
117.0854, 7.070155
117.5675, 6.641137
118.0496, 7.085684
118.5317, 8.178791
119.0139, 8.836444
119.4960, 8.648652
119.9781, 8.407522
120.4602, 8.190185
120.9423, 8.023976
121.4244, 7.940149
121.9066, 7.977449
122.3887, 8.154806
122.8708, 8.172955
123.3529, 7.831326
123.8350, 7.544025
124.3171, 7.539673
124.7993, 7.809313
125.2814, 8.166965
125.7635, 8.448025
126.2456, 8.641629
126.7277, 8.722939
127.2098, 8.734680
127.6920, 8.614351
128.1741, 8.173509
128.6562, 7.301355
129.1383, 6.474664
129.6204, 6.466436
130.1025, 7.177224
130.5847, 7.768909
131.0668, 7.729657
131.5489, 7.265279
132.0310, 7.136091
132.5131, 7.766816
132.9952, 8.488305
133.4774, 8.706658
133.9595, 8.413774
134.4416, 7.970258
134.9237, 7.680117
135.4058, 7.562724
135.8879, 7.456720
136.3701, 7.199229
136.8522, 7.030724
137.3343, 7.170016
137.8164, 7.659986
138.2985, 8.263666
138.7806, 8.568439
139.2628, 8.383106
139.7449, 8.225948
140.2270, 8.207010
140.7091, 8.208566
141.1912, 8.095700
141.6733, 7.808803
142.1555, 7.426349
142.6376, 7.223368
143.1197, 7.296763
143.6018, 7.458625
144.0839, 7.814208
144.5660, 8.234057
145.0482, 8.524796
145.5303, 8.571981
146.0124, 8.393475
146.4945, 8.124516
146.9766, 7.520344
147.4587, 7.080543
147.9409, 7.157511
148.4230, 7.646833
148.9051, 8.053375
149.3872, 7.988577
149.8693, 7.531487
150.3514, 7.278913
150.8336, 7.308478
151.3157, 7.503629
151.7978, 7.835090
152.2799, 8.334724
152.7620, 8.745490
153.2441, 8.804379
153.7263, 8.641631
154.2084, 8.445215
154.6905, 8.257178
155.1726, 8.080103
155.6547, 7.913575
156.1368, 7.743628
156.6190, 7.616079
157.1011, 7.504070
157.5832, 7.441337
158.0653, 7.504426
158.5474, 7.814794
159.0295, 8.342835
159.5117, 8.693974
159.9938, 8.803660
160.4759, 8.772706
160.9580, 8.523513
161.4401, 8.146071
161.9222, 7.847608
162.4044, 7.852244
162.8865, 8.243073
163.3686, 8.445724
163.8507, 8.344185
164.3328, 8.172197
164.8149, 7.991850
165.2971, 7.826803
165.7792, 7.698967
166.2613, 7.636041
166.7434, 7.665178
167.2255, 7.688373
167.7076, 7.624440
168.1898, 7.607945
168.6719, 7.802318
169.1540, 8.219397
169.6361, 8.647941
170.1182, 8.780985
170.6003, 8.478642
171.0825, 8.205067
171.5646, 7.938919
172.0467, 7.726936
172.5288, 7.643422
173.0109, 7.719220
173.4930, 7.868015
173.9752, 7.949282
174.4573, 7.955419
174.9394, 7.973927
175.4215, 7.983301
175.9036, 8.023815
176.3857, 8.225581
176.8679, 8.723618
177.3500, 9.242374
177.8321, 9.423178
178.3142, 9.259842
178.7963, 8.972980
179.2784, 8.597275
179.7606, 8.158484
180.2427, 7.905825
180.7248, 8.036758
181.2069, 8.274361
181.6890, 8.366538
182.1711, 8.291245
182.6533, 8.177008
183.1354, 8.154329
183.6175, 8.237946
184.0996, 8.296358
184.5817, 8.312563
185.0638, 8.284227
185.5460, 8.154232
186.0281, 7.918035
186.5102, 7.716118
186.9923, 7.798401
187.4744, 8.348829
187.9565, 8.687297
188.4387, 8.569856
188.9208, 8.336973
189.4029, 8.251510
189.8850, 8.387972
190.3671, 8.601132
190.8492, 8.598951
191.3314, 8.160802
191.8135, 7.862530
192.2956, 7.807966
192.7777, 7.856474
193.2598, 7.909531
193.7419, 7.925010
194.2241, 7.888305
194.7062, 7.763268
195.1883, 7.210458
195.6704, 6.980064
196.1525, 7.402931
196.6346, 8.055417
197.1168, 8.399693
197.5989, 8.191428
198.0810, 7.660156
198.5631, 7.478400
199.0452, 8.028929
199.5273, 8.400077
200.0095, 8.293288
200.4916, 7.935176
200.9737, 7.717842
201.4558, 7.840597
201.9379, 8.157380
202.4200, 8.221410
202.9022, 7.830508
203.3843, 7.583557
203.8664, 7.846865
204.3485, 8.439664
204.8306, 8.849084
205.3127, 8.815246
205.7949, 8.504140
206.2770, 8.295690
206.7591, 8.194730
207.2412, 8.166222
207.7233, 8.202000
208.2054, 8.298323
208.6876, 8.433615
209.1697, 8.611080
209.6518, 8.818411
210.1339, 9.079194
210.6160, 9.466080
211.0981, 9.695511
211.5803, 9.366776
212.0624, 8.477977
212.5445, 7.870234
213.0266, 8.060214
213.5087, 8.552576
213.9908, 8.918871
214.4730, 9.098370
214.9551, 9.143329
215.4372, 9.067778
215.9193, 8.846022
216.4014, 8.662395
216.8836, 8.545137
217.3657, 8.501606
217.8478, 8.592148
218.3299, 8.834786
218.8120, 9.074995
219.2941, 9.066609
219.7763, 8.711132
220.2584, 8.431973
220.7405, 8.333850
221.2226, 8.313842
221.7047, 8.315949
222.1868, 8.323095
222.6690, 8.335256
223.1511, 8.345701
223.6332, 8.329928
224.1153, 8.373929
224.5974, 8.603957
225.0795, 8.814182
225.5617, 8.815067
226.0438, 8.566574
226.5259, 8.222288
227.0080, 8.038059
227.4901, 8.026476
227.9722, 8.184899
228.4544, 8.872840
228.9365, 9.491529
229.4186, 9.386178
229.9007, 8.441865
230.3828, 7.263233
230.8649, 6.944606
231.3471, 8.370030
231.8292, 9.263469
232.3113, 9.388120
232.7934, 9.172254
233.2755, 8.924712
233.7576, 8.742979
234.2398, 8.576325
234.7219, 8.330501
235.2040, 7.800248
235.6861, 7.592076
236.1682, 8.005326
236.6503, 8.571301
237.1325, 8.839299
237.6146, 8.695911
238.0967, 8.381984
238.5788, 8.246588
239.0609, 8.351669
239.5430, 8.526455
240.0252, 8.884776
240.5073, 9.252986
240.9894, 9.443656
241.4715, 9.413493
241.9536, 9.271077
242.4357, 9.155254
242.9179, 9.080899
243.4000, 8.965048
243.8821, 8.656422
244.3642, 8.369279
244.8463, 8.445567
245.3284, 8.974827
245.8106, 9.489603
246.2927, 9.312033
246.7748, 8.403024
247.2569, 7.837443
247.7390, 8.053644
248.2211, 8.572882
248.7033, 8.786005
249.1854, 8.572974
249.6675, 8.295417
250.1496, 8.359653
250.6317, 8.710096
251.1138, 8.976892
251.5960, 9.061027
252.0781, 9.031527
252.5602, 8.962259
253.0423, 8.854194
253.5244, 8.740111
254.0065, 8.656146
254.4887, 8.590776
254.9708, 8.510389
255.4529, 8.359160
255.9350, 8.207560
256.4171, 8.179623
256.8992, 8.306592
257.3813, 8.429740
257.8635, 8.412886
258.3456, 8.315920
258.8277, 8.238794
259.3098, 8.318157
259.7919, 8.368556
260.2740, 8.021749
260.7562, 7.153692
261.2383, 6.425335
261.7204, 6.321329
262.2025, 6.559456
262.6846, 6.846922
263.1667, 7.148648
263.6489, 7.405587
264.1310, 7.519450
264.6131, 7.464030
265.0952, 7.379130
265.5773, 7.315850
266.0594, 7.258815
266.5416, 7.188972
267.0237, 7.094764
267.5058, 7.003744
267.9879, 6.958640
268.4700, 6.970316
268.9521, 6.978508
269.4343, 7.003973
269.9164, 6.995285
270.3985, 6.866235
270.8806, 6.581914
271.3627, 6.316659
271.8448, 6.351011
272.3270, 6.773324
272.8091, 7.033617
273.2912, 6.804759
273.7733, 6.492747
274.2554, 6.356950
274.7375, 6.438143
275.2197, 6.575034
275.7018, 6.580646
276.1839, 6.432004
276.6660, 6.301712
277.1481, 6.216947
277.6302, 6.155337
278.1124, 6.043149
278.5945, 5.907213
279.0766, 5.916295
279.5587, 6.382430
280.0408, 7.407305
280.5229, 7.978669
281.0051, 7.657684
281.4872, 7.181050
281.9693, 6.750549
282.4514, 6.414474
282.9335, 6.211383
283.4156, 6.247496
283.8978, 6.532842
284.3799, 6.578576
284.8620, 6.119691
285.3441, 5.672658
285.8262, 5.334856
286.3083, 5.145169
286.7905, 5.179001
287.2726, 5.570947
287.7547, 6.253013
288.2368, 6.541049
288.7189, 6.022974
289.2010, 5.579698
289.6832, 5.476398
290.1653, 5.594783
290.6474, 5.768610
291.1295, 5.925023
291.6116, 6.028964
292.0938, 5.911125
292.5759, 5.306022
293.0580, 4.861455
293.5401, 4.757273
294.0222, 4.843122
294.5043, 4.964061
294.9865, 5.052489
295.4686, 5.119699
295.9507, 5.200796
296.4328, 5.350241
296.9149, 5.408388
297.3970, 5.275217
297.8792, 5.102060
298.3613, 5.011199
298.8434, 5.041315
299.3255, 5.161315
299.8076, 5.339528
300.2897, 5.647532
300.7719, 5.845906
301.2540, 5.967692
301.7361, 5.966398
302.2182, 5.715327
302.7003, 5.245468
303.1824, 4.799035
303.6646, 4.699989
304.1467, 5.079190
304.6288, 5.334918
305.1109, 5.431009
305.5930, 5.446078
306.0751, 5.387319
306.5573, 5.272324
307.0394, 5.131463
307.5215, 4.980170
308.0036, 4.811414
308.4857, 4.727791
308.9678, 4.654372
309.4500, 4.747648
309.9321, 5.255535
310.4142, 5.966483
310.8963, 6.459653
311.3784, 6.430011
311.8605, 5.947518
312.3427, 5.566005
312.8248, 5.332582
313.3069, 5.154390
313.7890, 4.995113
314.2711, 4.884317
314.7532, 4.889488
315.2354, 5.051274
315.7175, 5.285270
316.1996, 5.336794
316.6817, 5.048584
317.1638, 4.819933
317.6459, 4.665582
318.1281, 4.597674
318.6102, 4.647970
319.0923, 4.820477
319.5744, 5.057420
320.0565, 5.270240
320.5386, 5.466218
321.0208, 5.616434
321.5029, 5.898008
321.9850, 6.011281
322.4671, 5.580887
322.9492, 4.673584
323.4313, 3.838268
323.9135, 3.737933
324.3956, 4.564894
324.8777, 5.156672
325.3598, 5.453019
325.8419, 5.571070
326.3240, 5.473572
326.8062, 5.222133
327.2883, 4.950163
327.7704, 4.761062
328.2525, 4.649159
328.7346, 4.499976
329.2167, 4.138985
329.6989, 3.949528
330.1810, 4.136297
330.6631, 4.524735
331.1452, 4.862350
331.6273, 5.014132
332.1094, 5.026320
332.5916, 5.051526
333.0737, 5.175596
333.5558, 5.153020
334.0379, 4.650748
334.5200, 4.153306
335.0021, 4.222269
335.4843, 5.021896
335.9664, 6.070352
336.4485, 6.582476
336.9306, 6.404692
337.4127, 6.141265
337.8948, 5.735648
338.3770, 5.351635
338.8591, 5.068598
339.3412, 4.901256
339.8233, 4.841385
340.3055, 4.923053
340.7876, 5.169764
341.2697, 5.319097
341.7518, 5.387731
342.2339, 5.325186
342.7160, 4.967502
343.1982, 4.455232
343.6803, 4.110464
344.1624, 4.187786
344.6445, 4.601741
345.1266, 4.940148
345.6087, 5.247442
346.0909, 5.388397
346.5730, 5.206788
347.0551, 4.901387
347.5372, 4.744205
348.0193, 4.869171
348.5014, 5.104038
348.9836, 5.086215
349.4657, 4.687794
349.9478, 4.468811
350.4299, 4.835585
350.9120, 5.277736
351.3941, 5.367844
351.8763, 5.034049
352.3584, 4.645850
352.8405, 4.605384
353.3226, 4.922785
353.8047, 5.225993
354.2868, 5.579068
354.7690, 5.776887
355.2511, 5.634545
355.7332, 5.212914
356.2153, 4.775085
356.6974, 4.403142
357.1795, 4.137150
357.6617, 4.196148
358.1438, 4.767158
358.6259, 5.276896
359.1080, 5.303726
359.5901, 5.076732
360.0722, 4.973904
360.5544, 5.224365
361.0365, 5.546678
361.5186, 5.467170
362.0007, 4.919058
362.4828, 4.502841
362.9649, 4.564245
363.4471, 4.832355
363.9292, 5.008806
364.4113, 5.057950
364.8934, 5.042434
365.3755, 4.983538
365.8576, 4.891604
366.3398, 4.853206
366.8219, 4.982178
367.3040, 5.021283
367.7861, 4.563343
368.2682, 3.668931
368.7503, 3.034440
369.2325, 3.051019
369.7146, 3.468798
370.1967, 3.924771
370.6788, 4.414633
371.1609, 4.772998
371.6430, 4.787745
372.1252, 4.556307
372.6073, 4.407753
373.0894, 4.342150
373.5715, 4.407176
374.0536, 4.726309
374.5357, 5.251350
375.0179, 5.732122
375.5000, 6.119060
375.9821, 6.303572
376.4642, 5.972891
376.9463, 4.785883
377.4284, 3.932193
377.9106, 4.077428
378.3927, 4.795125
378.8748, 5.409259
379.3569, 5.754989
379.8390, 5.853055
380.3211, 5.654056
380.8033, 5.074845
381.2854, 4.699644
381.7675, 4.581896
382.2496, 4.674677
382.7317, 5.136973
383.2138, 5.877649
383.6960, 6.333260
384.1781, 5.994111
384.6602, 4.944842
385.1423, 4.446958
385.6244, 4.892718
386.1065, 5.338319
386.5887, 5.466410
387.0708, 5.387507
387.5529, 5.315275
388.0350, 5.345008
388.5171, 5.400075
388.9992, 5.307785
389.4814, 4.884804
389.9635, 4.594889
390.4456, 4.501162
390.9277, 4.495834
391.4098, 4.497951
391.8919, 4.493657
392.3741, 4.509834
392.8562, 4.572067
393.3383, 4.679824
393.8204, 4.844168
394.3025, 5.276335
394.7846, 5.544554
395.2668, 5.269275
395.7489, 4.746253
396.2310, 4.585633
396.7131, 5.186165
397.1952, 6.241141
397.6773, 6.660073
398.1595, 6.000711
398.6416, 5.409584
399.1237, 4.970050
399.6058, 4.690277
400.0879, 4.653717
400.5700, 4.848811
401.0522, 5.051616
401.5343, 4.916751
402.0164, 4.341380
402.4985, 4.049685
402.9806, 4.287385
403.4627, 4.620846
403.9449, 4.918627
404.4270, 5.163709
404.9091, 5.352216
405.3912, 5.481051
405.8733, 5.551959
406.3554, 5.565662
406.8376, 5.511604
407.3197, 5.425451
407.8018, 5.203456
408.2839, 5.010452
408.7660, 5.084696
409.2481, 5.534124
409.7303, 5.973506
410.2124, 5.957247
410.6945, 5.517001
411.1766, 5.140051
411.6587, 4.892746
412.1408, 4.793230
412.6230, 4.972623
413.1051, 5.372108
413.5872, 5.526114
414.0693, 4.947917
414.5514, 4.111994
415.0335, 3.824664
415.5157, 4.167588
415.9978, 4.649421
416.4799, 5.010414
416.9620, 5.261733
417.4441, 5.466168
417.9262, 5.646135
418.4084, 5.752508
418.8905, 5.717384
419.3726, 5.585383
419.8547, 5.464797
420.3368, 5.387866
420.8189, 5.352625
421.3011, 5.370423
421.7832, 5.463488
422.2653, 5.512141
422.7474, 5.544329
423.2295, 5.499549
423.7116, 5.194991
424.1938, 4.690686
424.6759, 4.401666
425.1580, 4.703514
425.6401, 5.549345
426.1222, 6.069204
426.6043, 6.097067
427.0865, 6.047214
427.5686, 5.901541
428.0507, 5.777045
428.5328, 5.877856
429.0149, 6.275466
429.4970, 6.767985
429.9792, 7.005010
430.4613, 6.914541
430.9434, 6.705543
431.4255, 6.160235
431.9076, 5.704760
432.3897, 5.716566
432.8719, 6.066909
433.3540, 6.260933
433.8361, 5.836913
434.3182, 4.934106
434.8003, 4.601023
435.2824, 5.304235
435.7646, 5.877438
436.2467, 6.026878
436.7288, 5.918924
437.2109, 5.645884
437.6930, 5.232239
438.1751, 4.909951
438.6573, 5.075848
439.1394, 5.781971
439.6215, 6.218049
440.1036, 5.974853
440.5857, 5.777159
441.0678, 6.280991
441.5500, 7.275957
442.0321, 7.953093
442.5142, 7.699390
442.9963, 6.953535
443.4784, 6.498327
443.9605, 6.358379
444.4427, 6.318328
444.9248, 6.280353
445.4069, 6.281161
445.8890, 6.375977
446.3711, 6.580034
446.8532, 6.842499
447.3354, 7.234788
447.8175, 7.653613
448.2996, 7.871461
448.7817, 7.833457
449.2638, 7.610784
449.7459, 7.191126
450.2281, 6.558207
450.7102, 6.235456
451.1923, 6.550292
451.6744, 6.906631
452.1565, 6.854428
452.6386, 6.516989
453.1208, 6.332965
453.6029, 6.549347
454.0850, 7.001328
454.5671, 7.231524
455.0492, 7.028395
455.5313, 6.880094
456.0135, 6.784539
456.4956, 6.750834
456.9777, 6.803547
457.4598, 6.934474
457.9419, 7.090140
458.4240, 7.210235
458.9062, 7.292573
459.3883, 7.495988
459.8704, 8.142837
460.3525, 8.539132
460.8346, 8.443099
461.3167, 8.046662
461.7989, 7.504222
462.2810, 6.865471
462.7631, 6.367728
463.2452, 6.528518
463.7273, 7.534348
464.2094, 8.071886
464.6916, 7.496721
465.1737, 6.858911
465.6558, 6.786382
466.1379, 7.187991
466.6200, 7.642959
467.1021, 8.011438
467.5843, 8.245578
468.0664, 8.192343
468.5485, 7.810424
469.0306, 7.433301
469.5127, 7.171624
469.9948, 7.030818
470.4770, 7.012787
470.9591, 7.134130
471.4412, 7.316465
471.9233, 7.594569
472.4054, 7.889715
472.8875, 8.019378
473.3697, 7.941658
473.8518, 7.860034
474.3339, 7.994222
474.8160, 8.336053
475.2981, 8.465548
475.7802, 8.198214
476.2624, 7.918718
476.7445, 7.756727
477.2266, 7.710996
477.7087, 7.796858
478.1908, 8.023083
478.6729, 8.297814
479.1551, 8.450749
479.6372, 8.409039
480.1193, 8.413710
480.6014, 8.463931
481.0835, 8.554224
481.5656, 8.751696
482.0478, 8.990870
482.5299, 9.110226
483.0120, 8.993822
483.4941, 8.697227
483.9762, 8.408823
484.4583, 8.039157
484.9405, 7.870750
485.4226, 8.156343
485.9047, 8.512740
486.3868, 8.609128
486.8689, 8.419240
487.3510, 8.209978
487.8332, 8.235528
488.3153, 8.441448
488.7974, 8.545307
489.2795, 8.487823
489.7616, 8.450026
490.2437, 8.623205
490.7259, 8.868891
491.2080, 8.964862
491.6901, 8.826727
492.1722, 8.621105
492.6543, 8.457984
493.1364, 8.322513
493.6186, 8.156735
494.1007, 7.930949
494.5828, 7.730288
495.0649, 7.652847
495.5470, 7.710282
496.0291, 7.812098
496.5113, 8.070823
496.9934, 8.266488
497.4755, 8.160718
497.9576, 7.889753
498.4397, 7.837863
498.9218, 8.205031
499.4040, 8.740330
499.8861, 8.859366
500.3682, 8.181977
500.8503, 7.783223
501.3324, 7.779052
501.8145, 7.917726
502.2967, 8.109620
502.7788, 8.310012
503.2609, 8.475773
503.7430, 8.595474
504.2251, 8.636745
504.7072, 8.416016
505.1894, 7.704619
505.6715, 7.258263
506.1536, 7.498576
506.6357, 7.921655
507.1178, 8.147827
507.5999, 8.130250
508.0821, 8.054804
508.5642, 8.029662
509.0463, 8.052901
509.5284, 8.163889
510.0105, 8.412119
510.4926, 8.527631
510.9748, 8.218571
511.4569, 7.689185
511.9390, 7.437159
512.4211, 7.646373
512.9032, 7.846926
513.3853, 7.790591
513.8674, 7.577225
514.3495, 7.347404
514.8317, 7.131537
515.3138, 6.988393
515.7959, 6.993004
516.2780, 7.159616
516.7601, 7.261144
517.2422, 7.300103
517.7244, 7.283276
518.2065, 7.080213
518.6886, 6.866791
519.1707, 6.989002
519.6528, 7.544177
520.1349, 8.138124
520.6171, 8.078139
521.0992, 7.097746
521.5813, 6.552558
522.0634, 6.850808
522.5455, 7.200938
523.0276, 7.334176
523.5098, 7.311713
523.9919, 7.278780
524.4740, 7.302307
524.9561, 7.334206
525.4382, 7.308794
525.9203, 7.225810
526.4025, 7.086621
526.8846, 6.818270
527.3667, 6.594059
527.8488, 6.619748
528.3309, 6.855752
528.8130, 7.053884
529.2952, 7.079637
529.7773, 7.084092
530.2594, 7.258852
530.7415, 7.554657
531.2236, 7.750833
531.7057, 7.756875
532.1879, 7.587163
532.6700, 7.231305
533.1521, 6.437500
533.6342, 6.056590
534.1163, 6.462956
534.5984, 6.981802
535.0806, 7.177908
535.5627, 7.096200
536.0448, 6.989968
536.5269, 7.015485
537.0090, 7.124100
537.4911, 7.159996
537.9733, 7.061288
538.4554, 7.027943
538.9375, 7.242707
539.4196, 7.396297
539.9017, 7.168942
540.3839, 6.659429
540.8660, 6.343464
541.3481, 6.672616
541.8302, 7.319158
542.3123, 7.513654
542.7944, 7.206643
543.2766, 6.870747
543.7587, 6.610178
544.2408, 6.487479
544.7229, 6.649180
545.2050, 7.148636
545.6871, 7.454593
546.1693, 7.217395
546.6514, 6.799435
547.1335, 6.630904
547.6156, 6.699501
548.0977, 6.659740
548.5798, 6.246917
549.0620, 5.662062
549.5441, 5.585387
550.0262, 6.741153
550.5083, 7.445395
550.9904, 7.498616
551.4725, 7.244087
551.9547, 6.782900
552.4368, 6.236039
552.9189, 5.846365
553.4010, 5.811412
553.8831, 6.058418
554.3652, 6.335440
554.8474, 6.734952
555.3295, 6.926919
555.8116, 6.557006
556.2937, 6.134108
556.7758, 6.035284
557.2579, 6.274139
557.7401, 6.596107
558.2222, 6.955299
558.7043, 7.261554
559.1864, 7.351917
559.6685, 7.220919
560.1506, 6.938216
560.6328, 6.433419
561.1149, 5.897838
561.5970, 5.808158
562.0791, 6.312977
562.5612, 6.690103
563.0433, 6.762440
563.5255, 6.689311
564.0076, 6.605924
564.4897, 6.507405
564.9718, 6.259447
565.4539, 5.738741
565.9360, 5.128725
566.4182, 5.106851
566.9003, 6.257873
567.3824, 6.886551
567.8645, 6.506625
568.3466, 5.948385
568.8287, 5.653962
569.3109, 5.651354
569.7930, 5.848412
570.2751, 6.301644
570.7572, 6.799581
571.2393, 6.823006
571.7214, 6.328031
572.2036, 5.882819
572.6857, 5.602821
573.1678, 5.525970
573.6499, 5.794893
574.1320, 6.397744
574.6141, 6.792910
575.0963, 6.598546
575.5784, 6.321908
576.0605, 6.535741
576.5426, 7.071933
577.0247, 7.249270
577.5068, 6.720107
577.9890, 5.923541
578.4711, 5.711034
578.9532, 6.444161
579.4353, 6.845620
579.9174, 6.713397
580.3995, 6.496546
580.8817, 6.382025
581.3638, 6.348816
581.8459, 6.313373
582.3280, 6.233437
582.8101, 6.158419
583.2922, 6.201478
583.7744, 6.377985
584.2565, 6.426302
584.7386, 6.197250
585.2207, 5.998716
585.7029, 6.101508
586.1850, 6.400104
586.6671, 6.634291
587.1492, 6.785282
587.6313, 6.797094
588.1135, 6.512430
588.5956, 6.069036
589.0777, 5.820155
589.5598, 5.859363
590.0419, 5.953720
590.5240, 5.833386
591.0062, 5.479849
591.4883, 5.357030
591.9704, 5.590602
592.4525, 5.872054
592.9346, 6.162474
593.4167, 6.441925
593.8989, 6.727351
594.3810, 7.005341
594.8631, 7.186583
595.3452, 7.140579
595.8273, 6.891502
596.3094, 6.723346
596.7916, 6.664032
597.2737, 6.620521
597.7558, 6.562701
598.2379, 6.495310
598.7200, 6.413056
599.2021, 6.310690
599.6843, 6.239142
600.1664, 6.315324
600.6485, 6.392752
601.1306, 6.171877
601.6127, 5.678691
602.0948, 5.321985
602.5770, 5.343349
603.0591, 5.651499
603.5412, 6.008377
604.0233, 6.672506
604.5054, 6.935195
604.9875, 6.514121
605.4697, 5.946762
605.9518, 5.429936
606.4339, 5.061895
606.9160, 5.018910
607.3981, 5.437469
607.8802, 6.050616
608.3624, 6.322030
608.8445, 6.213345
609.3266, 6.037778
609.8087, 5.705871
610.2908, 5.500825
610.7729, 5.853426
611.2551, 6.510819
611.7372, 6.684783
612.2193, 5.806539
612.7014, 4.849196
613.1835, 4.509383
613.6656, 4.604777
614.1478, 4.766882
614.6299, 4.902968
615.1120, 5.045523
615.5941, 5.236574
616.0762, 5.476883
616.5583, 5.637219
617.0405, 5.635729
617.5226, 5.657583
618.0047, 5.781352
618.4868, 5.912794
618.9689, 5.945763
619.4510, 5.874109
619.9332, 5.788301
620.4153, 5.781881
620.8974, 5.818238
621.3795, 5.738619
621.8616, 5.508344
622.3438, 5.348991
622.8259, 5.363368
623.3080, 5.472954
623.7901, 5.588083
624.2722, 5.712340
624.7543, 5.786247
625.2365, 5.789098
625.7186, 5.740191
626.2007, 5.608004
626.6828, 5.436408
627.1649, 5.355569
627.6470, 5.421834
628.1292, 5.536710
628.6113, 5.525832
629.0934, 5.326082
629.5755, 5.265085
630.0576, 5.560435
630.5397, 5.763412
631.0219, 5.662501
631.5040, 5.420885
631.9861, 5.246856
632.4682, 5.198808
632.9503, 5.264911
633.4324, 5.547837
633.9146, 5.936435
634.3967, 6.019094
634.8788, 5.730484
635.3609, 5.450307
635.8430, 5.399115
636.3251, 5.512630
636.8073, 5.619919
637.2894, 5.752103
637.7715, 5.810150
638.2536, 5.706132
638.7357, 5.582704
639.2178, 5.616910
639.7000, 5.731930
640.1821, 5.658904
640.6642, 5.236163
641.1463, 4.679914
641.6284, 4.446954
642.1105, 4.603776
642.5927, 4.740127
643.0748, 4.870012
643.5569, 4.908747
644.0390, 4.747625
644.5211, 4.481379
645.0032, 4.294593
645.4854, 4.219538
645.9675, 4.255910
646.4496, 4.471330
646.9317, 4.778270
647.4138, 4.988504
647.8959, 5.084027
648.3781, 5.251753
648.8602, 5.676354
649.3423, 6.243134
649.8244, 6.388680
650.3065, 5.699335
650.7886, 5.199492
651.2708, 4.942434
651.7529, 4.859391
652.2350, 4.963969
652.7171, 5.204383
653.1992, 5.492157
653.6813, 5.827180
654.1635, 6.071493
654.6456, 5.944714
655.1277, 5.480198
655.6098, 5.063912
656.0919, 4.715689
656.5740, 4.588895
657.0562, 4.935371
657.5383, 5.668283
658.0204, 6.116213
658.5025, 6.220541
658.9846, 6.109787
659.4667, 5.659083
659.9489, 5.108371
660.4310, 4.647738
660.9131, 4.338963
661.3952, 4.242040
661.8773, 4.418545
662.3594, 4.804301
662.8416, 5.235778
663.3237, 5.797472
663.8058, 6.093504
664.2879, 5.930450
664.7700, 5.599919
665.2521, 5.192512
665.7343, 4.784499
666.2164, 4.633400
666.6985, 4.934769
667.1806, 5.347750
667.6627, 5.763496
668.1448, 6.086558
668.6270, 6.083627
669.1091, 5.726068
669.5912, 5.225064
670.0733, 4.705802
670.5554, 4.233390
671.0375, 4.310648
671.5197, 5.574971
672.0018, 6.334440
672.4839, 6.128984
672.9660, 5.649577
673.4481, 5.273195
673.9302, 5.041120
674.4124, 4.900682
674.8945, 4.813668
675.3766, 4.831084
675.8587, 5.107928
676.3408, 5.568478
676.8229, 5.842452
677.3051, 5.833357
677.7872, 5.740364
678.2693, 5.727287
678.7514, 5.789038
679.2335, 5.868517
679.7156, 6.052944
680.1978, 6.137106
680.6799, 6.036390
681.1620, 5.866327
681.6441, 5.732438
682.1262, 5.625378
682.6083, 5.456274
683.0905, 5.144995
683.5726, 4.794800
684.0547, 4.606761
684.5368, 4.581227
685.0189, 4.582242
685.5010, 4.582078
685.9832, 4.611299
686.4653, 4.734354
686.9474, 4.915990
687.4295, 4.978861
687.9116, 4.826760
688.3937, 4.681808
688.8759, 4.506914
689.3580, 4.436323
689.8401, 4.761665
690.3222, 5.367708
690.8043, 5.705892
691.2864, 5.373760
691.7686, 4.717993
692.2507, 4.664145
692.7328, 5.359745
693.2149, 5.684893
693.6970, 5.234773
694.1791, 4.757623
694.6613, 4.824936
695.1434, 5.241055
695.6255, 5.593604
696.1076, 5.845487
696.5897, 5.978089
697.0718, 5.918993
697.5540, 5.774147
698.0361, 5.683985
698.5182, 5.644021
699.0003, 5.516641
699.4824, 5.197392
699.9645, 4.849639
700.4467, 4.973236
700.9288, 5.839979
701.4109, 6.141499
701.8930, 5.346078
702.3751, 4.531817
702.8572, 4.157240
703.3394, 4.138747
703.8215, 4.404422
704.3036, 5.035941
704.7857, 5.547027
705.2678, 5.578828
705.7499, 5.362661
706.2321, 5.093586
706.7142, 4.851348
707.1963, 4.925589
707.6784, 5.503276
708.1605, 6.260559
708.6426, 6.542820
709.1248, 6.222987
709.6069, 5.877751
710.0890, 5.379838
710.5711, 5.009883
711.0532, 4.940221
711.5353, 5.014580
712.0175, 5.005791
712.4996, 4.862747
712.9817, 4.806859
713.4638, 5.102319
713.9459, 5.492329
714.4280, 5.558475
714.9102, 5.356667
715.3923, 5.268770
715.8744, 5.467916
716.3565, 5.738629
716.8386, 5.750233
717.3207, 5.453710
717.8029, 5.256385
718.2850, 5.343462
718.7671, 5.298316
719.2492, 4.720527
719.7313, 4.162681
720.2134, 4.329354
720.6956, 5.217986
721.1777, 5.946930
721.6598, 5.832559
722.1419, 5.388230
722.6240, 5.301619
723.1061, 5.472844
723.5883, 5.477449
724.0704, 5.183267
724.5525, 4.797617
725.0346, 4.520114
725.5167, 4.351384
725.9988, 4.297040
726.4810, 4.519775
726.9631, 4.620848
727.4452, 4.568676
727.9273, 4.371549
728.4094, 3.823925
728.8915, 3.105939
729.3737, 2.861925
729.8558, 3.618190
730.3379, 4.572672
730.8200, 4.867423
731.3021, 4.678757
731.7842, 4.422086
732.2664, 4.177132
732.7485, 4.099631
733.2306, 4.347912
733.7127, 4.810852
734.1948, 5.046071
734.6769, 4.938741
735.1591, 4.807591
735.6412, 4.626929
736.1233, 4.460706
736.6054, 4.310481
737.0875, 4.206014
737.5696, 4.215114
738.0518, 4.376313
738.5339, 4.548693
739.0160, 4.597998
739.4981, 4.591108
739.9802, 4.673514
740.4623, 4.839955
740.9445, 4.961887
741.4266, 4.977379
741.9087, 4.900692
742.3908, 4.747878
742.8729, 4.492607
743.3550, 4.271435
743.8372, 4.044011
744.3193, 3.903791
744.8014, 3.934470
745.2835, 4.030319
745.7656, 4.056952
746.2477, 4.003156
746.7299, 4.009440
747.2120, 4.261581
747.6941, 4.532832
748.1762, 4.514537
748.6583, 4.290233
749.1404, 4.106564
749.6226, 4.035749
750.1047, 4.088336
750.5868, 4.316375
751.0689, 4.680324
751.5510, 4.724300
752.0331, 4.181348
752.5153, 3.832767
752.9974, 4.034886
753.4795, 4.264951
753.9616, 4.084124
754.4437, 3.648460
754.9258, 3.502732
755.4080, 3.953524
755.8901, 4.454935
756.3722, 4.654311
756.8543, 4.661043
757.3364, 4.625018
757.8185, 4.564125
758.3007, 4.421931
758.7828, 4.153347
759.2649, 3.852569
759.7470, 3.732841
760.2291, 3.832016
760.7112, 3.931206
761.1934, 4.051087
761.6755, 4.131288
762.1576, 4.021394
762.6397, 3.913962
763.1218, 4.132560
763.6039, 4.759571
764.0861, 5.186607
764.5682, 5.078446
765.0503, 4.808568
765.5324, 4.620081
766.0145, 4.502551
766.4966, 4.405138
766.9788, 4.311855
767.4609, 4.232792
767.9430, 4.188488
768.4251, 4.163009
768.9072, 4.023249
769.3893, 3.699118
769.8715, 3.656955
770.3536, 4.178567
770.8357, 4.779121
771.3178, 5.001608
771.7999, 4.904286
772.2820, 4.783724
772.7642, 4.520020
773.2463, 4.419869
773.7284, 4.862525
774.2105, 5.273904
774.6926, 4.983367
775.1747, 4.192232
775.6569, 3.618232
776.1390, 3.628471
776.6211, 3.897569
777.1032, 3.970876
777.5853, 3.899334
778.0674, 4.014575
778.5496, 4.367124
779.0317, 4.652406
779.5138, 4.689677
779.9959, 4.627340
780.4780, 4.753730
780.9601, 5.177237
781.4423, 5.338167
781.9244, 5.017028
782.4065, 4.712801
782.8886, 4.645302
783.3707, 4.637290
783.8528, 4.455235
784.3350, 4.099224
784.8171, 3.790958
785.2992, 3.612008
785.7813, 3.609251
786.2634, 4.057439
786.7455, 4.738237
787.2277, 4.833165
787.7098, 4.189821
788.1919, 3.472162
788.6740, 3.174428
789.1561, 3.250962
789.6382, 3.597886
790.1204, 4.509976
790.6025, 4.969598
791.0846, 4.467573
791.5667, 4.005880
792.0488, 4.166140
792.5309, 4.592081
793.0131, 4.664448
793.4952, 4.220271
793.9773, 3.889531
794.4594, 4.181124
794.9415, 4.535336
795.4236, 4.342642
795.9058, 3.798284
796.3879, 3.360116
796.8700, 3.185479
797.3521, 3.270458
797.8342, 3.677601
798.3163, 4.314176
798.7985, 4.698463
799.2806, 4.812128
799.7627, 4.759858
800.2448, 4.446153
800.7269, 4.171870
801.2090, 4.273734
801.6912, 4.658052
802.1733, 4.797338
802.6554, 4.409533
803.1375, 4.223685
803.6196, 4.740782
804.1017, 5.173451
804.5839, 4.678975
805.0660, 3.703126
805.5481, 3.297959
806.0302, 3.854120
806.5123, 4.638534
806.9944, 4.971818
807.4766, 4.969359
807.9587, 4.833261
808.4408, 4.591750
808.9229, 4.469752
809.4050, 4.555295
809.8871, 4.760927
810.3693, 5.019801
810.8514, 5.328492
811.3335, 5.379663
811.8156, 5.009707
812.2977, 4.653896
812.7798, 4.300346
813.2620, 4.047620
813.7441, 4.028892
814.2262, 4.164182
814.7083, 4.209928
815.1904, 4.027929
815.6725, 3.934513
816.1547, 4.233954
816.6368, 4.628206
817.1189, 4.762647
817.6010, 4.673734
818.0831, 4.554235
818.5652, 4.488801
819.0474, 4.478766
819.5295, 4.550923
820.0116, 4.689705
820.4937, 4.740973
820.9758, 4.688954
821.4579, 4.643209
821.9401, 4.637990
822.4222, 4.651612
822.9043, 4.656812
823.3864, 4.655512
823.8685, 4.691322
824.3506, 4.855983
824.8328, 4.927752
825.3149, 4.871061
825.7970, 4.712799
826.2791, 4.373814
826.7612, 3.964913
827.2433, 3.758942
827.7255, 3.884913
828.2076, 3.977021
828.6897, 3.501271
829.1718, 2.903878
829.6539, 3.060235
830.1360, 3.839154
830.6182, 4.472231
831.1003, 4.667644
831.5824, 4.626938
832.0645, 4.582275
832.5466, 4.526893
833.0287, 4.331022
833.5109, 3.844761
833.9930, 3.697006
834.4751, 4.292301
834.9572, 4.931042
835.4393, 4.968375
835.9214, 4.594614
836.4036, 4.360841
836.8857, 4.409689
837.3678, 4.392652
837.8499, 4.152826
838.3320, 3.885942
838.8141, 3.672971
839.2963, 3.558067
839.7784, 3.620558
840.2605, 3.876727
840.7426, 4.183649
841.2247, 4.472099
841.7068, 4.698169
842.1890, 4.726563
842.6711, 4.596535
843.1532, 4.537829
843.6353, 4.612239
844.1174, 4.701442
844.5995, 4.700767
845.0817, 4.627970
845.5638, 4.565131
846.0459, 4.528255
846.5280, 4.447154
847.0101, 4.171910
847.4922, 4.042681
847.9744, 4.337610
848.4565, 4.840601
848.9386, 5.255335
849.4207, 5.567627
849.9028, 5.724842
850.3849, 5.731940
850.8671, 5.557541
851.3492, 4.939787
851.8313, 4.256642
852.3134, 4.089894
852.7955, 4.451462
853.2776, 4.809808
853.7598, 4.798628
854.2419, 4.620482
854.7240, 4.565023
855.2061, 4.609743
855.6882, 4.703794
856.1703, 4.836275
856.6525, 4.814107
857.1346, 4.482604
857.6167, 4.114195
858.0988, 4.297364
858.5809, 5.190764
859.0630, 5.553095
859.5452, 5.063517
860.0273, 4.613783
860.5094, 4.523581
860.9915, 4.543066
861.4736, 4.441395
861.9557, 4.243162
862.4379, 4.119697
862.9200, 4.178660
863.4021, 4.207545
863.8842, 3.973464
864.3663, 3.810557
864.8484, 4.206308
865.3306, 4.891471
865.8127, 5.144631
866.2948, 4.693640
866.7769, 4.115962
867.2590, 3.984725
867.7411, 4.131293
868.2233, 4.260841
868.7054, 4.352736
869.1875, 4.305785
869.6696, 4.088898
870.1517, 3.883921
870.6339, 3.870961
871.1160, 4.002832
871.5981, 4.041265
872.0802, 3.904324
872.5623, 4.001580
873.0444, 4.589978
873.5266, 5.051779
874.0087, 4.937648
874.4908, 4.520062
874.9729, 4.331990
875.4550, 4.442732
875.9371, 4.386681
876.4193, 3.720989
876.9014, 3.331748
877.3835, 3.944660
877.8656, 4.785186
878.3477, 4.952864
878.8298, 4.488475
879.3120, 4.092366
879.7941, 4.153929
880.2762, 4.288202
880.7583, 3.969107
881.2404, 3.537770
881.7225, 3.716798
882.2047, 4.418649
882.6868, 4.974358
883.1689, 5.094954
883.6510, 4.997827
884.1331, 4.958115
884.6152, 4.953028
885.0974, 4.781510
885.5795, 4.412926
886.0616, 4.090151
886.5437, 3.833690
887.0258, 3.732201
887.5079, 3.906513
887.9901, 4.283764
888.4722, 4.586154
888.9543, 4.995612
889.4364, 4.973417
889.9185, 4.113307
890.4006, 3.303817
890.8828, 2.756061
891.3649, 2.529927
891.8470, 2.815334
892.3291, 3.576018
892.8112, 4.175788
893.2933, 4.316805
893.7755, 4.270212
894.2576, 4.018585
894.7397, 3.792933
895.2218, 3.993296
895.7039, 4.511909
896.1860, 4.881597
896.6682, 4.881286
897.1503, 4.641423
897.6324, 4.249236
898.1145, 3.758994
898.5966, 3.230359
899.0787, 2.706086
899.5609, 2.599765
900.0430, 3.062577
900.5251, 3.689523
901.0072, 4.111540
901.4893, 4.345828
901.9714, 4.482228
902.4536, 4.562144
902.9357, 4.348412
903.4178, 3.544432
903.8999, 2.943902
904.3820, 3.092696
904.8641, 3.631867
905.3463, 3.955621
905.8284, 4.040711
906.3105, 4.110415
906.7926, 4.274018
907.2747, 4.302701
907.7568, 3.924123
908.2390, 3.545724
908.7211, 3.535664
909.2032, 3.844675
909.6853, 4.246173
910.1674, 4.706613
910.6495, 5.054223
911.1317, 5.179436
911.6138, 5.130552
912.0959, 4.884169
912.5780, 4.524782
913.0601, 4.184385
913.5422, 3.920655
914.0244, 3.842449
914.5065, 4.099220
914.9886, 4.506240
915.4707, 4.628183
915.9528, 4.524199
916.4349, 4.638673
916.9171, 5.035291
917.3992, 5.231663
917.8813, 4.924280
918.3634, 4.435373
918.8455, 4.317598
919.3276, 4.596375
919.8098, 4.804536
920.2919, 4.942711
920.7740, 5.003421
921.2561, 4.918251
921.7382, 4.841966
922.2203, 4.950129
922.7025, 5.173905
923.1846, 5.257135
923.6667, 5.249001
924.1488, 4.995467
924.6309, 4.071295
925.1130, 3.366683
925.5952, 3.377500
926.0773, 3.776620
926.5594, 4.318656
927.0415, 4.882835
927.5236, 5.058774
928.0057, 4.337763
928.4879, 3.679468
928.9700, 3.905497
929.4521, 4.399756
929.9342, 4.384354
930.4163, 3.980893
930.8984, 3.715176
931.3806, 3.787295
931.8627, 4.030779
932.3448, 4.419523
932.8269, 4.782817
933.3090, 4.677494
933.7911, 4.215865
934.2733, 3.840353
934.7554, 3.645539
935.2375, 3.658589
935.7196, 3.925709
936.2017, 4.274644
936.6838, 4.286258
937.1660, 4.377192
937.6481, 4.439773
938.1302, 4.169459
938.6123, 4.293448
939.0944, 3.926724
939.5765, 3.570664
940.0587, 3.806107
940.5408, 4.517783
941.0229, 4.851111
941.5050, 4.574126
941.9871, 4.343831
942.4692, 4.060614
942.9514, 3.963818
943.4335, 4.360900
943.9156, 4.879112
944.3977, 5.019789
944.8798, 4.759517
945.3619, 4.508759
945.8441, 4.410852
946.3262, 4.260440
946.8083, 3.939484
947.2904, 3.576061
947.7725, 3.126973
948.2546, 2.757342
948.7368, 2.864306
949.2189, 3.578526
949.7010, 4.265281
950.1831, 4.510128
950.6652, 4.532838
951.1473, 4.468183
951.6295, 4.382406
952.1116, 4.382603
952.5937, 4.477698
953.0758, 4.661288
953.5579, 4.956809
954.0400, 5.104077
954.5222, 4.546726
955.0043, 3.597889
955.4864, 3.229697
955.9685, 3.406945
956.4506, 3.614867
956.9327, 3.699161
957.4149, 3.704177
957.8970, 3.656819
958.3791, 3.587274
958.8612, 3.608363
959.3433, 3.732589
959.8254, 3.725144
960.3076, 3.503797
960.7897, 3.490884
961.2718, 3.984777
961.7539, 4.509723
962.2360, 4.382376
962.7181, 3.649181
963.2003, 3.439548
963.6824, 4.250952
964.1645, 4.541915
964.6466, 3.609567
965.1287, 2.826808
965.6108, 3.121518
966.0930, 3.926841
966.5751, 4.408896
967.0572, 4.516998
967.5393, 4.670335
968.0214, 5.118257
968.5035, 5.338096
968.9857, 4.953741
969.4678, 4.503354
969.9499, 4.513830
970.4320, 4.758573
970.9141, 4.582675
971.3962, 3.755551
971.8784, 3.238554
972.3605, 3.915204
972.8426, 4.574730
973.3247, 4.112752
973.8068, 3.306938
974.2889, 3.248720
974.7711, 3.882190
975.2532, 4.420863
975.7353, 4.507628
976.2174, 4.382391
976.6995, 4.234969
977.1816, 4.025594
977.6638, 3.520651
978.1459, 2.940299
978.6280, 2.922583
979.1101, 3.527381
979.5922, 4.194681
980.0743, 4.559639
980.5565, 4.640315
981.0386, 4.296283
981.5207, 3.700554
982.0028, 3.515546
982.4849, 3.738090
982.9670, 4.025486
983.4492, 4.263262
983.9313, 4.356112
984.4134, 4.182708
984.8955, 3.853854
985.3776, 3.713351
985.8597, 3.763536
986.3419, 4.009468
986.8240, 4.531002
987.3061, 4.686985
987.7882, 4.095438
988.2703, 3.335319
988.7524, 3.111194
989.2346, 3.373929
989.7167, 3.627943
990.1988, 3.918081
990.6809, 4.044056
991.1630, 3.848261
991.6451, 3.751966
992.1273, 3.989301
992.6094, 4.430499
993.0915, 4.987147
993.5736, 5.694427
994.0557, 5.852248
994.5378, 4.914022
995.0200, 4.227714
995.5021, 4.017995
995.9842, 3.984966
996.4663, 4.036174
996.9484, 4.128897
997.4305, 4.210357
997.9127, 4.278598
998.3948, 4.303486
998.8769, 4.173113
999.3590, 4.142001
999.8411, 4.463285
1000.323, 4.752196
1000.805, 4.648648
1001.287, 4.299468
1001.770, 4.019238
1002.252, 3.873492
1002.734, 3.829449
1003.216, 3.972896
1003.698, 4.098820
1004.180, 4.047358
1004.662, 3.944846
1005.144, 3.951055
1005.627, 4.030847
1006.109, 4.035082
1006.591, 3.907935
1007.073, 3.790009
1007.555, 3.787426
1008.037, 3.831241
1008.519, 3.799777
1009.001, 3.798409
1009.483, 4.139799
1009.966, 4.695779
1010.448, 4.866545
1010.930, 4.352042
1011.412, 3.753182
1011.894, 3.651371
1012.376, 3.862941
1012.858, 4.291327
1013.340, 4.755934
1013.823, 4.716091
1014.305, 4.183571
1014.787, 3.766407
1015.269, 3.820367
1015.751, 4.039353
1016.233, 3.976871
1016.715, 3.761536
1017.197, 3.770294
1017.679, 3.969150
1018.162, 4.194257
1018.644, 4.401427
1019.126, 4.552597
1019.608, 4.625898
1020.090, 4.599539
1020.572, 4.297314
1021.054, 3.820203
1021.536, 4.041685
1022.018, 4.930765
1022.501, 5.378399
1022.983, 5.097372
1023.465, 4.716899
1023.947, 4.695747
1024.429, 4.874722
1024.911, 4.937176
1025.393, 4.882515
1025.875, 4.690277
1026.358, 4.331014
1026.840, 4.070559
1027.322, 3.970541
1027.804, 4.021262
1028.286, 4.228385
1028.768, 4.560498
1029.250, 4.996217
1029.732, 5.604589
1030.214, 5.726614
1030.697, 5.215933
1031.179, 4.705595
1031.661, 4.318633
1032.143, 4.075762
1032.625, 4.030548
1033.107, 4.106709
1033.589, 4.066868
1034.071, 4.144924
1034.553, 4.333093
1035.036, 4.325669
1035.518, 4.704343
1036.000, 4.882553
1036.482, 4.908735
1036.964, 4.780070
1037.446, 4.542653
1037.928, 4.326242
1038.410, 4.109086
1038.893, 3.988065
1039.375, 3.991117
1039.857, 4.046432
1040.339, 4.155008
1040.821, 4.293388
1041.303, 4.515948
1041.785, 4.744956
1042.267, 4.749483
1042.750, 4.488240
1043.232, 4.144362
1043.714, 3.306662
1044.196, 2.947601
1044.678, 3.788482
1045.160, 4.716993
1045.642, 4.848430
1046.124, 4.457428
1046.606, 4.250799
1047.089, 4.331658
1047.571, 4.333337
1048.053, 4.049037
1048.535, 3.909442
1049.017, 4.089487
1049.499, 4.402141
1049.981, 4.846404
1050.463, 5.275625
1050.945, 5.339935
1051.428, 4.926517
1051.910, 4.639426
1052.392, 4.704822
1052.874, 4.761388
1053.356, 4.591971
1053.838, 4.466081
1054.320, 4.702941
1054.802, 5.105451
1055.285, 5.280890
1055.767, 5.167012
1056.249, 4.866210
1056.731, 3.965576
1057.213, 3.466137
1057.695, 4.073469
1058.177, 4.897183
1058.659, 5.325883
1059.141, 5.431270
1059.624, 5.402567
1060.106, 5.272480
1060.588, 5.204024
1061.070, 5.420702
1061.552, 5.478957
1062.034, 5.071150
1062.516, 4.565738
1062.998, 4.167315
1063.480, 3.915736
1063.963, 3.846333
1064.445, 3.960748
1064.927, 4.182212
1065.409, 4.725662
1065.891, 5.041840
1066.373, 4.664812
1066.855, 4.211625
1067.337, 4.156692
1067.820, 4.351644
1068.302, 4.584445
1068.784, 4.788674
1069.266, 4.807193
1069.748, 4.436628
1070.230, 4.122251
1070.712, 4.041146
1071.194, 4.108255
1071.677, 4.383625
1072.159, 4.694496
1072.641, 4.799416
1073.123, 4.691498
1073.605, 4.514080
1074.087, 4.181972
1074.569, 4.118209
1075.051, 4.892054
1075.533, 5.611940
1076.016, 5.550960
1076.498, 5.105838
1076.980, 4.790007
1077.462, 4.644778
1077.944, 4.469029
1078.426, 4.137888
1078.908, 3.978300
1079.390, 4.319757
1079.873, 4.683397
1080.355, 4.723539
1080.837, 4.630513
1081.319, 4.671196
1081.801, 4.796164
1082.283, 4.729350
1082.765, 4.340924
1083.247, 4.083355
1083.729, 4.217330
1084.212, 4.473786
1084.694, 4.802812
1085.176, 5.090920
1085.658, 5.271327
1086.140, 5.309669
1086.622, 5.123269
1087.104, 4.683434
1087.586, 4.247499
1088.068, 3.728112
1088.551, 3.487823
1089.033, 3.962071
1089.515, 4.560800
1089.997, 4.761437
1090.479, 4.697623
1090.961, 4.756687
1091.443, 4.987565
1091.925, 4.925418
1092.408, 4.060575
1092.890, 3.328470
1093.372, 3.046473
1093.854, 3.088177
1094.336, 3.632272
1094.818, 4.289943
1095.300, 4.477882
1095.782, 4.182224
1096.265, 3.889786
1096.747, 3.623985
1097.229, 3.607384
1097.711, 4.178451
1098.193, 4.720560
1098.675, 4.840263
1099.157, 4.754443
1099.639, 4.744615
1100.121, 4.789671
1100.604, 4.645424
1101.086, 4.109488
1101.568, 3.856254
1102.050, 4.379556
1102.532, 4.823176
1103.014, 4.836061
1103.496, 4.586741
1103.978, 3.976152
1104.460, 3.289241
1104.943, 3.273556
1105.425, 4.179081
1105.907, 4.877378
1106.389, 5.063680
1106.871, 5.160129
1107.353, 5.299609
1107.835, 5.378303
1108.317, 5.411568
1108.800, 5.295346
1109.282, 4.710786
1109.764, 3.604542
1110.246, 3.019875
1110.728, 3.290902
1111.210, 3.726259
1111.692, 4.477630
1112.174, 5.091537
1112.656, 5.294856
1113.139, 5.283208
1113.621, 5.286092
1114.103, 5.299155
1114.585, 5.232600
1115.067, 4.987427
1115.549, 4.840894
1116.031, 4.826372
1116.513, 4.864721
1116.995, 4.950179
1117.478, 5.064930
1117.960, 5.308049
1118.442, 5.538459
1118.924, 5.222071
1119.406, 4.018363
1119.888, 3.659966
1120.370, 4.670616
1120.852, 5.443549
1121.335, 5.657196
1121.817, 5.502044
1122.299, 4.905441
1122.781, 4.233274
1123.263, 4.188604
1123.745, 4.786137
1124.227, 5.333883
1124.709, 5.964160
1125.192, 5.977931
1125.674, 4.993499
1126.156, 4.330772
1126.638, 4.712502
1127.120, 5.403308
1127.602, 5.535712
1128.084, 5.220557
1128.566, 4.988749
1129.048, 4.845343
1129.531, 4.728859
1130.013, 4.625947
1130.495, 4.645907
1130.977, 4.842999
1131.459, 5.039716
1131.941, 5.091613
1132.423, 5.044775
1132.905, 4.984202
1133.387, 4.912650
1133.870, 4.872237
1134.352, 4.862352
1134.834, 4.854254
1135.316, 4.843788
1135.798, 4.932259
1136.280, 5.181365
1136.762, 5.450542
1137.244, 5.542188
1137.727, 5.529239
1138.209, 5.764073
1138.691, 6.096859
1139.173, 5.622943
1139.655, 4.478426
1140.137, 4.097613
1140.619, 4.918553
1141.101, 5.839113
1141.583, 5.964714
1142.066, 5.681494
1142.548, 5.498593
1143.030, 5.383026
1143.512, 5.320977
1143.994, 5.256841
1144.476, 4.935924
1144.958, 4.425435
1145.440, 4.307026
1145.922, 4.903770
1146.405, 5.491719
1146.887, 5.142531
1147.369, 4.665225
1147.851, 5.222482
1148.333, 4.997874
1148.815, 5.039001
1149.297, 5.450715
1149.779, 5.270753
1150.262, 5.807487
1150.744, 6.328098
1151.226, 6.536867
1151.708, 6.407365
1152.190, 5.470352
1152.672, 4.638347
1153.154, 4.974699
1153.636, 5.747708
1154.119, 5.751850
1154.601, 5.054898
1155.083, 4.690086
1155.565, 5.024464
1156.047, 5.405187
1156.529, 5.667579
1157.011, 5.869020
1157.493, 6.105651
1157.975, 6.226027
1158.458, 5.878914
1158.940, 5.396363
1159.422, 5.600232
1159.904, 6.638213
1160.386, 7.118220
1160.868, 6.528283
1161.350, 5.979468
1161.832, 5.528328
1162.314, 5.215158
1162.797, 5.047262
1163.279, 5.042148
1163.761, 5.304358
1164.243, 5.739054
1164.725, 5.879298
1165.207, 5.612961
1165.689, 5.426118
1166.171, 5.263241
1166.654, 5.389313
1167.136, 5.988307
1167.618, 6.520659
1168.100, 6.620989
1168.582, 6.464683
1169.064, 6.348763
1169.546, 6.255823
1170.028, 5.945115
1170.510, 5.936570
1170.993, 6.009261
1171.475, 5.822926
1171.957, 6.210731
1172.439, 6.252408
1172.921, 6.087398
1173.403, 5.814468
1173.885, 5.523593
1174.367, 5.389982
1174.849, 5.389344
1175.332, 5.374954
1175.814, 5.418618
1176.296, 6.034026
1176.778, 7.114711
1177.260, 7.530074
1177.742, 6.740942
1178.224, 5.707520
1178.706, 5.263268
1179.189, 5.181799
1179.671, 5.294116
1180.153, 5.493581
1180.635, 5.597572
1181.117, 5.662690
1181.599, 5.954989
1182.081, 6.428221
1182.563, 6.514575
1183.046, 5.817816
1183.528, 5.130371
1184.010, 4.818449
1184.492, 4.792225
1184.974, 5.147377
1185.456, 5.626647
1185.938, 5.980645
1186.420, 6.238875
1186.902, 6.635873
1187.385, 7.237857
1187.867, 7.281492
1188.349, 5.905022
1188.831, 5.034961
1189.313, 5.370668
1189.795, 5.873166
1190.277, 6.145854
1190.759, 6.265977
1191.241, 6.341471
1191.724, 6.325704
1192.206, 5.981376
1192.688, 5.096979
1193.170, 4.818393
1193.652, 5.356707
1194.134, 5.873782
1194.616, 6.239714
1195.098, 6.435349
1195.581, 6.427045
1196.063, 6.315227
1196.545, 6.232274
1197.027, 6.169955
1197.509, 6.057328
1197.991, 5.907638
1198.473, 5.961523
1198.955, 6.220667
1199.438, 6.567726
1199.920, 6.946932
1200.402, 7.075991
1200.884, 6.748147
1201.366, 6.270495
1201.848, 5.868097
1202.330, 5.719441
1202.812, 6.548325
1203.294, 7.713385
1203.776, 7.774430
1204.259, 6.944608
1204.741, 6.188568
1205.223, 5.829819
1205.705, 5.894887
1206.187, 6.577429
1206.669, 7.213388
1207.151, 7.325316
1207.633, 7.228901
1208.116, 7.049784
1208.598, 6.897532
1209.080, 6.940878
1209.562, 7.090560
1210.044, 7.084050
1210.526, 6.863099
1211.008, 6.665017
1211.490, 6.416148
1211.973, 6.372690
1212.455, 6.762954
1212.937, 7.144065
1213.419, 7.348876
1213.901, 7.433056
1214.383, 7.443265
1214.865, 7.378661
1215.347, 7.223511
1215.829, 6.953773
1216.312, 6.756562
1216.794, 6.632941
1217.276, 6.613497
1217.758, 6.736431
1218.240, 6.716339
1218.722, 6.385475
1219.204, 6.053985
1219.686, 6.076937
1220.168, 6.334735
1220.651, 6.573172
1221.133, 6.773866
1221.615, 6.829168
1222.097, 6.773534
1222.579, 6.785337
1223.061, 6.870977
1223.543, 6.819029
1224.025, 6.531113
1224.508, 6.328881
1224.990, 6.590948
1225.472, 6.953454
1225.954, 7.141848
1226.436, 7.150583
1226.918, 6.777660
1227.400, 6.326846
1227.882, 6.376874
1228.365, 6.866621
1228.847, 7.144902
1229.329, 6.978487
1229.811, 6.819414
1230.293, 6.744516
1230.775, 6.763840
1231.257, 7.040029
1231.739, 7.237805
1232.221, 7.112539
1232.703, 6.803535
1233.186, 6.396619
1233.668, 5.953962
1234.150, 5.928057
1234.632, 6.475435
1235.114, 6.809439
1235.596, 6.877914
1236.078, 6.967448
1236.560, 7.157911
1237.043, 7.276288
1237.525, 7.223687
1238.007, 7.020213
1238.489, 6.604915
1238.971, 6.193054
1239.453, 6.550470
1239.935, 7.378346
1240.417, 7.660918
1240.900, 7.454284
1241.382, 7.140375
1241.864, 6.847307
1242.346, 6.692342
1242.828, 6.736048
1243.310, 6.819954
1243.792, 6.789404
1244.274, 6.781810
1244.756, 6.956963
1245.239, 7.160746
1245.721, 7.315428
1246.203, 7.353606
1246.685, 7.025134
1247.167, 6.467586
1247.649, 6.517436
1248.131, 6.092741
1248.613, 5.510241
1249.095, 6.005022
1249.578, 4.818864
1250.060, 5.620197
1250.542, 6.637692
1251.024, 7.083132
1251.506, 7.146019
1251.988, 7.006644
1252.470, 6.712813
1252.952, 6.401825
1253.435, 6.065263
1253.917, 6.096738
1254.399, 6.485488
1254.881, 6.737800
1255.363, 6.770517
1255.845, 6.802556
1256.327, 6.933938
1256.809, 7.035437
1257.292, 6.984050
1257.774, 6.838605
1258.256, 6.630499
1258.738, 6.418612
1259.220, 6.249099
1259.702, 6.158120
1260.184, 6.293838
1260.666, 6.544092
1261.148, 6.486455
1261.630, 6.002482
1262.113, 5.768437
1262.595, 6.183129
1263.077, 6.654631
1263.559, 7.122713
1264.041, 7.478079
1264.523, 7.633716
1265.005, 7.685567
1265.487, 7.756684
1265.970, 7.759930
1266.452, 7.455982
1266.934, 6.836471
1267.416, 6.401023
1267.898, 6.118718
1268.380, 6.409544
1268.862, 7.368290
1269.344, 7.788049
1269.827, 7.273099
1270.309, 6.661916
1270.791, 6.563332
1271.273, 6.683924
1271.755, 6.626506
1272.237, 6.491057
1272.719, 6.424031
1273.201, 6.436785
1273.683, 6.698594
1274.166, 7.005518
1274.648, 6.704509
1275.130, 5.883065
1275.612, 5.706187
1276.094, 6.855470
1276.576, 7.572141
1277.058, 6.609725
1277.540, 5.844415
1278.022, 6.081499
1278.505, 6.657906
1278.987, 7.406476
1279.469, 8.037072
1279.951, 8.206921
1280.433, 7.987670
1280.915, 7.655396
1281.397, 7.195067
1281.879, 6.697061
1282.362, 6.125613
1282.844, 5.988948
1283.326, 6.374777
1283.808, 6.784915
1284.290, 7.008333
1284.772, 7.028750
1285.254, 6.830582
1285.736, 6.413775
##END=



