##NAMES=Ktenasite
##RRUFFID=R070081
##IDEAL CHEMISTRY=Zn^2+^Cu^2+^_4_(S^6+^O_4_)_2_(OH)_6_&#183;6H_2_O
##LOCALITY=Amot, Modum, Norway
##OWNER=RRUFF
##SOURCE=Bob Jenkins
##DESCRIPTION=Radial aggregates of bluish green tabular crystals, associated with colorless tabular gypsum crystals.
##STATUS=The identification of this mineral has been confirmed only by single crystal X-ray diffraction.
##URL=rruff.info/R070081
144.4517, 113.8266
144.9338, 121.9990
145.4159, 127.9649
145.8980, 128.7780
146.3801, 126.1142
146.8622, 124.7734
147.3444, 125.2339
147.8265, 126.2806
148.3086, 128.9170
148.7907, 131.5834
149.2728, 125.2725
149.7549, 131.7132
150.2371, 135.0270
150.7192, 135.3863
151.2013, 123.7059
151.6834, 127.7528
152.1655, 125.6073
152.6476, 123.2834
153.1298, 129.7691
153.6119, 120.2451
154.0940, 126.7500
154.5761, 126.9667
155.0582, 130.1761
155.5403, 127.1544
156.0225, 126.1604
156.5046, 131.5572
156.9867, 133.5377
157.4688, 130.1047
157.9509, 133.9720
158.4330, 125.0155
158.9152, 129.5382
159.3973, 127.8108
159.8794, 120.1644
160.3615, 109.7990
160.8436, 102.7675
161.3257, 104.1477
161.8079, 113.7502
162.2900, 120.2982
162.7721, 120.3253
163.2542, 120.4980
163.7363, 123.9269
164.2184, 128.8918
164.7006, 131.2602
165.1827, 127.2938
165.6648, 116.8938
166.1469, 111.6090
166.6290, 116.7996
167.1111, 121.7523
167.5933, 123.8902
168.0754, 123.3912
168.5575, 121.2535
169.0396, 118.1109
169.5217, 113.9551
170.0038, 109.8003
170.4860, 102.8741
170.9681, 98.68213
171.4502, 101.6832
171.9323, 109.0865
172.4144, 114.0327
172.8965, 110.7171
173.3787, 99.14507
173.8608, 95.87315
174.3429, 109.1988
174.8250, 121.2251
175.3071, 126.4924
175.7892, 125.6840
176.2714, 121.1663
176.7535, 114.1167
177.2356, 104.6936
177.7177, 98.54971
178.1998, 96.53489
178.6819, 96.23587
179.1641, 97.38560
179.6462, 99.65638
180.1283, 102.9856
180.6104, 107.8600
181.0925, 113.8624
181.5746, 113.8452
182.0567, 100.2188
182.5389, 89.76938
183.0210, 91.36964
183.5031, 101.1438
183.9852, 108.9563
184.4673, 108.0534
184.9494, 99.68233
185.4316, 95.73282
185.9137, 99.27605
186.3958, 102.8394
186.8779, 104.3356
187.3600, 103.8799
187.8421, 101.6046
188.3243, 97.12128
188.8064, 91.20829
189.2885, 88.57508
189.7706, 90.89766
190.2527, 93.83539
190.7348, 95.06998
191.2170, 95.78253
191.6991, 100.0311
192.1812, 111.4379
192.6633, 126.1585
193.1454, 127.7108
193.6275, 104.8092
194.1097, 85.03073
194.5918, 76.77996
195.0739, 77.70643
195.5560, 84.65663
196.0381, 98.02264
196.5202, 113.5703
197.0024, 116.9996
197.4845, 101.4500
197.9666, 87.70259
198.4487, 81.97624
198.9308, 82.37544
199.4129, 85.72902
199.8951, 91.27115
200.3772, 97.95360
200.8593, 103.3550
201.3414, 108.0291
201.8235, 110.8908
202.3056, 110.9475
202.7878, 109.1011
203.2699, 106.8846
203.7520, 104.7831
204.2341, 102.6011
204.7162, 99.69207
205.1983, 95.41532
205.6805, 92.45298
206.1626, 92.15933
206.6447, 93.40755
207.1268, 94.19346
207.6089, 93.77519
208.0910, 93.60870
208.5732, 97.19131
209.0553, 106.1712
209.5374, 110.2904
210.0195, 102.6253
210.5016, 90.58565
210.9837, 84.15218
211.4659, 85.66096
211.9480, 91.68346
212.4301, 100.0509
212.9122, 111.7022
213.3943, 116.6590
213.8764, 106.8149
214.3586, 92.52406
214.8407, 85.79700
215.3228, 88.70102
215.8049, 95.84909
216.2870, 102.9406
216.7691, 109.9830
217.2513, 114.2043
217.7334, 113.4228
218.2155, 110.8049
218.6976, 109.3314
219.1797, 109.2854
219.6618, 109.1750
220.1440, 107.4274
220.6261, 104.1217
221.1082, 102.2001
221.5903, 102.4593
222.0724, 103.6311
222.5546, 104.2620
223.0367, 104.4925
223.5188, 106.7665
224.0009, 114.5200
224.4830, 126.1553
224.9651, 130.3510
225.4473, 118.7745
225.9294, 107.1586
226.4115, 107.7904
226.8936, 118.0390
227.3757, 124.3629
227.8578, 117.3006
228.3400, 100.6165
228.8221, 91.43000
229.3042, 93.21459
229.7863, 97.81514
230.2684, 104.3911
230.7505, 111.4264
231.2327, 113.9299
231.7148, 108.3681
232.1969, 98.30307
232.6790, 94.27236
233.1611, 97.75710
233.6432, 103.1590
234.1254, 110.5575
234.6075, 118.4605
235.0896, 123.6117
235.5717, 124.3738
236.0538, 123.3430
236.5359, 126.6395
237.0181, 138.1009
237.5002, 143.6985
237.9823, 135.2396
238.4644, 121.2753
238.9465, 113.1253
239.4286, 114.0031
239.9108, 119.5284
240.3929, 124.2661
240.8750, 128.8037
241.3571, 130.1768
241.8392, 125.9813
242.3213, 119.7130
242.8035, 113.4344
243.2856, 107.7554
243.7677, 104.9831
244.2498, 108.4008
244.7319, 119.9455
245.2140, 127.0178
245.6962, 127.8250
246.1783, 125.7839
246.6604, 122.2249
247.1425, 117.6576
247.6246, 112.8589
248.1067, 107.8351
248.5889, 102.6676
249.0710, 103.3391
249.5531, 117.8045
250.0352, 129.4419
250.5173, 129.6837
250.9994, 120.8113
251.4816, 109.2150
251.9637, 98.06529
252.4458, 87.99679
252.9279, 83.86777
253.4100, 88.26941
253.8921, 94.70767
254.3743, 103.1566
254.8564, 112.4482
255.3385, 121.6437
255.8206, 130.5093
256.3027, 137.4972
256.7849, 138.3571
257.2670, 124.3787
257.7491, 114.6593
258.2312, 115.4128
258.7133, 118.2024
259.1954, 112.2806
259.6776, 94.95011
260.1597, 74.90350
260.6418, 66.34930
261.1239, 75.83437
261.6060, 84.79688
262.0881, 93.37933
262.5703, 101.4098
263.0524, 110.7686
263.5345, 120.5630
264.0166, 126.0253
264.4987, 120.8803
264.9808, 101.6501
265.4630, 88.62000
265.9451, 84.56008
266.4272, 83.21878
266.9093, 82.99187
267.3914, 83.27251
267.8735, 83.29728
268.3557, 82.10760
268.8378, 79.90569
269.3199, 81.41881
269.8020, 96.43919
270.2841, 104.9944
270.7662, 96.94055
271.2484, 81.03417
271.7305, 71.08358
272.2126, 75.05881
272.6947, 88.20897
273.1768, 95.06916
273.6589, 92.47543
274.1411, 88.22715
274.6232, 82.17235
275.1053, 75.96979
275.5874, 71.17667
276.0695, 68.28734
276.5516, 66.64371
277.0338, 65.27185
277.5159, 64.17182
277.9980, 63.35821
278.4801, 60.99207
278.9622, 60.25316
279.4443, 65.02673
279.9265, 74.78784
280.4086, 83.42309
280.8907, 82.65586
281.3728, 71.73779
281.8549, 67.99709
282.3370, 80.37727
282.8192, 91.29112
283.3013, 90.03638
283.7834, 80.00533
284.2655, 71.29430
284.7476, 71.85432
285.2297, 78.80647
285.7119, 80.41230
286.1940, 73.08212
286.6761, 67.86126
287.1582, 73.01928
287.6403, 82.74850
288.1224, 88.73360
288.6046, 87.32691
289.0867, 81.87044
289.5688, 76.20068
290.0509, 70.05247
290.5330, 65.54255
291.0151, 62.44069
291.4973, 62.28001
291.9794, 68.20723
292.4615, 82.45098
292.9436, 95.15201
293.4257, 97.71154
293.9078, 91.67548
294.3900, 85.07533
294.8721, 78.94272
295.3542, 74.38338
295.8363, 73.44563
296.3184, 76.08272
296.8005, 77.65570
297.2827, 75.80379
297.7648, 71.92146
298.2469, 67.69254
298.7290, 63.04219
299.2111, 59.99145
299.6932, 61.13963
300.1754, 66.00307
300.6575, 69.99144
301.1396, 72.09657
301.6217, 73.57031
302.1038, 76.07735
302.5859, 79.23161
303.0681, 80.19644
303.5501, 76.55362
304.0323, 69.66611
304.5144, 65.80145
304.9965, 65.70648
305.4786, 67.25126
305.9607, 72.80524
306.4428, 79.08028
306.9250, 78.73452
307.4071, 68.49796
307.8892, 54.94037
308.3713, 50.74823
308.8534, 63.33806
309.3355, 72.10679
309.8177, 74.08440
310.2998, 73.66856
310.7819, 74.24994
311.2640, 76.46112
311.7461, 79.55052
312.2282, 83.19029
312.7104, 88.21452
313.1925, 88.20406
313.6746, 79.27501
314.1567, 70.00682
314.6388, 63.42971
315.1209, 59.28088
315.6031, 56.10651
316.0852, 52.89039
316.5673, 50.03745
317.0494, 49.80390
317.5315, 54.33321
318.0136, 58.77817
318.4958, 65.34038
318.9779, 70.16383
319.4600, 67.17399
319.9421, 54.55930
320.4242, 40.08071
320.9063, 36.98553
321.3885, 49.26444
321.8706, 58.94987
322.3527, 63.95610
322.8348, 65.98164
323.3169, 64.43900
323.7990, 60.07848
324.2812, 55.88204
324.7633, 54.98943
325.2454, 56.89728
325.7275, 56.33317
326.2096, 50.26484
326.6917, 46.79622
327.1739, 53.29118
327.6560, 64.58786
328.1381, 71.12267
328.6202, 67.65861
329.1023, 59.28202
329.5844, 52.93490
330.0666, 48.73223
330.5487, 45.27758
331.0308, 41.65299
331.5129, 38.79967
331.9950, 37.75275
332.4771, 38.59948
332.9593, 41.15456
333.4414, 45.81361
333.9235, 52.10183
334.4056, 59.66206
334.8877, 69.42159
335.3698, 77.32026
335.8520, 76.31993
336.3341, 66.52829
336.8162, 60.30880
337.2983, 61.85079
337.7804, 66.46341
338.2625, 71.37408
338.7447, 75.87805
339.2268, 77.20851
339.7089, 72.67143
340.1910, 63.10124
340.6731, 56.30684
341.1552, 51.93500
341.6374, 50.25105
342.1195, 52.13487
342.6016, 56.58746
343.0837, 63.37446
343.5658, 72.53971
344.0479, 80.70634
344.5301, 81.06750
345.0122, 67.36828
345.4943, 56.79432
345.9764, 48.28073
346.4585, 43.25972
346.9406, 43.81484
347.4228, 49.30137
347.9049, 56.60603
348.3870, 63.10490
348.8691, 68.82773
349.3512, 73.45270
349.8333, 78.22934
350.3155, 80.24834
350.7976, 78.59270
351.2797, 73.79013
351.7618, 65.38805
352.2439, 52.24626
352.7260, 39.13734
353.2082, 36.25707
353.6903, 46.27157
354.1724, 56.97770
354.6545, 67.20067
355.1366, 75.86845
355.6187, 81.79861
356.1009, 84.98151
356.5830, 86.75743
357.0651, 88.27937
357.5472, 89.30622
358.0293, 88.68845
358.5114, 86.03310
358.9936, 82.34296
359.4757, 77.06891
359.9578, 71.24626
360.4399, 67.74259
360.9220, 69.31447
361.4041, 72.01373
361.8863, 72.12428
362.3684, 69.86053
362.8505, 66.70547
363.3326, 62.82752
363.8147, 58.99622
364.2968, 57.03252
364.7790, 57.09354
365.2611, 58.19700
365.7432, 62.26734
366.2253, 66.30883
366.7074, 64.45793
367.1895, 55.94203
367.6717, 49.25830
368.1538, 55.10575
368.6359, 77.05067
369.1180, 86.36945
369.6001, 72.49300
370.0822, 58.50536
370.5644, 55.93383
371.0465, 60.98365
371.5286, 63.75930
372.0107, 58.48889
372.4928, 48.68184
372.9749, 45.40969
373.4571, 50.57765
373.9392, 59.71441
374.4213, 78.94773
374.9034, 97.04657
375.3855, 104.9087
375.8676, 101.3548
376.3498, 91.93533
376.8319, 79.44939
377.3140, 63.74669
377.7961, 56.28552
378.2782, 62.15278
378.7603, 69.90884
379.2425, 73.43703
379.7246, 74.78511
380.2067, 78.11691
380.6888, 86.47845
381.1709, 95.70441
381.6530, 99.28161
382.1352, 97.09457
382.6173, 95.50790
383.0994, 98.17941
383.5815, 101.1701
384.0636, 97.93761
384.5457, 87.09931
385.0279, 79.28599
385.5100, 82.06990
385.9921, 89.28484
386.4742, 90.65174
386.9563, 84.65739
387.4384, 78.69434
387.9206, 79.51665
388.4027, 86.97661
388.8848, 91.15412
389.3669, 90.21192
389.8490, 88.24036
390.3311, 85.90005
390.8133, 83.86055
391.2954, 83.61552
391.7775, 85.83705
392.2596, 88.83560
392.7417, 88.97919
393.2238, 82.88445
393.7060, 80.66887
394.1881, 85.60453
394.6702, 91.19557
395.1523, 94.03826
395.6344, 93.85679
396.1165, 91.33581
396.5987, 85.90293
397.0808, 78.76941
397.5629, 78.48447
398.0450, 90.78838
398.5271, 99.57442
399.0092, 98.89246
399.4914, 93.09872
399.9735, 84.92962
400.4556, 74.45821
400.9377, 67.73470
401.4198, 74.70787
401.9019, 93.19628
402.3841, 103.6401
402.8662, 99.56374
403.3483, 92.49374
403.8304, 93.77277
404.3125, 101.4974
404.7946, 107.2477
405.2768, 108.0917
405.7589, 106.6890
406.2410, 104.8805
406.7231, 102.8465
407.2052, 101.3853
407.6873, 101.2665
408.1695, 101.4090
408.6516, 98.63143
409.1337, 89.95337
409.6158, 84.00065
410.0979, 82.53912
410.5800, 83.78000
411.0622, 87.65083
411.5443, 93.24236
412.0264, 96.80413
412.5085, 94.03494
412.9906, 84.81373
413.4727, 81.32388
413.9549, 91.95236
414.4370, 99.11781
414.9191, 95.23362
415.4012, 87.51241
415.8833, 86.46307
416.3654, 95.97092
416.8476, 107.5362
417.3297, 108.0052
417.8118, 96.04010
418.2939, 86.35347
418.7760, 79.97913
419.2581, 77.48644
419.7403, 80.42452
420.2224, 87.47298
420.7045, 93.93875
421.1866, 99.92235
421.6687, 102.9574
422.1508, 96.32459
422.6330, 80.46349
423.1151, 70.78954
423.5972, 76.53548
424.0793, 90.60500
424.5614, 97.85213
425.0435, 96.14878
425.5257, 95.21410
426.0078, 98.97630
426.4899, 103.9551
426.9720, 105.6511
427.4541, 103.9161
427.9362, 102.5831
428.4184, 105.0317
428.9005, 111.1453
429.3826, 116.7924
429.8647, 123.5535
430.3468, 127.9644
430.8289, 129.3721
431.3111, 128.0461
431.7932, 122.9014
432.2753, 114.0211
432.7574, 105.6375
433.2395, 105.1105
433.7216, 114.3161
434.2038, 116.2459
434.6859, 100.4559
435.1680, 89.20985
435.6501, 97.87110
436.1322, 118.5091
436.6143, 133.5452
437.0965, 133.5452
437.5786, 127.8790
438.0607, 128.4801
438.5428, 134.9302
439.0249, 140.3598
439.5070, 142.1817
439.9892, 142.5211
440.4713, 145.7439
440.9534, 152.6858
441.4355, 153.9750
441.9176, 140.7647
442.3997, 125.9278
442.8819, 121.9522
443.3640, 127.8628
443.8461, 134.9710
444.3282, 137.9048
444.8103, 137.6584
445.2924, 138.2751
445.7746, 142.9729
446.2567, 144.1631
446.7388, 136.6243
447.2209, 128.7746
447.7030, 129.2945
448.1852, 137.9971
448.6673, 146.5615
449.1494, 146.7064
449.6315, 139.3793
450.1136, 134.6055
450.5957, 132.4010
451.0779, 132.9009
451.5600, 139.9095
452.0421, 147.8651
452.5242, 148.9827
453.0063, 140.1993
453.4884, 131.9066
453.9706, 135.2560
454.4527, 146.0140
454.9348, 149.7813
455.4169, 143.0059
455.8990, 134.4883
456.3811, 132.0274
456.8633, 135.3905
457.3454, 137.2125
457.8275, 137.2734
458.3096, 135.9272
458.7917, 130.7505
459.2738, 124.8441
459.7560, 124.9128
460.2381, 133.1653
460.7202, 143.3540
461.2023, 145.8213
461.6844, 138.2433
462.1665, 131.1320
462.6487, 120.5386
463.1308, 114.4121
463.6129, 121.3594
464.0950, 134.2354
464.5771, 138.6796
465.0592, 126.4287
465.5414, 107.4955
466.0235, 99.50524
466.5056, 103.4814
466.9877, 106.0191
467.4698, 103.1666
467.9519, 99.26942
468.4341, 97.42946
468.9162, 97.68633
469.3983, 100.7553
469.8804, 112.8270
470.3625, 123.5468
470.8446, 119.0907
471.3268, 102.5283
471.8089, 90.03082
472.2910, 89.36446
472.7731, 96.28603
473.2552, 102.3347
473.7373, 110.6950
474.2195, 111.2789
474.7016, 92.92599
475.1837, 75.97214
475.6658, 77.21223
476.1479, 92.66044
476.6300, 106.8999
477.1122, 109.9147
477.5943, 104.2769
478.0764, 96.87838
478.5585, 84.43672
479.0406, 78.83871
479.5227, 92.34703
480.0049, 106.6684
480.4870, 107.2359
480.9691, 94.61408
481.4512, 83.23757
481.9333, 82.68140
482.4154, 88.25623
482.8976, 93.02721
483.3797, 96.79297
483.8618, 97.86217
484.3439, 94.04118
484.8260, 88.12317
485.3081, 87.99421
485.7903, 98.46218
486.2724, 102.1571
486.7545, 87.29806
487.2366, 70.45062
487.7187, 68.09568
488.2008, 79.17672
488.6830, 90.82230
489.1651, 93.55627
489.6472, 89.15657
490.1293, 85.70625
490.6114, 82.25924
491.0935, 81.64799
491.5757, 88.53793
492.0578, 94.99146
492.5399, 93.45457
493.0220, 84.23357
493.5041, 75.73441
493.9862, 74.88994
494.4684, 78.99268
494.9505, 81.72694
495.4326, 83.10362
495.9147, 82.56974
496.3968, 78.92590
496.8789, 73.81266
497.3611, 70.57224
497.8432, 69.59550
498.3253, 69.03442
498.8074, 67.67340
499.2895, 66.95962
499.7716, 69.25713
500.2538, 74.00527
500.7359, 77.92860
501.2180, 78.69877
501.7001, 76.84254
502.1822, 74.50666
502.6643, 69.81625
503.1465, 67.90410
503.6286, 71.86272
504.1107, 76.46220
504.5928, 77.91012
505.0749, 76.11261
505.5570, 73.20987
506.0392, 70.45373
506.5213, 67.76119
507.0034, 64.00243
507.4855, 58.69815
507.9676, 57.33728
508.4497, 65.39458
508.9319, 75.79676
509.4140, 75.89936
509.8961, 63.52279
510.3782, 54.63907
510.8603, 54.53199
511.3424, 58.68573
511.8246, 65.74335
512.3067, 73.78041
512.7888, 76.75854
513.2709, 70.58543
513.7531, 59.33383
514.2352, 55.48949
514.7173, 66.54982
515.1994, 70.28537
515.6815, 58.93547
516.1636, 46.65411
516.6458, 41.87250
517.1279, 43.56154
517.6100, 45.83980
518.0921, 44.74033
518.5742, 43.14260
519.0563, 47.53064
519.5385, 57.91427
520.0206, 63.79542
520.5027, 53.36473
520.9848, 61.15448
521.4669, 65.76339
521.9490, 67.36230
522.4312, 56.93641
522.9133, 62.03819
523.3954, 60.91707
523.8775, 59.54086
524.3596, 66.82813
524.8417, 58.15109
525.3239, 65.30112
525.8060, 53.17895
526.2881, 48.04726
526.7702, 50.81333
527.2523, 53.61131
527.7344, 59.75248
528.2166, 62.35320
528.6987, 54.74638
529.1808, 42.75212
529.6629, 37.32133
530.1450, 43.74188
530.6271, 52.81749
531.1093, 53.73541
531.5914, 48.73383
532.0735, 48.24524
532.5556, 55.22469
533.0377, 61.88960
533.5198, 59.78420
534.0020, 50.04872
534.4841, 48.95003
534.9662, 66.89192
535.4483, 80.58105
535.9304, 80.79654
536.4125, 73.88777
536.8947, 65.98251
537.3768, 59.14123
537.8589, 54.92913
538.3410, 56.13260
538.8231, 61.92217
539.3052, 60.09264
539.7874, 44.53032
540.2695, 33.27501
540.7516, 34.17987
541.2337, 41.01099
541.7158, 50.67680
542.1979, 62.96527
542.6801, 69.05890
543.1622, 57.95604
543.6443, 40.66691
544.1264, 33.25356
544.6085, 36.04980
545.0906, 42.68278
545.5728, 50.70527
546.0549, 58.34850
546.5370, 61.00958
547.0191, 54.01823
547.5012, 50.11972
547.9833, 51.33478
548.4655, 53.73130
548.9476, 55.29830
549.4297, 56.08067
549.9117, 56.70951
550.3939, 57.42166
550.8760, 58.52476
551.3581, 62.14560
551.8402, 68.54749
552.3223, 67.62696
552.8044, 52.26711
553.2866, 37.64386
553.7687, 41.05573
554.2508, 57.35445
554.7329, 67.72002
555.2150, 64.35561
555.6971, 59.74935
556.1793, 61.32712
556.6614, 65.56595
557.1435, 66.16355
557.6256, 61.83035
558.1077, 56.89962
558.5898, 56.19542
559.0720, 59.62218
559.5541, 60.18871
560.0362, 53.62519
560.5183, 50.81088
561.0004, 58.84834
561.4825, 68.57444
561.9647, 70.54711
562.4468, 63.66137
562.9289, 55.67824
563.4110, 50.11377
563.8931, 47.43633
564.3752, 49.93876
564.8574, 57.26656
565.3395, 63.53886
565.8216, 66.32494
566.3037, 65.70261
566.7858, 61.26920
567.2679, 49.35865
567.7501, 42.55970
568.2322, 44.05577
568.7143, 47.56187
569.1964, 52.05763
569.6785, 55.56953
570.1606, 53.65324
570.6428, 43.87693
571.1249, 33.93401
571.6070, 37.62993
572.0891, 54.51237
572.5712, 64.08845
573.0533, 62.79783
573.5355, 57.31136
574.0176, 49.68328
574.4997, 41.46524
574.9818, 36.84975
575.4639, 36.97574
575.9460, 39.19809
576.4282, 43.27801
576.9103, 48.46796
577.3924, 55.65132
577.8745, 63.76889
578.3566, 67.37113
578.8387, 61.39570
579.3209, 49.43659
579.8030, 46.76166
580.2851, 58.30948
580.7672, 67.24287
581.2493, 69.61142
581.7314, 69.43114
582.2136, 68.83733
582.6957, 67.74332
583.1778, 65.17104
583.6599, 58.76584
584.1420, 52.71627
584.6241, 50.45219
585.1063, 51.78493
585.5884, 58.12234
586.0705, 70.20605
586.5526, 79.81709
587.0347, 76.78552
587.5168, 60.38509
587.9990, 51.24661
588.4811, 57.05033
588.9632, 60.95362
589.4453, 56.87349
589.9274, 51.58676
590.4095, 52.26754
590.8917, 59.61882
591.3738, 68.31700
591.8559, 75.93152
592.3380, 81.53563
592.8201, 81.10559
593.3022, 74.68516
593.7844, 72.43507
594.2665, 79.78172
594.7486, 90.31430
595.2307, 94.01986
595.7128, 88.63670
596.1949, 86.13371
596.6771, 89.81873
597.1592, 93.05502
597.6413, 92.17010
598.1234, 89.03928
598.6055, 86.97359
599.0876, 86.96582
599.5698, 86.81100
600.0519, 82.97624
600.5340, 76.15603
601.0161, 72.49723
601.4982, 72.24329
601.9803, 74.94913
602.4625, 83.25944
602.9446, 92.68654
603.4267, 94.08931
603.9088, 84.63699
604.3909, 79.68745
604.8730, 86.28741
605.3552, 95.75089
605.8373, 103.2879
606.3194, 107.9881
606.8015, 108.7004
607.2836, 104.8466
607.7657, 99.24677
608.2479, 96.56322
608.7300, 97.16804
609.2121, 97.31253
609.6942, 96.79917
610.1763, 95.98412
610.6584, 96.13441
611.1406, 95.72787
611.6227, 91.09822
612.1048, 79.21426
612.5869, 72.57822
613.0690, 82.02696
613.5511, 96.19645
614.0333, 101.5495
614.5154, 98.79760
614.9975, 96.30385
615.4796, 98.78442
615.9617, 103.8147
616.4438, 106.6432
616.9260, 107.7519
617.4081, 104.4848
617.8902, 89.21307
618.3723, 78.60232
618.8544, 85.16196
619.3365, 100.2504
619.8187, 107.9045
620.3008, 102.4277
620.7829, 95.89198
621.2650, 97.13822
621.7471, 101.5424
622.2292, 101.9999
622.7114, 98.08233
623.1935, 92.62234
623.6756, 86.95057
624.1577, 82.13598
624.6398, 81.23998
625.1219, 85.95328
625.6041, 90.59631
626.0862, 98.46135
626.5683, 102.7316
627.0504, 96.55569
627.5325, 85.35230
628.0146, 80.38235
628.4968, 86.91201
628.9789, 93.96906
629.4610, 92.12847
629.9431, 85.13230
630.4252, 79.69384
630.9073, 76.63828
631.3895, 74.53846
631.8716, 72.42500
632.3537, 70.76633
632.8358, 71.42737
633.3179, 78.29787
633.8000, 79.57022
634.2822, 67.64722
634.7643, 57.57878
635.2464, 59.86691
635.7285, 68.73758
636.2106, 71.41849
636.6927, 61.88487
637.1749, 51.50298
637.6570, 52.71990
638.1391, 59.33755
638.6212, 55.48830
639.1033, 40.29207
639.5854, 30.56507
640.0676, 38.37896
640.5497, 56.74184
641.0318, 64.43359
641.5139, 53.04457
641.9960, 47.29298
642.4781, 49.60619
642.9603, 54.94975
643.4424, 63.66986
643.9245, 73.13292
644.4066, 78.83360
644.8887, 79.11614
645.3708, 76.29138
645.8530, 68.66818
646.3351, 60.37444
646.8172, 62.17340
647.2993, 74.23867
647.7814, 84.00261
648.2635, 84.17034
648.7457, 77.04089
649.2278, 67.56034
649.7099, 50.19524
650.1920, 42.89654
650.6741, 57.82947
651.1563, 69.74340
651.6384, 63.84870
652.1205, 49.40136
652.6026, 43.14495
653.0847, 50.70119
653.5668, 59.88329
654.0490, 61.19633
654.5311, 58.30597
655.0132, 58.19887
655.4953, 60.80439
655.9774, 60.10063
656.4595, 52.14299
656.9417, 42.83400
657.4238, 45.32275
657.9059, 66.25031
658.3880, 77.25712
658.8701, 69.47332
659.3522, 61.49261
659.8344, 59.54643
660.3165, 61.00779
660.7986, 62.43894
661.2807, 63.18755
661.7628, 63.25304
662.2449, 62.02198
662.7271, 60.48341
663.2092, 61.54734
663.6913, 63.88378
664.1734, 60.02572
664.6555, 46.37882
665.1376, 31.93483
665.6198, 31.54128
666.1019, 47.59018
666.5840, 57.94938
667.0661, 58.88902
667.5482, 59.56068
668.0303, 64.57761
668.5125, 69.76052
668.9946, 69.71873
669.4767, 63.97256
669.9588, 60.09737
670.4409, 64.78158
670.9230, 69.82063
671.4052, 65.67567
671.8873, 56.21145
672.3694, 51.11591
672.8515, 53.36012
673.3336, 59.33390
673.8157, 65.96524
674.2979, 72.88935
674.7800, 74.40684
675.2621, 68.54556
675.7442, 62.30626
676.2263, 57.35636
676.7084, 52.97440
677.1906, 48.07555
677.6727, 42.87987
678.1548, 39.44894
678.6369, 39.15989
679.1190, 39.76940
679.6011, 39.14980
680.0833, 39.11441
680.5654, 43.82182
681.0475, 52.81466
681.5296, 59.39748
682.0117, 57.52443
682.4938, 50.83799
682.9760, 51.46598
683.4581, 60.80944
683.9402, 64.79445
684.4223, 59.40620
684.9044, 50.47396
685.3865, 38.95331
685.8687, 27.32770
686.3508, 27.11111
686.8329, 54.01867
687.3150, 69.71630
687.7971, 47.59667
688.2792, 54.58376
688.7614, 58.38989
689.2435, 59.18616
689.7256, 47.95746
690.2077, 52.25652
690.6898, 50.33275
691.1719, 48.15384
691.6541, 54.63830
692.1362, 45.15857
692.6183, 51.50575
693.1004, 51.53510
693.5825, 54.45594
694.0646, 51.11555
694.5468, 49.70897
695.0289, 54.56576
695.5110, 55.95449
695.9931, 51.89330
696.4752, 54.99794
696.9573, 45.29953
697.4395, 46.83590
697.9216, 53.21973
698.4037, 49.47335
698.8858, 52.69247
699.3679, 53.25875
699.8500, 34.04469
700.3322, 31.58303
700.8143, 38.18077
701.2964, 46.87152
701.7785, 55.36472
702.2606, 61.73394
702.7427, 62.86623
703.2249, 58.49677
703.7070, 57.85708
704.1891, 64.01955
704.6712, 68.74830
705.1533, 69.38860
705.6354, 68.44086
706.1176, 68.09930
706.5997, 68.17706
707.0818, 66.67128
707.5639, 60.66692
708.0460, 55.29230
708.5281, 53.99868
709.0103, 55.33478
709.4924, 58.05252
709.9745, 61.38828
710.4566, 63.19772
710.9387, 61.57779
711.4208, 58.38586
711.9030, 58.83555
712.3851, 63.38044
712.8672, 66.85135
713.3493, 69.62318
713.8314, 68.64178
714.3135, 58.29435
714.7957, 43.30206
715.2778, 38.42010
715.7599, 47.84250
716.2420, 57.78108
716.7241, 71.70535
717.2062, 80.45592
717.6884, 73.88512
718.1705, 58.93569
718.6526, 47.60061
719.1347, 43.96442
719.6168, 46.77970
720.0989, 62.42894
720.5811, 81.61120
721.0632, 76.31178
721.5453, 48.33425
722.0274, 30.36904
722.5095, 35.95303
722.9916, 51.58089
723.4738, 59.83635
723.9559, 60.26481
724.4380, 60.81554
724.9201, 63.84830
725.4022, 63.37799
725.8843, 53.36133
726.3665, 43.48320
726.8486, 44.02870
727.3307, 53.02500
727.8128, 56.77270
728.2949, 44.67469
728.7770, 33.48853
729.2592, 35.26725
729.7413, 44.21615
730.2234, 53.64790
730.7055, 61.78594
731.1876, 67.54485
731.6697, 70.27167
732.1519, 69.96829
732.6340, 64.96259
733.1161, 54.96628
733.5982, 51.27649
734.0803, 57.45883
734.5624, 61.81854
735.0446, 56.42913
735.5267, 45.60588
736.0088, 38.68949
736.4909, 35.39634
736.9730, 36.54575
737.4551, 46.89841
737.9373, 56.52210
738.4194, 63.42277
738.9015, 65.68299
739.3836, 57.73141
739.8657, 40.01252
740.3478, 27.17953
740.8300, 35.06694
741.3121, 50.43537
741.7942, 53.16034
742.2763, 47.04783
742.7584, 46.97282
743.2405, 56.55659
743.7227, 64.04401
744.2048, 57.73483
744.6869, 41.27317
745.1690, 34.50000
745.6511, 40.77007
746.1332, 46.69370
746.6154, 51.67435
747.0975, 54.49649
747.5796, 50.78270
748.0617, 44.86057
748.5438, 47.71753
749.0259, 65.86697
749.5081, 79.30538
749.9902, 82.37933
750.4723, 78.68474
750.9544, 65.39557
751.4365, 48.76000
751.9186, 41.30987
752.4008, 47.00424
752.8829, 55.21941
753.3650, 55.12027
753.8471, 49.55082
754.3292, 45.36508
754.8113, 42.57766
755.2935, 40.14437
755.7756, 37.63208
756.2577, 36.07482
756.7398, 36.95677
757.2219, 40.04832
757.7040, 40.59206
758.1862, 33.45669
758.6683, 33.30632
759.1504, 54.22797
759.6325, 72.05663
760.1146, 66.65954
760.5967, 46.55979
761.0789, 37.71841
761.5610, 51.29035
762.0431, 63.13666
762.5252, 60.50433
763.0073, 53.36874
763.4894, 49.71958
763.9716, 49.89220
764.4537, 53.86707
764.9358, 61.44325
765.4179, 66.55877
765.9000, 58.85186
766.3821, 42.99736
766.8643, 36.36418
767.3464, 39.07713
767.8285, 45.04422
768.3106, 53.04111
768.7927, 60.27776
769.2748, 64.18610
769.7570, 64.66982
770.2391, 58.57822
770.7212, 34.41320
771.2033, 23.24721
771.6854, 41.45733
772.1675, 62.43814
772.6497, 69.22564
773.1318, 65.31585
773.6139, 62.31919
774.0960, 64.38969
774.5781, 63.54919
775.0602, 49.72111
775.5424, 36.57042
776.0245, 41.26063
776.5066, 56.95534
776.9887, 64.55525
777.4708, 57.19136
777.9529, 47.32104
778.4351, 50.19814
778.9172, 61.23862
779.3993, 64.87931
779.8814, 61.56266
780.3635, 62.37997
780.8456, 71.70117
781.3278, 79.68641
781.8099, 75.25460
782.2920, 60.21761
782.7741, 52.23722
783.2562, 54.01926
783.7383, 57.42859
784.2205, 65.52333
784.7026, 70.95987
785.1847, 67.59991
785.6668, 59.02083
786.1489, 52.96517
786.6310, 50.93950
787.1132, 49.95527
787.5953, 47.43320
788.0774, 47.07705
788.5595, 56.01917
789.0416, 67.66513
789.5237, 68.24498
790.0059, 55.17681
790.4880, 42.62732
790.9701, 45.52408
791.4522, 55.04430
791.9343, 51.96370
792.4164, 39.68818
792.8986, 36.11970
793.3807, 45.25715
793.8628, 55.04125
794.3449, 55.27708
794.8270, 49.46740
795.3091, 50.34685
795.7913, 60.24652
796.2734, 68.33681
796.7555, 75.70653
797.2376, 78.03922
797.7197, 68.11010
798.2018, 53.97256
798.6840, 51.52120
799.1661, 64.20907
799.6482, 70.06004
800.1303, 60.04840
800.6124, 50.06997
801.0945, 45.47653
801.5767, 45.26707
802.0588, 49.72427
802.5409, 57.50000
803.0230, 63.46076
803.5051, 65.03550
803.9872, 63.47948
804.4694, 57.50565
804.9515, 50.25517
805.4336, 48.45174
805.9157, 51.88657
806.3978, 55.22881
806.8799, 55.61325
807.3621, 54.09515
807.8442, 50.82706
808.3263, 46.14468
808.8084, 50.04558
809.2905, 64.95762
809.7726, 73.27452
810.2548, 67.03406
810.7369, 54.86696
811.2190, 45.11157
811.7011, 37.82185
812.1832, 39.47756
812.6653, 61.89721
813.1475, 75.64737
813.6296, 74.57523
814.1117, 67.53197
814.5938, 55.75802
815.0759, 42.95692
815.5580, 37.54109
816.0402, 43.37452
816.5223, 48.49537
817.0044, 46.11479
817.4865, 42.73297
817.9686, 43.67093
818.4507, 47.38100
818.9329, 50.22419
819.4150, 51.50451
819.8971, 54.28215
820.3792, 63.58824
820.8613, 73.13087
821.3434, 69.89742
821.8256, 57.56238
822.3077, 49.62297
822.7898, 48.45790
823.2719, 50.92904
823.7540, 55.63877
824.2361, 60.10176
824.7183, 58.01912
825.2004, 48.48537
825.6825, 39.01389
826.1646, 27.75977
826.6467, 22.47601
827.1288, 28.30633
827.6110, 39.41256
828.0931, 49.46454
828.5752, 58.76791
829.0573, 62.19257
829.5394, 59.42830
830.0215, 51.47359
830.5037, 26.77966
830.9858, 7.319970
831.4679, 15.69141
831.9500, 41.53489
832.4321, 55.40913
832.9142, 46.02362
833.3964, 37.15000
833.8785, 42.02895
834.3606, 51.57450
834.8427, 59.78378
835.3248, 65.63697
835.8069, 68.80882
836.2891, 69.02731
836.7712, 64.93211
837.2533, 52.21128
837.7354, 38.08797
838.2175, 37.35603
838.6996, 46.48132
839.1818, 52.80394
839.6639, 54.13076
840.1460, 51.40013
840.6281, 44.67498
841.1102, 36.72514
841.5923, 32.74119
842.0745, 32.62894
842.5566, 38.91699
843.0387, 54.86042
843.5208, 65.80356
844.0029, 65.13593
844.4850, 59.23368
844.9672, 54.69190
845.4493, 51.50623
845.9314, 44.47728
846.4135, 51.63148
846.8956, 55.60483
847.3777, 56.56825
847.8599, 45.50663
848.3420, 49.97285
848.8241, 48.21622
849.3062, 46.20442
849.7883, 52.85609
850.2704, 43.54353
850.7526, 50.05779
851.2347, 50.25429
851.7168, 53.34228
852.1989, 50.16900
852.6810, 48.92963
853.1631, 53.95355
853.6453, 55.50940
854.1274, 51.61536
854.6095, 54.88715
855.0916, 45.35585
855.5737, 47.05944
856.0558, 53.61040
856.5380, 50.03114
857.0201, 40.73231
857.5022, 44.82419
857.9843, 51.63704
858.4664, 48.73206
858.9485, 39.28613
859.4307, 41.56723
859.9128, 55.69202
860.3949, 64.54389
860.8770, 63.72689
861.3591, 57.96809
861.8412, 50.03948
862.3234, 41.45897
862.8055, 37.67825
863.2876, 40.03085
863.7697, 43.08883
864.2518, 47.88837
864.7339, 51.36073
865.2161, 52.31289
865.6982, 51.22248
866.1803, 47.42905
866.6624, 40.74797
867.1445, 38.47270
867.6266, 47.03726
868.1088, 51.47638
868.5909, 41.36094
869.0730, 32.97007
869.5551, 41.65877
870.0372, 60.53984
870.5193, 73.09830
871.0015, 75.26314
871.4836, 72.30479
871.9657, 61.49585
872.4478, 51.54825
872.9299, 51.28082
873.4120, 55.18875
873.8942, 54.24939
874.3763, 47.61404
874.8584, 40.66731
875.3405, 35.39194
875.8226, 34.17303
876.3047, 43.52072
876.7869, 57.31806
877.2690, 64.24436
877.7511, 63.77048
878.2332, 57.31697
878.7153, 45.75746
879.1974, 36.29916
879.6796, 38.80791
880.1617, 49.52184
880.6438, 54.43039
881.1259, 53.84587
881.6080, 53.46770
882.0901, 54.49238
882.5723, 55.02312
883.0544, 53.65059
883.5365, 51.09795
884.0186, 48.81059
884.5007, 46.43959
884.9828, 47.37609
885.4650, 54.98191
885.9471, 55.20694
886.4292, 36.71346
886.9113, 18.77778
887.3934, 25.71622
887.8755, 54.29943
888.3577, 67.67577
888.8398, 56.57445
889.3219, 45.19373
889.8040, 28.71516
890.2861, 18.62687
890.7682, 25.55980
891.2504, 39.73743
891.7325, 45.51817
892.2146, 40.84508
892.6967, 40.69119
893.1788, 56.26602
893.6609, 66.61526
894.1431, 56.06479
894.6252, 43.06251
895.1073, 48.73618
895.5894, 66.51352
896.0715, 73.68202
896.5536, 61.12838
897.0358, 47.06519
897.5179, 39.74825
898.0000, 37.96350
898.4821, 44.78338
898.9642, 54.58847
899.4464, 57.68042
899.9285, 53.00477
900.4106, 46.39469
900.8927, 40.01906
901.3748, 37.21655
901.8569, 46.03103
902.3391, 59.60922
902.8212, 63.12482
903.3033, 58.06191
903.7854, 56.39352
904.2675, 62.30370
904.7496, 67.54825
905.2318, 62.44972
905.7139, 51.24106
906.1960, 44.70173
906.6781, 42.68882
907.1602, 45.63557
907.6423, 53.54358
908.1245, 60.14145
908.6066, 61.75524
909.0887, 60.38805
909.5708, 59.28987
910.0529, 58.45320
910.5350, 57.40430
911.0172, 56.12815
911.4993, 54.89706
911.9814, 54.10407
912.4635, 52.19620
912.9456, 47.36774
913.4277, 40.87411
913.9099, 36.69371
914.3920, 34.12789
914.8741, 36.79887
915.3562, 50.16271
915.8383, 58.06311
916.3204, 50.61401
916.8026, 39.22470
917.2847, 36.09917
917.7668, 40.75253
918.2489, 46.32718
918.7310, 55.95231
919.2131, 61.70025
919.6953, 62.27587
920.1774, 59.95251
920.6595, 51.72804
921.1416, 43.33526
921.6237, 44.60629
922.1058, 56.54479
922.5880, 63.43473
923.0701, 54.75713
923.5522, 50.74255
924.0343, 66.60337
924.5164, 81.53508
924.9985, 74.77499
925.4807, 55.26588
925.9628, 44.68429
926.4449, 48.77422
926.9270, 54.09347
927.4091, 58.09685
927.8912, 57.63293
928.3734, 45.19615
928.8555, 30.72058
929.3376, 26.83828
929.8197, 32.71634
930.3018, 40.57854
930.7839, 48.27726
931.2661, 51.44759
931.7482, 38.85191
932.2303, 26.76628
932.7124, 39.87186
933.1945, 64.47987
933.6766, 71.08125
934.1588, 56.88650
934.6409, 43.54095
935.1230, 44.84129
935.6051, 51.62104
936.0872, 54.05055
936.5693, 53.80961
937.0515, 53.19342
937.5336, 52.77541
938.0157, 53.81111
938.4978, 56.56241
938.9799, 59.71035
939.4620, 62.49061
939.9442, 64.27371
940.4263, 62.25170
940.9084, 58.28745
941.3905, 62.05597
941.8726, 72.43922
942.3547, 72.20242
942.8369, 53.90075
943.3190, 33.15366
943.8011, 28.86577
944.2832, 36.04072
944.7653, 35.35546
945.2474, 28.02091
945.7296, 31.43654
946.2117, 48.35012
946.6938, 62.44154
947.1759, 64.84552
947.6580, 59.10009
948.1401, 48.22599
948.6223, 33.61302
949.1044, 33.92562
949.5865, 50.95295
950.0686, 61.61495
950.5507, 60.39378
951.0328, 57.02337
951.5150, 57.85026
951.9971, 60.85595
952.4792, 62.09526
952.9613, 61.59789
953.4434, 58.05430
953.9255, 49.67528
954.4077, 45.43788
954.8898, 48.56736
955.3719, 54.15081
955.8540, 59.20007
956.3361, 63.06726
956.8182, 63.86609
957.3004, 61.23262
957.7825, 56.13109
958.2646, 44.45805
958.7467, 40.16235
959.2288, 52.30646
959.7109, 66.13024
960.1931, 66.89041
960.6752, 58.13253
961.1573, 55.95993
961.6394, 64.48930
962.1215, 70.45674
962.6036, 77.39594
963.0858, 75.97860
963.5679, 53.63313
964.0500, 30.04145
964.5321, 27.48282
965.0142, 43.23034
965.4963, 55.36933
965.9785, 63.91453
966.4606, 68.86274
966.9427, 66.13630
967.4248, 64.70809
967.9069, 69.27851
968.3890, 75.97206
968.8712, 82.47952
969.3533, 88.15067
969.8354, 86.17394
970.3175, 60.61689
970.7996, 50.92583
971.2817, 77.03988
971.7639, 101.7478
972.2460, 103.7898
972.7281, 96.05536
973.2102, 95.99152
973.6923, 104.2178
974.1744, 109.7737
974.6566, 107.6337
975.1387, 107.5706
975.6208, 111.1532
976.1029, 117.6629
976.5850, 128.3212
977.0671, 140.7741
977.5493, 152.0577
978.0314, 161.7987
978.5135, 169.9200
978.9956, 174.8745
979.4777, 180.2773
979.9598, 185.4959
980.4420, 193.1699
980.9241, 208.8304
981.4062, 226.5420
981.8883, 235.8736
982.3704, 235.4826
982.8525, 235.6402
983.3347, 242.3778
983.8168, 246.0966
984.2989, 243.0065
984.7810, 235.9207
985.2631, 222.4031
985.7452, 208.3012
986.2274, 204.4514
986.7095, 212.7186
987.1916, 221.0183
987.6737, 225.9453
988.1558, 229.0651
988.6379, 231.0967
989.1201, 231.5238
989.6022, 228.8432
990.0843, 224.6097
990.5664, 219.9438
991.0485, 215.1404
991.5306, 218.2453
992.0128, 243.5713
992.4949, 263.3371
992.9770, 258.5532
993.4591, 247.5979
993.9412, 246.8106
994.4233, 252.7655
994.9055, 255.4362
995.3876, 252.5750
995.8697, 250.4518
996.3518, 255.7731
996.8339, 257.4031
997.3160, 247.0942
997.7982, 232.7835
998.2803, 220.9946
998.7624, 211.2930
999.2445, 201.1981
999.7266, 190.0966
1000.209, 180.1433
1000.691, 173.4670
1001.173, 166.6947
1001.655, 156.6859
1002.137, 146.9673
1002.619, 141.5951
1003.101, 138.8666
1003.584, 135.6136
1004.066, 131.0885
1004.548, 122.9209
1005.030, 105.0734
1005.512, 89.66396
1005.994, 84.29346
1006.476, 83.06224
1006.958, 82.51364
1007.440, 81.23449
1007.923, 76.58781
1008.405, 68.13152
1008.887, 62.63310
1009.369, 63.33997
1009.851, 67.13188
1010.333, 77.22352
1010.815, 85.44844
1011.297, 81.61606
1011.780, 71.69585
1012.262, 69.47859
1012.744, 77.35135
1013.226, 79.31960
1013.708, 61.00414
1014.190, 46.16125
1014.672, 47.16053
1015.154, 54.04612
1015.636, 62.40598
1016.119, 69.10001
1016.601, 67.55305
1017.083, 57.39952
1017.565, 54.80228
1018.047, 78.33604
1018.529, 92.73801
1019.011, 70.95495
1019.493, 48.90219
1019.976, 62.92548
1020.458, 90.14037
1020.940, 88.33009
1021.422, 53.86797
1021.904, 27.23027
1022.386, 21.48326
1022.868, 23.90061
1023.350, 33.80077
1023.832, 47.39544
1024.315, 69.49040
1024.797, 89.61838
1025.279, 89.52021
1025.761, 69.84675
1026.243, 56.83598
1026.725, 60.11530
1027.207, 64.98425
1027.689, 73.42220
1028.172, 76.71514
1028.654, 63.19545
1029.136, 46.27279
1029.618, 44.79149
1030.100, 57.72898
1030.582, 66.01361
1031.064, 66.10242
1031.546, 62.76176
1032.028, 52.71389
1032.511, 44.12910
1032.993, 38.93029
1033.475, 38.18714
1033.957, 47.30430
1034.439, 63.07742
1034.921, 66.63724
1035.403, 45.67391
1035.885, 35.05216
1036.368, 44.50925
1036.850, 54.66650
1037.332, 60.74039
1037.814, 63.57708
1038.296, 62.16527
1038.778, 58.06946
1039.260, 57.13578
1039.742, 59.01064
1040.224, 65.27171
1040.707, 83.79384
1041.189, 93.99355
1041.671, 86.78846
1042.153, 74.27619
1042.635, 62.80275
1043.117, 54.23257
1043.599, 54.71223
1044.081, 67.64939
1044.563, 72.98634
1045.046, 68.67590
1045.528, 60.54196
1046.010, 44.92482
1046.492, 35.70085
1046.974, 45.56704
1047.456, 63.55911
1047.938, 67.00613
1048.420, 54.82267
1048.902, 50.99454
1049.385, 58.91185
1049.867, 60.80636
1050.349, 51.07514
1050.831, 45.19733
1051.313, 53.73626
1051.795, 65.31695
1052.277, 61.75569
1052.759, 45.20847
1053.242, 38.95826
1053.724, 44.15142
1054.206, 45.92484
1054.688, 41.85871
1055.170, 42.02442
1055.652, 51.94742
1056.134, 60.73814
1056.616, 54.31005
1057.099, 39.12904
1057.581, 41.03697
1058.063, 58.26309
1058.545, 66.39018
1059.027, 63.81828
1059.509, 57.63599
1059.991, 50.27160
1060.473, 46.90278
1060.955, 53.04285
1061.438, 62.80938
1061.920, 64.67908
1062.402, 60.04718
1062.884, 51.26270
1063.366, 40.63861
1063.848, 40.48671
1064.330, 52.11216
1064.812, 59.13360
1065.294, 49.90794
1065.777, 38.39819
1066.259, 46.00409
1066.741, 62.58088
1067.223, 69.72884
1067.705, 69.51045
1068.187, 68.55757
1068.669, 67.26192
1069.151, 60.04348
1069.634, 44.11786
1070.116, 31.58627
1070.598, 38.09293
1071.080, 49.00427
1071.562, 46.91798
1072.044, 39.29856
1072.526, 34.94367
1073.008, 35.64618
1073.490, 44.55396
1073.973, 61.76260
1074.455, 74.08280
1074.937, 69.39706
1075.419, 62.95523
1075.901, 67.40574
1076.383, 71.89666
1076.865, 62.27242
1077.347, 47.63219
1077.829, 45.39188
1078.312, 56.53911
1078.794, 65.37323
1079.276, 66.76879
1079.758, 65.31808
1080.240, 55.63131
1080.722, 51.47380
1081.204, 66.48047
1081.686, 86.49385
1082.169, 96.73744
1082.651, 97.60236
1083.133, 95.04818
1083.615, 89.66901
1084.097, 80.99551
1084.579, 60.56450
1085.061, 48.50304
1085.543, 56.16047
1086.026, 67.24222
1086.508, 70.57503
1086.990, 69.46661
1087.472, 71.11652
1087.954, 76.10232
1088.436, 78.60926
1088.918, 79.53069
1089.400, 74.63835
1089.882, 59.53145
1090.365, 48.47588
1090.847, 49.93631
1091.329, 56.07417
1091.811, 55.86022
1092.293, 51.21359
1092.775, 56.17277
1093.257, 71.98107
1093.739, 77.44626
1094.221, 70.24166
1094.704, 67.36884
1095.186, 75.34726
1095.668, 78.96635
1096.150, 62.95760
1096.632, 41.20310
1097.114, 46.96390
1097.596, 72.81956
1098.078, 86.76113
1098.561, 89.17336
1099.043, 84.99117
1099.525, 76.61739
1100.007, 72.06479
1100.489, 75.94282
1100.971, 81.19736
1101.453, 79.05107
1101.935, 73.77209
1102.417, 71.34653
1102.900, 70.97440
1103.382, 69.45710
1103.864, 68.72343
1104.346, 77.22034
1104.828, 96.34407
1105.310, 111.3520
1105.792, 111.9807
1106.274, 106.9378
1106.756, 100.2937
1107.239, 92.76865
1107.721, 81.13335
1108.203, 71.29937
1108.685, 73.85675
1109.167, 87.56130
1109.649, 99.67064
1110.131, 108.1327
1110.613, 110.8184
1111.096, 102.1282
1111.578, 93.96372
1112.060, 94.06888
1112.542, 94.21243
1113.024, 84.72917
1113.506, 70.30521
1113.988, 62.82060
1114.470, 62.59333
1114.953, 68.34093
1115.435, 86.43098
1115.917, 97.09637
1116.399, 94.63357
1116.881, 90.88741
1117.363, 91.27070
1117.845, 93.69722
1118.327, 95.54642
1118.809, 97.17503
1119.292, 101.1869
1119.774, 108.0540
1120.256, 111.4536
1120.738, 111.2066
1121.220, 102.6877
1121.702, 84.05638
1122.184, 68.54628
1122.666, 65.94258
1123.148, 70.63775
1123.631, 73.78139
1124.113, 76.20695
1124.595, 82.98855
1125.077, 91.16960
1125.559, 87.66270
1126.041, 74.22099
1126.523, 68.06869
1127.005, 75.75121
1127.488, 85.12295
1127.970, 87.20632
1128.452, 84.61201
1128.934, 77.60425
1129.416, 69.47996
1129.898, 66.46492
1130.380, 64.35479
1130.862, 50.25416
1131.344, 27.07778
1131.827, 19.69964
1132.309, 41.98302
1132.791, 64.76600
1133.273, 85.56448
1133.755, 92.90804
1134.237, 65.91160
1134.719, 37.18110
1135.201, 38.60095
1135.683, 59.41774
1136.166, 72.94632
1136.648, 77.27050
1137.130, 80.22318
1137.612, 81.69793
1138.094, 81.91750
1138.576, 80.23363
1139.058, 79.06297
1139.540, 80.88627
1140.023, 80.28830
1140.505, 70.33811
1140.987, 54.80544
1141.469, 46.14355
1141.951, 44.44636
1142.433, 48.83889
1142.915, 59.18077
1143.397, 68.54493
1143.880, 75.20708
1144.362, 73.48187
1144.844, 59.69144
1145.326, 43.83738
1145.808, 37.03138
1146.290, 38.04261
1146.772, 47.57969
1147.254, 61.69187
1147.736, 75.06073
1148.219, 84.85013
1148.701, 83.32468
1149.183, 70.63921
1149.665, 61.30773
1150.147, 65.64335
1150.629, 68.14229
1151.111, 52.12802
1151.593, 37.65475
1152.075, 42.91187
1152.558, 54.88329
1153.040, 58.78056
1153.522, 56.35738
1154.004, 56.09314
1154.486, 59.44052
1154.968, 62.84094
1155.450, 66.73555
1155.932, 69.32217
1156.415, 72.29506
1156.897, 70.98860
1157.379, 61.76553
1157.861, 49.16225
1158.343, 36.04554
1158.825, 24.95236
1159.307, 28.60393
1159.789, 49.84420
1160.271, 54.17801
1160.754, 40.17160
1161.236, 33.05551
1161.718, 38.17857
1162.200, 44.20425
1162.682, 44.90010
1163.164, 40.64796
1163.646, 28.76229
1164.128, 16.15863
1164.610, 18.27063
1165.093, 29.57533
1165.575, 39.98922
1166.057, 48.48212
1166.539, 56.57844
1167.021, 63.70926
1167.503, 64.66041
1167.985, 55.28425
1168.467, 46.48032
1168.950, 46.45825
1169.432, 47.32502
1169.914, 42.04904
1170.396, 36.98053
1170.878, 39.63618
1171.360, 46.66834
1171.842, 50.46379
1172.324, 50.18251
1172.807, 50.85775
1173.289, 55.43582
1173.771, 55.48499
1174.253, 46.78372
1174.735, 42.22034
1175.217, 49.01825
1175.699, 53.22381
1176.181, 40.27981
1176.663, 23.41289
1177.146, 36.30732
1177.628, 73.83167
1178.110, 76.71418
1178.592, 49.53718
1179.074, 40.30270
1179.556, 52.65326
1180.038, 59.54379
1180.520, 51.14215
1181.002, 39.44416
1181.485, 32.70873
1181.967, 31.38421
1182.449, 39.84357
1182.931, 50.63555
1183.413, 54.88455
1183.895, 55.03472
1184.377, 53.41148
1184.859, 52.19844
1185.342, 57.29343
1185.824, 70.85065
1186.306, 77.67696
1186.788, 70.19978
1187.270, 59.84758
1187.752, 42.47158
1188.234, 31.45938
1188.716, 39.80521
1189.198, 50.34561
1189.681, 43.50920
1190.163, 27.06727
1190.645, 27.85689
1191.127, 48.43537
1191.609, 58.42661
1192.091, 56.98554
1192.573, 55.34935
1193.055, 55.36103
1193.537, 56.53860
1194.020, 58.75808
1194.502, 54.11063
1194.984, 30.67631
1195.466, 6.488910
1195.948, 17.89272
1196.430, 45.10120
1196.912, 52.77086
1197.394, 48.11244
1197.877, 48.26693
1198.359, 54.63090
1198.841, 61.95550
1199.323, 68.83317
1199.805, 69.03649
1200.287, 53.41793
1200.769, 39.83182
1201.251, 34.86758
1201.734, 33.56152
1202.216, 32.52682
1202.698, 34.11587
1203.180, 43.60993
1203.662, 57.05805
1204.144, 60.20230
1204.626, 51.14633
1205.108, 46.06154
1205.590, 45.33022
1206.073, 46.56647
1206.555, 49.64367
1207.037, 51.26540
1207.519, 50.00971
1208.001, 45.95724
1208.483, 38.20153
1208.965, 30.80089
1209.447, 33.47784
1209.929, 39.57388
1210.412, 33.14788
1210.894, 22.15570
1211.376, 25.38878
1211.858, 40.23575
1212.340, 51.11922
1212.822, 53.41922
1213.304, 52.02379
1213.786, 42.58631
1214.269, 39.50227
1214.751, 55.07796
1215.233, 68.78345
1215.715, 67.65457
1216.197, 62.07020
1216.679, 62.02373
1217.161, 64.31380
1217.643, 60.69558
1218.125, 50.98066
1218.608, 44.50285
1219.090, 41.37152
1219.572, 40.68140
1220.054, 42.33696
1220.536, 44.77391
1221.018, 47.42975
1221.500, 50.28431
1221.982, 53.75206
1222.464, 54.82691
1222.947, 44.83525
1223.429, 34.26949
1223.911, 40.74413
1224.393, 54.11595
1224.875, 61.67488
1225.357, 62.26884
1225.839, 54.62592
1226.321, 40.22569
1226.804, 32.92602
1227.286, 40.18465
1227.768, 46.89327
1228.250, 52.78868
1228.732, 54.32170
1229.214, 49.38232
1229.696, 41.39734
1230.178, 30.00980
1230.661, 21.14312
1231.143, 23.92329
1231.625, 36.22925
1232.107, 50.39101
1232.589, 65.47422
1233.071, 73.29461
1233.553, 73.59216
1234.035, 64.29601
1234.517, 47.66987
1235.000, 38.23752
1235.482, 42.81572
1235.964, 50.06156
1236.446, 52.19055
1236.928, 51.50607
1237.410, 45.18251
1237.892, 41.54782
1238.374, 56.44281
1238.856, 71.94356
1239.339, 57.69306
1239.821, 23.25425
1240.303, 12.31982
1240.785, 30.44964
1241.267, 41.73998
1241.749, 43.85422
1242.231, 47.34716
1242.713, 54.31518
1243.196, 56.89631
1243.678, 51.74255
1244.160, 46.16069
1244.642, 45.66848
1245.124, 50.26718
##END=



