##NAMES=Kupletskite-(Cs)
##RRUFFID=R060929
##IDEAL CHEMISTRY=Cs^1+^_2_NaMn^2+^_7_Ti^4+^_2_(Si_4_O_12_)_2_O_2_(OH)_4_F
##LOCALITY=Dara-i-Pioz, Garm region, Tajikistan
##OWNER=RRUFF
##SOURCE=Michael Scott
##DESCRIPTION=Brownish yellow foliated sample associated with white quartz and dark aegirine.
##STATUS=The identification of this mineral has been confirmed only by single crystal X-ray diffraction.
##URL=rruff.info/R060929
154.3069, 130.1245
154.789, 130.5072
155.2712, 130.649
155.7533, 132.1307
156.2354, 133.9846
156.7175, 131.7545
157.1996, 115.6635
157.6817, 100.2217
158.1639, 94.8096
158.646, 112.7617
159.1281, 130.0423
159.6102, 140.7248
160.0923, 144.7731
160.5744, 144.3755
161.0566, 134.3733
161.5387, 122.3756
162.0208, 115.8479
162.5029, 121.3945
162.985, 129.548
163.4671, 136.8043
163.9493, 142.9759
164.4314, 146.9763
164.9135, 147.0881
165.3956, 144.8929
165.8777, 142.6754
166.3598, 142.2986
166.842, 141.7018
167.3241, 138.7968
167.8062, 132.5119
168.2883, 127.426
168.7704, 127.1222
169.2525, 130.2681
169.7346, 133.8975
170.2168, 136.9124
170.6989, 139.4468
171.181, 141.7884
171.6631, 144.3861
172.1452, 145.9561
172.6273, 145.0409
173.1095, 142.0515
173.5916, 138.485
174.0737, 135.5404
174.5558, 132.5159
175.0379, 127.9929
175.5201, 119.697
176.0022, 112.1452
176.4843, 111.5229
176.9664, 117.194
177.4485, 124.2424
177.9306, 128.3797
178.4128, 131.1438
178.8949, 136.2095
179.377, 147.8516
179.8591, 160.4333
180.3412, 164.7563
180.8233, 160.8182
181.3055, 152.8073
181.7876, 141.3203
182.2697, 128.1964
182.7518, 119.1741
183.2339, 117.1653
183.716, 120.7021
184.1982, 128.2756
184.6803, 140.6067
185.1624, 151.6643
185.6445, 154.3748
186.1266, 149.4832
186.6087, 141.7906
187.0908, 131.0427
187.573, 118.6829
188.0551, 110.9724
188.5372, 108.3437
189.0193, 109.1431
189.5014, 112.4157
189.9835, 118.0302
190.4657, 122.0966
190.9478, 121.2166
191.4299, 116.2843
191.912, 114.1189
192.3941, 115.4672
192.8762, 119.0795
193.3584, 123.5005
193.8405, 128.8295
194.3226, 132.99
194.8047, 134.0054
195.2868, 132.0176
195.7689, 130.9615
196.2511, 131.324
196.7332, 132.7409
197.2153, 134.3298
197.6974, 136.1044
198.1795, 138.0726
198.6616, 140.8292
199.1438, 144.5599
199.6259, 146.0975
200.108, 144.4778
200.5901, 140.5825
201.0722, 137.5815
201.5543, 135.571
202.0364, 134.002
202.5186, 133.0415
203.0007, 133.0525
203.4828, 130.4652
203.9649, 123.1342
204.447, 112.3998
204.9291, 107.6183
205.4113, 110.1998
205.8934, 115.1052
206.3755, 116.9089
206.8576, 114.1928
207.3397, 115.2294
207.8218, 123.8665
208.304, 139.2286
208.7861, 146.5655
209.2682, 143.4305
209.7503, 136.5101
210.2324, 132.9152
210.7145, 133.6799
211.1967, 134.5225
211.6788, 134.6577
212.1609, 134.1254
212.643, 131.8882
213.1251, 126.5056
213.6072, 121.3495
214.0894, 121.6132
214.5715, 130.3414
215.0536, 136.455
215.5357, 135.9604
216.0178, 127.855
216.4999, 121.2101
216.982, 115.7166
217.4642, 112.0052
217.9463, 111.1249
218.4284, 113.6608
218.9105, 117.7681
219.3926, 124.2571
219.8747, 135.1232
220.3569, 137.8931
220.839, 128.4219
221.3211, 113.7585
221.8032, 105.9944
222.2853, 108.1926
222.7674, 111.6088
223.2496, 112.6922
223.7317, 109.6573
224.2138, 110.8506
224.6959, 119.2947
225.178, 130.4176
225.6601, 134.9615
226.1423, 130.1639
226.6244, 123.3961
227.1065, 116.8818
227.5886, 108.7008
228.0707, 106.1395
228.5528, 113.2301
229.035, 124.6926
229.5171, 126.0477
229.9992, 109.2521
230.4813, 94.6876
230.9634, 92.6528
231.4455, 112.8065
231.9276, 123.341
232.4098, 119.4301
232.8919, 106.5077
233.374, 101.504
233.8561, 109.6
234.3382, 117.986
234.8203, 119.9849
235.3025, 110.1905
235.7846, 105.837
236.2667, 109.9672
236.7488, 119.7577
237.2309, 125.0482
237.713, 124.0626
238.1952, 120.9678
238.6773, 117.4676
239.1594, 112.0862
239.6415, 109.8157
240.1236, 113.6992
240.6057, 121.0858
241.0879, 119.822
241.57, 103.0478
242.0521, 86.757
242.5342, 80.2401
243.0163, 88.7741
243.4984, 96.0033
243.9806, 99.7639
244.4627, 101.2817
244.9448, 107.1766
245.4269, 122.2585
245.909, 135.463
246.3911, 139.7867
246.8732, 130.0426
247.3554, 122.1067
247.8375, 116.4028
248.3196, 113.2592
248.8017, 114.8995
249.2838, 123.9039
249.7659, 134.209
250.2481, 142.6649
250.7302, 150.3365
251.2123, 153.7046
251.6944, 151.2617
252.1765, 144.101
252.6586, 137.2764
253.1408, 128.4003
253.6229, 123.2338
254.105, 126.8857
254.5871, 145.6115
255.0692, 157.9901
255.5513, 160.5891
256.0334, 154.9893
256.5156, 150.3051
256.9977, 147.9962
257.4798, 144.396
257.9619, 135.6779
258.444, 116.7779
258.9261, 106.1483
259.4083, 108.4874
259.8904, 120.9733
260.3725, 127.4454
260.8546, 125.6892
261.3367, 121.5479
261.8188, 118.6752
262.301, 117.0918
262.7831, 116.6501
263.2652, 117.5302
263.7473, 119.5294
264.2294, 122.0416
264.7115, 125.8153
265.1937, 128.65
265.6758, 128.1132
266.1579, 122.3557
266.64, 120.4578
267.1221, 125.3533
267.6042, 134.7545
268.0864, 137.2867
268.5685, 130.1457
269.0506, 122.3761
269.5327, 120.8256
270.0148, 127.2374
270.4969, 132.1469
270.9791, 134.5252
271.4612, 134.6675
271.9433, 133.2177
272.4254, 129.6254
272.9075, 126.0358
273.3896, 122.8892
273.8718, 119.4614
274.3539, 122.4459
274.836, 136.0872
275.3181, 155.0635
275.8002, 159.1308
276.2823, 144.2278
276.7645, 129.2215
277.2466, 127.972
277.7287, 142.1122
278.2108, 154.5698
278.6929, 164.3198
279.175, 170.6785
279.6572, 170.1509
280.1393, 161.4204
280.6214, 152.8326
281.1035, 149.7734
281.5856, 152.2795
282.0677, 157.9065
282.5499, 168.66
283.032, 179.799
283.5141, 177.3458
283.9962, 159.7201
284.4783, 143.8412
284.9604, 143.619
285.4425, 157.8052
285.9247, 164.9095
286.4068, 161.5504
286.8889, 152.4834
287.371, 145.8121
287.8531, 141.5453
288.3352, 139.2089
288.8174, 138.176
289.2995, 138.6715
289.7816, 143.1556
290.2637, 153.2054
290.7458, 164.0234
291.2279, 166.3793
291.7101, 160.8433
292.1922, 155.5748
292.6743, 157.278
293.1564, 163.3679
293.6385, 164.0544
294.1206, 157.3071
294.6028, 148.8532
295.0849, 148.0543
295.567, 153.4707
296.0491, 156.4926
296.5312, 148.9778
297.0133, 135.9705
297.4955, 129.6106
297.9776, 131.5804
298.4597, 136.8271
298.9418, 140.7235
299.4239, 143.3358
299.906, 144.7822
300.3882, 144.6597
300.8703, 143.5016
301.3524, 141.4296
301.8345, 138.097
302.3166, 136.3091
302.7987, 139.7679
303.2809, 146.8958
303.763, 154.0559
304.2451, 160.6956
304.7272, 165.8359
305.2093, 168.2536
305.6914, 167.8807
306.1736, 165.0461
306.6557, 156.3318
307.1378, 145.6921
307.6199, 139.9889
308.102, 145.8472
308.5841, 155.4015
309.0663, 163.3107
309.5484, 169.5203
310.0305, 171.7611
310.5126, 165.3312
310.9947, 155.0601
311.4768, 147.1258
311.959, 145.7327
312.4411, 145.8161
312.9232, 145.0263
313.4053, 143.2611
313.8874, 139.7844
314.3695, 129.5438
314.8517, 119.3423
315.3337, 115.6736
315.8159, 126.9627
316.298, 139.1403
316.7801, 146.5962
317.2622, 149.8016
317.7443, 152.1133
318.2264, 155.7786
318.7086, 158.5101
319.1907, 158.6124
319.6728, 154.2456
320.1549, 148.9518
320.637, 142.7853
321.1191, 136.2068
321.6013, 130.9746
322.0834, 125.8313
322.5655, 123.3717
323.0476, 125.3737
323.5297, 137.2385
324.0118, 145.9456
324.494, 148.8095
324.9761, 147.1105
325.4582, 144.3293
325.9403, 138.8443
326.4224, 133.9652
326.9045, 130.8879
327.3867, 129.7256
327.8688, 130.2532
328.3509, 134.2988
328.833, 139.7458
329.3151, 142.8472
329.7972, 143.0546
330.2794, 141.4689
330.7615, 137.5853
331.2436, 129.3303
331.7257, 125.5726
332.2078, 128.1088
332.6899, 134.1017
333.1721, 139.7761
333.6542, 145.6561
334.1363, 150.2208
334.6184, 152.7062
335.1005, 152.8139
335.5826, 154.3533
336.0648, 158.8708
336.5469, 162.9641
337.029, 162.0793
337.5111, 153.6779
337.9932, 147.9052
338.4753, 147.1887
338.9575, 151.1555
339.4396, 157.6675
339.9217, 168.6375
340.4038, 177.4116
340.8859, 176.4307
341.368, 164.4857
341.8502, 154.993
342.3323, 151.3912
342.8144, 151.557
343.2965, 147.7595
343.7786, 139.2192
344.2607, 132.5078
344.7429, 134.8593
345.225, 145.0773
345.7071, 149.2435
346.1892, 143.0537
346.6713, 133.8892
347.1534, 137.313
347.6355, 152.5651
348.1176, 166.6406
348.5998, 171.6622
349.0819, 169.3071
349.564, 163.4726
350.0461, 153.3366
350.5282, 143.5981
351.0103, 140.7642
351.4925, 143.3453
351.9746, 146.1613
352.4567, 146.4038
352.9388, 145.2886
353.4209, 144.0989
353.903, 142.7863
354.3852, 142.709
354.8673, 146.5161
355.3494, 152.2764
355.8315, 156.4872
356.3136, 157.301
356.7957, 156.2839
357.2779, 154.2172
357.76, 151.1677
358.2421, 148.3071
358.7242, 146.4169
359.2063, 145.0303
359.6884, 143.6321
360.1706, 140.6439
360.6527, 138.9575
361.1348, 140.7012
361.6169, 145.2854
362.099, 149.4489
362.5811, 154.0042
363.0633, 156.4581
363.5454, 154.5952
364.0275, 141.3781
364.5096, 133.4737
364.9917, 139.8938
365.4738, 154.9033
365.956, 163.5031
366.4381, 157.9725
366.9202, 149.5387
367.4023, 142.0129
367.8844, 133.9498
368.3665, 130.5259
368.8487, 136.5864
369.3308, 146.3403
369.8129, 150.8763
370.295, 147.0151
370.7771, 141.7609
371.2592, 135.1415
371.7414, 125.8778
372.2235, 125.4958
372.7056, 140.9355
373.1877, 158.9435
373.6698, 163.8597
374.1519, 148.2548
374.6341, 138.4393
375.1162, 142.5753
375.5983, 158.0526
376.0804, 160.8358
376.5625, 146.2726
377.0446, 130.2849
377.5267, 126.3726
378.0089, 135.8867
378.491, 144.4811
378.9731, 151.08
379.4552, 154.9924
379.9373, 153.1698
380.4194, 145.25
380.9016, 136.9697
381.3837, 130.4351
381.8658, 126.0641
382.3479, 126.9336
382.83, 134.2687
383.3121, 143.3914
383.7943, 147.4777
384.2764, 147.4049
384.7585, 147.3997
385.2406, 150.0567
385.7227, 153.9345
386.2048, 156.3948
386.687, 157.3551
387.1691, 157.46
387.6512, 156.987
388.1333, 156.0469
388.6154, 154.8271
389.0975, 153.1575
389.5797, 151.4031
390.0618, 149.2274
390.5439, 146.8967
391.026, 146.2783
391.5081, 151.8743
391.9902, 157.9265
392.4724, 158.8004
392.9545, 148.9148
393.4366, 140.7602
393.9187, 140.934
394.4008, 146.9743
394.8829, 152.9776
395.3651, 160.0123
395.8472, 164.2293
396.3293, 162.6631
396.8114, 152.1654
397.2935, 144.7254
397.7756, 143.0349
398.2578, 145.1975
398.7399, 148.6441
399.222, 155.2064
399.7041, 160.9261
400.1862, 165.8062
400.6683, 170.0346
401.1505, 169.5711
401.6326, 158.5325
402.1147, 148.2571
402.5968, 148.957
403.0789, 168.8404
403.561, 180.6447
404.0432, 178.3954
404.5253, 166.0955
405.0074, 160.1619
405.4895, 162.4169
405.9716, 166.2108
406.4537, 167.682
406.9359, 166.6205
407.418, 166.3289
407.9001, 166.8954
408.3822, 168.3886
408.8643, 172.601
409.3464, 179.4641
409.8285, 182.3214
410.3106, 175.9582
410.7928, 163.3129
411.2749, 153.3706
411.757, 146.0887
412.2391, 141.843
412.7212, 140.5795
413.2033, 142.5522
413.6855, 149.0505
414.1676, 164.5194
414.6497, 180.3042
415.1318, 184.2103
415.6139, 178.0952
416.096, 171.5985
416.5782, 170.5048
417.0603, 172.2531
417.5424, 174.581
418.0245, 177.7646
418.5066, 179.572
418.9887, 175.7595
419.4709, 169.9439
419.953, 168.7925
420.4351, 182.0929
420.9172, 194.6201
421.3993, 198.1371
421.8814, 190.9338
422.3636, 184.2182
422.8457, 178.8252
423.3278, 175.8686
423.8099, 176.4212
424.292, 188.8933
424.7741, 195.5001
425.2563, 192.5551
425.7384, 181.0582
426.2205, 167.9483
426.7026, 147.6928
427.1847, 131.9666
427.6668, 127.8283
428.149, 140.7987
428.6311, 151.6749
429.1132, 160.8967
429.5953, 167.492
430.0774, 168.6951
430.5595, 163.1304
431.0417, 157.7935
431.5238, 154.242
432.0059, 152.7234
432.488, 159.0765
432.9701, 175.4306
433.4522, 190.2311
433.9344, 187.4694
434.4165, 170.0504
434.8986, 160.1028
435.3807, 165.132
435.8628, 177.9827
436.3449, 188.2808
436.8271, 195.8152
437.3092, 198.9748
437.7913, 191.9826
438.2734, 181.439
438.7555, 177.5682
439.2376, 182.6133
439.7197, 190.4184
440.2018, 199.1329
440.684, 206.79
441.1661, 209.8824
441.6482, 200.6013
442.1303, 191.3608
442.6124, 190.8682
443.0945, 199.2333
443.5767, 205.7825
444.0588, 204.1511
444.5409, 200.5618
445.023, 199.706
445.5051, 206.0156
445.9872, 211.0374
446.4694, 213.996
446.9515, 214.8732
447.4336, 213.3513
447.9157, 204.264
448.3978, 198.2607
448.8799, 200.5499
449.3621, 215.2603
449.8442, 222.0057
450.3263, 216.8848
450.8084, 207.8548
451.2905, 205.0721
451.7726, 210.6047
452.2548, 214.8511
452.7369, 215.3907
453.219, 212.9608
453.7011, 211.2853
454.1832, 210.5826
454.6653, 209.2961
455.1475, 206.351
455.6296, 201.8484
456.1117, 194.9202
456.5938, 183.943
457.0759, 175.1779
457.558, 181.0984
458.0402, 197.9927
458.5223, 211.6867
459.0044, 215.0154
459.4865, 211.6989
459.9686, 202.7682
460.4507, 188.5923
460.9329, 180.377
461.415, 192.7456
461.8971, 212.8041
462.3792, 226.3943
462.8613, 225.9027
463.3434, 222.8885
463.8256, 221.2513
464.3077, 220.9916
464.7898, 222.1031
465.2719, 228.8069
465.754, 233.3581
466.2361, 230.1825
466.7183, 213.5839
467.2004, 207.2477
467.6825, 223.7859
468.1646, 245.5272
468.6467, 254.8539
469.1288, 243.8004
469.611, 232.9387
470.093, 224.6808
470.5752, 218.9795
471.0573, 215.3002
471.5394, 213.3016
472.0215, 214.2042
472.5036, 220.8312
472.9857, 233.8976
473.4679, 239.3967
473.95, 234.752
474.4321, 227.1441
474.9142, 229.3506
475.3963, 239.915
475.8784, 245.1361
476.3606, 234.6583
476.8427, 217.9356
477.3248, 215.7373
477.8069, 227.0516
478.289, 238.623
478.7711, 237.0822
479.2533, 230.8688
479.7354, 232.7803
480.2175, 249.3653
480.6996, 265.1882
481.1817, 269.3593
481.6638, 265.1644
482.146, 258.7195
482.6281, 245.8682
483.1102, 237.0002
483.5923, 237.923
484.0744, 249.4169
484.5565, 262.592
485.0387, 281.0597
485.5208, 297.162
486.0029, 305.1845
486.485, 303.1696
486.9671, 295.3663
487.4492, 276.6631
487.9314, 253.3299
488.4135, 243.2463
488.8956, 252.5385
489.3777, 262.3018
489.8598, 265.5054
490.3419, 261.9956
490.8241, 258.063
491.3062, 253.5309
491.7883, 249.175
492.2704, 245.5817
492.7525, 242.7997
493.2346, 240.4863
493.7168, 237.3657
494.1989, 236.4711
494.681, 247.1143
495.1631, 266.6412
495.6452, 281.0756
496.1273, 275.7884
496.6095, 263.122
497.0916, 260.0179
497.5737, 268.399
498.0558, 277.3603
498.5379, 279.2743
499.0201, 277.7523
499.5022, 276.9612
499.9843, 282.1331
500.4664, 284.2601
500.9485, 277.3704
501.4306, 264.152
501.9127, 254.8708
502.3948, 254.7927
502.877, 256.1645
503.3591, 255.5605
503.8412, 251.6564
504.3233, 249.9493
504.8054, 249.6924
505.2875, 252.2701
505.7697, 260.3765
506.2518, 277.3221
506.7339, 289.4632
507.216, 292.72
507.6981, 290.1132
508.1802, 293.631
508.6624, 304.3187
509.1445, 311.7958
509.6266, 306.9334
510.1087, 293.0176
510.5908, 284.3297
511.0729, 281.9688
511.5551, 281.9469
512.0372, 280.6603
512.5193, 278.5021
513.0014, 276.3618
513.4835, 274.5677
513.9656, 272.8547
514.4478, 270.7541
514.9299, 268.469
515.412, 266.7596
515.8941, 264.9902
516.3762, 264.6177
516.8583, 266.811
517.3405, 272.1747
517.8226, 278.037
518.3047, 287.6714
518.7868, 295.8186
519.2689, 296.6877
519.751, 281.9929
520.2332, 271.0003
520.7153, 266.34
521.1974, 266.9787
521.6795, 269.4955
522.1616, 274.5519
522.6437, 280.0413
523.1259, 286.0642
523.608, 292.8657
524.0901, 293.1654
524.5722, 285.5132
525.0543, 276.3707
525.5364, 273.0146
526.0186, 274.5216
526.5007, 276.1784
526.9828, 277.3708
527.4649, 277.2504
527.947, 273.0067
528.4291, 265.9285
528.9113, 260.7007
529.3934, 257.7025
529.8755, 259.2478
530.3576, 271.1086
530.8397, 294.6507
531.3218, 311.6735
531.804, 309.1559
532.2861, 298.0947
532.7682, 288.6527
533.2503, 281.804
533.7324, 277.8682
534.2145, 277.5295
534.6967, 280.1689
535.1788, 284.1932
535.6609, 290.7509
536.143, 297.1533
536.6251, 303.1606
537.1072, 309.009
537.5894, 309.4685
538.0715, 302.4124
538.5536, 295.3033
539.0357, 296.4988
539.5178, 305.6522
539.9999, 310.4727
540.4821, 308.1072
540.9642, 303.0851
541.4463, 303.1402
541.9284, 306.9647
542.4105, 308.8599
542.8926, 302.2748
543.3748, 294.423
543.8569, 294.7736
544.339, 302.8142
544.8211, 311.6492
545.3032, 321.165
545.7853, 327.5337
546.2675, 325.8777
546.7495, 308.4988
547.2316, 298.6696
547.7137, 309.3484
548.1959, 329.47
548.678, 343.1586
549.1601, 344.2766
549.6422, 344.6636
550.1243, 347.1624
550.6064, 350.9592
551.0886, 349.0419
551.5707, 338.7276
552.0528, 328.4687
552.5349, 322.0567
553.017, 319.3587
553.4991, 324.359
553.9813, 339.0258
554.4634, 354.4658
554.9455, 359.3272
555.4276, 355.3799
555.9097, 350.0435
556.3918, 343.6527
556.874, 339.356
557.3561, 343.4679
557.8382, 353.5555
558.3203, 361.5257
558.8024, 360.2227
559.2845, 357.2123
559.7667, 357.9373
560.2488, 363.0106
560.7309, 369.129
561.213, 378.5173
561.6951, 386.5378
562.1772, 389.7513
562.6594, 380.0193
563.1415, 375.6119
563.6236, 380.5692
564.1057, 389.6635
564.5878, 392.2376
565.0699, 385.1357
565.5521, 379.8544
566.0342, 381.3336
566.5163, 387.7234
566.9984, 385.5925
567.4805, 373.7576
567.9626, 363.2402
568.4448, 364.1431
568.9269, 372.9888
569.409, 378.6231
569.8911, 379.5603
570.3732, 379.123
570.8553, 379.3347
571.3375, 380.6855
571.8196, 384.209
572.3017, 397.5046
572.7838, 405.449
573.2659, 391.5685
573.748, 364.2616
574.2302, 350.2468
574.7123, 370.6711
575.1944, 394.5523
575.6765, 410.228
576.1586, 416.785
576.6407, 416.765
577.1229, 404.213
577.605, 391.4264
578.0871, 388.6347
578.5692, 398.4471
579.0513, 408.434
579.5334, 418.967
580.0156, 427.084
580.4977, 424.529
580.9798, 412.085
581.4619, 404.042
581.944, 409.569
582.4261, 420.523
582.9083, 419.631
583.3904, 408.708
583.8725, 400.486
584.3546, 406.53
584.8367, 417.308
585.3188, 423.305
585.801, 422.156
586.2831, 422.337
586.7652, 430.558
587.2473, 440.469
587.7294, 445.77
588.2115, 441.004
588.6937, 436.971
589.1758, 435.208
589.6579, 434.713
590.14, 433.205
590.6221, 431.073
591.1042, 426.671
591.5864, 416.874
592.0685, 403.392
592.5506, 403.486
593.0327, 418.563
593.5148, 436.438
593.9969, 450.086
594.4791, 458.884
594.9612, 459.653
595.4433, 451.019
595.9254, 440.854
596.4075, 434.177
596.8896, 431.503
597.3718, 433.926
597.8539, 450.13
598.336, 462.307
598.8181, 454.655
599.3002, 435.439
599.7823, 429.18
600.2645, 460.758
600.7466, 486.959
601.2287, 489.702
601.7108, 466.97
602.1929, 454.576
602.675, 456.897
603.1572, 462.819
603.6393, 464.603
604.1214, 461.801
604.6035, 459.757
605.0856, 458.63
605.5677, 458.8
606.0499, 462.4
606.532, 468.218
607.0141, 470.579
607.4962, 464.887
607.9783, 458.511
608.4604, 461.386
608.9425, 470.963
609.4246, 479.158
609.9067, 480.238
610.3889, 480.198
610.871, 483.452
611.3531, 490.532
611.8352, 494.703
612.3173, 491.932
612.7994, 487.908
613.2816, 486.18
613.7637, 488.548
614.2458, 488.512
614.7279, 482.863
615.21, 478.702
615.6921, 489.904
616.1743, 518.655
616.6564, 534.222
617.1385, 525.376
617.6206, 504.768
618.1027, 497.631
618.5848, 501.89
619.067, 505.205
619.5491, 496.291
620.0312, 485.807
620.5133, 486.81
620.9954, 498.918
621.4775, 509.871
621.9597, 512.722
622.4418, 512.496
622.9239, 511.994
623.406, 509.353
623.8881, 512.019
624.3702, 525.773
624.8524, 542.136
625.3345, 553.008
625.8166, 558.273
626.2987, 557.331
626.7808, 546.925
627.2629, 533.229
627.7451, 533.531
628.2272, 548.01
628.7093, 558.257
629.1914, 553.685
629.6735, 540.679
630.1556, 532.109
630.6378, 527.587
631.1199, 524.974
631.602, 520.75
632.0841, 519.054
632.5662, 525.973
633.0483, 544.334
633.5305, 558.011
634.0126, 558.69
634.4947, 553.007
634.9768, 546.579
635.4589, 539.787
635.941, 531.982
636.4232, 519.44
636.9053, 508.099
637.3874, 511.231
637.8695, 533.412
638.3516, 548.038
638.8337, 545.36
639.3159, 532.251
639.798, 527.589
640.2801, 530.816
640.7622, 534.975
641.2443, 535.78
641.7264, 535.124
642.2086, 535.564
642.6907, 537.211
643.1728, 539.098
643.6549, 538.728
644.137, 539.632
644.6191, 545.884
645.1013, 564.171
645.5834, 574.059
646.0655, 568.053
646.5476, 554.668
647.0297, 541.195
647.5118, 523.872
647.994, 516.372
648.4761, 524.313
648.9582, 539.432
649.4403, 540.94
649.9224, 528.689
650.4045, 519.637
650.8867, 522.625
651.3688, 532.151
651.8509, 538.956
652.333, 543.091
652.8151, 544.523
653.2972, 539.277
653.7794, 534.03
654.2615, 538.18
654.7436, 554.527
655.2257, 558.761
655.7078, 530.087
656.1899, 495.157
656.6721, 473.59
657.1542, 467.586
657.6363, 472.614
658.1184, 494.055
658.6005, 520.696
659.0826, 537.991
659.5648, 545.861
660.0469, 544.164
660.529, 530.273
661.0111, 510.666
661.4932, 496.149
661.9753, 486.396
662.4575, 480.377
662.9396, 480.478
663.4217, 482.021
663.9038, 480.143
664.3859, 475.482
664.868, 472.323
665.3502, 472.812
665.8323, 474.925
666.3144, 479.366
666.7965, 488.594
667.2786, 487.593
667.7607, 469.11
668.2429, 448.692
668.725, 437.69
669.2071, 437.257
669.6892, 439.534
670.1713, 444.792
670.6534, 450.427
671.1355, 454.146
671.6176, 455.524
672.0997, 452.463
672.5818, 442.824
673.064, 431.652
673.5461, 422.522
674.0282, 415.786
674.5103, 411.954
674.9924, 414.914
675.4745, 417.285
675.9567, 414.035
676.4388, 406.456
676.9209, 405.436
677.403, 420.559
677.8851, 429.41
678.3672, 420.617
678.8494, 394.1866
679.3315, 378.962
679.8136, 376.3088
680.2957, 379.0012
680.7778, 382.9426
681.2599, 387.6158
681.7421, 390.8651
682.2242, 392.3491
682.7063, 393.895
683.1884, 399.5804
683.6705, 405.385
684.1526, 405.703
684.6348, 396.1146
685.1169, 386.4588
685.599, 379.0187
686.0811, 374.012
686.5632, 372.2344
687.0453, 380.6305
687.5275, 380.6657
688.0096, 365.5598
688.4917, 342.3411
688.9738, 328.748
689.4559, 325.019
689.938, 330.5992
690.4202, 351.832
690.9023, 379.0082
691.3844, 385.6727
691.8665, 373.9175
692.3486, 359.5654
692.8307, 348.4185
693.3129, 341.8351
693.795, 342.5513
694.2771, 350.9479
694.7592, 358.8184
695.2413, 366.4186
695.7234, 370.4062
696.2056, 367.8723
696.6877, 356.2412
697.1698, 345.362
697.6519, 333.3015
698.134, 324.8253
698.6161, 326.9235
699.0983, 339.7574
699.5804, 350.4705
700.0625, 357.9865
700.5446, 360.3442
701.0267, 351.968
701.5089, 336.3622
701.991, 321.7306
702.4731, 308.7857
702.9552, 300.5698
703.4373, 302.5004
703.9194, 310.5698
704.4016, 315.4906
704.8837, 309.6724
705.3658, 306.1641
705.8479, 310.3276
706.33, 320.1418
706.8121, 324.374
707.2943, 322.5638
707.7764, 316.087
708.2585, 301.3197
708.7406, 281.656
709.2227, 281.9935
709.7048, 302.072
710.187, 316.7822
710.6691, 294.0342
711.1512, 260.6124
711.6333, 256.1721
712.1154, 287.0753
712.5975, 312.8914
713.0797, 309.7275
713.5618, 295.536
714.0439, 284.2138
714.526, 277.23
715.0081, 273.9531
715.4902, 275.6259
715.9724, 279.7725
716.4545, 285.343
716.9366, 293.4702
717.4187, 292.2986
717.9008, 276.958
718.3829, 259.4305
718.8651, 261.817
719.3472, 277.743
719.8293, 286.677
720.3114, 276.3588
720.7935, 262.7944
721.2756, 258.1036
721.7578, 259.92
722.2399, 262.8852
722.722, 265.0833
723.2041, 268.5003
723.6862, 275.6029
724.1683, 284.908
724.6505, 288.6276
725.1326, 284.9608
725.6147, 280.449
726.0968, 279.3619
726.5789, 279.8538
727.061, 267.3006
727.5432, 242.0975
728.0253, 224.4144
728.5074, 236.9981
728.9895, 261.2413
729.4716, 272.5713
729.9537, 269.0947
730.4359, 261.3416
730.918, 247.1314
731.4001, 235.8661
731.8822, 235.2161
732.3643, 252.7377
732.8464, 263.0202
733.3285, 262.4472
733.8106, 258.9082
734.2927, 260.3106
734.7748, 267.2906
735.257, 269.0524
735.7391, 263.9346
736.2212, 256.1659
736.7033, 249.5739
737.1854, 244.4551
737.6675, 241.9235
738.1497, 243.7599
738.6318, 245.1061
739.1139, 240.3551
739.596, 233.6962
740.0781, 231.4924
740.5602, 240.9518
741.0424, 248.0579
741.5245, 250.8853
742.0066, 250.1351
742.4887, 246.2684
742.9708, 237.8485
743.4529, 233.2404
743.9351, 236.3014
744.4172, 243.3772
744.8993, 245.3961
745.3814, 243.1008
745.8635, 240.9588
746.3456, 240.3153
746.8278, 241.5822
747.3099, 248.2478
747.792, 258.358
748.2741, 261.7199
748.7562, 244.6744
749.2383, 225.4679
749.7205, 234.9792
750.2026, 240.1353
750.6847, 241.1699
751.1668, 225.739
751.6489, 231.5699
752.131, 228.8801
752.6132, 225.8407
753.0953, 234.6642
753.5774, 221.6282
754.0595, 230.2634
754.5416, 230.2479
755.0237, 234.1918
755.5059, 229.562
755.988, 227.5805
756.4701, 234.175
756.9522, 236.0209
757.4343, 229.8085
757.9164, 231.6052
758.3986, 225.5756
758.8807, 222.2701
759.3628, 223.9939
759.8449, 224.7526
760.327, 214.5431
760.8091, 194.8617
761.2913, 187.4885
761.7734, 197.6998
762.2555, 211.1828
762.7376, 213.2469
763.2197, 207.7365
763.7018, 200.6522
764.184, 191.4547
764.6661, 185.0462
765.1482, 184.3982
765.6303, 187.5908
766.1124, 191.8818
766.5945, 197.491
767.0767, 203.6063
767.5588, 210.9406
768.0409, 217.889
768.523, 221.4806
769.0051, 221.686
769.4872, 218.8482
769.9694, 211.3192
770.4515, 203.4271
770.9336, 203.7122
771.4157, 208.4772
771.8978, 208.5677
772.3799, 191.0694
772.8621, 177.1983
773.3442, 178.9706
773.8263, 192.3184
774.3084, 201.3297
774.7905, 203.0897
775.2726, 204.6898
775.7548, 208.5042
776.2369, 213.5156
776.719, 213.6052
777.2011, 208.8191
777.6832, 208.1608
778.1653, 223.7769
778.6475, 242.3525
779.1296, 239.9327
779.6117, 220.9235
780.0938, 206.7634
780.5759, 212.5797
781.058, 222.4805
781.5402, 230.5236
782.0223, 236.121
782.5044, 234.7722
782.9865, 221.3343
783.4686, 209.999
783.9507, 209.2985
784.4329, 217.6033
784.915, 216.7491
785.3971, 206.5009
785.8792, 196.9786
786.3613, 197.0484
786.8434, 201.4058
787.3256, 202.6805
787.8077, 200.5013
788.2898, 198.4848
788.7719, 195.1223
789.254, 195.0015
789.7361, 203.9324
790.2183, 226.0729
790.7004, 233.7106
791.1825, 221.2154
791.6646, 204.7899
792.1467, 195.2802
792.6288, 192.2418
793.111, 191.6624
793.593, 193.5213
794.0751, 195.6692
794.5573, 195.3206
795.0394, 194.562
795.5215, 196.8853
796.0036, 203.6141
796.4857, 207.8445
796.9678, 206.793
797.45, 202.3533
797.9321, 195.5402
798.4142, 184.8666
798.8963, 176.0305
799.3784, 167.6347
799.8605, 164.0649
800.3427, 172.3187
800.8248, 189.7133
801.3069, 206.0956
801.789, 221.3953
802.2711, 226.1902
802.7532, 198.4169
803.2354, 162.0999
803.7175, 145.0926
804.1996, 161.1189
804.6817, 178.077
805.1638, 195.576
805.6459, 206.4876
806.1281, 201.5287
806.6102, 173.2381
807.0923, 161.4771
807.5744, 172.3567
808.0565, 188.3062
808.5386, 184.8874
809.0208, 169.0313
809.5029, 161.2729
809.985, 166.9625
810.4671, 176.8919
810.9492, 189.4963
811.4313, 200.1641
811.9135, 203.3814
812.3956, 188.2538
812.8777, 180.5805
813.3598, 184.2026
813.8419, 193.0758
814.324, 201.7893
814.8062, 210.6989
815.2883, 212.8392
815.7704, 206.397
816.2525, 195.9845
816.7346, 185.2357
817.2167, 175.1364
817.6989, 166.8047
818.181, 157.72
818.6631, 156.9319
819.1452, 180.9202
819.6273, 210.7334
820.1094, 220.0866
820.5916, 193.3429
821.0737, 175.7874
821.5558, 171.8507
822.0379, 175.6307
822.52, 179.9304
823.0021, 184.6703
823.4843, 189.6011
823.9664, 194.9487
824.4485, 199.3504
824.9306, 202.0856
825.4127, 202.6814
825.8948, 200.3255
826.377, 192.4568
826.8591, 185.1512
827.3412, 178.6907
827.8233, 174.1199
828.3054, 172.9672
828.7875, 175.6754
829.2697, 181.0262
829.7518, 190.7256
830.2339, 198.6849
830.716, 192.0329
831.1981, 176.6006
831.6802, 170.5086
832.1624, 182.1465
832.6445, 194.2232
833.1266, 192.962
833.6087, 185.9556
834.0908, 182.7607
834.5729, 191.8775
835.0551, 195.1017
835.5372, 189.5604
836.0193, 180.4678
836.5014, 174.2486
836.9835, 170.8426
837.4656, 169.2478
837.9478, 169.6234
838.4299, 170.5379
838.912, 170.9099
839.3941, 170.5676
839.8762, 168.8967
840.3583, 163.8535
840.8405, 161.2986
841.3226, 165.9727
841.8047, 172.6788
842.2868, 175.7958
842.7689, 174.7948
843.251, 171.0703
843.7332, 163.3427
844.2153, 156.2198
844.6974, 158.0567
845.1795, 165.6845
845.6616, 166.841
846.1437, 156.8719
846.6259, 149.7249
847.108, 161.828
847.5901, 179.3574
848.0722, 187.3022
848.5543, 177.8953
849.0364, 165.9854
849.5186, 145.9279
850.0007, 130.8829
850.4828, 138.9166
850.9649, 169.8824
851.447, 187.7968
851.9291, 187.9393
852.4113, 182.5197
852.8934, 182.7048
853.3755, 185.5052
853.8576, 186.5262
854.3397, 184.1757
854.8218, 182.9951
855.304, 186.8879
855.786, 190.8295
856.2681, 190.537
856.7502, 184.1732
857.2324, 179.683
857.7145, 176.5408
858.1966, 177.2244
858.6787, 188.0388
859.1608, 204.016
859.6429, 213.0212
860.1251, 213.5458
860.6072, 208.3965
861.0893, 192.7692
861.5714, 176.7249
862.0535, 167.6282
862.5356, 167.4097
863.0178, 172.7749
863.4999, 188.8629
863.982, 201.7258
864.4641, 198.1259
864.9462, 180.427
865.4283, 174.6597
865.9105, 181.1112
866.3926, 187.6287
866.8747, 180.8321
867.3568, 171.9561
867.8389, 175.4029
868.321, 192.2816
868.8032, 201.331
869.2853, 189.0922
869.7674, 175.9633
870.2495, 168.6964
870.7316, 167.3661
871.2137, 175.4178
871.6959, 194.007
872.178, 208.092
872.6601, 202.7871
873.1422, 189.8116
873.6243, 188.8322
874.1064, 198.0104
874.5886, 204.2792
875.0707, 201.2652
875.5528, 194.1586
876.0349, 181.1846
876.517, 164.7818
876.9991, 161.3054
877.4813, 174.9677
877.9634, 186.0972
878.4455, 185.3018
878.9276, 178.0789
879.4097, 177.4482
879.8918, 182.2613
880.374, 188.1299
880.8561, 195.2557
881.3382, 200.4339
881.8203, 201.2134
882.3024, 198.5749
882.7845, 195.6129
883.2667, 192.5121
883.7488, 189.1835
884.2309, 185.3541
884.713, 181.5602
885.1951, 178.8643
885.6772, 177.2568
886.1594, 176.5237
886.6415, 176.4092
887.1236, 177.5092
887.6057, 181.4463
888.0878, 186.6597
888.5699, 190.6246
889.0521, 190.2562
889.5342, 192.415
890.0163, 199.6953
890.4984, 207.5359
890.9805, 209.121
891.4626, 204.6799
891.9448, 201.9408
892.4269, 202.3518
892.909, 203.7205
893.3911, 204.5863
893.8732, 204.6147
894.3553, 203.7872
894.8375, 203.3572
895.3196, 198.3479
895.8017, 178.0034
896.2838, 160.9009
896.7659, 163.7128
897.248, 190.5718
897.7302, 201.1887
898.2123, 192.8551
898.6944, 181.1796
899.1765, 179.0826
899.6586, 183.2378
900.1407, 191.0762
900.6229, 202.4978
901.105, 208.5143
901.5871, 197.7007
902.0692, 187.8525
902.5513, 190.8105
903.0334, 206.9864
903.5156, 209.3395
903.9977, 195.6648
904.4798, 180.1832
904.9619, 166.9296
905.444, 159.5287
905.9261, 170.679
906.4083, 196.2168
906.8904, 216.8078
907.3725, 219.5107
907.8546, 217.9907
908.3367, 219.3406
908.8188, 221.868
909.301, 216.2715
909.7831, 198.4314
910.2652, 188.4305
910.7473, 195.7105
911.2294, 209.9155
911.7115, 207.6215
912.1937, 194.5948
912.6758, 188.6997
913.1579, 202.5692
913.64, 218.5374
914.1221, 231.8801
914.6042, 240.6672
915.0864, 241.9102
915.5685, 234.4036
916.0506, 221.4647
916.5327, 200.5026
917.0148, 180.6289
917.4969, 174.3979
917.979, 179.2452
918.4611, 189.192
918.9432, 204.6521
919.4254, 217.4655
919.9075, 222.5078
920.3896, 222.3726
920.8717, 218.5677
921.3538, 209.1879
921.8359, 203.2375
922.3181, 201.3935
922.8002, 201.1863
923.2823, 200.0077
923.7644, 198.7787
924.2465, 201.6918
924.7286, 208.6813
925.2108, 216.333
925.6929, 225.8003
926.175, 232.2611
926.6571, 233.1816
927.1392, 228.0231
927.6213, 214.162
928.1035, 183.5581
928.5856, 164.6094
929.0677, 174.0108
929.5498, 199.6409
930.0319, 202.4554
930.514, 187.5856
930.9962, 179.0704
931.4783, 198.7908
931.9604, 218.7491
932.4425, 219.533
932.9246, 208.7183
933.4067, 204.9822
933.8889, 214.7719
934.371, 219.3748
934.8531, 214.4555
935.3352, 206.1144
935.8173, 204.6987
936.2994, 208.5646
936.7816, 212.7397
937.2637, 217.1892
937.7458, 217.6476
938.2279, 205.0402
938.71, 190.4225
939.1921, 186.3867
939.6743, 200.515
940.1564, 205.5121
940.6385, 197.2907
941.1206, 189.3859
941.6027, 196.8618
942.0848, 213.8213
942.567, 215.7272
943.0491, 202.5295
943.5312, 192.9604
944.0133, 204.1869
944.4954, 218.7427
944.9775, 225.8729
945.4597, 225.0565
945.9418, 222.48
946.4239, 217.7051
946.906, 212.012
947.3881, 204.2004
947.8702, 197.2029
948.3524, 201.6387
948.8345, 213.7876
949.3166, 220.4542
949.7987, 208.8675
950.2808, 197.5654
950.7629, 194.4572
951.2451, 198.2292
951.7272, 207.1077
952.2093, 225.3742
952.6914, 235.3028
953.1735, 233.859
953.6556, 226.2462
954.1378, 217.1644
954.6199, 207.69
955.102, 199.5376
955.5841, 192.524
956.0662, 189.8691
956.5483, 199.0961
957.0305, 208.7993
957.5126, 208.3523
957.9947, 194.9248
958.4768, 195.5046
958.9589, 212.9532
959.441, 229.6151
959.9232, 231.9653
960.4053, 225.902
960.8874, 220.8718
961.3695, 217.2003
961.8516, 215.6895
962.3337, 215.7874
962.8159, 219.2758
963.298, 231.2958
963.7801, 246.2822
964.2622, 247.3423
964.7443, 232.8201
965.2264, 218.4648
965.7086, 208.0298
966.1907, 200.9489
966.6728, 197.1628
967.1549, 195.9277
967.637, 195.8093
968.1191, 194.8319
968.6013, 198.1719
969.0834, 211.2724
969.5655, 225.0887
970.0476, 232.1672
970.5297, 232.2404
971.0118, 231.6302
971.494, 230.6203
971.9761, 228.116
972.4582, 218.17
972.9403, 209.6135
973.4224, 215.5093
973.9045, 236.0798
974.3867, 246.1309
974.8688, 233.9404
975.3509, 221.0668
975.833, 214.3412
976.3151, 212.1731
976.7972, 207.6011
977.2794, 201.5834
977.7615, 201.4415
978.2436, 216.8429
978.7257, 230.5046
979.2078, 225.8005
979.6899, 211.0973
980.172, 200.477
980.6541, 197.3984
981.1362, 195.3381
981.6183, 193.3248
982.1005, 193.5491
982.5826, 201.6108
983.0647, 214.0861
983.5468, 218.0364
984.0289, 211.5203
984.511, 205.4399
984.9932, 208.7695
985.4753, 213.153
985.9574, 210.8426
986.4395, 201.779
986.9216, 202.0745
987.4037, 214.2901
987.8859, 224.8041
988.368, 226.3127
988.8501, 222.3188
989.3322, 218.0695
989.8143, 213.8191
990.2964, 210.2943
990.7786, 210.523
991.2607, 208.1244
991.7428, 195.9482
992.2249, 183.3812
992.707, 186.4578
993.1891, 206.9309
993.6713, 217.8806
994.1534, 215.0087
994.6355, 208.0102
995.1176, 204.2301
995.5997, 203.5881
996.0818, 205.7299
996.564, 210.4142
997.0461, 219.8519
997.5282, 239.3683
998.0103, 256.0758
998.4924, 264.4616
998.9745, 264.8152
999.4567, 254.8309
999.9388, 236.3943
1000.421, 224.845
1000.903, 239.7842
1001.385, 253.3315
1001.867, 240.3356
1002.349, 212.5466
1002.831, 198.8148
1003.314, 207.1347
1003.796, 212.5867
1004.278, 211.7966
1004.76, 208.6669
1005.242, 206.9306
1005.724, 207.0992
1006.206, 211.6362
1006.688, 221.657
1007.171, 228.911
1007.653, 224.821
1008.135, 221.1364
1008.617, 226.3068
1009.099, 239.989
1009.581, 246.8859
1010.063, 246.7955
1010.545, 243.0546
1011.027, 235.4753
1011.51, 226.9424
1011.992, 219.3085
1012.474, 213.7915
1012.956, 213.3492
1013.438, 228.0045
1013.92, 234.3052
1014.402, 224.6238
1014.884, 211.6295
1015.367, 215.1342
1015.849, 232.1298
1016.331, 242.8293
1016.813, 244.4663
1017.295, 241.1993
1017.777, 230.7321
1018.259, 220.8299
1018.741, 219.5074
1019.223, 227.8508
1019.706, 229.3224
1020.188, 221.8931
1020.67, 214.1002
1021.152, 207.7699
1021.634, 205.4042
1022.116, 216.6493
1022.598, 236.2369
1023.08, 250.051
1023.563, 255.0387
1024.045, 249.488
1024.527, 218.2405
1025.009, 187.0742
1025.491, 192.0013
1025.973, 234.3124
1026.455, 253.8458
1026.937, 243.8961
1027.419, 231.715
1027.901, 246.1888
1028.384, 267.2412
1028.866, 274.8798
1029.348, 267.4426
1029.83, 260.5426
1030.312, 256.0352
1030.794, 250.7354
1031.276, 241.7832
1031.758, 233.0504
1032.241, 237.6251
1032.723, 251.1056
1033.205, 259.2883
1033.687, 252.7261
1034.169, 246.9755
1034.651, 249.6003
1035.133, 256.1934
1035.615, 263.0433
1036.098, 271.1597
1036.58, 271.8022
1037.062, 264.0468
1037.544, 255.9033
1038.026, 254.9431
1038.508, 256.6329
1038.99, 255.6492
1039.472, 252.0739
1039.954, 249.0377
1040.437, 248.9182
1040.919, 246.0787
1041.401, 236.7391
1041.883, 226.8656
1042.365, 231.3458
1042.847, 246.6543
1043.329, 260.0155
1043.811, 269.8484
1044.293, 271.237
1044.776, 251.6552
1045.258, 229.4059
1045.74, 222.0463
1046.222, 232.2761
1046.704, 232.4409
1047.186, 220.6917
1047.668, 213.052
1048.15, 224.7128
1048.633, 243.0101
1049.115, 252.5075
1049.597, 254.5458
1050.079, 253.7477
1050.561, 246.593
1051.043, 244.0109
1051.525, 250.3203
1052.007, 257.7278
1052.49, 249.5571
1052.972, 231.7016
1053.454, 233.3029
1053.936, 260.3741
1054.418, 282.2116
1054.9, 272.6195
1055.382, 256.0641
1055.864, 247.303
1056.346, 246.3455
1056.828, 253.5428
1057.311, 270.4305
1057.793, 280.9155
1058.275, 275.1554
1058.757, 263.8975
1059.239, 261.3001
1059.721, 263.089
1060.203, 261.7484
1060.685, 249.3452
1061.168, 243.5232
1061.65, 247.0483
1062.132, 253.6895
1062.614, 260.5639
1063.096, 265.834
1063.578, 258.132
1064.06, 238.7059
1064.542, 225.1592
1065.025, 236.2034
1065.507, 246.7819
1065.989, 238.9606
1066.471, 222.2181
1066.953, 222.5509
1067.435, 241.7853
1067.917, 252.2381
1068.399, 246.2355
1068.881, 236.0873
1069.364, 231.2181
1069.846, 231.7927
1070.328, 239.8555
1070.81, 259.0828
1071.292, 269.2252
1071.774, 266.8408
1072.256, 262.0542
1072.738, 259.1281
1073.22, 258.3276
1073.703, 264.8035
1074.185, 274.5739
1074.667, 274.6932
1075.149, 245.3893
1075.631, 223.4765
1076.113, 222.6886
1076.595, 231.8279
1077.077, 241.2739
1077.559, 250.9887
1078.042, 254.0352
1078.524, 249.8706
1079.006, 245.997
1079.488, 251.3116
1079.97, 256.7482
1080.452, 252.3909
1080.934, 240.0989
1081.416, 239.3308
1081.899, 254.7878
1082.381, 263.5112
1082.863, 257.2852
1083.345, 247.2007
1083.827, 252.1246
1084.309, 263.3934
1084.791, 266.3721
1085.273, 255.2132
1085.755, 245.884
1086.238, 242.3495
1086.72, 239.189
1087.202, 231.4992
1087.684, 222.0294
1088.166, 224.9565
1088.648, 238.3035
1089.13, 251.9738
1089.612, 265.7861
1090.094, 273.193
1090.577, 266.458
1091.059, 254.0211
1091.541, 247.0392
1092.023, 246.1926
1092.505, 243.7321
1092.987, 238.7771
1093.469, 238.3732
1093.951, 255.6703
1094.434, 274.7722
1094.916, 278.7519
1095.398, 268.8049
1095.88, 263.7079
1096.362, 266.4411
1096.844, 268.2938
1097.326, 266.2442
1097.808, 264.8073
1098.291, 276.5105
1098.773, 292.4055
1099.255, 293.8749
1099.737, 274.5363
1100.219, 255.3431
1100.701, 236.009
1101.183, 225.468
1101.665, 230.6252
1102.147, 247.676
1102.63, 260.3396
1103.112, 268.5255
1103.594, 271.7038
1104.076, 264.3264
1104.558, 259.1562
1105.04, 267.7354
1105.522, 278.6306
1106.004, 277.3806
1106.486, 261.6623
1106.969, 253.4752
1107.451, 253.7126
1107.933, 254.4468
1108.415, 247.1653
1108.897, 239.6824
1109.379, 241.853
1109.861, 250.4786
1110.343, 250.3547
1110.826, 235.4156
1111.308, 228.8736
1111.79, 235.9142
1112.272, 248.1852
1112.754, 258.7637
1113.236, 265.9902
1113.718, 264.896
1114.2, 253.9855
1114.682, 249.5963
1115.165, 258.3535
1115.647, 269.3857
1116.129, 281.2638
1116.611, 290.7001
1117.093, 284.8626
1117.575, 268.7351
1118.057, 259.0731
1118.539, 264.3719
1119.021, 269.1691
1119.504, 263.4346
1119.986, 258.0667
1120.468, 262.4486
1120.95, 276.2859
1121.432, 281.5574
1121.914, 278.4742
1122.396, 270.2829
1122.878, 250.2047
1123.361, 234.6594
1123.843, 238.9187
1124.325, 253.5377
1124.807, 260.3369
1125.289, 256.9193
1125.771, 258.1679
1126.253, 266.0787
1126.735, 270.6107
1127.218, 253.7681
1127.7, 235.2846
1128.182, 240.6038
1128.664, 266.8729
1129.146, 282.896
1129.628, 283.4659
1130.11, 280.8259
1130.592, 276.4598
1131.074, 272.2119
1131.557, 269.5803
1132.039, 269.4095
1132.521, 276.1596
1133.003, 292.5411
1133.485, 296.0109
1133.967, 267.295
1134.449, 248.293
1134.931, 259.2732
1135.413, 287.6273
1135.896, 298.9747
1136.378, 297.018
1136.86, 292.8537
1137.342, 289.9456
1137.824, 285.7776
1138.306, 276.1353
1138.788, 267.963
1139.27, 267.4323
1139.752, 273.6382
1140.235, 270.3013
1140.717, 259.0474
1141.199, 253.5016
1141.681, 273.2159
1142.163, 287.718
1142.645, 270.4512
1143.127, 242.7642
1143.609, 238.3804
1144.092, 260.5153
1144.574, 271.0677
1145.056, 267.6759
1145.538, 261.4909
1146.02, 262.2803
1146.502, 263.3369
1146.984, 255.6354
1147.466, 243.1354
1147.948, 243.6267
1148.431, 262.3182
1148.913, 270.5087
1149.395, 261.4863
1149.877, 249.3431
1150.359, 249.2566
1150.841, 255.5638
1151.323, 263.1443
1151.805, 271.3431
1152.287, 275.9534
1152.77, 277.3839
1153.252, 273.1591
1153.734, 260.3551
1154.216, 245.2275
1154.698, 235.1995
1155.18, 231.5752
1155.662, 239.1668
1156.144, 264.7542
1156.627, 278.1789
1157.109, 268.7851
1157.591, 262.2645
1158.073, 276.4265
1158.555, 300.097
1159.037, 301.9728
1159.519, 288.2285
1160.001, 275.664
1160.484, 266.2613
1160.966, 266.516
1161.448, 285.214
1161.93, 303.6586
1162.412, 307.3354
1162.894, 298.0721
1163.376, 281.2344
1163.858, 259.2796
1164.34, 246.6508
1164.823, 262.6659
1165.305, 274.2642
1165.787, 264.6279
1166.269, 249.3094
1166.751, 248.4884
1167.233, 260.5862
1167.715, 269.0953
1168.197, 272.9197
1168.679, 275.1517
1169.162, 278.8761
1169.644, 280.4647
1170.126, 276.6661
1170.608, 269.6996
1171.09, 263.4115
1171.572, 257.8405
1172.054, 252.4697
1172.536, 246.5435
1173.019, 247.2974
1173.501, 274.2343
1173.983, 298.3816
1174.465, 287.9395
1174.947, 252.7673
1175.429, 248.6327
1175.911, 277.6498
1176.393, 296.0105
1176.875, 288.775
1177.358, 275.2272
1177.84, 267.96
1178.322, 267.5042
1178.804, 280.1984
1179.286, 307.4495
1179.768, 305.3583
1180.25, 269.7693
1180.732, 245.4208
1181.214, 257.1859
1181.697, 278.852
1182.179, 285.4797
1182.661, 282.0601
1183.143, 274.0908
1183.625, 259.1062
1184.107, 253.5319
1184.589, 258.5954
1185.071, 266.1779
1185.554, 272.5421
1186.036, 277.5985
1186.518, 281.8104
1187, 284.4225
1187.482, 283.4376
1187.964, 274.9767
1188.446, 271.7019
1188.928, 274.5476
1189.411, 279.6238
1189.893, 284.2718
1190.375, 288.8991
1190.857, 295.8124
1191.339, 303.2865
1191.821, 305.3965
1192.303, 300.7838
1192.785, 289.6802
1193.267, 268.5339
1193.75, 252.1935
1194.232, 265.4951
1194.714, 288.6431
1195.196, 286.6236
1195.678, 262.3096
1196.16, 250.0398
1196.642, 261.1868
1197.124, 276.765
1197.606, 296.7719
1198.089, 312.8099
1198.571, 308.3573
1199.053, 294.4366
1199.535, 291.0627
1200.017, 300.0569
1200.499, 302.2507
1200.981, 287.6935
1201.463, 278.7424
1201.945, 282.4151
1202.428, 291.8244
1202.91, 300.0934
1203.392, 304.4184
1203.874, 296.2875
1204.356, 271.6125
1204.838, 260.0659
1205.32, 274.854
1205.802, 286.7043
1206.285, 284.5359
1206.767, 274.3917
1207.249, 263.688
1207.731, 255.4063
1208.213, 257.0017
1208.695, 273.7441
1209.177, 287.0108
1209.659, 295.2557
1210.141, 297.0364
1210.624, 286.949
1211.106, 274.3163
1211.588, 286.7167
1212.07, 312.6609
1212.552, 325.447
1213.034, 308.8008
1213.516, 298.2813
1213.998, 301.0099
1214.48, 304.2709
1214.963, 299.1187
1215.445, 289.3967
1215.927, 284.111
1216.409, 282.6227
1216.891, 283.3391
1217.373, 287.5708
1217.855, 290.8669
1218.337, 292.2779
1218.82, 293.9758
1219.302, 301.0101
1219.784, 308.4457
1220.266, 297.628
1220.748, 275.8918
1221.23, 266.2701
1221.712, 292.2502
1222.194, 307.1081
1222.677, 302.8773
1223.159, 295.2534
1223.641, 302.4783
1224.123, 315.7023
1224.605, 312.5871
1225.087, 297.0886
1225.569, 288.265
1226.051, 298.6412
1226.533, 307.9243
1227.016, 315.1346
1227.498, 318.3932
1227.98, 312.9879
1228.462, 303.4623
1228.944, 297.1009
1229.426, 294.5271
1229.908, 296.5376
1230.39, 306.8941
1230.872, 316.4501
1231.355, 325.0034
1231.837, 329.5786
1232.319, 323.4608
1232.801, 312.2962
1233.283, 305.3879
1233.765, 303.0667
1234.247, 300.2894
1234.729, 294.1586
1235.212, 292.3885
1235.694, 297.5981
1236.176, 304.2934
1236.658, 305.9472
1237.14, 303.9422
1237.622, 298.9078
1238.104, 291.2516
1238.586, 285.8388
1239.068, 279.575
1239.551, 287.3074
1240.033, 317.6427
1240.515, 348.4305
1240.997, 346.9756
1241.479, 330.4601
1241.961, 321.8675
1242.443, 324.1068
1242.925, 319.8618
1243.407, 305.2438
1243.89, 296.9067
1244.372, 300.5435
1244.854, 309.7246
1245.336, 320.9017
1245.818, 329.9418
1246.3, 329.7931
1246.782, 318.7399
1247.264, 315.0681
1247.747, 320.287
1248.229, 324.0188
1248.711, 322.7463
1249.193, 318.854
1249.675, 313.2859
1250.157, 307.6141
1250.639, 301.2984
1251.121, 294.2313
1251.604, 306.1069
1252.086, 339.5117
1252.568, 359.044
1253.05, 347.9105
1253.532, 327.5335
1254.014, 313.9058
1254.496, 304.2264
1254.978, 294.7294
1255.46, 285.2487
1255.943, 284.2633
1256.425, 291.7236
1256.907, 303.2238
1257.389, 321.2693
1257.871, 333.7518
1258.353, 326.8409
1258.835, 313.5522
1259.317, 306.0949
1259.799, 304.228
1260.281, 300.5218
1260.764, 295.3824
1261.246, 292.665
1261.728, 294.6002
1262.21, 298.2166
1262.692, 303.6827
1263.174, 308.7289
1263.656, 312.6974
1264.138, 314.9937
1264.621, 307.1503
1265.103, 291.8026
1265.585, 282.2952
1266.067, 287.9092
1266.549, 293.9878
1267.031, 293.6238
1267.513, 293.9508
1267.995, 300.1778
1268.478, 310.9739
1268.96, 324.2742
1269.442, 337.5651
1269.924, 341.6076
1270.406, 323.4939
1270.888, 312.1581
1271.37, 314.7036
1271.852, 319.3751
1272.334, 317.2391
1272.817, 311.1735
1273.299, 306.1433
1273.781, 303.7681
1274.263, 308.3284
1274.745, 334.764
1275.227, 343.157
1275.709, 326.5066
1276.191, 308.3879
1276.673, 308.3257
1277.156, 316.0998
1277.638, 314.4344
1278.12, 307.1302
1278.602, 302.7667
1279.084, 306.3362
1279.566, 302.7612
1280.048, 289.2732
1280.53, 283.0436
1281.013, 306.9381
1281.495, 335.1027
1281.977, 335.9352
1282.459, 322.202
1282.941, 318.3937
1283.423, 328.217
1283.905, 336.7197
1284.387, 343.7965
1284.87, 348.5588
1285.352, 352.8882
1285.834, 351.9996
1286.316, 337.0749
1286.798, 317.6424
1287.28, 307.7798
1287.762, 307.9437
1288.244, 305.7624
1288.726, 301.5756
1289.208, 302.3799
1289.691, 317.9979
1290.173, 332.8498
1290.655, 341.9259
1291.137, 345.0778
1291.619, 339.6088
1292.101, 326.9814
1292.583, 314.6759
1293.065, 304.7227
1293.548, 305.9025
1294.03, 340.2005
1294.512, 359.1994
1294.994, 348.7603
1295.476, 331.3658
1295.958, 328.5578
1296.44, 334.3174
1296.922, 334.06
1297.405, 330.3232
1297.887, 326.3395
1298.369, 316.2168
1298.851, 311.6958
1299.333, 314.0799
1299.815, 319.3851
1300.297, 325.1151
1300.779, 331.2701
##END=



