##NAMES=Kyanite
##RRUFFID=R050450
##IDEAL CHEMISTRY=Al_2_OSiO_4_
##LOCALITY=Switzerland
##OWNER=RRUFF
##SOURCE=Marcus Origlieri
##DESCRIPTION=Blue bladed crystals
##STATUS=The identification of this mineral has been confirmed by X-ray diffraction and chemical analysis
##URL=rruff.info/R050450
##MEASURED CHEMISTRY=Al_2.00_OSi_1.00_O_4_
91.00781, 231.5941
91.48993, 232.2401
91.97205, 232.5056
92.45416, 232.1926
92.93628, 231.5095
93.41840, 230.8688
93.90051, 230.2783
94.38263, 229.8541
94.86475, 229.8738
95.34686, 230.3336
95.82898, 230.8644
96.31110, 231.1283
96.79321, 231.1584
97.27533, 231.2987
97.75745, 231.6303
98.23956, 232.1261
98.72168, 232.5875
99.20380, 232.9203
99.68591, 233.4970
100.1680, 234.9754
100.6501, 237.6264
101.1323, 239.7752
101.6144, 240.7552
102.0965, 240.4418
102.5786, 240.4626
103.0607, 240.8374
103.5428, 241.5272
104.0250, 242.4365
104.5071, 243.3662
104.9892, 244.8417
105.4713, 247.1470
105.9534, 250.8294
106.4355, 254.1408
106.9177, 257.0926
107.3998, 259.6754
107.8819, 261.9467
108.3640, 263.5407
108.8461, 265.0899
109.3282, 266.9106
109.8104, 268.9649
110.2925, 271.2876
110.7746, 274.0155
111.2567, 277.0760
111.7388, 280.0179
112.2209, 282.7174
112.7031, 285.2916
113.1852, 287.8521
113.6673, 290.4314
114.1494, 292.9595
114.6315, 295.2032
115.1136, 297.1524
115.5958, 299.7305
116.0779, 303.8440
116.5600, 308.5577
117.0421, 312.8048
117.5242, 315.5914
118.0063, 318.3322
118.4885, 321.9129
118.9706, 326.5468
119.4527, 331.2651
119.9348, 335.7845
120.4169, 339.9969
120.8990, 343.7721
121.3812, 346.6190
121.8633, 349.1667
122.3454, 352.1579
122.8275, 356.0829
123.3096, 359.5588
123.7917, 361.2960
124.2739, 361.5245
124.7560, 361.0897
125.2381, 359.3754
125.7202, 357.5260
126.2023, 357.7470
126.6844, 361.4137
127.1666, 366.1830
127.6487, 368.6982
128.1308, 369.0714
128.6129, 369.0046
129.0950, 369.6300
129.5771, 370.9083
130.0593, 372.7477
130.5414, 375.3409
131.0235, 378.3755
131.5056, 380.7821
131.9877, 381.1873
132.4698, 379.4548
132.9520, 377.0072
133.4341, 373.9189
133.9162, 371.6110
134.3983, 370.7320
134.8804, 371.1171
135.3625, 371.7092
135.8447, 372.6414
136.3268, 373.4915
136.8089, 373.6452
137.2910, 373.0407
137.7731, 372.1902
138.2552, 371.3416
138.7374, 370.5566
139.2195, 369.2006
139.7016, 367.0018
140.1837, 364.4589
140.6658, 362.6964
141.1479, 361.9313
141.6301, 361.3472
142.1122, 360.5688
142.5943, 359.5269
143.0764, 358.4268
143.5585, 357.2110
144.0406, 355.9306
144.5228, 354.7278
145.0049, 353.6004
145.4870, 352.5591
145.9691, 351.6248
146.4512, 350.7964
146.9333, 350.0684
147.4155, 349.4960
147.8976, 349.0538
148.3797, 348.5213
148.8618, 347.8373
149.3439, 347.1068
149.8260, 346.3960
150.3082, 345.2930
150.7903, 344.6522
151.2724, 344.8978
151.7545, 346.0659
152.2366, 346.4001
152.7188, 344.7130
153.2009, 342.7116
153.6830, 341.7846
154.1651, 343.6708
154.6472, 345.0498
155.1293, 345.0101
155.6115, 343.3737
156.0936, 341.6532
156.5757, 339.4204
157.0578, 337.4520
157.5399, 336.6339
158.0220, 338.1272
158.5042, 339.9824
158.9863, 341.7252
159.4684, 343.4987
159.9505, 344.3400
160.4326, 343.4153
160.9147, 341.4716
161.3969, 339.6152
161.8790, 337.6949
162.3611, 336.3427
162.8432, 336.0371
163.3253, 337.1274
163.8074, 338.3574
164.2896, 339.3885
164.7717, 340.1502
165.2538, 340.5033
165.7359, 339.9496
166.2180, 339.2023
166.7001, 338.7412
167.1823, 338.5772
167.6644, 338.8728
168.1465, 340.2608
168.6286, 342.2948
169.1107, 343.7227
169.5928, 343.3268
170.0750, 342.1977
170.5571, 341.4269
171.0392, 341.2487
171.5213, 341.5168
172.0034, 342.2703
172.4855, 343.4389
172.9677, 344.6797
173.4498, 345.9144
173.9319, 347.0670
174.4140, 348.0166
174.8961, 348.6723
175.3782, 349.1839
175.8604, 349.9460
176.3425, 350.8793
176.8246, 351.3015
177.3067, 350.7480
177.7888, 349.3174
178.2709, 347.1737
178.7531, 343.9427
179.2352, 340.3278
179.7173, 337.1315
180.1994, 334.3463
180.6815, 332.2998
181.1636, 331.7448
181.6458, 332.2512
182.1279, 332.5530
182.6100, 332.1248
183.0921, 331.2847
183.5742, 330.5765
184.0563, 330.0053
184.5385, 329.6838
185.0206, 329.8487
185.5027, 330.4157
185.9848, 330.9826
186.4669, 331.4396
186.9490, 331.7875
187.4312, 332.1099
187.9133, 332.4304
188.3954, 332.5231
188.8775, 331.9550
189.3596, 330.8020
189.8417, 329.7625
190.3239, 329.1977
190.8060, 328.9958
191.2881, 328.5182
191.7702, 327.6770
192.2523, 326.9313
192.7344, 327.0660
193.2166, 328.0821
193.6987, 328.8885
194.1808, 329.0028
194.6629, 328.4773
195.1450, 327.8246
195.6271, 326.9420
196.1093, 326.1925
196.5914, 326.3502
197.0735, 327.5147
197.5556, 328.3314
198.0377, 327.8586
198.5198, 326.0746
199.0020, 325.4555
199.4841, 326.2419
199.9662, 327.7586
200.4483, 329.0293
200.9304, 330.0548
201.4125, 330.8217
201.8947, 331.3428
202.3768, 331.6261
202.8589, 331.5158
203.3410, 330.9022
203.8231, 330.0396
204.3052, 329.2982
204.7874, 328.5910
205.2695, 328.3488
205.7516, 328.9361
206.2337, 330.5238
206.7158, 331.7619
207.1979, 332.5543
207.6801, 333.0796
208.1622, 333.6771
208.6443, 334.3581
209.1264, 335.0881
209.6085, 335.9653
210.0906, 337.1512
210.5728, 337.6812
211.0549, 337.2995
211.5370, 336.4275
212.0191, 336.0422
212.5012, 336.2791
212.9833, 336.6657
213.4655, 336.9839
213.9476, 337.2041
214.4297, 337.4265
214.9118, 337.4499
215.3939, 337.5837
215.8760, 338.7935
216.3581, 341.6731
216.8403, 344.3828
217.3224, 345.7878
217.8045, 345.1065
218.2866, 345.6391
218.7687, 347.9359
219.2508, 351.2926
219.7330, 353.6240
220.2151, 354.2252
220.6972, 355.0735
221.1793, 357.0831
221.6614, 360.4783
222.1435, 364.4946
222.6257, 369.3490
223.1078, 374.7460
223.5899, 380.0904
224.0720, 385.6857
224.5541, 390.7664
225.0362, 395.5249
225.5184, 401.5030
226.0005, 403.1784
226.4826, 399.7244
226.9647, 392.1534
227.4468, 382.6378
227.9289, 369.3721
228.4111, 357.0589
228.8932, 347.8794
229.3753, 342.6222
229.8574, 338.7215
230.3395, 336.5546
230.8216, 335.6558
231.3038, 334.7271
231.7859, 333.6336
232.2680, 332.7144
232.7501, 332.0595
233.2322, 331.4311
233.7143, 331.6759
234.1965, 333.4001
234.6786, 335.8730
235.1607, 336.9917
235.6428, 335.9567
236.1249, 334.7188
236.6070, 334.1678
237.0892, 334.7541
237.5713, 335.0020
238.0534, 334.7342
238.5355, 334.1695
239.0176, 333.8607
239.4997, 333.8207
239.9819, 334.0148
240.4640, 334.5013
240.9461, 335.6142
241.4282, 336.2310
241.9103, 336.2431
242.3924, 335.7974
242.8746, 335.1774
243.3567, 334.0890
243.8388, 333.2804
244.3209, 333.0882
244.8030, 333.7303
245.2851, 334.4792
245.7673, 335.6526
246.2494, 336.8105
246.7315, 336.8470
247.2136, 334.8381
247.6957, 333.1832
248.1778, 332.9650
248.6600, 334.8938
249.1421, 336.1105
249.6242, 336.4543
250.1063, 336.1831
250.5884, 335.6954
251.0705, 334.6122
251.5527, 333.9595
252.0348, 334.2626
252.5169, 335.9509
252.9990, 337.0416
253.4811, 337.4832
253.9632, 337.3668
254.4454, 336.7223
254.9275, 335.0451
255.4096, 333.7980
255.8917, 333.6335
256.3738, 334.9133
256.8560, 335.5503
257.3381, 335.1805
257.8202, 334.4803
258.3023, 334.5344
258.7844, 335.6785
259.2665, 336.8455
259.7487, 337.6913
260.2308, 338.1480
260.7129, 338.7419
261.1950, 339.5429
261.6771, 340.4002
262.1592, 341.1431
262.6414, 341.8239
263.1235, 342.2307
263.6056, 342.2202
264.0877, 341.7530
264.5698, 341.4553
265.0519, 341.3368
265.5341, 341.3741
266.0162, 341.6161
266.4983, 342.2068
266.9804, 342.5136
267.4625, 342.1147
267.9446, 341.0396
268.4268, 341.2796
268.9089, 343.3047
269.3910, 345.8040
269.8731, 347.3823
270.3552, 347.7733
270.8373, 348.2284
271.3195, 348.8288
271.8016, 349.6521
272.2837, 351.5974
272.7658, 354.8815
273.2479, 358.8633
273.7300, 363.2648
274.2122, 368.2448
274.6943, 372.5208
275.1764, 375.5684
275.6585, 377.6911
276.1406, 380.8939
276.6227, 385.7636
277.1049, 389.7915
277.5870, 390.8018
278.0691, 388.6261
278.5512, 385.1683
279.0333, 379.9977
279.5154, 374.1251
279.9976, 370.7846
280.4797, 370.0314
280.9618, 371.5186
281.4439, 375.3314
281.9260, 381.4722
282.4081, 388.8003
282.8903, 397.5119
283.3724, 406.9523
283.8545, 415.5954
284.3366, 423.4022
284.8187, 430.8499
285.3008, 438.0221
285.7830, 445.0101
286.2651, 451.9340
286.7472, 458.5738
287.2293, 465.6847
287.7114, 474.7649
288.1935, 485.8034
288.6757, 497.7803
289.1578, 510.8454
289.6399, 524.6150
290.1220, 537.0126
290.6041, 548.4374
291.0862, 557.0604
291.5684, 559.1234
292.0505, 555.1545
292.5326, 550.1830
293.0147, 544.3817
293.4968, 539.3752
293.9789, 539.9152
294.4611, 546.2289
294.9432, 557.3724
295.4253, 572.0602
295.9074, 590.6465
296.3895, 614.1171
296.8716, 644.1703
297.3538, 679.3051
297.8359, 716.7034
298.3180, 756.6761
298.8001, 798.9862
299.2822, 849.8835
299.7643, 904.1243
300.2465, 948.3217
300.7286, 990.7110
301.2107, 1012.080
301.6928, 976.9683
302.1749, 888.2354
302.6570, 784.4992
303.1392, 683.1526
303.6213, 589.9287
304.1034, 517.5414
304.5855, 473.1259
305.0676, 445.6134
305.5497, 425.4578
306.0319, 412.3543
306.5140, 403.6975
306.9961, 400.0631
307.4782, 399.2467
307.9603, 398.6842
308.4424, 397.8807
308.9246, 397.0506
309.4067, 396.1339
309.8888, 395.2807
310.3709, 394.9156
310.8530, 395.0176
311.3351, 395.8522
311.8173, 397.7922
312.2994, 401.1934
312.7815, 404.8432
313.2636, 408.5536
313.7457, 411.9496
314.2278, 414.3657
314.7100, 414.4440
315.1921, 414.2102
315.6742, 415.1905
316.1563, 417.8490
316.6384, 419.7466
317.1205, 418.7906
317.6027, 416.7338
318.0848, 415.8003
318.5669, 415.7559
319.0490, 417.7896
319.5311, 422.5424
320.0132, 430.0758
320.4954, 439.3074
320.9775, 450.0932
321.4596, 462.2975
321.9417, 475.6598
322.4238, 490.6583
322.9059, 506.2606
323.3881, 523.7170
323.8702, 542.4464
324.3523, 557.5873
324.8344, 574.3661
325.3165, 583.4543
325.7986, 579.5451
326.2808, 553.6655
326.7629, 524.8873
327.2450, 490.0609
327.7271, 452.0994
328.2092, 422.3560
328.6913, 403.9545
329.1735, 391.1507
329.6556, 381.6889
330.1377, 376.7189
330.6198, 372.9387
331.1019, 370.6884
331.5840, 369.5286
332.0662, 368.6260
332.5483, 368.0980
333.0304, 367.6336
333.5125, 367.0191
333.9946, 366.0508
334.4767, 365.9671
334.9589, 366.9881
335.4410, 368.6714
335.9231, 370.4557
336.4052, 372.2054
336.8873, 374.4203
337.3694, 377.4831
337.8516, 381.2885
338.3336, 383.8973
338.8158, 384.7784
339.2979, 385.6176
339.7800, 388.3766
340.2621, 393.4811
340.7442, 397.4934
341.2263, 399.8681
341.7085, 400.6789
342.1906, 399.6981
342.6727, 396.7074
343.1548, 393.2474
343.6369, 389.9034
344.1190, 386.7634
344.6012, 384.9721
345.0833, 384.8600
345.5654, 385.7658
346.0475, 386.7676
346.5296, 387.8408
347.0117, 388.6991
347.4939, 388.4238
347.9760, 387.7421
348.4581, 389.3861
348.9402, 393.7828
349.4223, 398.7962
349.9044, 401.7779
350.3866, 403.3519
350.8687, 405.6891
351.3508, 410.2884
351.8329, 415.9398
352.3150, 420.3473
352.7971, 423.5962
353.2793, 427.7638
353.7614, 434.1269
354.2435, 442.6445
354.7256, 453.3303
355.2077, 466.5635
355.6898, 481.4225
356.1720, 497.5832
356.6541, 514.9572
357.1362, 532.9857
357.6183, 551.7858
358.1004, 571.0480
358.5826, 591.9918
359.0647, 618.2925
359.5468, 637.3568
360.0289, 644.3094
360.5110, 639.1699
360.9931, 621.8825
361.4753, 579.8945
361.9574, 535.9691
362.4395, 500.9503
362.9216, 476.2737
363.4037, 457.8239
363.8858, 445.9508
364.3680, 439.0636
364.8501, 435.4738
365.3322, 436.5582
365.8143, 439.1976
366.2964, 442.5931
366.7785, 446.7697
367.2607, 452.6126
367.7428, 460.8136
368.2249, 470.3355
368.7070, 480.6380
369.1891, 493.1464
369.6712, 504.3927
370.1534, 514.0675
370.6355, 522.4511
371.1176, 530.5891
371.5997, 540.1619
372.0818, 547.2829
372.5639, 549.9902
373.0461, 546.6017
373.5282, 544.0972
374.0103, 542.1401
374.4924, 541.3009
374.9745, 542.7054
375.4566, 546.9798
375.9388, 551.6902
376.4209, 556.9316
376.9030, 562.4957
377.3851, 563.7953
377.8672, 560.3618
378.3493, 554.3484
378.8315, 546.1932
379.3136, 535.7216
379.7957, 529.7103
380.2778, 529.5646
380.7599, 534.3878
381.2420, 542.8881
381.7242, 554.9196
382.2063, 568.4865
382.6884, 582.6129
383.1705, 597.2156
383.6526, 612.6920
384.1347, 630.0069
384.6169, 644.2984
385.0990, 648.6905
385.5811, 644.5884
386.0632, 636.2460
386.5453, 621.4043
387.0274, 605.3799
387.5096, 594.5170
387.9917, 588.9628
388.4738, 589.2440
388.9559, 597.4672
389.4380, 611.2985
389.9201, 628.1233
390.4023, 650.1666
390.8844, 671.2734
391.3665, 692.3806
391.8486, 710.6918
392.3307, 715.0520
392.8128, 695.4600
393.2950, 663.1765
393.7771, 622.9833
394.2592, 569.9895
394.7413, 524.6866
395.2234, 494.6855
395.7055, 476.5998
396.1877, 465.1984
396.6698, 462.1653
397.1519, 462.9491
397.6340, 466.6550
398.1161, 473.4033
398.5982, 481.4325
399.0804, 489.6437
399.5625, 499.7197
400.0446, 512.9582
400.5267, 531.5143
401.0088, 550.2388
401.4909, 568.9402
401.9731, 587.4688
402.4552, 605.7073
402.9373, 627.5216
403.4194, 642.7922
403.9015, 646.9108
404.3836, 639.3632
404.8658, 621.5073
405.3479, 590.5182
405.8300, 553.2735
406.3121, 517.8666
406.7942, 483.6419
407.2763, 455.8939
407.7585, 437.2166
408.2406, 426.4816
408.7227, 418.4117
409.2048, 413.1841
409.6869, 409.2952
410.1690, 405.2258
410.6512, 401.3029
411.1333, 399.0784
411.6154, 399.1629
412.0975, 400.4917
412.5796, 401.2792
413.0617, 401.7774
413.5439, 403.2221
414.0260, 406.9540
414.5081, 411.8437
414.9902, 415.9869
415.4723, 419.1376
415.9544, 422.9756
416.4366, 429.4479
416.9187, 437.3355
417.4008, 444.7798
417.8829, 452.1031
418.3650, 457.9733
418.8471, 462.3943
419.3293, 465.0376
419.8114, 464.2499
420.2935, 456.6438
420.7756, 447.0291
421.2577, 438.6295
421.7398, 431.5164
422.2220, 426.2384
422.7041, 423.6109
423.1862, 422.7554
423.6683, 422.0605
424.1504, 420.7076
424.6325, 420.1155
425.1147, 420.7818
425.5968, 422.8356
426.0789, 424.9656
426.5610, 426.5742
427.0431, 428.7988
427.5252, 432.5955
428.0074, 438.3936
428.4895, 444.7248
428.9716, 451.2076
429.4537, 458.1040
429.9358, 466.2264
430.4179, 475.6578
430.9001, 485.8988
431.3822, 496.4793
431.8643, 507.3830
432.3464, 519.5701
432.8285, 533.0258
433.3106, 547.8148
433.7928, 564.9064
434.2749, 583.9252
434.7570, 601.8166
435.2391, 618.1111
435.7212, 632.3354
436.2033, 644.0577
436.6855, 653.0828
437.1676, 658.4146
437.6497, 660.4086
438.1318, 657.9178
438.6139, 649.2371
439.0960, 634.1016
439.5782, 612.7661
440.0603, 580.5084
440.5424, 542.4580
441.0245, 508.7214
441.5066, 482.7759
441.9887, 462.6640
442.4709, 448.0630
442.9530, 438.8236
443.4351, 432.5122
443.9172, 429.4018
444.3993, 428.2197
444.8814, 428.0912
445.3636, 428.7479
445.8457, 430.5706
446.3278, 434.8252
446.8099, 440.2769
447.2920, 444.0286
447.7741, 447.4216
448.2563, 447.5399
448.7384, 443.0137
449.2205, 433.2452
449.7026, 423.2641
450.1847, 412.6526
450.6668, 402.5027
451.1490, 393.7988
451.6311, 386.5452
452.1132, 380.6996
452.5953, 376.3280
453.0774, 373.2603
453.5595, 370.7614
454.0417, 368.7810
454.5238, 367.7811
455.0059, 368.7397
455.4880, 371.1010
455.9701, 371.6512
456.4522, 370.0485
456.9344, 368.2549
457.4165, 368.4037
457.8986, 370.0626
458.3807, 372.0848
458.8628, 374.4925
459.3449, 376.6783
459.8271, 377.5178
460.3092, 377.3802
460.7913, 377.8633
461.2734, 380.3438
461.7555, 383.5760
462.2376, 386.5703
462.7198, 389.1268
463.2019, 391.6107
463.6840, 394.0004
464.1661, 396.4479
464.6482, 399.1371
465.1303, 402.5313
465.6125, 405.7288
466.0946, 408.3912
466.5767, 410.5918
467.0588, 412.8326
467.5409, 414.0322
468.0230, 416.2671
468.5052, 420.4330
468.9873, 426.7314
469.4694, 434.5590
469.9515, 444.4168
470.4336, 455.3315
470.9157, 466.2523
471.3979, 477.3155
471.8800, 487.7075
472.3621, 497.1344
472.8442, 505.7047
473.3263, 513.9392
473.8084, 521.6589
474.2906, 530.4265
474.7727, 541.5493
475.2548, 554.7432
475.7369, 568.6100
476.2190, 583.0052
476.7011, 598.2440
477.1833, 614.6288
477.6654, 632.3069
478.1475, 651.6739
478.6296, 671.9184
479.1117, 694.6064
479.5938, 721.1653
480.0760, 751.6852
480.5581, 785.6686
481.0402, 821.8313
481.5223, 862.2559
482.0044, 909.7410
482.4865, 966.8948
482.9687, 1024.023
483.4508, 1078.801
483.9329, 1131.520
484.4150, 1181.836
484.8971, 1243.810
485.3792, 1289.072
485.8614, 1314.992
486.3435, 1321.408
486.8256, 1296.689
487.3077, 1228.508
487.7898, 1144.222
488.2719, 1054.257
488.7541, 953.5752
489.2362, 868.8930
489.7183, 801.3995
490.2004, 748.4895
490.6825, 706.7732
491.1646, 676.6868
491.6468, 652.5369
492.1289, 633.8055
492.6110, 619.0526
493.0931, 603.4086
493.5752, 586.8057
494.0573, 569.5334
494.5395, 550.4355
495.0216, 530.9323
495.5037, 513.4329
495.9858, 498.5945
496.4679, 485.4946
496.9500, 473.6895
497.4322, 463.1782
497.9143, 454.1764
498.3964, 446.8073
498.8785, 440.9059
499.3606, 436.9987
499.8427, 434.7071
500.3249, 432.5436
500.8070, 429.4077
501.2891, 426.6824
501.7712, 425.2145
502.2533, 425.5243
502.7354, 425.8436
503.2176, 425.6732
503.6997, 425.6419
504.1818, 426.4383
504.6639, 428.5626
505.1460, 430.5440
505.6281, 431.9788
506.1103, 433.1398
506.5924, 435.0961
507.0745, 437.9813
507.5566, 441.1679
508.0387, 444.4462
508.5208, 447.8000
509.0030, 451.2105
509.4851, 454.8498
509.9672, 457.5769
510.4493, 457.7368
510.9314, 455.9078
511.4135, 454.1336
511.8957, 453.3120
512.3778, 452.1397
512.8599, 449.2476
513.3420, 444.7845
513.8242, 439.1931
514.3063, 432.0132
514.7884, 424.1917
515.2705, 416.1560
515.7526, 407.9615
516.2347, 400.5982
516.7169, 394.8179
517.1990, 389.8177
517.6811, 384.9584
518.1632, 379.1276
518.6453, 374.7929
519.1274, 373.3204
519.6096, 373.2794
520.0917, 372.0576
520.5738, 368.8534
521.0559, 365.7694
521.5380, 363.1380
522.0201, 360.9949
522.5023, 360.2212
522.9844, 361.2864
523.4665, 362.3901
523.9486, 361.9972
524.4307, 360.2052
524.9128, 359.0737
525.3950, 358.8537
525.8771, 359.0353
526.3592, 358.9955
526.8413, 358.7946
527.3234, 358.6618
527.8055, 358.7617
528.2877, 358.8884
528.7698, 358.6434
529.2519, 358.1588
529.7340, 357.9930
530.2161, 359.0003
530.6982, 360.0826
531.1804, 360.2431
531.6625, 359.1485
532.1446, 358.4577
532.6267, 359.1079
533.1088, 360.2296
533.5909, 361.0113
534.0731, 361.0521
534.5552, 361.1332
535.0373, 361.3586
535.5194, 361.6592
536.0015, 361.8418
536.4836, 361.7733
536.9658, 361.8451
537.4479, 362.1548
537.9300, 362.6998
538.4121, 363.5621
538.8942, 364.7337
539.3763, 366.2250
539.8585, 368.2071
540.3406, 370.5739
540.8227, 372.6959
541.3048, 374.4704
541.7869, 376.1359
542.2690, 378.0553
542.7512, 380.1102
543.2333, 382.0093
543.7154, 383.8465
544.1975, 385.3011
544.6796, 385.8358
545.1617, 385.6678
545.6439, 385.7269
546.1260, 387.2815
546.6081, 388.5496
547.0902, 388.3248
547.5723, 386.1030
548.0544, 384.0013
548.5366, 382.0273
549.0187, 380.4544
549.5008, 379.4958
549.9829, 379.1635
550.4650, 379.4760
550.9471, 380.7201
551.4293, 382.4579
551.9114, 383.5640
552.3935, 383.8362
552.8756, 384.4528
553.3577, 385.8324
553.8398, 387.9205
554.3220, 390.4054
554.8041, 393.2919
555.2862, 396.8432
555.7683, 401.8400
556.2504, 407.5590
556.7325, 412.4033
557.2147, 415.9352
557.6968, 419.8393
558.1789, 425.4398
558.6610, 432.3709
559.1431, 440.0316
559.6252, 449.0955
560.1074, 457.9045
560.5895, 466.1996
561.0716, 473.8066
561.5537, 479.9944
562.0358, 485.8376
562.5179, 489.1020
563.0001, 488.8414
563.4822, 484.9162
563.9643, 479.1401
564.4464, 470.2064
564.9285, 461.2546
565.4106, 454.2747
565.8928, 449.2132
566.3749, 446.5553
566.8570, 446.5637
567.3391, 448.4348
567.8212, 451.2125
568.3033, 454.8649
568.7855, 458.9694
569.2676, 463.4809
569.7497, 468.3095
570.2318, 474.3999
570.7139, 481.0466
571.1960, 485.6712
571.6782, 486.9910
572.1603, 485.4180
572.6424, 480.8985
573.1245, 473.3089
573.6066, 464.3975
574.0887, 453.6489
574.5709, 442.4783
575.0530, 431.8596
575.5351, 421.0323
576.0172, 411.9354
576.4993, 405.1666
576.9814, 399.8490
577.4636, 394.6632
577.9457, 389.3739
578.4278, 384.8619
578.9099, 381.4557
579.3920, 379.0205
579.8741, 377.1244
580.3563, 375.7862
580.8384, 374.8614
581.3205, 374.3835
581.8026, 374.2412
582.2847, 374.1631
582.7668, 374.1392
583.2490, 374.1432
583.7311, 374.2766
584.2132, 374.3781
584.6953, 374.1687
585.1774, 373.3610
585.6595, 372.7718
586.1416, 373.0551
586.6237, 373.7720
587.1058, 374.2604
587.5880, 374.5649
588.0701, 374.4099
588.5522, 373.4579
589.0343, 371.9209
589.5164, 370.7590
589.9985, 370.1112
590.4807, 369.5954
590.9628, 368.9971
591.4449, 368.3053
591.9270, 367.9199
592.4091, 367.7661
592.8912, 368.2209
593.3734, 370.2608
593.8555, 373.3837
594.3376, 374.9221
594.8197, 374.1823
595.3018, 373.1602
595.7839, 374.4372
596.2661, 376.9771
596.7482, 378.7730
597.2303, 378.2079
597.7124, 377.5644
598.1945, 378.0079
598.6766, 379.4243
599.1588, 381.4944
599.6409, 384.5661
600.1230, 387.8422
600.6051, 391.2186
601.0872, 394.7070
601.5693, 397.4655
602.0515, 399.0174
602.5336, 400.4449
603.0157, 402.5393
603.4978, 405.5156
603.9799, 407.7995
604.4620, 409.2629
604.9442, 410.3053
605.4263, 411.8833
605.9084, 413.6801
606.3905, 413.7071
606.8726, 411.2416
607.3547, 407.3392
607.8369, 402.5358
608.3190, 397.2888
608.8011, 392.6253
609.2832, 389.4045
609.7653, 386.6655
610.2474, 383.7318
610.7296, 380.6536
611.2117, 378.1643
611.6938, 376.7741
612.1759, 375.7238
612.6580, 374.6041
613.1401, 373.2670
613.6223, 372.4367
614.1044, 372.3581
614.5865, 372.4666
615.0686, 372.2482
615.5507, 371.6527
616.0328, 371.2629
616.5150, 371.2340
616.9971, 371.2108
617.4792, 370.6299
617.9613, 369.5769
618.4434, 368.4172
618.9255, 367.2415
619.4077, 366.0731
619.8898, 364.7650
620.3719, 363.4516
620.8540, 362.5279
621.3361, 362.3117
621.8182, 362.4493
622.3004, 362.8732
622.7825, 363.5655
623.2646, 364.1087
623.7467, 364.1766
624.2288, 364.2734
624.7109, 364.6886
625.1931, 365.5977
625.6752, 366.1550
626.1573, 366.1534
626.6394, 366.1359
627.1215, 366.7542
627.6036, 368.0165
628.0858, 369.1641
628.5679, 370.1212
629.0500, 370.8173
629.5321, 371.0856
630.0142, 370.9921
630.4963, 370.7122
630.9785, 369.8242
631.4606, 369.2709
631.9427, 370.2061
632.4248, 372.2188
632.9069, 373.9945
633.3890, 374.5764
633.8712, 375.1587
634.3533, 376.4840
634.8354, 378.6729
635.3175, 380.1198
635.7996, 380.6430
636.2817, 380.5710
636.7639, 380.0014
637.2460, 378.8367
637.7281, 377.6891
638.2102, 376.6243
638.6923, 375.3540
639.1744, 373.3333
639.6566, 370.7395
640.1387, 368.5505
640.6208, 367.0412
641.1029, 365.8275
641.5850, 364.4640
642.0671, 363.0927
642.5493, 361.9648
643.0314, 361.2790
643.5135, 360.7970
643.9956, 360.6187
644.4777, 360.5851
644.9598, 360.1898
645.4420, 358.7187
645.9241, 357.5084
646.4062, 356.9508
646.8883, 357.0323
647.3704, 357.4648
647.8525, 358.4108
648.3347, 359.3475
648.8168, 359.9412
649.2989, 360.2071
649.7810, 360.4066
650.2631, 360.5288
650.7452, 360.6575
651.2274, 360.5887
651.7095, 360.6244
652.1916, 361.5692
652.6737, 363.7914
653.1558, 365.9800
653.6379, 367.0239
654.1201, 367.5151
654.6022, 368.2422
655.0843, 370.1900
655.5664, 371.5237
656.0485, 371.5532
656.5306, 370.6895
657.0128, 369.7958
657.4949, 368.2978
657.9770, 367.9439
658.4591, 369.6831
658.9412, 372.8226
659.4233, 374.1026
659.9055, 373.3678
660.3876, 372.5268
660.8697, 372.5239
661.3518, 373.2057
661.8339, 374.4538
662.3160, 376.2139
662.7982, 377.6857
663.2803, 377.4213
663.7624, 377.1154
664.2445, 378.7764
664.7266, 383.0858
665.2087, 386.6855
665.6909, 388.0078
666.1730, 388.4149
666.6551, 388.9816
667.1372, 389.1891
667.6193, 390.7168
668.1014, 394.5358
668.5836, 398.6561
669.0657, 400.0652
669.5478, 398.5112
670.0299, 397.1644
670.5120, 396.8918
670.9941, 396.7423
671.4763, 394.8743
671.9584, 391.6150
672.4405, 388.2240
672.9226, 385.2191
673.4047, 382.3387
673.8868, 379.1377
674.3690, 375.8374
674.8511, 373.1151
675.3332, 371.5726
675.8153, 370.3558
676.2974, 369.0804
676.7795, 367.7191
677.2617, 366.5501
677.7438, 365.5462
678.2259, 364.7549
678.7080, 364.1380
679.1901, 363.6747
679.6722, 363.8650
680.1544, 364.8156
680.6365, 365.8001
681.1186, 366.2307
681.6007, 366.1705
682.0828, 365.6103
682.5649, 364.4208
683.0471, 363.5181
683.5292, 364.1540
684.0113, 365.3300
684.4934, 365.8122
684.9755, 364.7207
685.4576, 363.7700
685.9398, 363.5731
686.4219, 363.7128
686.9040, 363.4890
687.3861, 362.7206
687.8682, 361.9359
688.3503, 361.1542
688.8325, 360.4585
689.3146, 360.2151
689.7967, 360.4385
690.2788, 360.3881
690.7609, 359.5458
691.2430, 358.4166
691.7252, 357.9124
692.2073, 357.9386
692.6894, 358.0882
693.1715, 358.2529
693.6536, 358.3488
694.1357, 358.3158
694.6179, 358.1484
695.1000, 357.8778
695.5821, 357.1279
696.0642, 356.6172
696.5463, 356.6392
697.0284, 357.2026
697.5106, 358.4025
697.9927, 360.6255
698.4748, 362.5935
698.9569, 362.9974
699.4390, 362.0562
699.9211, 361.5714
700.4033, 361.7204
700.8854, 361.9807
701.3675, 361.6953
701.8496, 361.2159
702.3317, 361.2144
702.8138, 362.2010
703.2960, 362.7347
703.7781, 361.4510
704.2602, 359.5466
704.7423, 358.4866
705.2244, 359.7411
705.7065, 360.2007
706.1887, 359.1642
706.6708, 357.4887
707.1529, 356.6934
707.6350, 356.8431
708.1171, 357.5699
708.5992, 359.1242
709.0814, 360.7744
709.5635, 360.6256
710.0456, 359.0678
710.5277, 357.9589
711.0098, 358.9856
711.4919, 360.2631
711.9741, 359.7090
712.4562, 357.8688
712.9383, 356.9233
713.4204, 358.6477
713.9025, 360.5042
714.3846, 361.2494
714.8668, 360.9575
715.3489, 361.2937
715.8310, 362.5694
716.3131, 363.8576
716.7952, 364.6855
717.2773, 365.0768
717.7595, 365.3685
718.2416, 365.5385
718.7237, 365.9790
719.2058, 367.2821
719.6879, 368.9594
720.1700, 370.2366
720.6522, 371.0411
721.1343, 371.5558
721.6164, 371.8863
722.0985, 371.9820
722.5806, 371.7544
723.0627, 370.9058
723.5449, 370.4224
724.0270, 370.6651
724.5091, 370.9809
724.9912, 370.8320
725.4733, 370.2275
725.9554, 368.9964
726.4376, 367.0310
726.9197, 364.7167
727.4018, 362.2428
727.8839, 359.8465
728.3660, 358.3689
728.8481, 358.2702
729.3303, 358.5231
729.8124, 358.5254
730.2945, 358.2307
730.7766, 357.5683
731.2587, 356.0889
731.7408, 354.7293
732.2230, 353.5899
732.7051, 352.7273
733.1872, 352.2774
733.6693, 352.2648
734.1514, 352.6822
734.6335, 353.8034
735.1157, 355.1013
735.5978, 354.9373
736.0799, 353.4997
736.5620, 352.3748
737.0441, 352.7182
737.5262, 353.4189
738.0084, 353.0717
738.4905, 351.9684
738.9726, 351.0998
739.4547, 350.9331
739.9368, 351.0532
740.4189, 351.4585
740.9011, 352.0955
741.3832, 352.2815
741.8653, 351.7373
742.3474, 351.2333
742.8295, 351.0583
743.3116, 351.1918
743.7938, 351.7038
744.2759, 352.6158
744.7580, 353.1279
745.2401, 352.1607
745.7222, 350.6738
746.2043, 350.2996
746.6865, 351.0504
747.1686, 351.7026
747.6507, 351.6675
748.1328, 351.2484
748.6149, 350.4037
749.0970, 348.8673
749.5792, 348.5233
750.0613, 350.3217
750.5434, 352.1751
751.0255, 352.6755
751.5076, 351.6808
751.9897, 350.8782
752.4719, 350.2456
752.9540, 349.9902
753.4361, 350.6627
753.9182, 351.7550
754.4003, 352.1094
754.8824, 351.4610
755.3646, 350.9544
755.8467, 351.6729
756.3288, 352.7091
756.8109, 353.1772
757.2930, 352.6006
757.7751, 352.1593
758.2573, 351.9648
758.7394, 351.8914
759.2215, 351.8288
759.7036, 351.7775
760.1857, 351.7240
760.6678, 351.6515
761.1500, 351.6328
761.6321, 351.8415
762.1142, 352.1713
762.5963, 352.3083
763.0784, 352.0463
763.5605, 351.9447
764.0427, 352.7648
764.5248, 353.8330
765.0069, 354.3062
765.4890, 353.3613
765.9711, 352.6385
766.4532, 352.2164
766.9354, 352.0932
767.4175, 352.4006
767.8996, 353.2814
768.3817, 353.6395
768.8638, 353.1518
769.3459, 352.3941
769.8281, 352.1581
770.3102, 352.4055
770.7923, 353.0833
771.2744, 354.5826
771.7565, 355.8602
772.2386, 356.0960
772.7208, 355.6513
773.2029, 355.1553
773.6850, 354.5760
774.1671, 354.1810
774.6492, 354.1001
775.1313, 354.1699
775.6135, 354.1079
776.0956, 353.9459
776.5777, 353.3106
777.0598, 351.8023
777.5419, 350.2226
778.0240, 350.3292
778.5062, 351.6122
778.9883, 352.4788
779.4704, 351.7027
779.9525, 350.8004
780.4346, 350.6425
780.9167, 351.0670
781.3989, 351.6638
781.8810, 352.3972
782.3631, 353.3197
782.8452, 354.9073
783.3273, 356.5297
783.8094, 355.8675
784.2916, 352.6209
784.7737, 350.1282
785.2558, 349.6562
785.7379, 350.5009
786.2200, 351.9043
786.7021, 353.6065
787.1843, 354.6588
787.6664, 354.2554
788.1485, 353.4519
788.6306, 352.5554
789.1127, 351.6913
789.5948, 351.3473
790.0770, 352.0780
790.5591, 352.5117
791.0412, 352.0288
791.5233, 351.1053
792.0054, 351.7842
792.4875, 354.0995
792.9697, 355.9897
793.4518, 356.4125
793.9339, 355.9760
794.4160, 355.2269
794.8981, 354.3652
795.3802, 354.0605
795.8624, 355.5295
796.3445, 356.7357
796.8266, 356.3659
797.3087, 354.7865
797.7908, 354.0043
798.2729, 354.4488
798.7551, 354.9606
799.2372, 355.1838
799.7193, 355.2452
800.2014, 355.6773
800.6835, 356.4487
801.1656, 357.1172
801.6478, 357.6363
802.1299, 357.7892
802.6120, 356.8582
803.0941, 355.2813
803.5762, 354.4496
804.0583, 356.0964
804.5405, 357.3904
805.0226, 356.7070
805.5047, 354.6943
805.9868, 353.9501
806.4689, 354.7931
806.9510, 355.9614
807.4332, 357.1922
807.9153, 358.3364
808.3974, 358.9481
808.8795, 359.0555
809.3616, 358.8138
809.8438, 357.8036
810.3259, 356.9121
810.8080, 356.9971
811.2901, 357.8252
811.7722, 358.6100
812.2543, 359.1095
812.7365, 359.6011
813.2186, 360.3119
813.7007, 361.0469
814.1828, 360.8535
814.6649, 359.5303
815.1470, 358.9084
815.6292, 360.0961
816.1113, 361.9191
816.5934, 361.9798
817.0755, 360.7425
817.5576, 359.7608
818.0397, 360.2802
818.5219, 360.7543
819.0040, 360.1131
819.4861, 358.7691
819.9682, 358.1299
820.4503, 358.6866
820.9324, 359.2359
821.4146, 359.5872
821.8967, 359.7309
822.3788, 359.4826
822.8609, 358.8847
823.3430, 358.5477
823.8251, 358.7886
824.3073, 359.2741
824.7894, 359.7292
825.2715, 360.1102
825.7536, 360.3437
826.2357, 359.9856
826.7178, 359.9449
827.2000, 361.1588
827.6821, 362.6805
828.1642, 362.5402
828.6463, 360.1273
829.1284, 358.1902
829.6105, 357.2409
830.0927, 357.0825
830.5748, 357.6423
831.0569, 358.7161
831.5390, 359.5717
832.0211, 359.7529
832.5032, 360.0070
832.9854, 361.3334
833.4675, 362.9398
833.9496, 363.5905
834.4317, 361.7191
834.9138, 360.7308
835.3959, 361.2568
835.8781, 362.3623
836.3602, 362.4419
836.8423, 361.4995
837.3244, 361.3923
837.8065, 362.7362
838.2886, 364.1112
838.7708, 363.3132
839.2529, 361.5519
839.7350, 360.8914
840.2171, 361.1338
840.6992, 363.1588
841.1813, 364.4374
841.6635, 365.0097
842.1456, 362.7598
842.6277, 364.1541
843.1098, 364.0879
843.5919, 363.9619
844.0740, 365.8690
844.5562, 364.0297
845.0383, 365.9046
845.5204, 366.2968
846.0025, 367.3676
846.4846, 366.9690
846.9667, 367.0242
847.4489, 368.5494
847.9310, 369.2607
848.4131, 368.6929
848.8952, 369.8068
849.3773, 367.9160
849.8594, 368.6619
850.3416, 370.5455
850.8237, 370.0516
851.3058, 371.1924
851.7879, 371.7106
852.2700, 369.3101
852.7521, 370.5765
853.2343, 372.6955
853.7164, 374.1784
854.1985, 374.8471
854.6806, 375.1179
855.1627, 374.2862
855.6448, 373.9063
856.1270, 375.0403
856.6091, 377.7475
857.0912, 378.7428
857.5733, 377.6221
858.0554, 376.9935
858.5375, 379.4405
859.0197, 383.2731
859.5018, 384.4140
859.9839, 383.2426
860.4660, 382.2899
860.9481, 383.0848
861.4302, 384.3454
861.9124, 385.4167
862.3945, 386.3006
862.8766, 387.4535
863.3587, 389.0070
863.8408, 390.4765
864.3229, 391.6288
864.8051, 392.6167
865.2872, 393.7956
865.7693, 395.1822
866.2514, 396.8191
866.7335, 399.0030
867.2156, 401.1537
867.6978, 402.4259
868.1799, 403.3193
868.6620, 405.0051
869.1441, 408.4480
869.6262, 411.7109
870.1083, 414.0616
870.5905, 416.5152
871.0726, 421.8677
871.5547, 430.0550
872.0368, 435.7192
872.5189, 436.8521
873.0010, 436.9143
873.4832, 439.5661
873.9653, 444.0091
874.4474, 448.9147
874.9295, 453.9561
875.4116, 459.3974
875.8937, 465.0307
876.3759, 471.2958
876.8580, 478.6622
877.3401, 487.2880
877.8222, 496.2275
878.3043, 505.5633
878.7864, 514.6604
879.2686, 522.4261
879.7507, 529.7241
880.2328, 538.2178
880.7149, 548.2271
881.1970, 558.5898
881.6791, 568.9309
882.1613, 579.2643
882.6434, 589.5868
883.1255, 599.7711
883.6076, 610.9244
884.0897, 623.1920
884.5718, 635.9894
885.0540, 649.2596
885.5361, 662.8282
886.0182, 675.5453
886.5003, 687.5675
886.9824, 699.3720
887.4645, 713.0752
887.9467, 725.0118
888.4288, 732.8199
888.9109, 736.4108
889.3930, 738.2562
889.8751, 739.2613
890.3572, 736.7222
890.8394, 729.3402
891.3215, 718.2221
891.8036, 705.7664
892.2857, 692.2826
892.7678, 678.7314
893.2499, 664.5974
893.7321, 651.9489
894.2142, 642.3826
894.6963, 635.2696
895.1784, 629.5498
895.6605, 625.1168
896.1426, 621.9119
896.6248, 619.9735
897.1069, 619.1872
897.5890, 619.3456
898.0711, 620.4656
898.5532, 623.0631
899.0353, 627.6305
899.5175, 631.7967
899.9996, 634.2593
900.4817, 634.6144
900.9638, 632.3531
901.4459, 627.0930
901.9280, 619.9330
902.4102, 611.0029
902.8923, 600.3000
903.3744, 587.1529
903.8565, 571.3738
904.3386, 557.7179
904.8207, 546.4221
905.3029, 535.4337
905.7850, 522.8266
906.2671, 510.1413
906.7492, 498.8530
907.2313, 489.0740
907.7134, 480.1734
908.1956, 472.1183
908.6777, 464.8223
909.1598, 458.4144
909.6419, 452.7372
910.1240, 446.7699
910.6061, 440.5120
911.0883, 435.3724
911.5704, 432.5283
912.0525, 430.5107
912.5346, 427.3433
913.0167, 423.5012
913.4988, 420.0155
913.9810, 416.8993
914.4631, 414.6581
914.9452, 413.8270
915.4273, 413.5958
915.9094, 412.7697
916.3915, 411.2935
916.8737, 410.0868
917.3558, 409.3185
917.8379, 408.6551
918.3200, 407.3322
918.8021, 406.0226
919.2842, 405.9036
919.7664, 407.5137
920.2485, 408.8116
920.7306, 408.9849
921.2127, 408.7871
921.6948, 408.5107
922.1769, 408.0965
922.6591, 408.6432
923.1412, 410.2573
923.6233, 411.7701
924.1054, 411.8727
924.5875, 411.6693
925.0696, 412.8971
925.5518, 415.3654
926.0339, 417.7967
926.5160, 419.6219
926.9981, 421.3734
927.4802, 423.1991
927.9623, 425.0762
928.4445, 426.9347
928.9266, 428.7695
929.4087, 430.7448
929.8908, 432.9113
930.3729, 435.2902
930.8550, 438.0710
931.3372, 441.0656
931.8193, 443.8508
932.3014, 445.9667
932.7835, 448.4708
933.2656, 451.6781
933.7477, 455.3568
934.2299, 459.5140
934.7120, 464.2271
935.1941, 468.4836
935.6762, 472.1823
936.1583, 475.7792
936.6404, 479.6281
937.1226, 483.6185
937.6047, 487.6227
938.0868, 491.6241
938.5689, 495.3638
939.0510, 498.5106
939.5331, 501.5899
940.0153, 504.6628
940.4974, 507.8160
940.9795, 511.8325
941.4616, 516.7488
941.9437, 522.0029
942.4258, 527.6998
942.9080, 533.1215
943.3901, 537.0377
943.8722, 539.9680
944.3543, 543.0236
944.8364, 546.1884
945.3185, 550.0359
945.8007, 554.7513
946.2828, 560.0035
946.7649, 565.8218
947.2470, 572.1616
947.7291, 576.9142
948.2112, 579.6771
948.6934, 581.7679
949.1755, 584.4080
949.6576, 587.0974
950.1397, 589.3379
950.6218, 591.0273
951.1039, 592.4643
951.5861, 594.4348
952.0682, 595.1243
952.5503, 593.3508
953.0324, 589.4616
953.5145, 585.6599
953.9966, 581.9642
954.4788, 578.4073
954.9609, 574.7000
955.4430, 571.3815
955.9251, 569.1865
956.4072, 567.7170
956.8893, 565.8841
957.3715, 563.1618
957.8536, 560.7870
958.3357, 559.1448
958.8178, 557.6060
959.2999, 555.0579
959.7820, 551.6971
960.2642, 548.6588
960.7463, 546.2825
961.2284, 543.3099
961.7105, 538.3456
962.1926, 532.6620
962.6747, 527.4088
963.1569, 522.8907
963.6390, 517.5422
964.1211, 511.0743
964.6032, 504.4435
965.0853, 498.5058
965.5674, 492.8960
966.0496, 486.6898
966.5317, 479.9905
967.0138, 472.9930
967.4959, 465.2723
967.9780, 457.9079
968.4601, 451.4537
968.9423, 445.8457
969.4244, 441.2584
969.9065, 437.9677
970.3886, 434.3280
970.8707, 429.9201
971.3528, 425.3862
971.8350, 421.4385
972.3171, 417.9693
972.7992, 414.7262
973.2813, 411.6653
973.7634, 408.6512
974.2455, 405.3898
974.7277, 402.3795
975.2098, 399.9255
975.6919, 398.0291
976.1740, 396.7136
976.6561, 396.0153
977.1382, 395.0790
977.6204, 392.8978
978.1025, 390.5130
978.5846, 389.1748
979.0667, 388.6797
979.5488, 388.3794
980.0309, 388.5326
980.5131, 388.2535
980.9952, 387.2946
981.4773, 385.9588
981.9594, 384.7231
982.4415, 383.5733
982.9236, 382.2610
983.4058, 380.6920
983.8879, 379.4072
984.3700, 379.2070
984.8521, 379.2901
985.3342, 378.7527
985.8163, 377.2029
986.2985, 376.7198
986.7806, 377.7685
987.2627, 378.8602
987.7448, 379.2063
988.2269, 379.0272
988.7090, 378.9757
989.1912, 379.0088
989.6733, 378.9276
990.1554, 378.1042
990.6375, 377.7330
991.1196, 378.7792
991.6017, 380.5228
992.0839, 381.6818
992.5660, 382.0978
993.0481, 382.6527
993.5302, 383.4809
994.0123, 384.3123
994.4944, 384.3920
994.9766, 384.4615
995.4587, 386.0456
995.9408, 389.4445
996.4229, 391.9681
996.9050, 391.8336
997.3871, 391.5346
997.8693, 392.0919
998.3514, 393.3692
998.8335, 394.6403
999.3156, 395.8905
999.7977, 396.9243
1000.280, 397.7738
1000.762, 398.2033
1001.244, 398.1625
1001.726, 397.5053
1002.208, 395.9478
1002.690, 392.4951
1003.173, 389.8173
1003.655, 388.1814
1004.137, 386.9886
1004.619, 385.9018
1005.101, 384.7504
1005.583, 382.8057
1006.065, 380.0456
1006.547, 377.5426
1007.029, 375.8983
1007.512, 374.6787
1007.994, 373.6878
1008.476, 372.8928
1008.958, 372.3751
1009.440, 372.1997
1009.922, 371.8141
1010.404, 370.9013
1010.886, 370.0352
1011.369, 370.5146
1011.851, 371.4544
1012.333, 371.2273
1012.815, 368.6288
1013.297, 366.8226
1013.779, 366.9618
1014.261, 367.3111
1014.743, 366.4116
1015.225, 364.3882
1015.708, 364.2056
1016.190, 365.7269
1016.672, 366.6573
1017.154, 364.2061
1017.636, 361.8004
1018.118, 362.6123
1018.600, 365.5132
1019.082, 366.5472
1019.565, 364.5938
1020.047, 363.3126
1020.529, 363.4434
1021.011, 364.0066
1021.493, 363.4825
1021.975, 362.4094
1022.457, 361.9250
1022.939, 362.2479
1023.421, 362.8901
1023.904, 364.6375
1024.386, 365.5923
1024.868, 364.3976
1025.350, 361.4288
1025.832, 360.4763
1026.314, 361.5167
1026.796, 362.1908
1027.278, 360.9495
1027.760, 359.4630
1028.243, 359.5528
1028.725, 360.5090
1029.207, 361.1615
1029.689, 361.5240
1030.171, 361.0147
1030.653, 359.1978
1031.135, 357.4209
1031.617, 357.2588
1032.100, 358.1667
1032.582, 358.5467
1033.064, 358.3448
1033.546, 358.0415
1034.028, 357.7594
1034.510, 357.5732
1034.992, 357.4748
1035.474, 357.5046
1035.957, 357.9342
1036.439, 358.8181
1036.921, 359.1924
1037.403, 358.7310
1037.885, 358.0512
1038.367, 357.7703
1038.849, 357.7228
1039.331, 357.7320
1039.813, 357.7895
1040.296, 357.7818
1040.778, 357.6027
1041.260, 357.5643
1041.742, 357.9987
1042.224, 358.6460
1042.706, 358.3581
1043.188, 357.4229
1043.670, 356.9562
1044.152, 358.4834
1044.635, 359.4391
1045.117, 358.0313
1045.599, 355.8520
1046.081, 354.9765
1046.563, 355.5794
1047.045, 356.1025
1047.527, 356.4594
1048.009, 356.6162
1048.492, 356.6003
1048.974, 356.3319
1049.456, 355.4288
1049.938, 354.0022
1050.420, 353.5013
1050.902, 354.7091
1051.384, 355.4786
1051.866, 355.1299
1052.349, 354.3124
1052.831, 354.3078
1053.313, 354.8512
1053.795, 355.2175
1054.277, 355.2023
1054.759, 355.0955
1055.241, 354.7924
1055.723, 354.6650
1056.205, 355.1310
1056.688, 356.1501
1057.170, 355.8923
1057.652, 354.3547
1058.134, 353.2510
1058.616, 353.9105
1059.098, 354.9235
1059.580, 354.9213
1060.062, 354.3477
1060.544, 354.0388
1061.027, 354.2906
1061.509, 354.4683
1061.991, 354.5736
1062.473, 354.5317
1062.955, 353.9134
1063.437, 353.2057
1063.919, 353.9128
1064.401, 355.8531
1064.884, 356.9259
1065.366, 355.3556
1065.848, 353.7314
1066.330, 352.7111
1066.812, 352.2778
1067.294, 352.7018
1067.776, 353.8583
1068.258, 354.3910
1068.740, 353.9430
1069.223, 353.2674
1069.705, 352.6720
1070.187, 352.3208
1070.669, 352.4472
1071.151, 353.0787
1071.633, 353.6381
1072.115, 354.2180
1072.597, 354.2189
1073.079, 352.9644
1073.562, 351.5348
1074.044, 351.7937
1074.526, 353.0306
1075.008, 353.9263
1075.490, 353.8367
1075.972, 353.8740
1076.454, 354.3624
1076.936, 354.6333
1077.419, 354.0482
1077.901, 352.7806
1078.383, 351.1906
1078.865, 349.4803
1079.347, 349.0153
1079.829, 352.1303
1080.311, 354.9068
1080.793, 355.1795
1081.275, 354.1568
1081.758, 353.5790
1082.240, 353.4518
1082.722, 353.6992
1083.204, 354.3875
1083.686, 354.7050
1084.168, 353.4101
1084.650, 351.8070
1085.132, 351.2449
1085.615, 351.7675
1086.097, 351.7601
1086.579, 350.9875
1087.061, 350.3036
1087.543, 349.9507
1088.025, 349.8378
1088.507, 350.0011
1088.989, 350.2578
1089.471, 350.2228
1089.953, 349.6791
1090.436, 349.3485
1090.918, 349.3082
1091.400, 349.6528
1091.882, 350.8456
1092.364, 352.3968
1092.846, 351.5299
1093.328, 348.7927
1093.810, 346.7714
1094.293, 346.8359
1094.775, 347.6226
1095.257, 349.2707
1095.739, 350.8036
1096.221, 350.9752
1096.703, 349.5067
1097.185, 349.4420
1097.667, 350.8857
1098.150, 351.8569
1098.632, 349.8716
1099.114, 347.6563
1099.596, 347.8213
1100.078, 349.7090
1100.560, 351.0760
1101.042, 351.9596
1101.524, 351.5631
1102.006, 349.3741
1102.489, 347.2706
1102.971, 347.8192
1103.453, 349.6093
1103.935, 350.4843
1104.417, 350.2675
1104.899, 349.9733
1105.381, 349.7481
1105.863, 349.6769
1106.345, 349.9302
1106.828, 350.1786
1107.310, 349.4933
1107.792, 348.2081
1108.274, 347.4244
1108.756, 347.5218
1109.238, 347.5080
1109.720, 346.4891
1110.202, 345.6551
1110.685, 345.7856
1111.167, 346.7126
1111.649, 347.1396
1112.131, 347.1172
1112.613, 347.2037
1113.095, 347.8587
1113.577, 348.3015
1114.059, 347.7210
1114.542, 346.7523
1115.024, 346.0818
1115.506, 345.6456
1115.988, 346.1354
1116.470, 347.6881
1116.952, 348.7742
1117.434, 347.8780
1117.916, 346.3744
1118.398, 345.6835
1118.880, 345.5795
1119.363, 345.4897
1119.845, 345.2582
1120.327, 345.1667
1120.809, 345.2167
1121.291, 345.4616
1121.773, 346.3445
1122.255, 347.2776
1122.737, 347.0007
1123.220, 345.6489
1123.702, 344.5228
1124.184, 343.9331
1124.666, 343.8911
1125.148, 344.6705
1125.630, 345.6046
1126.112, 345.4895
1126.594, 344.6522
1127.077, 344.0954
1127.559, 343.9681
1128.041, 343.8926
1128.523, 343.3722
1129.005, 343.2592
1129.487, 344.1542
1129.969, 345.5837
1130.451, 346.0454
1130.933, 345.6386
1131.416, 345.0619
1131.898, 344.3912
1132.380, 343.9996
1132.862, 344.4622
1133.344, 345.0294
1133.826, 345.1191
1134.308, 344.7407
1134.790, 344.0460
1135.272, 343.0139
1135.755, 342.3990
1136.237, 342.7266
1136.719, 343.1851
1137.201, 343.0768
1137.683, 342.6221
1138.165, 341.9893
1138.647, 340.9892
1139.129, 340.9246
1139.612, 341.9371
1140.094, 342.9576
1140.576, 343.2889
1141.058, 343.2678
1141.540, 343.3994
1142.022, 343.4869
1142.504, 343.0844
1142.986, 341.5827
1143.469, 340.6081
1143.951, 340.2314
1144.433, 340.2591
1144.915, 340.8734
1145.397, 341.6002
1145.879, 341.4306
1146.361, 340.5528
1146.843, 339.8344
1147.325, 339.8039
1147.807, 339.5676
1148.290, 338.9632
1148.772, 338.2204
1149.254, 337.3390
1149.736, 336.5978
1150.218, 336.9845
1150.700, 338.4440
1151.182, 339.4702
1151.664, 338.9882
1152.147, 338.5010
1152.629, 338.4896
1153.111, 338.6485
1153.593, 338.2945
1154.075, 337.6052
1154.557, 337.3773
1155.039, 337.7599
1155.521, 338.0529
1156.004, 337.6782
1156.486, 337.3360
1156.968, 337.3578
1157.450, 337.6533
1157.932, 338.0283
1158.414, 338.4477
1158.896, 338.6391
1159.378, 338.5179
1159.860, 338.2622
1160.343, 338.1870
1160.825, 337.8113
1161.307, 336.4519
1161.789, 334.4060
1162.271, 334.2905
1162.753, 336.0117
1163.235, 337.4213
1163.717, 337.7491
1164.199, 337.5436
1164.682, 336.7445
1165.164, 335.9770
1165.646, 335.9984
1166.128, 336.8712
1166.610, 337.1137
1167.092, 336.7055
1167.574, 336.0909
1168.056, 335.2947
1168.539, 334.6752
1169.021, 334.5505
1169.503, 334.8068
1169.985, 335.4342
1170.467, 336.7214
1170.949, 336.7639
1171.431, 335.3991
1171.913, 334.3067
1172.396, 335.0509
1172.878, 336.1799
1173.360, 336.1577
1173.842, 335.4134
1174.324, 334.7563
1174.806, 334.2872
1175.288, 333.8098
1175.770, 333.2565
1176.252, 333.0216
1176.734, 333.8242
1177.217, 334.8086
1177.699, 334.8730
1178.181, 334.2266
1178.663, 333.4804
1179.145, 332.4002
1179.627, 332.1528
1180.109, 333.0527
1180.591, 333.8596
1181.074, 332.9054
1181.556, 331.4273
1182.038, 331.2159
1182.520, 332.1188
1183.002, 333.0096
1183.484, 334.0667
1183.966, 334.2944
1184.448, 333.4340
1184.931, 332.1644
1185.413, 331.0114
1185.895, 330.0772
1186.377, 329.6459
1186.859, 329.6586
1187.341, 329.5199
1187.823, 328.8237
1188.305, 328.5992
1188.787, 329.1976
1189.270, 329.9315
1189.752, 329.6825
1190.234, 328.9819
1190.716, 328.7476
1191.198, 329.0661
1191.680, 329.4750
1192.162, 330.0067
1192.644, 330.3930
1193.126, 330.5996
1193.609, 330.5838
1194.091, 330.0646
1194.573, 329.3554
1195.055, 329.0352
1195.537, 329.2010
1196.019, 329.5630
1196.501, 330.1693
1196.983, 330.7801
1197.466, 331.4037
1197.948, 331.8636
1198.430, 331.5918
1198.912, 330.9903
1199.394, 330.9951
1199.876, 331.9102
1200.358, 332.3271
1200.840, 331.7439
1201.323, 331.0220
1201.805, 330.4515
1202.287, 329.9528
1202.769, 329.2715
1203.251, 328.5631
1203.733, 328.1895
1204.215, 328.2917
1204.697, 328.4474
1205.179, 328.4765
1205.661, 328.7904
1206.144, 329.8016
1206.626, 330.9569
1207.108, 330.7520
1207.590, 329.7427
1208.072, 329.1597
1208.554, 329.5237
1209.036, 329.6471
1209.518, 329.1299
1210.001, 328.7899
1210.483, 329.1176
1210.965, 329.8187
1211.447, 330.2398
1211.929, 330.4575
1212.411, 330.6709
1212.893, 330.9983
1213.375, 331.1245
1213.858, 331.0040
1214.340, 330.7335
1214.822, 330.3298
1215.304, 329.8422
1215.786, 329.1711
1216.268, 328.5448
1216.750, 328.5602
1217.232, 330.0327
1217.714, 330.6919
1218.197, 330.0929
1218.679, 329.3159
1219.161, 328.9439
1219.643, 328.9398
1220.125, 329.4684
1220.607, 330.2573
1221.089, 330.6786
1221.571, 330.3497
1222.053, 329.9785
1222.536, 329.6141
1223.018, 329.1812
1223.500, 328.3984
1223.982, 327.6596
1224.464, 328.1820
1224.946, 329.3195
1225.428, 329.5963
1225.910, 327.7396
1226.393, 326.3293
1226.875, 325.3267
1227.357, 325.0153
1227.839, 326.1049
1228.321, 327.7051
1228.803, 328.3049
1229.285, 328.2498
1229.767, 328.3401
1230.250, 328.9058
1230.732, 329.3582
1231.214, 329.7358
1231.696, 329.8271
1232.178, 329.1035
1232.660, 328.2686
1233.142, 328.3735
1233.624, 329.1271
1234.106, 329.9117
1234.589, 331.1876
1235.071, 330.7651
1235.553, 328.2223
1236.035, 326.0044
1236.517, 326.5492
1236.999, 328.0027
1237.481, 328.2089
1237.963, 327.6791
1238.445, 327.6664
1238.928, 328.4280
1239.410, 329.2211
1239.892, 330.1003
1240.374, 330.3257
1240.856, 328.2969
1241.338, 326.3241
1241.820, 327.0696
1242.302, 329.2751
1242.785, 330.2211
1243.267, 329.5855
1243.749, 328.9151
1244.231, 328.2570
1244.713, 327.8809
1245.195, 328.2540
1245.677, 328.7115
1246.159, 328.6821
1246.641, 328.4232
1247.124, 328.4731
1247.606, 328.8906
1248.088, 328.7392
1248.570, 327.9955
1249.052, 327.6306
1249.534, 328.7180
1250.016, 329.9160
1250.498, 330.3756
1250.980, 330.4776
1251.463, 330.8375
1251.945, 331.4389
1252.427, 331.1435
1252.909, 330.0038
1253.391, 329.1057
1253.873, 329.0828
1254.355, 329.5185
1254.837, 330.7586
1255.320, 331.9178
1255.802, 331.6994
1256.284, 330.4206
1256.766, 330.3253
1257.248, 331.2990
1257.730, 331.8665
1258.212, 330.7126
1258.694, 329.8016
1259.177, 329.7012
1259.659, 329.9463
1260.141, 330.1393
1260.623, 330.2690
1261.105, 330.2570
1261.587, 330.1350
1262.069, 330.0615
1262.551, 330.2989
1263.033, 330.2484
1263.516, 329.6991
1263.998, 329.1535
1264.480, 329.3041
1264.962, 329.7226
1265.444, 329.3041
1265.926, 328.3271
1266.408, 327.8900
1266.890, 328.6405
1267.372, 329.3321
1267.855, 329.9362
1268.337, 330.3637
1268.819, 330.4841
1269.301, 330.4302
1269.783, 330.3575
1270.265, 330.2658
1270.747, 330.1457
1271.229, 330.0585
1271.712, 329.6789
1272.194, 328.9256
1272.676, 328.3700
1273.158, 328.3423
1273.640, 328.8100
1274.122, 330.3691
1274.604, 332.1555
1275.086, 332.3634
1275.568, 330.5612
1276.051, 330.0945
1276.533, 331.0612
1277.015, 331.9175
1277.497, 331.0994
1277.979, 330.4695
1278.461, 331.9568
1278.943, 333.7672
1279.425, 333.4715
1279.907, 331.1217
1280.390, 329.7103
1280.872, 329.2513
1281.354, 329.4207
1281.836, 330.6497
1282.318, 331.6869
1282.800, 331.9938
1283.282, 332.0386
1283.764, 332.2439
1284.247, 332.5237
1284.729, 332.4902
1285.211, 332.1423
1285.693, 331.4906
1286.175, 329.6118
1286.657, 328.9447
1287.139, 330.1418
1287.621, 331.6412
1288.104, 332.3757
1288.586, 332.4981
1289.068, 332.0362
1289.550, 331.2910
1290.032, 330.9668
1290.514, 331.6373
1290.996, 331.9886
1291.478, 331.9731
1291.960, 331.8467
1292.443, 331.6862
1292.925, 331.5980
1293.407, 332.0169
1293.889, 332.4737
1294.371, 331.9469
1294.853, 329.9816
1295.335, 329.8933
1295.817, 331.7411
1296.299, 333.0409
1296.782, 331.9944
1297.264, 330.7799
1297.746, 331.1543
1298.228, 332.1076
1298.710, 332.5803
1299.192, 332.6255
1299.674, 333.2236
1300.156, 334.2069
1300.639, 334.3958
1301.121, 332.7745
1301.603, 331.5540
1302.085, 332.3166
1302.567, 333.3077
1303.049, 333.7525
1303.531, 333.5899
##END=



