##NAMES=Laachite
##RRUFFID=R141091
##IDEAL CHEMISTRY=(Ca,Mn^2+^)_2_Zr^4+^_2_Nb^5+^_2_Ti^4+^Fe^2+^O_14_
##LOCALITY=In den Dellen, Laach lake volcano, Mendig, Eifel, Germany
##OWNER=RRUFF
##SOURCE=Ch. and H. Sch√§fer
##DESCRIPTION=Prismatic red-brown crystals
##STATUS=The identification of this mineral has been confirmed only by single crystal X-ray diffraction.
##URL=rruff.info/R141091
9.059570e+001, 2.256190e+003
9.107782e+001, 2.191219e+003
9.155994e+001, 2.168226e+003
9.204205e+001, 2.216633e+003
9.252417e+001, 2.287138e+003
9.300629e+001, 2.363816e+003
9.348840e+001, 2.428459e+003
9.397052e+001, 2.464712e+003
9.445264e+001, 2.465729e+003
9.493475e+001, 2.463316e+003
9.541687e+001, 2.459170e+003
9.589898e+001, 2.456177e+003
9.638110e+001, 2.453255e+003
9.686321e+001, 2.449258e+003
9.734533e+001, 2.442060e+003
9.782745e+001, 2.427739e+003
9.830956e+001, 2.415511e+003
9.879168e+001, 2.405591e+003
9.927380e+001, 2.397856e+003
9.975591e+001, 2.392918e+003
1.002380e+002, 2.389664e+003
1.007201e+002, 2.385617e+003
1.012023e+002, 2.378859e+003
1.016844e+002, 2.370097e+003
1.021665e+002, 2.362704e+003
1.026486e+002, 2.356581e+003
1.031307e+002, 2.351435e+003
1.036128e+002, 2.347123e+003
1.040950e+002, 2.343567e+003
1.045771e+002, 2.340387e+003
1.050592e+002, 2.335947e+003
1.055413e+002, 2.331089e+003
1.060234e+002, 2.327448e+003
1.065055e+002, 2.325749e+003
1.069877e+002, 2.325688e+003
1.074698e+002, 2.326513e+003
1.079519e+002, 2.330057e+003
1.084340e+002, 2.331804e+003
1.089161e+002, 2.329690e+003
1.093982e+002, 2.324317e+003
1.098804e+002, 2.317300e+003
1.103625e+002, 2.309628e+003
1.108446e+002, 2.300911e+003
1.113267e+002, 2.293614e+003
1.118088e+002, 2.287031e+003
1.122909e+002, 2.282168e+003
1.127731e+002, 2.280676e+003
1.132552e+002, 2.282194e+003
1.137373e+002, 2.284177e+003
1.142194e+002, 2.282847e+003
1.147015e+002, 2.274844e+003
1.151836e+002, 2.269421e+003
1.156658e+002, 2.268920e+003
1.161479e+002, 2.269778e+003
1.166300e+002, 2.268288e+003
1.171121e+002, 2.263040e+003
1.175942e+002, 2.255709e+003
1.180763e+002, 2.250296e+003
1.185584e+002, 2.247462e+003
1.190406e+002, 2.244597e+003
1.195227e+002, 2.241094e+003
1.200048e+002, 2.237009e+003
1.204869e+002, 2.232293e+003
1.209690e+002, 2.226388e+003
1.214511e+002, 2.220309e+003
1.219333e+002, 2.215863e+003
1.224154e+002, 2.213431e+003
1.228975e+002, 2.211920e+003
1.233796e+002, 2.210777e+003
1.238617e+002, 2.210096e+003
1.243438e+002, 2.208843e+003
1.248260e+002, 2.206132e+003
1.253081e+002, 2.202698e+003
1.257902e+002, 2.198951e+003
1.262723e+002, 2.194796e+003
1.267544e+002, 2.190726e+003
1.272365e+002, 2.187985e+003
1.277187e+002, 2.187228e+003
1.282008e+002, 2.186823e+003
1.286829e+002, 2.186613e+003
1.291650e+002, 2.186326e+003
1.296471e+002, 2.185593e+003
1.301292e+002, 2.184143e+003
1.306114e+002, 2.182032e+003
1.310935e+002, 2.179954e+003
1.315756e+002, 2.178167e+003
1.320577e+002, 2.176178e+003
1.325398e+002, 2.173724e+003
1.330219e+002, 2.170949e+003
1.335041e+002, 2.168081e+003
1.339862e+002, 2.165133e+003
1.344683e+002, 2.161780e+003
1.349504e+002, 2.161022e+003
1.354325e+002, 2.165360e+003
1.359146e+002, 2.169781e+003
1.363968e+002, 2.171020e+003
1.368789e+002, 2.168931e+003
1.373610e+002, 2.165955e+003
1.378431e+002, 2.164832e+003
1.383252e+002, 2.165982e+003
1.388073e+002, 2.167144e+003
1.392895e+002, 2.168089e+003
1.397716e+002, 2.169022e+003
1.402537e+002, 2.170380e+003
1.407358e+002, 2.172402e+003
1.412179e+002, 2.174244e+003
1.417000e+002, 2.174619e+003
1.421821e+002, 2.173685e+003
1.426643e+002, 2.172525e+003
1.431464e+002, 2.171252e+003
1.436285e+002, 2.170028e+003
1.441106e+002, 2.169539e+003
1.445927e+002, 2.170515e+003
1.450748e+002, 2.171614e+003
1.455570e+002, 2.171748e+003
1.460391e+002, 2.170898e+003
1.465212e+002, 2.169449e+003
1.470033e+002, 2.167292e+003
1.474854e+002, 2.164244e+003
1.479675e+002, 2.162267e+003
1.484497e+002, 2.162965e+003
1.489318e+002, 2.164097e+003
1.494139e+002, 2.164540e+003
1.498960e+002, 2.164044e+003
1.503781e+002, 2.162992e+003
1.508602e+002, 2.161947e+003
1.513424e+002, 2.160992e+003
1.518245e+002, 2.159823e+003
1.523066e+002, 2.157040e+003
1.527887e+002, 2.154802e+003
1.532708e+002, 2.155483e+003
1.537529e+002, 2.159857e+003
1.542351e+002, 2.165993e+003
1.547172e+002, 2.169029e+003
1.551993e+002, 2.165450e+003
1.556814e+002, 2.162672e+003
1.561635e+002, 2.161717e+003
1.566456e+002, 2.161552e+003
1.571278e+002, 2.160765e+003
1.576099e+002, 2.158594e+003
1.580920e+002, 2.155567e+003
1.585741e+002, 2.154018e+003
1.590562e+002, 2.155278e+003
1.595383e+002, 2.156271e+003
1.600205e+002, 2.155772e+003
1.605026e+002, 2.154405e+003
1.609847e+002, 2.153745e+003
1.614668e+002, 2.154919e+003
1.619489e+002, 2.157367e+003
1.624310e+002, 2.158539e+003
1.629131e+002, 2.158106e+003
1.633953e+002, 2.156868e+003
1.638774e+002, 2.155049e+003
1.643595e+002, 2.152692e+003
1.648416e+002, 2.150209e+003
1.653237e+002, 2.147617e+003
1.658058e+002, 2.145162e+003
1.662880e+002, 2.143355e+003
1.667701e+002, 2.142649e+003
1.672522e+002, 2.142294e+003
1.677343e+002, 2.141453e+003
1.682164e+002, 2.140051e+003
1.686985e+002, 2.138522e+003
1.691807e+002, 2.137266e+003
1.696628e+002, 2.136010e+003
1.701449e+002, 2.134227e+003
1.706270e+002, 2.131054e+003
1.711091e+002, 2.127630e+003
1.715912e+002, 2.127162e+003
1.720734e+002, 2.132221e+003
1.725555e+002, 2.135422e+003
1.730376e+002, 2.132976e+003
1.735197e+002, 2.127389e+003
1.740018e+002, 2.122160e+003
1.744839e+002, 2.119413e+003
1.749661e+002, 2.118714e+003
1.754482e+002, 2.117467e+003
1.759303e+002, 2.115618e+003
1.764124e+002, 2.113187e+003
1.768945e+002, 2.109840e+003
1.773766e+002, 2.105961e+003
1.778588e+002, 2.102166e+003
1.783409e+002, 2.098828e+003
1.788230e+002, 2.095941e+003
1.793051e+002, 2.093787e+003
1.797872e+002, 2.093903e+003
1.802693e+002, 2.093235e+003
1.807515e+002, 2.090155e+003
1.812336e+002, 2.085368e+003
1.817157e+002, 2.080768e+003
1.821978e+002, 2.077961e+003
1.826799e+002, 2.077114e+003
1.831620e+002, 2.076564e+003
1.836441e+002, 2.077759e+003
1.841263e+002, 2.077930e+003
1.846084e+002, 2.075266e+003
1.850905e+002, 2.070018e+003
1.855726e+002, 2.063919e+003
1.860547e+002, 2.058415e+003
1.865368e+002, 2.053573e+003
1.870190e+002, 2.049623e+003
1.875011e+002, 2.046847e+003
1.879832e+002, 2.044751e+003
1.884653e+002, 2.043500e+003
1.889474e+002, 2.043028e+003
1.894296e+002, 2.041946e+003
1.899117e+002, 2.038292e+003
1.903938e+002, 2.032205e+003
1.908759e+002, 2.027840e+003
1.913580e+002, 2.027106e+003
1.918401e+002, 2.027662e+003
1.923223e+002, 2.027112e+003
1.928044e+002, 2.025214e+003
1.932865e+002, 2.022034e+003
1.937686e+002, 2.016156e+003
1.942507e+002, 2.008592e+003
1.947328e+002, 2.002885e+003
1.952150e+002, 2.001470e+003
1.956971e+002, 2.002400e+003
1.961792e+002, 2.001867e+003
1.966613e+002, 1.999359e+003
1.971434e+002, 1.995761e+003
1.976255e+002, 1.991331e+003
1.981077e+002, 1.986339e+003
1.985898e+002, 1.981582e+003
1.990719e+002, 1.977381e+003
1.995540e+002, 1.973704e+003
2.000361e+002, 1.970547e+003
2.005182e+002, 1.968385e+003
2.010004e+002, 1.966063e+003
2.014825e+002, 1.962974e+003
2.019646e+002, 1.959280e+003
2.024467e+002, 1.955393e+003
2.029288e+002, 1.951230e+003
2.034109e+002, 1.946877e+003
2.038930e+002, 1.943992e+003
2.043752e+002, 1.944516e+003
2.048573e+002, 1.944578e+003
2.053394e+002, 1.942267e+003
2.058215e+002, 1.938269e+003
2.063036e+002, 1.934375e+003
2.067857e+002, 1.932246e+003
2.072679e+002, 1.932027e+003
2.077500e+002, 1.930820e+003
2.082321e+002, 1.927844e+003
2.087142e+002, 1.924520e+003
2.091963e+002, 1.920828e+003
2.096784e+002, 1.917085e+003
2.101606e+002, 1.913946e+003
2.106427e+002, 1.912139e+003
2.111248e+002, 1.911934e+003
2.116069e+002, 1.910711e+003
2.120890e+002, 1.907340e+003
2.125711e+002, 1.904102e+003
2.130533e+002, 1.902302e+003
2.135354e+002, 1.901577e+003
2.140175e+002, 1.900453e+003
2.144996e+002, 1.897419e+003
2.149817e+002, 1.891971e+003
2.154638e+002, 1.888234e+003
2.159460e+002, 1.887330e+003
2.164281e+002, 1.886723e+003
2.169102e+002, 1.885125e+003
2.173923e+002, 1.882584e+003
2.178744e+002, 1.879842e+003
2.183565e+002, 1.877465e+003
2.188387e+002, 1.875446e+003
2.193208e+002, 1.874583e+003
2.198029e+002, 1.876402e+003
2.202850e+002, 1.878000e+003
2.207671e+002, 1.877562e+003
2.212492e+002, 1.875074e+003
2.217314e+002, 1.871569e+003
2.222135e+002, 1.867586e+003
2.226956e+002, 1.863142e+003
2.231777e+002, 1.860132e+003
2.236598e+002, 1.859158e+003
2.241419e+002, 1.859133e+003
2.246240e+002, 1.859883e+003
2.251062e+002, 1.861265e+003
2.255883e+002, 1.861785e+003
2.260704e+002, 1.859841e+003
2.265525e+002, 1.855719e+003
2.270346e+002, 1.852248e+003
2.275167e+002, 1.849838e+003
2.279989e+002, 1.848010e+003
2.284810e+002, 1.846502e+003
2.289631e+002, 1.845318e+003
2.294452e+002, 1.844156e+003
2.299273e+002, 1.842906e+003
2.304094e+002, 1.841509e+003
2.308916e+002, 1.839791e+003
2.313737e+002, 1.837305e+003
2.318558e+002, 1.834719e+003
2.323379e+002, 1.832907e+003
2.328200e+002, 1.831981e+003
2.333021e+002, 1.831042e+003
2.337843e+002, 1.829221e+003
2.342664e+002, 1.827064e+003
2.347485e+002, 1.825442e+003
2.352306e+002, 1.824763e+003
2.357127e+002, 1.824551e+003
2.361948e+002, 1.823957e+003
2.366770e+002, 1.822703e+003
2.371591e+002, 1.822221e+003
2.376412e+002, 1.824542e+003
2.381233e+002, 1.827658e+003
2.386054e+002, 1.829318e+003
2.390875e+002, 1.828673e+003
2.395697e+002, 1.826509e+003
2.400518e+002, 1.823755e+003
2.405339e+002, 1.820013e+003
2.410160e+002, 1.816949e+003
2.414981e+002, 1.815411e+003
2.419802e+002, 1.814739e+003
2.424624e+002, 1.814417e+003
2.429445e+002, 1.814283e+003
2.434266e+002, 1.814386e+003
2.439087e+002, 1.815038e+003
2.443908e+002, 1.816772e+003
2.448729e+002, 1.817530e+003
2.453550e+002, 1.815780e+003
2.458372e+002, 1.813379e+003
2.463193e+002, 1.811836e+003
2.468014e+002, 1.811656e+003
2.472835e+002, 1.812441e+003
2.477656e+002, 1.813692e+003
2.482477e+002, 1.815849e+003
2.487299e+002, 1.817360e+003
2.492120e+002, 1.817606e+003
2.496941e+002, 1.817396e+003
2.501762e+002, 1.817256e+003
2.506583e+002, 1.817361e+003
2.511404e+002, 1.817682e+003
2.516226e+002, 1.818125e+003
2.521047e+002, 1.818497e+003
2.525868e+002, 1.819503e+003
2.530689e+002, 1.822121e+003
2.535510e+002, 1.824715e+003
2.540331e+002, 1.825842e+003
2.545153e+002, 1.825252e+003
2.549974e+002, 1.824164e+003
2.554795e+002, 1.824627e+003
2.559616e+002, 1.828028e+003
2.564437e+002, 1.829947e+003
2.569258e+002, 1.828731e+003
2.574080e+002, 1.827423e+003
2.578901e+002, 1.828132e+003
2.583722e+002, 1.831172e+003
2.588543e+002, 1.835305e+003
2.593364e+002, 1.838850e+003
2.598185e+002, 1.841343e+003
2.603007e+002, 1.844444e+003
2.607828e+002, 1.848788e+003
2.612649e+002, 1.853144e+003
2.617470e+002, 1.857052e+003
2.622291e+002, 1.860308e+003
2.627112e+002, 1.862530e+003
2.631934e+002, 1.863070e+003
2.636755e+002, 1.860976e+003
2.641576e+002, 1.860744e+003
2.646397e+002, 1.862674e+003
2.651218e+002, 1.865782e+003
2.656039e+002, 1.870283e+003
2.660861e+002, 1.875701e+003
2.665682e+002, 1.880638e+003
2.670503e+002, 1.883597e+003
2.675324e+002, 1.884114e+003
2.680145e+002, 1.885535e+003
2.684966e+002, 1.888124e+003
2.689788e+002, 1.891166e+003
2.694609e+002, 1.894649e+003
2.699430e+002, 1.898349e+003
2.704251e+002, 1.901650e+003
2.709072e+002, 1.903924e+003
2.713893e+002, 1.905086e+003
2.718715e+002, 1.907443e+003
2.723536e+002, 1.912077e+003
2.728357e+002, 1.916567e+003
2.733178e+002, 1.919448e+003
2.737999e+002, 1.921252e+003
2.742820e+002, 1.923671e+003
2.747642e+002, 1.928016e+003
2.752463e+002, 1.934029e+003
2.757284e+002, 1.938358e+003
2.762105e+002, 1.938925e+003
2.766926e+002, 1.940456e+003
2.771747e+002, 1.945685e+003
2.776568e+002, 1.953122e+003
2.781389e+002, 1.959284e+003
2.786211e+002, 1.962153e+003
2.791032e+002, 1.962508e+003
2.795853e+002, 1.963671e+003
2.800674e+002, 1.965469e+003
2.805495e+002, 1.968069e+003
2.810316e+002, 1.972532e+003
2.815138e+002, 1.977718e+003
2.819959e+002, 1.981452e+003
2.824780e+002, 1.982671e+003
2.829601e+002, 1.982335e+003
2.834422e+002, 1.982762e+003
2.839243e+002, 1.983707e+003
2.844065e+002, 1.985675e+003
2.848886e+002, 1.989336e+003
2.853707e+002, 1.993947e+003
2.858528e+002, 1.998586e+003
2.863349e+002, 2.003021e+003
2.868170e+002, 2.007015e+003
2.872992e+002, 2.009899e+003
2.877813e+002, 2.010960e+003
2.882634e+002, 2.013350e+003
2.887455e+002, 2.018836e+003
2.892276e+002, 2.025385e+003
2.897097e+002, 2.030565e+003
2.901919e+002, 2.033818e+003
2.906740e+002, 2.035873e+003
2.911561e+002, 2.037426e+003
2.916382e+002, 2.038390e+003
2.921203e+002, 2.039444e+003
2.926024e+002, 2.040213e+003
2.930846e+002, 2.041345e+003
2.935667e+002, 2.043358e+003
2.940488e+002, 2.046336e+003
2.945309e+002, 2.050449e+003
2.950130e+002, 2.056577e+003
2.954951e+002, 2.064642e+003
2.959773e+002, 2.070044e+003
2.964594e+002, 2.071057e+003
2.969415e+002, 2.070472e+003
2.974236e+002, 2.069844e+003
2.979057e+002, 2.069376e+003
2.983878e+002, 2.069722e+003
2.988700e+002, 2.071399e+003
2.993521e+002, 2.074389e+003
2.998342e+002, 2.077813e+003
3.003163e+002, 2.082900e+003
3.007984e+002, 2.087267e+003
3.012805e+002, 2.089245e+003
3.017627e+002, 2.089181e+003
3.022448e+002, 2.088617e+003
3.027269e+002, 2.088012e+003
3.032090e+002, 2.087737e+003
3.036911e+002, 2.088847e+003
3.041732e+002, 2.092401e+003
3.046554e+002, 2.095526e+003
3.051375e+002, 2.096895e+003
3.056196e+002, 2.096874e+003
3.061017e+002, 2.096217e+003
3.065838e+002, 2.094978e+003
3.070659e+002, 2.093684e+003
3.075481e+002, 2.093414e+003
3.080302e+002, 2.094254e+003
3.085123e+002, 2.095417e+003
3.089944e+002, 2.096948e+003
3.094765e+002, 2.098583e+003
3.099586e+002, 2.099998e+003
3.104408e+002, 2.101199e+003
3.109229e+002, 2.101737e+003
3.114050e+002, 2.100372e+003
3.118871e+002, 2.096961e+003
3.123692e+002, 2.094936e+003
3.128513e+002, 2.096390e+003
3.133335e+002, 2.098912e+003
3.138156e+002, 2.099415e+003
3.142977e+002, 2.097393e+003
3.147798e+002, 2.094881e+003
3.152619e+002, 2.093848e+003
3.157440e+002, 2.094163e+003
3.162262e+002, 2.093762e+003
3.167083e+002, 2.092163e+003
3.171904e+002, 2.090005e+003
3.176725e+002, 2.087563e+003
3.181546e+002, 2.084902e+003
3.186367e+002, 2.082572e+003
3.191188e+002, 2.080989e+003
3.196010e+002, 2.080071e+003
3.200831e+002, 2.079159e+003
3.205652e+002, 2.079146e+003
3.210473e+002, 2.078273e+003
3.215294e+002, 2.075025e+003
3.220115e+002, 2.069983e+003
3.224937e+002, 2.065155e+003
3.229758e+002, 2.061569e+003
3.234579e+002, 2.058694e+003
3.239400e+002, 2.055147e+003
3.244221e+002, 2.050319e+003
3.249042e+002, 2.046206e+003
3.253864e+002, 2.043803e+003
3.258685e+002, 2.042553e+003
3.263506e+002, 2.041641e+003
3.268327e+002, 2.041001e+003
3.273148e+002, 2.039934e+003
3.277969e+002, 2.037104e+003
3.282791e+002, 2.032330e+003
3.287612e+002, 2.027435e+003
3.292433e+002, 2.022958e+003
3.297254e+002, 2.018451e+003
3.302075e+002, 2.013172e+003
3.306896e+002, 2.006993e+003
3.311718e+002, 2.000890e+003
3.316539e+002, 1.995850e+003
3.321360e+002, 1.991988e+003
3.326181e+002, 1.988096e+003
3.331002e+002, 1.984107e+003
3.335823e+002, 1.980125e+003
3.340645e+002, 1.976070e+003
3.345466e+002, 1.972022e+003
3.350287e+002, 1.968396e+003
3.355108e+002, 1.965755e+003
3.359929e+002, 1.963776e+003
3.364750e+002, 1.960365e+003
3.369572e+002, 1.954211e+003
3.374393e+002, 1.948119e+003
3.379214e+002, 1.943460e+003
3.384035e+002, 1.939747e+003
3.388856e+002, 1.935976e+003
3.393677e+002, 1.931777e+003
3.398499e+002, 1.927011e+003
3.403320e+002, 1.921064e+003
3.408141e+002, 1.912426e+003
3.412962e+002, 1.905472e+003
3.417783e+002, 1.902292e+003
3.422604e+002, 1.900791e+003
3.427426e+002, 1.898410e+003
3.432247e+002, 1.894432e+003
3.437068e+002, 1.889446e+003
3.441889e+002, 1.884204e+003
3.446710e+002, 1.878598e+003
3.451531e+002, 1.873045e+003
3.456353e+002, 1.867420e+003
3.461174e+002, 1.861996e+003
3.465995e+002, 1.856946e+003
3.470816e+002, 1.852333e+003
3.475637e+002, 1.848142e+003
3.480458e+002, 1.844498e+003
3.485280e+002, 1.841430e+003
3.490101e+002, 1.838032e+003
3.494922e+002, 1.834249e+003
3.499743e+002, 1.830272e+003
3.504564e+002, 1.826471e+003
3.509385e+002, 1.822586e+003
3.514207e+002, 1.817651e+003
3.519028e+002, 1.810891e+003
3.523849e+002, 1.803192e+003
3.528670e+002, 1.798375e+003
3.533491e+002, 1.799794e+003
3.538312e+002, 1.799939e+003
3.543134e+002, 1.797120e+003
3.547955e+002, 1.792881e+003
3.552776e+002, 1.788677e+003
3.557597e+002, 1.785074e+003
3.562418e+002, 1.782401e+003
3.567239e+002, 1.781358e+003
3.572061e+002, 1.783690e+003
3.576882e+002, 1.784009e+003
3.581703e+002, 1.780528e+003
3.586524e+002, 1.776556e+003
3.591345e+002, 1.774899e+003
3.596166e+002, 1.775398e+003
3.600987e+002, 1.775460e+003
3.605808e+002, 1.772309e+003
3.610630e+002, 1.765429e+003
3.615451e+002, 1.760297e+003
3.620272e+002, 1.757927e+003
3.625093e+002, 1.756120e+003
3.629914e+002, 1.754174e+003
3.634735e+002, 1.752248e+003
3.639557e+002, 1.750756e+003
3.644378e+002, 1.749929e+003
3.649199e+002, 1.749781e+003
3.654020e+002, 1.750456e+003
3.658841e+002, 1.753501e+003
3.663662e+002, 1.755197e+003
3.668484e+002, 1.754130e+003
3.673305e+002, 1.752092e+003
3.678126e+002, 1.750810e+003
3.682947e+002, 1.750845e+003
3.687768e+002, 1.751566e+003
3.692589e+002, 1.752101e+003
3.697411e+002, 1.752580e+003
3.702232e+002, 1.752484e+003
3.707053e+002, 1.751510e+003
3.711874e+002, 1.750237e+003
3.716695e+002, 1.748829e+003
3.721516e+002, 1.747370e+003
3.726338e+002, 1.745928e+003
3.731159e+002, 1.744463e+003
3.735980e+002, 1.742992e+003
3.740801e+002, 1.742211e+003
3.745622e+002, 1.742419e+003
3.750443e+002, 1.743017e+003
3.755265e+002, 1.744262e+003
3.760086e+002, 1.745637e+003
3.764907e+002, 1.746248e+003
3.769728e+002, 1.745502e+003
3.774549e+002, 1.744138e+003
3.779370e+002, 1.743880e+003
3.784192e+002, 1.745122e+003
3.789013e+002, 1.746361e+003
3.793834e+002, 1.747241e+003
3.798655e+002, 1.747931e+003
3.803476e+002, 1.748657e+003
3.808297e+002, 1.749457e+003
3.813119e+002, 1.749909e+003
3.817940e+002, 1.749121e+003
3.822761e+002, 1.747142e+003
3.827582e+002, 1.746555e+003
3.832403e+002, 1.748867e+003
3.837224e+002, 1.751268e+003
3.842046e+002, 1.751625e+003
3.846867e+002, 1.750414e+003
3.851688e+002, 1.749406e+003
3.856509e+002, 1.749639e+003
3.861330e+002, 1.750720e+003
3.866151e+002, 1.751901e+003
3.870973e+002, 1.753304e+003
3.875794e+002, 1.754330e+003
3.880615e+002, 1.754315e+003
3.885436e+002, 1.753768e+003
3.890257e+002, 1.753391e+003
3.895078e+002, 1.753365e+003
3.899900e+002, 1.753418e+003
3.904721e+002, 1.753525e+003
3.909542e+002, 1.753603e+003
3.914363e+002, 1.752851e+003
3.919184e+002, 1.750323e+003
3.924005e+002, 1.747717e+003
3.928827e+002, 1.747705e+003
3.933648e+002, 1.750479e+003
3.938469e+002, 1.752814e+003
3.943290e+002, 1.753151e+003
3.948111e+002, 1.752381e+003
3.952932e+002, 1.751819e+003
3.957754e+002, 1.751649e+003
3.962575e+002, 1.751780e+003
3.967396e+002, 1.752505e+003
3.972217e+002, 1.753636e+003
3.977038e+002, 1.753409e+003
3.981859e+002, 1.750412e+003
3.986681e+002, 1.747212e+003
3.991501e+002, 1.745780e+003
3.996323e+002, 1.745656e+003
4.001144e+002, 1.744689e+003
4.005965e+002, 1.741336e+003
4.010786e+002, 1.737196e+003
4.015607e+002, 1.737414e+003
4.020428e+002, 1.745504e+003
4.025250e+002, 1.751069e+003
4.030071e+002, 1.750159e+003
4.034892e+002, 1.746768e+003
4.039713e+002, 1.745565e+003
4.044534e+002, 1.747571e+003
4.049355e+002, 1.750630e+003
4.054177e+002, 1.752233e+003
4.058998e+002, 1.752004e+003
4.063819e+002, 1.752063e+003
4.068640e+002, 1.752645e+003
4.073461e+002, 1.753259e+003
4.078282e+002, 1.754046e+003
4.083104e+002, 1.754686e+003
4.087925e+002, 1.754341e+003
4.092746e+002, 1.752363e+003
4.097567e+002, 1.749281e+003
4.102388e+002, 1.747506e+003
4.107209e+002, 1.748379e+003
4.112031e+002, 1.748902e+003
4.116852e+002, 1.748196e+003
4.121673e+002, 1.747378e+003
4.126494e+002, 1.747836e+003
4.131315e+002, 1.749791e+003
4.136136e+002, 1.751927e+003
4.140958e+002, 1.752200e+003
4.145779e+002, 1.749755e+003
4.150600e+002, 1.748901e+003
4.155421e+002, 1.751785e+003
4.160242e+002, 1.754301e+003
4.165063e+002, 1.754678e+003
4.169885e+002, 1.753377e+003
4.174706e+002, 1.751672e+003
4.179527e+002, 1.750152e+003
4.184348e+002, 1.749031e+003
4.189169e+002, 1.749108e+003
4.193990e+002, 1.750795e+003
4.198812e+002, 1.752804e+003
4.203633e+002, 1.755726e+003
4.208454e+002, 1.758236e+003
4.213275e+002, 1.758753e+003
4.218096e+002, 1.756853e+003
4.222917e+002, 1.754306e+003
4.227739e+002, 1.752930e+003
4.232560e+002, 1.752659e+003
4.237381e+002, 1.752163e+003
4.242202e+002, 1.751148e+003
4.247023e+002, 1.749973e+003
4.251844e+002, 1.748858e+003
4.256666e+002, 1.747804e+003
4.261487e+002, 1.746833e+003
4.266308e+002, 1.746013e+003
4.271129e+002, 1.745249e+003
4.275950e+002, 1.744545e+003
4.280771e+002, 1.743924e+003
4.285593e+002, 1.742809e+003
4.290414e+002, 1.740474e+003
4.295235e+002, 1.737677e+003
4.300056e+002, 1.736150e+003
4.304877e+002, 1.736553e+003
4.309698e+002, 1.736763e+003
4.314520e+002, 1.735229e+003
4.319341e+002, 1.732851e+003
4.324162e+002, 1.732106e+003
4.328983e+002, 1.733956e+003
4.333804e+002, 1.734969e+003
4.338625e+002, 1.730433e+003
4.343447e+002, 1.719338e+003
4.348268e+002, 1.710849e+003
4.353089e+002, 1.706146e+003
4.357910e+002, 1.703367e+003
4.362731e+002, 1.702835e+003
4.367552e+002, 1.703449e+003
4.372374e+002, 1.701928e+003
4.377195e+002, 1.696136e+003
4.382016e+002, 1.687252e+003
4.386837e+002, 1.679865e+003
4.391658e+002, 1.674614e+003
4.396479e+002, 1.670071e+003
4.401301e+002, 1.666077e+003
4.406122e+002, 1.662815e+003
4.410943e+002, 1.661112e+003
4.415764e+002, 1.660823e+003
4.420585e+002, 1.660202e+003
4.425406e+002, 1.657168e+003
4.430227e+002, 1.651381e+003
4.435049e+002, 1.645656e+003
4.439870e+002, 1.639998e+003
4.444691e+002, 1.634425e+003
4.449512e+002, 1.628778e+003
4.454333e+002, 1.623292e+003
4.459154e+002, 1.618339e+003
4.463976e+002, 1.614191e+003
4.468797e+002, 1.610471e+003
4.473618e+002, 1.606240e+003
4.478439e+002, 1.601137e+003
4.483260e+002, 1.596596e+003
4.488081e+002, 1.593105e+003
4.492903e+002, 1.590068e+003
4.497724e+002, 1.587433e+003
4.502545e+002, 1.585048e+003
4.507366e+002, 1.582225e+003
4.512187e+002, 1.578214e+003
4.517008e+002, 1.573279e+003
4.521830e+002, 1.568596e+003
4.526651e+002, 1.564165e+003
4.531472e+002, 1.560084e+003
4.536293e+002, 1.556641e+003
4.541114e+002, 1.553526e+003
4.545935e+002, 1.550259e+003
4.550757e+002, 1.546552e+003
4.555578e+002, 1.543063e+003
4.560399e+002, 1.540633e+003
4.565220e+002, 1.538973e+003
4.570041e+002, 1.536662e+003
4.574862e+002, 1.533101e+003
4.579684e+002, 1.529177e+003
4.584505e+002, 1.526051e+003
4.589326e+002, 1.523700e+003
4.594147e+002, 1.521472e+003
4.598968e+002, 1.519798e+003
4.603789e+002, 1.517828e+003
4.608611e+002, 1.514698e+003
4.613432e+002, 1.510506e+003
4.618253e+002, 1.505786e+003
4.623074e+002, 1.500497e+003
4.627895e+002, 1.495271e+003
4.632716e+002, 1.492695e+003
4.637538e+002, 1.495798e+003
4.642359e+002, 1.497403e+003
4.647180e+002, 1.495834e+003
4.652001e+002, 1.492857e+003
4.656822e+002, 1.490088e+003
4.661643e+002, 1.487914e+003
4.666465e+002, 1.486032e+003
4.671286e+002, 1.484055e+003
4.676107e+002, 1.481873e+003
4.680928e+002, 1.480470e+003
4.685749e+002, 1.480068e+003
4.690570e+002, 1.480219e+003
4.695392e+002, 1.481564e+003
4.700213e+002, 1.483183e+003
4.705034e+002, 1.483730e+003
4.709855e+002, 1.482592e+003
4.714676e+002, 1.480438e+003
4.719497e+002, 1.478355e+003
4.724319e+002, 1.476343e+003
4.729140e+002, 1.474415e+003
4.733961e+002, 1.472042e+003
4.738782e+002, 1.470281e+003
4.743603e+002, 1.470578e+003
4.748424e+002, 1.472288e+003
4.753246e+002, 1.472783e+003
4.758067e+002, 1.469326e+003
4.762888e+002, 1.464031e+003
4.767709e+002, 1.461691e+003
4.772530e+002, 1.462699e+003
4.777351e+002, 1.464352e+003
4.782173e+002, 1.466283e+003
4.786994e+002, 1.467596e+003
4.791815e+002, 1.466500e+003
4.796636e+002, 1.461937e+003
4.801457e+002, 1.458597e+003
4.806278e+002, 1.460278e+003
4.811100e+002, 1.464399e+003
4.815920e+002, 1.466104e+003
4.820742e+002, 1.464482e+003
4.825563e+002, 1.461834e+003
4.830384e+002, 1.460036e+003
4.835205e+002, 1.459103e+003
4.840026e+002, 1.458236e+003
4.844847e+002, 1.456828e+003
4.849669e+002, 1.456120e+003
4.854490e+002, 1.457113e+003
4.859311e+002, 1.459040e+003
4.864132e+002, 1.460623e+003
4.868953e+002, 1.461385e+003
4.873774e+002, 1.461601e+003
4.878596e+002, 1.461753e+003
4.883417e+002, 1.462075e+003
4.888238e+002, 1.461643e+003
4.893059e+002, 1.460089e+003
4.897880e+002, 1.458278e+003
4.902701e+002, 1.456479e+003
4.907523e+002, 1.454779e+003
4.912344e+002, 1.453170e+003
4.917165e+002, 1.451590e+003
4.921986e+002, 1.450298e+003
4.926807e+002, 1.450250e+003
4.931628e+002, 1.452229e+003
4.936450e+002, 1.453303e+003
4.941271e+002, 1.452599e+003
4.946092e+002, 1.450962e+003
4.950913e+002, 1.448621e+003
4.955734e+002, 1.445721e+003
4.960555e+002, 1.442812e+003
4.965377e+002, 1.440250e+003
4.970198e+002, 1.437986e+003
4.975019e+002, 1.435803e+003
4.979840e+002, 1.433586e+003
4.984661e+002, 1.431989e+003
4.989482e+002, 1.431753e+003
4.994304e+002, 1.432228e+003
4.999125e+002, 1.432223e+003
5.003946e+002, 1.431761e+003
5.008767e+002, 1.430620e+003
5.013588e+002, 1.428376e+003
5.018409e+002, 1.425459e+003
5.023231e+002, 1.422529e+003
5.028052e+002, 1.419727e+003
5.032873e+002, 1.417067e+003
5.037694e+002, 1.414540e+003
5.042515e+002, 1.412135e+003
5.047336e+002, 1.410124e+003
5.052158e+002, 1.408325e+003
5.056979e+002, 1.407075e+003
5.061800e+002, 1.407106e+003
5.066621e+002, 1.407579e+003
5.071442e+002, 1.407130e+003
5.076263e+002, 1.405297e+003
5.081085e+002, 1.402866e+003
5.085906e+002, 1.400911e+003
5.090727e+002, 1.399189e+003
5.095548e+002, 1.398803e+003
5.100369e+002, 1.402211e+003
5.105190e+002, 1.404482e+003
5.110012e+002, 1.402738e+003
5.114833e+002, 1.398603e+003
5.119654e+002, 1.395337e+003
5.124475e+002, 1.394654e+003
5.129296e+002, 1.395297e+003
5.134117e+002, 1.394879e+003
5.138939e+002, 1.393177e+003
5.143760e+002, 1.392242e+003
5.148581e+002, 1.393521e+003
5.153402e+002, 1.394677e+003
5.158223e+002, 1.393917e+003
5.163044e+002, 1.391352e+003
5.167866e+002, 1.387870e+003
5.172687e+002, 1.382726e+003
5.177508e+002, 1.377495e+003
5.182329e+002, 1.374492e+003
5.187150e+002, 1.373593e+003
5.191971e+002, 1.372753e+003
5.196793e+002, 1.371049e+003
5.201614e+002, 1.368780e+003
5.206435e+002, 1.366513e+003
5.211256e+002, 1.363888e+003
5.216077e+002, 1.362205e+003
5.220898e+002, 1.362594e+003
5.225720e+002, 1.363377e+003
5.230541e+002, 1.363272e+003
5.235362e+002, 1.362132e+003
5.240183e+002, 1.360053e+003
5.245004e+002, 1.356918e+003
5.249825e+002, 1.353173e+003
5.254647e+002, 1.351139e+003
5.259468e+002, 1.352701e+003
5.264289e+002, 1.353344e+003
5.269110e+002, 1.351676e+003
5.273931e+002, 1.349682e+003
5.278752e+002, 1.349234e+003
5.283574e+002, 1.350365e+003
5.288395e+002, 1.351524e+003
5.293216e+002, 1.351240e+003
5.298037e+002, 1.349782e+003
5.302858e+002, 1.348835e+003
5.307679e+002, 1.348657e+003
5.312501e+002, 1.348396e+003
5.317322e+002, 1.347319e+003
5.322143e+002, 1.346151e+003
5.326964e+002, 1.345719e+003
5.331785e+002, 1.346226e+003
5.336606e+002, 1.346890e+003
5.341428e+002, 1.347375e+003
5.346249e+002, 1.347616e+003
5.351070e+002, 1.347277e+003
5.355891e+002, 1.346250e+003
5.360712e+002, 1.345541e+003
5.365533e+002, 1.346161e+003
5.370355e+002, 1.347773e+003
5.375176e+002, 1.348268e+003
5.379997e+002, 1.346799e+003
5.384818e+002, 1.345362e+003
5.389639e+002, 1.344324e+003
5.394460e+002, 1.343718e+003
5.399282e+002, 1.343594e+003
5.404103e+002, 1.343953e+003
5.408924e+002, 1.344842e+003
5.413745e+002, 1.346543e+003
5.418566e+002, 1.349138e+003
5.423387e+002, 1.349739e+003
5.428209e+002, 1.345603e+003
5.433029e+002, 1.342711e+003
5.437850e+002, 1.343328e+003
5.442672e+002, 1.345287e+003
5.447493e+002, 1.345819e+003
5.452314e+002, 1.344265e+003
5.457135e+002, 1.342780e+003
5.461956e+002, 1.344124e+003
5.466777e+002, 1.348014e+003
5.471599e+002, 1.351108e+003
5.476420e+002, 1.353324e+003
5.481241e+002, 1.354535e+003
5.486062e+002, 1.354190e+003
5.490883e+002, 1.352872e+003
5.495704e+002, 1.351251e+003
5.500526e+002, 1.348872e+003
5.505347e+002, 1.347427e+003
5.510168e+002, 1.348638e+003
5.514989e+002, 1.351428e+003
5.519810e+002, 1.353691e+003
5.524631e+002, 1.354994e+003
5.529453e+002, 1.355531e+003
5.534274e+002, 1.355341e+003
5.539095e+002, 1.354417e+003
5.543916e+002, 1.353832e+003
5.548737e+002, 1.353377e+003
5.553558e+002, 1.353441e+003
5.558380e+002, 1.354378e+003
5.563201e+002, 1.355777e+003
5.568022e+002, 1.357288e+003
5.572843e+002, 1.358757e+003
5.577664e+002, 1.359893e+003
5.582485e+002, 1.360180e+003
5.587307e+002, 1.359552e+003
5.592128e+002, 1.359909e+003
5.596949e+002, 1.362124e+003
5.601770e+002, 1.364077e+003
5.606591e+002, 1.365243e+003
5.611412e+002, 1.365709e+003
5.616234e+002, 1.365321e+003
5.621055e+002, 1.363942e+003
5.625876e+002, 1.362821e+003
5.630697e+002, 1.363258e+003
5.635518e+002, 1.364847e+003
5.640339e+002, 1.366347e+003
5.645161e+002, 1.367691e+003
5.649982e+002, 1.368540e+003
5.654803e+002, 1.368306e+003
5.659624e+002, 1.367375e+003
5.664445e+002, 1.367439e+003
5.669266e+002, 1.369208e+003
5.674088e+002, 1.370947e+003
5.678909e+002, 1.371792e+003
5.683730e+002, 1.372412e+003
5.688551e+002, 1.373867e+003
5.693372e+002, 1.376217e+003
5.698193e+002, 1.378480e+003
5.703015e+002, 1.379713e+003
5.707836e+002, 1.379961e+003
5.712657e+002, 1.380003e+003
5.717478e+002, 1.378991e+003
5.722299e+002, 1.378959e+003
5.727120e+002, 1.381124e+003
5.731942e+002, 1.383791e+003
5.736763e+002, 1.385196e+003
5.741584e+002, 1.385178e+003
5.746405e+002, 1.385161e+003
5.751226e+002, 1.386776e+003
5.756047e+002, 1.389473e+003
5.760869e+002, 1.390760e+003
5.765690e+002, 1.390270e+003
5.770511e+002, 1.389929e+003
5.775332e+002, 1.391054e+003
5.780153e+002, 1.392608e+003
5.784974e+002, 1.392649e+003
5.789796e+002, 1.390604e+003
5.794617e+002, 1.389530e+003
5.799438e+002, 1.391951e+003
5.804259e+002, 1.395139e+003
5.809080e+002, 1.395426e+003
5.813901e+002, 1.393010e+003
5.818723e+002, 1.391170e+003
5.823544e+002, 1.392097e+003
5.828365e+002, 1.394897e+003
5.833186e+002, 1.396527e+003
5.838007e+002, 1.396512e+003
5.842828e+002, 1.395986e+003
5.847650e+002, 1.394190e+003
5.852471e+002, 1.392588e+003
5.857292e+002, 1.392279e+003
5.862113e+002, 1.393060e+003
5.866934e+002, 1.394043e+003
5.871755e+002, 1.394717e+003
5.876577e+002, 1.395156e+003
5.881398e+002, 1.395530e+003
5.886219e+002, 1.395861e+003
5.891040e+002, 1.396009e+003
5.895861e+002, 1.396198e+003
5.900682e+002, 1.395869e+003
5.905504e+002, 1.394038e+003
5.910325e+002, 1.391031e+003
5.915146e+002, 1.389050e+003
5.919967e+002, 1.389755e+003
5.924788e+002, 1.390913e+003
5.929609e+002, 1.390484e+003
5.934431e+002, 1.388921e+003
5.939252e+002, 1.387701e+003
5.944073e+002, 1.387385e+003
5.948894e+002, 1.387322e+003
5.953715e+002, 1.386531e+003
5.958536e+002, 1.384681e+003
5.963358e+002, 1.383619e+003
5.968179e+002, 1.384827e+003
5.973000e+002, 1.385065e+003
5.977821e+002, 1.381978e+003
5.982642e+002, 1.377644e+003
5.987463e+002, 1.375251e+003
5.992285e+002, 1.375838e+003
5.997106e+002, 1.377357e+003
6.001927e+002, 1.377614e+003
6.006748e+002, 1.376612e+003
6.011569e+002, 1.374051e+003
6.016390e+002, 1.368581e+003
6.021212e+002, 1.364407e+003
6.026033e+002, 1.365554e+003
6.030854e+002, 1.369058e+003
6.035675e+002, 1.370466e+003
6.040496e+002, 1.368924e+003
6.045317e+002, 1.366286e+003
6.050139e+002, 1.362642e+003
6.054960e+002, 1.358839e+003
6.059781e+002, 1.356386e+003
6.064602e+002, 1.355331e+003
6.069423e+002, 1.354226e+003
6.074244e+002, 1.351965e+003
6.079066e+002, 1.348917e+003
6.083887e+002, 1.346741e+003
6.088708e+002, 1.346891e+003
6.093529e+002, 1.345840e+003
6.098350e+002, 1.342432e+003
6.103171e+002, 1.338668e+003
6.107993e+002, 1.336095e+003
6.112814e+002, 1.334513e+003
6.117635e+002, 1.332683e+003
6.122456e+002, 1.329728e+003
6.127277e+002, 1.326199e+003
6.132098e+002, 1.323169e+003
6.136920e+002, 1.320633e+003
6.141741e+002, 1.318466e+003
6.146562e+002, 1.316749e+003
6.151383e+002, 1.315224e+003
6.156204e+002, 1.313680e+003
6.161025e+002, 1.312105e+003
6.165847e+002, 1.310417e+003
6.170668e+002, 1.308580e+003
6.175489e+002, 1.306643e+003
6.180310e+002, 1.305092e+003
6.185131e+002, 1.303381e+003
6.189952e+002, 1.299948e+003
6.194774e+002, 1.294415e+003
6.199595e+002, 1.288851e+003
6.204416e+002, 1.285791e+003
6.209237e+002, 1.285404e+003
6.214058e+002, 1.284783e+003
6.218879e+002, 1.284337e+003
6.223701e+002, 1.283109e+003
6.228522e+002, 1.280350e+003
6.233343e+002, 1.277051e+003
6.238164e+002, 1.274278e+003
6.242985e+002, 1.272222e+003
6.247806e+002, 1.270215e+003
6.252628e+002, 1.267770e+003
6.257448e+002, 1.264966e+003
6.262269e+002, 1.261916e+003
6.267090e+002, 1.258582e+003
6.271912e+002, 1.255500e+003
6.276733e+002, 1.253113e+003
6.281554e+002, 1.250916e+003
6.286375e+002, 1.247750e+003
6.291196e+002, 1.243349e+003
6.296017e+002, 1.239472e+003
6.300839e+002, 1.236518e+003
6.305660e+002, 1.234019e+003
6.310481e+002, 1.231717e+003
6.315302e+002, 1.229583e+003
6.320123e+002, 1.227782e+003
6.324944e+002, 1.226398e+003
6.329766e+002, 1.224860e+003
6.334587e+002, 1.222024e+003
6.339408e+002, 1.217511e+003
6.344229e+002, 1.213579e+003
6.349050e+002, 1.210515e+003
6.353871e+002, 1.207750e+003
6.358693e+002, 1.205125e+003
6.363514e+002, 1.202584e+003
6.368335e+002, 1.200092e+003
6.373156e+002, 1.197708e+003
6.377977e+002, 1.195117e+003
6.382798e+002, 1.192172e+003
6.387620e+002, 1.188874e+003
6.392441e+002, 1.184936e+003
6.397262e+002, 1.180389e+003
6.402083e+002, 1.176180e+003
6.406904e+002, 1.172933e+003
6.411725e+002, 1.170471e+003
6.416547e+002, 1.168184e+003
6.421368e+002, 1.166775e+003
6.426189e+002, 1.164464e+003
6.431010e+002, 1.160617e+003
6.435831e+002, 1.156439e+003
6.440652e+002, 1.152294e+003
6.445474e+002, 1.148469e+003
6.450295e+002, 1.145646e+003
6.455116e+002, 1.144436e+003
6.459937e+002, 1.143257e+003
6.464758e+002, 1.138955e+003
6.469579e+002, 1.131567e+003
6.474401e+002, 1.125686e+003
6.479222e+002, 1.122486e+003
6.484043e+002, 1.119878e+003
6.488864e+002, 1.116079e+003
6.493685e+002, 1.111615e+003
6.498506e+002, 1.108326e+003
6.503328e+002, 1.107671e+003
6.508149e+002, 1.106174e+003
6.512970e+002, 1.101458e+003
6.517791e+002, 1.095737e+003
6.522612e+002, 1.092040e+003
6.527433e+002, 1.090402e+003
6.532255e+002, 1.088417e+003
6.537076e+002, 1.084208e+003
6.541897e+002, 1.078477e+003
6.546718e+002, 1.073750e+003
6.551539e+002, 1.070093e+003
6.556360e+002, 1.067300e+003
6.561182e+002, 1.066529e+003
6.566003e+002, 1.065588e+003
6.570824e+002, 1.063120e+003
6.575645e+002, 1.059437e+003
6.580466e+002, 1.055684e+003
6.585287e+002, 1.052256e+003
6.590109e+002, 1.048936e+003
6.594930e+002, 1.045632e+003
6.599751e+002, 1.042275e+003
6.604572e+002, 1.038436e+003
6.609393e+002, 1.034011e+003
6.614214e+002, 1.029965e+003
6.619036e+002, 1.027361e+003
6.623857e+002, 1.025954e+003
6.628678e+002, 1.023110e+003
6.633499e+002, 1.016694e+003
6.638320e+002, 1.011700e+003
6.643141e+002, 1.010184e+003
6.647963e+002, 1.008991e+003
6.652784e+002, 1.005164e+003
6.657605e+002, 9.991490e+002
6.662426e+002, 9.936543e+002
6.667247e+002, 9.903265e+002
6.672068e+002, 9.884676e+002
6.676890e+002, 9.873314e+002
6.681711e+002, 9.868607e+002
6.686532e+002, 9.847634e+002
6.691353e+002, 9.800361e+002
6.696174e+002, 9.747836e+002
6.700995e+002, 9.711022e+002
6.705817e+002, 9.687996e+002
6.710638e+002, 9.659033e+002
6.715459e+002, 9.614148e+002
6.720280e+002, 9.575131e+002
6.725101e+002, 9.551053e+002
6.729922e+002, 9.535310e+002
6.734744e+002, 9.524347e+002
6.739565e+002, 9.515101e+002
6.744386e+002, 9.499418e+002
6.749207e+002, 9.469282e+002
6.754028e+002, 9.430917e+002
6.758849e+002, 9.407069e+002
6.763671e+002, 9.403200e+002
6.768492e+002, 9.388801e+002
6.773313e+002, 9.347952e+002
6.778134e+002, 9.305986e+002
6.782955e+002, 9.287303e+002
6.787776e+002, 9.284871e+002
6.792598e+002, 9.273209e+002
6.797419e+002, 9.237564e+002
6.802240e+002, 9.202872e+002
6.807061e+002, 9.188318e+002
6.811882e+002, 9.182512e+002
6.816703e+002, 9.165963e+002
6.821525e+002, 9.136328e+002
6.826346e+002, 9.105128e+002
6.831167e+002, 9.081048e+002
6.835988e+002, 9.064191e+002
6.840809e+002, 9.056971e+002
6.845630e+002, 9.071544e+002
6.850452e+002, 9.069199e+002
6.855273e+002, 9.028951e+002
6.860094e+002, 8.984289e+002
6.864915e+002, 8.952449e+002
6.869736e+002, 8.932197e+002
6.874557e+002, 8.915814e+002
6.879379e+002, 8.898439e+002
6.884200e+002, 8.887657e+002
6.889021e+002, 8.899378e+002
6.893842e+002, 8.921371e+002
6.898663e+002, 8.923078e+002
6.903484e+002, 8.899236e+002
6.908306e+002, 8.867718e+002
6.913127e+002, 8.841371e+002
6.917948e+002, 8.819747e+002
6.922769e+002, 8.799951e+002
6.927590e+002, 8.780156e+002
6.932411e+002, 8.765529e+002
6.937233e+002, 8.761253e+002
6.942054e+002, 8.757557e+002
6.946875e+002, 8.749460e+002
6.951696e+002, 8.737020e+002
6.956517e+002, 8.720766e+002
6.961339e+002, 8.699113e+002
6.966160e+002, 8.679596e+002
6.970981e+002, 8.673840e+002
6.975802e+002, 8.677429e+002
6.980623e+002, 8.673323e+002
6.985444e+002, 8.658480e+002
6.990266e+002, 8.643676e+002
6.995087e+002, 8.636809e+002
6.999908e+002, 8.635523e+002
7.004729e+002, 8.631121e+002
7.009550e+002, 8.622943e+002
7.014371e+002, 8.612314e+002
7.019193e+002, 8.595577e+002
7.024014e+002, 8.579710e+002
7.028835e+002, 8.566598e+002
7.033656e+002, 8.558126e+002
7.038477e+002, 8.558723e+002
7.043298e+002, 8.571161e+002
7.048120e+002, 8.585402e+002
7.052941e+002, 8.590256e+002
7.057762e+002, 8.586364e+002
7.062583e+002, 8.574111e+002
7.067404e+002, 8.551851e+002
7.072225e+002, 8.534207e+002
7.077046e+002, 8.532862e+002
7.081867e+002, 8.539401e+002
7.086688e+002, 8.530579e+002
7.091509e+002, 8.495021e+002
7.096331e+002, 8.473876e+002
7.101152e+002, 8.484580e+002
7.105973e+002, 8.495841e+002
7.110794e+002, 8.484666e+002
7.115615e+002, 8.461931e+002
7.120436e+002, 8.450502e+002
7.125258e+002, 8.458362e+002
7.130079e+002, 8.470294e+002
7.134900e+002, 8.465843e+002
7.139721e+002, 8.449154e+002
7.144542e+002, 8.445472e+002
7.149363e+002, 8.458021e+002
7.154185e+002, 8.467366e+002
7.159006e+002, 8.462982e+002
7.163827e+002, 8.452321e+002
7.168648e+002, 8.448855e+002
7.173469e+002, 8.454630e+002
7.178290e+002, 8.454854e+002
7.183112e+002, 8.442361e+002
7.187933e+002, 8.430423e+002
7.192754e+002, 8.427430e+002
7.197575e+002, 8.428420e+002
7.202396e+002, 8.424490e+002
7.207217e+002, 8.414098e+002
7.212039e+002, 8.405547e+002
7.216860e+002, 8.410546e+002
7.221681e+002, 8.423170e+002
7.226502e+002, 8.414775e+002
7.231323e+002, 8.380947e+002
7.236144e+002, 8.364476e+002
7.240966e+002, 8.387283e+002
7.245787e+002, 8.420370e+002
7.250608e+002, 8.429048e+002
7.255429e+002, 8.413909e+002
7.260250e+002, 8.401609e+002
7.265071e+002, 8.390901e+002
7.269893e+002, 8.386483e+002
7.274714e+002, 8.395713e+002
7.279535e+002, 8.408823e+002
7.284356e+002, 8.415266e+002
7.289177e+002, 8.413693e+002
7.293998e+002, 8.407438e+002
7.298820e+002, 8.396752e+002
7.303641e+002, 8.386912e+002
7.308462e+002, 8.393382e+002
7.313283e+002, 8.416927e+002
7.318104e+002, 8.432614e+002
7.322925e+002, 8.433069e+002
7.327747e+002, 8.430594e+002
7.332568e+002, 8.434845e+002
7.337389e+002, 8.444660e+002
7.342210e+002, 8.453464e+002
7.347031e+002, 8.461790e+002
7.351852e+002, 8.468066e+002
7.356674e+002, 8.471086e+002
7.361495e+002, 8.472586e+002
7.366316e+002, 8.473544e+002
7.371137e+002, 8.474294e+002
7.375958e+002, 8.475759e+002
7.380779e+002, 8.478640e+002
7.385601e+002, 8.480125e+002
7.390422e+002, 8.473495e+002
7.395243e+002, 8.460244e+002
7.400064e+002, 8.455404e+002
7.404885e+002, 8.461527e+002
7.409706e+002, 8.470227e+002
7.414528e+002, 8.478317e+002
7.419349e+002, 8.485039e+002
7.424170e+002, 8.488097e+002
7.428991e+002, 8.486056e+002
7.433812e+002, 8.485860e+002
7.438633e+002, 8.495440e+002
7.443455e+002, 8.499433e+002
7.448276e+002, 8.482636e+002
7.453097e+002, 8.457684e+002
7.457918e+002, 8.443945e+002
7.462739e+002, 8.446816e+002
7.467560e+002, 8.457745e+002
7.472382e+002, 8.472738e+002
7.477203e+002, 8.488677e+002
7.482024e+002, 8.493064e+002
7.486845e+002, 8.485524e+002
7.491666e+002, 8.484072e+002
7.496487e+002, 8.496612e+002
7.501309e+002, 8.512828e+002
7.506130e+002, 8.520886e+002
7.510951e+002, 8.520234e+002
7.515772e+002, 8.519184e+002
7.520593e+002, 8.517717e+002
7.525414e+002, 8.515707e+002
7.530236e+002, 8.510394e+002
7.535057e+002, 8.506315e+002
7.539878e+002, 8.509980e+002
7.544699e+002, 8.519290e+002
7.549520e+002, 8.524380e+002
7.554341e+002, 8.518145e+002
7.559163e+002, 8.508165e+002
7.563984e+002, 8.505764e+002
7.568805e+002, 8.509034e+002
7.573626e+002, 8.509922e+002
7.578447e+002, 8.507120e+002
7.583268e+002, 8.501810e+002
7.588090e+002, 8.493672e+002
7.592911e+002, 8.484883e+002
7.597732e+002, 8.482746e+002
7.602553e+002, 8.492432e+002
7.607374e+002, 8.499811e+002
7.612195e+002, 8.504990e+002
7.617017e+002, 8.508225e+002
7.621838e+002, 8.511653e+002
7.626659e+002, 8.512659e+002
7.631480e+002, 8.505160e+002
7.636301e+002, 8.487105e+002
7.641122e+002, 8.470956e+002
7.645944e+002, 8.467460e+002
7.650765e+002, 8.470887e+002
7.655586e+002, 8.472872e+002
7.660407e+002, 8.473230e+002
7.665228e+002, 8.472999e+002
7.670049e+002, 8.472380e+002
7.674871e+002, 8.473425e+002
7.679692e+002, 8.479720e+002
7.684513e+002, 8.491690e+002
7.689334e+002, 8.496524e+002
7.694155e+002, 8.489362e+002
7.698976e+002, 8.482697e+002
7.703798e+002, 8.484044e+002
7.708619e+002, 8.483016e+002
7.713440e+002, 8.466701e+002
7.718261e+002, 8.438959e+002
7.723082e+002, 8.420839e+002
7.727903e+002, 8.424742e+002
7.732725e+002, 8.433586e+002
7.737546e+002, 8.436327e+002
7.742367e+002, 8.436041e+002
7.747188e+002, 8.437747e+002
7.752009e+002, 8.441823e+002
7.756830e+002, 8.445956e+002
7.761652e+002, 8.448985e+002
7.766473e+002, 8.449486e+002
7.771294e+002, 8.444310e+002
7.776115e+002, 8.433495e+002
7.780936e+002, 8.415626e+002
7.785757e+002, 8.383926e+002
7.790579e+002, 8.357541e+002
7.795400e+002, 8.349358e+002
7.800221e+002, 8.352139e+002
7.805042e+002, 8.355226e+002
7.809863e+002, 8.359474e+002
7.814684e+002, 8.358278e+002
7.819506e+002, 8.346718e+002
7.824327e+002, 8.332560e+002
7.829148e+002, 8.317292e+002
7.833969e+002, 8.304059e+002
7.838790e+002, 8.299238e+002
7.843611e+002, 8.303409e+002
7.848433e+002, 8.308008e+002
7.853254e+002, 8.304931e+002
7.858075e+002, 8.296396e+002
7.862896e+002, 8.289587e+002
7.867717e+002, 8.284587e+002
7.872538e+002, 8.275632e+002
7.877360e+002, 8.259814e+002
7.882181e+002, 8.244363e+002
7.887002e+002, 8.237253e+002
7.891823e+002, 8.236957e+002
7.896644e+002, 8.230706e+002
7.901465e+002, 8.207950e+002
7.906286e+002, 8.194678e+002
7.911107e+002, 8.204761e+002
7.915928e+002, 8.213858e+002
7.920750e+002, 8.201662e+002
7.925571e+002, 8.177001e+002
7.930392e+002, 8.161844e+002
7.935213e+002, 8.165215e+002
7.940034e+002, 8.169301e+002
7.944855e+002, 8.155038e+002
7.949677e+002, 8.132260e+002
7.954498e+002, 8.120127e+002
7.959319e+002, 8.118279e+002
7.964140e+002, 8.116664e+002
7.968961e+002, 8.111047e+002
7.973782e+002, 8.104704e+002
7.978604e+002, 8.103497e+002
7.983425e+002, 8.108078e+002
7.988246e+002, 8.099001e+002
7.993067e+002, 8.065475e+002
7.997888e+002, 8.037638e+002
8.002709e+002, 8.023645e+002
8.007531e+002, 8.017550e+002
8.012352e+002, 8.021739e+002
8.017173e+002, 8.031917e+002
8.021994e+002, 8.028582e+002
8.026815e+002, 7.993828e+002
8.031636e+002, 7.963333e+002
8.036458e+002, 7.959805e+002
8.041279e+002, 7.968266e+002
8.046100e+002, 7.973299e+002
8.050921e+002, 7.973028e+002
8.055742e+002, 7.970432e+002
8.060563e+002, 7.967183e+002
8.065385e+002, 7.961637e+002
8.070206e+002, 7.950706e+002
8.075027e+002, 7.934707e+002
8.079848e+002, 7.917081e+002
8.084669e+002, 7.897198e+002
8.089490e+002, 7.878641e+002
8.094312e+002, 7.860297e+002
8.099133e+002, 7.848092e+002
8.103954e+002, 7.855391e+002
8.108775e+002, 7.888408e+002
8.113596e+002, 7.898359e+002
8.118417e+002, 7.866548e+002
8.123239e+002, 7.835906e+002
8.128060e+002, 7.816135e+002
8.132881e+002, 7.804157e+002
8.137702e+002, 7.797839e+002
8.142523e+002, 7.796404e+002
8.147344e+002, 7.799982e+002
8.152166e+002, 7.812406e+002
8.156987e+002, 7.821824e+002
8.161808e+002, 7.811122e+002
8.166629e+002, 7.789183e+002
8.171450e+002, 7.776638e+002
8.176271e+002, 7.774982e+002
8.181093e+002, 7.773370e+002
8.185914e+002, 7.765773e+002
8.190735e+002, 7.753434e+002
8.195556e+002, 7.737326e+002
8.200377e+002, 7.715452e+002
8.205198e+002, 7.702401e+002
8.210020e+002, 7.701661e+002
8.214841e+002, 7.702812e+002
8.219662e+002, 7.701801e+002
8.224483e+002, 7.700932e+002
8.229304e+002, 7.702218e+002
8.234125e+002, 7.705736e+002
8.238947e+002, 7.712448e+002
8.243768e+002, 7.730731e+002
8.248589e+002, 7.742511e+002
8.253410e+002, 7.736390e+002
8.258231e+002, 7.722118e+002
8.263052e+002, 7.708613e+002
8.267874e+002, 7.697850e+002
8.272695e+002, 7.690817e+002
8.277516e+002, 7.689111e+002
8.282337e+002, 7.686284e+002
8.287158e+002, 7.668652e+002
8.291979e+002, 7.641516e+002
8.296801e+002, 7.628497e+002
8.301622e+002, 7.631754e+002
8.306443e+002, 7.638558e+002
8.311264e+002, 7.644045e+002
8.316085e+002, 7.645301e+002
8.320906e+002, 7.636243e+002
8.325728e+002, 7.614452e+002
8.330549e+002, 7.600026e+002
8.335370e+002, 7.598466e+002
8.340191e+002, 7.596457e+002
8.345012e+002, 7.588637e+002
8.349833e+002, 7.581121e+002
8.354655e+002, 7.582396e+002
8.359476e+002, 7.589532e+002
8.364297e+002, 7.587286e+002
8.369118e+002, 7.566151e+002
8.373939e+002, 7.542742e+002
8.378760e+002, 7.525123e+002
8.383582e+002, 7.510731e+002
8.388403e+002, 7.493812e+002
8.393224e+002, 7.477128e+002
8.398045e+002, 7.472034e+002
8.402866e+002, 7.483986e+002
8.407687e+002, 7.500388e+002
8.412509e+002, 7.503585e+002
8.417330e+002, 7.495763e+002
8.422151e+002, 7.490666e+002
8.426972e+002, 7.489106e+002
8.431793e+002, 7.479791e+002
8.436614e+002, 7.456871e+002
8.441436e+002, 7.429582e+002
8.446257e+002, 7.407595e+002
8.451078e+002, 7.390844e+002
8.455899e+002, 7.380860e+002
8.460720e+002, 7.386022e+002
8.465541e+002, 7.385537e+002
8.470363e+002, 7.375634e+002
8.475184e+002, 7.361492e+002
8.480005e+002, 7.345100e+002
8.484826e+002, 7.327150e+002
8.489647e+002, 7.307310e+002
8.494468e+002, 7.283700e+002
8.499290e+002, 7.266370e+002
8.504111e+002, 7.268754e+002
8.508932e+002, 7.273624e+002
8.513753e+002, 7.261891e+002
8.518574e+002, 7.238386e+002
8.523395e+002, 7.215810e+002
8.528217e+002, 7.198477e+002
8.533038e+002, 7.184384e+002
8.537859e+002, 7.174136e+002
8.542680e+002, 7.163749e+002
8.547501e+002, 7.136540e+002
8.552322e+002, 7.092504e+002
8.557144e+002, 7.060515e+002
8.561965e+002, 7.047604e+002
8.566786e+002, 7.042623e+002
8.571607e+002, 7.038986e+002
8.576428e+002, 7.035851e+002
8.581249e+002, 7.030871e+002
8.586071e+002, 7.027518e+002
8.590892e+002, 7.014503e+002
8.595713e+002, 6.979767e+002
8.600534e+002, 6.949630e+002
8.605355e+002, 6.940221e+002
8.610176e+002, 6.936384e+002
8.614998e+002, 6.918536e+002
8.619819e+002, 6.884987e+002
8.624640e+002, 6.851271e+002
8.629461e+002, 6.819337e+002
8.634282e+002, 6.793484e+002
8.639103e+002, 6.779792e+002
8.643925e+002, 6.772411e+002
8.648746e+002, 6.765690e+002
8.653567e+002, 6.757239e+002
8.658388e+002, 6.743969e+002
8.663209e+002, 6.724148e+002
8.668030e+002, 6.698420e+002
8.672852e+002, 6.661610e+002
8.677673e+002, 6.618605e+002
8.682494e+002, 6.599454e+002
8.687315e+002, 6.606729e+002
8.692136e+002, 6.610636e+002
8.696957e+002, 6.598877e+002
8.701779e+002, 6.578279e+002
8.706600e+002, 6.557742e+002
8.711421e+002, 6.537253e+002
8.716242e+002, 6.513756e+002
8.721063e+002, 6.483616e+002
8.725884e+002, 6.456844e+002
8.730705e+002, 6.435571e+002
8.735526e+002, 6.417897e+002
8.740347e+002, 6.404656e+002
8.745168e+002, 6.393997e+002
8.749990e+002, 6.381827e+002
8.754811e+002, 6.368693e+002
8.759632e+002, 6.350529e+002
8.764453e+002, 6.322753e+002
8.769274e+002, 6.292601e+002
8.774095e+002, 6.261133e+002
8.778917e+002, 6.232767e+002
8.783738e+002, 6.216823e+002
8.788559e+002, 6.213572e+002
8.793380e+002, 6.208969e+002
8.798201e+002, 6.191332e+002
8.803022e+002, 6.166954e+002
8.807844e+002, 6.144623e+002
8.812665e+002, 6.124374e+002
8.817486e+002, 6.107308e+002
8.822307e+002, 6.093362e+002
8.827128e+002, 6.078591e+002
8.831949e+002, 6.060299e+002
8.836771e+002, 6.040853e+002
8.841592e+002, 6.026248e+002
8.846413e+002, 6.017853e+002
8.851234e+002, 6.002825e+002
8.856055e+002, 5.977470e+002
8.860876e+002, 5.954623e+002
8.865698e+002, 5.940679e+002
8.870519e+002, 5.928995e+002
8.875340e+002, 5.910841e+002
8.880161e+002, 5.886896e+002
8.884982e+002, 5.867245e+002
8.889803e+002, 5.852684e+002
8.894625e+002, 5.841708e+002
8.899446e+002, 5.837188e+002
8.904267e+002, 5.833192e+002
8.909088e+002, 5.828596e+002
8.913909e+002, 5.820647e+002
8.918730e+002, 5.803505e+002
8.923552e+002, 5.775118e+002
8.928373e+002, 5.746841e+002
8.933194e+002, 5.725325e+002
8.938015e+002, 5.708023e+002
8.942836e+002, 5.690677e+002
8.947657e+002, 5.675922e+002
8.952479e+002, 5.675179e+002
8.957300e+002, 5.687028e+002
8.962121e+002, 5.687472e+002
8.966942e+002, 5.656458e+002
8.971763e+002, 5.611000e+002
8.976584e+002, 5.585827e+002
8.981406e+002, 5.579059e+002
8.986227e+002, 5.570619e+002
8.991048e+002, 5.558312e+002
8.995869e+002, 5.550406e+002
9.000690e+002, 5.552431e+002
9.005511e+002, 5.555953e+002
9.010333e+002, 5.547777e+002
9.015154e+002, 5.527220e+002
9.019975e+002, 5.510314e+002
9.024796e+002, 5.499933e+002
9.029617e+002, 5.487688e+002
9.034438e+002, 5.467814e+002
9.039260e+002, 5.449810e+002
9.044081e+002, 5.440985e+002
9.048902e+002, 5.438884e+002
9.053723e+002, 5.437805e+002
9.058544e+002, 5.438495e+002
9.063365e+002, 5.436422e+002
9.068187e+002, 5.430290e+002
9.073008e+002, 5.421288e+002
9.077829e+002, 5.408208e+002
9.082650e+002, 5.393730e+002
9.087471e+002, 5.380909e+002
9.092292e+002, 5.370410e+002
9.097114e+002, 5.361693e+002
9.101935e+002, 5.355654e+002
9.106756e+002, 5.349377e+002
9.111577e+002, 5.337323e+002
9.116398e+002, 5.323899e+002
9.121219e+002, 5.319670e+002
9.126041e+002, 5.323168e+002
9.130862e+002, 5.322326e+002
9.135683e+002, 5.311443e+002
9.140504e+002, 5.297000e+002
9.145325e+002, 5.287976e+002
9.150146e+002, 5.283134e+002
9.154968e+002, 5.274050e+002
9.159789e+002, 5.260530e+002
9.164610e+002, 5.248560e+002
9.169431e+002, 5.238977e+002
9.174252e+002, 5.235109e+002
9.179073e+002, 5.242729e+002
9.183895e+002, 5.255557e+002
9.188716e+002, 5.248969e+002
9.193537e+002, 5.209219e+002
9.198358e+002, 5.185251e+002
9.203179e+002, 5.187424e+002
9.208000e+002, 5.190573e+002
9.212822e+002, 5.182122e+002
9.217643e+002, 5.171381e+002
9.222464e+002, 5.168817e+002
9.227285e+002, 5.174269e+002
9.232106e+002, 5.180252e+002
9.236927e+002, 5.193308e+002
9.241749e+002, 5.196483e+002
9.246570e+002, 5.176850e+002
9.251391e+002, 5.152838e+002
9.256212e+002, 5.135253e+002
9.261033e+002, 5.125828e+002
9.265854e+002, 5.128309e+002
9.270676e+002, 5.144299e+002
9.275497e+002, 5.154559e+002
9.280318e+002, 5.140726e+002
9.285139e+002, 5.120203e+002
9.289960e+002, 5.109222e+002
9.294781e+002, 5.105287e+002
9.299603e+002, 5.103475e+002
9.304424e+002, 5.102399e+002
9.309245e+002, 5.101997e+002
9.314066e+002, 5.102598e+002
9.318887e+002, 5.101737e+002
9.323708e+002, 5.093939e+002
9.328530e+002, 5.081228e+002
9.333351e+002, 5.073116e+002
9.338172e+002, 5.069681e+002
9.342993e+002, 5.061474e+002
9.347814e+002, 5.044214e+002
9.352635e+002, 5.029893e+002
9.357457e+002, 5.032516e+002
9.362278e+002, 5.048976e+002
9.367099e+002, 5.062461e+002
9.371920e+002, 5.074619e+002
9.376741e+002, 5.074940e+002
9.381563e+002, 5.055922e+002
9.386384e+002, 5.039096e+002
9.391205e+002, 5.037572e+002
9.396026e+002, 5.044320e+002
9.400847e+002, 5.046852e+002
9.405668e+002, 5.044240e+002
9.410490e+002, 5.042944e+002
9.415311e+002, 5.048208e+002
9.420132e+002, 5.047647e+002
9.424953e+002, 5.031701e+002
9.429774e+002, 5.015739e+002
9.434595e+002, 5.012603e+002
9.439417e+002, 5.018339e+002
9.444238e+002, 5.021278e+002
9.449059e+002, 5.018067e+002
9.453880e+002, 5.016358e+002
9.458701e+002, 5.023010e+002
9.463522e+002, 5.027675e+002
9.468344e+002, 5.022532e+002
9.473165e+002, 5.011698e+002
9.477986e+002, 4.998214e+002
9.482807e+002, 4.984720e+002
9.487628e+002, 4.978145e+002
9.492449e+002, 4.984215e+002
9.497271e+002, 4.993228e+002
9.502092e+002, 4.995157e+002
9.506913e+002, 4.994472e+002
9.511734e+002, 4.998944e+002
9.516555e+002, 5.007321e+002
9.521376e+002, 5.013926e+002
9.526198e+002, 5.016779e+002
9.531019e+002, 5.017318e+002
9.535840e+002, 5.016653e+002
9.540661e+002, 5.014991e+002
9.545482e+002, 5.011764e+002
9.550303e+002, 5.007633e+002
9.555124e+002, 5.008096e+002
9.559945e+002, 5.013892e+002
9.564766e+002, 5.018188e+002
9.569587e+002, 5.017233e+002
9.574409e+002, 5.013179e+002
9.579230e+002, 5.008726e+002
9.584051e+002, 5.003931e+002
9.588872e+002, 5.005842e+002
9.593693e+002, 5.018044e+002
9.598514e+002, 5.020320e+002
9.603336e+002, 5.003841e+002
9.608157e+002, 4.986852e+002
9.612978e+002, 4.983439e+002
9.617799e+002, 4.989462e+002
9.622620e+002, 4.993698e+002
9.627441e+002, 4.996906e+002
9.632263e+002, 4.995877e+002
9.637084e+002, 4.983338e+002
9.641905e+002, 4.976532e+002
9.646726e+002, 4.983315e+002
9.651547e+002, 4.994848e+002
9.656368e+002, 5.007437e+002
9.661190e+002, 5.018789e+002
9.666011e+002, 5.019107e+002
9.670832e+002, 4.998296e+002
9.675653e+002, 4.984594e+002
9.680474e+002, 4.991016e+002
9.685295e+002, 4.998528e+002
9.690117e+002, 4.990426e+002
9.694938e+002, 4.980103e+002
9.699759e+002, 4.992281e+002
9.704580e+002, 5.025107e+002
9.709401e+002, 5.042330e+002
9.714222e+002, 5.016427e+002
9.719044e+002, 4.989769e+002
9.723865e+002, 4.992349e+002
9.728686e+002, 5.005100e+002
9.733507e+002, 5.007162e+002
9.738328e+002, 5.002308e+002
9.743149e+002, 5.005609e+002
9.747971e+002, 5.020424e+002
9.752792e+002, 5.031185e+002
9.757613e+002, 5.020413e+002
9.762434e+002, 5.004545e+002
9.767255e+002, 5.008574e+002
9.772076e+002, 5.023316e+002
9.776898e+002, 5.029034e+002
9.781719e+002, 5.024525e+002
9.786540e+002, 5.018087e+002
9.791361e+002, 5.013653e+002
9.796182e+002, 5.010391e+002
9.801003e+002, 5.007161e+002
9.805825e+002, 5.004285e+002
9.810646e+002, 5.001227e+002
9.815467e+002, 4.998871e+002
9.820288e+002, 5.006231e+002
9.825109e+002, 5.025039e+002
9.829930e+002, 5.044899e+002
9.834752e+002, 5.059515e+002
9.839573e+002, 5.068717e+002
9.844394e+002, 5.071647e+002
9.849215e+002, 5.068288e+002
9.854036e+002, 5.062125e+002
9.858857e+002, 5.052313e+002
9.863679e+002, 5.045042e+002
9.868500e+002, 5.042547e+002
9.873321e+002, 5.040874e+002
9.878142e+002, 5.036720e+002
9.882963e+002, 5.030981e+002
9.887784e+002, 5.025977e+002
9.892606e+002, 5.019918e+002
9.897427e+002, 5.021688e+002
9.902248e+002, 5.037685e+002
9.907069e+002, 5.048990e+002
9.911890e+002, 5.047391e+002
9.916711e+002, 5.041241e+002
9.921533e+002, 5.035800e+002
9.926354e+002, 5.032216e+002
9.931175e+002, 5.037940e+002
9.935996e+002, 5.065672e+002
9.940817e+002, 5.079831e+002
9.945638e+002, 5.070802e+002
9.950460e+002, 5.059135e+002
9.955281e+002, 5.046548e+002
9.960102e+002, 5.039538e+002
9.964923e+002, 5.049577e+002
9.969744e+002, 5.073700e+002
9.974565e+002, 5.088532e+002
9.979387e+002, 5.085208e+002
9.984208e+002, 5.079741e+002
9.989029e+002, 5.075749e+002
9.993850e+002, 5.071191e+002
9.998671e+002, 5.062121e+002
1.000349e+003, 5.053121e+002
1.000831e+003, 5.052281e+002
1.001313e+003, 5.059563e+002
1.001796e+003, 5.064575e+002
1.002278e+003, 5.061305e+002
1.002760e+003, 5.057416e+002
1.003242e+003, 5.056054e+002
1.003724e+003, 5.056858e+002
1.004206e+003, 5.061510e+002
1.004688e+003, 5.067374e+002
1.005170e+003, 5.068576e+002
1.005653e+003, 5.064345e+002
1.006135e+003, 5.062104e+002
1.006617e+003, 5.069000e+002
1.007099e+003, 5.076502e+002
1.007581e+003, 5.077125e+002
1.008063e+003, 5.073000e+002
1.008545e+003, 5.066207e+002
1.009027e+003, 5.057553e+002
1.009509e+003, 5.046220e+002
1.009992e+003, 5.032673e+002
1.010474e+003, 5.024825e+002
1.010956e+003, 5.033762e+002
1.011438e+003, 5.047939e+002
1.011920e+003, 5.048637e+002
1.012402e+003, 5.041322e+002
1.012884e+003, 5.039058e+002
1.013366e+003, 5.042293e+002
1.013849e+003, 5.044400e+002
1.014331e+003, 5.042488e+002
1.014813e+003, 5.038783e+002
1.015295e+003, 5.034281e+002
1.015777e+003, 5.031012e+002
1.016259e+003, 5.037353e+002
1.016741e+003, 5.050059e+002
1.017223e+003, 5.052563e+002
1.017705e+003, 5.043173e+002
1.018188e+003, 5.032474e+002
1.018670e+003, 5.025856e+002
1.019152e+003, 5.020977e+002
1.019634e+003, 5.013669e+002
1.020116e+003, 5.005591e+002
1.020598e+003, 5.007962e+002
1.021080e+003, 5.020036e+002
1.021562e+003, 5.020381e+002
1.022044e+003, 5.004749e+002
1.022527e+003, 4.986343e+002
1.023009e+003, 4.971870e+002
1.023491e+003, 4.963350e+002
1.023973e+003, 4.966004e+002
1.024455e+003, 4.978673e+002
1.024937e+003, 4.981297e+002
1.025419e+003, 4.972976e+002
1.025901e+003, 4.960773e+002
1.026384e+003, 4.943822e+002
1.026866e+003, 4.933427e+002
1.027348e+003, 4.938337e+002
1.027830e+003, 4.950345e+002
1.028312e+003, 4.953821e+002
1.028794e+003, 4.948288e+002
1.029276e+003, 4.948180e+002
1.029758e+003, 4.957097e+002
1.030240e+003, 4.958041e+002
1.030723e+003, 4.944564e+002
1.031205e+003, 4.930304e+002
1.031687e+003, 4.924341e+002
1.032169e+003, 4.923111e+002
1.032651e+003, 4.918868e+002
1.033133e+003, 4.910534e+002
1.033615e+003, 4.908639e+002
1.034097e+003, 4.918346e+002
1.034579e+003, 4.922646e+002
1.035062e+003, 4.913644e+002
1.035544e+003, 4.905767e+002
1.036026e+003, 4.911176e+002
1.036508e+003, 4.922566e+002
1.036990e+003, 4.924102e+002
1.037472e+003, 4.913597e+002
1.037954e+003, 4.905434e+002
1.038436e+003, 4.903078e+002
1.038919e+003, 4.897427e+002
1.039401e+003, 4.880947e+002
1.039883e+003, 4.867349e+002
1.040365e+003, 4.868642e+002
1.040847e+003, 4.878063e+002
1.041329e+003, 4.880156e+002
1.041811e+003, 4.872049e+002
1.042293e+003, 4.872121e+002
1.042776e+003, 4.892790e+002
1.043258e+003, 4.904789e+002
1.043740e+003, 4.899525e+002
1.044222e+003, 4.887296e+002
1.044704e+003, 4.871859e+002
1.045186e+003, 4.855138e+002
1.045668e+003, 4.838932e+002
1.046150e+003, 4.822044e+002
1.046632e+003, 4.815606e+002
1.047115e+003, 4.830511e+002
1.047597e+003, 4.842539e+002
1.048079e+003, 4.846994e+002
1.048561e+003, 4.845436e+002
1.049043e+003, 4.837647e+002
1.049525e+003, 4.825226e+002
1.050007e+003, 4.807964e+002
1.050489e+003, 4.784552e+002
1.050971e+003, 4.773346e+002
1.051454e+003, 4.785826e+002
1.051936e+003, 4.800170e+002
1.052418e+003, 4.817065e+002
1.052900e+003, 4.826683e+002
1.053382e+003, 4.808561e+002
1.053864e+003, 4.783435e+002
1.054346e+003, 4.796753e+002
1.054828e+003, 4.856279e+002
1.055311e+003, 4.891356e+002
1.055793e+003, 4.870922e+002
1.056275e+003, 4.840050e+002
1.056757e+003, 4.800349e+002
1.057239e+003, 4.769162e+002
1.057721e+003, 4.763344e+002
1.058203e+003, 4.773592e+002
1.058685e+003, 4.783439e+002
1.059167e+003, 4.790259e+002
1.059650e+003, 4.799104e+002
1.060132e+003, 4.819018e+002
1.060614e+003, 4.831258e+002
1.061096e+003, 4.821312e+002
1.061578e+003, 4.808301e+002
1.062060e+003, 4.808737e+002
1.062542e+003, 4.815415e+002
1.063024e+003, 4.812932e+002
1.063506e+003, 4.799917e+002
1.063989e+003, 4.792977e+002
1.064471e+003, 4.804345e+002
1.064953e+003, 4.813968e+002
1.065435e+003, 4.813507e+002
1.065917e+003, 4.808258e+002
1.066399e+003, 4.798724e+002
1.066881e+003, 4.788932e+002
1.067363e+003, 4.786049e+002
1.067846e+003, 4.789933e+002
1.068328e+003, 4.790270e+002
1.068810e+003, 4.780370e+002
1.069292e+003, 4.771313e+002
1.069774e+003, 4.764438e+002
1.070256e+003, 4.763986e+002
1.070738e+003, 4.779724e+002
1.071220e+003, 4.800180e+002
1.071703e+003, 4.808746e+002
1.072185e+003, 4.804616e+002
1.072667e+003, 4.799663e+002
1.073149e+003, 4.798966e+002
1.073631e+003, 4.796354e+002
1.074113e+003, 4.782352e+002
1.074595e+003, 4.772296e+002
1.075077e+003, 4.784365e+002
1.075559e+003, 4.802725e+002
1.076042e+003, 4.804185e+002
1.076524e+003, 4.789848e+002
1.077006e+003, 4.779896e+002
1.077488e+003, 4.783940e+002
1.077970e+003, 4.784134e+002
1.078452e+003, 4.761239e+002
1.078934e+003, 4.743683e+002
1.079416e+003, 4.759177e+002
1.079898e+003, 4.785013e+002
1.080380e+003, 4.791949e+002
1.080863e+003, 4.782516e+002
1.081345e+003, 4.777579e+002
1.081827e+003, 4.784174e+002
1.082309e+003, 4.792307e+002
1.082791e+003, 4.797705e+002
1.083273e+003, 4.803023e+002
1.083755e+003, 4.813585e+002
1.084237e+003, 4.821965e+002
1.084720e+003, 4.816438e+002
1.085202e+003, 4.802323e+002
1.085684e+003, 4.795432e+002
1.086166e+003, 4.800388e+002
1.086648e+003, 4.807369e+002
1.087130e+003, 4.816917e+002
1.087612e+003, 4.821579e+002
1.088094e+003, 4.812535e+002
1.088577e+003, 4.801153e+002
1.089059e+003, 4.796199e+002
1.089541e+003, 4.798033e+002
1.090023e+003, 4.808070e+002
1.090505e+003, 4.826699e+002
1.090987e+003, 4.837286e+002
1.091469e+003, 4.830940e+002
1.091951e+003, 4.819048e+002
1.092433e+003, 4.802061e+002
1.092916e+003, 4.785783e+002
1.093398e+003, 4.772171e+002
1.093880e+003, 4.763849e+002
1.094362e+003, 4.765712e+002
1.094844e+003, 4.777805e+002
1.095326e+003, 4.791652e+002
1.095808e+003, 4.809219e+002
1.096290e+003, 4.821275e+002
1.096772e+003, 4.823328e+002
1.097255e+003, 4.820515e+002
1.097737e+003, 4.810809e+002
1.098219e+003, 4.801481e+002
1.098701e+003, 4.803264e+002
1.099183e+003, 4.815319e+002
1.099665e+003, 4.825423e+002
1.100147e+003, 4.829239e+002
1.100629e+003, 4.834082e+002
1.101112e+003, 4.845425e+002
1.101594e+003, 4.853849e+002
1.102076e+003, 4.852306e+002
1.102558e+003, 4.847349e+002
1.103040e+003, 4.845706e+002
1.103522e+003, 4.847001e+002
1.104004e+003, 4.848013e+002
1.104486e+003, 4.848748e+002
1.104969e+003, 4.847626e+002
1.105451e+003, 4.838775e+002
1.105933e+003, 4.835310e+002
1.106415e+003, 4.846974e+002
1.106897e+003, 4.861025e+002
1.107379e+003, 4.864974e+002
1.107861e+003, 4.863775e+002
1.108343e+003, 4.871750e+002
1.108825e+003, 4.892802e+002
1.109307e+003, 4.906442e+002
1.109790e+003, 4.911516e+002
1.110272e+003, 4.908122e+002
1.110754e+003, 4.883065e+002
1.111236e+003, 4.863481e+002
1.111718e+003, 4.870922e+002
1.112200e+003, 4.891760e+002
1.112682e+003, 4.904037e+002
1.113164e+003, 4.907134e+002
1.113647e+003, 4.909370e+002
1.114129e+003, 4.910168e+002
1.114611e+003, 4.911167e+002
1.115093e+003, 4.914261e+002
1.115575e+003, 4.915059e+002
1.116057e+003, 4.908799e+002
1.116539e+003, 4.902074e+002
1.117021e+003, 4.903765e+002
1.117504e+003, 4.912296e+002
1.117986e+003, 4.915534e+002
1.118468e+003, 4.908363e+002
1.118950e+003, 4.908683e+002
1.119432e+003, 4.923273e+002
1.119914e+003, 4.931296e+002
1.120396e+003, 4.921404e+002
1.120878e+003, 4.910752e+002
1.121360e+003, 4.914508e+002
1.121843e+003, 4.928477e+002
1.122325e+003, 4.941010e+002
1.122807e+003, 4.952928e+002
1.123289e+003, 4.958085e+002
1.123771e+003, 4.954986e+002
1.124253e+003, 4.949203e+002
1.124735e+003, 4.939017e+002
1.125217e+003, 4.935958e+002
1.125699e+003, 4.949404e+002
1.126182e+003, 4.969997e+002
1.126664e+003, 4.981978e+002
1.127146e+003, 4.985630e+002
1.127628e+003, 4.984547e+002
1.128110e+003, 4.977416e+002
1.128592e+003, 4.979712e+002
1.129074e+003, 4.995680e+002
1.129556e+003, 5.001373e+002
1.130039e+003, 4.983642e+002
1.130521e+003, 4.965059e+002
1.131003e+003, 4.972830e+002
1.131485e+003, 4.998273e+002
1.131967e+003, 5.009361e+002
1.132449e+003, 5.007250e+002
1.132931e+003, 5.015203e+002
1.133413e+003, 5.034142e+002
1.133896e+003, 5.044471e+002
1.134378e+003, 5.040226e+002
1.134860e+003, 5.030757e+002
1.135342e+003, 5.022562e+002
1.135824e+003, 5.017422e+002
1.136306e+003, 5.019645e+002
1.136788e+003, 5.027570e+002
1.137270e+003, 5.035222e+002
1.137752e+003, 5.042586e+002
1.138234e+003, 5.049349e+002
1.138717e+003, 5.055981e+002
1.139199e+003, 5.066631e+002
1.139681e+003, 5.083506e+002
1.140163e+003, 5.099842e+002
1.140645e+003, 5.107592e+002
1.141127e+003, 5.110428e+002
1.141609e+003, 5.117117e+002
1.142091e+003, 5.123444e+002
1.142574e+003, 5.115984e+002
1.143056e+003, 5.099108e+002
1.143538e+003, 5.091160e+002
1.144020e+003, 5.097389e+002
1.144502e+003, 5.108578e+002
1.144984e+003, 5.120266e+002
1.145466e+003, 5.129320e+002
1.145948e+003, 5.127006e+002
1.146431e+003, 5.124586e+002
1.146913e+003, 5.141984e+002
1.147395e+003, 5.167570e+002
1.147877e+003, 5.176509e+002
1.148359e+003, 5.169048e+002
1.148841e+003, 5.165834e+002
1.149323e+003, 5.175798e+002
1.149805e+003, 5.189436e+002
1.150287e+003, 5.208442e+002
1.150770e+003, 5.220237e+002
1.151252e+003, 5.207062e+002
1.151734e+003, 5.188931e+002
1.152216e+003, 5.188383e+002
1.152698e+003, 5.200912e+002
1.153180e+003, 5.212785e+002
1.153662e+003, 5.221070e+002
1.154144e+003, 5.224450e+002
1.154626e+003, 5.214941e+002
1.155109e+003, 5.211289e+002
1.155591e+003, 5.226004e+002
1.156073e+003, 5.241512e+002
1.156555e+003, 5.243105e+002
1.157037e+003, 5.241539e+002
1.157519e+003, 5.250961e+002
1.158001e+003, 5.271339e+002
1.158483e+003, 5.296120e+002
1.158966e+003, 5.335174e+002
1.159448e+003, 5.356445e+002
1.159930e+003, 5.342723e+002
1.160412e+003, 5.332098e+002
1.160894e+003, 5.343309e+002
1.161376e+003, 5.350708e+002
1.161858e+003, 5.325228e+002
1.162340e+003, 5.288492e+002
1.162822e+003, 5.291007e+002
1.163305e+003, 5.337972e+002
1.163787e+003, 5.367460e+002
1.164269e+003, 5.373054e+002
1.164751e+003, 5.379784e+002
1.165233e+003, 5.391750e+002
1.165715e+003, 5.403013e+002
1.166197e+003, 5.412245e+002
1.166679e+003, 5.414813e+002
1.167161e+003, 5.402141e+002
1.167644e+003, 5.381439e+002
1.168126e+003, 5.382947e+002
1.168608e+003, 5.407164e+002
1.169090e+003, 5.440778e+002
1.169572e+003, 5.483508e+002
1.170054e+003, 5.522164e+002
1.170536e+003, 5.553159e+002
1.171018e+003, 5.572997e+002
1.171500e+003, 5.578992e+002
1.171983e+003, 5.574004e+002
1.172465e+003, 5.558560e+002
1.172947e+003, 5.537470e+002
1.173429e+003, 5.525634e+002
1.173911e+003, 5.522510e+002
1.174393e+003, 5.527533e+002
1.174875e+003, 5.539310e+002
1.175357e+003, 5.553449e+002
1.175840e+003, 5.567968e+002
1.176322e+003, 5.579697e+002
1.176804e+003, 5.585438e+002
1.177286e+003, 5.588658e+002
1.177768e+003, 5.591016e+002
1.178250e+003, 5.595544e+002
1.178732e+003, 5.611546e+002
1.179214e+003, 5.631140e+002
1.179697e+003, 5.634641e+002
1.180179e+003, 5.624418e+002
1.180661e+003, 5.625465e+002
1.181143e+003, 5.650135e+002
1.181625e+003, 5.669912e+002
1.182107e+003, 5.656711e+002
1.182589e+003, 5.645781e+002
1.183071e+003, 5.665131e+002
1.183553e+003, 5.693244e+002
1.184036e+003, 5.711654e+002
1.184518e+003, 5.721699e+002
1.185000e+003, 5.729209e+002
1.185482e+003, 5.735063e+002
1.185964e+003, 5.738132e+002
1.186446e+003, 5.732441e+002
1.186928e+003, 5.733304e+002
1.187410e+003, 5.748256e+002
1.187892e+003, 5.764108e+002
1.188375e+003, 5.775995e+002
1.188857e+003, 5.785770e+002
1.189339e+003, 5.794446e+002
1.189821e+003, 5.802679e+002
1.190303e+003, 5.812274e+002
1.190785e+003, 5.823728e+002
1.191267e+003, 5.833778e+002
1.191749e+003, 5.842773e+002
1.192232e+003, 5.848793e+002
1.192714e+003, 5.849948e+002
1.193196e+003, 5.852375e+002
1.193678e+003, 5.858601e+002
1.194160e+003, 5.869562e+002
1.194642e+003, 5.888190e+002
1.195124e+003, 5.910260e+002
1.195606e+003, 5.915315e+002
1.196089e+003, 5.904460e+002
1.196571e+003, 5.911352e+002
1.197053e+003, 5.936495e+002
1.197535e+003, 5.960126e+002
1.198017e+003, 5.976907e+002
1.198499e+003, 5.985119e+002
1.198981e+003, 5.983171e+002
1.199463e+003, 5.979558e+002
1.199945e+003, 5.985214e+002
1.200427e+003, 5.997375e+002
1.200910e+003, 6.012449e+002
1.201392e+003, 6.029006e+002
1.201874e+003, 6.045572e+002
1.202356e+003, 6.060491e+002
1.202838e+003, 6.066487e+002
1.203320e+003, 6.064234e+002
1.203802e+003, 6.073026e+002
1.204284e+003, 6.110527e+002
1.204767e+003, 6.142669e+002
1.205249e+003, 6.139361e+002
1.205731e+003, 6.124530e+002
1.206213e+003, 6.110466e+002
1.206695e+003, 6.102172e+002
1.207177e+003, 6.107268e+002
1.207659e+003, 6.121399e+002
1.208141e+003, 6.132600e+002
1.208624e+003, 6.138302e+002
1.209106e+003, 6.144945e+002
1.209588e+003, 6.156149e+002
1.210070e+003, 6.165248e+002
1.210552e+003, 6.166354e+002
1.211034e+003, 6.170499e+002
1.211516e+003, 6.186877e+002
1.211998e+003, 6.205663e+002
1.212480e+003, 6.216094e+002
1.212963e+003, 6.220889e+002
1.213445e+003, 6.230964e+002
1.213927e+003, 6.248564e+002
1.214409e+003, 6.259159e+002
1.214891e+003, 6.260580e+002
1.215373e+003, 6.263499e+002
1.215855e+003, 6.270164e+002
1.216337e+003, 6.276982e+002
1.216819e+003, 6.281758e+002
1.217302e+003, 6.287805e+002
1.217784e+003, 6.300316e+002
1.218266e+003, 6.315464e+002
1.218748e+003, 6.318505e+002
1.219230e+003, 6.313123e+002
1.219712e+003, 6.319402e+002
1.220194e+003, 6.335843e+002
1.220676e+003, 6.348035e+002
1.221159e+003, 6.353431e+002
1.221641e+003, 6.359288e+002
1.222123e+003, 6.369532e+002
1.222605e+003, 6.381830e+002
1.223087e+003, 6.395486e+002
1.223569e+003, 6.408201e+002
1.224051e+003, 6.416829e+002
1.224533e+003, 6.423197e+002
1.225016e+003, 6.427675e+002
1.225498e+003, 6.432490e+002
1.225980e+003, 6.440982e+002
1.226462e+003, 6.453676e+002
1.226944e+003, 6.470475e+002
1.227426e+003, 6.493768e+002
1.227908e+003, 6.513358e+002
1.228390e+003, 6.525594e+002
1.228872e+003, 6.533380e+002
1.229354e+003, 6.531155e+002
1.229837e+003, 6.531586e+002
1.230319e+003, 6.549239e+002
1.230801e+003, 6.573965e+002
1.231283e+003, 6.587043e+002
1.231765e+003, 6.588926e+002
1.232247e+003, 6.591771e+002
1.232729e+003, 6.592768e+002
1.233211e+003, 6.604928e+002
1.233694e+003, 6.633126e+002
1.234176e+003, 6.658013e+002
1.234658e+003, 6.674556e+002
1.235140e+003, 6.681908e+002
1.235622e+003, 6.677635e+002
1.236104e+003, 6.671575e+002
1.236586e+003, 6.680642e+002
1.237068e+003, 6.702313e+002
1.237551e+003, 6.730572e+002
1.238033e+003, 6.761906e+002
1.238515e+003, 6.781129e+002
1.238997e+003, 6.787813e+002
1.239479e+003, 6.784703e+002
1.239961e+003, 6.775366e+002
1.240443e+003, 6.777758e+002
1.240925e+003, 6.806194e+002
1.241407e+003, 6.834583e+002
1.241890e+003, 6.831047e+002
1.242372e+003, 6.822500e+002
1.242854e+003, 6.838756e+002
1.243336e+003, 6.863190e+002
1.243818e+003, 6.871200e+002
1.244300e+003, 6.871180e+002
1.244782e+003, 6.887165e+002
1.245264e+003, 6.921763e+002
1.245746e+003, 6.951445e+002
1.246229e+003, 6.971030e+002
1.246711e+003, 6.983505e+002
1.247193e+003, 6.983510e+002
1.247675e+003, 6.984362e+002
1.248157e+003, 6.987472e+002
1.248639e+003, 6.996842e+002
1.249121e+003, 7.018665e+002
1.249603e+003, 7.045133e+002
1.250085e+003, 7.061185e+002
1.250568e+003, 7.067773e+002
1.251050e+003, 7.083429e+002
1.251532e+003, 7.109250e+002
1.252014e+003, 7.130748e+002
1.252496e+003, 7.146595e+002
1.252978e+003, 7.167450e+002
1.253460e+003, 7.196481e+002
1.253942e+003, 7.226379e+002
1.254425e+003, 7.252457e+002
1.254907e+003, 7.271680e+002
1.255389e+003, 7.270498e+002
1.255871e+003, 7.266210e+002
1.256353e+003, 7.299109e+002
1.256835e+003, 7.348774e+002
1.257317e+003, 7.376432e+002
1.257799e+003, 7.386494e+002
1.258281e+003, 7.399056e+002
1.258764e+003, 7.418203e+002
1.259246e+003, 7.437078e+002
1.259728e+003, 7.452984e+002
1.260210e+003, 7.467438e+002
1.260692e+003, 7.474923e+002
1.261174e+003, 7.489337e+002
1.261656e+003, 7.523701e+002
1.262138e+003, 7.561065e+002
1.262620e+003, 7.592424e+002
1.263103e+003, 7.615766e+002
1.263585e+003, 7.623469e+002
1.264067e+003, 7.619316e+002
1.264549e+003, 7.635518e+002
1.265031e+003, 7.681689e+002
1.265513e+003, 7.713691e+002
1.265995e+003, 7.726127e+002
1.266477e+003, 7.749472e+002
1.266960e+003, 7.793389e+002
1.267442e+003, 7.826597e+002
1.267924e+003, 7.830359e+002
1.268406e+003, 7.827873e+002
1.268888e+003, 7.847928e+002
1.269370e+003, 7.879947e+002
1.269852e+003, 7.898591e+002
1.270334e+003, 7.910090e+002
1.270817e+003, 7.932773e+002
1.271299e+003, 7.961714e+002
1.271781e+003, 7.977618e+002
1.272263e+003, 7.982585e+002
1.272745e+003, 7.999357e+002
1.273227e+003, 8.036653e+002
1.273709e+003, 8.072195e+002
1.274191e+003, 8.087670e+002
1.274673e+003, 8.105341e+002
1.275156e+003, 8.138640e+002
1.275638e+003, 8.175524e+002
1.276120e+003, 8.210601e+002
1.276602e+003, 8.242994e+002
1.277084e+003, 8.268795e+002
1.277566e+003, 8.292190e+002
1.278048e+003, 8.328160e+002
1.278530e+003, 8.380275e+002
1.279012e+003, 8.410729e+002
1.279495e+003, 8.410859e+002
1.279977e+003, 8.418062e+002
1.280459e+003, 8.435606e+002
1.280941e+003, 8.469365e+002
1.281423e+003, 8.524062e+002
1.281905e+003, 8.569922e+002
1.282387e+003, 8.581840e+002
1.282869e+003, 8.582147e+002
1.283352e+003, 8.610215e+002
1.283834e+003, 8.653431e+002
1.284316e+003, 8.684072e+002
1.284798e+003, 8.702576e+002
##END=



