##NAMES=Lammerite
##RRUFFID=R140108
##IDEAL CHEMISTRY=Cu^2+^_3_(As^5+^O_4_)_2_
##LOCALITY=Veta Negra, Laurani District, Aroma Province, La Paz Department, Bolivia
##OWNER=RRUFF
##SOURCE=Rock Currier
##DESCRIPTION=Massive green on a matrix consisting of quartz and anatase
##STATUS=The identification of this mineral has been confirmed by single-crystal X-ray diffraction.
##URL=rruff.info/R140108
9.059570e+001, 7.016118e+002
9.107782e+001, 6.973132e+002
9.155994e+001, 6.958190e+002
9.204205e+001, 6.993210e+002
9.252417e+001, 7.041339e+002
9.300629e+001, 7.089214e+002
9.348840e+001, 7.096298e+002
9.397052e+001, 7.021793e+002
9.445264e+001, 6.858787e+002
9.493475e+001, 6.702974e+002
9.541687e+001, 6.554355e+002
9.589898e+001, 6.421674e+002
9.638110e+001, 6.297474e+002
9.686321e+001, 6.172900e+002
9.734533e+001, 6.039572e+002
9.782745e+001, 5.892010e+002
9.830956e+001, 5.768966e+002
9.879168e+001, 5.678286e+002
9.927380e+001, 5.595686e+002
9.975591e+001, 5.517113e+002
1.002380e+002, 5.440530e+002
1.007201e+002, 5.362415e+002
1.012023e+002, 5.278807e+002
1.016844e+002, 5.191785e+002
1.021665e+002, 5.110813e+002
1.026486e+002, 5.036922e+002
1.031307e+002, 4.966830e+002
1.036128e+002, 4.897153e+002
1.040950e+002, 4.826455e+002
1.045771e+002, 4.759909e+002
1.050592e+002, 4.701085e+002
1.055413e+002, 4.646993e+002
1.060234e+002, 4.594333e+002
1.065055e+002, 4.538237e+002
1.069877e+002, 4.481411e+002
1.074698e+002, 4.436903e+002
1.079519e+002, 4.419125e+002
1.084340e+002, 4.395365e+002
1.089161e+002, 4.351428e+002
1.093982e+002, 4.290629e+002
1.098804e+002, 4.222334e+002
1.103625e+002, 4.150979e+002
1.108446e+002, 4.072735e+002
1.113267e+002, 4.013527e+002
1.118088e+002, 3.983967e+002
1.122909e+002, 3.962588e+002
1.127731e+002, 3.941520e+002
1.132552e+002, 3.918793e+002
1.137373e+002, 3.895352e+002
1.142194e+002, 3.872557e+002
1.147015e+002, 3.847833e+002
1.151836e+002, 3.828956e+002
1.156658e+002, 3.822955e+002
1.161479e+002, 3.819291e+002
1.166300e+002, 3.806911e+002
1.171121e+002, 3.781583e+002
1.175942e+002, 3.748475e+002
1.180763e+002, 3.719424e+002
1.185584e+002, 3.694764e+002
1.190406e+002, 3.671927e+002
1.195227e+002, 3.650935e+002
1.200048e+002, 3.631357e+002
1.204869e+002, 3.611431e+002
1.209690e+002, 3.589129e+002
1.214511e+002, 3.567433e+002
1.219333e+002, 3.551014e+002
1.224154e+002, 3.540462e+002
1.228975e+002, 3.534030e+002
1.233796e+002, 3.533086e+002
1.238617e+002, 3.538810e+002
1.243438e+002, 3.539806e+002
1.248260e+002, 3.527768e+002
1.253081e+002, 3.509016e+002
1.257902e+002, 3.487640e+002
1.262723e+002, 3.464209e+002
1.267544e+002, 3.440155e+002
1.272365e+002, 3.419027e+002
1.277187e+002, 3.401691e+002
1.282008e+002, 3.386111e+002
1.286829e+002, 3.372717e+002
1.291650e+002, 3.360104e+002
1.296471e+002, 3.346290e+002
1.301292e+002, 3.329689e+002
1.306114e+002, 3.310645e+002
1.310935e+002, 3.294161e+002
1.315756e+002, 3.285201e+002
1.320577e+002, 3.274075e+002
1.325398e+002, 3.257277e+002
1.330219e+002, 3.236087e+002
1.335041e+002, 3.213857e+002
1.339862e+002, 3.193058e+002
1.344683e+002, 3.173277e+002
1.349504e+002, 3.158509e+002
1.354325e+002, 3.149497e+002
1.359146e+002, 3.143698e+002
1.363968e+002, 3.140927e+002
1.368789e+002, 3.140678e+002
1.373610e+002, 3.140883e+002
1.378431e+002, 3.139475e+002
1.383252e+002, 3.136309e+002
1.388073e+002, 3.131031e+002
1.392895e+002, 3.120293e+002
1.397716e+002, 3.108684e+002
1.402537e+002, 3.102729e+002
1.407358e+002, 3.104931e+002
1.412179e+002, 3.108676e+002
1.417000e+002, 3.105268e+002
1.421821e+002, 3.095540e+002
1.426643e+002, 3.083823e+002
1.431464e+002, 3.070718e+002
1.436285e+002, 3.056765e+002
1.441106e+002, 3.043854e+002
1.445927e+002, 3.032675e+002
1.450748e+002, 3.022496e+002
1.455570e+002, 3.012506e+002
1.460391e+002, 3.002714e+002
1.465212e+002, 2.993172e+002
1.470033e+002, 2.984371e+002
1.474854e+002, 2.976501e+002
1.479675e+002, 2.967337e+002
1.484497e+002, 2.957672e+002
1.489318e+002, 2.945549e+002
1.494139e+002, 2.927850e+002
1.498960e+002, 2.904398e+002
1.503781e+002, 2.880055e+002
1.508602e+002, 2.862390e+002
1.513424e+002, 2.853691e+002
1.518245e+002, 2.846971e+002
1.523066e+002, 2.843270e+002
1.527887e+002, 2.839842e+002
1.532708e+002, 2.834059e+002
1.537529e+002, 2.825046e+002
1.542351e+002, 2.814381e+002
1.547172e+002, 2.806020e+002
1.551993e+002, 2.801685e+002
1.556814e+002, 2.797988e+002
1.561635e+002, 2.796111e+002
1.566456e+002, 2.794379e+002
1.571278e+002, 2.790732e+002
1.576099e+002, 2.784086e+002
1.580920e+002, 2.775049e+002
1.585741e+002, 2.766113e+002
1.590562e+002, 2.753692e+002
1.595383e+002, 2.745176e+002
1.600205e+002, 2.745140e+002
1.605026e+002, 2.750634e+002
1.609847e+002, 2.755137e+002
1.614668e+002, 2.755227e+002
1.619489e+002, 2.751054e+002
1.624310e+002, 2.744746e+002
1.629131e+002, 2.734792e+002
1.633953e+002, 2.724390e+002
1.638774e+002, 2.715780e+002
1.643595e+002, 2.708729e+002
1.648416e+002, 2.700902e+002
1.653237e+002, 2.689621e+002
1.658058e+002, 2.676904e+002
1.662880e+002, 2.667350e+002
1.667701e+002, 2.662942e+002
1.672522e+002, 2.660660e+002
1.677343e+002, 2.657381e+002
1.682164e+002, 2.653031e+002
1.686985e+002, 2.648061e+002
1.691807e+002, 2.640469e+002
1.696628e+002, 2.632911e+002
1.701449e+002, 2.629197e+002
1.706270e+002, 2.632004e+002
1.711091e+002, 2.638813e+002
1.715912e+002, 2.644294e+002
1.720734e+002, 2.649259e+002
1.725555e+002, 2.650986e+002
1.730376e+002, 2.649383e+002
1.735197e+002, 2.644442e+002
1.740018e+002, 2.635570e+002
1.744839e+002, 2.621349e+002
1.749661e+002, 2.603074e+002
1.754482e+002, 2.589115e+002
1.759303e+002, 2.587035e+002
1.764124e+002, 2.580681e+002
1.768945e+002, 2.562895e+002
1.773766e+002, 2.538044e+002
1.778588e+002, 2.514093e+002
1.783409e+002, 2.496865e+002
1.788230e+002, 2.486391e+002
1.793051e+002, 2.475300e+002
1.797872e+002, 2.462589e+002
1.802693e+002, 2.450220e+002
1.807515e+002, 2.437297e+002
1.812336e+002, 2.424983e+002
1.817157e+002, 2.416225e+002
1.821978e+002, 2.414068e+002
1.826799e+002, 2.419585e+002
1.831620e+002, 2.420971e+002
1.836441e+002, 2.417292e+002
1.841263e+002, 2.411384e+002
1.846084e+002, 2.403557e+002
1.850905e+002, 2.394386e+002
1.855726e+002, 2.385257e+002
1.860547e+002, 2.377044e+002
1.865368e+002, 2.369739e+002
1.870190e+002, 2.366790e+002
1.875011e+002, 2.372454e+002
1.879832e+002, 2.379306e+002
1.884653e+002, 2.382094e+002
1.889474e+002, 2.380245e+002
1.894296e+002, 2.376019e+002
1.899117e+002, 2.371373e+002
1.903938e+002, 2.366242e+002
1.908759e+002, 2.359565e+002
1.913580e+002, 2.346822e+002
1.918401e+002, 2.334530e+002
1.923223e+002, 2.331323e+002
1.928044e+002, 2.339350e+002
1.932865e+002, 2.350278e+002
1.937686e+002, 2.357489e+002
1.942507e+002, 2.361557e+002
1.947328e+002, 2.362608e+002
1.952150e+002, 2.359450e+002
1.956971e+002, 2.353482e+002
1.961792e+002, 2.346721e+002
1.966613e+002, 2.337981e+002
1.971434e+002, 2.331537e+002
1.976255e+002, 2.332883e+002
1.981077e+002, 2.339153e+002
1.985898e+002, 2.342927e+002
1.990719e+002, 2.337840e+002
1.995540e+002, 2.326458e+002
2.000361e+002, 2.320104e+002
2.005182e+002, 2.321396e+002
2.010004e+002, 2.324822e+002
2.014825e+002, 2.328647e+002
2.019646e+002, 2.332160e+002
2.024467e+002, 2.333615e+002
2.029288e+002, 2.330277e+002
2.034109e+002, 2.322643e+002
2.038930e+002, 2.319559e+002
2.043752e+002, 2.326390e+002
2.048573e+002, 2.332471e+002
2.053394e+002, 2.333611e+002
2.058215e+002, 2.330701e+002
2.063036e+002, 2.326389e+002
2.067857e+002, 2.322489e+002
2.072679e+002, 2.318968e+002
2.077500e+002, 2.316581e+002
2.082321e+002, 2.318783e+002
2.087142e+002, 2.318966e+002
2.091963e+002, 2.312563e+002
2.096784e+002, 2.301814e+002
2.101606e+002, 2.292977e+002
2.106427e+002, 2.292433e+002
2.111248e+002, 2.301808e+002
2.116069e+002, 2.304837e+002
2.120890e+002, 2.296819e+002
2.125711e+002, 2.287516e+002
2.130533e+002, 2.280213e+002
2.135354e+002, 2.275054e+002
2.140175e+002, 2.270902e+002
2.144996e+002, 2.267047e+002
2.149817e+002, 2.263958e+002
2.154638e+002, 2.257319e+002
2.159460e+002, 2.244792e+002
2.164281e+002, 2.231644e+002
2.169102e+002, 2.219583e+002
2.173923e+002, 2.209108e+002
2.178744e+002, 2.200603e+002
2.183565e+002, 2.194759e+002
2.188387e+002, 2.192011e+002
2.193208e+002, 2.188301e+002
2.198029e+002, 2.182950e+002
2.202850e+002, 2.177296e+002
2.207671e+002, 2.172173e+002
2.212492e+002, 2.167583e+002
2.217314e+002, 2.163015e+002
2.222135e+002, 2.158090e+002
2.226956e+002, 2.152749e+002
2.231777e+002, 2.147004e+002
2.236598e+002, 2.139412e+002
2.241419e+002, 2.132447e+002
2.246240e+002, 2.128678e+002
2.251062e+002, 2.128061e+002
2.255883e+002, 2.127485e+002
2.260704e+002, 2.124263e+002
2.265525e+002, 2.118691e+002
2.270346e+002, 2.113742e+002
2.275167e+002, 2.108994e+002
2.279989e+002, 2.105327e+002
2.284810e+002, 2.104363e+002
2.289631e+002, 2.106272e+002
2.294452e+002, 2.107865e+002
2.299273e+002, 2.106490e+002
2.304094e+002, 2.102971e+002
2.308916e+002, 2.099616e+002
2.313737e+002, 2.097052e+002
2.318558e+002, 2.094676e+002
2.323379e+002, 2.091723e+002
2.328200e+002, 2.088105e+002
2.333021e+002, 2.084500e+002
2.337843e+002, 2.080642e+002
2.342664e+002, 2.077205e+002
2.347485e+002, 2.075551e+002
2.352306e+002, 2.077277e+002
2.357127e+002, 2.079868e+002
2.361948e+002, 2.079599e+002
2.366770e+002, 2.075810e+002
2.371591e+002, 2.071885e+002
2.376412e+002, 2.070115e+002
2.381233e+002, 2.069008e+002
2.386054e+002, 2.066576e+002
2.390875e+002, 2.061339e+002
2.395697e+002, 2.055782e+002
2.400518e+002, 2.054479e+002
2.405339e+002, 2.058925e+002
2.410160e+002, 2.062842e+002
2.414981e+002, 2.063825e+002
2.419802e+002, 2.063117e+002
2.424624e+002, 2.061526e+002
2.429445e+002, 2.059151e+002
2.434266e+002, 2.056531e+002
2.439087e+002, 2.054480e+002
2.443908e+002, 2.052896e+002
2.448729e+002, 2.052212e+002
2.453550e+002, 2.053086e+002
2.458372e+002, 2.054539e+002
2.463193e+002, 2.056377e+002
2.468014e+002, 2.058660e+002
2.472835e+002, 2.059762e+002
2.477656e+002, 2.055956e+002
2.482477e+002, 2.043834e+002
2.487299e+002, 2.035067e+002
2.492120e+002, 2.033534e+002
2.496941e+002, 2.034611e+002
2.501762e+002, 2.035222e+002
2.506583e+002, 2.034368e+002
2.511404e+002, 2.032430e+002
2.516226e+002, 2.029901e+002
2.521047e+002, 2.026449e+002
2.525868e+002, 2.023194e+002
2.530689e+002, 2.019152e+002
2.535510e+002, 2.015993e+002
2.540331e+002, 2.015535e+002
2.545153e+002, 2.018001e+002
2.549974e+002, 2.021377e+002
2.554795e+002, 2.022509e+002
2.559616e+002, 2.020197e+002
2.564437e+002, 2.018147e+002
2.569258e+002, 2.016362e+002
2.574080e+002, 2.014874e+002
2.578901e+002, 2.014233e+002
2.583722e+002, 2.014276e+002
2.588543e+002, 2.013753e+002
2.593364e+002, 2.010711e+002
2.598185e+002, 2.003429e+002
2.603007e+002, 1.997991e+002
2.607828e+002, 1.993841e+002
2.612649e+002, 1.991442e+002
2.617470e+002, 1.992707e+002
2.622291e+002, 1.996900e+002
2.627112e+002, 2.000183e+002
2.631934e+002, 1.997915e+002
2.636755e+002, 1.988245e+002
2.641576e+002, 1.979427e+002
2.646397e+002, 1.972160e+002
2.651218e+002, 1.965002e+002
2.656039e+002, 1.956277e+002
2.660861e+002, 1.946539e+002
2.665682e+002, 1.938464e+002
2.670503e+002, 1.935202e+002
2.675324e+002, 1.938168e+002
2.680145e+002, 1.936625e+002
2.684966e+002, 1.927136e+002
2.689788e+002, 1.917245e+002
2.694609e+002, 1.910925e+002
2.699430e+002, 1.907739e+002
2.704251e+002, 1.904784e+002
2.709072e+002, 1.899550e+002
2.713893e+002, 1.891936e+002
2.718715e+002, 1.886109e+002
2.723536e+002, 1.883554e+002
2.728357e+002, 1.880930e+002
2.733178e+002, 1.877045e+002
2.737999e+002, 1.871948e+002
2.742820e+002, 1.865808e+002
2.747642e+002, 1.858416e+002
2.752463e+002, 1.850058e+002
2.757284e+002, 1.844655e+002
2.762105e+002, 1.843735e+002
2.766926e+002, 1.843300e+002
2.771747e+002, 1.842699e+002
2.776568e+002, 1.841572e+002
2.781389e+002, 1.839138e+002
2.786211e+002, 1.834801e+002
2.791032e+002, 1.829090e+002
2.795853e+002, 1.824245e+002
2.800674e+002, 1.818874e+002
2.805495e+002, 1.815704e+002
2.810316e+002, 1.816649e+002
2.815138e+002, 1.820115e+002
2.819959e+002, 1.823717e+002
2.824780e+002, 1.826679e+002
2.829601e+002, 1.828430e+002
2.834422e+002, 1.826974e+002
2.839243e+002, 1.820124e+002
2.844065e+002, 1.814714e+002
2.848886e+002, 1.813317e+002
2.853707e+002, 1.813885e+002
2.858528e+002, 1.813188e+002
2.863349e+002, 1.810036e+002
2.868170e+002, 1.806153e+002
2.872992e+002, 1.804527e+002
2.877813e+002, 1.805626e+002
2.882634e+002, 1.807117e+002
2.887455e+002, 1.809362e+002
2.892276e+002, 1.811527e+002
2.897097e+002, 1.812781e+002
2.901919e+002, 1.812954e+002
2.906740e+002, 1.811763e+002
2.911561e+002, 1.808223e+002
2.916382e+002, 1.801862e+002
2.921203e+002, 1.797067e+002
2.926024e+002, 1.792290e+002
2.930846e+002, 1.790386e+002
2.935667e+002, 1.796728e+002
2.940488e+002, 1.811772e+002
2.945309e+002, 1.825746e+002
2.950130e+002, 1.828861e+002
2.954951e+002, 1.820741e+002
2.959773e+002, 1.814767e+002
2.964594e+002, 1.813422e+002
2.969415e+002, 1.812891e+002
2.974236e+002, 1.809709e+002
2.979057e+002, 1.804008e+002
2.983878e+002, 1.798904e+002
2.988700e+002, 1.796750e+002
2.993521e+002, 1.797191e+002
2.998342e+002, 1.796994e+002
3.003163e+002, 1.796705e+002
3.007984e+002, 1.795310e+002
3.012805e+002, 1.791115e+002
3.017627e+002, 1.784866e+002
3.022448e+002, 1.780093e+002
3.027269e+002, 1.779162e+002
3.032090e+002, 1.780589e+002
3.036911e+002, 1.779809e+002
3.041732e+002, 1.776084e+002
3.046554e+002, 1.771673e+002
3.051375e+002, 1.766905e+002
3.056196e+002, 1.762178e+002
3.061017e+002, 1.758617e+002
3.065838e+002, 1.756810e+002
3.070659e+002, 1.756092e+002
3.075481e+002, 1.755420e+002
3.080302e+002, 1.755064e+002
3.085123e+002, 1.753930e+002
3.089944e+002, 1.751289e+002
3.094765e+002, 1.747725e+002
3.099586e+002, 1.744367e+002
3.104408e+002, 1.741610e+002
3.109229e+002, 1.738633e+002
3.114050e+002, 1.733275e+002
3.118871e+002, 1.725162e+002
3.123692e+002, 1.720882e+002
3.128513e+002, 1.725282e+002
3.133335e+002, 1.732547e+002
3.138156e+002, 1.734864e+002
3.142977e+002, 1.730916e+002
3.147798e+002, 1.727109e+002
3.152619e+002, 1.730762e+002
3.157440e+002, 1.741120e+002
3.162262e+002, 1.746330e+002
3.167083e+002, 1.741318e+002
3.171904e+002, 1.733716e+002
3.176725e+002, 1.729504e+002
3.181546e+002, 1.728794e+002
3.186367e+002, 1.729367e+002
3.191188e+002, 1.730182e+002
3.196010e+002, 1.731060e+002
3.200831e+002, 1.731313e+002
3.205652e+002, 1.730383e+002
3.210473e+002, 1.729408e+002
3.215294e+002, 1.729050e+002
3.220115e+002, 1.729181e+002
3.224937e+002, 1.729372e+002
3.229758e+002, 1.729498e+002
3.234579e+002, 1.729481e+002
3.239400e+002, 1.729093e+002
3.244221e+002, 1.728186e+002
3.249042e+002, 1.727319e+002
3.253864e+002, 1.726591e+002
3.258685e+002, 1.726052e+002
3.263506e+002, 1.725573e+002
3.268327e+002, 1.724952e+002
3.273148e+002, 1.725016e+002
3.277969e+002, 1.727681e+002
3.282791e+002, 1.733577e+002
3.287612e+002, 1.737985e+002
3.292433e+002, 1.738979e+002
3.297254e+002, 1.738520e+002
3.302075e+002, 1.738886e+002
3.306896e+002, 1.740472e+002
3.311718e+002, 1.742302e+002
3.316539e+002, 1.743356e+002
3.321360e+002, 1.743558e+002
3.326181e+002, 1.744179e+002
3.331002e+002, 1.745471e+002
3.335823e+002, 1.747023e+002
3.340645e+002, 1.749016e+002
3.345466e+002, 1.751223e+002
3.350287e+002, 1.752265e+002
3.355108e+002, 1.750630e+002
3.359929e+002, 1.746990e+002
3.364750e+002, 1.746212e+002
3.369572e+002, 1.750647e+002
3.374393e+002, 1.755090e+002
3.379214e+002, 1.757302e+002
3.384035e+002, 1.757849e+002
3.388856e+002, 1.758135e+002
3.393677e+002, 1.758835e+002
3.398499e+002, 1.759604e+002
3.403320e+002, 1.759363e+002
3.408141e+002, 1.757043e+002
3.412962e+002, 1.755766e+002
3.417783e+002, 1.756822e+002
3.422604e+002, 1.758994e+002
3.427426e+002, 1.761205e+002
3.432247e+002, 1.763147e+002
3.437068e+002, 1.763841e+002
3.441889e+002, 1.761670e+002
3.446710e+002, 1.755148e+002
3.451531e+002, 1.749916e+002
3.456353e+002, 1.746386e+002
3.461174e+002, 1.743937e+002
3.465995e+002, 1.743466e+002
3.470816e+002, 1.744357e+002
3.475637e+002, 1.742960e+002
3.480458e+002, 1.735331e+002
3.485280e+002, 1.720962e+002
3.490101e+002, 1.711469e+002
3.494922e+002, 1.710961e+002
3.499743e+002, 1.710324e+002
3.504564e+002, 1.705423e+002
3.509385e+002, 1.697356e+002
3.514207e+002, 1.688921e+002
3.519028e+002, 1.681667e+002
3.523849e+002, 1.675563e+002
3.528670e+002, 1.670464e+002
3.533491e+002, 1.668707e+002
3.538312e+002, 1.665078e+002
3.543134e+002, 1.656281e+002
3.547955e+002, 1.646344e+002
3.552776e+002, 1.640926e+002
3.557597e+002, 1.641842e+002
3.562418e+002, 1.644716e+002
3.567239e+002, 1.641876e+002
3.572061e+002, 1.628787e+002
3.576882e+002, 1.619078e+002
3.581703e+002, 1.613879e+002
3.586524e+002, 1.610831e+002
3.591345e+002, 1.609685e+002
3.596166e+002, 1.609585e+002
3.600987e+002, 1.608016e+002
3.605808e+002, 1.602045e+002
3.610630e+002, 1.590858e+002
3.615451e+002, 1.583148e+002
3.620272e+002, 1.581588e+002
3.625093e+002, 1.580482e+002
3.629914e+002, 1.577382e+002
3.634735e+002, 1.573379e+002
3.639557e+002, 1.571024e+002
3.644378e+002, 1.571987e+002
3.649199e+002, 1.575381e+002
3.654020e+002, 1.577474e+002
3.658841e+002, 1.578114e+002
3.663662e+002, 1.577457e+002
3.668484e+002, 1.574247e+002
3.673305e+002, 1.570486e+002
3.678126e+002, 1.568194e+002
3.682947e+002, 1.567993e+002
3.687768e+002, 1.568893e+002
3.692589e+002, 1.569655e+002
3.697411e+002, 1.570910e+002
3.702232e+002, 1.570197e+002
3.707053e+002, 1.566484e+002
3.711874e+002, 1.561727e+002
3.716695e+002, 1.556109e+002
3.721516e+002, 1.550169e+002
3.726338e+002, 1.545055e+002
3.731159e+002, 1.541775e+002
3.735980e+002, 1.540307e+002
3.740801e+002, 1.540168e+002
3.745622e+002, 1.544509e+002
3.750443e+002, 1.546099e+002
3.755265e+002, 1.540275e+002
3.760086e+002, 1.530832e+002
3.764907e+002, 1.523632e+002
3.769728e+002, 1.521605e+002
3.774549e+002, 1.523105e+002
3.779370e+002, 1.524818e+002
3.784192e+002, 1.527135e+002
3.789013e+002, 1.528529e+002
3.793834e+002, 1.527514e+002
3.798655e+002, 1.526079e+002
3.803476e+002, 1.526131e+002
3.808297e+002, 1.528021e+002
3.813119e+002, 1.529685e+002
3.817940e+002, 1.528752e+002
3.822761e+002, 1.525283e+002
3.827582e+002, 1.521942e+002
3.832403e+002, 1.518129e+002
3.837224e+002, 1.515784e+002
3.842046e+002, 1.517126e+002
3.846867e+002, 1.521102e+002
3.851688e+002, 1.523935e+002
3.856509e+002, 1.522160e+002
3.861330e+002, 1.518068e+002
3.866151e+002, 1.517378e+002
3.870973e+002, 1.521115e+002
3.875794e+002, 1.524567e+002
3.880615e+002, 1.525811e+002
3.885436e+002, 1.524811e+002
3.890257e+002, 1.520662e+002
3.895078e+002, 1.511245e+002
3.899900e+002, 1.502180e+002
3.904721e+002, 1.498492e+002
3.909542e+002, 1.499744e+002
3.914363e+002, 1.503109e+002
3.919184e+002, 1.509093e+002
3.924005e+002, 1.515014e+002
3.928827e+002, 1.516458e+002
3.933648e+002, 1.513029e+002
3.938469e+002, 1.511024e+002
3.943290e+002, 1.515711e+002
3.948111e+002, 1.522458e+002
3.952932e+002, 1.522795e+002
3.957754e+002, 1.515019e+002
3.962575e+002, 1.506427e+002
3.967396e+002, 1.503989e+002
3.972217e+002, 1.507085e+002
3.977038e+002, 1.507275e+002
3.981859e+002, 1.501481e+002
3.986681e+002, 1.495070e+002
3.991501e+002, 1.491309e+002
3.996323e+002, 1.489889e+002
4.001144e+002, 1.489435e+002
4.005965e+002, 1.489365e+002
4.010786e+002, 1.489651e+002
4.015607e+002, 1.490406e+002
4.020428e+002, 1.493203e+002
4.025250e+002, 1.493698e+002
4.030071e+002, 1.489424e+002
4.034892e+002, 1.483225e+002
4.039713e+002, 1.478118e+002
4.044534e+002, 1.474864e+002
4.049355e+002, 1.472843e+002
4.054177e+002, 1.471357e+002
4.058998e+002, 1.470373e+002
4.063819e+002, 1.470338e+002
4.068640e+002, 1.472302e+002
4.073461e+002, 1.474098e+002
4.078282e+002, 1.475260e+002
4.083104e+002, 1.475394e+002
4.087925e+002, 1.473403e+002
4.092746e+002, 1.468261e+002
4.097567e+002, 1.461218e+002
4.102388e+002, 1.457984e+002
4.107209e+002, 1.462487e+002
4.112031e+002, 1.465924e+002
4.116852e+002, 1.467645e+002
4.121673e+002, 1.467966e+002
4.126494e+002, 1.466317e+002
4.131315e+002, 1.462934e+002
4.136136e+002, 1.460142e+002
4.140958e+002, 1.461694e+002
4.145779e+002, 1.469400e+002
4.150600e+002, 1.474200e+002
4.155421e+002, 1.475325e+002
4.160242e+002, 1.474117e+002
4.165063e+002, 1.468128e+002
4.169885e+002, 1.460060e+002
4.174706e+002, 1.456279e+002
4.179527e+002, 1.462120e+002
4.184348e+002, 1.474002e+002
4.189169e+002, 1.478931e+002
4.193990e+002, 1.472889e+002
4.198812e+002, 1.468756e+002
4.203633e+002, 1.472633e+002
4.208454e+002, 1.478945e+002
4.213275e+002, 1.482898e+002
4.218096e+002, 1.483352e+002
4.222917e+002, 1.481550e+002
4.227739e+002, 1.477514e+002
4.232560e+002, 1.471461e+002
4.237381e+002, 1.467875e+002
4.242202e+002, 1.467920e+002
4.247023e+002, 1.470025e+002
4.251844e+002, 1.474097e+002
4.256666e+002, 1.479312e+002
4.261487e+002, 1.482625e+002
4.266308e+002, 1.481926e+002
4.271129e+002, 1.478968e+002
4.275950e+002, 1.476005e+002
4.280771e+002, 1.473006e+002
4.285593e+002, 1.470431e+002
4.290414e+002, 1.468002e+002
4.295235e+002, 1.466568e+002
4.300056e+002, 1.467907e+002
4.304877e+002, 1.473741e+002
4.309698e+002, 1.478472e+002
4.314520e+002, 1.478631e+002
4.319341e+002, 1.475845e+002
4.324162e+002, 1.473344e+002
4.328983e+002, 1.471970e+002
4.333804e+002, 1.470733e+002
4.338625e+002, 1.468490e+002
4.343447e+002, 1.465101e+002
4.348268e+002, 1.461526e+002
4.353089e+002, 1.456567e+002
4.357910e+002, 1.452463e+002
4.362731e+002, 1.451078e+002
4.367552e+002, 1.451939e+002
4.372374e+002, 1.453511e+002
4.377195e+002, 1.455110e+002
4.382016e+002, 1.456334e+002
4.386837e+002, 1.455602e+002
4.391658e+002, 1.449823e+002
4.396479e+002, 1.446045e+002
4.401301e+002, 1.446079e+002
4.406122e+002, 1.447569e+002
4.410943e+002, 1.448547e+002
4.415764e+002, 1.448513e+002
4.420585e+002, 1.447816e+002
4.425406e+002, 1.446708e+002
4.430227e+002, 1.445005e+002
4.435049e+002, 1.444253e+002
4.439870e+002, 1.444306e+002
4.444691e+002, 1.445502e+002
4.449512e+002, 1.449544e+002
4.454333e+002, 1.454499e+002
4.459154e+002, 1.457143e+002
4.463976e+002, 1.455640e+002
4.468797e+002, 1.451756e+002
4.473618e+002, 1.449346e+002
4.478439e+002, 1.448778e+002
4.483260e+002, 1.448588e+002
4.488081e+002, 1.448928e+002
4.492903e+002, 1.449246e+002
4.497724e+002, 1.448639e+002
4.502545e+002, 1.447330e+002
4.507366e+002, 1.447129e+002
4.512187e+002, 1.450455e+002
4.517008e+002, 1.456240e+002
4.521830e+002, 1.459584e+002
4.526651e+002, 1.459539e+002
4.531472e+002, 1.459160e+002
4.536293e+002, 1.459484e+002
4.541114e+002, 1.460794e+002
4.545935e+002, 1.464201e+002
4.550757e+002, 1.471575e+002
4.555578e+002, 1.477848e+002
4.560399e+002, 1.477133e+002
4.565220e+002, 1.471227e+002
4.570041e+002, 1.467818e+002
4.574862e+002, 1.468939e+002
4.579684e+002, 1.473603e+002
4.584505e+002, 1.481788e+002
4.589326e+002, 1.493446e+002
4.594147e+002, 1.504142e+002
4.598968e+002, 1.513304e+002
4.603789e+002, 1.521005e+002
4.608611e+002, 1.526720e+002
4.613432e+002, 1.530799e+002
4.618253e+002, 1.534887e+002
4.623074e+002, 1.540053e+002
4.627895e+002, 1.545978e+002
4.632716e+002, 1.551448e+002
4.637538e+002, 1.559014e+002
4.642359e+002, 1.562872e+002
4.647180e+002, 1.560139e+002
4.652001e+002, 1.554614e+002
4.656822e+002, 1.550449e+002
4.661643e+002, 1.548277e+002
4.666465e+002, 1.545449e+002
4.671286e+002, 1.538561e+002
4.676107e+002, 1.526717e+002
4.680928e+002, 1.518954e+002
4.685749e+002, 1.520724e+002
4.690570e+002, 1.520760e+002
4.695392e+002, 1.515034e+002
4.700213e+002, 1.505926e+002
4.705034e+002, 1.496733e+002
4.709855e+002, 1.488814e+002
4.714676e+002, 1.482565e+002
4.719497e+002, 1.479232e+002
4.724319e+002, 1.479705e+002
4.729140e+002, 1.479211e+002
4.733961e+002, 1.476243e+002
4.738782e+002, 1.472830e+002
4.743603e+002, 1.469807e+002
4.748424e+002, 1.467314e+002
4.753246e+002, 1.465486e+002
4.758067e+002, 1.464997e+002
4.762888e+002, 1.465041e+002
4.767709e+002, 1.463053e+002
4.772530e+002, 1.458359e+002
4.777351e+002, 1.456066e+002
4.782173e+002, 1.460140e+002
4.786994e+002, 1.467280e+002
4.791815e+002, 1.472129e+002
4.796636e+002, 1.473981e+002
4.801457e+002, 1.475336e+002
4.806278e+002, 1.477696e+002
4.811100e+002, 1.480324e+002
4.815920e+002, 1.481513e+002
4.820742e+002, 1.480887e+002
4.825563e+002, 1.480572e+002
4.830384e+002, 1.483130e+002
4.835205e+002, 1.488356e+002
4.840026e+002, 1.489740e+002
4.844847e+002, 1.482068e+002
4.849669e+002, 1.476427e+002
4.854490e+002, 1.479770e+002
4.859311e+002, 1.487683e+002
4.864132e+002, 1.491899e+002
4.868953e+002, 1.489371e+002
4.873774e+002, 1.484066e+002
4.878596e+002, 1.482800e+002
4.883417e+002, 1.488452e+002
4.888238e+002, 1.490148e+002
4.893059e+002, 1.485477e+002
4.897880e+002, 1.479866e+002
4.902701e+002, 1.476007e+002
4.907523e+002, 1.473362e+002
4.912344e+002, 1.470135e+002
4.917165e+002, 1.465215e+002
4.921986e+002, 1.459144e+002
4.926807e+002, 1.453099e+002
4.931628e+002, 1.446438e+002
4.936450e+002, 1.441640e+002
4.941271e+002, 1.441011e+002
4.946092e+002, 1.441183e+002
4.950913e+002, 1.440370e+002
4.955734e+002, 1.438308e+002
4.960555e+002, 1.434983e+002
4.965377e+002, 1.429563e+002
4.970198e+002, 1.422954e+002
4.975019e+002, 1.418151e+002
4.979840e+002, 1.415814e+002
4.984661e+002, 1.412351e+002
4.989482e+002, 1.405070e+002
4.994304e+002, 1.395550e+002
4.999125e+002, 1.386570e+002
5.003946e+002, 1.377372e+002
5.008767e+002, 1.370848e+002
5.013588e+002, 1.369876e+002
5.018409e+002, 1.372121e+002
5.023231e+002, 1.373843e+002
5.028052e+002, 1.374299e+002
5.032873e+002, 1.373274e+002
5.037694e+002, 1.370283e+002
5.042515e+002, 1.365215e+002
5.047336e+002, 1.360962e+002
5.052158e+002, 1.357833e+002
5.056979e+002, 1.355077e+002
5.061800e+002, 1.353007e+002
5.066621e+002, 1.350961e+002
5.071442e+002, 1.347617e+002
5.076263e+002, 1.342578e+002
5.081085e+002, 1.337336e+002
5.085906e+002, 1.334354e+002
5.090727e+002, 1.334411e+002
5.095548e+002, 1.333883e+002
5.100369e+002, 1.331978e+002
5.105190e+002, 1.330268e+002
5.110012e+002, 1.329498e+002
5.114833e+002, 1.329335e+002
5.119654e+002, 1.329181e+002
5.124475e+002, 1.328815e+002
5.129296e+002, 1.328046e+002
5.134117e+002, 1.326238e+002
5.138939e+002, 1.323152e+002
5.143760e+002, 1.320863e+002
5.148581e+002, 1.320274e+002
5.153402e+002, 1.320191e+002
5.158223e+002, 1.320031e+002
5.163044e+002, 1.319645e+002
5.167866e+002, 1.318177e+002
5.172687e+002, 1.313334e+002
5.177508e+002, 1.308317e+002
5.182329e+002, 1.308679e+002
5.187150e+002, 1.313924e+002
5.191971e+002, 1.316311e+002
5.196793e+002, 1.311040e+002
5.201614e+002, 1.302089e+002
5.206435e+002, 1.299234e+002
5.211256e+002, 1.305153e+002
5.216077e+002, 1.307991e+002
5.220898e+002, 1.302353e+002
5.225720e+002, 1.295219e+002
5.230541e+002, 1.293299e+002
5.235362e+002, 1.296325e+002
5.240183e+002, 1.299402e+002
5.245004e+002, 1.298861e+002
5.249825e+002, 1.295653e+002
5.254647e+002, 1.294759e+002
5.259468e+002, 1.298362e+002
5.264289e+002, 1.301262e+002
5.269110e+002, 1.303239e+002
5.273931e+002, 1.304234e+002
5.278752e+002, 1.304473e+002
5.283574e+002, 1.303817e+002
5.288395e+002, 1.301461e+002
5.293216e+002, 1.295765e+002
5.298037e+002, 1.287612e+002
5.302858e+002, 1.282606e+002
5.307679e+002, 1.281885e+002
5.312501e+002, 1.281719e+002
5.317322e+002, 1.280584e+002
5.322143e+002, 1.279158e+002
5.326964e+002, 1.278093e+002
5.331785e+002, 1.277497e+002
5.336606e+002, 1.277187e+002
5.341428e+002, 1.277306e+002
5.346249e+002, 1.277571e+002
5.351070e+002, 1.277189e+002
5.355891e+002, 1.275996e+002
5.360712e+002, 1.275039e+002
5.365533e+002, 1.275293e+002
5.370355e+002, 1.276480e+002
5.375176e+002, 1.276841e+002
5.379997e+002, 1.276615e+002
5.384818e+002, 1.275367e+002
5.389639e+002, 1.271620e+002
5.394460e+002, 1.267401e+002
5.399282e+002, 1.265793e+002
5.404103e+002, 1.267155e+002
5.408924e+002, 1.268562e+002
5.413745e+002, 1.266561e+002
5.418566e+002, 1.260953e+002
5.423387e+002, 1.258854e+002
5.428209e+002, 1.265117e+002
5.433029e+002, 1.269166e+002
5.437850e+002, 1.268235e+002
5.442672e+002, 1.264325e+002
5.447493e+002, 1.258854e+002
5.452314e+002, 1.252419e+002
5.457135e+002, 1.247157e+002
5.461956e+002, 1.246106e+002
5.466777e+002, 1.248881e+002
5.471599e+002, 1.250846e+002
5.476420e+002, 1.251285e+002
5.481241e+002, 1.251915e+002
5.486062e+002, 1.255119e+002
5.490883e+002, 1.258939e+002
5.495704e+002, 1.259768e+002
5.500526e+002, 1.255598e+002
5.505347e+002, 1.251397e+002
5.510168e+002, 1.250310e+002
5.514989e+002, 1.251421e+002
5.519810e+002, 1.253307e+002
5.524631e+002, 1.255714e+002
5.529453e+002, 1.257254e+002
5.534274e+002, 1.256293e+002
5.539095e+002, 1.252810e+002
5.543916e+002, 1.251037e+002
5.548737e+002, 1.253235e+002
5.553558e+002, 1.254174e+002
5.558380e+002, 1.251607e+002
5.563201e+002, 1.247354e+002
5.568022e+002, 1.243062e+002
5.572843e+002, 1.239428e+002
5.577664e+002, 1.237483e+002
5.582485e+002, 1.238999e+002
5.587307e+002, 1.244168e+002
5.592128e+002, 1.247124e+002
5.596949e+002, 1.246752e+002
5.601770e+002, 1.245618e+002
5.606591e+002, 1.244256e+002
5.611412e+002, 1.242873e+002
5.616234e+002, 1.241662e+002
5.621055e+002, 1.240665e+002
5.625876e+002, 1.239982e+002
5.630697e+002, 1.239897e+002
5.635518e+002, 1.240212e+002
5.640339e+002, 1.240079e+002
5.645161e+002, 1.239222e+002
5.649982e+002, 1.238890e+002
5.654803e+002, 1.240378e+002
5.659624e+002, 1.243139e+002
5.664445e+002, 1.244685e+002
5.669266e+002, 1.244137e+002
5.674088e+002, 1.243632e+002
5.678909e+002, 1.244122e+002
5.683730e+002, 1.244952e+002
5.688551e+002, 1.245584e+002
5.693372e+002, 1.245786e+002
5.698193e+002, 1.244829e+002
5.703015e+002, 1.241617e+002
5.707836e+002, 1.236419e+002
5.712657e+002, 1.234799e+002
5.717478e+002, 1.241434e+002
5.722299e+002, 1.245366e+002
5.727120e+002, 1.242532e+002
5.731942e+002, 1.237857e+002
5.736763e+002, 1.236096e+002
5.741584e+002, 1.237860e+002
5.746405e+002, 1.240219e+002
5.751226e+002, 1.240774e+002
5.756047e+002, 1.239821e+002
5.760869e+002, 1.238359e+002
5.765690e+002, 1.236148e+002
5.770511e+002, 1.234497e+002
5.775332e+002, 1.234773e+002
5.780153e+002, 1.235544e+002
5.784974e+002, 1.234338e+002
5.789796e+002, 1.230604e+002
5.794617e+002, 1.227229e+002
5.799438e+002, 1.225696e+002
5.804259e+002, 1.224864e+002
5.809080e+002, 1.223423e+002
5.813901e+002, 1.221331e+002
5.818723e+002, 1.219119e+002
5.823544e+002, 1.217057e+002
5.828365e+002, 1.215254e+002
5.833186e+002, 1.214099e+002
5.838007e+002, 1.214814e+002
5.842828e+002, 1.214293e+002
5.847650e+002, 1.211940e+002
5.852471e+002, 1.208885e+002
5.857292e+002, 1.205167e+002
5.862113e+002, 1.201365e+002
5.866934e+002, 1.198789e+002
5.871755e+002, 1.198382e+002
5.876577e+002, 1.199473e+002
5.881398e+002, 1.200679e+002
5.886219e+002, 1.202035e+002
5.891040e+002, 1.203354e+002
5.895861e+002, 1.205154e+002
5.900682e+002, 1.206239e+002
5.905504e+002, 1.205060e+002
5.910325e+002, 1.202005e+002
5.915146e+002, 1.199614e+002
5.919967e+002, 1.198825e+002
5.924788e+002, 1.198863e+002
5.929609e+002, 1.199527e+002
5.934431e+002, 1.200514e+002
5.939252e+002, 1.201031e+002
5.944073e+002, 1.200797e+002
5.948894e+002, 1.199842e+002
5.953715e+002, 1.197948e+002
5.958536e+002, 1.194425e+002
5.963358e+002, 1.193196e+002
5.968179e+002, 1.197572e+002
5.973000e+002, 1.200236e+002
5.977821e+002, 1.196927e+002
5.982642e+002, 1.190907e+002
5.987463e+002, 1.186978e+002
5.992285e+002, 1.186753e+002
5.997106e+002, 1.188060e+002
6.001927e+002, 1.187774e+002
6.006748e+002, 1.186037e+002
6.011569e+002, 1.187433e+002
6.016390e+002, 1.193688e+002
6.021212e+002, 1.199808e+002
6.026033e+002, 1.204256e+002
6.030854e+002, 1.206299e+002
6.035675e+002, 1.203642e+002
6.040496e+002, 1.194029e+002
6.045317e+002, 1.185643e+002
6.050139e+002, 1.184052e+002
6.054960e+002, 1.185562e+002
6.059781e+002, 1.184074e+002
6.064602e+002, 1.179277e+002
6.069423e+002, 1.176161e+002
6.074244e+002, 1.178749e+002
6.079066e+002, 1.185445e+002
6.083887e+002, 1.189024e+002
6.088708e+002, 1.187368e+002
6.093529e+002, 1.185426e+002
6.098350e+002, 1.182130e+002
6.103171e+002, 1.179645e+002
6.107993e+002, 1.180208e+002
6.112814e+002, 1.183106e+002
6.117635e+002, 1.185670e+002
6.122456e+002, 1.186323e+002
6.127277e+002, 1.185429e+002
6.132098e+002, 1.183255e+002
6.136920e+002, 1.179583e+002
6.141741e+002, 1.177068e+002
6.146562e+002, 1.176617e+002
6.151383e+002, 1.177177e+002
6.156204e+002, 1.178075e+002
6.161025e+002, 1.179194e+002
6.165847e+002, 1.179699e+002
6.170668e+002, 1.179425e+002
6.175489e+002, 1.178485e+002
6.180310e+002, 1.176373e+002
6.185131e+002, 1.173748e+002
6.189952e+002, 1.171863e+002
6.194774e+002, 1.171096e+002
6.199595e+002, 1.171185e+002
6.204416e+002, 1.172022e+002
6.209237e+002, 1.173751e+002
6.214058e+002, 1.174099e+002
6.218879e+002, 1.171387e+002
6.223701e+002, 1.169342e+002
6.228522e+002, 1.168704e+002
6.233343e+002, 1.169117e+002
6.238164e+002, 1.170945e+002
6.242985e+002, 1.173975e+002
6.247806e+002, 1.175795e+002
6.252628e+002, 1.172642e+002
6.257448e+002, 1.167027e+002
6.262269e+002, 1.166957e+002
6.267090e+002, 1.173220e+002
6.271912e+002, 1.177141e+002
6.276733e+002, 1.173819e+002
6.281554e+002, 1.166786e+002
6.286375e+002, 1.162457e+002
6.291196e+002, 1.160878e+002
6.296017e+002, 1.160829e+002
6.300839e+002, 1.163468e+002
6.305660e+002, 1.166382e+002
6.310481e+002, 1.168111e+002
6.315302e+002, 1.168726e+002
6.320123e+002, 1.168322e+002
6.324944e+002, 1.166934e+002
6.329766e+002, 1.165874e+002
6.334587e+002, 1.168148e+002
6.339408e+002, 1.175137e+002
6.344229e+002, 1.178286e+002
6.349050e+002, 1.175197e+002
6.353871e+002, 1.171117e+002
6.358693e+002, 1.166774e+002
6.363514e+002, 1.163520e+002
6.368335e+002, 1.164213e+002
6.373156e+002, 1.170561e+002
6.377977e+002, 1.176122e+002
6.382798e+002, 1.174479e+002
6.387620e+002, 1.169435e+002
6.392441e+002, 1.168740e+002
6.397262e+002, 1.173135e+002
6.402083e+002, 1.177709e+002
6.406904e+002, 1.179443e+002
6.411725e+002, 1.178808e+002
6.416547e+002, 1.177366e+002
6.421368e+002, 1.174603e+002
6.426189e+002, 1.171729e+002
6.431010e+002, 1.168061e+002
6.435831e+002, 1.164885e+002
6.440652e+002, 1.163302e+002
6.445474e+002, 1.162881e+002
6.450295e+002, 1.162260e+002
6.455116e+002, 1.160603e+002
6.459937e+002, 1.159020e+002
6.464758e+002, 1.160178e+002
6.469579e+002, 1.164033e+002
6.474401e+002, 1.164535e+002
6.479222e+002, 1.158848e+002
6.484043e+002, 1.153864e+002
6.488864e+002, 1.156796e+002
6.493685e+002, 1.164688e+002
6.498506e+002, 1.168078e+002
6.503328e+002, 1.163514e+002
6.508149e+002, 1.158648e+002
6.512970e+002, 1.156687e+002
6.517791e+002, 1.155930e+002
6.522612e+002, 1.153940e+002
6.527433e+002, 1.150774e+002
6.532255e+002, 1.148891e+002
6.537076e+002, 1.150390e+002
6.541897e+002, 1.153968e+002
6.546718e+002, 1.154492e+002
6.551539e+002, 1.150210e+002
6.556360e+002, 1.147095e+002
6.561182e+002, 1.146150e+002
6.566003e+002, 1.146445e+002
6.570824e+002, 1.147939e+002
6.575645e+002, 1.150313e+002
6.580466e+002, 1.152879e+002
6.585287e+002, 1.156137e+002
6.590109e+002, 1.158279e+002
6.594930e+002, 1.156182e+002
6.599751e+002, 1.151634e+002
6.604572e+002, 1.150268e+002
6.609393e+002, 1.153392e+002
6.614214e+002, 1.156491e+002
6.619036e+002, 1.155202e+002
6.623857e+002, 1.150162e+002
6.628678e+002, 1.148268e+002
6.633499e+002, 1.154119e+002
6.638320e+002, 1.157049e+002
6.643141e+002, 1.153227e+002
6.647963e+002, 1.148415e+002
6.652784e+002, 1.147815e+002
6.657605e+002, 1.150787e+002
6.662426e+002, 1.152738e+002
6.667247e+002, 1.150304e+002
6.672068e+002, 1.146148e+002
6.676890e+002, 1.145994e+002
6.681711e+002, 1.149653e+002
6.686532e+002, 1.149892e+002
6.691353e+002, 1.143754e+002
6.696174e+002, 1.137109e+002
6.700995e+002, 1.136084e+002
6.705817e+002, 1.140024e+002
6.710638e+002, 1.141630e+002
6.715459e+002, 1.138422e+002
6.720280e+002, 1.135773e+002
6.725101e+002, 1.135373e+002
6.729922e+002, 1.136391e+002
6.734744e+002, 1.138465e+002
6.739565e+002, 1.141154e+002
6.744386e+002, 1.143215e+002
6.749207e+002, 1.143524e+002
6.754028e+002, 1.142824e+002
6.758849e+002, 1.143904e+002
6.763671e+002, 1.147496e+002
6.768492e+002, 1.149610e+002
6.773313e+002, 1.149214e+002
6.778134e+002, 1.147349e+002
6.782955e+002, 1.144052e+002
6.787776e+002, 1.139939e+002
6.792598e+002, 1.137322e+002
6.797419e+002, 1.138025e+002
6.802240e+002, 1.138682e+002
6.807061e+002, 1.136992e+002
6.811882e+002, 1.134104e+002
6.816703e+002, 1.131512e+002
6.821525e+002, 1.129616e+002
6.826346e+002, 1.128733e+002
6.831167e+002, 1.129274e+002
6.835988e+002, 1.130869e+002
6.840809e+002, 1.131736e+002
6.845630e+002, 1.131839e+002
6.850452e+002, 1.131289e+002
6.855273e+002, 1.129559e+002
6.860094e+002, 1.127647e+002
6.864915e+002, 1.125777e+002
6.869736e+002, 1.124184e+002
6.874557e+002, 1.123426e+002
6.879379e+002, 1.123813e+002
6.884200e+002, 1.124915e+002
6.889021e+002, 1.127134e+002
6.893842e+002, 1.129644e+002
6.898663e+002, 1.129791e+002
6.903484e+002, 1.127192e+002
6.908306e+002, 1.125726e+002
6.913127e+002, 1.128988e+002
6.917948e+002, 1.135497e+002
6.922769e+002, 1.137759e+002
6.927590e+002, 1.132918e+002
6.932411e+002, 1.128265e+002
6.937233e+002, 1.123681e+002
6.942054e+002, 1.119839e+002
6.946875e+002, 1.116435e+002
6.951696e+002, 1.114141e+002
6.956517e+002, 1.114889e+002
6.961339e+002, 1.120376e+002
6.966160e+002, 1.126512e+002
6.970981e+002, 1.128839e+002
6.975802e+002, 1.128025e+002
6.980623e+002, 1.125900e+002
6.985444e+002, 1.122595e+002
6.990266e+002, 1.120119e+002
6.995087e+002, 1.119949e+002
6.999908e+002, 1.121646e+002
7.004729e+002, 1.123596e+002
7.009550e+002, 1.127451e+002
7.014371e+002, 1.128913e+002
7.019193e+002, 1.125320e+002
7.024014e+002, 1.121725e+002
7.028835e+002, 1.122228e+002
7.033656e+002, 1.125016e+002
7.038477e+002, 1.125232e+002
7.043298e+002, 1.120488e+002
7.048120e+002, 1.115479e+002
7.052941e+002, 1.117089e+002
7.057762e+002, 1.123767e+002
7.062583e+002, 1.127561e+002
7.067404e+002, 1.127329e+002
7.072225e+002, 1.127205e+002
7.077046e+002, 1.130206e+002
7.081867e+002, 1.134475e+002
7.086688e+002, 1.135051e+002
7.091509e+002, 1.130286e+002
7.096331e+002, 1.126252e+002
7.101152e+002, 1.122869e+002
7.105973e+002, 1.120753e+002
7.110794e+002, 1.120294e+002
7.115615e+002, 1.121353e+002
7.120436e+002, 1.124578e+002
7.125258e+002, 1.130092e+002
7.130079e+002, 1.134370e+002
7.134900e+002, 1.131890e+002
7.139721e+002, 1.124215e+002
7.144542e+002, 1.120162e+002
7.149363e+002, 1.120360e+002
7.154185e+002, 1.121951e+002
7.159006e+002, 1.124175e+002
7.163827e+002, 1.126557e+002
7.168648e+002, 1.128647e+002
7.173469e+002, 1.130829e+002
7.178290e+002, 1.130612e+002
7.183112e+002, 1.124810e+002
7.187933e+002, 1.119738e+002
7.192754e+002, 1.118979e+002
7.197575e+002, 1.120748e+002
7.202396e+002, 1.122826e+002
7.207217e+002, 1.124381e+002
7.212039e+002, 1.124766e+002
7.216860e+002, 1.122884e+002
7.221681e+002, 1.119418e+002
7.226502e+002, 1.116788e+002
7.231323e+002, 1.114866e+002
7.236144e+002, 1.114813e+002
7.240966e+002, 1.117467e+002
7.245787e+002, 1.121488e+002
7.250608e+002, 1.126571e+002
7.255429e+002, 1.132641e+002
7.260250e+002, 1.133749e+002
7.265071e+002, 1.124381e+002
7.269893e+002, 1.116261e+002
7.274714e+002, 1.114202e+002
7.279535e+002, 1.115260e+002
7.284356e+002, 1.116715e+002
7.289177e+002, 1.117801e+002
7.293998e+002, 1.118156e+002
7.298820e+002, 1.117120e+002
7.303641e+002, 1.115885e+002
7.308462e+002, 1.118099e+002
7.313283e+002, 1.123960e+002
7.318104e+002, 1.126613e+002
7.322925e+002, 1.123136e+002
7.327747e+002, 1.119976e+002
7.332568e+002, 1.123288e+002
7.337389e+002, 1.131586e+002
7.342210e+002, 1.136750e+002
7.347031e+002, 1.138088e+002
7.351852e+002, 1.137349e+002
7.356674e+002, 1.132571e+002
7.361495e+002, 1.127687e+002
7.366316e+002, 1.126497e+002
7.371137e+002, 1.128077e+002
7.375958e+002, 1.128910e+002
7.380779e+002, 1.127182e+002
7.385601e+002, 1.124728e+002
7.390422e+002, 1.124397e+002
7.395243e+002, 1.125960e+002
7.400064e+002, 1.126950e+002
7.404885e+002, 1.126821e+002
7.409706e+002, 1.127914e+002
7.414528e+002, 1.132457e+002
7.419349e+002, 1.138392e+002
7.424170e+002, 1.140755e+002
7.428991e+002, 1.138169e+002
7.433812e+002, 1.137156e+002
7.438633e+002, 1.140565e+002
7.443455e+002, 1.143256e+002
7.448276e+002, 1.141821e+002
7.453097e+002, 1.138155e+002
7.457918e+002, 1.135181e+002
7.462739e+002, 1.133782e+002
7.467560e+002, 1.133161e+002
7.472382e+002, 1.132189e+002
7.477203e+002, 1.131468e+002
7.482024e+002, 1.133877e+002
7.486845e+002, 1.139557e+002
7.491666e+002, 1.142152e+002
7.496487e+002, 1.138465e+002
7.501309e+002, 1.133543e+002
7.506130e+002, 1.133322e+002
7.510951e+002, 1.138085e+002
7.515772e+002, 1.142792e+002
7.520593e+002, 1.148813e+002
7.525414e+002, 1.152977e+002
7.530236e+002, 1.153981e+002
7.535057e+002, 1.153263e+002
7.539878e+002, 1.151666e+002
7.544699e+002, 1.149572e+002
7.549520e+002, 1.147238e+002
7.554341e+002, 1.144030e+002
7.559163e+002, 1.142275e+002
7.563984e+002, 1.146440e+002
7.568805e+002, 1.155128e+002
7.573626e+002, 1.162458e+002
7.578447e+002, 1.167532e+002
7.583268e+002, 1.170562e+002
7.588090e+002, 1.171336e+002
7.592911e+002, 1.170540e+002
7.597732e+002, 1.170469e+002
7.602553e+002, 1.171594e+002
7.607374e+002, 1.172655e+002
7.612195e+002, 1.174074e+002
7.617017e+002, 1.175033e+002
7.621838e+002, 1.174642e+002
7.626659e+002, 1.173740e+002
7.631480e+002, 1.173533e+002
7.636301e+002, 1.174349e+002
7.641122e+002, 1.176077e+002
7.645944e+002, 1.178953e+002
7.650765e+002, 1.182525e+002
7.655586e+002, 1.186562e+002
7.660407e+002, 1.190777e+002
7.665228e+002, 1.193655e+002
7.670049e+002, 1.194578e+002
7.674871e+002, 1.194406e+002
7.679692e+002, 1.194010e+002
7.684513e+002, 1.193299e+002
7.689334e+002, 1.194524e+002
7.694155e+002, 1.199175e+002
7.698976e+002, 1.203317e+002
7.703798e+002, 1.206162e+002
7.708619e+002, 1.208136e+002
7.713440e+002, 1.209959e+002
7.718261e+002, 1.211302e+002
7.723082e+002, 1.210481e+002
7.727903e+002, 1.205839e+002
7.732725e+002, 1.200310e+002
7.737546e+002, 1.194903e+002
7.742367e+002, 1.190403e+002
7.747188e+002, 1.188600e+002
7.752009e+002, 1.189295e+002
7.756830e+002, 1.189811e+002
7.761652e+002, 1.188175e+002
7.766473e+002, 1.186267e+002
7.771294e+002, 1.189923e+002
7.776115e+002, 1.200982e+002
7.780936e+002, 1.204602e+002
7.785757e+002, 1.195204e+002
7.790579e+002, 1.186919e+002
7.795400e+002, 1.189305e+002
7.800221e+002, 1.196804e+002
7.805042e+002, 1.199775e+002
7.809863e+002, 1.196810e+002
7.814684e+002, 1.195137e+002
7.819506e+002, 1.198183e+002
7.824327e+002, 1.201366e+002
7.829148e+002, 1.200447e+002
7.833969e+002, 1.198092e+002
7.838790e+002, 1.199695e+002
7.843611e+002, 1.206172e+002
7.848433e+002, 1.212545e+002
7.853254e+002, 1.213581e+002
7.858075e+002, 1.211419e+002
7.862896e+002, 1.212348e+002
7.867717e+002, 1.216384e+002
7.872538e+002, 1.222086e+002
7.877360e+002, 1.229458e+002
7.882181e+002, 1.237422e+002
7.887002e+002, 1.245496e+002
7.891823e+002, 1.253396e+002
7.896644e+002, 1.258411e+002
7.901465e+002, 1.258474e+002
7.906286e+002, 1.258796e+002
7.911107e+002, 1.258760e+002
7.915928e+002, 1.260020e+002
7.920750e+002, 1.265492e+002
7.925571e+002, 1.272731e+002
7.930392e+002, 1.275776e+002
7.935213e+002, 1.271852e+002
7.940034e+002, 1.269042e+002
7.944855e+002, 1.276552e+002
7.949677e+002, 1.289133e+002
7.954498e+002, 1.296313e+002
7.959319e+002, 1.298421e+002
7.964140e+002, 1.302163e+002
7.968961e+002, 1.310525e+002
7.973782e+002, 1.319581e+002
7.978604e+002, 1.323655e+002
7.983425e+002, 1.322494e+002
7.988246e+002, 1.322627e+002
7.993067e+002, 1.323372e+002
7.997888e+002, 1.326628e+002
8.002709e+002, 1.335273e+002
8.007531e+002, 1.344721e+002
8.012352e+002, 1.351129e+002
8.017173e+002, 1.355115e+002
8.021994e+002, 1.360079e+002
8.026815e+002, 1.366830e+002
8.031636e+002, 1.374843e+002
8.036458e+002, 1.383975e+002
8.041279e+002, 1.394092e+002
8.046100e+002, 1.405917e+002
8.050921e+002, 1.418641e+002
8.055742e+002, 1.430190e+002
8.060563e+002, 1.439409e+002
8.065385e+002, 1.446140e+002
8.070206e+002, 1.449006e+002
8.075027e+002, 1.448426e+002
8.079848e+002, 1.450699e+002
8.084669e+002, 1.456941e+002
8.089490e+002, 1.461599e+002
8.094312e+002, 1.461901e+002
8.099133e+002, 1.459806e+002
8.103954e+002, 1.458413e+002
8.108775e+002, 1.458181e+002
8.113596e+002, 1.455314e+002
8.118417e+002, 1.449155e+002
8.123239e+002, 1.441286e+002
8.128060e+002, 1.431939e+002
8.132881e+002, 1.421232e+002
8.137702e+002, 1.408602e+002
8.142523e+002, 1.394653e+002
8.147344e+002, 1.381761e+002
8.152166e+002, 1.372135e+002
8.156987e+002, 1.361885e+002
8.161808e+002, 1.344859e+002
8.166629e+002, 1.324812e+002
8.171450e+002, 1.310993e+002
8.176271e+002, 1.303837e+002
8.181093e+002, 1.296374e+002
8.185914e+002, 1.284443e+002
8.190735e+002, 1.271029e+002
8.195556e+002, 1.262271e+002
8.200377e+002, 1.259115e+002
8.205198e+002, 1.254464e+002
8.210020e+002, 1.247454e+002
8.214841e+002, 1.240468e+002
8.219662e+002, 1.234208e+002
8.224483e+002, 1.228561e+002
8.229304e+002, 1.223219e+002
8.234125e+002, 1.218212e+002
8.238947e+002, 1.214639e+002
8.243768e+002, 1.214859e+002
8.248589e+002, 1.214034e+002
8.253410e+002, 1.209146e+002
8.258231e+002, 1.202714e+002
8.263052e+002, 1.197028e+002
8.267874e+002, 1.192614e+002
8.272695e+002, 1.189824e+002
8.277516e+002, 1.189149e+002
8.282337e+002, 1.188705e+002
8.287158e+002, 1.184848e+002
8.291979e+002, 1.178811e+002
8.296801e+002, 1.176315e+002
8.301622e+002, 1.177886e+002
8.306443e+002, 1.179237e+002
8.311264e+002, 1.178204e+002
8.316085e+002, 1.175956e+002
8.320906e+002, 1.174383e+002
8.325728e+002, 1.173589e+002
8.330549e+002, 1.172635e+002
8.335370e+002, 1.170076e+002
8.340191e+002, 1.169494e+002
8.345012e+002, 1.173646e+002
8.349833e+002, 1.178388e+002
8.354655e+002, 1.180502e+002
8.359476e+002, 1.180091e+002
8.364297e+002, 1.178693e+002
8.369118e+002, 1.175261e+002
8.373939e+002, 1.173349e+002
8.378760e+002, 1.176146e+002
8.383582e+002, 1.180682e+002
8.388403e+002, 1.183675e+002
8.393224e+002, 1.185099e+002
8.398045e+002, 1.186190e+002
8.402866e+002, 1.187529e+002
8.407687e+002, 1.189093e+002
8.412509e+002, 1.190049e+002
8.417330e+002, 1.190995e+002
8.422151e+002, 1.196634e+002
8.426972e+002, 1.207452e+002
8.431793e+002, 1.214951e+002
8.436614e+002, 1.214769e+002
8.441436e+002, 1.213789e+002
8.446257e+002, 1.220612e+002
8.451078e+002, 1.234981e+002
8.455899e+002, 1.245368e+002
8.460720e+002, 1.249708e+002
8.465541e+002, 1.252877e+002
8.470363e+002, 1.252793e+002
8.475184e+002, 1.254066e+002
8.480005e+002, 1.261009e+002
8.484826e+002, 1.271287e+002
8.489647e+002, 1.279137e+002
8.494468e+002, 1.282359e+002
8.499290e+002, 1.286418e+002
8.504111e+002, 1.295735e+002
8.508932e+002, 1.306188e+002
8.513753e+002, 1.313529e+002
8.518574e+002, 1.318599e+002
8.523395e+002, 1.323863e+002
8.528217e+002, 1.330076e+002
8.533038e+002, 1.336619e+002
8.537859e+002, 1.342748e+002
8.542680e+002, 1.348763e+002
8.547501e+002, 1.356157e+002
8.552322e+002, 1.364945e+002
8.557144e+002, 1.371113e+002
8.561965e+002, 1.373687e+002
8.566786e+002, 1.374235e+002
8.571607e+002, 1.373932e+002
8.576428e+002, 1.372454e+002
8.581249e+002, 1.368636e+002
8.586071e+002, 1.361352e+002
8.590892e+002, 1.354148e+002
8.595713e+002, 1.349004e+002
8.600534e+002, 1.341623e+002
8.605355e+002, 1.329568e+002
8.610176e+002, 1.314919e+002
8.614998e+002, 1.299864e+002
8.619819e+002, 1.284697e+002
8.624640e+002, 1.269528e+002
8.629461e+002, 1.252150e+002
8.634282e+002, 1.236994e+002
8.639103e+002, 1.229259e+002
8.643925e+002, 1.224510e+002
8.648746e+002, 1.216017e+002
8.653567e+002, 1.203814e+002
8.658388e+002, 1.193059e+002
8.663209e+002, 1.186898e+002
8.668030e+002, 1.182401e+002
8.672852e+002, 1.175122e+002
8.677673e+002, 1.165555e+002
8.682494e+002, 1.155359e+002
8.687315e+002, 1.144541e+002
8.692136e+002, 1.137761e+002
8.696957e+002, 1.137962e+002
8.701779e+002, 1.139302e+002
8.706600e+002, 1.133293e+002
8.711421e+002, 1.119818e+002
8.716242e+002, 1.112206e+002
8.721063e+002, 1.114666e+002
8.725884e+002, 1.115576e+002
8.730705e+002, 1.112457e+002
8.735526e+002, 1.107799e+002
8.740347e+002, 1.101244e+002
8.745168e+002, 1.094522e+002
8.749990e+002, 1.092083e+002
8.754811e+002, 1.096431e+002
8.759632e+002, 1.099612e+002
8.764453e+002, 1.098725e+002
8.769274e+002, 1.095808e+002
8.774095e+002, 1.091150e+002
8.778917e+002, 1.085992e+002
8.783738e+002, 1.082187e+002
8.788559e+002, 1.080101e+002
8.793380e+002, 1.078621e+002
8.798201e+002, 1.077057e+002
8.803022e+002, 1.075398e+002
8.807844e+002, 1.073888e+002
8.812665e+002, 1.072271e+002
8.817486e+002, 1.069081e+002
8.822307e+002, 1.064239e+002
8.827128e+002, 1.060483e+002
8.831949e+002, 1.059648e+002
8.836771e+002, 1.060565e+002
8.841592e+002, 1.060992e+002
8.846413e+002, 1.060996e+002
8.851234e+002, 1.059900e+002
8.856055e+002, 1.057282e+002
8.860876e+002, 1.054546e+002
8.865698e+002, 1.051940e+002
8.870519e+002, 1.049653e+002
8.875340e+002, 1.048089e+002
8.880161e+002, 1.047174e+002
8.884982e+002, 1.045722e+002
8.889803e+002, 1.043990e+002
8.894625e+002, 1.041315e+002
8.899446e+002, 1.035576e+002
8.904267e+002, 1.030738e+002
8.909088e+002, 1.030838e+002
8.913909e+002, 1.033561e+002
8.918730e+002, 1.033964e+002
8.923552e+002, 1.030616e+002
8.928373e+002, 1.026936e+002
8.933194e+002, 1.025065e+002
8.938015e+002, 1.023988e+002
8.942836e+002, 1.022745e+002
8.947657e+002, 1.021429e+002
8.952479e+002, 1.020306e+002
8.957300e+002, 1.019442e+002
8.962121e+002, 1.018809e+002
8.966942e+002, 1.018441e+002
8.971763e+002, 1.018115e+002
8.976584e+002, 1.017173e+002
8.981406e+002, 1.015736e+002
8.986227e+002, 1.015512e+002
8.991048e+002, 1.016865e+002
8.995869e+002, 1.016453e+002
9.000690e+002, 1.012227e+002
9.005511e+002, 1.006744e+002
9.010333e+002, 1.003886e+002
9.015154e+002, 1.003801e+002
9.019975e+002, 1.002910e+002
9.024796e+002, 1.000202e+002
9.029617e+002, 9.985824e+001
9.034438e+002, 9.996966e+001
9.039260e+002, 1.000986e+002
9.044081e+002, 1.000135e+002
9.048902e+002, 9.981895e+001
9.053723e+002, 9.982658e+001
9.058544e+002, 1.002361e+002
9.063365e+002, 1.003695e+002
9.068187e+002, 9.979151e+001
9.073008e+002, 9.917810e+001
9.077829e+002, 9.890810e+001
9.082650e+002, 9.886990e+001
9.087471e+002, 9.897500e+001
9.092292e+002, 9.914355e+001
9.097114e+002, 9.910475e+001
9.101935e+002, 9.857522e+001
9.106756e+002, 9.796873e+001
9.111577e+002, 9.768726e+001
9.116398e+002, 9.763631e+001
9.121219e+002, 9.771806e+001
9.126041e+002, 9.786935e+001
9.130862e+002, 9.790742e+001
9.135683e+002, 9.774581e+001
9.140504e+002, 9.750935e+001
9.145325e+002, 9.733973e+001
9.150146e+002, 9.724226e+001
9.154968e+002, 9.726884e+001
9.159789e+002, 9.742635e+001
9.164610e+002, 9.753288e+001
9.169431e+002, 9.754680e+001
9.174252e+002, 9.747556e+001
9.179073e+002, 9.729124e+001
9.183895e+002, 9.705559e+001
9.188716e+002, 9.700426e+001
9.193537e+002, 9.723804e+001
9.198358e+002, 9.740675e+001
9.203179e+002, 9.763028e+001
9.208000e+002, 9.761069e+001
9.212822e+002, 9.697939e+001
9.217643e+002, 9.620528e+001
9.222464e+002, 9.581360e+001
9.227285e+002, 9.579808e+001
9.232106e+002, 9.579491e+001
9.236927e+002, 9.582559e+001
9.241749e+002, 9.576530e+001
9.246570e+002, 9.536112e+001
9.251391e+002, 9.504774e+001
9.256212e+002, 9.533888e+001
9.261033e+002, 9.594683e+001
9.265854e+002, 9.611105e+001
9.270676e+002, 9.558822e+001
9.275497e+002, 9.542216e+001
9.280318e+002, 9.701705e+001
9.285139e+002, 9.866309e+001
9.289960e+002, 9.833276e+001
9.294781e+002, 9.685727e+001
9.299603e+002, 9.583367e+001
9.304424e+002, 9.552647e+001
9.309245e+002, 9.541064e+001
9.314066e+002, 9.515247e+001
9.318887e+002, 9.490653e+001
9.323708e+002, 9.500049e+001
9.328530e+002, 9.532207e+001
9.333351e+002, 9.537148e+001
9.338172e+002, 9.513775e+001
9.342993e+002, 9.490726e+001
9.347814e+002, 9.478134e+001
9.352635e+002, 9.476229e+001
9.357457e+002, 9.489510e+001
9.362278e+002, 9.511113e+001
9.367099e+002, 9.493079e+001
9.371920e+002, 9.417505e+001
9.376741e+002, 9.384051e+001
9.381563e+002, 9.421850e+001
9.386384e+002, 9.463088e+001
9.391205e+002, 9.472508e+001
9.396026e+002, 9.461128e+001
9.400847e+002, 9.445860e+001
9.405668e+002, 9.424040e+001
9.410490e+002, 9.414381e+001
9.415311e+002, 9.433076e+001
9.420132e+002, 9.441409e+001
9.424953e+002, 9.420393e+001
9.429774e+002, 9.397278e+001
9.434595e+002, 9.397683e+001
9.439417e+002, 9.411462e+001
9.444238e+002, 9.408277e+001
9.449059e+002, 9.375893e+001
9.453880e+002, 9.351209e+001
9.458701e+002, 9.355467e+001
9.463522e+002, 9.362891e+001
9.468344e+002, 9.355527e+001
9.473165e+002, 9.341352e+001
9.477986e+002, 9.332167e+001
9.482807e+002, 9.329118e+001
9.487628e+002, 9.326610e+001
9.492449e+002, 9.323254e+001
9.497271e+002, 9.315233e+001
9.502092e+002, 9.295652e+001
9.506913e+002, 9.270872e+001
9.511734e+002, 9.247389e+001
9.516555e+002, 9.227847e+001
9.521376e+002, 9.216450e+001
9.526198e+002, 9.214864e+001
9.531019e+002, 9.226019e+001
9.535840e+002, 9.261590e+001
9.540661e+002, 9.300815e+001
9.545482e+002, 9.283372e+001
9.550303e+002, 9.219164e+001
9.555124e+002, 9.170166e+001
9.559945e+002, 9.145042e+001
9.564766e+002, 9.147737e+001
9.569587e+002, 9.183991e+001
9.574409e+002, 9.228468e+001
9.579230e+002, 9.238853e+001
9.584051e+002, 9.215899e+001
9.588872e+002, 9.201257e+001
9.593693e+002, 9.197308e+001
9.598514e+002, 9.191106e+001
9.603336e+002, 9.179420e+001
9.608157e+002, 9.165196e+001
9.612978e+002, 9.146070e+001
9.617799e+002, 9.129110e+001
9.622620e+002, 9.137514e+001
9.627441e+002, 9.190305e+001
9.632263e+002, 9.209438e+001
9.637084e+002, 9.169859e+001
9.641905e+002, 9.130381e+001
9.646726e+002, 9.100163e+001
9.651547e+002, 9.081721e+001
9.656368e+002, 9.076902e+001
9.661190e+002, 9.085705e+001
9.666011e+002, 9.109926e+001
9.670832e+002, 9.171575e+001
9.675653e+002, 9.204306e+001
9.680474e+002, 9.161651e+001
9.685295e+002, 9.121339e+001
9.690117e+002, 9.143056e+001
9.694938e+002, 9.185509e+001
9.699759e+002, 9.188345e+001
9.704580e+002, 9.148232e+001
9.709401e+002, 9.110019e+001
9.714222e+002, 9.091515e+001
9.719044e+002, 9.082997e+001
9.723865e+002, 9.075896e+001
9.728686e+002, 9.077608e+001
9.733507e+002, 9.114036e+001
9.738328e+002, 9.161781e+001
9.743149e+002, 9.162305e+001
9.747971e+002, 9.102200e+001
9.752792e+002, 9.037148e+001
9.757613e+002, 9.009032e+001
9.762434e+002, 9.002616e+001
9.767255e+002, 9.008729e+001
9.772076e+002, 9.017281e+001
9.776898e+002, 8.997385e+001
9.781719e+002, 8.954277e+001
9.786540e+002, 8.932080e+001
9.791361e+002, 8.951560e+001
9.796182e+002, 8.987167e+001
9.801003e+002, 9.011700e+001
9.805825e+002, 9.025211e+001
9.810646e+002, 9.022878e+001
9.815467e+002, 9.007140e+001
9.820288e+002, 8.996642e+001
9.825109e+002, 8.995138e+001
9.829930e+002, 9.005978e+001
9.834752e+002, 9.034897e+001
9.839573e+002, 9.060472e+001
9.844394e+002, 9.032979e+001
9.849215e+002, 8.951848e+001
9.854036e+002, 8.915935e+001
9.858857e+002, 8.934510e+001
9.863679e+002, 8.940808e+001
9.868500e+002, 8.910598e+001
9.873321e+002, 8.886154e+001
9.878142e+002, 8.903838e+001
9.882963e+002, 8.951765e+001
9.887784e+002, 8.995600e+001
9.892606e+002, 9.043037e+001
9.897427e+002, 9.056685e+001
9.902248e+002, 9.020973e+001
9.907069e+002, 8.980761e+001
9.911890e+002, 8.944444e+001
9.916711e+002, 8.914832e+001
9.921533e+002, 8.892174e+001
9.926354e+002, 8.877926e+001
9.931175e+002, 8.882497e+001
9.935996e+002, 8.938608e+001
9.940817e+002, 8.954643e+001
9.945638e+002, 8.873152e+001
9.950460e+002, 8.818746e+001
9.955281e+002, 8.874571e+001
9.960102e+002, 8.956970e+001
9.964923e+002, 8.966191e+001
9.969744e+002, 8.909798e+001
9.974565e+002, 8.880143e+001
9.979387e+002, 8.919748e+001
9.984208e+002, 8.945063e+001
9.989029e+002, 8.924345e+001
9.993850e+002, 8.894345e+001
9.998671e+002, 8.870963e+001
1.000349e+003, 8.856702e+001
1.000831e+003, 8.851868e+001
1.001313e+003, 8.856873e+001
1.001796e+003, 8.874974e+001
1.002278e+003, 8.919090e+001
1.002760e+003, 8.958910e+001
1.003242e+003, 8.988318e+001
1.003724e+003, 8.996949e+001
1.004206e+003, 8.959019e+001
1.004688e+003, 8.898135e+001
1.005170e+003, 8.855108e+001
1.005653e+003, 8.841270e+001
1.006135e+003, 8.852454e+001
1.006617e+003, 8.913224e+001
1.007099e+003, 8.961333e+001
1.007581e+003, 8.917490e+001
1.008063e+003, 8.837389e+001
1.008545e+003, 8.795852e+001
1.009027e+003, 8.792188e+001
1.009509e+003, 8.802138e+001
1.009992e+003, 8.815443e+001
1.010474e+003, 8.822549e+001
1.010956e+003, 8.812582e+001
1.011438e+003, 8.794276e+001
1.011920e+003, 8.772437e+001
1.012402e+003, 8.755059e+001
1.012884e+003, 8.767783e+001
1.013366e+003, 8.806161e+001
1.013849e+003, 8.837176e+001
1.014331e+003, 8.846487e+001
1.014813e+003, 8.845735e+001
1.015295e+003, 8.844952e+001
1.015777e+003, 8.846215e+001
1.016259e+003, 8.862693e+001
1.016741e+003, 8.887171e+001
1.017223e+003, 8.880668e+001
1.017705e+003, 8.840027e+001
1.018188e+003, 8.795615e+001
1.018670e+003, 8.762466e+001
1.019152e+003, 8.742886e+001
1.019634e+003, 8.742551e+001
1.020116e+003, 8.757838e+001
1.020598e+003, 8.774890e+001
1.021080e+003, 8.793082e+001
1.021562e+003, 8.792202e+001
1.022044e+003, 8.767301e+001
1.022527e+003, 8.753107e+001
1.023009e+003, 8.771690e+001
1.023491e+003, 8.801596e+001
1.023973e+003, 8.807005e+001
1.024455e+003, 8.789852e+001
1.024937e+003, 8.781211e+001
1.025419e+003, 8.781005e+001
1.025901e+003, 8.793970e+001
1.026384e+003, 8.826224e+001
1.026866e+003, 8.847498e+001
1.027348e+003, 8.836436e+001
1.027830e+003, 8.808395e+001
1.028312e+003, 8.791683e+001
1.028794e+003, 8.786754e+001
1.029276e+003, 8.780305e+001
1.029758e+003, 8.773153e+001
1.030240e+003, 8.760338e+001
1.030723e+003, 8.736106e+001
1.031205e+003, 8.717583e+001
1.031687e+003, 8.717335e+001
1.032169e+003, 8.728611e+001
1.032651e+003, 8.737936e+001
1.033133e+003, 8.744799e+001
1.033615e+003, 8.752506e+001
1.034097e+003, 8.754121e+001
1.034579e+003, 8.774471e+001
1.035062e+003, 8.844830e+001
1.035544e+003, 8.892931e+001
1.036026e+003, 8.849496e+001
1.036508e+003, 8.764090e+001
1.036990e+003, 8.747278e+001
1.037472e+003, 8.818884e+001
1.037954e+003, 8.846782e+001
1.038436e+003, 8.792986e+001
1.038919e+003, 8.756490e+001
1.039401e+003, 8.776643e+001
1.039883e+003, 8.794376e+001
1.040365e+003, 8.757118e+001
1.040847e+003, 8.695460e+001
1.041329e+003, 8.678730e+001
1.041811e+003, 8.719394e+001
1.042293e+003, 8.738631e+001
1.042776e+003, 8.721500e+001
1.043258e+003, 8.702026e+001
1.043740e+003, 8.686628e+001
1.044222e+003, 8.670688e+001
1.044704e+003, 8.642646e+001
1.045186e+003, 8.614815e+001
1.045668e+003, 8.617525e+001
1.046150e+003, 8.660362e+001
1.046632e+003, 8.678010e+001
1.047115e+003, 8.636987e+001
1.047597e+003, 8.606693e+001
1.048079e+003, 8.611706e+001
1.048561e+003, 8.625381e+001
1.049043e+003, 8.634517e+001
1.049525e+003, 8.637003e+001
1.050007e+003, 8.627245e+001
1.050489e+003, 8.602618e+001
1.050971e+003, 8.590824e+001
1.051454e+003, 8.607726e+001
1.051936e+003, 8.623779e+001
1.052418e+003, 8.628822e+001
1.052900e+003, 8.631349e+001
1.053382e+003, 8.640491e+001
1.053864e+003, 8.650561e+001
1.054346e+003, 8.648770e+001
1.054828e+003, 8.632986e+001
1.055311e+003, 8.621240e+001
1.055793e+003, 8.620135e+001
1.056275e+003, 8.621323e+001
1.056757e+003, 8.636275e+001
1.057239e+003, 8.638670e+001
1.057721e+003, 8.589872e+001
1.058203e+003, 8.522597e+001
1.058685e+003, 8.500288e+001
1.059167e+003, 8.531441e+001
1.059650e+003, 8.548444e+001
1.060132e+003, 8.509759e+001
1.060614e+003, 8.479587e+001
1.061096e+003, 8.488799e+001
1.061578e+003, 8.509164e+001
1.062060e+003, 8.525874e+001
1.062542e+003, 8.535365e+001
1.063024e+003, 8.530094e+001
1.063506e+003, 8.511004e+001
1.063989e+003, 8.502882e+001
1.064471e+003, 8.531492e+001
1.064953e+003, 8.548711e+001
1.065435e+003, 8.521248e+001
1.065917e+003, 8.488229e+001
1.066399e+003, 8.473476e+001
1.066881e+003, 8.476519e+001
1.067363e+003, 8.507407e+001
1.067846e+003, 8.558792e+001
1.068328e+003, 8.570801e+001
1.068810e+003, 8.491961e+001
1.069292e+003, 8.421121e+001
1.069774e+003, 8.408143e+001
1.070256e+003, 8.414039e+001
1.070738e+003, 8.416525e+001
1.071220e+003, 8.414939e+001
1.071703e+003, 8.410693e+001
1.072185e+003, 8.404632e+001
1.072667e+003, 8.400120e+001
1.073149e+003, 8.404036e+001
1.073631e+003, 8.396670e+001
1.074113e+003, 8.340928e+001
1.074595e+003, 8.299796e+001
1.075077e+003, 8.343138e+001
1.075559e+003, 8.413756e+001
1.076042e+003, 8.433894e+001
1.076524e+003, 8.402135e+001
1.077006e+003, 8.364565e+001
1.077488e+003, 8.332694e+001
1.077970e+003, 8.310025e+001
1.078452e+003, 8.307548e+001
1.078934e+003, 8.304432e+001
1.079416e+003, 8.274255e+001
1.079898e+003, 8.243941e+001
1.080380e+003, 8.251249e+001
1.080863e+003, 8.289436e+001
1.081345e+003, 8.324429e+001
1.081827e+003, 8.347459e+001
1.082309e+003, 8.357833e+001
1.082791e+003, 8.354420e+001
1.083273e+003, 8.339208e+001
1.083755e+003, 8.293599e+001
1.084237e+003, 8.252046e+001
1.084720e+003, 8.264913e+001
1.085202e+003, 8.311591e+001
1.085684e+003, 8.326738e+001
1.086166e+003, 8.289864e+001
1.086648e+003, 8.256428e+001
1.087130e+003, 8.259441e+001
1.087612e+003, 8.259805e+001
1.088094e+003, 8.223510e+001
1.088577e+003, 8.186905e+001
1.089059e+003, 8.190184e+001
1.089541e+003, 8.218724e+001
1.090023e+003, 8.236578e+001
1.090505e+003, 8.236433e+001
1.090987e+003, 8.236217e+001
1.091469e+003, 8.250978e+001
1.091951e+003, 8.256170e+001
1.092433e+003, 8.225160e+001
1.092916e+003, 8.196291e+001
1.093398e+003, 8.213988e+001
1.093880e+003, 8.248873e+001
1.094362e+003, 8.244447e+001
1.094844e+003, 8.195865e+001
1.095326e+003, 8.156820e+001
1.095808e+003, 8.141874e+001
1.096290e+003, 8.142537e+001
1.096772e+003, 8.160575e+001
1.097255e+003, 8.188477e+001
1.097737e+003, 8.241035e+001
1.098219e+003, 8.288680e+001
1.098701e+003, 8.286610e+001
1.099183e+003, 8.238302e+001
1.099665e+003, 8.194384e+001
1.100147e+003, 8.164845e+001
1.100629e+003, 8.143579e+001
1.101112e+003, 8.125266e+001
1.101594e+003, 8.119424e+001
1.102076e+003, 8.144981e+001
1.102558e+003, 8.174438e+001
1.103040e+003, 8.176688e+001
1.103522e+003, 8.156655e+001
1.104004e+003, 8.140243e+001
1.104486e+003, 8.132467e+001
1.104969e+003, 8.124142e+001
1.105451e+003, 8.108642e+001
1.105933e+003, 8.098935e+001
1.106415e+003, 8.100362e+001
1.106897e+003, 8.108498e+001
1.107379e+003, 8.121761e+001
1.107861e+003, 8.138455e+001
1.108343e+003, 8.157713e+001
1.108825e+003, 8.182972e+001
1.109307e+003, 8.190526e+001
1.109790e+003, 8.164668e+001
1.110272e+003, 8.140343e+001
1.110754e+003, 8.127454e+001
1.111236e+003, 8.114980e+001
1.111718e+003, 8.091931e+001
1.112200e+003, 8.066994e+001
1.112682e+003, 8.057331e+001
1.113164e+003, 8.064329e+001
1.113647e+003, 8.061260e+001
1.114129e+003, 8.031602e+001
1.114611e+003, 8.019511e+001
1.115093e+003, 8.031825e+001
1.115575e+003, 8.057915e+001
1.116057e+003, 8.116432e+001
1.116539e+003, 8.164861e+001
1.117021e+003, 8.143114e+001
1.117504e+003, 8.063384e+001
1.117986e+003, 8.016482e+001
1.118468e+003, 8.014408e+001
1.118950e+003, 8.018014e+001
1.119432e+003, 8.034307e+001
1.119914e+003, 8.040121e+001
1.120396e+003, 8.018092e+001
1.120878e+003, 8.000803e+001
1.121360e+003, 8.023352e+001
1.121843e+003, 8.066716e+001
1.122325e+003, 8.070633e+001
1.122807e+003, 8.023066e+001
1.123289e+003, 8.015759e+001
1.123771e+003, 8.071674e+001
1.124253e+003, 8.083840e+001
1.124735e+003, 8.013020e+001
1.125217e+003, 7.945593e+001
1.125699e+003, 7.938445e+001
1.126182e+003, 7.962961e+001
1.126664e+003, 7.971570e+001
1.127146e+003, 7.964991e+001
1.127628e+003, 7.953804e+001
1.128110e+003, 7.936108e+001
1.128592e+003, 7.933569e+001
1.129074e+003, 7.951342e+001
1.129556e+003, 7.967220e+001
1.130039e+003, 7.971902e+001
1.130521e+003, 7.964345e+001
1.131003e+003, 7.939228e+001
1.131485e+003, 7.907130e+001
1.131967e+003, 7.911288e+001
1.132449e+003, 7.948892e+001
1.132931e+003, 7.970576e+001
1.133413e+003, 7.973666e+001
1.133896e+003, 7.964552e+001
1.134378e+003, 7.945256e+001
1.134860e+003, 7.929527e+001
1.135342e+003, 7.928238e+001
1.135824e+003, 7.935757e+001
1.136306e+003, 7.947585e+001
1.136788e+003, 7.958835e+001
1.137270e+003, 7.942355e+001
1.137752e+003, 7.906338e+001
1.138234e+003, 7.892506e+001
1.138717e+003, 7.906572e+001
1.139199e+003, 7.929747e+001
1.139681e+003, 7.952539e+001
1.140163e+003, 7.968687e+001
1.140645e+003, 7.967079e+001
1.141127e+003, 7.958313e+001
1.141609e+003, 7.963648e+001
1.142091e+003, 7.976283e+001
1.142574e+003, 7.983459e+001
1.143056e+003, 7.983177e+001
1.143538e+003, 7.973628e+001
1.144020e+003, 7.955302e+001
1.144502e+003, 7.935607e+001
1.144984e+003, 7.917979e+001
1.145466e+003, 7.905271e+001
1.145948e+003, 7.908051e+001
1.146431e+003, 7.911275e+001
1.146913e+003, 7.883865e+001
1.147395e+003, 7.847837e+001
1.147877e+003, 7.849220e+001
1.148359e+003, 7.887383e+001
1.148841e+003, 7.924919e+001
1.149323e+003, 7.947416e+001
1.149805e+003, 7.959560e+001
1.150287e+003, 7.958462e+001
1.150770e+003, 7.954680e+001
1.151252e+003, 7.961400e+001
1.151734e+003, 7.965009e+001
1.152216e+003, 7.945238e+001
1.152698e+003, 7.911431e+001
1.153180e+003, 7.886855e+001
1.153662e+003, 7.876412e+001
1.154144e+003, 7.869962e+001
1.154626e+003, 7.865642e+001
1.155109e+003, 7.862609e+001
1.155591e+003, 7.863582e+001
1.156073e+003, 7.862536e+001
1.156555e+003, 7.853049e+001
1.157037e+003, 7.841092e+001
1.157519e+003, 7.830505e+001
1.158001e+003, 7.823662e+001
1.158483e+003, 7.834725e+001
1.158966e+003, 7.891545e+001
1.159448e+003, 7.909366e+001
1.159930e+003, 7.831645e+001
1.160412e+003, 7.785361e+001
1.160894e+003, 7.831930e+001
1.161376e+003, 7.889754e+001
1.161858e+003, 7.901622e+001
1.162340e+003, 7.880575e+001
1.162822e+003, 7.851060e+001
1.163305e+003, 7.810319e+001
1.163787e+003, 7.790614e+001
1.164269e+003, 7.796748e+001
1.164751e+003, 7.811643e+001
1.165233e+003, 7.837473e+001
1.165715e+003, 7.860423e+001
1.166197e+003, 7.877570e+001
1.166679e+003, 7.876608e+001
1.167161e+003, 7.832970e+001
1.167644e+003, 7.769428e+001
1.168126e+003, 7.796999e+001
1.168608e+003, 7.920976e+001
1.169090e+003, 7.965278e+001
1.169572e+003, 7.920692e+001
1.170054e+003, 7.849358e+001
1.170536e+003, 7.766908e+001
1.171018e+003, 7.725353e+001
1.171500e+003, 7.764346e+001
1.171983e+003, 7.837900e+001
1.172465e+003, 7.880025e+001
1.172947e+003, 7.893515e+001
1.173429e+003, 7.876443e+001
1.173911e+003, 7.839580e+001
1.174393e+003, 7.825825e+001
1.174875e+003, 7.836414e+001
1.175357e+003, 7.846529e+001
1.175840e+003, 7.846776e+001
1.176322e+003, 7.845309e+001
1.176804e+003, 7.850398e+001
1.177286e+003, 7.853676e+001
1.177768e+003, 7.834978e+001
1.178250e+003, 7.815028e+001
1.178732e+003, 7.832619e+001
1.179214e+003, 7.869263e+001
1.179697e+003, 7.884941e+001
1.180179e+003, 7.877034e+001
1.180661e+003, 7.869576e+001
1.181143e+003, 7.873758e+001
1.181625e+003, 7.868898e+001
1.182107e+003, 7.826403e+001
1.182589e+003, 7.790059e+001
1.183071e+003, 7.795569e+001
1.183553e+003, 7.814656e+001
1.184036e+003, 7.826957e+001
1.184518e+003, 7.828743e+001
1.185000e+003, 7.807977e+001
1.185482e+003, 7.766490e+001
1.185964e+003, 7.760145e+001
1.186446e+003, 7.850561e+001
1.186928e+003, 7.897616e+001
1.187410e+003, 7.841404e+001
1.187892e+003, 7.783250e+001
1.188375e+003, 7.762757e+001
1.188857e+003, 7.762011e+001
1.189339e+003, 7.763663e+001
1.189821e+003, 7.771355e+001
1.190303e+003, 7.799684e+001
1.190785e+003, 7.857861e+001
1.191267e+003, 7.878931e+001
1.191749e+003, 7.841942e+001
1.192232e+003, 7.829127e+001
1.192714e+003, 7.863369e+001
1.193196e+003, 7.894011e+001
1.193678e+003, 7.896533e+001
1.194160e+003, 7.879672e+001
1.194642e+003, 7.849467e+001
1.195124e+003, 7.814244e+001
1.195606e+003, 7.815182e+001
1.196089e+003, 7.849850e+001
1.196571e+003, 7.849905e+001
1.197053e+003, 7.813645e+001
1.197535e+003, 7.767234e+001
1.198017e+003, 7.719041e+001
1.198499e+003, 7.692741e+001
1.198981e+003, 7.703868e+001
1.199463e+003, 7.732738e+001
1.199945e+003, 7.759737e+001
1.200427e+003, 7.781060e+001
1.200910e+003, 7.791033e+001
1.201392e+003, 7.788703e+001
1.201874e+003, 7.761649e+001
1.202356e+003, 7.721776e+001
1.202838e+003, 7.707694e+001
1.203320e+003, 7.726261e+001
1.203802e+003, 7.744090e+001
1.204284e+003, 7.741859e+001
1.204767e+003, 7.732826e+001
1.205249e+003, 7.718220e+001
1.205731e+003, 7.710387e+001
1.206213e+003, 7.731165e+001
1.206695e+003, 7.756138e+001
1.207177e+003, 7.747712e+001
1.207659e+003, 7.719463e+001
1.208141e+003, 7.717343e+001
1.208624e+003, 7.752402e+001
1.209106e+003, 7.775668e+001
1.209588e+003, 7.766176e+001
1.210070e+003, 7.757645e+001
1.210552e+003, 7.762354e+001
1.211034e+003, 7.763321e+001
1.211516e+003, 7.750008e+001
1.211998e+003, 7.730550e+001
1.212480e+003, 7.712910e+001
1.212963e+003, 7.695596e+001
1.213445e+003, 7.669424e+001
1.213927e+003, 7.623038e+001
1.214409e+003, 7.632861e+001
1.214891e+003, 7.722972e+001
1.215373e+003, 7.768892e+001
1.215855e+003, 7.739233e+001
1.216337e+003, 7.702078e+001
1.216819e+003, 7.692338e+001
1.217302e+003, 7.698725e+001
1.217784e+003, 7.710555e+001
1.218266e+003, 7.722593e+001
1.218748e+003, 7.718218e+001
1.219230e+003, 7.699245e+001
1.219712e+003, 7.665430e+001
1.220194e+003, 7.623940e+001
1.220676e+003, 7.609509e+001
1.221159e+003, 7.628220e+001
1.221641e+003, 7.665456e+001
1.222123e+003, 7.714315e+001
1.222605e+003, 7.757192e+001
1.223087e+003, 7.776916e+001
1.223569e+003, 7.780760e+001
1.224051e+003, 7.770413e+001
1.224533e+003, 7.754189e+001
1.225016e+003, 7.743488e+001
1.225498e+003, 7.735384e+001
1.225980e+003, 7.719022e+001
1.226462e+003, 7.695612e+001
1.226944e+003, 7.684185e+001
1.227426e+003, 7.699222e+001
1.227908e+003, 7.703146e+001
1.228390e+003, 7.657528e+001
1.228872e+003, 7.631709e+001
1.229354e+003, 7.678453e+001
1.229837e+003, 7.733086e+001
1.230319e+003, 7.749010e+001
1.230801e+003, 7.735463e+001
1.231283e+003, 7.706017e+001
1.231765e+003, 7.661658e+001
1.232247e+003, 7.639684e+001
1.232729e+003, 7.652298e+001
1.233211e+003, 7.647195e+001
1.233694e+003, 7.612186e+001
1.234176e+003, 7.598235e+001
1.234658e+003, 7.625858e+001
1.235140e+003, 7.653934e+001
1.235622e+003, 7.651617e+001
1.236104e+003, 7.637434e+001
1.236586e+003, 7.646473e+001
1.237068e+003, 7.669102e+001
1.237551e+003, 7.659392e+001
1.238033e+003, 7.626295e+001
1.238515e+003, 7.607305e+001
1.238997e+003, 7.605663e+001
1.239479e+003, 7.620489e+001
1.239961e+003, 7.647152e+001
1.240443e+003, 7.656161e+001
1.240925e+003, 7.623988e+001
1.241407e+003, 7.593775e+001
1.241890e+003, 7.618311e+001
1.242372e+003, 7.653011e+001
1.242854e+003, 7.652477e+001
1.243336e+003, 7.637493e+001
1.243818e+003, 7.628281e+001
1.244300e+003, 7.629536e+001
1.244782e+003, 7.651440e+001
1.245264e+003, 7.692284e+001
1.245746e+003, 7.711480e+001
1.246229e+003, 7.687345e+001
1.246711e+003, 7.661568e+001
1.247193e+003, 7.623991e+001
1.247675e+003, 7.609595e+001
1.248157e+003, 7.653976e+001
1.248639e+003, 7.695908e+001
1.249121e+003, 7.687871e+001
1.249603e+003, 7.654192e+001
1.250085e+003, 7.638694e+001
1.250568e+003, 7.640080e+001
1.251050e+003, 7.635999e+001
1.251532e+003, 7.626225e+001
1.252014e+003, 7.610751e+001
1.252496e+003, 7.589030e+001
1.252978e+003, 7.575906e+001
1.253460e+003, 7.575806e+001
1.253942e+003, 7.582976e+001
1.254425e+003, 7.594185e+001
1.254907e+003, 7.602713e+001
1.255389e+003, 7.588687e+001
1.255871e+003, 7.573428e+001
1.256353e+003, 7.611470e+001
1.256835e+003, 7.670163e+001
1.257317e+003, 7.690658e+001
1.257799e+003, 7.676254e+001
1.258281e+003, 7.640386e+001
1.258764e+003, 7.594570e+001
1.259246e+003, 7.575081e+001
1.259728e+003, 7.606460e+001
1.260210e+003, 7.630914e+001
1.260692e+003, 7.605709e+001
1.261174e+003, 7.588216e+001
1.261656e+003, 7.622258e+001
1.262138e+003, 7.657500e+001
1.262620e+003, 7.645390e+001
1.263103e+003, 7.614426e+001
1.263585e+003, 7.616241e+001
1.264067e+003, 7.645383e+001
1.264549e+003, 7.651746e+001
1.265031e+003, 7.621415e+001
1.265513e+003, 7.620137e+001
1.265995e+003, 7.660500e+001
1.266477e+003, 7.668298e+001
1.266960e+003, 7.620255e+001
1.267442e+003, 7.587844e+001
1.267924e+003, 7.612895e+001
1.268406e+003, 7.652820e+001
1.268888e+003, 7.655370e+001
1.269370e+003, 7.639397e+001
1.269852e+003, 7.652753e+001
1.270334e+003, 7.680811e+001
1.270817e+003, 7.687756e+001
1.271299e+003, 7.676306e+001
1.271781e+003, 7.655480e+001
1.272263e+003, 7.630828e+001
1.272745e+003, 7.612150e+001
1.273227e+003, 7.603249e+001
1.273709e+003, 7.600059e+001
1.274191e+003, 7.595988e+001
1.274673e+003, 7.602800e+001
1.275156e+003, 7.641648e+001
1.275638e+003, 7.676040e+001
1.276120e+003, 7.674389e+001
1.276602e+003, 7.660934e+001
1.277084e+003, 7.670268e+001
1.277566e+003, 7.690855e+001
1.278048e+003, 7.676749e+001
1.278530e+003, 7.619576e+001
1.279012e+003, 7.608222e+001
1.279495e+003, 7.658447e+001
1.279977e+003, 7.696889e+001
1.280459e+003, 7.716290e+001
1.280941e+003, 7.722693e+001
1.281423e+003, 7.717550e+001
1.281905e+003, 7.704446e+001
1.282387e+003, 7.684922e+001
1.282869e+003, 7.666284e+001
1.283352e+003, 7.661916e+001
1.283834e+003, 7.666431e+001
1.284316e+003, 7.667770e+001
1.284798e+003, 7.666299e+001
##END=



