##NAMES=Lamprophyllite
##RRUFFID=R130420
##IDEAL CHEMISTRY=(SrNa)Ti^4+^_2_Na_3_Ti^4+^(Si_2_O_7_)_2_O_2_(OH)_2_
##LOCALITY=Pocos de Caldas Plateau, Minas Gerais, Brazil
##OWNER=RRUFF
##SOURCE=Gunnar Farber
##DESCRIPTION=brownish-orange bladed crystals
##STATUS=The identification of this mineral is confirmed by single-crystal X-ray diffraction and chemical analysis.
##URL=rruff.info/R130420
##MEASURED CHEMISTRY=(Na_2.26_Mn_0.60_Ca_0.08_Mg_0.06_)(Sr_1.25_Na_0.50_K_0.10_)(Ti_2.80_Fe_0.17_Al_0.03_)Si_3.85_O_16_[(OH)_1.31_F_0.69_]
8.936163e+001, 0.000000e+000
8.984375e+001, 1.759716e+002
9.032587e+001, 1.774338e+002
9.080798e+001, 1.777299e+002
9.129010e+001, 1.764473e+002
9.177222e+001, 1.744754e+002
9.225433e+001, 1.728519e+002
9.273645e+001, 1.715422e+002
9.321857e+001, 1.702461e+002
9.370068e+001, 1.689558e+002
9.418280e+001, 1.675390e+002
9.466492e+001, 1.655291e+002
9.514703e+001, 1.622611e+002
9.562915e+001, 1.583915e+002
9.611127e+001, 1.558211e+002
9.659338e+001, 1.547155e+002
9.707550e+001, 1.541669e+002
9.755762e+001, 1.531599e+002
9.803973e+001, 1.516826e+002
9.852185e+001, 1.500549e+002
9.900397e+001, 1.481865e+002
9.948608e+001, 1.460525e+002
9.996820e+001, 1.447243e+002
1.004503e+002, 1.444912e+002
1.009324e+002, 1.447169e+002
1.014146e+002, 1.440232e+002
1.018967e+002, 1.421654e+002
1.023788e+002, 1.400692e+002
1.028609e+002, 1.381537e+002
1.033430e+002, 1.364422e+002
1.038251e+002, 1.348923e+002
1.043073e+002, 1.335155e+002
1.047894e+002, 1.323074e+002
1.052715e+002, 1.312883e+002
1.057536e+002, 1.306786e+002
1.062357e+002, 1.300059e+002
1.067178e+002, 1.288806e+002
1.072000e+002, 1.266892e+002
1.076821e+002, 1.249618e+002
1.081642e+002, 1.241784e+002
1.086463e+002, 1.244566e+002
1.091284e+002, 1.240428e+002
1.096105e+002, 1.226535e+002
1.100927e+002, 1.206892e+002
1.105748e+002, 1.185391e+002
1.110569e+002, 1.152870e+002
1.115390e+002, 1.127163e+002
1.120211e+002, 1.114693e+002
1.125032e+002, 1.120029e+002
1.129854e+002, 1.122373e+002
1.134675e+002, 1.120202e+002
1.139496e+002, 1.113221e+002
1.144317e+002, 1.100911e+002
1.149138e+002, 1.072612e+002
1.153959e+002, 1.046815e+002
1.158781e+002, 1.033551e+002
1.163602e+002, 1.041299e+002
1.168423e+002, 1.046605e+002
1.173244e+002, 1.039082e+002
1.178065e+002, 1.022618e+002
1.182886e+002, 1.007111e+002
1.187708e+002, 9.982464e+001
1.192529e+002, 9.912101e+001
1.197350e+002, 9.820181e+001
1.202171e+002, 9.662618e+001
1.206992e+002, 9.521367e+001
1.211813e+002, 9.454175e+001
1.216635e+002, 9.452922e+001
1.221456e+002, 9.475761e+001
1.226277e+002, 9.560349e+001
1.231098e+002, 9.638956e+001
1.235919e+002, 9.620181e+001
1.240740e+002, 9.381977e+001
1.245562e+002, 9.085495e+001
1.250383e+002, 8.905301e+001
1.255204e+002, 8.839774e+001
1.260025e+002, 8.812852e+001
1.264846e+002, 8.773494e+001
1.269667e+002, 8.723465e+001
1.274489e+002, 8.667176e+001
1.279310e+002, 8.605724e+001
1.284131e+002, 8.539426e+001
1.288952e+002, 8.466340e+001
1.293773e+002, 8.384483e+001
1.298594e+002, 8.304036e+001
1.303416e+002, 8.235953e+001
1.308237e+002, 8.180016e+001
1.313058e+002, 8.130077e+001
1.317879e+002, 8.095944e+001
1.322700e+002, 8.069638e+001
1.327521e+002, 8.005006e+001
1.332343e+002, 7.885929e+001
1.337164e+002, 7.749081e+001
1.341985e+002, 7.662962e+001
1.346806e+002, 7.630899e+001
1.351627e+002, 7.605457e+001
1.356448e+002, 7.551186e+001
1.361270e+002, 7.467184e+001
1.366091e+002, 7.402855e+001
1.370912e+002, 7.369549e+001
1.375733e+002, 7.357607e+001
1.380554e+002, 7.340502e+001
1.385375e+002, 7.326683e+001
1.390197e+002, 7.282382e+001
1.395018e+002, 7.156770e+001
1.399839e+002, 6.917072e+001
1.404660e+002, 6.747778e+001
1.409481e+002, 6.698242e+001
1.414302e+002, 6.758308e+001
1.419124e+002, 6.791278e+001
1.423945e+002, 6.795454e+001
1.428766e+002, 6.775138e+001
1.433587e+002, 6.729063e+001
1.438408e+002, 6.639310e+001
1.443229e+002, 6.561742e+001
1.448051e+002, 6.513869e+001
1.452872e+002, 6.501225e+001
1.457693e+002, 6.471726e+001
1.462514e+002, 6.418425e+001
1.467335e+002, 6.352383e+001
1.472156e+002, 6.285541e+001
1.476978e+002, 6.209118e+001
1.481799e+002, 6.143677e+001
1.486620e+002, 6.094932e+001
1.491441e+002, 6.068313e+001
1.496262e+002, 6.044986e+001
1.501083e+002, 6.037413e+001
1.505905e+002, 6.031532e+001
1.510726e+002, 6.002158e+001
1.515547e+002, 5.906333e+001
1.520368e+002, 5.824436e+001
1.525189e+002, 5.787210e+001
1.530010e+002, 5.854399e+001
1.534832e+002, 5.863080e+001
1.539653e+002, 5.745092e+001
1.544474e+002, 5.558211e+001
1.549295e+002, 5.441143e+001
1.554116e+002, 5.486238e+001
1.558937e+002, 5.550350e+001
1.563759e+002, 5.567658e+001
1.568580e+002, 5.489869e+001
1.573401e+002, 5.417736e+001
1.578222e+002, 5.364125e+001
1.583043e+002, 5.329430e+001
1.587864e+002, 5.315104e+001
1.592686e+002, 5.358089e+001
1.597507e+002, 5.400289e+001
1.602328e+002, 5.404232e+001
1.607149e+002, 5.314143e+001
1.611970e+002, 5.231916e+001
1.616791e+002, 5.198724e+001
1.621613e+002, 5.207637e+001
1.626434e+002, 5.209609e+001
1.631255e+002, 5.168368e+001
1.636076e+002, 5.118581e+001
1.640897e+002, 5.091133e+001
1.645718e+002, 5.152852e+001
1.650540e+002, 5.192220e+001
1.655361e+002, 5.121545e+001
1.660182e+002, 4.946043e+001
1.665003e+002, 4.808716e+001
1.669824e+002, 4.821153e+001
1.674645e+002, 4.905762e+001
1.679467e+002, 4.966365e+001
1.684288e+002, 4.964339e+001
1.689109e+002, 4.927324e+001
1.693930e+002, 4.857196e+001
1.698751e+002, 4.751697e+001
1.703572e+002, 4.668575e+001
1.708394e+002, 4.653319e+001
1.713215e+002, 4.685965e+001
1.718036e+002, 4.732597e+001
1.722857e+002, 4.786687e+001
1.727678e+002, 4.843549e+001
1.732499e+002, 4.901467e+001
1.737321e+002, 4.961967e+001
1.742142e+002, 5.013795e+001
1.746963e+002, 5.035806e+001
1.751784e+002, 5.041572e+001
1.756605e+002, 5.063379e+001
1.761426e+002, 5.125849e+001
1.766248e+002, 5.211047e+001
1.771069e+002, 5.293274e+001
1.775890e+002, 5.368753e+001
1.780711e+002, 5.449458e+001
1.785532e+002, 5.551267e+001
1.790353e+002, 5.670972e+001
1.795175e+002, 5.793032e+001
1.799996e+002, 5.911397e+001
1.804817e+002, 6.026341e+001
1.809638e+002, 6.138295e+001
1.814459e+002, 6.244624e+001
1.819280e+002, 6.355988e+001
1.824102e+002, 6.493316e+001
1.828923e+002, 6.651391e+001
1.833744e+002, 6.813757e+001
1.838565e+002, 6.967546e+001
1.843386e+002, 7.116621e+001
1.848207e+002, 7.269531e+001
1.853029e+002, 7.433462e+001
1.857850e+002, 7.593321e+001
1.862671e+002, 7.725976e+001
1.867492e+002, 7.831506e+001
1.872313e+002, 7.925560e+001
1.877134e+002, 7.997890e+001
1.881956e+002, 8.061093e+001
1.886777e+002, 8.179845e+001
1.891598e+002, 8.386063e+001
1.896419e+002, 8.629577e+001
1.901240e+002, 8.792029e+001
1.906061e+002, 8.871691e+001
1.910883e+002, 8.949937e+001
1.915704e+002, 9.100912e+001
1.920525e+002, 9.317470e+001
1.925346e+002, 9.509512e+001
1.930167e+002, 9.644042e+001
1.934988e+002, 9.749317e+001
1.939810e+002, 9.891546e+001
1.944631e+002, 1.006509e+002
1.949452e+002, 1.027145e+002
1.954273e+002, 1.047227e+002
1.959094e+002, 1.066777e+002
1.963915e+002, 1.088481e+002
1.968737e+002, 1.113403e+002
1.973558e+002, 1.140460e+002
1.978379e+002, 1.166150e+002
1.983200e+002, 1.189980e+002
1.988021e+002, 1.214347e+002
1.992842e+002, 1.241518e+002
1.997664e+002, 1.271784e+002
2.002485e+002, 1.301340e+002
2.007306e+002, 1.329274e+002
2.012127e+002, 1.356062e+002
2.016948e+002, 1.384828e+002
2.021769e+002, 1.415646e+002
2.026591e+002, 1.448345e+002
2.031412e+002, 1.482885e+002
2.036233e+002, 1.519762e+002
2.041054e+002, 1.556011e+002
2.045875e+002, 1.590279e+002
2.050696e+002, 1.623078e+002
2.055518e+002, 1.659357e+002
2.060339e+002, 1.699804e+002
2.065160e+002, 1.742070e+002
2.069981e+002, 1.783764e+002
2.074802e+002, 1.824111e+002
2.079623e+002, 1.865826e+002
2.084445e+002, 1.910562e+002
2.089266e+002, 1.958226e+002
2.094087e+002, 2.001072e+002
2.098908e+002, 2.038437e+002
2.103729e+002, 2.072874e+002
2.108550e+002, 2.106898e+002
2.113372e+002, 2.139913e+002
2.118193e+002, 2.173701e+002
2.123014e+002, 2.210379e+002
2.127835e+002, 2.249697e+002
2.132656e+002, 2.281448e+002
2.137477e+002, 2.305045e+002
2.142299e+002, 2.322178e+002
2.147120e+002, 2.333595e+002
2.151941e+002, 2.337358e+002
2.156762e+002, 2.341213e+002
2.161583e+002, 2.347884e+002
2.166404e+002, 2.357658e+002
2.171226e+002, 2.363794e+002
2.176047e+002, 2.366869e+002
2.180868e+002, 2.365694e+002
2.185689e+002, 2.358613e+002
2.190510e+002, 2.344556e+002
2.195331e+002, 2.327029e+002
2.200153e+002, 2.306399e+002
2.204974e+002, 2.282446e+002
2.209795e+002, 2.257267e+002
2.214616e+002, 2.230838e+002
2.219437e+002, 2.203092e+002
2.224258e+002, 2.172967e+002
2.229080e+002, 2.139166e+002
2.233901e+002, 2.106218e+002
2.238722e+002, 2.075959e+002
2.243543e+002, 2.048244e+002
2.248364e+002, 2.021778e+002
2.253185e+002, 1.998120e+002
2.258007e+002, 1.974513e+002
2.262828e+002, 1.946638e+002
2.267649e+002, 1.912094e+002
2.272470e+002, 1.878112e+002
2.277291e+002, 1.846528e+002
2.282112e+002, 1.816507e+002
2.286934e+002, 1.792004e+002
2.291755e+002, 1.775989e+002
2.296576e+002, 1.762827e+002
2.301397e+002, 1.744742e+002
2.306218e+002, 1.716240e+002
2.311039e+002, 1.692597e+002
2.315861e+002, 1.678995e+002
2.320682e+002, 1.676881e+002
2.325503e+002, 1.673465e+002
2.330324e+002, 1.668664e+002
2.335145e+002, 1.662757e+002
2.339966e+002, 1.655193e+002
2.344788e+002, 1.642121e+002
2.349609e+002, 1.634577e+002
2.354430e+002, 1.637195e+002
2.359251e+002, 1.652155e+002
2.364072e+002, 1.661561e+002
2.368893e+002, 1.662101e+002
2.373715e+002, 1.659811e+002
2.378536e+002, 1.662367e+002
2.383357e+002, 1.672433e+002
2.388178e+002, 1.682602e+002
2.392999e+002, 1.690361e+002
2.397820e+002, 1.694785e+002
2.402642e+002, 1.703586e+002
2.407463e+002, 1.720261e+002
2.412284e+002, 1.738304e+002
2.417105e+002, 1.748771e+002
2.421926e+002, 1.744897e+002
2.426747e+002, 1.745821e+002
2.431569e+002, 1.758180e+002
2.436390e+002, 1.784214e+002
2.441211e+002, 1.803328e+002
2.446032e+002, 1.813887e+002
2.450853e+002, 1.819200e+002
2.455674e+002, 1.822852e+002
2.460496e+002, 1.824451e+002
2.465317e+002, 1.825201e+002
2.470138e+002, 1.825654e+002
2.474959e+002, 1.825997e+002
2.479780e+002, 1.824251e+002
2.484601e+002, 1.820674e+002
2.489423e+002, 1.814867e+002
2.494244e+002, 1.805830e+002
2.499065e+002, 1.791039e+002
2.503886e+002, 1.778218e+002
2.508707e+002, 1.770091e+002
2.513528e+002, 1.767105e+002
2.518350e+002, 1.760393e+002
2.523171e+002, 1.749410e+002
2.527992e+002, 1.735417e+002
2.532813e+002, 1.719446e+002
2.537634e+002, 1.701123e+002
2.542455e+002, 1.681937e+002
2.547277e+002, 1.662185e+002
2.552098e+002, 1.641759e+002
2.556919e+002, 1.619778e+002
2.561740e+002, 1.594001e+002
2.566561e+002, 1.569407e+002
2.571382e+002, 1.551751e+002
2.576204e+002, 1.543996e+002
2.581025e+002, 1.535669e+002
2.585846e+002, 1.525196e+002
2.590667e+002, 1.512569e+002
2.595488e+002, 1.498147e+002
2.600309e+002, 1.482158e+002
2.605131e+002, 1.464505e+002
2.609952e+002, 1.444442e+002
2.614773e+002, 1.419355e+002
2.619594e+002, 1.398996e+002
2.624415e+002, 1.386266e+002
2.629236e+002, 1.380288e+002
2.634058e+002, 1.372911e+002
2.638879e+002, 1.362913e+002
2.643700e+002, 1.353490e+002
2.648521e+002, 1.347382e+002
2.653342e+002, 1.345892e+002
2.658163e+002, 1.343258e+002
2.662985e+002, 1.337516e+002
2.667806e+002, 1.329842e+002
2.672627e+002, 1.327831e+002
2.677448e+002, 1.333961e+002
2.682269e+002, 1.340560e+002
2.687090e+002, 1.340939e+002
2.691912e+002, 1.332721e+002
2.696733e+002, 1.328984e+002
2.701554e+002, 1.333439e+002
2.706375e+002, 1.343015e+002
2.711196e+002, 1.344246e+002
2.716017e+002, 1.334556e+002
2.720839e+002, 1.323641e+002
2.725660e+002, 1.318522e+002
2.730481e+002, 1.320133e+002
2.735302e+002, 1.320946e+002
2.740123e+002, 1.319630e+002
2.744944e+002, 1.317475e+002
2.749766e+002, 1.318587e+002
2.754587e+002, 1.323635e+002
2.759408e+002, 1.329371e+002
2.764229e+002, 1.334257e+002
2.769050e+002, 1.338437e+002
2.773871e+002, 1.339966e+002
2.778693e+002, 1.337505e+002
2.783514e+002, 1.333714e+002
2.788335e+002, 1.335383e+002
2.793156e+002, 1.343506e+002
2.797977e+002, 1.351317e+002
2.802798e+002, 1.354540e+002
2.807620e+002, 1.353117e+002
2.812441e+002, 1.352764e+002
2.817262e+002, 1.353633e+002
2.822083e+002, 1.355848e+002
2.826904e+002, 1.360783e+002
2.831725e+002, 1.368753e+002
2.836547e+002, 1.374772e+002
2.841368e+002, 1.374090e+002
2.846189e+002, 1.367673e+002
2.851010e+002, 1.367664e+002
2.855831e+002, 1.375178e+002
2.860652e+002, 1.386690e+002
2.865474e+002, 1.397842e+002
2.870295e+002, 1.408631e+002
2.875116e+002, 1.418883e+002
2.879937e+002, 1.428361e+002
2.884758e+002, 1.437260e+002
2.889579e+002, 1.445659e+002
2.894401e+002, 1.453354e+002
2.899222e+002, 1.461994e+002
2.904043e+002, 1.474534e+002
2.908864e+002, 1.490455e+002
2.913685e+002, 1.505513e+002
2.918506e+002, 1.516466e+002
2.923328e+002, 1.525516e+002
2.928149e+002, 1.539136e+002
2.932970e+002, 1.557579e+002
2.937791e+002, 1.578046e+002
2.942612e+002, 1.598419e+002
2.947433e+002, 1.618515e+002
2.952255e+002, 1.637189e+002
2.957076e+002, 1.652917e+002
2.961897e+002, 1.667511e+002
2.966718e+002, 1.683135e+002
2.971539e+002, 1.699758e+002
2.976360e+002, 1.719729e+002
2.981182e+002, 1.747550e+002
2.986003e+002, 1.780225e+002
2.990824e+002, 1.811054e+002
2.995645e+002, 1.838435e+002
3.000466e+002, 1.862958e+002
3.005287e+002, 1.883061e+002
3.010109e+002, 1.899626e+002
3.014930e+002, 1.919818e+002
3.019751e+002, 1.951423e+002
3.024572e+002, 1.989565e+002
3.029393e+002, 2.025369e+002
3.034214e+002, 2.057146e+002
3.039036e+002, 2.086502e+002
3.043857e+002, 2.113338e+002
3.048678e+002, 2.138637e+002
3.053499e+002, 2.166647e+002
3.058320e+002, 2.201915e+002
3.063141e+002, 2.240420e+002
3.067963e+002, 2.277111e+002
3.072784e+002, 2.311911e+002
3.077605e+002, 2.343836e+002
3.082426e+002, 2.369687e+002
3.087247e+002, 2.391881e+002
3.092068e+002, 2.416235e+002
3.096890e+002, 2.447198e+002
3.101711e+002, 2.480738e+002
3.106532e+002, 2.513583e+002
3.111353e+002, 2.545449e+002
3.116174e+002, 2.575379e+002
3.120995e+002, 2.600960e+002
3.125817e+002, 2.624005e+002
3.130638e+002, 2.647820e+002
3.135459e+002, 2.674784e+002
3.140280e+002, 2.702404e+002
3.145101e+002, 2.730577e+002
3.149922e+002, 2.759478e+002
3.154744e+002, 2.784243e+002
3.159565e+002, 2.799550e+002
3.164386e+002, 2.810355e+002
3.169207e+002, 2.822114e+002
3.174028e+002, 2.839637e+002
3.178849e+002, 2.855877e+002
3.183671e+002, 2.868232e+002
3.188492e+002, 2.876815e+002
3.193313e+002, 2.882641e+002
3.198134e+002, 2.883779e+002
3.202955e+002, 2.883505e+002
3.207776e+002, 2.884409e+002
3.212598e+002, 2.892926e+002
3.217419e+002, 2.896399e+002
3.222240e+002, 2.890187e+002
3.227061e+002, 2.875685e+002
3.231882e+002, 2.860374e+002
3.236703e+002, 2.845737e+002
3.241525e+002, 2.830516e+002
3.246346e+002, 2.814206e+002
3.251167e+002, 2.796861e+002
3.255988e+002, 2.778117e+002
3.260809e+002, 2.757821e+002
3.265630e+002, 2.736118e+002
3.270452e+002, 2.713288e+002
3.275273e+002, 2.687844e+002
3.280094e+002, 2.662896e+002
3.284915e+002, 2.639012e+002
3.289736e+002, 2.614772e+002
3.294557e+002, 2.595456e+002
3.299379e+002, 2.584375e+002
3.304200e+002, 2.577111e+002
3.309021e+002, 2.566431e+002
3.313842e+002, 2.546645e+002
3.318663e+002, 2.530840e+002
3.323484e+002, 2.523340e+002
3.328306e+002, 2.525656e+002
3.333127e+002, 2.526723e+002
3.337948e+002, 2.524467e+002
3.342769e+002, 2.522795e+002
3.347590e+002, 2.526337e+002
3.352411e+002, 2.537168e+002
3.357233e+002, 2.548804e+002
3.362054e+002, 2.560650e+002
3.366875e+002, 2.572633e+002
3.371696e+002, 2.581214e+002
3.376517e+002, 2.585301e+002
3.381339e+002, 2.588170e+002
3.386160e+002, 2.591901e+002
3.390981e+002, 2.596168e+002
3.395802e+002, 2.603298e+002
3.400623e+002, 2.614315e+002
3.405444e+002, 2.628109e+002
3.410266e+002, 2.640951e+002
3.415087e+002, 2.653343e+002
3.419908e+002, 2.663067e+002
3.424729e+002, 2.668304e+002
3.429550e+002, 2.668992e+002
3.434371e+002, 2.668183e+002
3.439193e+002, 2.665411e+002
3.444014e+002, 2.662478e+002
3.448835e+002, 2.663922e+002
3.453656e+002, 2.669698e+002
3.458477e+002, 2.673624e+002
3.463298e+002, 2.671814e+002
3.468120e+002, 2.665438e+002
3.472941e+002, 2.659444e+002
3.477762e+002, 2.653954e+002
3.482583e+002, 2.648733e+002
3.487404e+002, 2.643554e+002
3.492225e+002, 2.638426e+002
3.497047e+002, 2.633356e+002
3.501868e+002, 2.629759e+002
3.506689e+002, 2.625629e+002
3.511510e+002, 2.616805e+002
3.516331e+002, 2.603355e+002
3.521152e+002, 2.588120e+002
3.525974e+002, 2.571461e+002
3.530795e+002, 2.554902e+002
3.535616e+002, 2.541363e+002
3.540437e+002, 2.532173e+002
3.545258e+002, 2.525639e+002
3.550079e+002, 2.521430e+002
3.554901e+002, 2.518890e+002
3.559722e+002, 2.514997e+002
3.564543e+002, 2.505199e+002
3.569364e+002, 2.494414e+002
3.574185e+002, 2.488334e+002
3.579006e+002, 2.489913e+002
3.583828e+002, 2.491061e+002
3.588649e+002, 2.483706e+002
3.593470e+002, 2.472322e+002
3.598291e+002, 2.465891e+002
3.603112e+002, 2.472286e+002
3.607933e+002, 2.481836e+002
3.612755e+002, 2.489678e+002
3.617576e+002, 2.495479e+002
3.622397e+002, 2.498407e+002
3.627218e+002, 2.495355e+002
3.632039e+002, 2.490228e+002
3.636860e+002, 2.487388e+002
3.641682e+002, 2.489418e+002
3.646503e+002, 2.492487e+002
3.651324e+002, 2.496552e+002
3.656145e+002, 2.501459e+002
3.660966e+002, 2.503452e+002
3.665787e+002, 2.501146e+002
3.670609e+002, 2.496231e+002
3.675430e+002, 2.489796e+002
3.680251e+002, 2.475251e+002
3.685072e+002, 2.467138e+002
3.689893e+002, 2.471095e+002
3.694714e+002, 2.482936e+002
3.699536e+002, 2.488833e+002
3.704357e+002, 2.484787e+002
3.709178e+002, 2.479027e+002
3.713999e+002, 2.475184e+002
3.718820e+002, 2.475612e+002
3.723641e+002, 2.471881e+002
3.728463e+002, 2.463961e+002
3.733284e+002, 2.451951e+002
3.738105e+002, 2.435346e+002
3.742926e+002, 2.412309e+002
3.747747e+002, 2.388643e+002
3.752568e+002, 2.365882e+002
3.757390e+002, 2.343931e+002
3.762211e+002, 2.321382e+002
3.767032e+002, 2.298336e+002
3.771853e+002, 2.273919e+002
3.776674e+002, 2.246460e+002
3.781495e+002, 2.215602e+002
3.786317e+002, 2.183839e+002
3.791138e+002, 2.151435e+002
3.795959e+002, 2.118376e+002
3.800780e+002, 2.082232e+002
3.805601e+002, 2.042726e+002
3.810422e+002, 2.005321e+002
3.815244e+002, 1.974661e+002
3.820065e+002, 1.949565e+002
3.824886e+002, 1.924679e+002
3.829707e+002, 1.898681e+002
3.834528e+002, 1.874435e+002
3.839349e+002, 1.855679e+002
3.844171e+002, 1.842030e+002
3.848992e+002, 1.831309e+002
3.853813e+002, 1.822361e+002
3.858634e+002, 1.815468e+002
3.863455e+002, 1.811196e+002
3.868276e+002, 1.809626e+002
3.873098e+002, 1.809614e+002
3.877919e+002, 1.808591e+002
3.882740e+002, 1.808640e+002
3.887561e+002, 1.813752e+002
3.892382e+002, 1.830724e+002
3.897203e+002, 1.847867e+002
3.902025e+002, 1.853216e+002
3.906846e+002, 1.849060e+002
3.911667e+002, 1.846404e+002
3.916488e+002, 1.855435e+002
3.921309e+002, 1.866389e+002
3.926130e+002, 1.871183e+002
3.930952e+002, 1.867552e+002
3.935773e+002, 1.859053e+002
3.940594e+002, 1.845819e+002
3.945415e+002, 1.828883e+002
3.950236e+002, 1.810160e+002
3.955057e+002, 1.793443e+002
3.959879e+002, 1.772284e+002
3.964700e+002, 1.742877e+002
3.969521e+002, 1.703728e+002
3.974342e+002, 1.664636e+002
3.979163e+002, 1.625480e+002
3.983984e+002, 1.587837e+002
3.988806e+002, 1.553144e+002
3.993627e+002, 1.521018e+002
3.998448e+002, 1.492466e+002
4.003269e+002, 1.468634e+002
4.008090e+002, 1.448885e+002
4.012911e+002, 1.429261e+002
4.017733e+002, 1.409075e+002
4.022554e+002, 1.389631e+002
4.027375e+002, 1.371322e+002
4.032196e+002, 1.353154e+002
4.037017e+002, 1.338637e+002
4.041838e+002, 1.328374e+002
4.046660e+002, 1.321458e+002
4.051481e+002, 1.316811e+002
4.056302e+002, 1.314925e+002
4.061123e+002, 1.313271e+002
4.065944e+002, 1.309656e+002
4.070765e+002, 1.304467e+002
4.075587e+002, 1.307737e+002
4.080408e+002, 1.321470e+002
4.085229e+002, 1.336039e+002
4.090050e+002, 1.340497e+002
4.094871e+002, 1.335494e+002
4.099692e+002, 1.330975e+002
4.104514e+002, 1.329077e+002
4.109335e+002, 1.328878e+002
4.114156e+002, 1.328759e+002
4.118977e+002, 1.328707e+002
4.123798e+002, 1.328636e+002
4.128619e+002, 1.328029e+002
4.133441e+002, 1.327454e+002
4.138262e+002, 1.328021e+002
4.143083e+002, 1.329907e+002
4.147904e+002, 1.332753e+002
4.152725e+002, 1.337472e+002
4.157546e+002, 1.342878e+002
4.162368e+002, 1.346614e+002
4.167189e+002, 1.345490e+002
4.172010e+002, 1.343754e+002
4.176831e+002, 1.346391e+002
4.181652e+002, 1.352979e+002
4.186473e+002, 1.356172e+002
4.191295e+002, 1.349401e+002
4.196116e+002, 1.338686e+002
4.200937e+002, 1.329488e+002
4.205758e+002, 1.324182e+002
4.210579e+002, 1.318854e+002
4.215400e+002, 1.310851e+002
4.220222e+002, 1.301784e+002
4.225043e+002, 1.295400e+002
4.229864e+002, 1.298025e+002
4.234685e+002, 1.298829e+002
4.239506e+002, 1.293105e+002
4.244327e+002, 1.278540e+002
4.249149e+002, 1.264426e+002
4.253970e+002, 1.251877e+002
4.258791e+002, 1.239565e+002
4.263612e+002, 1.226060e+002
4.268433e+002, 1.211606e+002
4.273254e+002, 1.195656e+002
4.278076e+002, 1.178043e+002
4.282897e+002, 1.158720e+002
4.287718e+002, 1.138467e+002
4.292539e+002, 1.117582e+002
4.297360e+002, 1.095644e+002
4.302181e+002, 1.071901e+002
4.307003e+002, 1.045637e+002
4.311824e+002, 1.022929e+002
4.316645e+002, 1.005466e+002
4.321466e+002, 9.892535e+001
4.326287e+002, 9.665132e+001
4.331108e+002, 9.372813e+001
4.335930e+002, 9.102795e+001
4.340751e+002, 8.905969e+001
4.345572e+002, 8.755128e+001
4.350393e+002, 8.548121e+001
4.355214e+002, 8.284276e+001
4.360035e+002, 8.026426e+001
4.364857e+002, 7.840714e+001
4.369678e+002, 7.706783e+001
4.374499e+002, 7.571010e+001
4.379320e+002, 7.420558e+001
4.384141e+002, 7.266753e+001
4.388962e+002, 7.112524e+001
4.393784e+002, 6.963396e+001
4.398605e+002, 6.835731e+001
4.403426e+002, 6.741740e+001
4.408247e+002, 6.670890e+001
4.413068e+002, 6.618977e+001
4.417889e+002, 6.587796e+001
4.422711e+002, 6.553639e+001
4.427532e+002, 6.492217e+001
4.432353e+002, 6.426751e+001
4.437174e+002, 6.381371e+001
4.441995e+002, 6.384196e+001
4.446816e+002, 6.385452e+001
4.451638e+002, 6.366639e+001
4.456459e+002, 6.333074e+001
4.461280e+002, 6.308874e+001
4.466101e+002, 6.288913e+001
4.470922e+002, 6.286203e+001
4.475743e+002, 6.311482e+001
4.480565e+002, 6.385097e+001
4.485386e+002, 6.433002e+001
4.490207e+002, 6.432815e+001
4.495028e+002, 6.420755e+001
4.499849e+002, 6.446121e+001
4.504670e+002, 6.528461e+001
4.509492e+002, 6.605341e+001
4.514313e+002, 6.664877e+001
4.519134e+002, 6.707847e+001
4.523955e+002, 6.732661e+001
4.528776e+002, 6.733154e+001
4.533597e+002, 6.735569e+001
4.538419e+002, 6.756983e+001
4.543240e+002, 6.797026e+001
4.548061e+002, 6.851516e+001
4.552882e+002, 6.923630e+001
4.557703e+002, 6.999609e+001
4.562524e+002, 7.055055e+001
4.567346e+002, 7.093314e+001
4.572167e+002, 7.131392e+001
4.576988e+002, 7.176635e+001
4.581809e+002, 7.226829e+001
4.586630e+002, 7.289507e+001
4.591451e+002, 7.362045e+001
4.596273e+002, 7.412062e+001
4.601094e+002, 7.395825e+001
4.605915e+002, 7.348338e+001
4.610736e+002, 7.314132e+001
4.615557e+002, 7.303381e+001
4.620378e+002, 7.305969e+001
4.625200e+002, 7.317846e+001
4.630021e+002, 7.338217e+001
4.634842e+002, 7.365312e+001
4.639663e+002, 7.420580e+001
4.644484e+002, 7.463612e+001
4.649305e+002, 7.467524e+001
4.654127e+002, 7.428883e+001
4.658948e+002, 7.397478e+001
4.663769e+002, 7.380344e+001
4.668590e+002, 7.376131e+001
4.673411e+002, 7.384010e+001
4.678232e+002, 7.412749e+001
4.683054e+002, 7.442243e+001
4.687875e+002, 7.470822e+001
4.692696e+002, 7.499576e+001
4.697517e+002, 7.530468e+001
4.702338e+002, 7.558820e+001
4.707159e+002, 7.598461e+001
4.711981e+002, 7.663306e+001
4.716802e+002, 7.755814e+001
4.721623e+002, 7.798623e+001
4.726444e+002, 7.773734e+001
4.731265e+002, 7.746640e+001
4.736086e+002, 7.792006e+001
4.740908e+002, 7.908424e+001
4.745729e+002, 8.013530e+001
4.750550e+002, 8.096642e+001
4.755371e+002, 8.154544e+001
4.760192e+002, 8.173067e+001
4.765013e+002, 8.155783e+001
4.769835e+002, 8.131128e+001
4.774656e+002, 8.111361e+001
4.779477e+002, 8.095329e+001
4.784298e+002, 8.086309e+001
4.789119e+002, 8.084862e+001
4.793940e+002, 8.071687e+001
4.798762e+002, 8.021452e+001
4.803583e+002, 7.953478e+001
4.808404e+002, 7.895036e+001
4.813225e+002, 7.873540e+001
4.818046e+002, 7.836264e+001
4.822867e+002, 7.737980e+001
4.827689e+002, 7.601806e+001
4.832510e+002, 7.487051e+001
4.837331e+002, 7.423544e+001
4.842152e+002, 7.376756e+001
4.846973e+002, 7.333823e+001
4.851794e+002, 7.294283e+001
4.856616e+002, 7.254897e+001
4.861437e+002, 7.215124e+001
4.866258e+002, 7.175622e+001
4.871079e+002, 7.131291e+001
4.875900e+002, 7.033659e+001
4.880721e+002, 7.025048e+001
4.885543e+002, 7.170479e+001
4.890364e+002, 7.396059e+001
4.895185e+002, 7.472783e+001
4.900006e+002, 7.355679e+001
4.904827e+002, 7.229527e+001
4.909648e+002, 7.174648e+001
4.914470e+002, 7.187479e+001
4.919291e+002, 7.208794e+001
4.924112e+002, 7.240764e+001
4.928933e+002, 7.270150e+001
4.933754e+002, 7.279467e+001
4.938575e+002, 7.273486e+001
4.943397e+002, 7.273127e+001
4.948218e+002, 7.284262e+001
4.953039e+002, 7.300716e+001
4.957860e+002, 7.321523e+001
4.962681e+002, 7.342236e+001
4.967502e+002, 7.347470e+001
4.972324e+002, 7.324915e+001
4.977145e+002, 7.285671e+001
4.981966e+002, 7.236635e+001
4.986787e+002, 7.177828e+001
4.991608e+002, 7.119290e+001
4.996429e+002, 7.083693e+001
5.001251e+002, 7.041141e+001
5.006072e+002, 6.962862e+001
5.010893e+002, 6.816072e+001
5.015714e+002, 6.670577e+001
5.020535e+002, 6.532757e+001
5.025356e+002, 6.406245e+001
5.030178e+002, 6.298449e+001
5.034999e+002, 6.210162e+001
5.039820e+002, 6.139426e+001
5.044641e+002, 6.098826e+001
5.049462e+002, 6.091454e+001
5.054283e+002, 6.033791e+001
5.059105e+002, 5.900104e+001
5.063926e+002, 5.756776e+001
5.068747e+002, 5.655774e+001
5.073568e+002, 5.603658e+001
5.078389e+002, 5.551923e+001
5.083210e+002, 5.498492e+001
5.088032e+002, 5.441690e+001
5.092853e+002, 5.374575e+001
5.097674e+002, 5.298164e+001
5.102495e+002, 5.230365e+001
5.107316e+002, 5.179328e+001
5.112137e+002, 5.140745e+001
5.116959e+002, 5.107357e+001
5.121780e+002, 5.078960e+001
5.126601e+002, 5.049915e+001
5.131422e+002, 5.008544e+001
5.136243e+002, 4.967138e+001
5.141064e+002, 4.946934e+001
5.145886e+002, 4.960299e+001
5.150707e+002, 4.963044e+001
5.155528e+002, 4.906388e+001
5.160349e+002, 4.827375e+001
5.165170e+002, 4.778639e+001
5.169991e+002, 4.801807e+001
5.174813e+002, 4.832730e+001
5.179634e+002, 4.855766e+001
5.184455e+002, 4.870213e+001
5.189276e+002, 4.874472e+001
5.194097e+002, 4.849972e+001
5.198918e+002, 4.831394e+001
5.203740e+002, 4.832771e+001
5.208561e+002, 4.857634e+001
5.213382e+002, 4.891831e+001
5.218203e+002, 4.940666e+001
5.223024e+002, 4.992569e+001
5.227845e+002, 5.033550e+001
5.232667e+002, 5.061126e+001
5.237488e+002, 5.090497e+001
5.242309e+002, 5.122082e+001
5.247130e+002, 5.159070e+001
5.251951e+002, 5.213317e+001
5.256772e+002, 5.284756e+001
5.261594e+002, 5.357750e+001
5.266415e+002, 5.420408e+001
5.271236e+002, 5.479781e+001
5.276057e+002, 5.554384e+001
5.280878e+002, 5.644765e+001
5.285699e+002, 5.733264e+001
5.290521e+002, 5.798833e+001
5.295342e+002, 5.854924e+001
5.300163e+002, 5.920573e+001
5.304984e+002, 6.008080e+001
5.309805e+002, 6.091394e+001
5.314626e+002, 6.139824e+001
5.319448e+002, 6.174731e+001
5.324269e+002, 6.237223e+001
5.329090e+002, 6.371404e+001
5.333911e+002, 6.504098e+001
5.338732e+002, 6.615115e+001
5.343553e+002, 6.702068e+001
5.348375e+002, 6.769501e+001
5.353196e+002, 6.779628e+001
5.358017e+002, 6.807380e+001
5.362838e+002, 6.904330e+001
5.367659e+002, 7.121725e+001
5.372480e+002, 7.258984e+001
5.377302e+002, 7.285503e+001
5.382123e+002, 7.271203e+001
5.386944e+002, 7.325284e+001
5.391765e+002, 7.454194e+001
5.396586e+002, 7.566269e+001
5.401407e+002, 7.632667e+001
5.406229e+002, 7.669324e+001
5.411050e+002, 7.712807e+001
5.415871e+002, 7.761419e+001
5.420692e+002, 7.796819e+001
5.425513e+002, 7.810515e+001
5.430334e+002, 7.803092e+001
5.435156e+002, 7.767881e+001
5.439977e+002, 7.703503e+001
5.444798e+002, 7.642726e+001
5.449619e+002, 7.611679e+001
5.454440e+002, 7.595911e+001
5.459261e+002, 7.581921e+001
5.464083e+002, 7.591213e+001
5.468904e+002, 7.565500e+001
5.473725e+002, 7.454792e+001
5.478546e+002, 7.297231e+001
5.483367e+002, 7.172173e+001
5.488188e+002, 7.104173e+001
5.493010e+002, 7.056892e+001
5.497831e+002, 7.027968e+001
5.502652e+002, 7.016975e+001
5.507473e+002, 6.994450e+001
5.512294e+002, 6.951124e+001
5.517115e+002, 6.911926e+001
5.521937e+002, 6.897046e+001
5.526758e+002, 6.910873e+001
5.531579e+002, 6.902822e+001
5.536400e+002, 6.862988e+001
5.541221e+002, 6.823158e+001
5.546042e+002, 6.836120e+001
5.550864e+002, 6.892648e+001
5.555685e+002, 6.932317e+001
5.560506e+002, 6.924113e+001
5.565327e+002, 6.906429e+001
5.570148e+002, 6.941213e+001
5.574969e+002, 7.016100e+001
5.579791e+002, 7.084984e+001
5.584612e+002, 7.101279e+001
5.589433e+002, 7.113991e+001
5.594254e+002, 7.166817e+001
5.599075e+002, 7.263387e+001
5.603896e+002, 7.362278e+001
5.608718e+002, 7.439297e+001
5.613539e+002, 7.515616e+001
5.618360e+002, 7.606702e+001
5.623181e+002, 7.721214e+001
5.628002e+002, 7.842007e+001
5.632823e+002, 7.970065e+001
5.637645e+002, 8.102818e+001
5.642466e+002, 8.234780e+001
5.647287e+002, 8.358265e+001
5.652108e+002, 8.494340e+001
5.656929e+002, 8.642638e+001
5.661750e+002, 8.807248e+001
5.666572e+002, 9.024270e+001
5.671393e+002, 9.299906e+001
5.676214e+002, 9.574939e+001
5.681035e+002, 9.815856e+001
5.685856e+002, 1.002748e+002
5.690677e+002, 1.022601e+002
5.695499e+002, 1.040766e+002
5.700320e+002, 1.061642e+002
5.705141e+002, 1.090141e+002
5.709962e+002, 1.123659e+002
5.714783e+002, 1.157971e+002
5.719604e+002, 1.192579e+002
5.724426e+002, 1.227262e+002
5.729247e+002, 1.261183e+002
5.734068e+002, 1.295371e+002
5.738889e+002, 1.332451e+002
5.743710e+002, 1.373735e+002
5.748531e+002, 1.417224e+002
5.753353e+002, 1.462099e+002
5.758174e+002, 1.508258e+002
5.762995e+002, 1.557552e+002
5.767816e+002, 1.612514e+002
5.772637e+002, 1.666946e+002
5.777458e+002, 1.718228e+002
5.782280e+002, 1.765099e+002
5.787101e+002, 1.813953e+002
5.791922e+002, 1.864468e+002
5.796743e+002, 1.917665e+002
5.801564e+002, 1.978412e+002
5.806385e+002, 2.045556e+002
5.811207e+002, 2.101912e+002
5.816028e+002, 2.143083e+002
5.820849e+002, 2.174339e+002
5.825670e+002, 2.203654e+002
5.830491e+002, 2.229538e+002
5.835313e+002, 2.248548e+002
5.840134e+002, 2.261382e+002
5.844955e+002, 2.264546e+002
5.849776e+002, 2.253090e+002
5.854597e+002, 2.228267e+002
5.859418e+002, 2.197153e+002
5.864240e+002, 2.163059e+002
5.869061e+002, 2.123840e+002
5.873882e+002, 2.076393e+002
5.878703e+002, 2.018479e+002
5.883524e+002, 1.960908e+002
5.888345e+002, 1.903948e+002
5.893167e+002, 1.848424e+002
5.897988e+002, 1.794818e+002
5.902809e+002, 1.742177e+002
5.907630e+002, 1.693554e+002
5.912451e+002, 1.649521e+002
5.917272e+002, 1.608790e+002
5.922094e+002, 1.569028e+002
5.926915e+002, 1.530579e+002
5.931736e+002, 1.492902e+002
5.936557e+002, 1.455195e+002
5.941378e+002, 1.418634e+002
5.946199e+002, 1.387021e+002
5.951021e+002, 1.360055e+002
5.955842e+002, 1.332988e+002
5.960663e+002, 1.300216e+002
5.965484e+002, 1.267129e+002
5.970305e+002, 1.240465e+002
5.975126e+002, 1.220957e+002
5.979948e+002, 1.201757e+002
5.984769e+002, 1.178372e+002
5.989590e+002, 1.154246e+002
5.994411e+002, 1.132173e+002
5.999232e+002, 1.113483e+002
6.004053e+002, 1.095506e+002
6.008875e+002, 1.079222e+002
6.013696e+002, 1.063100e+002
6.018517e+002, 1.044905e+002
6.023338e+002, 1.023446e+002
6.028159e+002, 1.002532e+002
6.032980e+002, 9.825610e+001
6.037802e+002, 9.636521e+001
6.042623e+002, 9.455113e+001
6.047444e+002, 9.282828e+001
6.052265e+002, 9.118729e+001
6.057086e+002, 8.966313e+001
6.061907e+002, 8.821984e+001
6.066729e+002, 8.673027e+001
6.071550e+002, 8.519965e+001
6.076371e+002, 8.358742e+001
6.081192e+002, 8.176255e+001
6.086013e+002, 7.989159e+001
6.090834e+002, 7.825852e+001
6.095656e+002, 7.694913e+001
6.100477e+002, 7.563721e+001
6.105298e+002, 7.410336e+001
6.110119e+002, 7.249121e+001
6.114940e+002, 7.094256e+001
6.119761e+002, 6.941629e+001
6.124583e+002, 6.807185e+001
6.129404e+002, 6.705516e+001
6.134225e+002, 6.621554e+001
6.139046e+002, 6.517955e+001
6.143867e+002, 6.387331e+001
6.148688e+002, 6.255819e+001
6.153510e+002, 6.125514e+001
6.158331e+002, 5.999493e+001
6.163152e+002, 5.902001e+001
6.167973e+002, 5.837184e+001
6.172794e+002, 5.762284e+001
6.177615e+002, 5.631377e+001
6.182437e+002, 5.470030e+001
6.187258e+002, 5.351787e+001
6.192079e+002, 5.280526e+001
6.196900e+002, 5.219958e+001
6.201721e+002, 5.145237e+001
6.206542e+002, 5.060373e+001
6.211364e+002, 4.968838e+001
6.216185e+002, 4.863842e+001
6.221006e+002, 4.767101e+001
6.225827e+002, 4.698185e+001
6.230648e+002, 4.639376e+001
6.235469e+002, 4.565895e+001
6.240291e+002, 4.441528e+001
6.245112e+002, 4.342015e+001
6.249933e+002, 4.290748e+001
6.254754e+002, 4.270948e+001
6.259575e+002, 4.223124e+001
6.264396e+002, 4.133931e+001
6.269218e+002, 4.055743e+001
6.274039e+002, 4.014544e+001
6.278860e+002, 4.002331e+001
6.283681e+002, 3.966504e+001
6.288502e+002, 3.906065e+001
6.293323e+002, 3.848041e+001
6.298145e+002, 3.819193e+001
6.302966e+002, 3.805416e+001
6.307787e+002, 3.775054e+001
6.312608e+002, 3.723450e+001
6.317429e+002, 3.677894e+001
6.322250e+002, 3.665636e+001
6.327072e+002, 3.667032e+001
6.331893e+002, 3.660341e+001
6.336714e+002, 3.634870e+001
6.341535e+002, 3.610244e+001
6.346356e+002, 3.591953e+001
6.351177e+002, 3.577542e+001
6.355999e+002, 3.562795e+001
6.360820e+002, 3.548242e+001
6.365641e+002, 3.531776e+001
6.370462e+002, 3.509552e+001
6.375283e+002, 3.486156e+001
6.380104e+002, 3.481548e+001
6.384926e+002, 3.500344e+001
6.389747e+002, 3.507890e+001
6.394568e+002, 3.479259e+001
6.399389e+002, 3.428899e+001
6.404210e+002, 3.410101e+001
6.409031e+002, 3.421041e+001
6.413853e+002, 3.432470e+001
6.418674e+002, 3.420639e+001
6.423495e+002, 3.398547e+001
6.428316e+002, 3.378778e+001
6.433137e+002, 3.361729e+001
6.437958e+002, 3.356393e+001
6.442780e+002, 3.383472e+001
6.447601e+002, 3.415166e+001
6.452422e+002, 3.426546e+001
6.457243e+002, 3.397882e+001
6.462064e+002, 3.371947e+001
6.466885e+002, 3.342537e+001
6.471707e+002, 3.321990e+001
6.476528e+002, 3.330854e+001
6.481349e+002, 3.380889e+001
6.486170e+002, 3.422481e+001
6.490991e+002, 3.446307e+001
6.495812e+002, 3.457180e+001
6.500634e+002, 3.465273e+001
6.505455e+002, 3.470850e+001
6.510276e+002, 3.476715e+001
6.515097e+002, 3.484422e+001
6.519918e+002, 3.493156e+001
6.524739e+002, 3.498543e+001
6.529561e+002, 3.502412e+001
6.534382e+002, 3.514893e+001
6.539203e+002, 3.546278e+001
6.544024e+002, 3.584832e+001
6.548845e+002, 3.624540e+001
6.553666e+002, 3.664943e+001
6.558488e+002, 3.702359e+001
6.563309e+002, 3.733525e+001
6.568130e+002, 3.763293e+001
6.572951e+002, 3.794421e+001
6.577772e+002, 3.826877e+001
6.582593e+002, 3.859420e+001
6.587415e+002, 3.887864e+001
6.592236e+002, 3.923159e+001
6.597057e+002, 3.981293e+001
6.601878e+002, 4.061497e+001
6.606699e+002, 4.141997e+001
6.611520e+002, 4.218251e+001
6.616342e+002, 4.291497e+001
6.621163e+002, 4.360639e+001
6.625984e+002, 4.427676e+001
6.630805e+002, 4.497838e+001
6.635626e+002, 4.572595e+001
6.640447e+002, 4.651831e+001
6.645269e+002, 4.734017e+001
6.650090e+002, 4.820070e+001
6.654911e+002, 4.914938e+001
6.659732e+002, 5.031518e+001
6.664553e+002, 5.145874e+001
6.669374e+002, 5.241549e+001
6.674196e+002, 5.321653e+001
6.679017e+002, 5.427761e+001
6.683838e+002, 5.566346e+001
6.688659e+002, 5.720879e+001
6.693480e+002, 5.891850e+001
6.698301e+002, 6.078795e+001
6.703123e+002, 6.235313e+001
6.707944e+002, 6.357513e+001
6.712765e+002, 6.483504e+001
6.717586e+002, 6.650359e+001
6.722407e+002, 6.847794e+001
6.727228e+002, 7.048808e+001
6.732050e+002, 7.250304e+001
6.736871e+002, 7.463052e+001
6.741692e+002, 7.697907e+001
6.746513e+002, 7.950576e+001
6.751334e+002, 8.213998e+001
6.756155e+002, 8.501807e+001
6.760977e+002, 8.782064e+001
6.765798e+002, 9.025066e+001
6.770619e+002, 9.259718e+001
6.775440e+002, 9.525838e+001
6.780261e+002, 9.825779e+001
6.785082e+002, 1.014618e+002
6.789904e+002, 1.048532e+002
6.794725e+002, 1.084272e+002
6.799546e+002, 1.123676e+002
6.804367e+002, 1.166150e+002
6.809188e+002, 1.208522e+002
6.814009e+002, 1.249036e+002
6.818831e+002, 1.288413e+002
6.823652e+002, 1.324841e+002
6.828473e+002, 1.359891e+002
6.833294e+002, 1.399542e+002
6.838115e+002, 1.454533e+002
6.842936e+002, 1.510290e+002
6.847758e+002, 1.555151e+002
6.852579e+002, 1.588134e+002
6.857400e+002, 1.626076e+002
6.862221e+002, 1.680026e+002
6.867042e+002, 1.733822e+002
6.871863e+002, 1.779364e+002
6.876685e+002, 1.814604e+002
6.881506e+002, 1.850033e+002
6.886327e+002, 1.887278e+002
6.891148e+002, 1.922533e+002
6.895969e+002, 1.952542e+002
6.900790e+002, 1.977610e+002
6.905612e+002, 1.999371e+002
6.910433e+002, 2.018202e+002
6.915254e+002, 2.032314e+002
6.920075e+002, 2.040605e+002
6.924896e+002, 2.042144e+002
6.929717e+002, 2.034925e+002
6.934539e+002, 2.017655e+002
6.939360e+002, 1.993095e+002
6.944181e+002, 1.961426e+002
6.949002e+002, 1.923992e+002
6.953823e+002, 1.882711e+002
6.958644e+002, 1.838608e+002
6.963466e+002, 1.790381e+002
6.968287e+002, 1.737244e+002
6.973108e+002, 1.680137e+002
6.977929e+002, 1.622550e+002
6.982750e+002, 1.564353e+002
6.987571e+002, 1.506273e+002
6.992393e+002, 1.448377e+002
6.997214e+002, 1.390642e+002
7.002035e+002, 1.333538e+002
7.006856e+002, 1.277028e+002
7.011677e+002, 1.222972e+002
7.016498e+002, 1.173461e+002
7.021320e+002, 1.126331e+002
7.026141e+002, 1.078350e+002
7.030962e+002, 1.029693e+002
7.035783e+002, 9.845557e+001
7.040604e+002, 9.460509e+001
7.045425e+002, 9.099276e+001
7.050247e+002, 8.739176e+001
7.055068e+002, 8.371912e+001
7.059889e+002, 8.036697e+001
7.064710e+002, 7.739755e+001
7.069531e+002, 7.466179e+001
7.074352e+002, 7.198670e+001
7.079174e+002, 6.932024e+001
7.083995e+002, 6.768310e+001
7.088816e+002, 6.734578e+001
7.093637e+002, 6.681972e+001
7.098458e+002, 6.407068e+001
7.103279e+002, 5.996895e+001
7.108101e+002, 5.662278e+001
7.112922e+002, 5.449208e+001
7.117743e+002, 5.285851e+001
7.122564e+002, 5.129017e+001
7.127385e+002, 4.984028e+001
7.132206e+002, 4.857001e+001
7.137028e+002, 4.759097e+001
7.141849e+002, 4.667782e+001
7.146670e+002, 4.590448e+001
7.151491e+002, 4.513951e+001
7.156312e+002, 4.416151e+001
7.161133e+002, 4.285030e+001
7.165955e+002, 4.165948e+001
7.170776e+002, 4.061872e+001
7.175597e+002, 3.980817e+001
7.180418e+002, 3.958571e+001
7.185239e+002, 3.987826e+001
7.190060e+002, 3.998577e+001
7.194882e+002, 3.957616e+001
7.199703e+002, 3.890776e+001
7.204524e+002, 3.818965e+001
7.209345e+002, 3.746563e+001
7.214166e+002, 3.684330e+001
7.218987e+002, 3.631620e+001
7.223809e+002, 3.596318e+001
7.228630e+002, 3.596040e+001
7.233451e+002, 3.624399e+001
7.238272e+002, 3.626479e+001
7.243093e+002, 3.582183e+001
7.247914e+002, 3.538783e+001
7.252736e+002, 3.515731e+001
7.257557e+002, 3.510733e+001
7.262378e+002, 3.488955e+001
7.267199e+002, 3.446590e+001
7.272020e+002, 3.418656e+001
7.276841e+002, 3.442042e+001
7.281663e+002, 3.493093e+001
7.286484e+002, 3.519712e+001
7.291305e+002, 3.520522e+001
7.296126e+002, 3.510752e+001
7.300947e+002, 3.480996e+001
7.305768e+002, 3.458239e+001
7.310590e+002, 3.465203e+001
7.315411e+002, 3.507734e+001
7.320232e+002, 3.564002e+001
7.325053e+002, 3.647430e+001
7.329874e+002, 3.729140e+001
7.334695e+002, 3.792870e+001
7.339517e+002, 3.836368e+001
7.344338e+002, 3.874864e+001
7.349159e+002, 3.919033e+001
7.353980e+002, 3.928890e+001
7.358801e+002, 3.829186e+001
7.363622e+002, 3.651871e+001
7.368444e+002, 3.533268e+001
7.373265e+002, 3.499303e+001
7.378086e+002, 3.501427e+001
7.382907e+002, 3.508523e+001
7.387728e+002, 3.518990e+001
7.392549e+002, 3.531324e+001
7.397371e+002, 3.549944e+001
7.402192e+002, 3.562169e+001
7.407013e+002, 3.551135e+001
7.411834e+002, 3.537572e+001
7.416655e+002, 3.549947e+001
7.421476e+002, 3.601231e+001
7.426298e+002, 3.646995e+001
7.431119e+002, 3.680790e+001
7.435940e+002, 3.708242e+001
7.440761e+002, 3.737989e+001
7.445582e+002, 3.769914e+001
7.450403e+002, 3.806866e+001
7.455225e+002, 3.852795e+001
7.460046e+002, 3.898729e+001
7.464867e+002, 3.930260e+001
7.469688e+002, 3.953672e+001
7.474509e+002, 3.982277e+001
7.479330e+002, 4.037188e+001
7.484152e+002, 4.081826e+001
7.488973e+002, 4.087982e+001
7.493794e+002, 4.071901e+001
7.498615e+002, 4.086426e+001
7.503436e+002, 4.144535e+001
7.508257e+002, 4.213531e+001
7.513079e+002, 4.292279e+001
7.517900e+002, 4.373403e+001
7.522721e+002, 4.419952e+001
7.527542e+002, 4.432233e+001
7.532363e+002, 4.454229e+001
7.537184e+002, 4.525308e+001
7.542006e+002, 4.607072e+001
7.546827e+002, 4.620362e+001
7.551648e+002, 4.584546e+001
7.556469e+002, 4.579706e+001
7.561290e+002, 4.683173e+001
7.566111e+002, 4.795846e+001
7.570933e+002, 4.860151e+001
7.575754e+002, 4.875947e+001
7.580575e+002, 4.910343e+001
7.585396e+002, 4.978508e+001
7.590217e+002, 5.047709e+001
7.595038e+002, 5.109824e+001
7.599860e+002, 5.163372e+001
7.604681e+002, 5.187867e+001
7.609502e+002, 5.179617e+001
7.614323e+002, 5.185240e+001
7.619144e+002, 5.252180e+001
7.623965e+002, 5.347933e+001
7.628787e+002, 5.407211e+001
7.633608e+002, 5.431393e+001
7.638429e+002, 5.463831e+001
7.643250e+002, 5.553136e+001
7.648071e+002, 5.641922e+001
7.652892e+002, 5.680362e+001
7.657714e+002, 5.655090e+001
7.662535e+002, 5.664487e+001
7.667356e+002, 5.730086e+001
7.672177e+002, 5.809561e+001
7.676998e+002, 5.880518e+001
7.681819e+002, 5.942940e+001
7.686641e+002, 6.007801e+001
7.691462e+002, 6.074668e+001
7.696283e+002, 6.143238e+001
7.701104e+002, 6.213245e+001
7.705925e+002, 6.284567e+001
7.710746e+002, 6.353894e+001
7.715568e+002, 6.420477e+001
7.720389e+002, 6.498519e+001
7.725210e+002, 6.612272e+001
7.730031e+002, 6.730499e+001
7.734852e+002, 6.825620e+001
7.739673e+002, 6.878800e+001
7.744495e+002, 6.959697e+001
7.749316e+002, 7.086263e+001
7.754137e+002, 7.221431e+001
7.758958e+002, 7.335290e+001
7.763779e+002, 7.425728e+001
7.768600e+002, 7.526453e+001
7.773422e+002, 7.638715e+001
7.778243e+002, 7.763725e+001
7.783064e+002, 7.911754e+001
7.787885e+002, 8.071202e+001
7.792706e+002, 8.218120e+001
7.797527e+002, 8.344781e+001
7.802349e+002, 8.476613e+001
7.807170e+002, 8.627823e+001
7.811991e+002, 8.789762e+001
7.816812e+002, 8.951798e+001
7.821633e+002, 9.080220e+001
7.826454e+002, 9.281713e+001
7.831276e+002, 9.626047e+001
7.836097e+002, 9.960612e+001
7.840918e+002, 1.010173e+002
7.845739e+002, 1.004460e+002
7.850560e+002, 1.006285e+002
7.855381e+002, 1.018823e+002
7.860203e+002, 1.035875e+002
7.865024e+002, 1.051251e+002
7.869845e+002, 1.066156e+002
7.874666e+002, 1.083133e+002
7.879487e+002, 1.103367e+002
7.884308e+002, 1.123944e+002
7.889130e+002, 1.145182e+002
7.893951e+002, 1.165476e+002
7.898772e+002, 1.183414e+002
7.903593e+002, 1.198233e+002
7.908414e+002, 1.211405e+002
7.913235e+002, 1.221553e+002
7.918057e+002, 1.231866e+002
7.922878e+002, 1.247291e+002
7.927699e+002, 1.267429e+002
7.932520e+002, 1.281900e+002
7.937341e+002, 1.288194e+002
7.942162e+002, 1.293932e+002
7.946984e+002, 1.310057e+002
7.951805e+002, 1.330522e+002
7.956626e+002, 1.345251e+002
7.961447e+002, 1.349559e+002
7.966268e+002, 1.353749e+002
7.971089e+002, 1.361504e+002
7.975911e+002, 1.371141e+002
7.980732e+002, 1.380709e+002
7.985553e+002, 1.389960e+002
7.990374e+002, 1.400229e+002
7.995195e+002, 1.412547e+002
8.000016e+002, 1.424158e+002
8.004838e+002, 1.431186e+002
8.009659e+002, 1.434315e+002
8.014480e+002, 1.437835e+002
8.019301e+002, 1.442838e+002
8.024122e+002, 1.447108e+002
8.028943e+002, 1.447929e+002
8.033765e+002, 1.446878e+002
8.038586e+002, 1.446068e+002
8.043407e+002, 1.446572e+002
8.048228e+002, 1.446335e+002
8.053049e+002, 1.443274e+002
8.057870e+002, 1.440244e+002
8.062692e+002, 1.440550e+002
8.067513e+002, 1.445565e+002
8.072334e+002, 1.448440e+002
8.077155e+002, 1.448504e+002
8.081976e+002, 1.446405e+002
8.086797e+002, 1.441502e+002
8.091619e+002, 1.435081e+002
8.096440e+002, 1.431620e+002
8.101261e+002, 1.433145e+002
8.106082e+002, 1.433480e+002
8.110903e+002, 1.425874e+002
8.115724e+002, 1.415682e+002
8.120546e+002, 1.408760e+002
8.125367e+002, 1.407153e+002
8.130188e+002, 1.407843e+002
8.135009e+002, 1.412762e+002
8.139830e+002, 1.417787e+002
8.144651e+002, 1.417863e+002
8.149473e+002, 1.412652e+002
8.154294e+002, 1.408211e+002
8.159115e+002, 1.404936e+002
8.163936e+002, 1.403519e+002
8.168757e+002, 1.405504e+002
8.173578e+002, 1.409707e+002
8.178400e+002, 1.414453e+002
8.183221e+002, 1.419958e+002
8.188042e+002, 1.423929e+002
8.192863e+002, 1.422530e+002
8.197684e+002, 1.420602e+002
8.202505e+002, 1.423235e+002
8.207327e+002, 1.434296e+002
8.212148e+002, 1.440724e+002
8.216969e+002, 1.440038e+002
8.221790e+002, 1.439189e+002
8.226611e+002, 1.445872e+002
8.231432e+002, 1.459204e+002
8.236254e+002, 1.473857e+002
8.241075e+002, 1.489573e+002
8.245896e+002, 1.504258e+002
8.250717e+002, 1.513674e+002
8.255538e+002, 1.522061e+002
8.260359e+002, 1.534798e+002
8.265181e+002, 1.554690e+002
8.270002e+002, 1.572337e+002
8.274823e+002, 1.582329e+002
8.279644e+002, 1.592200e+002
8.284465e+002, 1.607155e+002
8.289286e+002, 1.628045e+002
8.294108e+002, 1.649516e+002
8.298929e+002, 1.671458e+002
8.303750e+002, 1.694181e+002
8.308571e+002, 1.719035e+002
8.313392e+002, 1.744579e+002
8.318214e+002, 1.766783e+002
8.323035e+002, 1.784851e+002
8.327856e+002, 1.806049e+002
8.332677e+002, 1.835226e+002
8.337498e+002, 1.868827e+002
8.342319e+002, 1.904331e+002
8.347141e+002, 1.941463e+002
8.351962e+002, 1.981027e+002
8.356783e+002, 2.023745e+002
8.361604e+002, 2.067408e+002
8.366425e+002, 2.110649e+002
8.371246e+002, 2.153369e+002
8.376068e+002, 2.192592e+002
8.380889e+002, 2.228254e+002
8.385710e+002, 2.267674e+002
8.390531e+002, 2.320402e+002
8.395352e+002, 2.377446e+002
8.400173e+002, 2.429470e+002
8.404995e+002, 2.476217e+002
8.409816e+002, 2.520068e+002
8.414637e+002, 2.561119e+002
8.419458e+002, 2.599980e+002
8.424279e+002, 2.635840e+002
8.429100e+002, 2.668848e+002
8.433922e+002, 2.709323e+002
8.438743e+002, 2.758814e+002
8.443564e+002, 2.807115e+002
8.448385e+002, 2.848454e+002
8.453206e+002, 2.884237e+002
8.458027e+002, 2.916165e+002
8.462849e+002, 2.944743e+002
8.467670e+002, 2.972104e+002
8.472491e+002, 3.001429e+002
8.477312e+002, 3.028078e+002
8.482133e+002, 3.049822e+002
8.486954e+002, 3.066506e+002
8.491776e+002, 3.078542e+002
8.496597e+002, 3.085555e+002
8.501418e+002, 3.089230e+002
8.506239e+002, 3.089518e+002
8.511060e+002, 3.087238e+002
8.515881e+002, 3.084678e+002
8.520703e+002, 3.081896e+002
8.525524e+002, 3.079281e+002
8.530345e+002, 3.080148e+002
8.535166e+002, 3.078372e+002
8.539987e+002, 3.066406e+002
8.544808e+002, 3.047288e+002
8.549630e+002, 3.028707e+002
8.554451e+002, 3.013825e+002
8.559272e+002, 2.998615e+002
8.564093e+002, 2.980746e+002
8.568914e+002, 2.962750e+002
8.573735e+002, 2.949844e+002
8.578557e+002, 2.942208e+002
8.583378e+002, 2.937291e+002
8.588199e+002, 2.935277e+002
8.593020e+002, 2.933763e+002
8.597841e+002, 2.928827e+002
8.602662e+002, 2.921778e+002
8.607484e+002, 2.915468e+002
8.612305e+002, 2.912148e+002
8.617126e+002, 2.907892e+002
8.621947e+002, 2.900957e+002
8.626768e+002, 2.892399e+002
8.631589e+002, 2.883300e+002
8.636411e+002, 2.871360e+002
8.641232e+002, 2.865936e+002
8.646053e+002, 2.869264e+002
8.650874e+002, 2.875898e+002
8.655695e+002, 2.875540e+002
8.660516e+002, 2.872478e+002
8.665338e+002, 2.880798e+002
8.670159e+002, 2.904210e+002
8.674980e+002, 2.933778e+002
8.679801e+002, 2.962299e+002
8.684622e+002, 2.994665e+002
8.689443e+002, 3.035048e+002
8.694265e+002, 3.081403e+002
8.699086e+002, 3.145061e+002
8.703907e+002, 3.227245e+002
8.708728e+002, 3.324468e+002
8.713549e+002, 3.435046e+002
8.718370e+002, 3.558840e+002
8.723192e+002, 3.685303e+002
8.728013e+002, 3.815414e+002
8.732834e+002, 3.956495e+002
8.737655e+002, 4.111031e+002
8.742476e+002, 4.282222e+002
8.747297e+002, 4.473812e+002
8.752119e+002, 4.687823e+002
8.756940e+002, 4.915715e+002
8.761761e+002, 5.155486e+002
8.766582e+002, 5.406793e+002
8.771403e+002, 5.669632e+002
8.776224e+002, 5.943887e+002
8.781046e+002, 6.228617e+002
8.785867e+002, 6.522621e+002
8.790688e+002, 6.829221e+002
8.795509e+002, 7.145775e+002
8.800330e+002, 7.471879e+002
8.805151e+002, 7.808046e+002
8.809973e+002, 8.152471e+002
8.814794e+002, 8.498102e+002
8.819615e+002, 8.842719e+002
8.824436e+002, 9.187474e+002
8.829257e+002, 9.542486e+002
8.834078e+002, 9.894985e+002
8.838900e+002, 1.022561e+003
8.843721e+002, 1.053197e+003
8.848542e+002, 1.083146e+003
8.853363e+002, 1.113547e+003
8.858184e+002, 1.142463e+003
8.863005e+002, 1.166407e+003
8.867827e+002, 1.186195e+003
8.872648e+002, 1.203647e+003
8.877469e+002, 1.219850e+003
8.882290e+002, 1.233168e+003
8.887111e+002, 1.243844e+003
8.891932e+002, 1.250621e+003
8.896754e+002, 1.251849e+003
8.901575e+002, 1.246587e+003
8.906396e+002, 1.238411e+003
8.911217e+002, 1.227522e+003
8.916038e+002, 1.214088e+003
8.920859e+002, 1.198199e+003
8.925681e+002, 1.179842e+003
8.930502e+002, 1.158603e+003
8.935323e+002, 1.134411e+003
8.940144e+002, 1.108742e+003
8.944965e+002, 1.082209e+003
8.949786e+002, 1.055312e+003
8.954608e+002, 1.028145e+003
8.959429e+002, 1.000883e+003
8.964250e+002, 9.734259e+002
8.969071e+002, 9.457593e+002
8.973892e+002, 9.183464e+002
8.978713e+002, 8.914965e+002
8.983535e+002, 8.652126e+002
8.988356e+002, 8.410531e+002
8.993177e+002, 8.189600e+002
8.997998e+002, 7.980125e+002
9.002819e+002, 7.776075e+002
9.007640e+002, 7.578854e+002
9.012462e+002, 7.382845e+002
9.017283e+002, 7.191280e+002
9.022104e+002, 7.019379e+002
9.026925e+002, 6.879140e+002
9.031746e+002, 6.744652e+002
9.036567e+002, 6.605779e+002
9.041389e+002, 6.468168e+002
9.046210e+002, 6.348596e+002
9.051031e+002, 6.245612e+002
9.055852e+002, 6.141551e+002
9.060673e+002, 6.026252e+002
9.065494e+002, 5.910950e+002
9.070316e+002, 5.805046e+002
9.075137e+002, 5.706864e+002
9.079958e+002, 5.611982e+002
9.084779e+002, 5.520397e+002
9.089600e+002, 5.432506e+002
9.094421e+002, 5.350992e+002
9.099243e+002, 5.270599e+002
9.104064e+002, 5.178812e+002
9.108885e+002, 5.077060e+002
9.113706e+002, 4.985945e+002
9.118527e+002, 4.909826e+002
9.123348e+002, 4.836220e+002
9.128170e+002, 4.750467e+002
9.132991e+002, 4.661986e+002
9.137812e+002, 4.581525e+002
9.142633e+002, 4.511965e+002
9.147454e+002, 4.446162e+002
9.152275e+002, 4.384666e+002
9.157097e+002, 4.324432e+002
9.161918e+002, 4.264494e+002
9.166739e+002, 4.204799e+002
9.171560e+002, 4.138293e+002
9.176381e+002, 4.065377e+002
9.181202e+002, 3.999762e+002
9.186024e+002, 3.957659e+002
9.190845e+002, 3.923376e+002
9.195666e+002, 3.878247e+002
9.200487e+002, 3.824624e+002
9.205308e+002, 3.776913e+002
9.210129e+002, 3.744832e+002
9.214951e+002, 3.712389e+002
9.219772e+002, 3.673425e+002
9.224593e+002, 3.631848e+002
9.229414e+002, 3.600421e+002
9.234235e+002, 3.579188e+002
9.239056e+002, 3.558397e+002
9.243878e+002, 3.534057e+002
9.248699e+002, 3.510428e+002
9.253520e+002, 3.491604e+002
9.258341e+002, 3.476768e+002
9.263162e+002, 3.464313e+002
9.267983e+002, 3.453965e+002
9.272805e+002, 3.445986e+002
9.277626e+002, 3.440995e+002
9.282447e+002, 3.437544e+002
9.287268e+002, 3.433210e+002
9.292089e+002, 3.427999e+002
9.296910e+002, 3.429948e+002
9.301732e+002, 3.440129e+002
9.306553e+002, 3.451959e+002
9.311374e+002, 3.458540e+002
9.316195e+002, 3.464034e+002
9.321016e+002, 3.472863e+002
9.325837e+002, 3.485390e+002
9.330659e+002, 3.501324e+002
9.335480e+002, 3.524731e+002
9.340301e+002, 3.546200e+002
9.345122e+002, 3.559735e+002
9.349943e+002, 3.567650e+002
9.354764e+002, 3.587402e+002
9.359586e+002, 3.618788e+002
9.364407e+002, 3.647661e+002
9.369228e+002, 3.665946e+002
9.374049e+002, 3.679814e+002
9.378870e+002, 3.692788e+002
9.383691e+002, 3.706675e+002
9.388513e+002, 3.725325e+002
9.393334e+002, 3.756064e+002
9.398155e+002, 3.783680e+002
9.402976e+002, 3.804603e+002
9.407797e+002, 3.823001e+002
9.412618e+002, 3.845595e+002
9.417440e+002, 3.871971e+002
9.422261e+002, 3.895999e+002
9.427082e+002, 3.917186e+002
9.431903e+002, 3.934440e+002
9.436724e+002, 3.944589e+002
9.441545e+002, 3.951322e+002
9.446367e+002, 3.958652e+002
9.451188e+002, 3.967759e+002
9.456009e+002, 3.975116e+002
9.460830e+002, 3.985671e+002
9.465651e+002, 3.986404e+002
9.470472e+002, 3.967783e+002
9.475294e+002, 3.931464e+002
9.480115e+002, 3.895577e+002
9.484936e+002, 3.859301e+002
9.489757e+002, 3.814651e+002
9.494578e+002, 3.758217e+002
9.499399e+002, 3.690147e+002
9.504221e+002, 3.608315e+002
9.509042e+002, 3.514366e+002
9.513863e+002, 3.415827e+002
9.518684e+002, 3.312793e+002
9.523505e+002, 3.206491e+002
9.528326e+002, 3.097231e+002
9.533148e+002, 2.984911e+002
9.537969e+002, 2.867054e+002
9.542790e+002, 2.745448e+002
9.547611e+002, 2.626860e+002
9.552432e+002, 2.513481e+002
9.557253e+002, 2.405621e+002
9.562075e+002, 2.304940e+002
9.566896e+002, 2.209489e+002
9.571717e+002, 2.115831e+002
9.576538e+002, 2.021613e+002
9.581359e+002, 1.935239e+002
9.586180e+002, 1.857151e+002
9.591002e+002, 1.784909e+002
9.595823e+002, 1.717301e+002
9.600644e+002, 1.653789e+002
9.605465e+002, 1.594449e+002
9.610286e+002, 1.538702e+002
9.615107e+002, 1.484448e+002
9.619929e+002, 1.428140e+002
9.624750e+002, 1.374600e+002
9.629571e+002, 1.325391e+002
9.634392e+002, 1.280965e+002
9.639213e+002, 1.241159e+002
9.644034e+002, 1.207018e+002
9.648856e+002, 1.174977e+002
9.653677e+002, 1.144568e+002
9.658498e+002, 1.114898e+002
9.663319e+002, 1.083356e+002
9.668140e+002, 1.051403e+002
9.672961e+002, 1.023039e+002
9.677783e+002, 9.999279e+001
9.682604e+002, 9.780603e+001
9.687425e+002, 9.552678e+001
9.692246e+002, 9.334588e+001
9.697067e+002, 9.138250e+001
9.701888e+002, 8.969131e+001
9.706710e+002, 8.806649e+001
9.711531e+002, 8.652686e+001
9.716352e+002, 8.499063e+001
9.721173e+002, 8.334678e+001
9.725994e+002, 8.172518e+001
9.730815e+002, 8.027049e+001
9.735637e+002, 7.898445e+001
9.740458e+002, 7.780556e+001
9.745279e+002, 7.684280e+001
9.750100e+002, 7.582572e+001
9.754921e+002, 7.462572e+001
9.759742e+002, 7.335823e+001
9.764564e+002, 7.232974e+001
9.769385e+002, 7.151974e+001
9.774206e+002, 7.066118e+001
9.779027e+002, 6.965630e+001
9.783848e+002, 6.870475e+001
9.788669e+002, 6.801889e+001
9.793491e+002, 6.748177e+001
9.798312e+002, 6.695399e+001
9.803133e+002, 6.641663e+001
9.807954e+002, 6.586567e+001
9.812775e+002, 6.524117e+001
9.817596e+002, 6.469610e+001
9.822418e+002, 6.439340e+001
9.827239e+002, 6.426823e+001
9.832060e+002, 6.394470e+001
9.836881e+002, 6.344390e+001
9.841702e+002, 6.297754e+001
9.846523e+002, 6.271708e+001
9.851345e+002, 6.248832e+001
9.856166e+002, 6.221040e+001
9.860987e+002, 6.187305e+001
9.865808e+002, 6.145612e+001
9.870629e+002, 6.091366e+001
9.875450e+002, 6.043726e+001
9.880272e+002, 6.006269e+001
9.885093e+002, 5.977246e+001
9.889914e+002, 5.962482e+001
9.894735e+002, 5.952708e+001
9.899556e+002, 5.925607e+001
9.904377e+002, 5.870463e+001
9.909199e+002, 5.823884e+001
9.914020e+002, 5.809456e+001
9.918841e+002, 5.802013e+001
9.923662e+002, 5.785365e+001
9.928483e+002, 5.759653e+001
9.933304e+002, 5.724377e+001
9.938126e+002, 5.677870e+001
9.942947e+002, 5.650520e+001
9.947768e+002, 5.679655e+001
9.952589e+002, 5.725121e+001
9.957410e+002, 5.737922e+001
9.962231e+002, 5.726844e+001
9.967053e+002, 5.718653e+001
9.971874e+002, 5.712830e+001
9.976695e+002, 5.724455e+001
9.981516e+002, 5.768250e+001
9.986337e+002, 5.815327e+001
9.991158e+002, 5.814824e+001
9.995980e+002, 5.774165e+001
1.000080e+003, 5.746260e+001
1.000562e+003, 5.739057e+001
1.001044e+003, 5.741001e+001
1.001526e+003, 5.743079e+001
1.002009e+003, 5.750531e+001
1.002491e+003, 5.770747e+001
1.002973e+003, 5.806290e+001
1.003455e+003, 5.832486e+001
1.003937e+003, 5.848366e+001
1.004419e+003, 5.857048e+001
1.004901e+003, 5.852319e+001
1.005383e+003, 5.848103e+001
1.005865e+003, 5.891364e+001
1.006348e+003, 5.961399e+001
1.006830e+003, 6.000214e+001
1.007312e+003, 5.942193e+001
1.007794e+003, 5.898634e+001
1.008276e+003, 5.917030e+001
1.008758e+003, 5.958382e+001
1.009240e+003, 5.980423e+001
1.009722e+003, 5.979485e+001
1.010205e+003, 5.999257e+001
1.010687e+003, 6.044904e+001
1.011169e+003, 6.090031e+001
1.011651e+003, 6.103021e+001
1.012133e+003, 6.109084e+001
1.012615e+003, 6.136943e+001
1.013097e+003, 6.187526e+001
1.013579e+003, 6.237508e+001
1.014061e+003, 6.280183e+001
1.014544e+003, 6.327480e+001
1.015026e+003, 6.387171e+001
1.015508e+003, 6.449038e+001
1.015990e+003, 6.487501e+001
1.016472e+003, 6.506533e+001
1.016954e+003, 6.521555e+001
1.017436e+003, 6.535661e+001
1.017918e+003, 6.551482e+001
1.018401e+003, 6.570940e+001
1.018883e+003, 6.592813e+001
1.019365e+003, 6.615324e+001
1.019847e+003, 6.636691e+001
1.020329e+003, 6.669465e+001
1.020811e+003, 6.716566e+001
1.021293e+003, 6.759377e+001
1.021775e+003, 6.774041e+001
1.022257e+003, 6.781829e+001
1.022740e+003, 6.818005e+001
1.023222e+003, 6.877921e+001
1.023704e+003, 6.941721e+001
1.024186e+003, 7.001456e+001
1.024668e+003, 7.067338e+001
1.025150e+003, 7.153563e+001
1.025632e+003, 7.235402e+001
1.026114e+003, 7.257821e+001
1.026596e+003, 7.229476e+001
1.027079e+003, 7.230450e+001
1.027561e+003, 7.272938e+001
1.028043e+003, 7.349422e+001
1.028525e+003, 7.504201e+001
1.029007e+003, 7.654065e+001
1.029489e+003, 7.708560e+001
1.029971e+003, 7.653870e+001
1.030453e+003, 7.656287e+001
1.030936e+003, 7.727817e+001
1.031418e+003, 7.818346e+001
1.031900e+003, 7.912074e+001
1.032382e+003, 8.006845e+001
1.032864e+003, 8.100122e+001
1.033346e+003, 8.190189e+001
1.033828e+003, 8.270070e+001
1.034310e+003, 8.319437e+001
1.034792e+003, 8.385869e+001
1.035275e+003, 8.490018e+001
1.035757e+003, 8.607688e+001
1.036239e+003, 8.722762e+001
1.036721e+003, 8.834412e+001
1.037203e+003, 8.936269e+001
1.037685e+003, 9.026684e+001
1.038167e+003, 9.119405e+001
1.038649e+003, 9.214195e+001
1.039132e+003, 9.323679e+001
1.039614e+003, 9.469264e+001
1.040096e+003, 9.642477e+001
1.040578e+003, 9.799864e+001
1.041060e+003, 9.934818e+001
1.041542e+003, 1.007029e+002
1.042024e+003, 1.021399e+002
1.042506e+003, 1.035737e+002
1.042989e+003, 1.047170e+002
1.043471e+003, 1.058196e+002
1.043953e+003, 1.074978e+002
1.044435e+003, 1.099994e+002
1.044917e+003, 1.123952e+002
1.045399e+003, 1.143896e+002
1.045881e+003, 1.161239e+002
1.046363e+003, 1.175232e+002
1.046845e+003, 1.186799e+002
1.047328e+003, 1.202873e+002
1.047810e+003, 1.223665e+002
1.048292e+003, 1.249005e+002
1.048774e+003, 1.281886e+002
1.049256e+003, 1.315317e+002
1.049738e+003, 1.345615e+002
1.050220e+003, 1.372400e+002
1.050702e+003, 1.394547e+002
1.051184e+003, 1.408093e+002
1.051667e+003, 1.427110e+002
1.052149e+003, 1.452603e+002
1.052631e+003, 1.481280e+002
1.053113e+003, 1.511772e+002
1.053595e+003, 1.543394e+002
1.054077e+003, 1.574767e+002
1.054559e+003, 1.606045e+002
1.055041e+003, 1.638675e+002
1.055523e+003, 1.674845e+002
1.056006e+003, 1.710629e+002
1.056488e+003, 1.745815e+002
1.056970e+003, 1.779658e+002
1.057452e+003, 1.809776e+002
1.057934e+003, 1.836677e+002
1.058416e+003, 1.864859e+002
1.058898e+003, 1.895207e+002
1.059380e+003, 1.927120e+002
1.059863e+003, 1.961483e+002
1.060345e+003, 1.995366e+002
1.060827e+003, 2.026213e+002
1.061309e+003, 2.053926e+002
1.061791e+003, 2.078606e+002
1.062273e+003, 2.099888e+002
1.062755e+003, 2.120251e+002
1.063237e+003, 2.142906e+002
1.063719e+003, 2.162008e+002
1.064202e+003, 2.165387e+002
1.064684e+003, 2.159289e+002
1.065166e+003, 2.155866e+002
1.065648e+003, 2.163778e+002
1.066130e+003, 2.165473e+002
1.066612e+003, 2.158727e+002
1.067094e+003, 2.146616e+002
1.067576e+003, 2.131967e+002
1.068059e+003, 2.114178e+002
1.068541e+003, 2.090217e+002
1.069023e+003, 2.060243e+002
1.069505e+003, 2.026324e+002
1.069987e+003, 1.991030e+002
1.070469e+003, 1.950855e+002
1.070951e+003, 1.902721e+002
1.071433e+003, 1.849465e+002
1.071916e+003, 1.796183e+002
1.072398e+003, 1.743139e+002
1.072880e+003, 1.692263e+002
1.073362e+003, 1.644922e+002
1.073844e+003, 1.595442e+002
1.074326e+003, 1.537421e+002
1.074808e+003, 1.475477e+002
1.075290e+003, 1.413368e+002
1.075772e+003, 1.351822e+002
1.076255e+003, 1.293560e+002
1.076737e+003, 1.240042e+002
1.077219e+003, 1.187544e+002
1.077701e+003, 1.134995e+002
1.078183e+003, 1.083398e+002
1.078665e+003, 1.034918e+002
1.079147e+003, 9.889196e+001
1.079629e+003, 9.438992e+001
1.080111e+003, 8.983672e+001
1.080594e+003, 8.556773e+001
1.081076e+003, 8.183121e+001
1.081558e+003, 7.828008e+001
1.082040e+003, 7.481249e+001
1.082522e+003, 7.141670e+001
1.083004e+003, 6.810066e+001
1.083486e+003, 6.485025e+001
1.083968e+003, 6.178983e+001
1.084450e+003, 5.898095e+001
1.084933e+003, 5.638110e+001
1.085415e+003, 5.394904e+001
1.085897e+003, 5.174264e+001
1.086379e+003, 4.977901e+001
1.086861e+003, 4.813584e+001
1.087343e+003, 4.647405e+001
1.087825e+003, 4.478656e+001
1.088307e+003, 4.303284e+001
1.088790e+003, 4.097449e+001
1.089272e+003, 3.896986e+001
1.089754e+003, 3.750425e+001
1.090236e+003, 3.650494e+001
1.090718e+003, 3.546656e+001
1.091200e+003, 3.421238e+001
1.091682e+003, 3.305872e+001
1.092164e+003, 3.205974e+001
1.092646e+003, 3.118176e+001
1.093129e+003, 3.036117e+001
1.093611e+003, 2.962548e+001
1.094093e+003, 2.908677e+001
1.094575e+003, 2.878284e+001
1.095057e+003, 2.833086e+001
1.095539e+003, 2.734896e+001
1.096021e+003, 2.642111e+001
1.096503e+003, 2.583131e+001
1.096986e+003, 2.548184e+001
1.097468e+003, 2.490071e+001
1.097950e+003, 2.414110e+001
1.098432e+003, 2.372911e+001
1.098914e+003, 2.400201e+001
1.099396e+003, 2.419226e+001
1.099878e+003, 2.358634e+001
1.100360e+003, 2.272701e+001
1.100843e+003, 2.213584e+001
1.101325e+003, 2.183365e+001
1.101807e+003, 2.168012e+001
1.102289e+003, 2.168247e+001
1.102771e+003, 2.175028e+001
1.103253e+003, 2.195510e+001
1.103735e+003, 2.207742e+001
1.104217e+003, 2.171305e+001
1.104699e+003, 2.110849e+001
1.105182e+003, 2.073650e+001
1.105664e+003, 2.095884e+001
1.106146e+003, 2.089672e+001
1.106628e+003, 2.045835e+001
1.107110e+003, 1.992352e+001
1.107592e+003, 1.945453e+001
1.108074e+003, 1.910109e+001
1.108556e+003, 1.901022e+001
1.109038e+003, 1.913865e+001
1.109521e+003, 1.923521e+001
1.110003e+003, 1.922479e+001
1.110485e+003, 1.913221e+001
1.110967e+003, 1.891969e+001
1.111449e+003, 1.868562e+001
1.111931e+003, 1.859670e+001
1.112413e+003, 1.861967e+001
1.112895e+003, 1.858330e+001
1.113377e+003, 1.846534e+001
1.113860e+003, 1.841245e+001
1.114342e+003, 1.868737e+001
1.114824e+003, 1.887043e+001
1.115306e+003, 1.865743e+001
1.115788e+003, 1.819056e+001
1.116270e+003, 1.795983e+001
1.116752e+003, 1.795771e+001
1.117234e+003, 1.782738e+001
1.117717e+003, 1.741792e+001
1.118199e+003, 1.711032e+001
1.118681e+003, 1.742503e+001
1.119163e+003, 1.787591e+001
1.119645e+003, 1.795228e+001
1.120127e+003, 1.761080e+001
1.120609e+003, 1.747815e+001
1.121091e+003, 1.759420e+001
1.121573e+003, 1.766460e+001
1.122056e+003, 1.754697e+001
1.122538e+003, 1.735097e+001
1.123020e+003, 1.717232e+001
1.123502e+003, 1.702575e+001
1.123984e+003, 1.693487e+001
1.124466e+003, 1.692503e+001
1.124948e+003, 1.694066e+001
1.125430e+003, 1.701026e+001
1.125913e+003, 1.702816e+001
1.126395e+003, 1.682956e+001
1.126877e+003, 1.657554e+001
1.127359e+003, 1.675871e+001
1.127841e+003, 1.719565e+001
1.128323e+003, 1.737320e+001
1.128805e+003, 1.684394e+001
1.129287e+003, 1.639409e+001
1.129770e+003, 1.608985e+001
1.130252e+003, 1.594685e+001
1.130734e+003, 1.607693e+001
1.131216e+003, 1.638092e+001
1.131698e+003, 1.638491e+001
1.132180e+003, 1.612403e+001
1.132662e+003, 1.599700e+001
1.133144e+003, 1.647513e+001
1.133626e+003, 1.680383e+001
1.134109e+003, 1.654540e+001
1.134591e+003, 1.611932e+001
1.135073e+003, 1.626643e+001
1.135555e+003, 1.691847e+001
1.136037e+003, 1.724521e+001
1.136519e+003, 1.714945e+001
1.137001e+003, 1.690406e+001
1.137483e+003, 1.658110e+001
1.137965e+003, 1.629277e+001
1.138448e+003, 1.610044e+001
1.138930e+003, 1.600079e+001
1.139412e+003, 1.604096e+001
1.139894e+003, 1.623517e+001
1.140376e+003, 1.627149e+001
1.140858e+003, 1.606137e+001
1.141340e+003, 1.580988e+001
1.141822e+003, 1.574433e+001
1.142304e+003, 1.569920e+001
1.142787e+003, 1.543051e+001
1.143269e+003, 1.494047e+001
1.143751e+003, 1.490663e+001
1.144233e+003, 1.543503e+001
1.144715e+003, 1.583027e+001
1.145197e+003, 1.582986e+001
1.145679e+003, 1.564264e+001
1.146161e+003, 1.539227e+001
1.146644e+003, 1.518826e+001
1.147126e+003, 1.522284e+001
1.147608e+003, 1.565601e+001
1.148090e+003, 1.576746e+001
1.148572e+003, 1.545074e+001
1.149054e+003, 1.511157e+001
1.149536e+003, 1.493207e+001
1.150018e+003, 1.486816e+001
1.150500e+003, 1.484740e+001
1.150983e+003, 1.488146e+001
1.151465e+003, 1.500466e+001
1.151947e+003, 1.534259e+001
1.152429e+003, 1.551047e+001
1.152911e+003, 1.543429e+001
1.153393e+003, 1.529871e+001
1.153875e+003, 1.523327e+001
1.154357e+003, 1.520340e+001
1.154840e+003, 1.507258e+001
1.155322e+003, 1.489087e+001
1.155804e+003, 1.482307e+001
1.156286e+003, 1.510598e+001
1.156768e+003, 1.525588e+001
1.157250e+003, 1.517111e+001
1.157732e+003, 1.499590e+001
1.158214e+003, 1.484068e+001
1.158697e+003, 1.470799e+001
1.159179e+003, 1.462607e+001
1.159661e+003, 1.458549e+001
1.160143e+003, 1.453168e+001
1.160625e+003, 1.431249e+001
1.161107e+003, 1.424617e+001
1.161589e+003, 1.452941e+001
1.162071e+003, 1.490319e+001
1.162553e+003, 1.502981e+001
1.163036e+003, 1.494119e+001
1.163518e+003, 1.486717e+001
1.164000e+003, 1.482290e+001
1.164482e+003, 1.476784e+001
1.164964e+003, 1.464263e+001
1.165446e+003, 1.454104e+001
1.165928e+003, 1.454820e+001
1.166410e+003, 1.458532e+001
1.166892e+003, 1.447705e+001
1.167375e+003, 1.423813e+001
1.167857e+003, 1.407534e+001
1.168339e+003, 1.401186e+001
1.168821e+003, 1.409518e+001
1.169303e+003, 1.456200e+001
1.169785e+003, 1.499406e+001
1.170267e+003, 1.507378e+001
1.170749e+003, 1.491243e+001
1.171231e+003, 1.479998e+001
1.171714e+003, 1.473553e+001
1.172196e+003, 1.468918e+001
1.172678e+003, 1.465161e+001
1.173160e+003, 1.465450e+001
1.173642e+003, 1.480464e+001
1.174124e+003, 1.494134e+001
1.174606e+003, 1.487781e+001
1.175088e+003, 1.466449e+001
1.175571e+003, 1.464667e+001
1.176053e+003, 1.484014e+001
1.176535e+003, 1.489069e+001
1.177017e+003, 1.465684e+001
1.177499e+003, 1.439612e+001
1.177981e+003, 1.439093e+001
1.178463e+003, 1.445690e+001
1.178945e+003, 1.437371e+001
1.179427e+003, 1.413294e+001
1.179910e+003, 1.411823e+001
1.180392e+003, 1.435350e+001
1.180874e+003, 1.458061e+001
1.181356e+003, 1.471934e+001
1.181838e+003, 1.477445e+001
1.182320e+003, 1.470301e+001
1.182802e+003, 1.457876e+001
1.183284e+003, 1.448302e+001
1.183767e+003, 1.442391e+001
1.184249e+003, 1.441606e+001
1.184731e+003, 1.447896e+001
1.185213e+003, 1.444271e+001
1.185695e+003, 1.411457e+001
1.186177e+003, 1.382404e+001
1.186659e+003, 1.407533e+001
1.187141e+003, 1.456074e+001
1.187624e+003, 1.483629e+001
1.188106e+003, 1.481784e+001
1.188588e+003, 1.464576e+001
1.189070e+003, 1.426408e+001
1.189552e+003, 1.406631e+001
1.190034e+003, 1.444614e+001
1.190516e+003, 1.495209e+001
1.190998e+003, 1.499485e+001
1.191480e+003, 1.476909e+001
1.191963e+003, 1.460478e+001
1.192445e+003, 1.457893e+001
1.192927e+003, 1.455682e+001
1.193409e+003, 1.453684e+001
1.193891e+003, 1.452691e+001
1.194373e+003, 1.454619e+001
1.194855e+003, 1.456765e+001
1.195337e+003, 1.456629e+001
1.195819e+003, 1.453722e+001
1.196302e+003, 1.445532e+001
1.196784e+003, 1.415500e+001
1.197266e+003, 1.424669e+001
1.197748e+003, 1.485256e+001
1.198230e+003, 1.537696e+001
1.198712e+003, 1.519520e+001
1.199194e+003, 1.475140e+001
1.199676e+003, 1.466626e+001
1.200158e+003, 1.481720e+001
1.200641e+003, 1.483815e+001
1.201123e+003, 1.457676e+001
1.201605e+003, 1.436630e+001
1.202087e+003, 1.417067e+001
1.202569e+003, 1.424600e+001
1.203051e+003, 1.523600e+001
1.203533e+003, 1.634921e+001
1.204015e+003, 1.638772e+001
1.204498e+003, 1.561312e+001
1.204980e+003, 1.506254e+001
1.205462e+003, 1.497181e+001
1.205944e+003, 1.490941e+001
1.206426e+003, 1.485616e+001
1.206908e+003, 1.475632e+001
1.207390e+003, 1.443280e+001
1.207872e+003, 1.411334e+001
1.208354e+003, 1.414725e+001
1.208837e+003, 1.447001e+001
1.209319e+003, 1.473913e+001
1.209801e+003, 1.500095e+001
1.210283e+003, 1.494548e+001
1.210765e+003, 1.445723e+001
1.211247e+003, 1.394794e+001
1.211729e+003, 1.391481e+001
1.212211e+003, 1.406235e+001
1.212694e+003, 1.398121e+001
1.213176e+003, 1.370862e+001
1.213658e+003, 1.361881e+001
1.214140e+003, 1.380860e+001
1.214622e+003, 1.397692e+001
1.215104e+003, 1.408700e+001
1.215586e+003, 1.414008e+001
1.216068e+003, 1.407705e+001
1.216551e+003, 1.399981e+001
1.217033e+003, 1.407228e+001
1.217515e+003, 1.427066e+001
1.217997e+003, 1.434492e+001
1.218479e+003, 1.427020e+001
1.218961e+003, 1.408982e+001
1.219443e+003, 1.376999e+001
1.219925e+003, 1.351754e+001
1.220407e+003, 1.365238e+001
1.220890e+003, 1.392059e+001
1.221372e+003, 1.402770e+001
1.221854e+003, 1.396873e+001
1.222336e+003, 1.397664e+001
1.222818e+003, 1.410591e+001
1.223300e+003, 1.409734e+001
1.223782e+003, 1.387609e+001
1.224264e+003, 1.361819e+001
1.224746e+003, 1.346775e+001
1.225229e+003, 1.341922e+001
1.225711e+003, 1.349458e+001
1.226193e+003, 1.368466e+001
1.226675e+003, 1.386341e+001
1.227157e+003, 1.404694e+001
1.227639e+003, 1.411516e+001
1.228121e+003, 1.402752e+001
1.228603e+003, 1.389183e+001
1.229085e+003, 1.379024e+001
1.229568e+003, 1.372161e+001
1.230050e+003, 1.368901e+001
1.230532e+003, 1.369210e+001
1.231014e+003, 1.374790e+001
1.231496e+003, 1.388190e+001
1.231978e+003, 1.378822e+001
1.232460e+003, 1.332755e+001
1.232942e+003, 1.297552e+001
1.233425e+003, 1.339646e+001
1.233907e+003, 1.396283e+001
1.234389e+003, 1.409542e+001
1.234871e+003, 1.384265e+001
1.235353e+003, 1.359635e+001
1.235835e+003, 1.335053e+001
1.236317e+003, 1.334341e+001
1.236799e+003, 1.368952e+001
1.237281e+003, 1.397053e+001
1.237764e+003, 1.368272e+001
1.238246e+003, 1.331481e+001
1.238728e+003, 1.332176e+001
1.239210e+003, 1.359540e+001
1.239692e+003, 1.364864e+001
1.240174e+003, 1.349025e+001
1.240656e+003, 1.337739e+001
1.241138e+003, 1.338218e+001
1.241621e+003, 1.337716e+001
1.242103e+003, 1.336543e+001
1.242585e+003, 1.320106e+001
1.243067e+003, 1.261427e+001
1.243549e+003, 1.184662e+001
1.244031e+003, 1.190678e+001
1.244513e+003, 1.268410e+001
1.244995e+003, 1.330961e+001
1.245478e+003, 1.358771e+001
1.245960e+003, 1.368043e+001
1.246442e+003, 1.363895e+001
1.246924e+003, 1.347078e+001
1.247406e+003, 1.310034e+001
1.247888e+003, 1.267440e+001
1.248370e+003, 1.274863e+001
1.248852e+003, 1.319758e+001
1.249334e+003, 1.349963e+001
1.249817e+003, 1.353144e+001
1.250299e+003, 1.343996e+001
1.250781e+003, 1.304224e+001
1.251263e+003, 1.286680e+001
1.251745e+003, 1.325267e+001
1.252227e+003, 1.386721e+001
1.252709e+003, 1.383362e+001
1.253191e+003, 1.334851e+001
1.253673e+003, 1.295012e+001
1.254156e+003, 1.273747e+001
1.254638e+003, 1.270231e+001
1.255120e+003, 1.308376e+001
1.255602e+003, 1.324463e+001
1.256084e+003, 1.284728e+001
1.256566e+003, 1.228879e+001
1.257048e+003, 1.243413e+001
1.257530e+003, 1.300252e+001
1.258012e+003, 1.346368e+001
1.258495e+003, 1.373826e+001
1.258977e+003, 1.374788e+001
1.259459e+003, 1.332812e+001
1.259941e+003, 1.304698e+001
1.260423e+003, 1.312646e+001
1.260905e+003, 1.334325e+001
1.261387e+003, 1.337657e+001
1.261869e+003, 1.329639e+001
1.262352e+003, 1.318054e+001
1.262834e+003, 1.303618e+001
1.263316e+003, 1.299995e+001
1.263798e+003, 1.312809e+001
1.264280e+003, 1.317442e+001
1.264762e+003, 1.305861e+001
1.265244e+003, 1.285949e+001
1.265726e+003, 1.253626e+001
1.266208e+003, 1.227250e+001
1.266691e+003, 1.236539e+001
1.267173e+003, 1.282192e+001
1.267655e+003, 1.296079e+001
1.268137e+003, 1.274723e+001
1.268619e+003, 1.247696e+001
1.269101e+003, 1.218535e+001
1.269583e+003, 1.205275e+001
1.270065e+003, 1.241131e+001
1.270548e+003, 1.287433e+001
1.271030e+003, 1.312431e+001
1.271512e+003, 1.317038e+001
1.271994e+003, 1.301560e+001
1.272476e+003, 1.266492e+001
1.272958e+003, 1.230521e+001
1.273440e+003, 1.196236e+001
1.273922e+003, 1.173890e+001
1.274405e+003, 1.171492e+001
1.274887e+003, 1.184391e+001
1.275369e+003, 1.217911e+001
1.275851e+003, 1.259033e+001
1.276333e+003, 1.269057e+001
1.276815e+003, 1.253336e+001
1.277297e+003, 1.234981e+001
1.277779e+003, 1.217225e+001
1.278261e+003, 1.215526e+001
1.278744e+003, 1.260503e+001
1.279226e+003, 1.294516e+001
1.279708e+003, 1.292770e+001
1.280190e+003, 1.273788e+001
1.280672e+003, 1.275016e+001
1.281154e+003, 1.287779e+001
1.281636e+003, 1.290156e+001
1.282118e+003, 1.279108e+001
1.282600e+003, 1.261625e+001
1.283083e+003, 1.225103e+001
1.283565e+003, 1.210168e+001
1.284047e+003, 1.232318e+001
1.284529e+003, 1.264934e+001
1.285011e+003, 1.271780e+001
1.285493e+003, 1.263069e+001
1.285975e+003, 1.250423e+001
1.286457e+003, 1.236032e+001
1.286939e+003, 1.231781e+001
1.287422e+003, 1.243627e+001
1.287904e+003, 1.246592e+001
1.288386e+003, 1.235002e+001
1.288868e+003, 1.218037e+001
1.289350e+003, 1.191424e+001
1.289832e+003, 1.175650e+001
1.290314e+003, 1.205020e+001
1.290796e+003, 1.266611e+001
1.291279e+003, 1.292037e+001
1.291761e+003, 1.277775e+001
1.292243e+003, 1.264579e+001
1.292725e+003, 1.258564e+001
1.293207e+003, 1.246233e+001
1.293689e+003, 1.199082e+001
1.294171e+003, 1.159646e+001
1.294653e+003, 1.167402e+001
1.295135e+003, 1.197665e+001
1.295618e+003, 1.209280e+001
1.296100e+003, 1.204546e+001
1.296582e+003, 1.208207e+001
1.297064e+003, 1.221911e+001
1.297546e+003, 1.228941e+001
1.298028e+003, 1.210663e+001
1.298510e+003, 1.194884e+001
1.298992e+003, 1.188571e+001
1.299475e+003, 1.191160e+001
1.299957e+003, 1.210009e+001
1.300439e+003, 1.235630e+001
1.300921e+003, 1.236043e+001
1.301403e+003, 1.213923e+001
1.301885e+003, 1.195636e+001
##END=



