##NAMES=Larderellite
##RRUFFID=R130392
##IDEAL CHEMISTRY=N^3-^H_4_B_5_O_7_(OH)_2_&#183;H_2_O
##LOCALITY=Larderello Lagoon, Tuscany, Italy
##OWNER=RRUFF
##SOURCE=Bob Jenkins (capsule), Rock Currier (rock piece)
##DESCRIPTION=Soft, vitreous, opaque white botryoidal crust, in part altered on surface to off-white tiny granules of ammonioborite
##STATUS=The identification of this mineral has been confirmed by single-crystal X-ray diffraction.
##URL=rruff.info/R130392
8.984375e+001, 3.560284e+002
9.032587e+001, 3.579671e+002
9.080798e+001, 3.584626e+002
9.129010e+001, 3.573395e+002
9.177222e+001, 3.549625e+002
9.225433e+001, 3.512901e+002
9.273645e+001, 3.464222e+002
9.321857e+001, 3.415866e+002
9.370068e+001, 3.383700e+002
9.418280e+001, 3.361741e+002
9.466492e+001, 3.330432e+002
9.514703e+001, 3.276176e+002
9.562915e+001, 3.209567e+002
9.611127e+001, 3.160486e+002
9.659338e+001, 3.131215e+002
9.707550e+001, 3.109682e+002
9.755762e+001, 3.081770e+002
9.803973e+001, 3.047234e+002
9.852185e+001, 3.012313e+002
9.900397e+001, 2.976085e+002
9.948608e+001, 2.938161e+002
9.996820e+001, 2.915403e+002
1.004503e+002, 2.913985e+002
1.009324e+002, 2.920360e+002
1.014146e+002, 2.904614e+002
1.018967e+002, 2.860542e+002
1.023788e+002, 2.811674e+002
1.028609e+002, 2.768447e+002
1.033430e+002, 2.730784e+002
1.038251e+002, 2.700861e+002
1.043073e+002, 2.682204e+002
1.047894e+002, 2.672072e+002
1.052715e+002, 2.656285e+002
1.057536e+002, 2.633232e+002
1.062357e+002, 2.606169e+002
1.067178e+002, 2.576245e+002
1.072000e+002, 2.537170e+002
1.076821e+002, 2.504972e+002
1.081642e+002, 2.486746e+002
1.086463e+002, 2.484453e+002
1.091284e+002, 2.468782e+002
1.096105e+002, 2.426581e+002
1.100927e+002, 2.376619e+002
1.105748e+002, 2.336804e+002
1.110569e+002, 2.309270e+002
1.115390e+002, 2.290133e+002
1.120211e+002, 2.282856e+002
1.125032e+002, 2.293617e+002
1.129854e+002, 2.293162e+002
1.134675e+002, 2.270698e+002
1.139496e+002, 2.236070e+002
1.144317e+002, 2.203157e+002
1.149138e+002, 2.169391e+002
1.153959e+002, 2.142569e+002
1.158781e+002, 2.128637e+002
1.163602e+002, 2.136995e+002
1.168423e+002, 2.139953e+002
1.173244e+002, 2.123917e+002
1.178065e+002, 2.094630e+002
1.182886e+002, 2.066707e+002
1.187708e+002, 2.047477e+002
1.192529e+002, 2.031423e+002
1.197350e+002, 2.014508e+002
1.202171e+002, 1.995275e+002
1.206992e+002, 1.975329e+002
1.211813e+002, 1.954680e+002
1.216635e+002, 1.933718e+002
1.221456e+002, 1.915146e+002
1.226277e+002, 1.904915e+002
1.231098e+002, 1.897110e+002
1.235919e+002, 1.883860e+002
1.240740e+002, 1.859155e+002
1.245562e+002, 1.829608e+002
1.250383e+002, 1.799105e+002
1.255204e+002, 1.767530e+002
1.260025e+002, 1.743022e+002
1.264846e+002, 1.739662e+002
1.269667e+002, 1.749756e+002
1.274489e+002, 1.754067e+002
1.279310e+002, 1.739019e+002
1.284131e+002, 1.713424e+002
1.288952e+002, 1.695004e+002
1.293773e+002, 1.685081e+002
1.298594e+002, 1.677949e+002
1.303416e+002, 1.666139e+002
1.308237e+002, 1.650356e+002
1.313058e+002, 1.634941e+002
1.317879e+002, 1.623172e+002
1.322700e+002, 1.614082e+002
1.327521e+002, 1.602311e+002
1.332343e+002, 1.586277e+002
1.337164e+002, 1.569434e+002
1.341985e+002, 1.558695e+002
1.346806e+002, 1.554541e+002
1.351627e+002, 1.550076e+002
1.356448e+002, 1.541086e+002
1.361270e+002, 1.527512e+002
1.366091e+002, 1.511465e+002
1.370912e+002, 1.491573e+002
1.375733e+002, 1.470223e+002
1.380554e+002, 1.455516e+002
1.385375e+002, 1.449663e+002
1.390197e+002, 1.443898e+002
1.395018e+002, 1.429352e+002
1.399839e+002, 1.402785e+002
1.404660e+002, 1.382375e+002
1.409481e+002, 1.372204e+002
1.414302e+002, 1.371625e+002
1.419124e+002, 1.372663e+002
1.423945e+002, 1.379098e+002
1.428766e+002, 1.382003e+002
1.433587e+002, 1.370310e+002
1.438408e+002, 1.334043e+002
1.443229e+002, 1.303926e+002
1.448051e+002, 1.288397e+002
1.452872e+002, 1.289734e+002
1.457693e+002, 1.287230e+002
1.462514e+002, 1.279291e+002
1.467335e+002, 1.268507e+002
1.472156e+002, 1.257857e+002
1.476978e+002, 1.246405e+002
1.481799e+002, 1.236427e+002
1.486620e+002, 1.229370e+002
1.491441e+002, 1.228411e+002
1.496262e+002, 1.221748e+002
1.501083e+002, 1.203377e+002
1.505905e+002, 1.180370e+002
1.510726e+002, 1.165098e+002
1.515547e+002, 1.166510e+002
1.520368e+002, 1.168052e+002
1.525189e+002, 1.164514e+002
1.530010e+002, 1.152259e+002
1.534832e+002, 1.141066e+002
1.539653e+002, 1.130108e+002
1.544474e+002, 1.120541e+002
1.549295e+002, 1.115140e+002
1.554116e+002, 1.122148e+002
1.558937e+002, 1.127682e+002
1.563759e+002, 1.124986e+002
1.568580e+002, 1.104673e+002
1.573401e+002, 1.087503e+002
1.578222e+002, 1.078945e+002
1.583043e+002, 1.077080e+002
1.587864e+002, 1.074833e+002
1.592686e+002, 1.069940e+002
1.597507e+002, 1.064267e+002
1.602328e+002, 1.059039e+002
1.607149e+002, 1.058044e+002
1.611970e+002, 1.054005e+002
1.616791e+002, 1.042153e+002
1.621613e+002, 1.023962e+002
1.626434e+002, 1.008028e+002
1.631255e+002, 9.968665e+001
1.636076e+002, 9.900697e+001
1.640897e+002, 9.872737e+001
1.645718e+002, 9.950761e+001
1.650540e+002, 1.001306e+002
1.655361e+002, 9.990260e+001
1.660182e+002, 9.884220e+001
1.665003e+002, 9.761153e+001
1.669824e+002, 9.620703e+001
1.674645e+002, 9.491827e+001
1.679467e+002, 9.411766e+001
1.684288e+002, 9.435938e+001
1.689109e+002, 9.484443e+001
1.693930e+002, 9.506841e+001
1.698751e+002, 9.501212e+001
1.703572e+002, 9.472746e+001
1.708394e+002, 9.398306e+001
1.713215e+002, 9.305399e+001
1.718036e+002, 9.241445e+001
1.722857e+002, 9.263095e+001
1.727678e+002, 9.304279e+001
1.732499e+002, 9.290463e+001
1.737321e+002, 9.209958e+001
1.742142e+002, 9.127304e+001
1.746963e+002, 9.116740e+001
1.751784e+002, 9.147173e+001
1.756605e+002, 9.144868e+001
1.761426e+002, 9.017488e+001
1.766248e+002, 8.853652e+001
1.771069e+002, 8.785229e+001
1.775890e+002, 8.837480e+001
1.780711e+002, 8.926661e+001
1.785532e+002, 8.964770e+001
1.790353e+002, 8.963894e+001
1.795175e+002, 8.965906e+001
1.799996e+002, 8.998299e+001
1.804817e+002, 9.049199e+001
1.809638e+002, 9.098080e+001
1.814459e+002, 9.144283e+001
1.819280e+002, 9.183598e+001
1.824102e+002, 9.214256e+001
1.828923e+002, 9.234876e+001
1.833744e+002, 9.240292e+001
1.838565e+002, 9.196658e+001
1.843386e+002, 9.132007e+001
1.848207e+002, 9.135291e+001
1.853029e+002, 9.233065e+001
1.857850e+002, 9.376098e+001
1.862671e+002, 9.511490e+001
1.867492e+002, 9.636132e+001
1.872313e+002, 9.703160e+001
1.877134e+002, 9.623779e+001
1.881956e+002, 9.438587e+001
1.886777e+002, 9.354477e+001
1.891598e+002, 9.430042e+001
1.896419e+002, 9.592304e+001
1.901240e+002, 9.686201e+001
1.906061e+002, 9.710339e+001
1.910883e+002, 9.717733e+001
1.915704e+002, 9.763854e+001
1.920525e+002, 9.840958e+001
1.925346e+002, 9.859032e+001
1.930167e+002, 9.776089e+001
1.934988e+002, 9.635697e+001
1.939810e+002, 9.553500e+001
1.944631e+002, 9.527503e+001
1.949452e+002, 9.546734e+001
1.954273e+002, 9.588429e+001
1.959094e+002, 9.651490e+001
1.963915e+002, 9.653418e+001
1.968737e+002, 9.556130e+001
1.973558e+002, 9.397437e+001
1.978379e+002, 9.313969e+001
1.983200e+002, 9.315690e+001
1.988021e+002, 9.344497e+001
1.992842e+002, 9.351465e+001
1.997664e+002, 9.336028e+001
2.002485e+002, 9.320750e+001
2.007306e+002, 9.311098e+001
2.012127e+002, 9.305656e+001
2.016948e+002, 9.296573e+001
2.021769e+002, 9.285120e+001
2.026591e+002, 9.267374e+001
2.031412e+002, 9.235479e+001
2.036233e+002, 9.186126e+001
2.041054e+002, 9.145930e+001
2.045875e+002, 9.117159e+001
2.050696e+002, 9.100875e+001
2.055518e+002, 9.117146e+001
2.060339e+002, 9.178249e+001
2.065160e+002, 9.243465e+001
2.069981e+002, 9.270515e+001
2.074802e+002, 9.254687e+001
2.079623e+002, 9.222604e+001
2.084445e+002, 9.175291e+001
2.089266e+002, 9.113479e+001
2.094087e+002, 9.064082e+001
2.098908e+002, 9.030046e+001
2.103729e+002, 9.001778e+001
2.108550e+002, 8.969104e+001
2.113372e+002, 8.931566e+001
2.118193e+002, 8.891970e+001
2.123014e+002, 8.848483e+001
2.127835e+002, 8.801370e+001
2.132656e+002, 8.763644e+001
2.137477e+002, 8.733213e+001
2.142298e+002, 8.714556e+001
2.147120e+002, 8.719140e+001
2.151941e+002, 8.761600e+001
2.156762e+002, 8.784781e+001
2.161583e+002, 8.762940e+001
2.166404e+002, 8.691496e+001
2.171225e+002, 8.671306e+001
2.176047e+002, 8.732848e+001
2.180868e+002, 8.809206e+001
2.185689e+002, 8.814769e+001
2.190510e+002, 8.719776e+001
2.195331e+002, 8.623064e+001
2.200152e+002, 8.539790e+001
2.204974e+002, 8.466614e+001
2.209795e+002, 8.447004e+001
2.214616e+002, 8.508500e+001
2.219437e+002, 8.594397e+001
2.224258e+002, 8.633141e+001
2.229079e+002, 8.605713e+001
2.233901e+002, 8.571571e+001
2.238722e+002, 8.544166e+001
2.243543e+002, 8.522695e+001
2.248364e+002, 8.512528e+001
2.253185e+002, 8.520893e+001
2.258006e+002, 8.533633e+001
2.262828e+002, 8.532439e+001
2.267649e+002, 8.511893e+001
2.272470e+002, 8.486887e+001
2.277291e+002, 8.456441e+001
2.282112e+002, 8.415703e+001
2.286933e+002, 8.405968e+001
2.291755e+002, 8.449504e+001
2.296576e+002, 8.504406e+001
2.301397e+002, 8.513338e+001
2.306218e+002, 8.452900e+001
2.311039e+002, 8.389715e+001
2.315860e+002, 8.341686e+001
2.320682e+002, 8.310719e+001
2.325503e+002, 8.277962e+001
2.330324e+002, 8.244125e+001
2.335145e+002, 8.208505e+001
2.339966e+002, 8.168943e+001
2.344787e+002, 8.121997e+001
2.349609e+002, 8.077400e+001
2.354430e+002, 8.031506e+001
2.359251e+002, 7.978544e+001
2.364072e+002, 7.969642e+001
2.368893e+002, 8.038236e+001
2.373714e+002, 8.123222e+001
2.378536e+002, 8.141788e+001
2.383357e+002, 8.041817e+001
2.388178e+002, 7.967381e+001
2.392999e+002, 7.964034e+001
2.397820e+002, 8.044564e+001
2.402641e+002, 8.097027e+001
2.407463e+002, 8.111204e+001
2.412284e+002, 8.105667e+001
2.417105e+002, 8.103260e+001
2.421926e+002, 8.109798e+001
2.426747e+002, 8.108562e+001
2.431568e+002, 8.094827e+001
2.436390e+002, 8.067452e+001
2.441211e+002, 8.033632e+001
2.446032e+002, 7.981419e+001
2.450853e+002, 7.932960e+001
2.455674e+002, 7.916969e+001
2.460495e+002, 7.953892e+001
2.465317e+002, 7.985873e+001
2.470138e+002, 8.000815e+001
2.474959e+002, 7.998052e+001
2.479780e+002, 7.986328e+001
2.484601e+002, 7.960451e+001
2.489422e+002, 7.931014e+001
2.494244e+002, 7.910983e+001
2.499065e+002, 7.908850e+001
2.503886e+002, 7.899053e+001
2.508707e+002, 7.869437e+001
2.513528e+002, 7.818224e+001
2.518349e+002, 7.795554e+001
2.523171e+002, 7.811853e+001
2.527992e+002, 7.845379e+001
2.532813e+002, 7.874644e+001
2.537634e+002, 7.896720e+001
2.542455e+002, 7.920374e+001
2.547276e+002, 7.950338e+001
2.552098e+002, 7.986936e+001
2.556919e+002, 8.007757e+001
2.561740e+002, 8.008059e+001
2.566561e+002, 7.998289e+001
2.571382e+002, 7.982295e+001
2.576204e+002, 7.942393e+001
2.581025e+002, 7.940669e+001
2.585846e+002, 8.003226e+001
2.590667e+002, 8.125764e+001
2.595488e+002, 8.205771e+001
2.600309e+002, 8.220087e+001
2.605131e+002, 8.223611e+001
2.609952e+002, 8.265825e+001
2.614773e+002, 8.360732e+001
2.619594e+002, 8.456714e+001
2.624415e+002, 8.547250e+001
2.629236e+002, 8.632677e+001
2.634058e+002, 8.699512e+001
2.638879e+002, 8.726192e+001
2.643700e+002, 8.772151e+001
2.648521e+002, 8.899181e+001
2.653342e+002, 9.139915e+001
2.658163e+002, 9.345261e+001
2.662985e+002, 9.477760e+001
2.667806e+002, 9.554175e+001
2.672627e+002, 9.680711e+001
2.677448e+002, 9.876418e+001
2.682269e+002, 1.008054e+002
2.687090e+002, 1.024586e+002
2.691912e+002, 1.036429e+002
2.696733e+002, 1.048167e+002
2.701554e+002, 1.059321e+002
2.706375e+002, 1.071032e+002
2.711196e+002, 1.087999e+002
2.716017e+002, 1.111311e+002
2.720839e+002, 1.136749e+002
2.725660e+002, 1.160442e+002
2.730481e+002, 1.181699e+002
2.735302e+002, 1.206414e+002
2.740123e+002, 1.235786e+002
2.744944e+002, 1.268828e+002
2.749766e+002, 1.302800e+002
2.754587e+002, 1.337165e+002
2.759408e+002, 1.374270e+002
2.764229e+002, 1.415144e+002
2.769050e+002, 1.460166e+002
2.773871e+002, 1.506524e+002
2.778693e+002, 1.554188e+002
2.783514e+002, 1.602921e+002
2.788335e+002, 1.652620e+002
2.793156e+002, 1.704143e+002
2.797977e+002, 1.754335e+002
2.802798e+002, 1.805015e+002
2.807620e+002, 1.855859e+002
2.812441e+002, 1.892113e+002
2.817262e+002, 1.912126e+002
2.822083e+002, 1.919005e+002
2.826904e+002, 1.918757e+002
2.831725e+002, 1.911689e+002
2.836547e+002, 1.893101e+002
2.841368e+002, 1.858717e+002
2.846189e+002, 1.809631e+002
2.851010e+002, 1.754333e+002
2.855831e+002, 1.692323e+002
2.860652e+002, 1.626078e+002
2.865474e+002, 1.556742e+002
2.870295e+002, 1.484465e+002
2.875116e+002, 1.416504e+002
2.879937e+002, 1.356264e+002
2.884758e+002, 1.302709e+002
2.889579e+002, 1.253032e+002
2.894401e+002, 1.206482e+002
2.899222e+002, 1.164722e+002
2.904043e+002, 1.130804e+002
2.908864e+002, 1.104165e+002
2.913685e+002, 1.080200e+002
2.918506e+002, 1.057241e+002
2.923328e+002, 1.035723e+002
2.928149e+002, 1.018239e+002
2.932970e+002, 1.004886e+002
2.937791e+002, 9.930995e+001
2.942612e+002, 9.797868e+001
2.947433e+002, 9.656929e+001
2.952255e+002, 9.540349e+001
2.957076e+002, 9.463684e+001
2.961897e+002, 9.415965e+001
2.966718e+002, 9.379659e+001
2.971539e+002, 9.354819e+001
2.976360e+002, 9.340828e+001
2.981182e+002, 9.340311e+001
2.986003e+002, 9.350484e+001
2.990824e+002, 9.364808e+001
2.995645e+002, 9.383228e+001
3.000466e+002, 9.403181e+001
3.005287e+002, 9.418630e+001
3.010109e+002, 9.430714e+001
3.014930e+002, 9.448292e+001
3.019751e+002, 9.478807e+001
3.024572e+002, 9.518909e+001
3.029393e+002, 9.562029e+001
3.034214e+002, 9.606515e+001
3.039036e+002, 9.655199e+001
3.043857e+002, 9.711195e+001
3.048678e+002, 9.773924e+001
3.053499e+002, 9.842638e+001
3.058320e+002, 9.929149e+001
3.063141e+002, 1.001628e+002
3.067963e+002, 1.007591e+002
3.072784e+002, 1.009353e+002
3.077605e+002, 1.011491e+002
3.082426e+002, 1.018656e+002
3.087247e+002, 1.029215e+002
3.092068e+002, 1.039258e+002
3.096890e+002, 1.047563e+002
3.101711e+002, 1.054025e+002
3.106532e+002, 1.058175e+002
3.111353e+002, 1.059713e+002
3.116174e+002, 1.060163e+002
3.120995e+002, 1.061090e+002
3.125817e+002, 1.061445e+002
3.130638e+002, 1.059584e+002
3.135459e+002, 1.054394e+002
3.140280e+002, 1.047081e+002
3.145101e+002, 1.038307e+002
3.149922e+002, 1.028179e+002
3.154744e+002, 1.016531e+002
3.159565e+002, 1.002461e+002
3.164386e+002, 9.871654e+001
3.169207e+002, 9.721945e+001
3.174028e+002, 9.590401e+001
3.178849e+002, 9.452634e+001
3.183671e+002, 9.294833e+001
3.188492e+002, 9.116763e+001
3.193313e+002, 8.943417e+001
3.198134e+002, 8.771608e+001
3.202955e+002, 8.612920e+001
3.207776e+002, 8.478410e+001
3.212598e+002, 8.397933e+001
3.217419e+002, 8.310693e+001
3.222240e+002, 8.193697e+001
3.227061e+002, 8.054118e+001
3.231882e+002, 7.930187e+001
3.236703e+002, 7.833301e+001
3.241525e+002, 7.750670e+001
3.246346e+002, 7.676335e+001
3.251167e+002, 7.608105e+001
3.255988e+002, 7.549202e+001
3.260809e+002, 7.507442e+001
3.265630e+002, 7.475998e+001
3.270452e+002, 7.435896e+001
3.275273e+002, 7.380532e+001
3.280094e+002, 7.321709e+001
3.284915e+002, 7.260509e+001
3.289736e+002, 7.185548e+001
3.294557e+002, 7.135448e+001
3.299379e+002, 7.126064e+001
3.304200e+002, 7.136455e+001
3.309021e+002, 7.133038e+001
3.313842e+002, 7.105303e+001
3.318663e+002, 7.077376e+001
3.323484e+002, 7.053836e+001
3.328306e+002, 7.034238e+001
3.333127e+002, 7.025145e+001
3.337948e+002, 7.034854e+001
3.342769e+002, 7.047539e+001
3.347590e+002, 7.043114e+001
3.352411e+002, 7.008365e+001
3.357233e+002, 6.987528e+001
3.362054e+002, 6.998933e+001
3.366875e+002, 7.038878e+001
3.371696e+002, 7.039673e+001
3.376517e+002, 6.986201e+001
3.381338e+002, 6.923064e+001
3.386159e+002, 6.884724e+001
3.390981e+002, 6.871947e+001
3.395802e+002, 6.881385e+001
3.400623e+002, 6.920632e+001
3.405444e+002, 6.978206e+001
3.410265e+002, 7.010686e+001
3.415086e+002, 7.013972e+001
3.419908e+002, 7.013694e+001
3.424729e+002, 7.021006e+001
3.429550e+002, 7.035787e+001
3.434371e+002, 7.077531e+001
3.439192e+002, 7.158878e+001
3.444013e+002, 7.246014e+001
3.448835e+002, 7.265224e+001
3.453656e+002, 7.217078e+001
3.458477e+002, 7.174409e+001
3.463298e+002, 7.175854e+001
3.468119e+002, 7.213651e+001
3.472940e+002, 7.258425e+001
3.477762e+002, 7.312132e+001
3.482583e+002, 7.361259e+001
3.487404e+002, 7.395300e+001
3.492225e+002, 7.412903e+001
3.497046e+002, 7.407522e+001
3.501867e+002, 7.366723e+001
3.506689e+002, 7.306079e+001
3.511510e+002, 7.249565e+001
3.516331e+002, 7.197405e+001
3.521152e+002, 7.149770e+001
3.525973e+002, 7.117390e+001
3.530794e+002, 7.088316e+001
3.535616e+002, 7.037809e+001
3.540437e+002, 6.944070e+001
3.545258e+002, 6.845793e+001
3.550079e+002, 6.777953e+001
3.554900e+002, 6.738525e+001
3.559721e+002, 6.716544e+001
3.564543e+002, 6.717573e+001
3.569364e+002, 6.726941e+001
3.574185e+002, 6.729465e+001
3.579006e+002, 6.721084e+001
3.583827e+002, 6.709433e+001
3.588648e+002, 6.699957e+001
3.593470e+002, 6.690620e+001
3.598291e+002, 6.677224e+001
3.603112e+002, 6.646230e+001
3.607933e+002, 6.619405e+001
3.612754e+002, 6.607240e+001
3.617575e+002, 6.610250e+001
3.622397e+002, 6.631400e+001
3.627218e+002, 6.699367e+001
3.632039e+002, 6.776207e+001
3.636860e+002, 6.819584e+001
3.641681e+002, 6.781602e+001
3.646502e+002, 6.744363e+001
3.651324e+002, 6.733196e+001
3.656145e+002, 6.747781e+001
3.660966e+002, 6.769635e+001
3.665787e+002, 6.790759e+001
3.670608e+002, 6.821329e+001
3.675429e+002, 6.867870e+001
3.680251e+002, 6.963074e+001
3.685072e+002, 7.036585e+001
3.689893e+002, 7.067623e+001
3.694714e+002, 7.070840e+001
3.699535e+002, 7.092965e+001
3.704356e+002, 7.140555e+001
3.709178e+002, 7.200500e+001
3.713999e+002, 7.268369e+001
3.718820e+002, 7.348411e+001
3.723641e+002, 7.427117e+001
3.728462e+002, 7.505819e+001
3.733283e+002, 7.581418e+001
3.738105e+002, 7.652995e+001
3.742926e+002, 7.730318e+001
3.747747e+002, 7.781461e+001
3.752568e+002, 7.795396e+001
3.757389e+002, 7.771727e+001
3.762210e+002, 7.734311e+001
3.767032e+002, 7.682021e+001
3.771853e+002, 7.617224e+001
3.776674e+002, 7.542284e+001
3.781495e+002, 7.457642e+001
3.786316e+002, 7.352692e+001
3.791137e+002, 7.215776e+001
3.795959e+002, 7.062452e+001
3.800780e+002, 6.936353e+001
3.805601e+002, 6.839320e+001
3.810422e+002, 6.756979e+001
3.815243e+002, 6.685983e+001
3.820064e+002, 6.623111e+001
3.824886e+002, 6.552114e+001
3.829707e+002, 6.468142e+001
3.834528e+002, 6.383463e+001
3.839349e+002, 6.310210e+001
3.844170e+002, 6.249018e+001
3.848991e+002, 6.202958e+001
3.853813e+002, 6.185066e+001
3.858634e+002, 6.178895e+001
3.863455e+002, 6.153474e+001
3.868276e+002, 6.107337e+001
3.873097e+002, 6.057658e+001
3.877918e+002, 6.020202e+001
3.882740e+002, 5.988729e+001
3.887561e+002, 5.951841e+001
3.892382e+002, 5.894999e+001
3.897203e+002, 5.841179e+001
3.902024e+002, 5.817223e+001
3.906845e+002, 5.816785e+001
3.911667e+002, 5.809418e+001
3.916488e+002, 5.772205e+001
3.921309e+002, 5.724012e+001
3.926130e+002, 5.680767e+001
3.930951e+002, 5.648806e+001
3.935772e+002, 5.616213e+001
3.940594e+002, 5.574224e+001
3.945415e+002, 5.528868e+001
3.950236e+002, 5.491312e+001
3.955057e+002, 5.454771e+001
3.959878e+002, 5.435672e+001
3.964699e+002, 5.451202e+001
3.969521e+002, 5.511585e+001
3.974342e+002, 5.546278e+001
3.979163e+002, 5.527985e+001
3.983984e+002, 5.487179e+001
3.988805e+002, 5.451661e+001
3.993626e+002, 5.428847e+001
3.998448e+002, 5.404955e+001
4.003269e+002, 5.376677e+001
4.008090e+002, 5.345021e+001
4.012911e+002, 5.317687e+001
4.017732e+002, 5.286052e+001
4.022553e+002, 5.268486e+001
4.027375e+002, 5.279986e+001
4.032196e+002, 5.345813e+001
4.037017e+002, 5.373952e+001
4.041838e+002, 5.345880e+001
4.046659e+002, 5.293010e+001
4.051480e+002, 5.283857e+001
4.056302e+002, 5.336720e+001
4.061123e+002, 5.364870e+001
4.065944e+002, 5.325161e+001
4.070765e+002, 5.221958e+001
4.075586e+002, 5.156085e+001
4.080407e+002, 5.131089e+001
4.085229e+002, 5.127839e+001
4.090050e+002, 5.130833e+001
4.094871e+002, 5.139713e+001
4.099692e+002, 5.150435e+001
4.104513e+002, 5.164029e+001
4.109334e+002, 5.176788e+001
4.114156e+002, 5.178653e+001
4.118977e+002, 5.170525e+001
4.123798e+002, 5.163385e+001
4.128619e+002, 5.170235e+001
4.133440e+002, 5.182242e+001
4.138261e+002, 5.178230e+001
4.143083e+002, 5.152161e+001
4.147904e+002, 5.128623e+001
4.152725e+002, 5.142312e+001
4.157546e+002, 5.175959e+001
4.162367e+002, 5.194024e+001
4.167188e+002, 5.165423e+001
4.172010e+002, 5.125586e+001
4.176831e+002, 5.103556e+001
4.181652e+002, 5.098959e+001
4.186473e+002, 5.092753e+001
4.191294e+002, 5.066984e+001
4.196115e+002, 5.038853e+001
4.200937e+002, 5.024154e+001
4.205758e+002, 5.031291e+001
4.210579e+002, 5.045264e+001
4.215400e+002, 5.072726e+001
4.220221e+002, 5.103876e+001
4.225042e+002, 5.115306e+001
4.229864e+002, 5.070470e+001
4.234685e+002, 5.032096e+001
4.239506e+002, 5.028265e+001
4.244327e+002, 5.074855e+001
4.249148e+002, 5.108242e+001
4.253969e+002, 5.129134e+001
4.258791e+002, 5.134437e+001
4.263612e+002, 5.118363e+001
4.268433e+002, 5.054039e+001
4.273254e+002, 5.012173e+001
4.278075e+002, 5.011917e+001
4.282896e+002, 5.045783e+001
4.287718e+002, 5.060658e+001
4.292539e+002, 5.052291e+001
4.297360e+002, 5.033204e+001
4.302181e+002, 5.006492e+001
4.307002e+002, 4.968743e+001
4.311823e+002, 4.947239e+001
4.316645e+002, 4.946452e+001
4.321466e+002, 4.956528e+001
4.326287e+002, 4.959187e+001
4.331108e+002, 4.954148e+001
4.335929e+002, 4.957597e+001
4.340750e+002, 4.982969e+001
4.345572e+002, 5.020722e+001
4.350393e+002, 5.036587e+001
4.355214e+002, 5.030183e+001
4.360035e+002, 5.018512e+001
4.364856e+002, 5.021349e+001
4.369677e+002, 5.030416e+001
4.374499e+002, 5.021032e+001
4.379320e+002, 4.975811e+001
4.384141e+002, 4.934551e+001
4.388962e+002, 4.954095e+001
4.393783e+002, 5.015909e+001
4.398604e+002, 5.065664e+001
4.403426e+002, 5.063438e+001
4.408247e+002, 5.043346e+001
4.413068e+002, 5.032085e+001
4.417889e+002, 5.032237e+001
4.422710e+002, 5.038070e+001
4.427531e+002, 5.053245e+001
4.432353e+002, 5.069930e+001
4.437174e+002, 5.079997e+001
4.441995e+002, 5.063894e+001
4.446816e+002, 5.059034e+001
4.451637e+002, 5.082924e+001
4.456458e+002, 5.129055e+001
4.461280e+002, 5.168214e+001
4.466101e+002, 5.188738e+001
4.470922e+002, 5.207562e+001
4.475743e+002, 5.237292e+001
4.480564e+002, 5.300723e+001
4.485385e+002, 5.314442e+001
4.490207e+002, 5.235114e+001
4.495028e+002, 5.133276e+001
4.499849e+002, 5.105058e+001
4.504670e+002, 5.183039e+001
4.509491e+002, 5.261677e+001
4.514312e+002, 5.320784e+001
4.519134e+002, 5.361741e+001
4.523955e+002, 5.388866e+001
4.528776e+002, 5.397975e+001
4.533597e+002, 5.406322e+001
4.538418e+002, 5.420304e+001
4.543239e+002, 5.440200e+001
4.548061e+002, 5.489639e+001
4.552882e+002, 5.577876e+001
4.557703e+002, 5.675891e+001
4.562524e+002, 5.734993e+001
4.567345e+002, 5.760781e+001
4.572166e+002, 5.785292e+001
4.576988e+002, 5.828680e+001
4.581809e+002, 5.877076e+001
4.586630e+002, 5.907540e+001
4.591451e+002, 5.920244e+001
4.596272e+002, 5.922985e+001
4.601093e+002, 5.912408e+001
4.605915e+002, 5.898431e+001
4.610736e+002, 5.895285e+001
4.615557e+002, 5.910951e+001
4.620378e+002, 5.927097e+001
4.625199e+002, 5.938102e+001
4.630020e+002, 5.940849e+001
4.634842e+002, 5.928915e+001
4.639663e+002, 5.875947e+001
4.644484e+002, 5.828419e+001
4.649305e+002, 5.809788e+001
4.654126e+002, 5.822180e+001
4.658947e+002, 5.844698e+001
4.663769e+002, 5.882561e+001
4.668590e+002, 5.923439e+001
4.673411e+002, 5.958161e+001
4.678232e+002, 5.968494e+001
4.683053e+002, 5.997542e+001
4.687874e+002, 6.059681e+001
4.692696e+002, 6.138680e+001
4.697517e+002, 6.196645e+001
4.702338e+002, 6.235756e+001
4.707159e+002, 6.248346e+001
4.711980e+002, 6.228470e+001
4.716801e+002, 6.175178e+001
4.721623e+002, 6.110644e+001
4.726444e+002, 6.032845e+001
4.731265e+002, 5.951484e+001
4.736086e+002, 5.874937e+001
4.740907e+002, 5.803265e+001
4.745728e+002, 5.740191e+001
4.750550e+002, 5.684734e+001
4.755371e+002, 5.640701e+001
4.760192e+002, 5.617852e+001
4.765013e+002, 5.614656e+001
4.769834e+002, 5.619758e+001
4.774655e+002, 5.621597e+001
4.779477e+002, 5.629369e+001
4.784298e+002, 5.662901e+001
4.789119e+002, 5.723564e+001
4.793940e+002, 5.787313e+001
4.798761e+002, 5.828918e+001
4.803582e+002, 5.864294e+001
4.808404e+002, 5.914707e+001
4.813225e+002, 5.991583e+001
4.818046e+002, 6.078158e+001
4.822867e+002, 6.173770e+001
4.827688e+002, 6.273145e+001
4.832509e+002, 6.362589e+001
4.837331e+002, 6.408208e+001
4.842152e+002, 6.468680e+001
4.846973e+002, 6.573476e+001
4.851794e+002, 6.732827e+001
4.856615e+002, 6.896014e+001
4.861436e+002, 7.063840e+001
4.866258e+002, 7.230652e+001
4.871079e+002, 7.392033e+001
4.875900e+002, 7.532906e+001
4.880721e+002, 7.696883e+001
4.885542e+002, 7.892686e+001
4.890363e+002, 8.112070e+001
4.895185e+002, 8.326181e+001
4.900006e+002, 8.523808e+001
4.904827e+002, 8.745442e+001
4.909648e+002, 9.005801e+001
4.914469e+002, 9.305018e+001
4.919290e+002, 9.633420e+001
4.924112e+002, 9.991685e+001
4.928933e+002, 1.036814e+002
4.933754e+002, 1.076416e+002
4.938575e+002, 1.117250e+002
4.943396e+002, 1.155619e+002
4.948217e+002, 1.190570e+002
4.953039e+002, 1.222352e+002
4.957860e+002, 1.253517e+002
4.962681e+002, 1.282003e+002
4.967502e+002, 1.300658e+002
4.972323e+002, 1.308239e+002
4.977144e+002, 1.302794e+002
4.981966e+002, 1.281137e+002
4.986787e+002, 1.242947e+002
4.991608e+002, 1.195750e+002
4.996429e+002, 1.137688e+002
5.001250e+002, 1.075265e+002
5.006071e+002, 1.012397e+002
5.010893e+002, 9.465531e+001
5.015714e+002, 8.861962e+001
5.020535e+002, 8.323595e+001
5.025356e+002, 7.850016e+001
5.030177e+002, 7.436648e+001
5.034998e+002, 7.091582e+001
5.039820e+002, 6.790574e+001
5.044641e+002, 6.534585e+001
5.049462e+002, 6.324104e+001
5.054283e+002, 6.136522e+001
5.059104e+002, 5.977182e+001
5.063925e+002, 5.834808e+001
5.068747e+002, 5.702551e+001
5.073568e+002, 5.581656e+001
5.078389e+002, 5.461583e+001
5.083210e+002, 5.336330e+001
5.088031e+002, 5.224135e+001
5.092852e+002, 5.169575e+001
5.097674e+002, 5.168999e+001
5.102495e+002, 5.162273e+001
5.107316e+002, 5.119767e+001
5.112137e+002, 5.056455e+001
5.116958e+002, 4.999490e+001
5.121780e+002, 4.949622e+001
5.126601e+002, 4.911007e+001
5.131422e+002, 4.890182e+001
5.136243e+002, 4.881141e+001
5.141064e+002, 4.882743e+001
5.145886e+002, 4.903625e+001
5.150707e+002, 4.902526e+001
5.155528e+002, 4.823350e+001
5.160349e+002, 4.713926e+001
5.165170e+002, 4.642125e+001
5.169991e+002, 4.665408e+001
5.174813e+002, 4.693416e+001
5.179634e+002, 4.694772e+001
5.184455e+002, 4.672630e+001
5.189276e+002, 4.657734e+001
5.194097e+002, 4.671039e+001
5.198918e+002, 4.676703e+001
5.203740e+002, 4.653178e+001
5.208561e+002, 4.575937e+001
5.213382e+002, 4.554259e+001
5.218203e+002, 4.617150e+001
5.223024e+002, 4.701930e+001
5.227845e+002, 4.731153e+001
5.232667e+002, 4.692606e+001
5.237488e+002, 4.667959e+001
5.242309e+002, 4.678337e+001
5.247130e+002, 4.707708e+001
5.251951e+002, 4.713148e+001
5.256772e+002, 4.695208e+001
5.261594e+002, 4.679569e+001
5.266415e+002, 4.685548e+001
5.271236e+002, 4.703350e+001
5.276057e+002, 4.713159e+001
5.280878e+002, 4.714437e+001
5.285699e+002, 4.705352e+001
5.290521e+002, 4.683197e+001
5.295342e+002, 4.650328e+001
5.300163e+002, 4.607491e+001
5.304984e+002, 4.545755e+001
5.309805e+002, 4.491774e+001
5.314626e+002, 4.468082e+001
5.319448e+002, 4.462256e+001
5.324269e+002, 4.450274e+001
5.329090e+002, 4.405886e+001
5.333911e+002, 4.372751e+001
5.338732e+002, 4.370998e+001
5.343553e+002, 4.402491e+001
5.348375e+002, 4.425367e+001
5.353196e+002, 4.440566e+001
5.358017e+002, 4.444674e+001
5.362838e+002, 4.433564e+001
5.367659e+002, 4.398201e+001
5.372480e+002, 4.372313e+001
5.377302e+002, 4.357016e+001
5.382123e+002, 4.349995e+001
5.386944e+002, 4.350463e+001
5.391765e+002, 4.359151e+001
5.396586e+002, 4.364886e+001
5.401407e+002, 4.363100e+001
5.406229e+002, 4.357874e+001
5.411050e+002, 4.361314e+001
5.415871e+002, 4.372315e+001
5.420692e+002, 4.379145e+001
5.425513e+002, 4.374689e+001
5.430334e+002, 4.361444e+001
5.435156e+002, 4.339351e+001
5.439977e+002, 4.307909e+001
5.444798e+002, 4.282629e+001
5.449619e+002, 4.269981e+001
5.454440e+002, 4.271543e+001
5.459261e+002, 4.290669e+001
5.464083e+002, 4.347862e+001
5.468904e+002, 4.394277e+001
5.473725e+002, 4.408619e+001
5.478546e+002, 4.400492e+001
5.483367e+002, 4.390940e+001
5.488188e+002, 4.386828e+001
5.493010e+002, 4.377022e+001
5.497831e+002, 4.354569e+001
5.502652e+002, 4.319788e+001
5.507473e+002, 4.298647e+001
5.512294e+002, 4.293006e+001
5.517115e+002, 4.297898e+001
5.521937e+002, 4.315173e+001
5.526758e+002, 4.347860e+001
5.531579e+002, 4.362203e+001
5.536400e+002, 4.353008e+001
5.541221e+002, 4.336169e+001
5.546042e+002, 4.330745e+001
5.550864e+002, 4.336106e+001
5.555685e+002, 4.350364e+001
5.560506e+002, 4.381518e+001
5.565327e+002, 4.409929e+001
5.570148e+002, 4.396730e+001
5.574969e+002, 4.353128e+001
5.579791e+002, 4.321320e+001
5.584612e+002, 4.336263e+001
5.589433e+002, 4.365619e+001
5.594254e+002, 4.384538e+001
5.599075e+002, 4.391225e+001
5.603896e+002, 4.393587e+001
5.608718e+002, 4.394159e+001
5.613539e+002, 4.392031e+001
5.618360e+002, 4.386152e+001
5.623181e+002, 4.368967e+001
5.628002e+002, 4.359601e+001
5.632823e+002, 4.364409e+001
5.637645e+002, 4.375238e+001
5.642466e+002, 4.379755e+001
5.647287e+002, 4.376283e+001
5.652108e+002, 4.370009e+001
5.656929e+002, 4.360105e+001
5.661750e+002, 4.348599e+001
5.666572e+002, 4.347863e+001
5.671393e+002, 4.360326e+001
5.676214e+002, 4.365698e+001
5.681035e+002, 4.344085e+001
5.685856e+002, 4.304480e+001
5.690677e+002, 4.279726e+001
5.695499e+002, 4.271175e+001
5.700320e+002, 4.275893e+001
5.705141e+002, 4.309288e+001
5.709962e+002, 4.349785e+001
5.714783e+002, 4.357293e+001
5.719604e+002, 4.302733e+001
5.724426e+002, 4.253745e+001
5.729247e+002, 4.260760e+001
5.734068e+002, 4.302254e+001
5.738889e+002, 4.339861e+001
5.743710e+002, 4.379779e+001
5.748531e+002, 4.394873e+001
5.753353e+002, 4.354136e+001
5.758174e+002, 4.264716e+001
5.762995e+002, 4.227057e+001
5.767816e+002, 4.292933e+001
5.772637e+002, 4.352460e+001
5.777458e+002, 4.349930e+001
5.782280e+002, 4.266136e+001
5.787101e+002, 4.225568e+001
5.791922e+002, 4.238774e+001
5.796743e+002, 4.271965e+001
5.801564e+002, 4.296593e+001
5.806385e+002, 4.312121e+001
5.811207e+002, 4.304264e+001
5.816028e+002, 4.262611e+001
5.820849e+002, 4.214528e+001
5.825670e+002, 4.207951e+001
5.830491e+002, 4.231184e+001
5.835313e+002, 4.246051e+001
5.840133e+002, 4.223641e+001
5.844954e+002, 4.192469e+001
5.849775e+002, 4.175800e+001
5.854597e+002, 4.172933e+001
5.859418e+002, 4.178840e+001
5.864239e+002, 4.204054e+001
5.869060e+002, 4.227362e+001
5.873881e+002, 4.230837e+001
5.878702e+002, 4.201072e+001
5.883524e+002, 4.197140e+001
5.888345e+002, 4.267753e+001
5.893166e+002, 4.339487e+001
5.897987e+002, 4.349549e+001
5.902808e+002, 4.254070e+001
5.907629e+002, 4.199946e+001
5.912451e+002, 4.210359e+001
5.917272e+002, 4.253773e+001
5.922093e+002, 4.270850e+001
5.926914e+002, 4.259970e+001
5.931735e+002, 4.246663e+001
5.936556e+002, 4.239336e+001
5.941378e+002, 4.235372e+001
5.946199e+002, 4.226027e+001
5.951020e+002, 4.212620e+001
5.955841e+002, 4.205216e+001
5.960662e+002, 4.220159e+001
5.965483e+002, 4.239588e+001
5.970305e+002, 4.238196e+001
5.975126e+002, 4.213108e+001
5.979947e+002, 4.194567e+001
5.984768e+002, 4.213651e+001
5.989589e+002, 4.238912e+001
5.994410e+002, 4.241950e+001
5.999232e+002, 4.195445e+001
6.004053e+002, 4.162640e+001
6.008874e+002, 4.161715e+001
6.013695e+002, 4.176746e+001
6.018516e+002, 4.187250e+001
6.023337e+002, 4.196522e+001
6.028159e+002, 4.192358e+001
6.032980e+002, 4.161400e+001
6.037801e+002, 4.118795e+001
6.042622e+002, 4.129813e+001
6.047443e+002, 4.201989e+001
6.052264e+002, 4.262456e+001
6.057086e+002, 4.259937e+001
6.061907e+002, 4.215473e+001
6.066728e+002, 4.205223e+001
6.071549e+002, 4.228541e+001
6.076370e+002, 4.256231e+001
6.081191e+002, 4.266565e+001
6.086013e+002, 4.266478e+001
6.090834e+002, 4.262739e+001
6.095655e+002, 4.254364e+001
6.100476e+002, 4.251616e+001
6.105297e+002, 4.262149e+001
6.110118e+002, 4.280509e+001
6.114940e+002, 4.300761e+001
6.119761e+002, 4.322890e+001
6.124582e+002, 4.345202e+001
6.129403e+002, 4.370731e+001
6.134224e+002, 4.396043e+001
6.139045e+002, 4.413594e+001
6.143867e+002, 4.420654e+001
6.148688e+002, 4.424282e+001
6.153509e+002, 4.421324e+001
6.158330e+002, 4.415986e+001
6.163151e+002, 4.440405e+001
6.167972e+002, 4.497411e+001
6.172794e+002, 4.554213e+001
6.177615e+002, 4.582546e+001
6.182436e+002, 4.593259e+001
6.187257e+002, 4.620166e+001
6.192078e+002, 4.665718e+001
6.196899e+002, 4.711276e+001
6.201721e+002, 4.745544e+001
6.206542e+002, 4.768782e+001
6.211363e+002, 4.779840e+001
6.216184e+002, 4.773482e+001
6.221005e+002, 4.766681e+001
6.225826e+002, 4.773010e+001
6.230648e+002, 4.781680e+001
6.235469e+002, 4.777600e+001
6.240290e+002, 4.745946e+001
6.245111e+002, 4.716516e+001
6.249932e+002, 4.697865e+001
6.254753e+002, 4.684303e+001
6.259575e+002, 4.656545e+001
6.264396e+002, 4.612001e+001
6.269217e+002, 4.559909e+001
6.274038e+002, 4.496239e+001
6.278859e+002, 4.426852e+001
6.283680e+002, 4.393593e+001
6.288502e+002, 4.397626e+001
6.293323e+002, 4.406016e+001
6.298144e+002, 4.390041e+001
6.302965e+002, 4.362099e+001
6.307786e+002, 4.347054e+001
6.312607e+002, 4.348000e+001
6.317429e+002, 4.351095e+001
6.322250e+002, 4.344083e+001
6.327071e+002, 4.334602e+001
6.331892e+002, 4.331747e+001
6.336713e+002, 4.346532e+001
6.341534e+002, 4.353060e+001
6.346356e+002, 4.335170e+001
6.351177e+002, 4.307507e+001
6.355998e+002, 4.293298e+001
6.360819e+002, 4.298871e+001
6.365640e+002, 4.308241e+001
6.370461e+002, 4.318732e+001
6.375283e+002, 4.331340e+001
6.380104e+002, 4.354409e+001
6.384925e+002, 4.392266e+001
6.389746e+002, 4.413659e+001
6.394567e+002, 4.392357e+001
6.399388e+002, 4.345932e+001
6.404210e+002, 4.339305e+001
6.409031e+002, 4.370306e+001
6.413852e+002, 4.401834e+001
6.418673e+002, 4.409307e+001
6.423494e+002, 4.401017e+001
6.428315e+002, 4.381724e+001
6.433137e+002, 4.350005e+001
6.437958e+002, 4.327605e+001
6.442779e+002, 4.329102e+001
6.447600e+002, 4.342474e+001
6.452421e+002, 4.358052e+001
6.457242e+002, 4.387987e+001
6.462064e+002, 4.396947e+001
6.466885e+002, 4.360970e+001
6.471706e+002, 4.317051e+001
6.476527e+002, 4.322605e+001
6.481348e+002, 4.403592e+001
6.486169e+002, 4.446977e+001
6.490991e+002, 4.420950e+001
6.495812e+002, 4.357104e+001
6.500633e+002, 4.331708e+001
6.505454e+002, 4.341920e+001
6.510275e+002, 4.349596e+001
6.515096e+002, 4.332923e+001
6.519918e+002, 4.305641e+001
6.524739e+002, 4.286732e+001
6.529560e+002, 4.276073e+001
6.534381e+002, 4.271698e+001
6.539202e+002, 4.282753e+001
6.544023e+002, 4.292128e+001
6.548845e+002, 4.284249e+001
6.553666e+002, 4.255578e+001
6.558487e+002, 4.235753e+001
6.563308e+002, 4.236126e+001
6.568129e+002, 4.243968e+001
6.572950e+002, 4.252240e+001
6.577772e+002, 4.262878e+001
6.582593e+002, 4.267731e+001
6.587414e+002, 4.263337e+001
6.592235e+002, 4.258755e+001
6.597056e+002, 4.267334e+001
6.601877e+002, 4.288625e+001
6.606699e+002, 4.302273e+001
6.611520e+002, 4.302969e+001
6.616341e+002, 4.298375e+001
6.621162e+002, 4.303307e+001
6.625983e+002, 4.311855e+001
6.630804e+002, 4.307835e+001
6.635626e+002, 4.267836e+001
6.640447e+002, 4.230388e+001
6.645268e+002, 4.229732e+001
6.650089e+002, 4.254228e+001
6.654910e+002, 4.269732e+001
6.659731e+002, 4.260591e+001
6.664553e+002, 4.245777e+001
6.669374e+002, 4.228670e+001
6.674195e+002, 4.209943e+001
6.679016e+002, 4.200048e+001
6.683837e+002, 4.202399e+001
6.688658e+002, 4.207179e+001
6.693480e+002, 4.209359e+001
6.698301e+002, 4.209029e+001
6.703122e+002, 4.211821e+001
6.707943e+002, 4.218289e+001
6.712764e+002, 4.223756e+001
6.717585e+002, 4.220226e+001
6.722407e+002, 4.213206e+001
6.727228e+002, 4.218556e+001
6.732049e+002, 4.241208e+001
6.736870e+002, 4.257786e+001
6.741691e+002, 4.246015e+001
6.746512e+002, 4.220348e+001
6.751334e+002, 4.196796e+001
6.756155e+002, 4.168373e+001
6.760976e+002, 4.158580e+001
6.765797e+002, 4.190673e+001
6.770618e+002, 4.238764e+001
6.775439e+002, 4.263829e+001
6.780261e+002, 4.255828e+001
6.785082e+002, 4.245115e+001
6.789903e+002, 4.234858e+001
6.794724e+002, 4.226525e+001
6.799545e+002, 4.226357e+001
6.804366e+002, 4.234534e+001
6.809188e+002, 4.237236e+001
6.814009e+002, 4.223707e+001
6.818830e+002, 4.204335e+001
6.823651e+002, 4.198534e+001
6.828472e+002, 4.204679e+001
6.833293e+002, 4.214842e+001
6.838115e+002, 4.227692e+001
6.842936e+002, 4.240305e+001
6.847757e+002, 4.249863e+001
6.852578e+002, 4.256161e+001
6.857399e+002, 4.264849e+001
6.862220e+002, 4.285159e+001
6.867042e+002, 4.301301e+001
6.871863e+002, 4.303305e+001
6.876684e+002, 4.285380e+001
6.881505e+002, 4.280165e+001
6.886326e+002, 4.293791e+001
6.891147e+002, 4.307387e+001
6.895969e+002, 4.301243e+001
6.900790e+002, 4.276791e+001
6.905611e+002, 4.257416e+001
6.910432e+002, 4.245522e+001
6.915253e+002, 4.238347e+001
6.920074e+002, 4.229884e+001
6.924896e+002, 4.224601e+001
6.929717e+002, 4.232835e+001
6.934538e+002, 4.265905e+001
6.939359e+002, 4.295897e+001
6.944180e+002, 4.304417e+001
6.949001e+002, 4.299894e+001
6.953823e+002, 4.295406e+001
6.958644e+002, 4.289779e+001
6.963465e+002, 4.290106e+001
6.968286e+002, 4.304907e+001
6.973107e+002, 4.324522e+001
6.977928e+002, 4.320050e+001
6.982750e+002, 4.283704e+001
6.987571e+002, 4.252928e+001
6.992392e+002, 4.240273e+001
6.997213e+002, 4.241412e+001
7.002034e+002, 4.245845e+001
7.006855e+002, 4.253090e+001
7.011677e+002, 4.258672e+001
7.016498e+002, 4.256187e+001
7.021319e+002, 4.252914e+001
7.026140e+002, 4.256332e+001
7.030961e+002, 4.266552e+001
7.035782e+002, 4.282204e+001
7.040604e+002, 4.305051e+001
7.045425e+002, 4.331218e+001
7.050246e+002, 4.361697e+001
7.055067e+002, 4.400013e+001
7.059888e+002, 4.419880e+001
7.064709e+002, 4.409852e+001
7.069531e+002, 4.395998e+001
7.074352e+002, 4.395837e+001
7.079173e+002, 4.410797e+001
7.083994e+002, 4.422296e+001
7.088815e+002, 4.429287e+001
7.093636e+002, 4.436557e+001
7.098458e+002, 4.443645e+001
7.103279e+002, 4.455299e+001
7.108100e+002, 4.487144e+001
7.112921e+002, 4.546059e+001
7.117742e+002, 4.606195e+001
7.122563e+002, 4.652091e+001
7.127385e+002, 4.686811e+001
7.132206e+002, 4.714140e+001
7.137027e+002, 4.736307e+001
7.141848e+002, 4.749117e+001
7.146669e+002, 4.733507e+001
7.151490e+002, 4.715382e+001
7.156312e+002, 4.733801e+001
7.161133e+002, 4.805575e+001
7.165954e+002, 4.866046e+001
7.170775e+002, 4.901395e+001
7.175596e+002, 4.922359e+001
7.180417e+002, 4.949753e+001
7.185239e+002, 4.983241e+001
7.190060e+002, 5.017968e+001
7.194881e+002, 5.054487e+001
7.199702e+002, 5.088390e+001
7.204523e+002, 5.113874e+001
7.209344e+002, 5.132185e+001
7.214166e+002, 5.147952e+001
7.218987e+002, 5.154668e+001
7.223808e+002, 5.167321e+001
7.228629e+002, 5.202046e+001
7.233450e+002, 5.254036e+001
7.238271e+002, 5.280351e+001
7.243093e+002, 5.256742e+001
7.247914e+002, 5.241499e+001
7.252735e+002, 5.260426e+001
7.257556e+002, 5.309723e+001
7.262377e+002, 5.339950e+001
7.267198e+002, 5.349788e+001
7.272020e+002, 5.355199e+001
7.276841e+002, 5.366243e+001
7.281662e+002, 5.380996e+001
7.286483e+002, 5.398027e+001
7.291304e+002, 5.416816e+001
7.296125e+002, 5.427040e+001
7.300947e+002, 5.412897e+001
7.305768e+002, 5.393187e+001
7.310589e+002, 5.383598e+001
7.315410e+002, 5.388005e+001
7.320231e+002, 5.392117e+001
7.325052e+002, 5.393962e+001
7.329874e+002, 5.394110e+001
7.334695e+002, 5.393599e+001
7.339516e+002, 5.394489e+001
7.344337e+002, 5.388557e+001
7.349158e+002, 5.378043e+001
7.353979e+002, 5.354292e+001
7.358801e+002, 5.290202e+001
7.363622e+002, 5.201393e+001
7.368443e+002, 5.161987e+001
7.373264e+002, 5.192327e+001
7.378085e+002, 5.227306e+001
7.382906e+002, 5.202305e+001
7.387728e+002, 5.146378e+001
7.392549e+002, 5.096968e+001
7.397370e+002, 5.065832e+001
7.402191e+002, 5.039201e+001
7.407012e+002, 5.019938e+001
7.411833e+002, 5.000359e+001
7.416655e+002, 4.967878e+001
7.421476e+002, 4.909356e+001
7.426297e+002, 4.870798e+001
7.431118e+002, 4.861139e+001
7.435939e+002, 4.869037e+001
7.440760e+002, 4.877349e+001
7.445582e+002, 4.885589e+001
7.450403e+002, 4.889082e+001
7.455224e+002, 4.882396e+001
7.460045e+002, 4.877195e+001
7.464866e+002, 4.894307e+001
7.469688e+002, 4.923440e+001
7.474509e+002, 4.942335e+001
7.479330e+002, 4.924661e+001
7.484151e+002, 4.913078e+001
7.488972e+002, 4.930626e+001
7.493793e+002, 4.968190e+001
7.498615e+002, 4.994234e+001
7.503436e+002, 5.004283e+001
7.508257e+002, 5.009853e+001
7.513078e+002, 5.011473e+001
7.517899e+002, 5.011620e+001
7.522720e+002, 5.017723e+001
7.527542e+002, 5.029818e+001
7.532363e+002, 5.050324e+001
7.537184e+002, 5.081459e+001
7.542005e+002, 5.120970e+001
7.546826e+002, 5.171714e+001
7.551647e+002, 5.229847e+001
7.556469e+002, 5.277148e+001
7.561290e+002, 5.292363e+001
7.566111e+002, 5.305641e+001
7.570932e+002, 5.340260e+001
7.575753e+002, 5.394028e+001
7.580574e+002, 5.423855e+001
7.585396e+002, 5.408779e+001
7.590217e+002, 5.397609e+001
7.595038e+002, 5.409444e+001
7.599859e+002, 5.442439e+001
7.604680e+002, 5.475983e+001
7.609501e+002, 5.509274e+001
7.614323e+002, 5.551096e+001
7.619144e+002, 5.608969e+001
7.623965e+002, 5.678686e+001
7.628786e+002, 5.750671e+001
7.633607e+002, 5.825133e+001
7.638428e+002, 5.912304e+001
7.643250e+002, 6.023977e+001
7.648071e+002, 6.145641e+001
7.652892e+002, 6.259800e+001
7.657713e+002, 6.361686e+001
7.662534e+002, 6.500527e+001
7.667355e+002, 6.691985e+001
7.672177e+002, 6.902078e+001
7.676998e+002, 7.115966e+001
7.681819e+002, 7.336398e+001
7.686640e+002, 7.534241e+001
7.691461e+002, 7.701712e+001
7.696282e+002, 7.893296e+001
7.701104e+002, 8.161342e+001
7.705925e+002, 8.483487e+001
7.710746e+002, 8.814317e+001
7.715567e+002, 9.148765e+001
7.720388e+002, 9.514007e+001
7.725209e+002, 9.929906e+001
7.730031e+002, 1.038092e+002
7.734852e+002, 1.085848e+002
7.739673e+002, 1.135905e+002
7.744494e+002, 1.189796e+002
7.749315e+002, 1.249436e+002
7.754136e+002, 1.310396e+002
7.758958e+002, 1.372022e+002
7.763779e+002, 1.435616e+002
7.768600e+002, 1.486056e+002
7.773421e+002, 1.523638e+002
7.778242e+002, 1.545063e+002
7.783063e+002, 1.549913e+002
7.787885e+002, 1.535555e+002
7.792706e+002, 1.493686e+002
7.797527e+002, 1.420774e+002
7.802348e+002, 1.337107e+002
7.807169e+002, 1.246475e+002
7.811990e+002, 1.156314e+002
7.816812e+002, 1.072832e+002
7.821633e+002, 9.964634e+001
7.826454e+002, 9.303640e+001
7.831275e+002, 8.752914e+001
7.836096e+002, 8.294604e+001
7.840917e+002, 7.940057e+001
7.845739e+002, 7.692679e+001
7.850560e+002, 7.406412e+001
7.855381e+002, 7.060905e+001
7.860202e+002, 6.724345e+001
7.865023e+002, 6.481466e+001
7.869844e+002, 6.299516e+001
7.874666e+002, 6.115865e+001
7.879487e+002, 5.909377e+001
7.884308e+002, 5.722107e+001
7.889129e+002, 5.565450e+001
7.893950e+002, 5.439392e+001
7.898771e+002, 5.344398e+001
7.903593e+002, 5.310857e+001
7.908414e+002, 5.250097e+001
7.913235e+002, 5.147939e+001
7.918056e+002, 5.037560e+001
7.922877e+002, 4.961987e+001
7.927698e+002, 4.918510e+001
7.932520e+002, 4.881799e+001
7.937341e+002, 4.848772e+001
7.942162e+002, 4.817258e+001
7.946983e+002, 4.781314e+001
7.951804e+002, 4.745811e+001
7.956625e+002, 4.721971e+001
7.961447e+002, 4.725578e+001
7.966268e+002, 4.709575e+001
7.971089e+002, 4.627092e+001
7.975910e+002, 4.531966e+001
7.980731e+002, 4.485125e+001
7.985552e+002, 4.509405e+001
7.990374e+002, 4.531018e+001
7.995195e+002, 4.551053e+001
8.000016e+002, 4.558870e+001
8.004837e+002, 4.529714e+001
8.009658e+002, 4.472206e+001
8.014479e+002, 4.439038e+001
8.019301e+002, 4.445300e+001
8.024122e+002, 4.455048e+001
8.028943e+002, 4.431491e+001
8.033764e+002, 4.391217e+001
8.038585e+002, 4.355012e+001
8.043406e+002, 4.325658e+001
8.048228e+002, 4.305153e+001
8.053049e+002, 4.300248e+001
8.057870e+002, 4.300493e+001
8.062691e+002, 4.294485e+001
8.067512e+002, 4.278283e+001
8.072333e+002, 4.272755e+001
8.077155e+002, 4.282323e+001
8.081976e+002, 4.295414e+001
8.086797e+002, 4.291154e+001
8.091618e+002, 4.278094e+001
8.096439e+002, 4.286048e+001
8.101260e+002, 4.328786e+001
8.106082e+002, 4.364061e+001
8.110903e+002, 4.350566e+001
8.115724e+002, 4.317314e+001
8.120545e+002, 4.296142e+001
8.125366e+002, 4.303280e+001
8.130187e+002, 4.306649e+001
8.135009e+002, 4.303967e+001
8.139830e+002, 4.297884e+001
8.144651e+002, 4.291444e+001
8.149472e+002, 4.284773e+001
8.154293e+002, 4.272483e+001
8.159114e+002, 4.251194e+001
8.163936e+002, 4.237539e+001
8.168757e+002, 4.263580e+001
8.173578e+002, 4.307103e+001
8.178399e+002, 4.328074e+001
8.183220e+002, 4.312935e+001
8.188041e+002, 4.292270e+001
8.192863e+002, 4.272812e+001
8.197684e+002, 4.259200e+001
8.202505e+002, 4.257564e+001
8.207326e+002, 4.278798e+001
8.212147e+002, 4.285288e+001
8.216968e+002, 4.270001e+001
8.221790e+002, 4.252490e+001
8.226611e+002, 4.257528e+001
8.231432e+002, 4.280733e+001
8.236253e+002, 4.292842e+001
8.241074e+002, 4.289780e+001
8.245895e+002, 4.284352e+001
8.250717e+002, 4.290863e+001
8.255538e+002, 4.300252e+001
8.260359e+002, 4.301470e+001
8.265180e+002, 4.290206e+001
8.270001e+002, 4.279496e+001
8.274822e+002, 4.272632e+001
8.279644e+002, 4.267194e+001
8.284465e+002, 4.261683e+001
8.289286e+002, 4.256154e+001
8.294107e+002, 4.250322e+001
8.298928e+002, 4.243557e+001
8.303749e+002, 4.239911e+001
8.308571e+002, 4.243739e+001
8.313392e+002, 4.253346e+001
8.318213e+002, 4.267394e+001
8.323034e+002, 4.285909e+001
8.327855e+002, 4.299945e+001
8.332676e+002, 4.310500e+001
8.337498e+002, 4.309361e+001
8.342319e+002, 4.283592e+001
8.347140e+002, 4.218723e+001
8.351961e+002, 4.188197e+001
8.356782e+002, 4.205006e+001
8.361603e+002, 4.234008e+001
8.366425e+002, 4.251578e+001
8.371246e+002, 4.259013e+001
8.376067e+002, 4.281366e+001
8.380888e+002, 4.318890e+001
8.385709e+002, 4.348635e+001
8.390530e+002, 4.350565e+001
8.395352e+002, 4.336901e+001
8.400173e+002, 4.318084e+001
8.404994e+002, 4.295064e+001
8.409815e+002, 4.273524e+001
8.414636e+002, 4.250858e+001
8.419457e+002, 4.234713e+001
8.424279e+002, 4.227372e+001
8.429100e+002, 4.228839e+001
8.433921e+002, 4.242610e+001
8.438742e+002, 4.271268e+001
8.443563e+002, 4.297850e+001
8.448384e+002, 4.313359e+001
8.453206e+002, 4.319168e+001
8.458027e+002, 4.314022e+001
8.462848e+002, 4.300218e+001
8.467669e+002, 4.290850e+001
8.472490e+002, 4.296806e+001
8.477311e+002, 4.306070e+001
8.482133e+002, 4.316473e+001
8.486954e+002, 4.325948e+001
8.491775e+002, 4.318647e+001
8.496596e+002, 4.278047e+001
8.501417e+002, 4.255238e+001
8.506238e+002, 4.276730e+001
8.511060e+002, 4.323683e+001
8.515881e+002, 4.327703e+001
8.520702e+002, 4.293449e+001
8.525523e+002, 4.259453e+001
8.530344e+002, 4.234234e+001
8.535165e+002, 4.227983e+001
8.539987e+002, 4.270284e+001
8.544808e+002, 4.338835e+001
8.549629e+002, 4.377157e+001
8.554450e+002, 4.334378e+001
8.559271e+002, 4.300602e+001
8.564092e+002, 4.296966e+001
8.568914e+002, 4.311877e+001
8.573735e+002, 4.320154e+001
8.578556e+002, 4.321579e+001
8.583377e+002, 4.317830e+001
8.588198e+002, 4.307632e+001
8.593019e+002, 4.296004e+001
8.597841e+002, 4.293619e+001
8.602662e+002, 4.295117e+001
8.607483e+002, 4.288441e+001
8.612304e+002, 4.254327e+001
8.617125e+002, 4.234190e+001
8.621946e+002, 4.254685e+001
8.626768e+002, 4.293896e+001
8.631589e+002, 4.320514e+001
8.636410e+002, 4.332215e+001
8.641231e+002, 4.337632e+001
8.646052e+002, 4.335953e+001
8.650873e+002, 4.332002e+001
8.655695e+002, 4.332399e+001
8.660516e+002, 4.335777e+001
8.665337e+002, 4.335764e+001
8.670158e+002, 4.328957e+001
8.674979e+002, 4.330161e+001
8.679800e+002, 4.355677e+001
8.684622e+002, 4.391048e+001
8.689443e+002, 4.423058e+001
8.694264e+002, 4.451122e+001
8.699085e+002, 4.472924e+001
8.703906e+002, 4.489082e+001
8.708727e+002, 4.498066e+001
8.713549e+002, 4.489909e+001
8.718370e+002, 4.468248e+001
8.723191e+002, 4.481771e+001
8.728012e+002, 4.533052e+001
8.732833e+002, 4.587645e+001
8.737654e+002, 4.618935e+001
8.742476e+002, 4.638425e+001
8.747297e+002, 4.655199e+001
8.752118e+002, 4.670195e+001
8.756939e+002, 4.688559e+001
8.761760e+002, 4.719291e+001
8.766581e+002, 4.744936e+001
8.771403e+002, 4.756865e+001
8.776224e+002, 4.756276e+001
8.781045e+002, 4.760928e+001
8.785866e+002, 4.771222e+001
8.790687e+002, 4.778176e+001
8.795508e+002, 4.776768e+001
8.800330e+002, 4.768566e+001
8.805151e+002, 4.756696e+001
8.809972e+002, 4.740245e+001
8.814793e+002, 4.715519e+001
8.819614e+002, 4.675119e+001
8.824435e+002, 4.632475e+001
8.829257e+002, 4.588421e+001
8.834078e+002, 4.546582e+001
8.838899e+002, 4.515080e+001
8.843720e+002, 4.494156e+001
8.848541e+002, 4.483489e+001
8.853362e+002, 4.486608e+001
8.858184e+002, 4.493901e+001
8.863005e+002, 4.490601e+001
8.867826e+002, 4.477727e+001
8.872647e+002, 4.457220e+001
8.877468e+002, 4.420032e+001
8.882289e+002, 4.390210e+001
8.887111e+002, 4.375820e+001
8.891932e+002, 4.376563e+001
8.896753e+002, 4.394248e+001
8.901574e+002, 4.443778e+001
8.906395e+002, 4.468019e+001
8.911216e+002, 4.457887e+001
8.916038e+002, 4.432276e+001
8.920859e+002, 4.407344e+001
8.925680e+002, 4.386191e+001
8.930501e+002, 4.381672e+001
8.935322e+002, 4.398282e+001
8.940143e+002, 4.413513e+001
8.944965e+002, 4.411513e+001
8.949786e+002, 4.401406e+001
8.954607e+002, 4.387498e+001
8.959428e+002, 4.363942e+001
8.964249e+002, 4.365562e+001
8.969070e+002, 4.403947e+001
8.973892e+002, 4.444163e+001
8.978713e+002, 4.459124e+001
8.983534e+002, 4.453997e+001
8.988355e+002, 4.461104e+001
8.993176e+002, 4.479485e+001
8.997997e+002, 4.491902e+001
9.002819e+002, 4.479531e+001
9.007640e+002, 4.462791e+001
9.012461e+002, 4.454156e+001
9.017282e+002, 4.454722e+001
9.022103e+002, 4.467433e+001
9.026924e+002, 4.503957e+001
9.031746e+002, 4.531739e+001
9.036567e+002, 4.537328e+001
9.041388e+002, 4.529775e+001
9.046209e+002, 4.542377e+001
9.051030e+002, 4.572182e+001
9.055851e+002, 4.592490e+001
9.060673e+002, 4.585143e+001
9.065494e+002, 4.573859e+001
9.070315e+002, 4.577170e+001
9.075136e+002, 4.592331e+001
9.079957e+002, 4.614687e+001
9.084778e+002, 4.655349e+001
9.089600e+002, 4.684612e+001
9.094421e+002, 4.689606e+001
9.099242e+002, 4.693240e+001
9.104063e+002, 4.735726e+001
9.108884e+002, 4.813697e+001
9.113705e+002, 4.864886e+001
9.118527e+002, 4.876573e+001
9.123348e+002, 4.883753e+001
9.128169e+002, 4.927806e+001
9.132990e+002, 4.982033e+001
9.137811e+002, 5.010436e+001
9.142632e+002, 4.994724e+001
9.147454e+002, 5.007826e+001
9.152275e+002, 5.078963e+001
9.157096e+002, 5.159090e+001
9.161917e+002, 5.216973e+001
9.166738e+002, 5.253280e+001
9.171559e+002, 5.315214e+001
9.176381e+002, 5.402467e+001
9.181202e+002, 5.492408e+001
9.186023e+002, 5.558969e+001
9.190844e+002, 5.627015e+001
9.195665e+002, 5.725577e+001
9.200486e+002, 5.851114e+001
9.205308e+002, 5.983031e+001
9.210129e+002, 6.123743e+001
9.214950e+002, 6.259166e+001
9.219771e+002, 6.378552e+001
9.224592e+002, 6.494066e+001
9.229413e+002, 6.644946e+001
9.234235e+002, 6.829498e+001
9.239056e+002, 7.027200e+001
9.243877e+002, 7.236708e+001
9.248698e+002, 7.446049e+001
9.253519e+002, 7.629088e+001
9.258340e+002, 7.808543e+001
9.263162e+002, 8.023695e+001
9.267983e+002, 8.298877e+001
9.272804e+002, 8.592989e+001
9.277625e+002, 8.915081e+001
9.282446e+002, 9.242570e+001
9.287267e+002, 9.544489e+001
9.292089e+002, 9.819485e+001
9.296910e+002, 1.012521e+002
9.301731e+002, 1.046616e+002
9.306552e+002, 1.080359e+002
9.311373e+002, 1.112996e+002
9.316194e+002, 1.141533e+002
9.321016e+002, 1.163305e+002
9.325837e+002, 1.177583e+002
9.330658e+002, 1.185581e+002
9.335479e+002, 1.184117e+002
9.340300e+002, 1.180101e+002
9.345121e+002, 1.176123e+002
9.349943e+002, 1.171787e+002
9.354764e+002, 1.163905e+002
9.359585e+002, 1.152484e+002
9.364406e+002, 1.142146e+002
9.369227e+002, 1.134809e+002
9.374048e+002, 1.129765e+002
9.378870e+002, 1.126989e+002
9.383691e+002, 1.125836e+002
9.388512e+002, 1.124894e+002
9.393333e+002, 1.123112e+002
9.398154e+002, 1.122398e+002
9.402975e+002, 1.122525e+002
9.407797e+002, 1.124310e+002
9.412618e+002, 1.130841e+002
9.417439e+002, 1.141467e+002
9.422260e+002, 1.146850e+002
9.427081e+002, 1.145162e+002
9.431902e+002, 1.139809e+002
9.436724e+002, 1.135139e+002
9.441545e+002, 1.128010e+002
9.446366e+002, 1.115445e+002
9.451187e+002, 1.097354e+002
9.456008e+002, 1.071328e+002
9.460829e+002, 1.035667e+002
9.465651e+002, 9.952312e+001
9.470472e+002, 9.511813e+001
9.475293e+002, 9.039204e+001
9.480114e+002, 8.616961e+001
9.484935e+002, 8.241691e+001
9.489756e+002, 7.895303e+001
9.494578e+002, 7.566902e+001
9.499399e+002, 7.262746e+001
9.504220e+002, 6.985789e+001
9.509041e+002, 6.736143e+001
9.513862e+002, 6.521523e+001
9.518683e+002, 6.347008e+001
9.523505e+002, 6.193406e+001
9.528326e+002, 6.063610e+001
9.533147e+002, 5.944960e+001
9.537968e+002, 5.804185e+001
9.542789e+002, 5.651381e+001
9.547610e+002, 5.533834e+001
9.552432e+002, 5.472434e+001
9.557253e+002, 5.418441e+001
9.562074e+002, 5.334775e+001
9.566895e+002, 5.242728e+001
9.571716e+002, 5.161977e+001
9.576537e+002, 5.093965e+001
9.581359e+002, 5.040216e+001
9.586180e+002, 5.007226e+001
9.591001e+002, 4.971193e+001
9.595822e+002, 4.905378e+001
9.600643e+002, 4.823578e+001
9.605464e+002, 4.771260e+001
9.610286e+002, 4.746213e+001
9.615107e+002, 4.726583e+001
9.619928e+002, 4.700824e+001
9.624749e+002, 4.675952e+001
9.629570e+002, 4.649092e+001
9.634391e+002, 4.626042e+001
9.639213e+002, 4.632261e+001
9.644034e+002, 4.682751e+001
9.648855e+002, 4.699127e+001
9.653676e+002, 4.653550e+001
9.658497e+002, 4.583429e+001
9.663318e+002, 4.538831e+001
9.668140e+002, 4.516465e+001
9.672961e+002, 4.514368e+001
9.677782e+002, 4.543684e+001
9.682603e+002, 4.560773e+001
9.687424e+002, 4.539117e+001
9.692245e+002, 4.506009e+001
9.697067e+002, 4.480578e+001
9.701888e+002, 4.462528e+001
9.706709e+002, 4.459898e+001
9.711530e+002, 4.474175e+001
9.716351e+002, 4.489592e+001
9.721172e+002, 4.500292e+001
9.725994e+002, 4.501008e+001
9.730815e+002, 4.477850e+001
9.735636e+002, 4.435397e+001
9.740457e+002, 4.400695e+001
9.745278e+002, 4.380111e+001
9.750099e+002, 4.372429e+001
9.754921e+002, 4.377562e+001
9.759742e+002, 4.394585e+001
9.764563e+002, 4.434339e+001
9.769384e+002, 4.493935e+001
9.774205e+002, 4.504552e+001
9.779026e+002, 4.433248e+001
9.783848e+002, 4.355805e+001
9.788669e+002, 4.346593e+001
9.793490e+002, 4.372022e+001
9.798311e+002, 4.393444e+001
9.803132e+002, 4.406852e+001
9.807953e+002, 4.404291e+001
9.812775e+002, 4.370952e+001
9.817596e+002, 4.347494e+001
9.822417e+002, 4.372499e+001
9.827238e+002, 4.434012e+001
9.832059e+002, 4.469404e+001
9.836880e+002, 4.479749e+001
9.841702e+002, 4.478664e+001
9.846523e+002, 4.464689e+001
9.851344e+002, 4.451167e+001
9.856165e+002, 4.445943e+001
9.860986e+002, 4.447905e+001
9.865807e+002, 4.450425e+001
9.870629e+002, 4.451247e+001
9.875450e+002, 4.460481e+001
9.880271e+002, 4.481806e+001
9.885092e+002, 4.508387e+001
9.889913e+002, 4.536921e+001
9.894734e+002, 4.561222e+001
9.899556e+002, 4.565734e+001
9.904377e+002, 4.542753e+001
9.909198e+002, 4.519113e+001
9.914019e+002, 4.499558e+001
9.918840e+002, 4.489185e+001
9.923661e+002, 4.493304e+001
9.928483e+002, 4.512453e+001
9.933304e+002, 4.527420e+001
9.938125e+002, 4.538658e+001
9.942946e+002, 4.537860e+001
9.947767e+002, 4.505153e+001
9.952589e+002, 4.468112e+001
9.957410e+002, 4.464550e+001
9.962231e+002, 4.484214e+001
9.967052e+002, 4.496920e+001
9.971873e+002, 4.490772e+001
9.976694e+002, 4.480126e+001
9.981516e+002, 4.463762e+001
9.986337e+002, 4.447388e+001
9.991158e+002, 4.442150e+001
9.995979e+002, 4.445798e+001
1.000080e+003, 4.440949e+001
1.000562e+003, 4.423735e+001
1.001044e+003, 4.409517e+001
1.001526e+003, 4.413552e+001
1.002008e+003, 4.423005e+001
1.002491e+003, 4.426540e+001
1.002973e+003, 4.422402e+001
1.003455e+003, 4.423710e+001
1.003937e+003, 4.432394e+001
1.004419e+003, 4.441358e+001
1.004901e+003, 4.452499e+001
1.005383e+003, 4.457470e+001
1.005865e+003, 4.423606e+001
1.006348e+003, 4.367746e+001
1.006830e+003, 4.337086e+001
1.007312e+003, 4.382505e+001
1.007794e+003, 4.418895e+001
1.008276e+003, 4.408442e+001
1.008758e+003, 4.383338e+001
1.009240e+003, 4.378024e+001
1.009722e+003, 4.394886e+001
1.010204e+003, 4.408993e+001
1.010687e+003, 4.419549e+001
1.011169e+003, 4.420928e+001
1.011651e+003, 4.397918e+001
1.012133e+003, 4.370254e+001
1.012615e+003, 4.362254e+001
1.013097e+003, 4.374255e+001
1.013579e+003, 4.377210e+001
1.014061e+003, 4.354104e+001
1.014544e+003, 4.343265e+001
1.015026e+003, 4.362145e+001
1.015508e+003, 4.394246e+001
1.015990e+003, 4.393325e+001
1.016472e+003, 4.368534e+001
1.016954e+003, 4.358267e+001
1.017436e+003, 4.378510e+001
1.017918e+003, 4.404881e+001
1.018400e+003, 4.440643e+001
1.018883e+003, 4.462722e+001
1.019365e+003, 4.441169e+001
1.019847e+003, 4.358258e+001
1.020329e+003, 4.325730e+001
1.020811e+003, 4.352000e+001
1.021293e+003, 4.382784e+001
1.021775e+003, 4.369810e+001
1.022257e+003, 4.341947e+001
1.022740e+003, 4.352805e+001
1.023222e+003, 4.391048e+001
1.023704e+003, 4.411019e+001
1.024186e+003, 4.380711e+001
1.024668e+003, 4.349067e+001
1.025150e+003, 4.320271e+001
1.025632e+003, 4.301260e+001
1.026114e+003, 4.310044e+001
1.026596e+003, 4.342733e+001
1.027079e+003, 4.366401e+001
1.027561e+003, 4.375898e+001
1.028043e+003, 4.375137e+001
1.028525e+003, 4.359272e+001
1.029007e+003, 4.340344e+001
1.029489e+003, 4.328332e+001
1.029971e+003, 4.324453e+001
1.030453e+003, 4.326541e+001
1.030936e+003, 4.339190e+001
1.031418e+003, 4.340055e+001
1.031900e+003, 4.305606e+001
1.032382e+003, 4.269226e+001
1.032864e+003, 4.318262e+001
1.033346e+003, 4.416962e+001
1.033828e+003, 4.479147e+001
1.034310e+003, 4.453953e+001
1.034792e+003, 4.419525e+001
1.035275e+003, 4.392090e+001
1.035757e+003, 4.365166e+001
1.036239e+003, 4.326182e+001
1.036721e+003, 4.275441e+001
1.037203e+003, 4.266063e+001
1.037685e+003, 4.299565e+001
1.038167e+003, 4.328955e+001
1.038649e+003, 4.309793e+001
1.039131e+003, 4.280952e+001
1.039614e+003, 4.273400e+001
1.040096e+003, 4.284736e+001
1.040578e+003, 4.294056e+001
1.041060e+003, 4.297517e+001
1.041542e+003, 4.307413e+001
1.042024e+003, 4.329725e+001
1.042506e+003, 4.351242e+001
1.042988e+003, 4.347899e+001
1.043471e+003, 4.329891e+001
1.043953e+003, 4.318647e+001
1.044435e+003, 4.318825e+001
1.044917e+003, 4.321284e+001
1.045399e+003, 4.321503e+001
1.045881e+003, 4.324577e+001
1.046363e+003, 4.337264e+001
1.046845e+003, 4.356139e+001
1.047328e+003, 4.344802e+001
1.047810e+003, 4.305861e+001
1.048292e+003, 4.285840e+001
1.048774e+003, 4.320231e+001
1.049256e+003, 4.362100e+001
1.049738e+003, 4.375977e+001
1.050220e+003, 4.371859e+001
1.050702e+003, 4.364471e+001
1.051184e+003, 4.348426e+001
1.051667e+003, 4.349101e+001
1.052149e+003, 4.372670e+001
1.052631e+003, 4.394271e+001
1.053113e+003, 4.377331e+001
1.053595e+003, 4.349070e+001
1.054077e+003, 4.375379e+001
1.054559e+003, 4.448558e+001
1.055041e+003, 4.500477e+001
1.055523e+003, 4.485704e+001
1.056006e+003, 4.466229e+001
1.056488e+003, 4.456368e+001
1.056970e+003, 4.455025e+001
1.057452e+003, 4.461784e+001
1.057934e+003, 4.475915e+001
1.058416e+003, 4.491075e+001
1.058898e+003, 4.506554e+001
1.059380e+003, 4.519966e+001
1.059863e+003, 4.530935e+001
1.060345e+003, 4.537564e+001
1.060827e+003, 4.531710e+001
1.061309e+003, 4.512364e+001
1.061791e+003, 4.529339e+001
1.062273e+003, 4.596187e+001
1.062755e+003, 4.632500e+001
1.063237e+003, 4.587642e+001
1.063719e+003, 4.513088e+001
1.064202e+003, 4.481117e+001
1.064684e+003, 4.480378e+001
1.065166e+003, 4.489755e+001
1.065648e+003, 4.508009e+001
1.066130e+003, 4.528645e+001
1.066612e+003, 4.559948e+001
1.067094e+003, 4.580518e+001
1.067576e+003, 4.565007e+001
1.068058e+003, 4.521621e+001
1.068541e+003, 4.500570e+001
1.069023e+003, 4.499955e+001
1.069505e+003, 4.498797e+001
1.069987e+003, 4.480918e+001
1.070469e+003, 4.463287e+001
1.070951e+003, 4.448610e+001
1.071433e+003, 4.442802e+001
1.071915e+003, 4.462809e+001
1.072398e+003, 4.513401e+001
1.072880e+003, 4.545588e+001
1.073362e+003, 4.551908e+001
1.073844e+003, 4.543623e+001
1.074326e+003, 4.520921e+001
1.074808e+003, 4.496900e+001
1.075290e+003, 4.484394e+001
1.075772e+003, 4.484940e+001
1.076255e+003, 4.498183e+001
1.076737e+003, 4.536541e+001
1.077219e+003, 4.554932e+001
1.077701e+003, 4.530640e+001
1.078183e+003, 4.490028e+001
1.078665e+003, 4.484045e+001
1.079147e+003, 4.502809e+001
1.079629e+003, 4.525683e+001
1.080111e+003, 4.552571e+001
1.080594e+003, 4.567140e+001
1.081076e+003, 4.546608e+001
1.081558e+003, 4.528358e+001
1.082040e+003, 4.534841e+001
1.082522e+003, 4.563773e+001
1.083004e+003, 4.595750e+001
1.083486e+003, 4.630042e+001
1.083968e+003, 4.657505e+001
1.084450e+003, 4.677995e+001
1.084932e+003, 4.684844e+001
1.085415e+003, 4.663517e+001
1.085897e+003, 4.629820e+001
1.086379e+003, 4.607986e+001
1.086861e+003, 4.599029e+001
1.087343e+003, 4.603630e+001
1.087825e+003, 4.624481e+001
1.088307e+003, 4.641466e+001
1.088789e+003, 4.629885e+001
1.089272e+003, 4.609322e+001
1.089754e+003, 4.606456e+001
1.090236e+003, 4.618096e+001
1.090718e+003, 4.620299e+001
1.091200e+003, 4.607705e+001
1.091682e+003, 4.585804e+001
1.092164e+003, 4.550536e+001
1.092646e+003, 4.515455e+001
1.093129e+003, 4.508683e+001
1.093611e+003, 4.517272e+001
1.094093e+003, 4.503729e+001
1.094575e+003, 4.460156e+001
1.095057e+003, 4.430361e+001
1.095539e+003, 4.456800e+001
1.096021e+003, 4.475882e+001
1.096503e+003, 4.454018e+001
1.096985e+003, 4.405806e+001
1.097468e+003, 4.387394e+001
1.097950e+003, 4.395948e+001
1.098432e+003, 4.410484e+001
1.098914e+003, 4.432252e+001
1.099396e+003, 4.436834e+001
1.099878e+003, 4.383181e+001
1.100360e+003, 4.319186e+001
1.100842e+003, 4.291814e+001
1.101324e+003, 4.303389e+001
1.101807e+003, 4.341170e+001
1.102289e+003, 4.410738e+001
1.102771e+003, 4.448543e+001
1.103253e+003, 4.391001e+001
1.103735e+003, 4.309739e+001
1.104217e+003, 4.285461e+001
1.104699e+003, 4.301049e+001
1.105181e+003, 4.325214e+001
1.105664e+003, 4.367610e+001
1.106146e+003, 4.386396e+001
1.106628e+003, 4.374434e+001
1.107110e+003, 4.355186e+001
1.107592e+003, 4.348081e+001
1.108074e+003, 4.349401e+001
1.108556e+003, 4.355714e+001
1.109038e+003, 4.364262e+001
1.109521e+003, 4.362576e+001
1.110003e+003, 4.317583e+001
1.110485e+003, 4.303225e+001
1.110967e+003, 4.354008e+001
1.111449e+003, 4.417868e+001
1.111931e+003, 4.404016e+001
1.112413e+003, 4.331971e+001
1.112895e+003, 4.292413e+001
1.113377e+003, 4.296127e+001
1.113859e+003, 4.306968e+001
1.114342e+003, 4.297373e+001
1.114824e+003, 4.295250e+001
1.115306e+003, 4.326513e+001
1.115788e+003, 4.374857e+001
1.116270e+003, 4.379739e+001
1.116752e+003, 4.342180e+001
1.117234e+003, 4.316175e+001
1.117716e+003, 4.316462e+001
1.118199e+003, 4.327003e+001
1.118681e+003, 4.344869e+001
1.119163e+003, 4.358310e+001
1.119645e+003, 4.353426e+001
1.120127e+003, 4.329109e+001
1.120609e+003, 4.305130e+001
1.121091e+003, 4.279672e+001
1.121573e+003, 4.266473e+001
1.122056e+003, 4.275179e+001
1.122538e+003, 4.292745e+001
1.123020e+003, 4.307842e+001
1.123502e+003, 4.318483e+001
1.123984e+003, 4.320510e+001
1.124466e+003, 4.304127e+001
1.124948e+003, 4.302214e+001
1.125430e+003, 4.320547e+001
1.125912e+003, 4.339562e+001
1.126395e+003, 4.349245e+001
1.126877e+003, 4.349003e+001
1.127359e+003, 4.327335e+001
1.127841e+003, 4.294660e+001
1.128323e+003, 4.280189e+001
1.128805e+003, 4.323878e+001
1.129287e+003, 4.342535e+001
1.129769e+003, 4.309530e+001
1.130251e+003, 4.273438e+001
1.130734e+003, 4.293745e+001
1.131216e+003, 4.351545e+001
1.131698e+003, 4.369646e+001
1.132180e+003, 4.348392e+001
1.132662e+003, 4.314705e+001
1.133144e+003, 4.243562e+001
1.133626e+003, 4.212200e+001
1.134108e+003, 4.280125e+001
1.134591e+003, 4.376271e+001
1.135073e+003, 4.378986e+001
1.135555e+003, 4.298223e+001
1.136037e+003, 4.258419e+001
1.136519e+003, 4.274226e+001
1.137001e+003, 4.301403e+001
1.137483e+003, 4.317842e+001
1.137965e+003, 4.326074e+001
1.138448e+003, 4.325673e+001
1.138930e+003, 4.318657e+001
1.139412e+003, 4.308502e+001
1.139894e+003, 4.294897e+001
1.140376e+003, 4.283400e+001
1.140858e+003, 4.274307e+001
1.141340e+003, 4.272482e+001
1.141822e+003, 4.287826e+001
1.142304e+003, 4.308609e+001
1.142786e+003, 4.326424e+001
1.143269e+003, 4.340039e+001
1.143751e+003, 4.342264e+001
1.144233e+003, 4.330694e+001
1.144715e+003, 4.321664e+001
1.145197e+003, 4.324081e+001
1.145679e+003, 4.323614e+001
1.146161e+003, 4.287638e+001
1.146643e+003, 4.244494e+001
1.147126e+003, 4.235762e+001
1.147608e+003, 4.283449e+001
1.148090e+003, 4.304548e+001
1.148572e+003, 4.290436e+001
1.149054e+003, 4.272712e+001
1.149536e+003, 4.267147e+001
1.150018e+003, 4.266938e+001
1.150500e+003, 4.259389e+001
1.150983e+003, 4.248264e+001
1.151465e+003, 4.240662e+001
1.151947e+003, 4.236776e+001
1.152429e+003, 4.242548e+001
1.152911e+003, 4.264712e+001
1.153393e+003, 4.282439e+001
1.153875e+003, 4.272908e+001
1.154357e+003, 4.251307e+001
1.154839e+003, 4.262568e+001
1.155322e+003, 4.298224e+001
1.155804e+003, 4.330675e+001
1.156286e+003, 4.362012e+001
1.156768e+003, 4.367889e+001
1.157250e+003, 4.331483e+001
1.157732e+003, 4.291920e+001
1.158214e+003, 4.292795e+001
1.158696e+003, 4.321805e+001
1.159178e+003, 4.320295e+001
1.159661e+003, 4.293031e+001
1.160143e+003, 4.276690e+001
1.160625e+003, 4.310220e+001
1.161107e+003, 4.330352e+001
1.161589e+003, 4.308775e+001
1.162071e+003, 4.274249e+001
1.162553e+003, 4.265717e+001
1.163035e+003, 4.278633e+001
1.163518e+003, 4.273120e+001
1.164000e+003, 4.248506e+001
1.164482e+003, 4.244194e+001
1.164964e+003, 4.320387e+001
1.165446e+003, 4.382225e+001
1.165928e+003, 4.376421e+001
1.166410e+003, 4.331672e+001
1.166892e+003, 4.294840e+001
1.167375e+003, 4.265561e+001
1.167857e+003, 4.238002e+001
1.168339e+003, 4.210339e+001
1.168821e+003, 4.205657e+001
1.169303e+003, 4.268390e+001
1.169785e+003, 4.333177e+001
1.170267e+003, 4.355902e+001
1.170749e+003, 4.347411e+001
1.171231e+003, 4.331102e+001
1.171714e+003, 4.307022e+001
1.172196e+003, 4.307803e+001
1.172678e+003, 4.345381e+001
1.173160e+003, 4.373956e+001
1.173642e+003, 4.331790e+001
1.174124e+003, 4.283137e+001
1.174606e+003, 4.290916e+001
1.175088e+003, 4.343552e+001
1.175570e+003, 4.366620e+001
1.176053e+003, 4.358815e+001
1.176535e+003, 4.352110e+001
1.177017e+003, 4.357148e+001
1.177499e+003, 4.360414e+001
1.177981e+003, 4.340791e+001
1.178463e+003, 4.318670e+001
1.178945e+003, 4.317409e+001
1.179427e+003, 4.337779e+001
1.179910e+003, 4.346681e+001
1.180392e+003, 4.342912e+001
1.180874e+003, 4.339377e+001
1.181356e+003, 4.338717e+001
1.181838e+003, 4.345198e+001
1.182320e+003, 4.377381e+001
1.182802e+003, 4.411173e+001
1.183284e+003, 4.413576e+001
1.183766e+003, 4.376548e+001
1.184249e+003, 4.355442e+001
1.184731e+003, 4.352628e+001
1.185213e+003, 4.347474e+001
1.185695e+003, 4.323057e+001
1.186177e+003, 4.302873e+001
1.186659e+003, 4.320836e+001
1.187141e+003, 4.357992e+001
1.187623e+003, 4.388830e+001
1.188105e+003, 4.413209e+001
1.188588e+003, 4.415144e+001
1.189070e+003, 4.390164e+001
1.189552e+003, 4.368769e+001
1.190034e+003, 4.371801e+001
1.190516e+003, 4.384338e+001
1.190998e+003, 4.389799e+001
1.191480e+003, 4.390767e+001
1.191962e+003, 4.391060e+001
1.192445e+003, 4.387230e+001
1.192927e+003, 4.394993e+001
1.193409e+003, 4.416974e+001
1.193891e+003, 4.438372e+001
1.194373e+003, 4.446788e+001
1.194855e+003, 4.450500e+001
1.195337e+003, 4.459414e+001
1.195819e+003, 4.472254e+001
1.196302e+003, 4.486855e+001
1.196784e+003, 4.510646e+001
1.197266e+003, 4.513662e+001
1.197748e+003, 4.488503e+001
1.198230e+003, 4.471751e+001
1.198712e+003, 4.506812e+001
1.199194e+003, 4.557711e+001
1.199676e+003, 4.574162e+001
1.200158e+003, 4.565929e+001
1.200641e+003, 4.561179e+001
1.201123e+003, 4.568080e+001
1.201605e+003, 4.569182e+001
1.202087e+003, 4.561516e+001
1.202569e+003, 4.556647e+001
1.203051e+003, 4.565365e+001
1.203533e+003, 4.582889e+001
1.204015e+003, 4.613584e+001
1.204497e+003, 4.648253e+001
1.204980e+003, 4.653616e+001
1.205462e+003, 4.604113e+001
1.205944e+003, 4.580245e+001
1.206426e+003, 4.593827e+001
1.206908e+003, 4.613083e+001
1.207390e+003, 4.604831e+001
1.207872e+003, 4.584808e+001
1.208354e+003, 4.572618e+001
1.208837e+003, 4.567306e+001
1.209319e+003, 4.560033e+001
1.209801e+003, 4.547829e+001
1.210283e+003, 4.539201e+001
1.210765e+003, 4.536523e+001
1.211247e+003, 4.531659e+001
1.211729e+003, 4.505391e+001
1.212211e+003, 4.478948e+001
1.212693e+003, 4.488495e+001
1.213176e+003, 4.527141e+001
1.213658e+003, 4.543108e+001
1.214140e+003, 4.525711e+001
1.214622e+003, 4.506127e+001
1.215104e+003, 4.488343e+001
1.215586e+003, 4.471815e+001
1.216068e+003, 4.454170e+001
1.216550e+003, 4.438511e+001
1.217032e+003, 4.430431e+001
1.217515e+003, 4.428796e+001
1.217997e+003, 4.422077e+001
1.218479e+003, 4.404531e+001
1.218961e+003, 4.401922e+001
1.219443e+003, 4.422523e+001
1.219925e+003, 4.442064e+001
1.220407e+003, 4.409878e+001
1.220889e+003, 4.377718e+001
1.221372e+003, 4.428027e+001
1.221854e+003, 4.549740e+001
1.222336e+003, 4.592342e+001
1.222818e+003, 4.529620e+001
1.223300e+003, 4.473284e+001
1.223782e+003, 4.443763e+001
1.224264e+003, 4.430749e+001
1.224746e+003, 4.429095e+001
1.225229e+003, 4.433529e+001
1.225711e+003, 4.439425e+001
1.226193e+003, 4.446349e+001
1.226675e+003, 4.455920e+001
1.227157e+003, 4.471675e+001
1.227639e+003, 4.466560e+001
1.228121e+003, 4.429454e+001
1.228603e+003, 4.396415e+001
1.229085e+003, 4.420812e+001
1.229568e+003, 4.456485e+001
1.230050e+003, 4.454394e+001
1.230532e+003, 4.416386e+001
1.231014e+003, 4.393712e+001
1.231496e+003, 4.387516e+001
1.231978e+003, 4.381583e+001
1.232460e+003, 4.368199e+001
1.232942e+003, 4.374888e+001
1.233424e+003, 4.457463e+001
1.233907e+003, 4.548526e+001
1.234389e+003, 4.590856e+001
1.234871e+003, 4.586163e+001
1.235353e+003, 4.547556e+001
1.235835e+003, 4.472503e+001
1.236317e+003, 4.435155e+001
1.236799e+003, 4.460486e+001
1.237281e+003, 4.488420e+001
1.237764e+003, 4.453455e+001
1.238246e+003, 4.412982e+001
1.238728e+003, 4.424327e+001
1.239210e+003, 4.471037e+001
1.239692e+003, 4.475628e+001
1.240174e+003, 4.440258e+001
1.240656e+003, 4.426862e+001
1.241138e+003, 4.454284e+001
1.241620e+003, 4.480880e+001
1.242103e+003, 4.467826e+001
1.242585e+003, 4.450932e+001
1.243067e+003, 4.458416e+001
1.243549e+003, 4.480543e+001
1.244031e+003, 4.474683e+001
1.244513e+003, 4.445958e+001
1.244995e+003, 4.438070e+001
1.245477e+003, 4.463976e+001
1.245959e+003, 4.493182e+001
1.246442e+003, 4.519676e+001
1.246924e+003, 4.528711e+001
1.247406e+003, 4.504004e+001
1.247888e+003, 4.463711e+001
1.248370e+003, 4.474319e+001
1.248852e+003, 4.521616e+001
1.249334e+003, 4.541951e+001
1.249816e+003, 4.516592e+001
1.250299e+003, 4.493972e+001
1.250781e+003, 4.499149e+001
1.251263e+003, 4.510937e+001
1.251745e+003, 4.523573e+001
1.252227e+003, 4.534304e+001
1.252709e+003, 4.529604e+001
1.253191e+003, 4.517970e+001
1.253673e+003, 4.528859e+001
1.254156e+003, 4.572821e+001
1.254638e+003, 4.601298e+001
1.255120e+003, 4.583976e+001
1.255602e+003, 4.572919e+001
1.256084e+003, 4.591024e+001
1.256566e+003, 4.616569e+001
1.257048e+003, 4.593369e+001
1.257530e+003, 4.548320e+001
1.258012e+003, 4.543157e+001
1.258495e+003, 4.593767e+001
1.258977e+003, 4.623152e+001
1.259459e+003, 4.612217e+001
1.259941e+003, 4.598264e+001
1.260423e+003, 4.593637e+001
1.260905e+003, 4.590516e+001
1.261387e+003, 4.571501e+001
1.261869e+003, 4.548345e+001
1.262351e+003, 4.538620e+001
1.262834e+003, 4.545719e+001
1.263316e+003, 4.558429e+001
1.263798e+003, 4.581394e+001
1.264280e+003, 4.588974e+001
1.264762e+003, 4.570659e+001
1.265244e+003, 4.543478e+001
1.265726e+003, 4.518418e+001
1.266208e+003, 4.502303e+001
1.266691e+003, 4.507982e+001
1.267173e+003, 4.535734e+001
1.267655e+003, 4.550391e+001
1.268137e+003, 4.550725e+001
1.268619e+003, 4.549266e+001
1.269101e+003, 4.549975e+001
1.269583e+003, 4.546588e+001
1.270065e+003, 4.528633e+001
1.270547e+003, 4.507460e+001
1.271030e+003, 4.490568e+001
1.271512e+003, 4.479368e+001
1.271994e+003, 4.484711e+001
1.272476e+003, 4.506066e+001
1.272958e+003, 4.517605e+001
1.273440e+003, 4.512679e+001
1.273922e+003, 4.504765e+001
1.274404e+003, 4.506643e+001
1.274886e+003, 4.504728e+001
1.275369e+003, 4.484779e+001
1.275851e+003, 4.458500e+001
1.276333e+003, 4.467687e+001
1.276815e+003, 4.502496e+001
1.277297e+003, 4.505492e+001
1.277779e+003, 4.463184e+001
1.278261e+003, 4.434913e+001
1.278743e+003, 4.463697e+001
1.279226e+003, 4.499377e+001
1.279708e+003, 4.529374e+001
1.280190e+003, 4.548006e+001
1.280672e+003, 4.533293e+001
1.281154e+003, 4.501521e+001
1.281636e+003, 4.503002e+001
1.282118e+003, 4.544513e+001
1.282600e+003, 4.560079e+001
1.283083e+003, 4.511248e+001
1.283565e+003, 4.465184e+001
1.284047e+003, 4.431767e+001
1.284529e+003, 4.419240e+001
1.285011e+003, 4.457456e+001
1.285493e+003, 4.514758e+001
1.285975e+003, 4.538863e+001
1.286457e+003, 4.527415e+001
1.286939e+003, 4.525703e+001
1.287422e+003, 4.544874e+001
1.287904e+003, 4.548624e+001
1.288386e+003, 4.527883e+001
1.288868e+003, 4.500795e+001
1.289350e+003, 4.483320e+001
1.289832e+003, 4.472273e+001
1.290314e+003, 4.464714e+001
1.290796e+003, 4.461005e+001
1.291278e+003, 4.464184e+001
1.291761e+003, 4.475888e+001
1.292243e+003, 4.473182e+001
1.292725e+003, 4.451695e+001
1.293207e+003, 4.433405e+001
1.293689e+003, 4.428677e+001
1.294171e+003, 4.440485e+001
1.294653e+003, 4.493465e+001
1.295135e+003, 4.553027e+001
1.295618e+003, 4.552454e+001
1.296100e+003, 4.498579e+001
1.296582e+003, 4.454580e+001
1.297064e+003, 4.427014e+001
1.297546e+003, 4.412309e+001
1.298028e+003, 4.409834e+001
1.298510e+003, 4.418251e+001
1.298992e+003, 4.441650e+001
1.299474e+003, 4.467805e+001
1.299957e+003, 4.480931e+001
1.300439e+003, 4.483905e+001
1.300921e+003, 4.479121e+001
1.301403e+003, 4.470176e+001
1.301885e+003, 4.473274e+001
1.302367e+003, 4.486648e+001
##END=



