##NAMES=Larisaite
##RRUFFID=R060879
##IDEAL CHEMISTRY=Na(H_3_O)(U^6+^O_2_)_3_(Se^4+^O_3_)_2_O_2_&#183;4H_2_O
##LOCALITY=Repete mine, San Juan County, Utah, USA
##OWNER=RRUFF
##SOURCE=Michael Scott
##DESCRIPTION=Flattened aggregate of greenish yellow platy crystals
##STATUS=The identification of this mineral has been made only by X-ray diffraction.
##URL=rruff.info/R060879
203.0051, 245888.7
203.4873, 246032.7
203.9694, 246038.4
204.4515, 245880.2
204.9336, 245717.6
205.4157, 245622.2
205.8978, 245556.4
206.3800, 245479.4
206.8621, 245369.6
207.3442, 245265.2
207.8263, 245211.7
208.3084, 245210.6
208.7905, 245234.7
209.2727, 245254.5
209.7548, 245304.3
210.2369, 245434.6
210.7190, 245677.0
211.2011, 245941.9
211.6832, 246114.8
212.1654, 246186.5
212.6475, 246307.6
213.1296, 246614.1
213.6117, 246948.4
214.0938, 247112.1
214.5760, 247027.6
215.0581, 246958.1
215.5402, 247237.4
216.0223, 247865.6
216.5044, 248305.0
216.9865, 248274.5
217.4687, 248055.5
217.9508, 247955.8
218.4329, 248020.0
218.9150, 248104.7
219.3971, 248091.4
219.8792, 247989.1
220.3614, 247894.8
220.8435, 247838.1
221.3256, 247800.0
221.8077, 247767.3
222.2898, 247743.2
222.7719, 247690.5
223.2541, 247560.2
223.7362, 247367.7
224.2183, 247203.7
224.7004, 247086.9
225.1825, 247007.1
225.6646, 246965.6
226.1468, 246962.4
226.6289, 246927.1
227.1110, 246763.8
227.5931, 246525.7
228.0752, 246392.1
228.5573, 246399.3
229.0395, 246517.6
229.5216, 246746.5
230.0037, 247074.8
230.4858, 247377.5
230.9679, 247585.7
231.4500, 247729.8
231.9322, 247877.4
232.4143, 248041.5
232.8964, 248201.4
233.3785, 248338.5
233.8606, 248456.1
234.3427, 248561.5
234.8249, 248616.2
235.3070, 248674.0
235.7891, 248844.2
236.2712, 249161.8
236.7533, 249475.8
237.2354, 249638.8
237.7176, 249679.5
238.1997, 249708.6
238.6818, 249762.0
239.1639, 249807.1
239.6460, 249789.8
240.1281, 249704.0
240.6103, 249634.7
241.0924, 249653.7
241.5745, 249749.7
242.0566, 249844.0
242.5387, 249946.2
243.0208, 250037.8
243.5030, 250115.8
243.9851, 250179.0
244.4672, 250199.5
244.9493, 250139.6
245.4314, 250026.6
245.9135, 249983.5
246.3957, 250015.9
246.8778, 250113.4
247.3599, 250321.2
247.8420, 250605.3
248.3241, 250826.1
248.8062, 250893.0
249.2884, 250859.4
249.7705, 250916.0
250.2526, 251081.8
250.7347, 251288.8
251.2168, 251519.6
251.6989, 251769.4
252.1811, 252032.8
252.6632, 252306.5
253.1453, 252583.0
253.6274, 252849.5
254.1095, 253101.4
254.5916, 253343.5
255.0738, 253559.8
255.5559, 253769.1
256.0380, 254011.5
256.5201, 254301.2
257.0022, 254588.1
257.4843, 254788.2
257.9665, 254850.5
258.4486, 254923.1
258.9307, 255008.8
259.4128, 255110.5
259.8949, 255246.6
260.3770, 255417.1
260.8592, 255580.0
261.3413, 255683.8
261.8234, 255709.0
262.3055, 255741.2
262.7876, 255777.6
263.2697, 255825.5
263.7519, 255884.9
264.2340, 255959.0
264.7161, 256066.3
265.1982, 256241.0
265.6803, 256508.5
266.1624, 256596.6
266.6446, 256374.7
267.1267, 256131.1
267.6088, 255952.2
268.0909, 255839.4
268.5730, 255771.0
269.0551, 255733.3
269.5373, 255726.4
270.0194, 255748.6
270.5015, 255852.5
270.9836, 255931.5
271.4657, 255948.8
271.9478, 255934.6
272.4300, 255922.0
272.9121, 255924.1
273.3942, 255955.9
273.8763, 256073.7
274.3584, 256369.9
274.8405, 256597.5
275.3227, 256647.0
275.8048, 256654.6
276.2869, 256761.2
276.7690, 257011.9
277.2511, 257311.3
277.7332, 257495.7
278.2154, 257512.9
278.6975, 257567.3
279.1796, 257723.7
279.6617, 257893.3
280.1438, 258030.5
280.6259, 258125.4
281.1081, 258180.8
281.5902, 258205.2
282.0723, 258199.7
282.5544, 258131.4
283.0365, 257934.5
283.5186, 257734.6
284.0008, 257616.4
284.4829, 257562.6
284.9650, 257493.2
285.4471, 257379.0
285.9292, 257211.7
286.4113, 256941.4
286.8935, 256533.2
287.3756, 256087.5
287.8577, 255659.6
288.3398, 255243.1
288.8219, 254820.9
289.3040, 254386.0
289.7862, 253948.3
290.2683, 253502.1
290.7504, 253042.8
291.2325, 252637.7
291.7146, 252364.2
292.1967, 252161.5
292.6789, 251921.0
293.1610, 251610.9
293.6431, 251292.9
294.1252, 250974.7
294.6073, 250672.0
295.0894, 250496.0
295.5716, 250523.0
296.0537, 250667.6
296.5358, 250752.8
297.0179, 250733.8
297.5000, 250781.0
297.9821, 251007.9
298.4643, 251333.7
298.9464, 251612.4
299.4285, 251799.2
299.9106, 251942.2
300.3927, 252100.3
300.8748, 252267.8
301.3570, 252461.5
301.8391, 252696.4
302.3212, 252948.1
302.8033, 253227.4
303.2854, 253525.1
303.7675, 253758.0
304.2497, 253842.3
304.7318, 253763.1
305.2139, 253722.6
305.6960, 253744.0
306.1781, 253779.0
306.6602, 253811.3
307.1424, 253841.2
307.6245, 253881.6
308.1066, 253947.5
308.5887, 254022.0
309.0708, 254005.2
309.5529, 253853.7
310.0351, 253653.9
310.5172, 253412.0
310.9993, 253128.4
311.4814, 252777.8
311.9635, 252354.0
312.4456, 251923.9
312.9278, 251610.1
313.4099, 251430.7
313.8920, 251348.2
314.3741, 251460.1
314.8562, 251585.1
315.3383, 251582.9
315.8205, 251450.8
316.3026, 251310.1
316.7847, 251300.2
317.2668, 251439.0
317.7489, 251535.6
318.2310, 251530.0
318.7132, 251548.8
319.1953, 251644.8
319.6774, 251807.5
320.1595, 252006.8
320.6416, 252233.6
321.1237, 252477.6
321.6059, 252692.7
322.0880, 252840.0
322.5701, 253052.5
323.0522, 253435.1
323.5343, 253902.2
324.0164, 254350.3
324.4986, 254735.8
324.9807, 255124.0
325.4628, 255625.1
325.9449, 256226.6
326.4270, 256711.3
326.9091, 256961.1
327.3913, 257091.8
327.8734, 257305.6
328.3555, 257640.4
328.8376, 257874.6
329.3197, 257849.8
329.8018, 257672.4
330.2840, 257536.9
330.7661, 257488.1
331.2482, 257465.6
331.7303, 257411.1
332.2124, 257325.3
332.6945, 257212.4
333.1767, 257090.9
333.6588, 256933.1
334.1409, 256709.5
334.6230, 256427.5
335.1051, 256122.7
335.5873, 255815.9
336.0694, 255509.1
336.5515, 255193.3
337.0336, 254786.4
337.5157, 254471.2
337.9979, 254350.8
338.4800, 254332.9
338.9621, 254273.5
339.4442, 254111.9
339.9263, 253910.6
340.4084, 253798.1
340.8906, 253779.0
341.3727, 253847.3
341.8548, 254082.2
342.3369, 254329.5
342.8190, 254431.6
343.3011, 254400.3
343.7833, 254420.8
344.2654, 254731.5
344.7475, 255360.0
345.2296, 255784.2
345.7117, 255806.7
346.1938, 255833.7
346.6760, 255988.3
347.1581, 256262.6
347.6402, 256635.8
348.1223, 257131.6
348.6044, 257687.1
349.0865, 258179.0
349.5687, 258611.0
350.0508, 258970.4
350.5329, 259164.0
351.0150, 259324.3
351.4971, 259617.6
351.9792, 260109.2
352.4614, 260573.7
352.9435, 260788.7
353.4256, 260820.7
353.9077, 260955.3
354.3898, 261300.3
354.8719, 261687.2
355.3541, 261889.5
355.8362, 261918.1
356.3183, 261958.6
356.8004, 262068.4
357.2825, 262200.3
357.7646, 262331.8
358.2468, 262453.5
358.7289, 262500.2
359.2110, 262404.3
359.6931, 262182.4
360.1752, 262047.9
360.6573, 262091.3
361.1395, 262109.6
361.6216, 262042.0
362.1037, 261906.9
362.5858, 261725.6
363.0679, 261506.8
363.5500, 261275.2
364.0322, 261084.2
364.5143, 260983.8
364.9964, 260834.8
365.4785, 260635.9
365.9606, 260394.5
366.4427, 260084.9
366.9249, 259724.2
367.4070, 259383.3
367.8891, 259145.6
368.3712, 259006.6
368.8533, 258787.1
369.3354, 258353.7
369.8176, 258015.4
370.2997, 257943.6
370.7818, 258016.2
371.2639, 258036.8
371.7460, 257904.7
372.2281, 257722.5
372.7103, 257670.7
373.1924, 257769.5
373.6745, 257784.9
374.1566, 257596.4
374.6387, 257323.5
375.1208, 257110.2
375.6030, 256968.8
376.0851, 256813.2
376.5672, 256539.3
377.0493, 256232.5
377.5314, 256097.8
378.0135, 256187.0
378.4957, 256274.4
378.9778, 256148.2
379.4599, 255800.9
379.9420, 255481.7
380.4241, 255167.6
380.9063, 254906.0
381.3884, 254772.6
381.8705, 254717.9
382.3526, 254604.4
382.8347, 254356.4
383.3168, 254036.6
383.7990, 253821.5
384.2811, 253779.4
384.7632, 253766.4
385.2453, 253759.8
385.7274, 253798.0
386.2095, 253939.0
386.6917, 254177.1
387.1738, 254427.8
387.6559, 254578.6
388.1380, 254614.7
388.6201, 254795.2
389.1022, 255234.7
389.5844, 255694.7
390.0665, 256066.1
390.5486, 256406.2
391.0307, 256824.6
391.5128, 257402.1
391.9949, 258020.5
392.4771, 258460.8
392.9592, 258693.8
393.4413, 258985.4
393.9234, 259477.0
394.4055, 260014.2
394.8876, 260393.7
395.3698, 260587.5
395.8519, 260864.7
396.3340, 261443.5
396.8161, 262167.3
397.2982, 262764.0
397.7803, 263194.4
398.2625, 263534.5
398.7446, 263833.2
399.2267, 264088.3
399.7088, 264331.5
400.1909, 264498.2
400.6730, 264717.1
401.1552, 265046.7
401.6373, 265469.1
402.1194, 265966.6
402.6015, 266531.9
403.0836, 267131.0
403.5657, 267685.5
404.0479, 268165.4
404.5300, 268669.8
405.0121, 269208.9
405.4942, 269770.1
405.9763, 270310.7
406.4584, 270862.6
406.9406, 271514.1
407.4227, 272341.3
407.9048, 273335.3
408.3869, 274433.5
408.8690, 275695.5
409.3511, 276958.9
409.8333, 278141.6
410.3154, 279301.6
410.7975, 280493.4
411.2796, 281720.9
411.7617, 283021.8
412.2438, 284454.3
412.7260, 285999.1
413.2081, 287573.3
413.6902, 289190.5
414.1723, 290744.2
414.6544, 292035.8
415.1365, 293098.7
415.6187, 294268.1
416.1008, 295820.0
416.5829, 297340.2
417.0650, 298505.1
417.5471, 299329.9
418.0292, 299959.3
418.5114, 300470.8
418.9935, 300856.5
419.4756, 301086.7
419.9577, 301111.4
420.4398, 301041.7
420.9219, 300931.4
421.4041, 300702.7
421.8862, 300300.0
422.3683, 299708.6
422.8504, 298927.8
423.3325, 297912.9
423.8146, 296660.0
424.2968, 295510.6
424.7789, 294587.6
425.2610, 293609.9
425.7431, 292474.1
426.2252, 291229.3
426.7073, 289950.2
427.1895, 288664.0
427.6716, 287359.6
428.1537, 286009.8
428.6358, 284615.2
429.1179, 283316.0
429.6000, 282143.7
430.0822, 281086.0
430.5643, 280149.7
431.0464, 279325.9
431.5285, 278509.4
432.0106, 277668.9
432.4927, 276824.8
432.9749, 275974.9
433.4570, 275136.1
433.9391, 274383.0
434.4212, 273777.8
434.9033, 273274.0
435.3854, 272680.2
435.8676, 271851.2
436.3497, 271129.2
436.8318, 270646.6
437.3139, 270218.6
437.7960, 269646.7
438.2781, 268918.7
438.7603, 268183.4
439.2424, 267607.0
439.7245, 267191.5
440.2066, 266740.3
440.6887, 266250.0
441.1708, 265720.8
441.6530, 265107.8
442.1351, 264472.0
442.6172, 263914.1
443.0993, 263479.7
443.5814, 263065.1
444.0635, 262518.1
444.5457, 261863.0
445.0278, 261340.7
445.5099, 261081.9
445.9920, 260820.9
446.4741, 260185.3
446.9562, 259210.4
447.4384, 258393.0
447.9205, 257939.8
448.4026, 257565.4
448.8847, 257056.0
449.3668, 256441.5
449.8489, 255855.3
450.3311, 255362.0
450.8132, 254949.1
451.2953, 254578.8
451.7774, 254317.9
452.2595, 254006.8
452.7416, 253589.8
453.2238, 253176.9
453.7059, 252843.8
454.1880, 252590.6
454.6701, 252361.1
455.1522, 252098.0
455.6343, 251824.3
456.1165, 251655.1
456.5986, 251608.7
457.0807, 251617.0
457.5628, 251645.2
458.0449, 251715.7
458.5270, 251876.1
459.0092, 252147.6
459.4913, 252399.4
459.9734, 252494.3
460.4555, 252512.5
460.9376, 252648.3
461.4197, 252934.6
461.9019, 253259.1
462.3840, 253536.0
462.8661, 253764.7
463.3482, 253971.3
463.8303, 254195.2
464.3124, 254358.6
464.7946, 254375.5
465.2767, 254339.0
465.7588, 254387.9
466.2409, 254564.7
466.7230, 254796.9
467.2051, 254996.9
467.6873, 255180.1
468.1694, 255264.6
468.6515, 255187.3
469.1336, 255070.8
469.6157, 254954.1
470.0978, 254828.8
470.5800, 254670.8
471.0621, 254462.5
471.5442, 254230.9
472.0263, 254036.6
472.5084, 253871.5
472.9905, 253600.3
473.4727, 253173.7
473.9548, 252650.1
474.4369, 252069.0
474.9190, 251431.1
475.4011, 250829.3
475.8832, 250282.8
476.3654, 249774.3
476.8475, 249307.5
477.3296, 248868.5
477.8117, 248405.8
478.2938, 247889.4
478.7759, 247360.5
479.2581, 246929.1
479.7402, 246737.0
480.2223, 246386.0
480.7044, 245730.3
481.1865, 245062.3
481.6686, 244525.3
482.1508, 244134.5
482.6329, 243873.1
483.1150, 243779.0
483.5971, 243765.5
484.0792, 243583.5
484.5613, 243196.7
485.0435, 242848.8
485.5256, 242636.5
486.0077, 242493.7
486.4898, 242323.9
486.9719, 242117.6
487.4540, 241946.7
487.9362, 241881.2
488.4183, 241836.9
488.9004, 241704.4
489.3825, 241485.5
489.8646, 241261.9
490.3467, 241082.4
490.8289, 240939.0
491.3110, 240801.0
491.7931, 240714.1
492.2752, 240566.7
492.7573, 240322.6
493.2394, 240038.9
493.7216, 239775.5
494.2037, 239527.2
494.6858, 239232.0
495.1679, 238806.4
495.6500, 238297.3
496.1321, 237922.6
496.6143, 237723.8
497.0964, 237540.6
497.5785, 237318.8
498.0606, 237075.9
498.5427, 236823.8
499.0248, 236554.9
499.5070, 236325.8
499.9891, 236191.0
500.4712, 236100.2
500.9533, 235982.7
501.4355, 235832.7
501.9176, 235688.9
502.3997, 235586.3
502.8818, 235510.5
503.3639, 235375.1
503.8460, 235062.0
504.3282, 234843.2
504.8103, 234810.4
505.2924, 234837.8
505.7745, 234818.2
506.2566, 234740.1
506.7387, 234660.1
507.2209, 234634.8
507.7030, 234650.5
508.1851, 234635.9
508.6672, 234595.6
509.1493, 234509.4
509.6314, 234298.0
510.1136, 234073.3
510.5957, 233998.3
511.0778, 234115.7
511.5599, 234221.5
512.0420, 234215.1
512.5241, 234145.5
513.0062, 234068.6
513.4883, 233992.2
513.9705, 233919.0
514.4526, 233856.9
514.9347, 233795.5
515.4168, 233681.2
515.8989, 233439.4
516.3810, 233244.5
516.8632, 233135.4
517.3453, 233056.6
517.8274, 232961.3
518.3095, 232847.0
518.7916, 232739.5
519.2737, 232657.9
519.7559, 232599.8
520.2380, 232573.6
520.7201, 232596.3
521.2022, 232559.3
521.6843, 232373.7
522.1664, 232133.4
522.6486, 231993.9
523.1307, 231978.9
523.6128, 231931.0
524.0949, 231734.1
524.5770, 231523.6
525.0591, 231456.7
525.5413, 231517.6
526.0234, 231590.4
526.5055, 231613.7
526.9876, 231573.2
527.4697, 231408.1
527.9518, 231005.8
528.4340, 230696.2
528.9161, 230599.3
529.3982, 230508.7
529.8803, 230227.9
530.3624, 229819.4
530.8445, 229552.2
531.3267, 229661.6
531.8088, 229936.6
532.2909, 229981.6
532.7730, 229801.0
533.2551, 229648.7
533.7372, 229610.1
534.2194, 229633.9
534.7015, 229652.0
535.1836, 229660.6
535.6657, 229676.8
536.1478, 229725.5
536.6299, 229755.1
537.1121, 229717.2
537.5942, 229632.6
538.0763, 229556.1
538.5584, 229512.1
539.0405, 229470.1
539.5226, 229371.6
540.0048, 229200.4
540.4869, 229035.3
540.9690, 228887.9
541.4511, 228736.5
541.9332, 228560.2
542.4153, 228374.1
542.8975, 228209.9
543.3796, 228078.7
543.8617, 227976.9
544.3438, 227910.3
544.8259, 227872.3
545.3080, 227858.1
545.7902, 227872.3
546.2723, 227846.4
546.7544, 227703.8
547.2365, 227439.5
547.7186, 227194.2
548.2007, 226931.0
548.6829, 226727.8
549.1650, 226597.8
549.6471, 226538.9
550.1292, 226576.6
550.6113, 226703.6
551.0934, 226827.0
551.5756, 226847.8
552.0577, 226780.4
552.5398, 226707.0
553.0219, 226620.5
553.5040, 226553.7
553.9861, 226520.0
554.4683, 226519.4
554.9504, 226559.2
555.4325, 226675.2
555.9146, 226723.6
556.3967, 226559.3
556.8788, 226377.5
557.3610, 226414.6
557.8431, 226636.5
558.3252, 226818.7
558.8073, 226817.5
559.2894, 226682.4
559.7715, 226552.3
560.2537, 226406.2
560.7358, 226314.3
561.2179, 226335.8
561.7000, 226368.5
562.1821, 226358.6
562.6642, 226309.7
563.1464, 226251.1
563.6285, 226211.9
564.1106, 226147.4
564.5927, 225965.5
565.0748, 225706.0
565.5569, 225554.6
566.0391, 225578.7
566.5212, 225627.4
567.0033, 225508.9
567.4854, 225187.5
567.9675, 224977.1
568.4496, 225010.8
568.9318, 224987.9
569.4139, 224746.8
569.8960, 224435.9
570.3781, 224260.1
570.8602, 224269.4
571.3423, 224312.3
571.8245, 224239.4
572.3066, 224070.7
572.7887, 223886.7
573.2708, 223683.0
573.7529, 223503.3
574.2350, 223370.7
574.7172, 223278.7
575.1993, 223213.7
575.6814, 223193.2
576.1635, 223151.0
576.6456, 222997.9
577.1277, 222874.0
577.6099, 222929.2
578.0920, 223126.9
578.5741, 223322.9
579.0562, 223435.9
579.5383, 223475.7
580.0204, 223458.3
580.5026, 223371.3
580.9847, 223273.8
581.4668, 223162.1
581.9489, 223051.9
582.4310, 222948.4
582.9132, 222852.6
583.3953, 222774.8
583.8774, 222758.7
584.3596, 222705.7
584.8417, 222538.0
585.3238, 222288.2
585.8059, 221982.7
586.2880, 221637.4
586.7701, 221356.8
587.2523, 221258.8
587.7344, 221331.8
588.2165, 221338.5
588.6986, 221280.0
589.1807, 221149.1
589.6628, 220907.1
590.1450, 220627.4
590.6271, 220358.9
591.1092, 220112.4
591.5913, 219894.8
592.0734, 219735.4
592.5555, 219594.6
593.0377, 219406.0
593.5198, 219174.6
594.0019, 218937.3
594.4840, 218697.8
594.9661, 218500.6
595.4482, 218434.3
595.9304, 218571.1
596.4125, 218559.0
596.8946, 218226.2
597.3767, 217949.9
597.8588, 217933.1
598.3409, 218038.6
598.8231, 218060.7
599.3052, 217933.9
599.7873, 217766.0
600.2694, 217695.9
600.7515, 217679.6
601.2336, 217504.3
601.7158, 217129.9
602.1979, 216827.9
602.6800, 216796.6
603.1621, 216914.5
603.6442, 216839.6
604.1263, 216451.2
604.6085, 216153.3
605.0906, 216011.3
605.5727, 215951.8
606.0548, 215978.4
606.5369, 216041.2
607.0190, 216013.1
607.5012, 215809.9
607.9833, 215602.5
608.4654, 215772.6
608.9475, 216311.4
609.4296, 216503.1
609.9117, 216152.6
610.3939, 215674.9
610.8760, 215331.1
611.3581, 215102.9
611.8402, 214901.8
612.3223, 214749.7
612.8044, 214589.2
613.2866, 214357.3
613.7687, 214139.3
614.2508, 214045.0
614.7329, 214062.6
615.2150, 214094.6
615.6971, 214085.1
616.1793, 214018.1
616.6614, 213811.2
617.1435, 213426.8
617.6256, 213146.2
618.1077, 213063.1
618.5898, 213052.0
619.0720, 213022.9
619.5541, 212976.5
620.0362, 212912.9
620.5183, 212779.9
621.0004, 212686.0
621.4825, 212726.0
621.9647, 212816.7
622.4468, 212860.1
622.9289, 212828.8
623.4110, 212708.7
623.8931, 212458.7
624.3752, 212125.5
624.8574, 211975.8
625.3395, 212083.3
625.8216, 212140.5
626.3037, 212013.8
626.7858, 211862.8
627.2679, 211879.4
627.7501, 212038.1
628.2322, 212067.7
628.7143, 211780.1
629.1964, 211463.0
629.6785, 211298.1
630.1606, 211238.6
630.6428, 211193.4
631.1249, 211139.4
631.6070, 211112.5
632.0891, 211165.2
632.5712, 211284.5
633.0533, 211323.4
633.5355, 211290.1
634.0176, 211150.5
634.4997, 210726.3
634.9818, 210311.9
635.4639, 210227.6
635.9460, 210469.6
636.4282, 210648.7
636.9103, 210558.6
637.3924, 210433.9
637.8745, 210495.5
638.3566, 210647.4
638.8387, 210665.3
639.3209, 210485.3
639.8030, 210251.6
640.2851, 210142.3
640.7672, 210150.3
641.2493, 210066.9
641.7314, 209829.1
642.2136, 209630.4
642.6957, 209578.4
643.1778, 209567.0
643.6599, 209491.5
644.1420, 209347.4
644.6241, 209203.6
645.1063, 209097.4
645.5884, 208990.9
646.0705, 208841.0
646.5526, 208673.3
647.0347, 208551.0
647.5168, 208494.5
647.9990, 208459.2
648.4811, 208398.8
648.9632, 208314.0
649.4453, 208178.9
649.9274, 207949.2
650.4095, 207772.9
650.8917, 207708.3
651.3738, 207719.5
651.8559, 207779.8
652.3380, 207888.3
652.8201, 207996.7
653.3022, 208092.8
653.7844, 208177.7
654.2665, 208289.6
654.7486, 208379.5
655.2307, 208313.0
655.7128, 208061.0
656.1949, 207803.5
656.6771, 207754.2
657.1592, 207898.3
657.6413, 208066.5
658.1234, 208312.4
658.6055, 208414.0
659.0876, 208193.9
659.5698, 207869.6
660.0519, 207743.6
660.5340, 207827.5
661.0161, 207807.2
661.4982, 207540.1
661.9803, 207233.5
662.4625, 207015.0
662.9446, 206841.5
663.4267, 206615.5
663.9088, 206321.4
664.3909, 206067.0
664.8730, 205996.8
665.3552, 206064.3
665.8373, 205990.8
666.3194, 205741.7
666.8015, 205542.5
667.2836, 205468.3
667.7657, 205477.3
668.2479, 205548.3
668.7300, 205684.7
669.2121, 205751.5
669.6942, 205653.4
670.1763, 205577.8
670.6584, 205650.6
671.1406, 205766.8
671.6227, 205766.4
672.1048, 205636.5
672.5869, 205529.4
673.0690, 205608.2
673.5511, 205782.7
674.0333, 205782.0
674.5154, 205603.0
674.9975, 205504.3
675.4796, 205589.9
675.9617, 205708.7
676.4438, 205687.5
676.9260, 205519.0
677.4081, 205408.4
677.8902, 205394.6
678.3723, 205384.1
678.8544, 205377.0
679.3365, 205350.3
679.8187, 205289.1
680.3008, 205188.8
680.7829, 205040.1
681.2650, 204807.6
681.7471, 204560.8
682.2292, 204404.3
682.7114, 204326.9
683.1935, 204283.9
683.6756, 204268.5
684.1577, 204241.6
684.6398, 204153.8
685.1219, 204021.9
685.6041, 204007.6
686.0862, 204269.9
686.5683, 204398.0
687.0504, 204257.1
687.5325, 204068.2
688.0146, 203977.6
688.4968, 203967.2
688.9789, 203942.1
689.4610, 203854.0
689.9431, 203766.7
690.4252, 203706.6
690.9073, 203693.5
691.3895, 203803.4
691.8716, 204025.5
692.3537, 204206.6
692.8358, 204239.3
693.3179, 204161.4
693.8000, 204061.0
694.2822, 203891.8
694.7643, 203866.2
695.2464, 204116.4
695.7285, 204360.7
696.2106, 204410.0
696.6927, 204345.5
697.1749, 204332.0
697.6570, 204429.1
698.1391, 204471.4
698.6212, 204304.3
699.1033, 204123.6
699.5854, 204178.2
700.0676, 204384.2
700.5497, 204450.1
701.0318, 204240.1
701.5139, 203954.4
701.9960, 203891.5
702.4781, 204038.8
702.9603, 204182.6
703.4424, 204331.6
703.9245, 204411.9
704.4066, 204372.9
704.8887, 204261.9
705.3708, 204151.2
705.8530, 204024.5
706.3351, 203966.8
706.8172, 203966.4
707.2993, 204052.8
707.7814, 204313.0
708.2635, 204632.8
708.7457, 204862.5
709.2278, 204971.2
709.7099, 205037.1
710.1920, 205091.8
710.6741, 205158.5
711.1563, 205294.5
711.6384, 205486.5
712.1205, 205645.8
712.6026, 205737.1
713.0847, 205847.7
713.5668, 206084.8
714.0490, 206442.6
714.5311, 206755.9
715.0132, 207002.7
715.4953, 207233.8
715.9774, 207476.7
716.4595, 207691.9
716.9417, 207836.4
717.4238, 207924.1
717.9059, 208018.9
718.3880, 208108.1
718.8701, 208255.0
719.3522, 208578.0
719.8344, 208945.2
720.3165, 209150.7
720.7986, 209191.4
721.2807, 209208.6
721.7628, 209291.4
722.2449, 209425.9
722.7271, 209606.8
723.2092, 209841.2
723.6913, 209974.8
724.1734, 209968.1
724.6555, 209918.9
725.1376, 209865.1
725.6198, 209821.9
726.1019, 209830.2
726.5840, 209879.0
727.0661, 210001.3
727.5482, 210280.2
728.0303, 210556.4
728.5125, 210770.5
728.9946, 210911.2
729.4767, 210965.8
729.9588, 210930.7
730.4409, 210848.6
730.9230, 210692.2
731.4052, 210541.1
731.8873, 210553.2
732.3694, 210713.6
732.8515, 210916.9
733.3336, 211124.8
733.8157, 211345.3
734.2979, 211607.7
734.7800, 211909.6
735.2621, 212048.1
735.7442, 211919.3
736.2263, 211821.8
736.7084, 211811.7
737.1906, 211872.8
737.6727, 212048.0
738.1548, 212305.3
738.6369, 212450.5
739.1190, 212367.4
739.6011, 212253.2
740.0833, 212207.8
740.5654, 212175.4
741.0475, 212112.0
741.5296, 212000.7
742.0117, 211805.9
742.4938, 211492.6
742.9760, 211145.7
743.4581, 210951.6
743.9402, 210869.1
744.4223, 210574.7
744.9044, 210006.0
745.3865, 209468.0
745.8687, 209155.4
746.3508, 208969.9
746.8329, 208685.9
747.3150, 208283.2
747.7971, 207835.0
748.2792, 207263.0
748.7614, 206736.3
749.2435, 206340.0
749.7256, 206005.4
750.2077, 205648.2
750.6898, 205255.8
751.1719, 204848.3
751.6541, 204442.2
752.1362, 204015.9
752.6183, 203501.8
753.1004, 202968.8
753.5825, 202587.8
754.0646, 202377.6
754.5468, 202144.0
755.0289, 201703.6
755.5110, 201124.9
755.9931, 200610.9
756.4752, 200162.9
756.9573, 199778.4
757.4395, 199479.2
757.9216, 199177.7
758.4037, 198781.2
758.8858, 198329.5
759.3679, 198010.7
759.8500, 197965.4
760.3322, 197854.6
760.8143, 197633.4
761.2964, 197391.4
761.7785, 197135.6
762.2606, 196902.3
762.7427, 196758.9
763.2249, 196731.8
763.7070, 196709.5
764.1891, 196611.5
764.6712, 196485.2
765.1533, 196403.5
765.6354, 196339.2
766.1176, 196186.3
766.5997, 195916.7
767.0818, 195661.3
767.5639, 195589.0
768.0460, 195656.7
768.5281, 195604.4
769.0103, 195406.1
769.4924, 195308.2
769.9745, 195427.0
770.4566, 195550.4
770.9387, 195458.4
771.4208, 195178.5
771.9030, 194995.6
772.3851, 194926.9
772.8672, 194932.6
773.3493, 195115.9
773.8314, 195275.9
774.3135, 195253.6
774.7957, 195116.5
775.2778, 195035.3
775.7599, 195076.9
776.2420, 195105.0
776.7241, 194973.7
777.2062, 194820.0
777.6884, 194799.9
778.1705, 194906.4
778.6526, 195096.1
779.1347, 195349.7
779.6168, 195631.1
780.0989, 195904.3
780.5811, 196167.4
781.0632, 196366.5
781.5453, 196484.9
782.0274, 196742.6
782.5095, 197211.2
782.9916, 197814.7
783.4738, 198505.2
783.9559, 199274.2
784.4380, 200001.0
784.9201, 200626.8
785.4022, 201291.3
785.8843, 201894.4
786.3665, 202635.9
786.8486, 203700.0
787.3307, 204976.9
787.8128, 206221.1
788.2949, 207344.3
788.7770, 208529.4
789.2592, 209889.2
789.7413, 211329.7
790.2234, 212705.3
790.7055, 214089.0
791.1876, 215652.9
791.6697, 217457.3
792.1519, 219416.9
792.6340, 221434.0
793.1161, 223549.5
793.5982, 225902.1
794.0803, 228488.3
794.5624, 231029.8
795.0446, 233444.0
795.5267, 235878.8
796.0088, 238443.1
796.4909, 241157.9
796.9730, 244104.8
797.4551, 247430.7
797.9373, 250664.5
798.4194, 253752.8
798.9015, 256730.6
799.3836, 259519.5
799.8657, 262219.5
800.3478, 265100.5
800.8300, 268289.3
801.3121, 271191.8
801.7942, 273506.4
802.2763, 275600.3
802.7584, 277806.0
803.2405, 279878.0
803.7227, 281428.9
804.2048, 282390.9
804.6869, 283085.1
805.1690, 283778.0
805.6511, 284305.0
806.1332, 284382.0
806.6154, 284102.4
807.0975, 283785.0
807.5796, 283469.6
808.0617, 282880.4
808.5438, 281822.4
809.0259, 280349.8
809.5081, 278556.0
809.9902, 276410.6
810.4723, 274190.1
810.9544, 271922.4
811.4365, 269530.1
811.9186, 266992.3
812.4008, 264319.6
812.8829, 261499.7
813.3650, 258517.6
813.8471, 255506.8
814.3292, 252418.6
814.8113, 249360.3
815.2935, 246350.4
815.7756, 243394.6
816.2577, 240452.0
816.7398, 237551.4
817.2219, 234789.5
817.7040, 232177.0
818.1862, 229756.8
818.6683, 227685.7
819.1504, 225746.5
819.6325, 223666.3
820.1146, 221491.5
820.5967, 219413.8
821.0789, 217534.8
821.5610, 215823.0
822.0431, 214296.0
822.5252, 212906.0
823.0073, 211525.6
823.4894, 210149.8
823.9716, 208877.7
824.4537, 207741.8
824.9358, 206683.2
825.4179, 205631.8
825.9000, 204597.2
826.3821, 203682.3
826.8643, 202929.5
827.3464, 202142.1
827.8285, 201258.7
828.3106, 200389.0
828.7927, 199634.4
829.2748, 198947.1
829.7570, 198175.5
830.2391, 197271.1
830.7212, 196414.7
831.2033, 195648.2
831.6854, 194906.5
832.1675, 194179.3
832.6497, 193455.1
833.1318, 192700.3
833.6139, 191920.2
834.0960, 191215.9
834.5781, 190670.9
835.0602, 190178.5
835.5424, 189693.7
836.0245, 189197.5
836.5066, 188652.6
836.9887, 188067.1
837.4708, 187488.8
837.9529, 186941.6
838.4351, 186407.9
838.9172, 185851.7
839.3993, 185290.6
839.8814, 184773.9
840.3635, 184308.3
840.8456, 183885.5
841.3278, 183503.1
841.8099, 183186.5
842.2920, 182971.4
842.7741, 182850.2
843.2562, 182739.6
843.7383, 182652.9
844.2205, 182521.3
844.7026, 182301.1
845.1847, 182089.8
845.6668, 181949.7
846.1489, 181871.8
846.6310, 181824.6
847.1132, 181775.1
847.5953, 181819.3
848.0774, 182075.3
848.5595, 182282.5
849.0416, 182323.7
849.5237, 182265.0
850.0059, 182162.4
850.4880, 182028.7
850.9701, 181943.2
851.4522, 181930.3
851.9343, 181976.0
852.4164, 182104.8
852.8986, 182268.3
853.3807, 182465.6
853.8628, 182648.1
854.3449, 182659.6
854.8270, 182403.2
855.3091, 182167.1
855.7913, 182310.2
856.2734, 182635.6
856.7555, 182799.3
857.2376, 182820.9
857.7197, 182840.4
858.2018, 182904.3
858.6840, 182988.9
859.1661, 183082.3
859.6482, 183163.3
860.1303, 183132.8
860.6124, 182991.4
861.0945, 182966.7
861.5767, 183116.0
862.0588, 183245.5
862.5409, 183238.9
863.0230, 183122.3
863.5051, 182952.4
863.9872, 182731.3
864.4694, 182448.7
864.9515, 182068.1
865.4336, 181696.5
865.9157, 181372.9
866.3978, 181072.4
866.8799, 180777.6
867.3621, 180486.7
867.8442, 180180.4
868.3263, 179875.3
868.8084, 179533.4
869.2905, 179138.2
869.7726, 178716.2
870.2548, 178267.1
870.7369, 177812.9
871.2190, 177384.9
871.7011, 176988.2
872.1832, 176637.1
872.6653, 176389.6
873.1475, 176135.6
873.6296, 175763.9
874.1117, 175352.0
874.5938, 175028.0
875.0759, 174787.9
875.5580, 174512.1
876.0402, 174112.8
876.5223, 173707.9
877.0044, 173441.2
877.4865, 173250.7
877.9686, 173017.0
878.4507, 172739.1
878.9329, 172471.0
879.4150, 172232.4
879.8971, 171974.3
880.3792, 171615.0
880.8613, 171209.8
881.3434, 170984.4
881.8256, 170928.6
882.3077, 170818.2
882.7898, 170608.5
883.2719, 170383.7
883.7540, 170210.0
884.2361, 170043.1
884.7183, 169748.2
885.2004, 169285.6
885.6825, 168941.1
886.1646, 168730.6
886.6467, 168611.4
887.1288, 168630.3
887.6110, 168646.5
888.0931, 168478.9
888.5752, 168140.5
889.0573, 167894.0
889.5394, 167817.2
890.0215, 167704.4
890.5037, 167511.8
890.9858, 167310.1
891.4679, 167136.2
891.9500, 166976.2
892.4321, 166802.1
892.9142, 166604.4
893.3964, 166443.5
893.8785, 166346.0
894.3606, 166270.4
894.8427, 166233.8
895.3248, 166186.3
895.8069, 166076.4
896.2891, 165910.2
896.7712, 165720.3
897.2533, 165505.4
897.7354, 165311.6
898.2175, 165197.3
898.6996, 165091.8
899.1818, 164881.7
899.6639, 164640.7
900.1460, 164537.9
900.6281, 164597.0
901.1102, 164655.9
901.5923, 164588.7
902.0745, 164472.4
902.5566, 164419.8
903.0387, 164388.5
903.5208, 164255.2
904.0029, 164039.5
904.4850, 163901.0
904.9672, 163917.2
905.4493, 163996.7
905.9314, 164052.3
906.4135, 164069.5
906.8956, 163958.1
907.3777, 163738.0
907.8599, 163611.9
908.3420, 163627.9
908.8241, 163627.5
909.3062, 163481.0
909.7883, 163260.4
910.2704, 163159.1
910.7526, 163185.2
911.2347, 163146.3
911.7169, 163015.4
912.1990, 162940.3
912.6811, 163003.8
913.1632, 163075.6
913.6453, 163016.2
914.1274, 162828.8
914.6096, 162524.6
915.0917, 161985.3
915.5738, 161662.5
916.0559, 161702.7
916.5380, 161795.3
917.0201, 161809.5
917.5023, 161751.5
917.9844, 161612.9
918.4665, 161366.6
918.9486, 161199.2
919.4307, 161210.6
919.9128, 161164.0
920.3950, 160946.0
920.8771, 160723.5
921.3592, 160627.4
921.8413, 160620.7
922.3234, 160601.6
922.8055, 160572.4
923.2877, 160489.5
923.7698, 160257.3
924.2519, 160071.8
924.7340, 160075.5
925.2161, 160138.6
925.6982, 160112.0
926.1804, 159995.4
926.6625, 159884.1
927.1446, 159809.3
927.6267, 159743.9
928.1088, 159671.8
928.5909, 159604.6
929.0731, 159525.6
929.5552, 159466.8
930.0373, 159499.3
930.5194, 159627.7
931.0015, 159743.0
931.4836, 159778.8
931.9658, 159774.7
932.4479, 159769.2
932.9300, 159739.8
933.4121, 159654.8
933.8942, 159517.8
934.3763, 159343.5
934.8585, 159138.4
935.3406, 158933.2
935.8227, 158765.5
936.3048, 158611.1
936.7869, 158429.2
937.2690, 158234.4
937.7512, 158060.1
938.2333, 157908.6
938.7154, 157749.0
939.1975, 157560.6
939.6796, 157388.2
940.1617, 157304.2
940.6439, 157279.8
941.1260, 157260.9
941.6081, 157233.2
942.0902, 157117.4
942.5723, 156900.0
943.0544, 156721.5
943.5366, 156699.4
944.0187, 156763.2
944.5008, 156783.8
944.9829, 156757.4
945.4650, 156630.9
945.9471, 156406.0
946.4293, 156250.8
946.9114, 156230.3
947.3935, 156248.7
947.8756, 156197.4
948.3577, 156107.0
948.8398, 156127.0
949.3220, 156263.7
949.8041, 156304.3
950.2862, 156215.4
950.7683, 156094.5
951.2504, 155976.5
951.7325, 155893.6
952.2147, 155907.0
952.6968, 156005.1
953.1789, 155988.8
953.6610, 155827.8
954.1431, 155701.2
954.6252, 155648.3
955.1074, 155598.8
955.5895, 155505.2
956.0716, 155397.9
956.5537, 155342.4
957.0358, 155351.4
957.5179, 155285.8
958.0001, 155089.5
958.4822, 154976.2
958.9643, 155034.4
959.4464, 155120.1
959.9285, 155146.1
960.4106, 155111.7
960.8928, 155002.7
961.3749, 154777.1
961.8570, 154629.4
962.3391, 154622.4
962.8212, 154584.1
963.3033, 154440.6
963.7855, 154276.7
964.2676, 154155.2
964.7497, 154072.8
965.2318, 154017.4
965.7139, 154006.6
966.1960, 153982.6
966.6782, 153923.4
967.1603, 153876.3
967.6424, 153946.2
968.1245, 153968.0
968.6066, 153697.8
969.0887, 153196.9
969.5709, 152910.4
970.0530, 153020.2
970.5351, 153084.3
971.0172, 153055.9
971.4993, 152998.9
971.9814, 152935.9
972.4636, 152863.4
972.9457, 152780.8
973.4278, 152686.6
973.9099, 152559.3
974.3920, 152304.7
974.8741, 152150.5
975.3563, 152186.6
975.8384, 152274.3
976.3205, 152393.1
976.8026, 152483.9
977.2847, 152447.3
977.7668, 152278.3
978.2490, 152147.4
978.7311, 152150.1
979.2132, 152108.9
979.6953, 151913.5
980.1774, 151720.4
980.6595, 151655.7
981.1417, 151658.6
981.6238, 151623.7
982.1059, 151535.8
982.5880, 151432.8
983.0701, 151291.7
983.5522, 151183.5
984.0344, 151217.5
984.5165, 151218.0
984.9986, 150949.3
985.4807, 150574.6
985.9628, 150472.6
986.4449, 150729.7
986.9271, 150855.0
987.4092, 150538.0
987.8913, 150232.0
988.3734, 150157.5
988.8555, 150168.4
989.3376, 150157.9
989.8198, 150117.5
990.3019, 150068.8
990.7840, 150020.5
991.2661, 149913.5
991.7482, 149619.9
992.2303, 149390.5
992.7125, 149443.9
993.1946, 149551.7
993.6767, 149460.1
994.1588, 149237.4
994.6409, 149108.8
995.1230, 149139.0
995.6052, 149190.1
996.0873, 149243.7
996.5694, 149251.6
997.0515, 149132.6
997.5336, 148994.2
998.0157, 148942.1
998.4979, 148968.5
998.9800, 149020.0
999.4621, 149081.7
999.9442, 149157.7
1000.426, 149314.3
1000.908, 149407.7
1001.391, 149308.3
1001.873, 149132.1
1002.355, 148997.5
1002.837, 148902.2
1003.319, 148790.5
1003.801, 148643.8
1004.283, 148503.7
1004.765, 148366.1
1005.247, 148269.5
1005.730, 148307.2
1006.212, 148348.4
1006.694, 148224.5
1007.176, 147976.4
1007.658, 147766.8
1008.140, 147646.9
1008.622, 147556.9
1009.104, 147509.0
1009.587, 147439.7
1010.069, 147267.7
1010.551, 147085.9
1011.033, 146993.9
1011.515, 146985.2
1011.997, 147013.1
1012.479, 147076.2
1012.961, 147110.4
1013.443, 147056.1
1013.926, 147001.7
1014.408, 147028.3
1014.890, 147056.1
1015.372, 146990.8
1015.854, 146849.2
1016.336, 146700.5
1016.818, 146553.0
1017.300, 146445.1
1017.783, 146423.8
1018.265, 146405.7
1018.747, 146363.1
1019.229, 146289.2
1019.711, 146142.8
1020.193, 145965.3
1020.675, 145883.3
1021.157, 145954.7
1021.639, 145975.6
1022.122, 145818.2
1022.604, 145672.8
1023.086, 145664.5
1023.568, 145678.0
1024.050, 145586.0
1024.532, 145425.9
1025.014, 145327.1
1025.496, 145334.0
1025.979, 145297.9
1026.461, 145108.7
1026.943, 144962.5
1027.425, 144976.1
1027.907, 145027.6
1028.389, 145011.2
1028.871, 144947.8
1029.353, 144904.2
1029.835, 144889.2
1030.318, 144890.5
1030.800, 144980.0
1031.282, 144984.1
1031.764, 144753.3
1032.246, 144508.4
1032.728, 144440.0
1033.210, 144474.9
1033.692, 144428.5
1034.174, 144260.3
1034.657, 144175.2
1035.139, 144283.6
1035.621, 144353.5
1036.103, 144355.5
1036.585, 144286.1
1037.067, 144076.2
1037.549, 143819.3
1038.031, 143702.3
1038.514, 143757.3
1038.996, 143765.6
1039.478, 143696.1
1039.960, 143623.9
1040.442, 143548.6
1040.924, 143481.2
1041.406, 143427.7
1041.888, 143384.2
1042.370, 143353.1
1042.853, 143336.1
1043.335, 143272.3
1043.817, 143150.9
1044.299, 142995.2
1044.781, 142734.9
1045.263, 142572.1
1045.745, 142647.8
1046.227, 142832.9
1046.709, 142976.0
1047.192, 143072.3
1047.674, 142991.9
1048.156, 142647.8
1048.638, 142422.3
1049.120, 142384.8
1049.602, 142376.2
1050.084, 142341.0
1050.566, 142274.0
1051.049, 142152.5
1051.531, 141999.9
1052.013, 141970.4
1052.495, 142093.0
1052.977, 142128.5
1053.459, 142039.8
1053.941, 141989.1
1054.423, 142039.5
1054.906, 142128.3
1055.388, 142205.3
1055.870, 142250.9
1056.352, 142165.2
1056.834, 141950.4
1057.316, 141952.2
1057.798, 142189.6
1058.280, 142333.8
1058.762, 142287.0
1059.245, 142136.2
1059.727, 141934.6
1060.209, 141735.3
1060.691, 141674.1
1061.173, 141715.0
1061.655, 141660.1
1062.137, 141515.7
1062.619, 141324.4
1063.101, 141108.5
1063.584, 140998.9
1064.066, 141086.8
1064.548, 141215.8
1065.030, 141145.3
1065.512, 140957.6
1065.994, 140856.5
1066.476, 140809.0
1066.958, 140697.8
1067.441, 140521.5
1067.923, 140375.8
1068.405, 140303.9
1068.887, 140267.8
1069.369, 140230.5
1069.851, 140203.3
1070.333, 140221.8
1070.815, 140250.4
1071.297, 140237.1
1071.780, 140175.3
1072.262, 140053.1
1072.744, 139873.3
1073.226, 139728.5
1073.708, 139703.9
1074.190, 139713.4
1074.672, 139714.5
1075.154, 139690.1
1075.636, 139601.4
1076.119, 139480.5
1076.601, 139385.5
1077.083, 139327.0
1077.565, 139277.7
1078.047, 139215.3
1078.529, 139178.1
1079.011, 139239.9
1079.494, 139271.1
1079.976, 139164.0
1080.458, 138986.3
1080.940, 138798.9
1081.422, 138625.1
1081.904, 138534.3
1082.386, 138604.0
1082.868, 138603.6
1083.350, 138419.8
1083.833, 138251.6
1084.315, 138150.7
1084.797, 138119.2
1085.279, 138223.0
1085.761, 138390.4
1086.243, 138384.1
1086.725, 138131.0
1087.207, 138004.7
1087.689, 138075.8
1088.172, 138147.0
1088.654, 138212.8
1089.136, 138214.8
1089.618, 138091.9
1090.100, 137908.7
1090.582, 137765.1
1091.064, 137660.3
1091.546, 137660.3
1092.029, 137785.5
1092.511, 137905.3
1092.993, 138001.2
1093.475, 138116.0
1093.957, 138283.8
1094.439, 138402.6
1094.921, 138345.4
1095.403, 138161.3
1095.885, 138012.3
1096.368, 137898.1
1096.850, 137832.0
1097.332, 137810.2
1097.814, 137747.1
1098.296, 137621.8
1098.778, 137573.4
1099.260, 137726.4
1099.742, 137917.9
1100.224, 137870.8
1100.707, 137666.6
1101.189, 137464.0
1101.671, 137284.1
1102.153, 137198.5
1102.635, 137190.1
1103.117, 137116.7
1103.599, 136908.7
1104.081, 136707.1
1104.564, 136658.0
1105.046, 136663.0
1105.528, 136607.6
1106.010, 136550.5
1106.492, 136601.3
1106.974, 136712.6
1107.456, 136744.3
1107.938, 136667.0
1108.421, 136602.8
1108.903, 136588.5
1109.385, 136628.1
1109.867, 136815.8
1110.349, 136955.8
1110.831, 136829.9
1111.313, 136621.3
1111.795, 136598.7
1112.277, 136748.5
1112.760, 136838.9
1113.242, 136796.9
1113.724, 136782.9
1114.206, 136890.3
1114.688, 136919.9
1115.170, 136742.4
1115.652, 136554.5
1116.134, 136520.5
1116.616, 136574.4
1117.099, 136560.5
1117.581, 136473.1
1118.063, 136401.5
1118.545, 136366.7
1119.027, 136259.8
1119.509, 136029.6
1119.991, 135890.8
1120.473, 135980.9
1120.956, 136080.3
1121.438, 135868.5
1121.920, 135480.5
1122.402, 135521.1
1122.884, 135928.7
1123.366, 136072.5
1123.848, 135932.3
1124.330, 135801.5
1124.813, 135767.3
1125.295, 135748.4
1125.777, 135689.3
1126.259, 135591.3
1126.741, 135416.3
1127.223, 135229.3
1127.705, 135160.2
1128.187, 135167.3
1128.669, 135176.1
1129.151, 135162.6
1129.634, 135099.9
1130.116, 134978.3
1130.598, 134838.7
1131.080, 134717.7
1131.562, 134578.4
1132.044, 134358.8
1132.526, 134145.3
1133.008, 134027.0
1133.491, 133969.4
1133.973, 133902.6
1134.455, 133821.4
1134.937, 133772.2
1135.419, 133780.3
1135.901, 133792.0
1136.383, 133831.7
1136.865, 133829.6
1137.348, 133727.3
1137.830, 133598.7
1138.312, 133475.9
1138.794, 133382.2
1139.276, 133394.3
1139.758, 133536.6
1140.240, 133586.4
1140.722, 133537.1
1141.204, 133404.2
1141.687, 133163.2
1142.169, 132979.7
1142.651, 132949.1
1143.133, 132940.3
1143.615, 132771.6
1144.097, 132532.2
1144.579, 132558.8
1145.061, 132777.1
1145.543, 132752.3
1146.026, 132511.5
1146.508, 132363.7
1146.990, 132380.1
1147.472, 132432.5
1147.954, 132451.8
1148.436, 132394.9
1148.918, 132127.0
1149.400, 131837.6
1149.883, 131770.4
1150.365, 131830.3
1150.847, 131932.5
1151.329, 132014.2
1151.811, 131941.2
1152.293, 131689.4
1152.775, 131500.3
1153.257, 131539.3
1153.740, 131573.4
1154.222, 131515.5
1154.704, 131436.9
1155.186, 131343.2
1155.668, 131277.3
1156.150, 131319.8
1156.632, 131436.2
1157.114, 131454.6
1157.596, 131323.2
1158.078, 131272.9
1158.561, 131344.2
1159.043, 131383.3
1159.525, 131358.0
1160.007, 131286.2
1160.489, 131158.6
1160.971, 131055.7
1161.453, 131113.3
1161.935, 131274.4
1162.418, 131289.6
1162.900, 131175.7
1163.382, 131031.3
1163.864, 130880.5
1164.346, 130837.0
1164.828, 130917.1
1165.310, 130953.6
1165.792, 130825.1
1166.275, 130686.8
1166.757, 130766.6
1167.239, 130884.7
1167.721, 130771.1
1168.203, 130576.6
1168.685, 130516.6
1169.167, 130581.6
1169.649, 130703.9
1170.131, 130859.8
1170.614, 130940.2
1171.096, 130817.5
1171.578, 130741.5
1172.060, 130865.1
1172.542, 130957.8
1173.024, 130850.4
1173.506, 130697.5
1173.988, 130669.3
1174.470, 130726.3
1174.953, 130748.5
1175.435, 130739.3
1175.917, 130656.1
1176.399, 130443.9
1176.881, 130415.4
1177.363, 130654.8
1177.845, 130884.6
1178.327, 130977.5
1178.810, 130945.0
1179.292, 130769.9
1179.774, 130542.3
1180.256, 130490.0
1180.738, 130566.2
1181.220, 130645.4
1181.702, 130715.8
1182.184, 130750.3
1182.667, 130763.8
1183.149, 130863.4
1183.631, 131108.2
1184.113, 131292.2
1184.595, 131182.8
1185.077, 131057.4
1185.559, 131141.9
1186.041, 131279.7
1186.523, 131342.0
1187.005, 131345.2
1187.488, 131295.7
1187.970, 131214.6
1188.452, 131258.9
1188.934, 131564.4
1189.416, 131735.0
1189.898, 131696.0
1190.380, 131644.7
1190.862, 131606.3
1191.345, 131616.4
1191.827, 131725.9
1192.309, 131829.7
1192.791, 131742.6
1193.273, 131518.6
1193.755, 131465.7
1194.237, 131557.9
1194.719, 131537.5
1195.202, 131407.8
1195.684, 131318.6
1196.166, 131314.5
1196.648, 131408.8
1197.130, 131628.7
1197.612, 131783.6
1198.094, 131605.7
1198.576, 131343.9
1199.058, 131232.8
1199.541, 131205.6
1200.023, 131188.1
1200.505, 131177.9
1200.987, 131209.9
1201.469, 131278.8
1201.951, 131277.5
1202.433, 131160.7
1202.915, 131013.3
1203.397, 130798.3
1203.880, 130625.1
1204.362, 130543.1
1204.844, 130480.0
1205.326, 130389.2
1205.808, 130287.1
1206.290, 130205.8
1206.772, 130138.1
1207.254, 129998.6
1207.737, 129796.5
1208.219, 129671.8
1208.701, 129632.5
1209.183, 129648.8
1209.665, 129703.1
1210.147, 129721.0
1210.629, 129648.9
1211.111, 129572.9
1211.594, 129591.6
1212.076, 129643.1
1212.558, 129657.5
1213.040, 129666.8
1213.522, 129737.4
1214.004, 129822.3
1214.486, 129794.4
1214.968, 129656.5
1215.450, 129627.0
1215.932, 129854.5
1216.415, 129979.8
1216.897, 129910.9
1217.379, 129834.4
1217.861, 129804.6
1218.343, 129755.9
1218.825, 129641.3
1219.307, 129494.5
1219.789, 129349.9
1220.272, 129226.9
1220.754, 129239.9
1221.236, 129366.3
1221.718, 129438.3
1222.200, 129447.3
1222.682, 129399.5
1223.164, 129308.4
1223.646, 129252.2
1224.129, 129276.0
1224.611, 129257.4
1225.093, 129012.8
1225.575, 128776.8
1226.057, 128810.2
1226.539, 128872.5
1227.021, 128687.1
1227.503, 128408.7
1227.985, 128308.0
1228.468, 128370.8
1228.950, 128362.3
1229.432, 128259.3
1229.914, 128100.6
1230.396, 127831.7
1230.878, 127663.6
1231.360, 127654.7
1231.842, 127671.8
1232.324, 127655.5
1232.807, 127613.7
1233.289, 127553.4
1233.771, 127476.2
1234.253, 127371.1
1234.735, 127257.7
1235.217, 127232.7
1235.699, 127233.0
1236.181, 127025.5
1236.664, 126677.6
1237.146, 126555.1
1237.628, 126761.6
1238.110, 126899.9
1238.592, 126692.7
1239.074, 126495.3
1239.556, 126447.9
1240.038, 126450.9
1240.521, 126465.4
1241.003, 126497.0
1241.485, 126583.1
1241.967, 126669.1
1242.449, 126630.7
1242.931, 126473.5
1243.413, 126387.0
1243.895, 126380.0
1244.377, 126290.2
1244.859, 126109.0
1245.342, 125971.4
1245.824, 125915.6
1246.306, 125892.5
1246.788, 125872.9
1247.270, 125859.8
1247.752, 125867.2
1248.234, 125871.5
1248.716, 125833.8
1249.199, 125789.8
1249.681, 125774.4
1250.163, 125785.2
1250.645, 125829.4
1251.127, 125893.5
1251.609, 125909.2
1252.091, 125849.8
1252.573, 125792.0
1253.056, 125702.1
1253.538, 125713.8
1254.020, 125901.6
1254.502, 126000.3
1254.984, 125869.1
1255.466, 125713.1
1255.948, 125728.7
1256.430, 125872.6
1256.912, 126123.8
1257.395, 126402.8
1257.877, 126475.8
1258.359, 126429.8
1258.841, 126465.6
1259.323, 126578.1
1259.805, 126677.1
1260.287, 126735.6
1260.769, 126749.8
1261.251, 126655.6
1261.734, 126654.8
1262.216, 126864.0
1262.698, 127101.3
1263.180, 127396.2
1263.662, 127567.3
1264.144, 127450.7
1264.626, 127236.1
1265.108, 127188.9
1265.591, 127269.6
1266.073, 127309.5
1266.555, 127316.1
1267.037, 127311.9
1267.519, 127310.3
1268.001, 127426.3
1268.483, 127651.0
1268.965, 127811.9
1269.448, 127842.2
1269.930, 127830.9
1270.412, 127816.4
1270.894, 127816.4
1271.376, 127828.5
1271.858, 127841.5
##END=



