##NAMES=Laurelite
##RRUFFID=R100011
##IDEAL CHEMISTRY=Pb^2+^_7_F_12_Cl_2_
##LOCALITY=Grand Reef mine, Klondyke, Aravaipa District, Graham County, Arizona, USA
##OWNER=RRUFF
##SOURCE=William W. Pinch
##DESCRIPTION=Both prismatic and acicular colorless crystals associated with aravaipaite R100032 and scotlandite R100043
##STATUS=The identification of this mineral has been confirmed by single-crystal X-ray diffraction.
##URL=rruff.info/R100011
90.49219, 38.26159
90.97430, 36.39656
91.45642, 35.73461
91.93854, 37.35991
92.42065, 39.87367
92.90277, 41.09435
93.38489, 40.71969
93.86700, 39.86198
94.34912, 39.87204
94.83124, 40.62329
95.31335, 41.39275
95.79547, 41.55286
96.27759, 41.30926
96.75970, 41.58945
97.24182, 42.67615
97.72394, 44.14743
98.20605, 45.22142
98.68817, 45.91181
99.17029, 46.09827
99.65240, 45.48333
100.1345, 43.99639
100.6166, 42.68956
101.0988, 41.68797
101.5809, 41.01579
102.0630, 40.90090
102.5451, 41.51124
103.0272, 42.37774
103.5093, 43.03406
103.9915, 43.48914
104.4736, 43.69198
104.9557, 43.59190
105.4378, 43.14347
105.9199, 42.62444
106.4020, 41.89357
106.8842, 41.15833
107.3663, 40.77514
107.8484, 40.91941
108.3305, 41.21844
108.8126, 41.57127
109.2947, 42.15322
109.7769, 42.49516
110.2590, 42.27253
110.7411, 41.75355
111.2232, 41.77711
111.7053, 43.27568
112.1874, 44.67459
112.6696, 45.25469
113.1517, 43.69448
113.6338, 42.66211
114.1159, 42.79267
114.5980, 43.92151
115.0801, 44.86644
115.5623, 45.55827
116.0444, 45.85703
116.5265, 45.65570
117.0086, 43.89760
117.4907, 42.53284
117.9728, 42.63822
118.4550, 44.28862
118.9371, 45.60378
119.4192, 45.53665
119.9013, 44.70007
120.3834, 43.87455
120.8655, 42.45017
121.3477, 41.73864
121.8298, 43.16389
122.3119, 47.23871
122.7940, 51.17568
123.2761, 52.69683
123.7582, 52.57170
124.2404, 52.51415
124.7225, 53.17670
125.2046, 54.51125
125.6867, 56.47068
126.1688, 59.09980
126.6509, 62.24475
127.1331, 65.82199
127.6152, 69.80598
128.0973, 74.06972
128.5794, 78.36286
129.0615, 82.86644
129.5436, 87.91626
130.0258, 93.34403
130.5079, 99.62196
130.9900, 107.9945
131.4721, 118.3883
131.9542, 129.6619
132.4363, 140.0101
132.9185, 149.8906
133.4006, 162.5417
133.8827, 179.5038
134.3648, 199.6746
134.8469, 220.0991
135.3290, 240.5320
135.8112, 262.3983
136.2933, 287.5668
136.7754, 316.3439
137.2575, 345.3843
137.7396, 374.3374
138.2217, 402.6689
138.7039, 428.8163
139.1860, 452.5559
139.6681, 474.5148
140.1502, 496.2114
140.6323, 517.6929
141.1144, 538.0359
141.5966, 556.4169
142.0787, 571.9081
142.5608, 589.0734
143.0429, 607.6749
143.5250, 628.0183
144.0071, 650.7136
144.4893, 675.5197
144.9714, 702.7623
145.4535, 732.2674
145.9356, 764.5754
146.4177, 798.7659
146.8998, 835.6029
147.3820, 874.4846
147.8641, 914.7004
148.3462, 957.3299
148.8283, 999.7703
149.3104, 1041.109
149.7925, 1080.666
150.2747, 1119.706
150.7568, 1157.859
151.2389, 1195.127
151.7210, 1231.384
152.2031, 1266.401
152.6852, 1300.188
153.1674, 1333.135
153.6495, 1365.979
154.1316, 1396.905
154.6137, 1425.368
155.0958, 1451.338
155.5779, 1476.335
156.0601, 1499.476
156.5422, 1522.249
157.0243, 1545.654
157.5064, 1569.432
157.9885, 1594.282
158.4706, 1621.210
158.9528, 1650.665
159.4349, 1678.391
159.9170, 1700.612
160.3991, 1721.318
160.8812, 1745.122
161.3633, 1776.828
161.8455, 1809.125
162.3276, 1838.834
162.8097, 1864.825
163.2918, 1890.421
163.7739, 1916.309
164.2560, 1940.389
164.7382, 1950.547
165.2203, 1959.368
165.7024, 1967.079
166.1845, 1970.975
166.6666, 1970.220
167.1487, 1967.693
167.6309, 1965.145
168.1130, 1962.021
168.5951, 1957.177
169.0772, 1948.472
169.5593, 1938.672
170.0414, 1930.392
170.5236, 1924.844
171.0057, 1918.973
171.4878, 1909.876
171.9699, 1898.388
172.4520, 1887.257
172.9341, 1877.976
173.4163, 1869.780
173.8984, 1861.732
174.3805, 1853.323
174.8626, 1845.383
175.3447, 1838.285
175.8268, 1832.034
176.3090, 1826.761
176.7911, 1823.576
177.2732, 1821.259
177.7553, 1817.631
178.2374, 1810.912
178.7195, 1803.978
179.2017, 1801.191
179.6838, 1802.129
180.1659, 1803.165
180.6480, 1800.115
181.1301, 1794.997
181.6122, 1792.635
182.0944, 1795.607
182.5765, 1801.165
183.0586, 1804.848
183.5407, 1806.618
184.0228, 1807.780
184.5049, 1809.499
184.9871, 1811.572
185.4692, 1813.179
185.9513, 1813.890
186.4334, 1814.045
186.9155, 1814.208
187.3976, 1814.321
187.8798, 1815.083
188.3619, 1817.697
188.8440, 1821.877
189.3261, 1825.646
189.8082, 1828.672
190.2903, 1830.800
190.7725, 1830.964
191.2546, 1828.813
191.7367, 1826.566
192.2188, 1827.201
192.7009, 1830.552
193.1830, 1833.532
193.6652, 1835.085
194.1473, 1835.321
194.6294, 1834.385
195.1115, 1831.866
195.5936, 1829.530
196.0757, 1830.116
196.5579, 1833.719
197.0400, 1837.377
197.5221, 1840.270
198.0042, 1842.371
198.4863, 1842.752
198.9684, 1840.892
199.4506, 1838.501
199.9327, 1838.185
200.4148, 1840.091
200.8969, 1842.610
201.3790, 1844.966
201.8611, 1847.096
202.3433, 1850.587
202.8254, 1855.881
203.3075, 1861.784
203.7896, 1865.555
204.2717, 1866.444
204.7538, 1868.911
205.2360, 1875.236
205.7181, 1885.818
206.2002, 1896.569
206.6823, 1907.879
207.1644, 1918.874
207.6465, 1927.130
208.1287, 1931.260
208.6108, 1937.250
209.0929, 1948.511
209.5750, 1966.420
210.0571, 1982.235
210.5392, 1994.901
211.0214, 2006.599
211.5035, 2022.031
211.9856, 2041.802
212.4677, 2063.276
212.9498, 2085.458
213.4319, 2108.137
213.9140, 2131.595
214.3962, 2155.813
214.8783, 2180.922
215.3604, 2206.673
215.8425, 2233.077
216.3246, 2260.503
216.8067, 2289.599
217.2889, 2320.469
217.7710, 2351.465
218.2531, 2382.466
218.7352, 2413.483
219.2173, 2445.275
219.6994, 2477.942
220.1816, 2511.365
220.6637, 2546.250
221.1458, 2583.472
221.6279, 2619.849
222.1100, 2655.249
222.5921, 2689.987
223.0743, 2726.000
223.5564, 2763.376
224.0385, 2801.639
224.5206, 2839.906
225.0027, 2879.031
225.4848, 2917.270
225.9670, 2953.481
226.4491, 2988.844
226.9312, 3027.524
227.4133, 3071.233
227.8954, 3115.138
228.3775, 3155.993
228.8597, 3193.418
229.3418, 3230.104
229.8239, 3265.421
230.3060, 3300.160
230.7881, 3335.538
231.2702, 3372.244
231.7524, 3409.053
232.2345, 3445.208
232.7166, 3482.208
233.1987, 3516.188
233.6808, 3546.560
234.1629, 3573.926
234.6451, 3600.495
235.1272, 3626.719
235.6093, 3651.342
236.0914, 3673.947
236.5735, 3694.841
237.0556, 3713.177
237.5378, 3727.854
238.0199, 3740.468
238.5020, 3755.552
238.9841, 3777.546
239.4662, 3795.861
239.9483, 3805.521
240.4305, 3802.603
240.9126, 3800.223
241.3947, 3799.958
241.8768, 3799.663
242.3589, 3793.927
242.8410, 3780.988
243.3232, 3765.190
243.8053, 3748.664
244.2874, 3732.874
244.7695, 3712.401
245.2516, 3686.030
245.7337, 3655.353
246.2159, 3624.163
246.6980, 3594.144
247.1801, 3560.954
247.6622, 3522.456
248.1443, 3477.186
248.6264, 3430.390
249.1086, 3381.523
249.5907, 3331.157
250.0728, 3280.667
250.5549, 3231.266
251.0370, 3179.664
251.5191, 3123.918
252.0013, 3063.062
252.4834, 3002.800
252.9655, 2944.327
253.4476, 2886.218
253.9297, 2825.946
254.4118, 2763.206
254.8940, 2700.021
255.3761, 2637.123
255.8582, 2574.261
256.3403, 2511.499
256.8224, 2448.436
257.3046, 2385.760
257.7867, 2326.074
258.2688, 2269.659
258.7509, 2214.721
259.2330, 2161.586
259.7151, 2110.415
260.1973, 2057.892
260.6794, 2003.357
261.1615, 1949.236
261.6436, 1900.840
262.1257, 1859.558
262.6078, 1819.661
263.0900, 1779.853
263.5721, 1739.655
264.0542, 1700.582
264.5363, 1661.659
265.0184, 1624.532
265.5005, 1590.335
265.9827, 1560.160
266.4648, 1530.509
266.9469, 1500.581
267.4290, 1470.470
267.9111, 1440.914
268.3932, 1411.875
268.8754, 1383.772
269.3575, 1357.325
269.8396, 1332.591
270.3217, 1308.337
270.8038, 1283.948
271.2859, 1259.362
271.7681, 1237.752
272.2502, 1219.979
272.7323, 1203.412
273.2144, 1185.721
273.6965, 1166.494
274.1786, 1147.998
274.6608, 1130.611
275.1429, 1114.296
275.6250, 1098.132
276.1071, 1082.003
276.5892, 1066.418
277.0714, 1052.465
277.5535, 1040.263
278.0356, 1027.910
278.5177, 1014.740
278.9998, 1001.239
279.4819, 989.7380
279.9641, 980.5187
280.4462, 971.7048
280.9283, 961.6605
281.4104, 950.4335
281.8925, 939.3607
282.3746, 928.6337
282.8568, 918.2054
283.3389, 907.7776
283.8210, 897.2560
284.3031, 887.3895
284.7852, 878.8203
285.2673, 871.5522
285.7495, 864.5106
286.2316, 857.5394
286.7137, 850.7372
287.1958, 844.5832
287.6779, 839.1016
288.1600, 833.2016
288.6422, 825.8615
289.1243, 817.2552
289.6064, 809.2409
290.0885, 801.9169
290.5706, 795.0961
291.0527, 788.7179
291.5349, 782.7463
292.0170, 776.5153
292.4991, 769.8713
292.9812, 762.7189
293.4633, 754.5676
293.9454, 745.0582
294.4276, 735.7712
294.9097, 729.2724
295.3918, 725.1087
295.8739, 721.0381
296.3560, 716.2481
296.8381, 710.7539
297.3203, 704.4932
297.8024, 697.4128
298.2845, 690.2603
298.7666, 683.9121
299.2487, 678.2037
299.7308, 672.4444
300.2130, 666.1484
300.6951, 659.7064
301.1772, 653.7919
301.6593, 648.4318
302.1414, 643.1271
302.6235, 637.3433
303.1057, 631.3457
303.5878, 625.8035
304.0699, 620.8871
304.5520, 616.5073
305.0341, 612.9606
305.5162, 610.1218
305.9984, 606.7401
306.4805, 601.0814
306.9626, 594.5572
307.4447, 589.3490
307.9268, 586.7285
308.4089, 584.5748
308.8911, 580.7029
309.3732, 575.5490
309.8553, 570.9243
310.3374, 568.5469
310.8195, 566.9100
311.3016, 564.4615
311.7838, 560.5080
312.2659, 556.5037
312.7480, 553.4973
313.2301, 551.2272
313.7122, 548.9679
314.1943, 546.4968
314.6765, 543.8303
315.1586, 540.8387
315.6407, 537.3150
316.1228, 534.1852
316.6049, 532.1274
317.0870, 530.7402
317.5692, 529.3892
318.0513, 527.9570
318.5334, 526.3882
319.0155, 524.6357
319.4976, 522.6569
319.9797, 520.5988
320.4619, 518.4283
320.9440, 516.2067
321.4261, 514.0324
321.9082, 512.1159
322.3903, 510.0389
322.8724, 507.4524
323.3546, 504.3369
323.8367, 501.7769
324.3188, 500.5734
324.8009, 499.6849
325.2830, 498.3327
325.7651, 496.0909
326.2473, 493.7607
326.7294, 491.4704
327.2115, 489.2106
327.6936, 486.8400
328.1757, 484.6656
328.6578, 482.1824
329.1400, 479.1041
329.6221, 474.1693
330.1042, 470.3976
330.5863, 468.2155
331.0684, 467.2069
331.5505, 466.2137
332.0327, 465.3185
332.5148, 464.3144
332.9969, 463.0426
333.4790, 461.2692
333.9611, 459.9957
334.4432, 459.7779
334.9254, 459.7275
335.4075, 458.1207
335.8896, 453.8188
336.3717, 450.2585
336.8538, 448.8198
337.3359, 449.7725
337.8180, 449.7690
338.3001, 448.5332
338.7823, 446.7780
339.2644, 445.2806
339.7465, 444.0534
340.2286, 443.0107
340.7107, 442.2226
341.1928, 441.6165
341.6750, 440.6925
342.1571, 439.3266
342.6392, 438.0405
343.1213, 437.4068
343.6034, 437.4417
344.0855, 437.0712
344.5677, 435.9828
345.0498, 434.5257
345.5319, 433.6910
346.0140, 433.5047
346.4961, 433.2209
346.9782, 432.1026
347.4604, 430.3914
347.9425, 429.4085
348.4246, 429.4167
348.9067, 429.7411
349.3888, 429.3438
349.8709, 428.3534
350.3531, 427.4619
350.8352, 426.9967
351.3173, 426.8777
351.7994, 427.0377
352.2815, 427.4998
352.7636, 427.9491
353.2458, 428.2766
353.7279, 428.3629
354.2100, 427.9330
354.6921, 426.2426
355.1742, 424.4189
355.6563, 423.7062
356.1385, 424.0372
356.6206, 424.6743
357.1027, 425.7272
357.5848, 426.5737
358.0669, 426.3413
358.5490, 423.8186
359.0312, 421.6263
359.5133, 422.0056
359.9954, 424.1817
360.4775, 425.7513
360.9596, 425.1114
361.4417, 423.7594
361.9239, 422.6907
362.4060, 422.1306
362.8881, 421.6455
363.3702, 421.1976
363.8523, 420.6989
364.3344, 420.0154
364.8166, 418.9690
365.2987, 417.8514
365.7808, 416.7384
366.2629, 415.6044
366.7450, 414.6749
367.2271, 414.3285
367.7093, 414.0422
368.1914, 413.3569
368.6735, 412.2069
369.1556, 410.6772
369.6377, 408.4091
370.1198, 405.5530
370.6020, 403.6413
371.0841, 403.5791
371.5662, 403.6165
372.0483, 402.8348
372.5304, 400.9715
373.0125, 398.7183
373.4947, 395.7793
373.9768, 392.5883
374.4589, 390.1806
374.9410, 388.8534
375.4231, 387.6891
375.9052, 386.2936
376.3874, 384.5945
376.8695, 383.2859
377.3516, 382.5556
377.8337, 381.8802
378.3158, 380.4220
378.7979, 378.0301
379.2801, 375.9653
379.7622, 374.5964
380.2443, 373.8125
380.7264, 373.1915
381.2085, 372.7876
381.6906, 372.1613
382.1728, 370.6953
382.6549, 368.5508
383.1370, 366.8869
383.6191, 365.9746
384.1012, 365.4593
384.5833, 364.7779
385.0655, 363.9467
385.5476, 363.1028
386.0297, 362.4092
386.5118, 361.7282
386.9939, 360.6273
387.4760, 358.9842
387.9582, 357.5923
388.4403, 357.5160
388.9224, 358.2287
389.4045, 358.6345
389.8866, 358.1901
390.3687, 357.3120
390.8509, 356.1479
391.3330, 354.7520
391.8151, 353.6158
392.2972, 353.1889
392.7793, 353.1003
393.2614, 353.0478
393.7436, 353.3908
394.2257, 353.1329
394.7078, 351.2314
395.1899, 348.3476
395.6720, 346.2169
396.1541, 346.1002
396.6363, 346.2997
397.1184, 345.9405
397.6005, 344.6343
398.0826, 343.7202
398.5647, 343.9818
399.0468, 344.5459
399.5290, 344.3538
400.0111, 341.8746
400.4932, 340.2208
400.9753, 340.1908
401.4574, 341.7804
401.9395, 343.0995
402.4217, 344.3600
402.9038, 345.1373
403.3859, 345.0243
403.8680, 343.4286
404.3501, 342.3611
404.8322, 342.1041
405.3144, 342.3897
405.7965, 342.5110
406.2786, 342.4006
406.7607, 342.3486
407.2428, 342.4715
407.7249, 342.7714
408.2071, 343.3706
408.6892, 344.4658
409.1713, 345.2950
409.6534, 344.4179
410.1355, 341.9603
410.6176, 340.4552
411.0998, 341.1008
411.5819, 342.8739
412.0640, 343.3071
412.5461, 342.4315
413.0282, 341.1222
413.5103, 340.0817
413.9925, 339.0982
414.4746, 337.5511
414.9567, 335.0796
415.4388, 332.7940
415.9209, 332.1076
416.4030, 332.5197
416.8852, 332.7677
417.3673, 331.6619
417.8494, 330.4926
418.3315, 330.6026
418.8136, 332.0836
419.2957, 333.2823
419.7779, 333.5688
420.2600, 332.9831
420.7421, 331.5604
421.2242, 327.7068
421.7063, 324.6936
422.1884, 324.2087
422.6706, 325.5624
423.1527, 326.1200
423.6348, 324.1224
424.1169, 322.1261
424.5990, 321.3409
425.0811, 322.4377
425.5633, 323.4543
426.0454, 324.6541
426.5275, 325.6011
427.0096, 325.7050
427.4917, 324.4086
427.9738, 323.0844
428.4560, 321.8172
428.9381, 320.6319
429.4202, 320.4877
429.9023, 321.8648
430.3844, 323.3901
430.8665, 324.1472
431.3487, 324.1199
431.8308, 323.2612
432.3129, 321.2561
432.7950, 318.8194
433.2771, 317.5131
433.7592, 317.3785
434.2414, 317.5290
434.7235, 317.6690
435.2056, 317.7736
435.6877, 317.7041
436.1698, 317.4454
436.6519, 317.1815
437.1341, 317.1241
437.6162, 317.2090
438.0983, 317.2981
438.5804, 317.4723
439.0625, 317.4690
439.5446, 316.8774
440.0268, 315.8196
440.5089, 314.7348
440.9910, 313.6670
441.4731, 312.8168
441.9552, 312.3402
442.4373, 312.2663
442.9195, 312.5497
443.4016, 313.8620
443.8837, 315.2962
444.3658, 315.7487
444.8479, 313.6115
445.3300, 311.7357
445.8122, 311.3658
446.2943, 312.2961
446.7764, 312.5373
447.2585, 310.8719
447.7406, 309.1597
448.2227, 308.3824
448.7049, 309.3047
449.1870, 309.6942
449.6691, 309.1736
450.1512, 308.3053
450.6333, 308.0643
451.1154, 308.9148
451.5976, 309.3555
452.0797, 308.7477
452.5618, 307.2139
453.0439, 306.8383
453.5260, 308.0258
454.0081, 309.1308
454.4903, 308.3895
454.9724, 305.8499
455.4545, 304.7105
455.9366, 305.6860
456.4187, 307.5445
456.9008, 308.1626
457.3830, 307.6822
457.8651, 307.1549
458.3472, 307.0367
458.8293, 307.2155
459.3114, 307.6125
459.7935, 308.2177
460.2757, 308.6598
460.7578, 308.4776
461.2399, 307.9908
461.7220, 307.6214
462.2041, 307.4066
462.6862, 307.4496
463.1684, 308.2060
463.6505, 309.2842
464.1326, 309.7607
464.6147, 308.6717
465.0968, 307.3719
465.5789, 306.4720
466.0611, 306.0128
466.5432, 305.9809
467.0253, 306.7539
467.5074, 307.7496
467.9895, 308.4831
468.4716, 309.3670
468.9538, 309.3818
469.4359, 307.7151
469.9180, 305.1546
470.4001, 304.3910
470.8822, 306.5014
471.3643, 308.5118
471.8465, 309.0765
472.3286, 308.0033
472.8107, 307.6504
473.2928, 308.2505
473.7749, 309.0227
474.2570, 308.8433
474.7392, 307.7265
475.2213, 307.4442
475.7034, 308.7544
476.1855, 310.6638
476.6676, 310.8597
477.1497, 309.5183
477.6319, 308.3198
478.1140, 308.4668
478.5961, 309.3369
479.0782, 309.9559
479.5603, 310.2557
480.0424, 310.3126
480.5246, 310.0533
481.0067, 309.6225
481.4888, 309.2035
481.9709, 308.4412
482.4530, 308.1743
482.9352, 309.4231
483.4173, 311.6238
483.8994, 312.9956
484.3815, 311.8659
484.8636, 310.6481
485.3457, 310.7909
485.8279, 313.0904
486.3100, 314.0972
486.7921, 312.1349
487.2742, 309.5169
487.7563, 308.3234
488.2384, 309.8107
488.7206, 310.5308
489.2027, 309.8008
489.6848, 308.0799
490.1669, 306.9684
490.6490, 306.5391
491.1311, 306.5384
491.6133, 307.0622
492.0954, 308.0986
492.5775, 308.5185
493.0596, 308.2412
493.5417, 307.6840
494.0238, 307.2467
494.5060, 306.9109
494.9881, 306.5703
495.4702, 306.1206
495.9523, 305.7829
496.4344, 305.9222
496.9165, 306.4656
497.3987, 307.1391
497.8808, 308.3047
498.3629, 309.2224
498.8450, 309.0070
499.3271, 307.5475
499.8092, 306.0070
500.2914, 304.6893
500.7735, 303.7296
501.2556, 303.2229
501.7377, 303.4530
502.2198, 303.8324
502.7019, 304.4974
503.1841, 305.2351
503.6662, 305.4697
504.1483, 304.4784
504.6304, 303.7074
505.1125, 303.6796
505.5946, 304.4827
506.0768, 304.8410
506.5589, 304.4226
507.0410, 304.0571
507.5231, 304.6797
508.0052, 306.5918
508.4873, 307.3878
508.9695, 306.4949
509.4516, 304.8444
509.9337, 304.1112
510.4158, 304.2651
510.8979, 304.7722
511.3800, 305.9072
511.8622, 307.0757
512.3443, 306.4227
512.8264, 304.0707
513.3085, 302.2348
513.7906, 303.0222
514.2728, 305.1737
514.7549, 307.1276
515.2370, 308.6364
515.7191, 309.7677
516.2012, 310.7008
516.6833, 311.2527
517.1655, 311.1597
517.6476, 309.1159
518.1297, 307.6302
518.6118, 308.0835
519.0939, 310.2602
519.5760, 311.5218
520.0582, 310.7950
520.5403, 309.7300
521.0224, 308.9710
521.5045, 308.5056
521.9866, 308.3735
522.4688, 308.6437
522.9509, 309.1669
523.4330, 309.8002
523.9151, 310.5662
524.3972, 311.3684
524.8793, 312.3559
525.3615, 313.2133
525.8436, 312.9129
526.3257, 311.4680
526.8078, 309.9738
527.2899, 308.8906
527.7720, 308.2367
528.2542, 308.3159
528.7363, 309.1722
529.2184, 309.8030
529.7005, 309.2193
530.1826, 307.9354
530.6647, 306.5998
531.1469, 305.2338
531.6290, 304.1392
532.1111, 303.4892
532.5932, 303.2397
533.0753, 303.3008
533.5574, 304.2880
534.0396, 304.9586
534.5217, 304.5848
535.0038, 303.0560
535.4859, 302.3747
535.9680, 303.3565
536.4501, 304.4357
536.9323, 304.6992
537.4144, 303.8585
537.8965, 302.9796
538.3786, 302.0331
538.8607, 301.1203
539.3428, 300.3271
539.8250, 299.6241
540.3071, 299.4067
540.7892, 299.9064
541.2713, 300.8723
541.7534, 301.8332
542.2355, 302.7641
542.7177, 303.3779
543.1998, 303.3180
543.6819, 302.8951
544.1640, 302.5449
544.6461, 302.2973
545.1282, 302.1683
545.6104, 302.5329
546.0925, 302.8741
546.5746, 302.5534
547.0567, 300.5199
547.5388, 299.0224
548.0209, 299.1338
548.5031, 300.3083
548.9852, 301.3434
549.4673, 302.0341
549.9494, 302.5915
550.4315, 302.9774
550.9136, 303.1941
551.3958, 303.7495
551.8779, 304.8947
552.3600, 305.9599
552.8421, 306.5683
553.3242, 306.7148
553.8063, 306.3185
554.2885, 305.1908
554.7706, 304.0314
555.2527, 303.8417
555.7348, 304.5055
556.2169, 305.3352
556.6990, 306.2422
557.1812, 307.0498
557.6633, 307.3466
558.1454, 307.2751
558.6275, 307.3727
559.1096, 308.2198
559.5917, 309.1747
560.0739, 309.5952
560.5560, 309.4307
561.0381, 309.4756
561.5202, 310.3023
562.0023, 311.3096
562.4844, 312.0671
562.9666, 312.6713
563.4487, 312.7516
563.9308, 311.7798
564.4129, 310.5048
564.8950, 310.1537
565.3771, 311.2557
565.8593, 312.0610
566.3414, 312.0186
566.8235, 311.3961
567.3056, 311.4821
567.7877, 312.3565
568.2698, 313.3451
568.7520, 314.0773
569.2341, 314.5974
569.7162, 315.1275
570.1983, 315.6780
570.6804, 316.1222
571.1625, 316.2975
571.6447, 316.2959
572.1268, 316.2700
572.6089, 316.2888
573.0910, 316.2288
573.5731, 315.7911
574.0552, 315.2579
574.5374, 315.1122
575.0195, 315.8680
575.5016, 316.6841
575.9837, 317.2593
576.4658, 317.6136
576.9479, 318.1104
577.4301, 318.9808
577.9122, 319.7265
578.3943, 320.0728
578.8764, 319.8939
579.3585, 320.0526
579.8406, 320.6490
580.3228, 321.3582
580.8049, 321.8287
581.2870, 322.0713
581.7691, 322.3268
582.2512, 322.5988
582.7333, 322.9702
583.2155, 323.5875
583.6975, 324.4023
584.1796, 325.3046
584.6617, 326.7522
585.1439, 327.8747
585.6260, 327.4435
586.1081, 325.7979
586.5902, 324.6650
587.0723, 325.1570
587.5544, 326.1538
588.0366, 326.9742
588.5187, 327.3982
589.0008, 328.3033
589.4829, 330.8048
589.9650, 333.1468
590.4471, 333.9205
590.9293, 332.2817
591.4114, 331.0066
591.8935, 330.2303
592.3756, 329.9317
592.8577, 330.1974
593.3398, 331.0598
593.8220, 331.9218
594.3041, 332.6393
594.7862, 333.1952
595.2683, 333.5654
595.7504, 333.7432
596.2325, 333.7011
596.7147, 332.9868
597.1968, 332.2774
597.6789, 332.4640
598.1610, 333.6229
598.6431, 334.8838
599.1252, 336.0550
599.6074, 336.9419
600.0895, 337.3428
600.5716, 336.7732
601.0537, 336.5091
601.5358, 337.1203
602.0179, 337.9903
602.5001, 338.3443
602.9822, 338.1414
603.4643, 337.4341
603.9464, 335.9433
604.4285, 334.0616
604.9106, 333.1563
605.3928, 333.3309
605.8749, 333.5667
606.3570, 333.1017
606.8391, 332.3275
607.3212, 332.7608
607.8033, 334.3479
608.2855, 335.9071
608.7676, 336.6410
609.2497, 336.7487
609.7318, 336.3325
610.2139, 335.2766
610.6960, 334.3625
611.1782, 333.9636
611.6603, 333.9529
612.1424, 334.1940
612.6245, 335.1500
613.1066, 335.7634
613.5887, 336.0466
614.0709, 335.8802
614.5530, 334.8597
615.0351, 332.4078
615.5172, 330.3632
615.9993, 329.1554
616.4814, 328.7523
616.9636, 329.1225
617.4457, 330.3323
617.9278, 331.5617
618.4099, 332.4389
618.8920, 332.9191
619.3741, 332.6502
619.8563, 331.6045
620.3384, 330.7893
620.8205, 331.5299
621.3026, 332.7570
621.7847, 333.0506
622.2668, 331.6963
622.7490, 330.5429
623.2311, 330.5551
623.7132, 331.1712
624.1953, 331.6740
624.6774, 331.2040
625.1595, 331.5901
625.6417, 333.9081
626.1238, 337.0865
626.6059, 337.8568
627.0880, 335.4092
627.5701, 333.0012
628.0522, 331.6734
628.5344, 331.3308
629.0165, 331.7474
629.4986, 332.9439
629.9807, 334.0218
630.4628, 334.3706
630.9449, 334.1471
631.4271, 333.3798
631.9092, 332.0332
632.3913, 331.1669
632.8734, 332.2985
633.3555, 333.9325
633.8376, 334.4178
634.3198, 332.5241
634.8019, 331.1693
635.2840, 331.4557
635.7661, 332.6009
636.2482, 333.5264
636.7303, 334.3236
637.2125, 334.6758
637.6946, 334.3625
638.1767, 333.6516
638.6588, 333.4506
639.1409, 333.9087
639.6230, 333.7960
640.1052, 332.1273
640.5873, 329.7045
641.0694, 329.2693
641.5515, 330.6557
642.0336, 331.9785
642.5157, 331.9028
642.9979, 331.0944
643.4800, 330.1032
643.9621, 328.9497
644.4442, 328.2870
644.9263, 328.9711
645.4084, 329.9487
645.8906, 330.3759
646.3727, 329.9619
646.8548, 329.2328
647.3369, 327.7721
647.8190, 326.3112
648.3011, 325.8188
648.7833, 326.6163
649.2654, 327.2992
649.7475, 327.7177
650.2296, 327.8293
650.7117, 327.4594
651.1938, 326.6398
651.6760, 325.7926
652.1581, 324.9015
652.6402, 324.2272
653.1223, 324.3637
653.6044, 325.1320
654.0865, 325.7746
654.5687, 325.9486
655.0508, 325.7933
655.5329, 325.3432
656.0150, 324.5993
656.4971, 323.7770
656.9792, 322.4590
657.4614, 321.4682
657.9435, 321.3135
658.4256, 322.3047
658.9077, 323.0585
659.3898, 323.5633
659.8719, 323.8437
660.3541, 323.8992
660.8362, 323.7323
661.3183, 323.4481
661.8004, 323.0658
662.2825, 322.5665
662.7646, 321.8127
663.2468, 320.9247
663.7289, 320.1968
664.2110, 319.7606
664.6931, 319.4931
665.1752, 319.3572
665.6573, 319.3297
666.1395, 319.3478
666.6216, 319.7596
667.1037, 319.8436
667.5858, 319.0119
668.0679, 317.4821
668.5500, 316.8634
669.0322, 317.5769
669.5143, 318.3591
669.9964, 318.6317
670.4785, 318.4300
670.9606, 318.3838
671.4427, 318.5092
671.9249, 318.5981
672.4070, 318.5208
672.8891, 318.2735
673.3712, 317.7285
673.8533, 316.8231
674.3354, 316.1704
674.8176, 316.6716
675.2997, 317.4297
675.7818, 317.4183
676.2639, 315.7212
676.7460, 314.5555
677.2281, 315.1620
677.7103, 316.2589
678.1924, 316.1774
678.6745, 313.9490
679.1566, 312.7109
679.6387, 313.0776
680.1208, 314.4601
680.6030, 315.7835
681.0851, 317.0239
681.5672, 317.8501
682.0493, 318.0419
682.5314, 317.8239
683.0135, 317.5109
683.4957, 317.1047
683.9778, 316.6319
684.4599, 315.9638
684.9420, 315.3439
685.4241, 315.0244
685.9063, 314.9782
686.3884, 314.7227
686.8705, 313.7962
687.3526, 312.9520
687.8347, 312.5261
688.3168, 312.5736
688.7990, 312.7628
689.2811, 313.2246
689.7632, 313.5576
690.2453, 313.2004
690.7274, 312.2563
691.2095, 312.2773
691.6917, 313.4736
692.1738, 314.7965
692.6559, 315.0622
693.1380, 314.6938
693.6201, 314.3597
694.1022, 314.1504
694.5844, 314.1591
695.0665, 314.5624
695.5486, 315.1686
696.0307, 315.7353
696.5128, 316.3277
696.9949, 316.7018
697.4771, 316.6791
697.9592, 316.4978
698.4413, 316.6392
698.9234, 317.1644
699.4055, 317.8486
699.8876, 318.8782
700.3698, 319.8076
700.8519, 319.1769
701.3340, 317.2164
701.8161, 315.4569
702.2982, 314.6808
702.7803, 314.5310
703.2625, 314.9174
703.7446, 315.6946
704.2267, 316.1363
704.7088, 315.3026
705.1909, 314.6015
705.6730, 314.9312
706.1552, 316.4482
706.6373, 317.4411
707.1194, 317.5872
707.6015, 317.6477
708.0836, 318.1550
708.5657, 319.1592
709.0479, 319.4027
709.5300, 318.8097
710.0121, 317.8768
710.4942, 316.7794
710.9763, 315.7183
711.4584, 315.2425
711.9406, 315.4891
712.4227, 315.7890
712.9048, 315.4112
713.3869, 314.9475
713.8690, 315.0884
714.3511, 316.6344
714.8333, 317.6226
715.3154, 317.3983
715.7975, 316.5965
716.2796, 315.8404
716.7617, 315.1676
717.2438, 314.4400
717.7260, 313.5506
718.2081, 312.7691
718.6902, 312.7167
719.1723, 313.3000
719.6544, 313.7819
720.1365, 313.9145
720.6187, 313.8676
721.1008, 313.9962
721.5829, 314.0974
722.0650, 313.7016
722.5471, 311.6679
723.0292, 310.0269
723.5114, 309.8025
723.9935, 310.7556
724.4756, 311.8453
724.9577, 313.4367
725.4398, 314.4547
725.9219, 314.3634
726.4041, 313.4162
726.8862, 313.1447
727.3683, 313.6036
727.8504, 314.1064
728.3325, 314.3685
728.8146, 314.3813
729.2968, 314.0087
729.7789, 313.2961
730.2610, 312.6245
730.7431, 312.1296
731.2252, 311.8464
731.7073, 311.7255
732.1895, 311.7374
732.6716, 312.2826
733.1537, 314.6851
733.6358, 316.4734
734.1179, 316.1078
734.6000, 312.9662
735.0822, 311.2865
735.5643, 311.2186
736.0464, 312.0375
736.5285, 313.6986
737.0106, 315.7714
737.4927, 316.3580
737.9749, 315.1392
738.4570, 313.7810
738.9391, 313.9039
739.4212, 314.6388
739.9033, 314.9952
740.3854, 314.6412
740.8676, 314.2265
741.3497, 314.0535
741.8318, 313.8408
742.3139, 313.2073
742.7960, 311.6278
743.2781, 311.0826
743.7603, 312.0609
744.2424, 313.4896
744.7245, 313.6764
745.2066, 312.7787
745.6887, 312.1519
746.1708, 312.1065
746.6530, 312.4277
747.1351, 312.9068
747.6172, 313.5600
748.0993, 314.4254
748.5814, 316.2061
749.0635, 317.3986
749.5457, 317.1459
750.0278, 316.0043
750.5099, 315.1431
750.9920, 314.4171
751.4741, 314.3812
751.9562, 315.4797
752.4384, 317.0777
752.9205, 317.3271
753.4026, 316.2751
753.8847, 315.5085
754.3668, 315.8946
754.8489, 316.6130
755.3311, 316.2173
755.8132, 315.1274
756.2953, 314.5829
756.7774, 315.6031
757.2595, 316.8653
757.7416, 317.8931
758.2238, 318.6414
758.7059, 319.1024
759.1880, 319.3703
759.6701, 319.1955
760.1522, 318.3327
760.6343, 316.9689
761.1165, 316.0129
761.5986, 315.4707
762.0807, 315.3167
762.5628, 315.8890
763.0449, 316.6836
763.5270, 316.6660
764.0092, 315.9909
764.4913, 315.4969
764.9734, 316.1097
765.4555, 316.6533
765.9376, 316.1599
766.4197, 314.5929
766.9019, 313.8682
767.3840, 314.6711
767.8661, 315.4708
768.3482, 315.5373
768.8303, 314.9137
769.3124, 314.7330
769.7946, 315.0405
770.2767, 315.2675
770.7588, 314.5016
771.2409, 313.5701
771.7230, 314.3459
772.2051, 316.7933
772.6873, 318.8123
773.1694, 319.2913
773.6515, 318.8095
774.1336, 317.4940
774.6157, 315.1268
775.0978, 313.4126
775.5800, 312.4289
776.0621, 312.0631
776.5442, 312.3936
777.0263, 313.4610
777.5084, 314.4517
777.9905, 315.4123
778.4727, 315.8999
778.9548, 315.2247
779.4369, 313.9239
779.9190, 312.9791
780.4011, 312.5192
780.8832, 311.9159
781.3654, 310.2318
781.8475, 308.6866
782.3296, 308.3178
782.8117, 309.8012
783.2938, 310.7415
783.7759, 310.9934
784.2581, 310.9125
784.7402, 310.7419
785.2223, 310.4848
785.7044, 310.0928
786.1865, 309.5642
786.6686, 308.9284
787.1508, 307.8966
787.6329, 306.8908
788.1150, 306.6367
788.5971, 307.3327
789.0792, 308.1469
789.5613, 308.5929
790.0435, 309.0415
790.5256, 309.8653
791.0077, 311.3906
791.4898, 312.4185
791.9719, 312.8710
792.4540, 312.9357
792.9362, 312.6947
793.4183, 312.1714
793.9004, 311.7073
794.3825, 311.3484
794.8646, 310.8658
795.3467, 309.5957
795.8289, 308.2524
796.3110, 307.9609
796.7931, 309.1909
797.2752, 310.2330
797.7573, 310.4555
798.2394, 310.2515
798.7216, 309.9390
799.2037, 309.4269
799.6858, 309.0033
800.1679, 308.5424
800.6500, 308.4488
801.1321, 309.3423
801.6143, 311.0092
802.0964, 312.5194
802.5785, 313.7950
803.0606, 314.5840
803.5427, 314.2682
804.0248, 313.5265
804.5070, 313.1073
804.9891, 313.2320
805.4712, 313.4215
805.9533, 313.6430
806.4354, 313.8464
806.9175, 313.9851
807.3997, 314.0334
807.8818, 314.1633
808.3639, 314.4052
808.8460, 314.6436
809.3281, 314.6449
809.8102, 314.5620
810.2924, 314.8555
810.7745, 315.6302
811.2566, 316.3794
811.7387, 317.0771
812.2208, 317.3770
812.7029, 316.8195
813.1851, 314.7410
813.6672, 313.4659
814.1493, 313.4722
814.6314, 313.8338
815.1135, 313.7525
815.5956, 313.1893
816.0778, 313.1811
816.5599, 313.8319
817.0420, 314.5107
817.5241, 314.6320
818.0062, 314.3753
818.4883, 313.9198
818.9705, 313.2434
819.4526, 312.8080
819.9347, 312.8913
820.4168, 313.2523
820.8989, 313.8242
821.3810, 314.7817
821.8632, 315.1208
822.3453, 314.6572
822.8274, 313.9787
823.3095, 313.5746
823.7916, 313.3794
824.2737, 312.9720
824.7559, 312.3264
825.2380, 311.9054
825.7201, 312.5736
826.2022, 313.3532
826.6843, 313.0493
827.1664, 311.3582
827.6486, 310.2567
828.1307, 310.6178
828.6128, 311.2949
829.0949, 311.7736
829.5770, 312.0340
830.0591, 312.3423
830.5413, 312.6957
831.0234, 313.1081
831.5055, 313.8650
831.9876, 314.5963
832.4697, 314.3380
832.9518, 313.1371
833.4340, 312.1517
833.9161, 312.1339
834.3982, 312.4896
834.8803, 313.0172
835.3624, 313.7177
835.8445, 313.8471
836.3267, 313.1209
836.8088, 312.3829
837.2909, 312.0695
837.7730, 312.1013
838.2551, 311.9727
838.7372, 311.7009
839.2194, 311.5146
839.7015, 311.7449
840.1836, 312.0050
840.6657, 311.8220
841.1478, 311.2737
841.6299, 310.8868
842.1121, 310.9392
842.5942, 311.0653
843.0763, 311.1356
843.5584, 311.1681
844.0405, 311.2246
844.5226, 311.2684
845.0048, 311.5862
845.4869, 312.4706
845.9690, 313.5629
846.4511, 314.2601
846.9332, 314.5698
847.4153, 314.5078
847.8975, 313.6504
848.3796, 312.8604
848.8617, 312.4680
849.3438, 312.4840
849.8259, 312.9058
850.3080, 314.0076
850.7902, 314.9034
851.2723, 315.3637
851.7544, 315.5504
852.2365, 315.6308
852.7186, 315.6898
853.2007, 316.2843
853.6829, 318.0109
854.1650, 319.6845
854.6471, 320.1863
855.1292, 319.9475
855.6113, 319.6926
856.0934, 319.4868
856.5756, 319.4699
857.0577, 319.8690
857.5398, 320.2830
858.0219, 319.9611
858.5040, 318.8286
858.9861, 318.3327
859.4683, 318.8156
859.9504, 319.5957
860.4325, 319.8461
860.9146, 319.7985
861.3967, 319.8972
861.8788, 320.4474
862.3610, 320.6089
862.8431, 319.7635
863.3252, 318.5655
863.8073, 317.6854
864.2894, 317.3609
864.7715, 316.4431
865.2537, 314.6512
865.7358, 313.1220
866.2179, 313.5664
866.7000, 315.1118
867.1821, 315.0879
867.6642, 313.1613
868.1464, 311.4542
868.6285, 311.2627
869.1106, 311.9183
869.5927, 313.1481
870.0748, 315.2001
870.5569, 316.2276
871.0391, 315.7930
871.5212, 315.1282
872.0033, 315.0239
872.4854, 315.3515
872.9675, 315.0138
873.4496, 314.0574
873.9318, 313.3353
874.4139, 314.0027
874.8960, 314.7134
875.3781, 313.8456
875.8602, 311.6458
876.3423, 310.4269
876.8245, 311.7936
877.3066, 312.9792
877.7887, 313.1511
878.2708, 312.6005
878.7529, 312.6394
879.2350, 313.2726
879.7172, 313.5795
880.1993, 312.8687
880.6814, 311.9741
881.1635, 312.2221
881.6456, 313.1358
882.1277, 313.5979
882.6099, 312.4976
883.0920, 311.7249
883.5741, 312.0077
884.0562, 312.8204
884.5383, 313.4038
885.0204, 313.7646
885.5026, 313.8174
885.9847, 313.4894
886.4668, 313.0137
886.9489, 312.5262
887.4310, 312.1615
887.9131, 312.2763
888.3953, 313.1767
888.8774, 313.9217
889.3595, 313.9171
889.8416, 313.6688
890.3237, 313.6850
890.8058, 314.1480
891.2880, 314.3421
891.7701, 314.2171
892.2522, 313.9681
892.7343, 313.6171
893.2164, 313.3000
893.6985, 313.5092
894.1807, 314.2733
894.6628, 314.9312
895.1449, 315.0604
895.6270, 314.9293
896.1091, 314.7285
896.5912, 314.4756
897.0734, 313.8608
897.5555, 312.5900
898.0376, 311.6696
898.5197, 311.6378
899.0018, 312.3139
899.4839, 313.3571
899.9661, 314.6380
900.4482, 315.3978
900.9303, 314.6581
901.4124, 313.7959
901.8945, 313.8958
902.3766, 314.6327
902.8588, 314.8276
903.3409, 313.6714
903.8230, 313.3632
904.3051, 314.7079
904.7872, 316.6178
905.2693, 316.7292
905.7515, 315.3342
906.2336, 314.2300
906.7157, 313.9540
907.1978, 313.9627
907.6799, 313.7686
908.1620, 313.5933
908.6442, 313.7358
909.1263, 314.7695
909.6084, 315.1505
910.0905, 314.5123
910.5726, 313.6832
911.0547, 313.3727
911.5369, 313.5601
912.0190, 314.0324
912.5011, 314.7911
912.9832, 315.4808
913.4653, 315.6385
913.9474, 315.7058
914.4296, 316.3351
914.9117, 317.6295
915.3938, 317.9738
915.8759, 316.2254
916.3580, 314.7661
916.8401, 314.6450
917.3223, 315.6086
917.8044, 316.2858
918.2865, 316.6743
918.7686, 316.8711
919.2507, 316.6466
919.7328, 316.4927
920.2150, 317.2626
920.6971, 318.4731
921.1792, 318.9420
921.6613, 317.0444
922.1434, 316.2037
922.6255, 317.4348
923.1077, 319.4581
923.5898, 319.9338
924.0719, 318.9531
924.5540, 318.2563
925.0361, 318.2958
925.5182, 318.2404
926.0004, 316.7494
926.4825, 314.9168
926.9646, 314.0971
927.4467, 314.8588
927.9288, 315.7687
928.4109, 316.7344
928.8931, 317.6875
929.3752, 318.8280
929.8573, 320.1292
930.3394, 319.6748
930.8215, 317.4716
931.3036, 315.6275
931.7858, 316.3290
932.2679, 317.6819
932.7500, 317.7591
933.2321, 316.6555
933.7142, 315.7495
934.1964, 315.2917
934.6785, 315.1650
935.1606, 315.4235
935.6427, 315.9583
936.1248, 316.4970
936.6069, 317.0322
937.0891, 317.4250
937.5712, 317.6641
938.0533, 317.6834
938.5354, 317.0241
939.0175, 316.2314
939.4996, 316.1236
939.9818, 318.3083
940.4639, 318.9169
940.9460, 316.9167
941.4281, 314.5642
941.9102, 314.4373
942.3923, 316.2522
942.8745, 317.2956
943.3566, 317.3648
943.8387, 317.2296
944.3208, 317.4782
944.8029, 317.8321
945.2850, 318.0410
945.7672, 318.0766
946.2493, 318.1778
946.7314, 318.3016
947.2135, 318.6146
947.6956, 319.2949
948.1777, 320.1663
948.6599, 320.4120
949.1420, 320.1644
949.6241, 320.1891
950.1062, 321.3656
950.5883, 322.3136
951.0704, 321.7455
951.5526, 320.3530
952.0347, 319.4459
952.5168, 319.1159
952.9989, 319.3784
953.4810, 320.4789
953.9631, 321.6863
954.4453, 322.0367
954.9274, 321.7231
955.4095, 321.3800
955.8916, 321.0905
956.3737, 320.8364
956.8558, 320.3362
957.3380, 320.0736
957.8201, 320.5400
958.3022, 321.8020
958.7843, 322.8902
959.2664, 323.9813
959.7485, 324.2719
960.2307, 322.8007
960.7128, 320.6351
961.1949, 320.5292
961.6770, 322.0020
962.1591, 323.3499
962.6412, 324.0484
963.1234, 324.1742
963.6055, 323.1399
964.0876, 321.7954
964.5697, 321.6308
965.0518, 322.9668
965.5339, 324.0675
966.0161, 324.7785
966.4982, 325.0194
966.9803, 324.1721
967.4624, 322.9835
967.9445, 322.9379
968.4266, 324.4377
968.9088, 325.4794
969.3909, 324.8478
969.8730, 324.0021
970.3551, 323.8051
970.8372, 324.1862
971.3193, 323.4061
971.8015, 321.3870
972.2836, 320.5875
972.7657, 323.9628
973.2478, 327.8900
973.7299, 327.4144
974.2120, 324.0937
974.6942, 321.8045
975.1763, 322.3467
975.6584, 323.2361
976.1405, 324.4088
976.6226, 325.4937
977.1047, 325.8434
977.5869, 325.5386
978.0690, 325.4427
978.5511, 325.6990
979.0332, 325.9652
979.5153, 325.8419
979.9974, 325.6736
980.4796, 325.8413
980.9617, 326.4545
981.4438, 326.7789
981.9259, 326.6110
982.4080, 326.5615
982.8901, 327.0223
983.3723, 327.7529
983.8544, 327.9689
984.3365, 327.7612
984.8186, 327.5106
985.3007, 327.1272
985.7828, 327.0470
986.2650, 327.6597
986.7471, 328.6476
987.2292, 329.5964
987.7113, 330.8286
988.1934, 330.5820
988.6755, 328.3737
989.1577, 325.9545
989.6398, 325.3334
990.1219, 325.8203
990.6040, 326.3471
991.0861, 326.7918
991.5682, 327.2159
992.0504, 327.9856
992.5325, 328.3523
993.0146, 327.7635
993.4967, 326.5029
993.9788, 326.1830
994.4609, 326.8051
994.9431, 327.5431
995.4252, 328.4275
995.9073, 328.7291
996.3894, 326.7046
996.8715, 323.8360
997.3536, 322.5175
997.8358, 324.9221
998.3179, 326.6602
998.8000, 327.5132
999.2821, 327.8401
999.7642, 327.7596
1000.246, 327.4104
1000.728, 327.6432
1001.211, 328.4782
1001.693, 329.3553
1002.175, 330.3276
1002.657, 330.8413
1003.139, 330.0844
1003.621, 328.3470
1004.103, 327.8882
1004.585, 329.2080
1005.068, 329.8003
1005.550, 328.6484
1006.032, 327.0864
1006.514, 327.6461
1006.996, 329.3280
1007.478, 329.9989
1007.960, 328.4357
1008.442, 327.4458
1008.924, 328.5850
1009.407, 330.0083
1009.889, 330.4692
1010.371, 329.9222
1010.853, 329.5584
1011.335, 329.3730
1011.817, 329.6436
1012.299, 331.1540
1012.781, 332.7004
1013.263, 333.1842
1013.746, 332.7675
1014.228, 332.0742
1014.710, 330.8473
1015.192, 330.0288
1015.674, 329.8196
1016.156, 329.9800
1016.638, 330.2789
1017.120, 330.6395
1017.603, 330.7518
1018.085, 330.5186
1018.567, 330.4373
1019.049, 330.9412
1019.531, 331.5823
1020.013, 332.1684
1020.495, 332.6795
1020.977, 332.5053
1021.459, 331.5552
1021.942, 330.6960
1022.424, 330.2516
1022.906, 330.2148
1023.388, 331.1147
1023.870, 332.3126
1024.352, 332.5569
1024.834, 330.5008
1025.316, 328.8003
1025.799, 327.5356
1026.281, 326.8867
1026.763, 327.2755
1027.245, 328.5252
1027.727, 329.5068
1028.209, 330.1648
1028.691, 330.7569
1029.173, 331.6949
1029.656, 332.4120
1030.138, 332.3566
1030.620, 331.6777
1031.102, 331.2480
1031.584, 331.1006
1032.066, 331.0017
1032.548, 330.7964
1033.030, 330.8379
1033.512, 331.9976
1033.995, 333.6585
1034.477, 334.7579
1034.959, 335.0104
1035.441, 334.8741
1035.923, 334.4340
1036.405, 333.6307
1036.887, 332.0558
1037.369, 329.9600
1037.851, 330.0074
1038.334, 331.9327
1038.816, 333.2123
1039.298, 331.2713
1039.780, 329.3746
1040.262, 330.3747
1040.744, 332.7972
1041.226, 333.6310
1041.708, 332.2422
1042.191, 330.7318
1042.673, 329.0714
1043.155, 327.9096
1043.637, 328.0320
1044.119, 329.0490
1044.601, 330.7027
1045.083, 332.8889
1045.565, 334.0479
1046.047, 332.4934
1046.530, 331.1829
1047.012, 331.2176
1047.494, 332.0198
1047.976, 331.8785
1048.458, 330.9301
1048.940, 330.2549
1049.422, 330.0890
1049.904, 330.4515
1050.386, 332.0302
1050.869, 333.7308
1051.351, 334.3208
1051.833, 333.5499
1052.315, 332.9599
1052.797, 332.5215
1053.279, 332.3909
1053.761, 332.7614
1054.243, 333.4196
1054.726, 334.1990
1055.208, 334.9598
1055.690, 335.3358
1056.172, 334.9998
1056.654, 334.5020
1057.136, 333.8187
1057.618, 333.1532
1058.100, 332.7118
1058.583, 332.4961
1059.065, 332.5056
1059.547, 332.7420
1060.029, 333.2202
1060.511, 334.5580
1060.993, 335.5658
1061.475, 335.2321
1061.957, 333.8882
1062.439, 332.9388
1062.922, 332.4247
1063.404, 332.0273
1063.886, 331.6181
1064.368, 331.4538
1064.850, 332.1041
1065.332, 333.0770
1065.814, 333.7120
1066.296, 333.8347
1066.778, 333.8213
1067.261, 333.8058
1067.743, 333.4837
1068.225, 332.3919
1068.707, 331.0171
1069.189, 331.2911
1069.671, 332.7856
1070.153, 333.9584
1070.635, 333.7310
1071.118, 333.5842
1071.600, 334.5888
1072.082, 335.6312
1072.564, 335.3462
1073.046, 333.5403
1073.528, 332.9901
1074.010, 333.8119
1074.492, 334.9184
1074.974, 336.0135
1075.457, 336.5602
1075.939, 335.5405
1076.421, 333.4741
1076.903, 332.5416
1077.385, 333.3030
1077.867, 333.9370
1078.349, 334.0652
1078.831, 334.1928
1079.313, 335.2617
1079.796, 336.7035
1080.278, 337.6223
1080.760, 337.9149
1081.242, 337.3669
1081.724, 334.3200
1082.206, 332.3379
1082.688, 333.0812
1083.170, 335.5963
1083.652, 337.0550
1084.135, 337.5441
1084.617, 337.3314
1085.099, 336.1833
1085.581, 335.2097
1086.063, 335.0573
1086.545, 335.4530
1087.027, 336.2707
1087.509, 337.6184
1087.992, 338.0727
1088.474, 337.5843
1088.956, 337.0262
1089.438, 336.8666
1089.920, 336.9578
1090.402, 337.4086
1090.884, 337.9379
1091.366, 337.8866
1091.849, 336.2468
1092.331, 335.9484
1092.813, 337.4707
1093.295, 339.3964
1093.777, 340.4874
1094.259, 340.8847
1094.741, 340.6602
1095.223, 339.9394
1095.705, 339.5039
1096.188, 340.2739
1096.670, 340.5766
1097.152, 339.7979
1097.634, 338.5560
1098.116, 337.7460
1098.598, 337.4331
1099.080, 338.2395
1099.562, 340.3991
1100.044, 342.1609
1100.527, 342.3378
1101.009, 341.7316
1101.491, 340.3756
1101.973, 338.6174
1102.455, 338.8522
1102.937, 341.1544
1103.419, 343.1187
1103.901, 343.8910
1104.384, 344.0952
1104.866, 344.0732
1105.348, 343.9987
1105.830, 344.0861
1106.312, 344.3926
1106.794, 344.8116
1107.276, 345.5022
1107.758, 345.6952
1108.240, 344.4219
1108.723, 342.8157
1109.205, 343.0219
1109.687, 344.4486
1110.169, 345.7236
1110.651, 346.7200
1111.133, 347.0418
1111.615, 346.5436
1112.097, 345.6443
1112.579, 344.4817
1113.062, 343.2492
1113.544, 342.4837
1114.026, 342.2632
1114.508, 342.9835
1114.990, 346.6362
1115.472, 349.0738
1115.954, 347.9673
1116.436, 345.4288
1116.919, 344.6983
1117.401, 345.6287
1117.883, 345.9036
1118.365, 345.2441
1118.847, 344.4902
1119.329, 344.1673
1119.811, 344.0610
1120.293, 344.0199
1120.776, 344.0657
1121.258, 344.4203
1121.740, 345.1504
1122.222, 345.4615
1122.704, 345.0467
1123.186, 344.6558
1123.668, 345.4772
1124.150, 346.5021
1124.632, 346.3602
1125.115, 344.6745
1125.597, 344.4405
1126.079, 346.2885
1126.561, 347.5554
1127.043, 346.9604
1127.525, 345.6192
1128.007, 345.3097
1128.489, 345.5926
1128.971, 345.7464
1129.454, 345.6432
1129.936, 345.2244
1130.418, 344.2939
1130.900, 343.4361
1131.382, 342.8507
1131.864, 342.6555
1132.346, 343.7531
1132.828, 345.5751
1133.311, 346.3142
1133.793, 343.8393
1134.275, 342.1621
1134.757, 342.5660
1135.239, 343.5798
1135.721, 343.9743
1136.203, 343.8325
1136.685, 343.8046
1137.167, 343.9083
1137.650, 344.1804
1138.132, 345.0194
1138.614, 345.6068
1139.096, 345.2391
1139.578, 344.5737
1140.060, 344.6204
1140.542, 345.3942
1141.024, 345.5265
1141.506, 344.8956
1141.989, 344.4379
1142.471, 345.3383
1142.953, 346.2164
1143.435, 345.9421
1143.917, 344.8296
1144.399, 343.9415
1144.881, 343.2224
1145.363, 343.3838
1145.846, 344.6931
1146.328, 345.9781
1146.810, 345.8880
1147.292, 345.3055
1147.774, 345.1873
1148.256, 345.5632
1148.738, 345.1133
1149.220, 343.3564
1149.703, 342.7572
1150.185, 344.3343
1150.667, 346.3495
1151.149, 346.2418
1151.631, 345.2768
1152.113, 345.3466
1152.595, 346.9735
1153.077, 347.8095
1153.559, 347.5163
1154.042, 346.9087
1154.524, 346.1016
1155.006, 345.4703
1155.488, 345.8872
1155.970, 346.9541
1156.452, 348.0026
1156.934, 349.2139
1157.416, 349.1672
1157.898, 346.8639
1158.381, 345.0577
1158.863, 345.6718
1159.345, 347.6501
1159.827, 347.6925
1160.309, 346.5468
1160.791, 346.3348
1161.273, 349.1050
1161.755, 350.5019
1162.238, 348.9963
1162.720, 346.8479
1163.202, 345.5469
1163.684, 345.0111
1164.166, 344.8287
1164.648, 344.9762
1165.130, 345.3544
1165.612, 346.3260
1166.094, 346.9878
1166.577, 347.0786
1167.059, 346.7032
1167.541, 345.5411
1168.023, 343.7993
1168.505, 343.7889
1168.987, 345.3822
1169.469, 346.9402
1169.951, 347.6803
1170.433, 347.9655
1170.916, 347.7419
1171.398, 347.2933
1171.880, 346.8583
1172.362, 346.4580
1172.844, 346.6407
1173.326, 347.4355
1173.808, 348.2178
1174.290, 348.5234
1174.773, 348.7253
1175.255, 349.1259
1175.737, 349.5485
1176.219, 349.7624
1176.701, 349.7745
1177.183, 348.4754
1177.665, 345.5868
1178.147, 343.6903
1178.630, 346.0498
1179.112, 348.9896
1179.594, 349.7816
1180.076, 348.9995
1180.558, 348.6701
1181.040, 348.8108
1181.522, 349.0029
1182.004, 349.1837
1182.486, 349.2606
1182.969, 349.1788
1183.451, 348.9292
1183.933, 348.3768
1184.415, 347.6024
1184.897, 347.1064
1185.379, 346.8836
1185.861, 346.9508
1186.343, 347.3229
1186.825, 347.9382
1187.308, 349.3151
1187.790, 350.4964
1188.272, 350.2606
1188.754, 348.6342
1189.236, 347.7173
1189.718, 347.5798
1190.200, 347.6098
1190.682, 347.5833
1191.165, 347.7525
1191.647, 349.0795
1192.129, 350.3062
1192.611, 349.7215
1193.093, 347.0397
1193.575, 345.3352
1194.057, 344.6086
1194.539, 344.9105
1195.021, 346.5699
1195.504, 348.5982
1195.986, 350.3154
1196.468, 351.4992
1196.950, 351.7602
1197.432, 350.9903
1197.914, 349.7097
1198.396, 347.7207
1198.878, 346.6240
1199.360, 347.7757
1199.843, 349.2823
1200.325, 348.4717
1200.807, 346.8009
1201.289, 346.4764
1201.771, 348.1665
1202.253, 349.1944
1202.735, 349.5253
1203.217, 349.4152
1203.700, 348.5069
1204.182, 347.8463
1204.664, 349.4392
1205.146, 351.7973
1205.628, 352.3297
1206.110, 349.9200
1206.592, 348.8188
1207.074, 349.2085
1207.557, 349.6475
1208.039, 348.6576
1208.521, 347.7603
1209.003, 349.4110
1209.485, 352.1394
1209.967, 353.0646
1210.449, 350.9186
1210.931, 350.2499
1211.413, 351.2905
1211.896, 352.3352
1212.378, 352.0364
1212.860, 351.2764
1213.342, 351.0106
1213.824, 350.9859
1214.306, 350.5965
1214.788, 349.4326
1215.270, 349.3326
1215.752, 350.4721
1216.235, 351.5695
1216.717, 351.8183
1217.199, 351.4425
1217.681, 350.2663
1218.163, 348.7267
1218.645, 347.8188
1219.127, 347.6537
1219.609, 347.8538
1220.092, 348.4465
1220.574, 349.0046
1221.056, 349.3018
1221.538, 349.3118
1222.020, 348.5706
1222.502, 347.6362
1222.984, 347.9088
1223.466, 349.9058
1223.948, 350.3767
1224.431, 348.9826
1224.913, 347.9957
1225.395, 350.0102
1225.877, 352.4792
1226.359, 353.2912
1226.841, 352.9130
1227.323, 352.7101
1227.805, 352.7005
1228.287, 352.9677
1228.770, 353.5530
1229.252, 353.6772
1229.734, 351.7836
1230.216, 350.1026
1230.698, 350.7063
1231.180, 352.6683
1231.662, 353.8392
1232.144, 354.2031
1232.627, 353.8539
1233.109, 352.7715
1233.591, 351.9532
1234.073, 352.3870
1234.555, 353.0854
1235.037, 353.4086
1235.519, 353.5469
1236.001, 354.0151
1236.484, 354.8131
1236.966, 354.6226
1237.448, 353.3383
1237.930, 352.5195
1238.412, 354.2738
1238.894, 355.6735
1239.376, 354.4278
1239.858, 352.0901
1240.340, 351.2115
1240.823, 351.6567
1241.305, 351.7407
1241.787, 351.3123
1242.269, 350.7879
1242.751, 349.6938
1243.233, 349.5190
1243.715, 351.7012
1244.197, 354.4218
1244.679, 354.4379
1245.162, 352.3760
1245.644, 351.6479
1246.126, 352.4897
1246.608, 353.4741
1247.090, 354.2387
1247.572, 354.4627
1248.054, 353.8165
1248.536, 352.9717
1249.019, 353.0158
1249.501, 353.7084
1249.983, 354.3887
1250.465, 354.9737
1250.947, 355.3519
1251.429, 355.2362
1251.911, 355.2424
1252.393, 355.5678
1252.875, 355.9327
1253.358, 355.8944
1253.840, 355.6312
1254.322, 355.5989
1254.804, 355.7915
1255.286, 355.8013
1255.768, 355.2338
1256.250, 355.0090
1256.732, 355.3676
1257.214, 355.8658
1257.697, 355.9365
1258.179, 355.8017
1258.661, 355.7488
1259.143, 355.8169
1259.625, 356.1082
1260.107, 356.6972
1260.589, 357.3754
1261.071, 358.1974
1261.554, 358.7524
1262.036, 358.2880
1262.518, 357.5370
1263.000, 357.5684
1263.482, 358.1312
1263.964, 357.7090
1264.446, 355.8391
1264.928, 354.8847
1265.411, 355.2260
1265.893, 355.8344
1266.375, 355.4702
1266.857, 355.2469
1267.339, 356.5273
1267.821, 358.7002
1268.303, 359.7281
1268.785, 359.5088
1269.267, 359.6732
1269.750, 360.4170
1270.232, 360.7369
1270.714, 359.1971
1271.196, 357.7011
1271.678, 357.8321
1272.160, 358.6512
1272.642, 358.3441
1273.124, 357.0929
1273.606, 358.1138
1274.089, 361.4631
1274.571, 363.6058
1275.053, 361.0742
1275.535, 358.5995
1276.017, 358.0581
1276.499, 358.3288
1276.981, 357.8221
1277.463, 356.8434
1277.946, 356.6226
1278.428, 357.1541
1278.910, 357.7869
1279.392, 358.4377
1279.874, 358.8661
1280.356, 359.0935
1280.838, 358.9911
1281.320, 357.9528
1281.802, 356.6815
1282.285, 356.8489
1282.767, 358.1996
1283.249, 359.3423
1283.731, 359.9609
1284.213, 360.2558
1284.695, 360.2155
1285.177, 359.9588
1285.659, 359.2715
1286.141, 358.6785
1286.624, 359.1134
1287.106, 360.1834
1287.588, 360.7138
1288.070, 360.4977
1288.552, 360.3067
1289.034, 360.1823
1289.516, 360.0532
1289.998, 359.6080
1290.481, 359.3902
1290.963, 360.3745
1291.445, 361.6061
1291.927, 361.2538
1292.409, 359.1336
1292.891, 359.1004
1293.373, 361.0619
1293.855, 362.3118
1294.338, 360.2198
1294.820, 358.2336
1295.302, 357.9807
1295.784, 358.6176
1296.266, 359.5356
1296.748, 360.7583
1297.230, 363.0094
1297.712, 365.8394
1298.194, 367.2338
1298.677, 364.9874
1299.159, 362.8141
1299.641, 360.9094
1300.123, 359.9077
1300.605, 360.8627
1301.087, 362.7540
1301.569, 363.0304
1302.051, 362.1869
1302.533, 361.3973
1303.016, 360.6209
##END=



