##NAMES=Lavendulan
##RRUFFID=R141212
##IDEAL CHEMISTRY=NaCaCu^2+^_5_(As^5+^O_4_)_4_Cl&#183;5H_2_O
##LOCALITY=Alice May mine, Ravensthorpe, Western Australia, Australia
##OWNER=RRUFF
##SOURCE=James Shigley
##DESCRIPTION=Sprays of blue bladed crystals
##STATUS=The identification of this mineral has been confirmed only by single crystal X-ray diffraction.
##URL=rruff.info/R141212
9.059570e+001, 1.156812e+002
9.107782e+001, 1.156518e+002
9.155994e+001, 1.156470e+002
9.204205e+001, 1.157259e+002
9.252417e+001, 1.157872e+002
9.300629e+001, 1.158601e+002
9.348840e+001, 1.153208e+002
9.397052e+001, 1.133592e+002
9.445264e+001, 1.096178e+002
9.493475e+001, 1.054058e+002
9.541687e+001, 1.014387e+002
9.589898e+001, 9.753760e+001
9.638110e+001, 9.400809e+001
9.686321e+001, 9.119917e+001
9.734533e+001, 8.918684e+001
9.782745e+001, 8.755557e+001
9.830956e+001, 8.582051e+001
9.879168e+001, 8.378152e+001
9.927380e+001, 8.191639e+001
9.975591e+001, 8.037072e+001
1.002380e+002, 7.906277e+001
1.007201e+002, 7.784293e+001
1.012023e+002, 7.669536e+001
1.016844e+002, 7.552232e+001
1.021665e+002, 7.407191e+001
1.026486e+002, 7.188738e+001
1.031307e+002, 6.970322e+001
1.036128e+002, 6.821715e+001
1.040950e+002, 6.747221e+001
1.045771e+002, 6.708698e+001
1.050592e+002, 6.709687e+001
1.055413e+002, 6.724348e+001
1.060234e+002, 6.710777e+001
1.065055e+002, 6.628130e+001
1.069877e+002, 6.498784e+001
1.074698e+002, 6.419466e+001
1.079519e+002, 6.435963e+001
1.084340e+002, 6.447816e+001
1.089161e+002, 6.412608e+001
1.093982e+002, 6.338561e+001
1.098804e+002, 6.250000e+001
1.103625e+002, 6.166154e+001
1.108446e+002, 6.087510e+001
1.113267e+002, 6.012539e+001
1.118088e+002, 5.925965e+001
1.122909e+002, 5.854012e+001
1.127731e+002, 5.819613e+001
1.132552e+002, 5.820717e+001
1.137373e+002, 5.830215e+001
1.142194e+002, 5.807886e+001
1.147015e+002, 5.718279e+001
1.151836e+002, 5.660340e+001
1.156658e+002, 5.657867e+001
1.161479e+002, 5.674289e+001
1.166300e+002, 5.673368e+001
1.171121e+002, 5.641729e+001
1.175942e+002, 5.592179e+001
1.180763e+002, 5.556206e+001
1.185584e+002, 5.546083e+001
1.190406e+002, 5.522137e+001
1.195227e+002, 5.458465e+001
1.200048e+002, 5.369775e+001
1.204869e+002, 5.297748e+001
1.209690e+002, 5.267558e+001
1.214511e+002, 5.261361e+001
1.219333e+002, 5.234670e+001
1.224154e+002, 5.169020e+001
1.228975e+002, 5.114170e+001
1.233796e+002, 5.130327e+001
1.238617e+002, 5.228230e+001
1.243438e+002, 5.305573e+001
1.248260e+002, 5.270124e+001
1.253081e+002, 5.203598e+001
1.257902e+002, 5.185419e+001
1.262723e+002, 5.258529e+001
1.267544e+002, 5.375724e+001
1.272365e+002, 5.424120e+001
1.277187e+002, 5.351841e+001
1.282008e+002, 5.295679e+001
1.286829e+002, 5.319427e+001
1.291650e+002, 5.377478e+001
1.296471e+002, 5.410685e+001
1.301292e+002, 5.382234e+001
1.306114e+002, 5.294649e+001
1.310935e+002, 5.183437e+001
1.315756e+002, 5.011014e+001
1.320577e+002, 4.849078e+001
1.325398e+002, 4.713878e+001
1.330219e+002, 4.604153e+001
1.335041e+002, 4.513012e+001
1.339862e+002, 4.434999e+001
1.344683e+002, 4.371618e+001
1.349504e+002, 4.312209e+001
1.354325e+002, 4.240564e+001
1.359146e+002, 4.184022e+001
1.363968e+002, 4.169358e+001
1.368789e+002, 4.194720e+001
1.373610e+002, 4.225402e+001
1.378431e+002, 4.218918e+001
1.383252e+002, 4.164305e+001
1.388073e+002, 4.128113e+001
1.392895e+002, 4.139094e+001
1.397716e+002, 4.160454e+001
1.402537e+002, 4.143784e+001
1.407358e+002, 4.073146e+001
1.412179e+002, 3.985533e+001
1.417000e+002, 3.926592e+001
1.421821e+002, 3.892998e+001
1.426643e+002, 3.870498e+001
1.431464e+002, 3.856560e+001
1.436285e+002, 3.849915e+001
1.441106e+002, 3.847415e+001
1.445927e+002, 3.855674e+001
1.450748e+002, 3.858751e+001
1.455570e+002, 3.840610e+001
1.460391e+002, 3.801347e+001
1.465212e+002, 3.760000e+001
1.470033e+002, 3.730718e+001
1.474854e+002, 3.713694e+001
1.479675e+002, 3.706718e+001
1.484497e+002, 3.733559e+001
1.489318e+002, 3.755000e+001
1.494139e+002, 3.740985e+001
1.498960e+002, 3.687138e+001
1.503781e+002, 3.623083e+001
1.508602e+002, 3.597969e+001
1.513424e+002, 3.641790e+001
1.518245e+002, 3.658184e+001
1.523066e+002, 3.633918e+001
1.527887e+002, 3.587262e+001
1.532708e+002, 3.525505e+001
1.537529e+002, 3.452785e+001
1.542351e+002, 3.378013e+001
1.547172e+002, 3.324026e+001
1.551993e+002, 3.314415e+001
1.556814e+002, 3.299616e+001
1.561635e+002, 3.277703e+001
1.566456e+002, 3.249259e+001
1.571278e+002, 3.212217e+001
1.576099e+002, 3.164602e+001
1.580920e+002, 3.112007e+001
1.585741e+002, 3.079549e+001
1.590562e+002, 3.084918e+001
1.595383e+002, 3.087335e+001
1.600205e+002, 3.075128e+001
1.605026e+002, 3.052532e+001
1.609847e+002, 3.027407e+001
1.614668e+002, 3.000785e+001
1.619489e+002, 2.978082e+001
1.624310e+002, 2.978759e+001
1.629131e+002, 3.030256e+001
1.633953e+002, 3.077255e+001
1.638774e+002, 3.084169e+001
1.643595e+002, 3.054144e+001
1.648416e+002, 3.017446e+001
1.653237e+002, 2.991509e+001
1.658058e+002, 2.971786e+001
1.662880e+002, 2.946540e+001
1.667701e+002, 2.903196e+001
1.672522e+002, 2.862693e+001
1.677343e+002, 2.854470e+001
1.682164e+002, 2.885575e+001
1.686985e+002, 2.915505e+001
1.691807e+002, 2.918154e+001
1.696628e+002, 2.906061e+001
1.701449e+002, 2.891207e+001
1.706270e+002, 2.870589e+001
1.711091e+002, 2.854327e+001
1.715912e+002, 2.870666e+001
1.720734e+002, 2.941697e+001
1.725555e+002, 3.005223e+001
1.730376e+002, 3.035422e+001
1.735197e+002, 3.044833e+001
1.740018e+002, 3.051964e+001
1.744839e+002, 3.069857e+001
1.749661e+002, 3.094088e+001
1.754482e+002, 3.095564e+001
1.759303e+002, 3.039064e+001
1.764124e+002, 2.999258e+001
1.768945e+002, 3.009274e+001
1.773766e+002, 3.049145e+001
1.778588e+002, 3.083739e+001
1.783409e+002, 3.087830e+001
1.788230e+002, 3.061188e+001
1.793051e+002, 3.026200e+001
1.797872e+002, 2.977099e+001
1.802693e+002, 2.925375e+001
1.807515e+002, 2.871406e+001
1.812336e+002, 2.817174e+001
1.817157e+002, 2.767549e+001
1.821978e+002, 2.727903e+001
1.826799e+002, 2.700554e+001
1.831620e+002, 2.658968e+001
1.836441e+002, 2.581407e+001
1.841263e+002, 2.511806e+001
1.846084e+002, 2.478781e+001
1.850905e+002, 2.478479e+001
1.855726e+002, 2.481477e+001
1.860547e+002, 2.458040e+001
1.865368e+002, 2.402608e+001
1.870190e+002, 2.375413e+001
1.875011e+002, 2.401774e+001
1.879832e+002, 2.437377e+001
1.884653e+002, 2.450252e+001
1.889474e+002, 2.437006e+001
1.894296e+002, 2.412471e+001
1.899117e+002, 2.386348e+001
1.903938e+002, 2.359345e+001
1.908759e+002, 2.342692e+001
1.913580e+002, 2.351832e+001
1.918401e+002, 2.365517e+001
1.923223e+002, 2.355927e+001
1.928044e+002, 2.316347e+001
1.932865e+002, 2.272257e+001
1.937686e+002, 2.249266e+001
1.942507e+002, 2.241855e+001
1.947328e+002, 2.236417e+001
1.952150e+002, 2.229437e+001
1.956971e+002, 2.221529e+001
1.961792e+002, 2.213243e+001
1.966613e+002, 2.203385e+001
1.971434e+002, 2.196037e+001
1.976255e+002, 2.193918e+001
1.981077e+002, 2.196223e+001
1.985898e+002, 2.201674e+001
1.990719e+002, 2.215626e+001
1.995540e+002, 2.233763e+001
2.000361e+002, 2.236395e+001
2.005182e+002, 2.215234e+001
2.010004e+002, 2.188276e+001
2.014825e+002, 2.156858e+001
2.019646e+002, 2.126865e+001
2.024467e+002, 2.113112e+001
2.029288e+002, 2.135428e+001
2.034109e+002, 2.190581e+001
2.038930e+002, 2.222239e+001
2.043752e+002, 2.220616e+001
2.048573e+002, 2.202076e+001
2.053394e+002, 2.158335e+001
2.058215e+002, 2.101599e+001
2.063036e+002, 2.058017e+001
2.067857e+002, 2.053898e+001
2.072679e+002, 2.092109e+001
2.077500e+002, 2.113698e+001
2.082321e+002, 2.107865e+001
2.087142e+002, 2.094078e+001
2.091963e+002, 2.066450e+001
2.096784e+002, 2.033866e+001
2.101606e+002, 2.016601e+001
2.106427e+002, 2.037083e+001
2.111248e+002, 2.102687e+001
2.116069e+002, 2.138594e+001
2.120890e+002, 2.119939e+001
2.125711e+002, 2.097822e+001
2.130533e+002, 2.098705e+001
2.135354e+002, 2.116471e+001
2.140175e+002, 2.122735e+001
2.144996e+002, 2.085984e+001
2.149817e+002, 1.991985e+001
2.154638e+002, 1.960573e+001
2.159460e+002, 2.043841e+001
2.164281e+002, 2.128693e+001
2.169102e+002, 2.155789e+001
2.173923e+002, 2.128388e+001
2.178744e+002, 2.088013e+001
2.183565e+002, 2.072561e+001
2.188387e+002, 2.086274e+001
2.193208e+002, 2.087424e+001
2.198029e+002, 2.065853e+001
2.202850e+002, 2.041587e+001
2.207671e+002, 2.025521e+001
2.212492e+002, 2.018400e+001
2.217314e+002, 2.016760e+001
2.222135e+002, 2.018832e+001
2.226956e+002, 2.024848e+001
2.231777e+002, 2.027846e+001
2.236598e+002, 2.020197e+001
2.241419e+002, 2.015054e+001
2.246240e+002, 2.025752e+001
2.251062e+002, 2.052131e+001
2.255883e+002, 2.079076e+001
2.260704e+002, 2.098974e+001
2.265525e+002, 2.108784e+001
2.270346e+002, 2.097869e+001
2.275167e+002, 2.038874e+001
2.279989e+002, 1.975424e+001
2.284810e+002, 1.956564e+001
2.289631e+002, 1.986003e+001
2.294452e+002, 2.011922e+001
2.299273e+002, 1.986740e+001
2.304094e+002, 1.928765e+001
2.308916e+002, 1.889292e+001
2.313737e+002, 1.886850e+001
2.318558e+002, 1.901025e+001
2.323379e+002, 1.913050e+001
2.328200e+002, 1.923922e+001
2.333021e+002, 1.925498e+001
2.337843e+002, 1.901793e+001
2.342664e+002, 1.867063e+001
2.347485e+002, 1.843438e+001
2.352306e+002, 1.840632e+001
2.357127e+002, 1.847779e+001
2.361948e+002, 1.848870e+001
2.366770e+002, 1.841265e+001
2.371591e+002, 1.838728e+001
2.376412e+002, 1.863737e+001
2.381233e+002, 1.893084e+001
2.386054e+002, 1.896206e+001
2.390875e+002, 1.852736e+001
2.395697e+002, 1.794999e+001
2.400518e+002, 1.780006e+001
2.405339e+002, 1.823140e+001
2.410160e+002, 1.859595e+001
2.414981e+002, 1.857897e+001
2.419802e+002, 1.840289e+001
2.424624e+002, 1.826578e+001
2.429445e+002, 1.823875e+001
2.434266e+002, 1.826504e+001
2.439087e+002, 1.824780e+001
2.443908e+002, 1.817269e+001
2.448729e+002, 1.809196e+001
2.453550e+002, 1.800432e+001
2.458372e+002, 1.792556e+001
2.463193e+002, 1.788008e+001
2.468014e+002, 1.787842e+001
2.472835e+002, 1.788379e+001
2.477656e+002, 1.781863e+001
2.482477e+002, 1.762837e+001
2.487299e+002, 1.750112e+001
2.492120e+002, 1.749534e+001
2.496941e+002, 1.754126e+001
2.501762e+002, 1.759103e+001
2.506583e+002, 1.762962e+001
2.511404e+002, 1.766706e+001
2.516226e+002, 1.775661e+001
2.521047e+002, 1.803995e+001
2.525868e+002, 1.803156e+001
2.530689e+002, 1.739066e+001
2.535510e+002, 1.668534e+001
2.540331e+002, 1.633812e+001
2.545153e+002, 1.644627e+001
2.549974e+002, 1.678051e+001
2.554795e+002, 1.700635e+001
2.559616e+002, 1.709930e+001
2.564437e+002, 1.712262e+001
2.569258e+002, 1.706154e+001
2.574080e+002, 1.695933e+001
2.578901e+002, 1.682070e+001
2.583722e+002, 1.665808e+001
2.588543e+002, 1.650855e+001
2.593364e+002, 1.641530e+001
2.598185e+002, 1.635843e+001
2.603007e+002, 1.642357e+001
2.607828e+002, 1.679103e+001
2.612649e+002, 1.711841e+001
2.617470e+002, 1.713990e+001
2.622291e+002, 1.686150e+001
2.627112e+002, 1.652186e+001
2.631934e+002, 1.640386e+001
2.636755e+002, 1.659944e+001
2.641576e+002, 1.668505e+001
2.646397e+002, 1.656971e+001
2.651218e+002, 1.644282e+001
2.656039e+002, 1.645212e+001
2.660861e+002, 1.657284e+001
2.665682e+002, 1.663318e+001
2.670503e+002, 1.643128e+001
2.675324e+002, 1.587736e+001
2.680145e+002, 1.567091e+001
2.684966e+002, 1.614741e+001
2.689788e+002, 1.659317e+001
2.694609e+002, 1.658752e+001
2.699430e+002, 1.620507e+001
2.704251e+002, 1.582535e+001
2.709072e+002, 1.577783e+001
2.713893e+002, 1.608164e+001
2.718715e+002, 1.614963e+001
2.723536e+002, 1.580021e+001
2.728357e+002, 1.544736e+001
2.733178e+002, 1.521985e+001
2.737999e+002, 1.512883e+001
2.742820e+002, 1.519100e+001
2.747642e+002, 1.544964e+001
2.752463e+002, 1.587376e+001
2.757284e+002, 1.606150e+001
2.762105e+002, 1.595683e+001
2.766926e+002, 1.574326e+001
2.771747e+002, 1.535230e+001
2.776568e+002, 1.489485e+001
2.781389e+002, 1.462036e+001
2.786211e+002, 1.468307e+001
2.791032e+002, 1.500271e+001
2.795853e+002, 1.524123e+001
2.800674e+002, 1.547940e+001
2.805495e+002, 1.556706e+001
2.810316e+002, 1.532219e+001
2.815138e+002, 1.491797e+001
2.819959e+002, 1.466780e+001
2.824780e+002, 1.471404e+001
2.829601e+002, 1.496420e+001
2.834422e+002, 1.520059e+001
2.839243e+002, 1.548468e+001
2.844065e+002, 1.565236e+001
2.848886e+002, 1.557909e+001
2.853707e+002, 1.539266e+001
2.858528e+002, 1.530801e+001
2.863349e+002, 1.540897e+001
2.868170e+002, 1.554499e+001
2.872992e+002, 1.543477e+001
2.877813e+002, 1.499833e+001
2.882634e+002, 1.461589e+001
2.887455e+002, 1.425036e+001
2.892276e+002, 1.400954e+001
2.897097e+002, 1.415028e+001
2.901919e+002, 1.474931e+001
2.906740e+002, 1.533903e+001
2.911561e+002, 1.525434e+001
2.916382e+002, 1.437165e+001
2.921203e+002, 1.379450e+001
2.926024e+002, 1.384779e+001
2.930846e+002, 1.413151e+001
2.935667e+002, 1.431174e+001
2.940488e+002, 1.434132e+001
2.945309e+002, 1.420885e+001
2.950130e+002, 1.382163e+001
2.954951e+002, 1.318501e+001
2.959773e+002, 1.281721e+001
2.964594e+002, 1.295397e+001
2.969415e+002, 1.320828e+001
2.974236e+002, 1.326392e+001
2.979057e+002, 1.312283e+001
2.983878e+002, 1.299580e+001
2.988700e+002, 1.303250e+001
2.993521e+002, 1.321657e+001
2.998342e+002, 1.338107e+001
3.003163e+002, 1.360907e+001
3.007984e+002, 1.374288e+001
3.012805e+002, 1.360627e+001
3.017627e+002, 1.326266e+001
3.022448e+002, 1.300126e+001
3.027269e+002, 1.297805e+001
3.032090e+002, 1.314167e+001
3.036911e+002, 1.331740e+001
3.041732e+002, 1.351671e+001
3.046554e+002, 1.370994e+001
3.051375e+002, 1.395106e+001
3.056196e+002, 1.418131e+001
3.061017e+002, 1.421338e+001
3.065838e+002, 1.392507e+001
3.070659e+002, 1.350196e+001
3.075481e+002, 1.330543e+001
3.080302e+002, 1.334832e+001
3.085123e+002, 1.347257e+001
3.089944e+002, 1.378652e+001
3.094765e+002, 1.411750e+001
3.099586e+002, 1.409165e+001
3.104408e+002, 1.355687e+001
3.109229e+002, 1.290092e+001
3.114050e+002, 1.265845e+001
3.118871e+002, 1.282654e+001
3.123692e+002, 1.304497e+001
3.128513e+002, 1.334237e+001
3.133335e+002, 1.360871e+001
3.138156e+002, 1.369163e+001
3.142977e+002, 1.356439e+001
3.147798e+002, 1.336313e+001
3.152619e+002, 1.318117e+001
3.157440e+002, 1.302457e+001
3.162262e+002, 1.294514e+001
3.167083e+002, 1.299548e+001
3.171904e+002, 1.309061e+001
3.176725e+002, 1.321466e+001
3.181546e+002, 1.335271e+001
3.186367e+002, 1.335081e+001
3.191188e+002, 1.302616e+001
3.196010e+002, 1.248396e+001
3.200831e+002, 1.222042e+001
3.205652e+002, 1.243338e+001
3.210473e+002, 1.271646e+001
3.215294e+002, 1.285790e+001
3.220115e+002, 1.288629e+001
3.224937e+002, 1.290099e+001
3.229758e+002, 1.294151e+001
3.234579e+002, 1.300373e+001
3.239400e+002, 1.310086e+001
3.244221e+002, 1.334096e+001
3.249042e+002, 1.339461e+001
3.253864e+002, 1.284247e+001
3.258685e+002, 1.206607e+001
3.263506e+002, 1.188680e+001
3.268327e+002, 1.265430e+001
3.273148e+002, 1.374589e+001
3.277969e+002, 1.414868e+001
3.282791e+002, 1.376503e+001
3.287612e+002, 1.344726e+001
3.292433e+002, 1.339195e+001
3.297254e+002, 1.346339e+001
3.302075e+002, 1.350096e+001
3.306896e+002, 1.347696e+001
3.311718e+002, 1.347134e+001
3.316539e+002, 1.358693e+001
3.321360e+002, 1.383510e+001
3.326181e+002, 1.398221e+001
3.331002e+002, 1.389352e+001
3.335823e+002, 1.379733e+001
3.340645e+002, 1.391931e+001
3.345466e+002, 1.423050e+001
3.350287e+002, 1.446008e+001
3.355108e+002, 1.438474e+001
3.359929e+002, 1.406253e+001
3.364750e+002, 1.393802e+001
3.369572e+002, 1.421511e+001
3.374393e+002, 1.445087e+001
3.379214e+002, 1.437376e+001
3.384035e+002, 1.410980e+001
3.388856e+002, 1.397226e+001
3.393677e+002, 1.411769e+001
3.398499e+002, 1.444962e+001
3.403320e+002, 1.472446e+001
3.408141e+002, 1.501019e+001
3.412962e+002, 1.513383e+001
3.417783e+002, 1.492181e+001
3.422604e+002, 1.457961e+001
3.427426e+002, 1.436600e+001
3.432247e+002, 1.435537e+001
3.437068e+002, 1.448030e+001
3.441889e+002, 1.468040e+001
3.446710e+002, 1.505448e+001
3.451531e+002, 1.516671e+001
3.456353e+002, 1.474936e+001
3.461174e+002, 1.425231e+001
3.465995e+002, 1.401610e+001
3.470816e+002, 1.406548e+001
3.475637e+002, 1.425611e+001
3.480458e+002, 1.450898e+001
3.485280e+002, 1.483774e+001
3.490101e+002, 1.478192e+001
3.494922e+002, 1.395500e+001
3.499743e+002, 1.320051e+001
3.504564e+002, 1.291577e+001
3.509385e+002, 1.299241e+001
3.514207e+002, 1.315528e+001
3.519028e+002, 1.325776e+001
3.523849e+002, 1.329576e+001
3.528670e+002, 1.324668e+001
3.533491e+002, 1.306695e+001
3.538312e+002, 1.285537e+001
3.543134e+002, 1.251776e+001
3.547955e+002, 1.219602e+001
3.552776e+002, 1.209775e+001
3.557597e+002, 1.228846e+001
3.562418e+002, 1.258901e+001
3.567239e+002, 1.268995e+001
3.572061e+002, 1.243660e+001
3.576882e+002, 1.229275e+001
3.581703e+002, 1.242637e+001
3.586524e+002, 1.253426e+001
3.591345e+002, 1.235796e+001
3.596166e+002, 1.191164e+001
3.600987e+002, 1.141999e+001
3.605808e+002, 1.108288e+001
3.610630e+002, 1.089568e+001
3.615451e+002, 1.092251e+001
3.620272e+002, 1.154664e+001
3.625093e+002, 1.197467e+001
3.629914e+002, 1.177059e+001
3.634735e+002, 1.118658e+001
3.639557e+002, 1.072529e+001
3.644378e+002, 1.069860e+001
3.649199e+002, 1.100438e+001
3.654020e+002, 1.120427e+001
3.658841e+002, 1.114720e+001
3.663662e+002, 1.119308e+001
3.668484e+002, 1.154397e+001
3.673305e+002, 1.193172e+001
3.678126e+002, 1.205775e+001
3.682947e+002, 1.183772e+001
3.687768e+002, 1.147493e+001
3.692589e+002, 1.128883e+001
3.697411e+002, 1.135602e+001
3.702232e+002, 1.139562e+001
3.707053e+002, 1.142191e+001
3.711874e+002, 1.140111e+001
3.716695e+002, 1.124551e+001
3.721516e+002, 1.100211e+001
3.726338e+002, 1.084365e+001
3.731159e+002, 1.095524e+001
3.735980e+002, 1.132602e+001
3.740801e+002, 1.160625e+001
3.745622e+002, 1.180887e+001
3.750443e+002, 1.188821e+001
3.755265e+002, 1.174269e+001
3.760086e+002, 1.149261e+001
3.764907e+002, 1.133986e+001
3.769728e+002, 1.140931e+001
3.774549e+002, 1.156455e+001
3.779370e+002, 1.142789e+001
3.784192e+002, 1.078850e+001
3.789013e+002, 1.046278e+001
3.793834e+002, 1.112712e+001
3.798655e+002, 1.191517e+001
3.803476e+002, 1.206613e+001
3.808297e+002, 1.143673e+001
3.813119e+002, 1.066759e+001
3.817940e+002, 1.043734e+001
3.822761e+002, 1.073317e+001
3.827582e+002, 1.095371e+001
3.832403e+002, 1.102799e+001
3.837224e+002, 1.099545e+001
3.842046e+002, 1.086314e+001
3.846867e+002, 1.065408e+001
3.851688e+002, 1.044488e+001
3.856509e+002, 1.020529e+001
3.861330e+002, 1.000783e+001
3.866151e+002, 1.006742e+001
3.870973e+002, 1.046097e+001
3.875794e+002, 1.083406e+001
3.880615e+002, 1.097765e+001
3.885436e+002, 1.097450e+001
3.890257e+002, 1.091742e+001
3.895078e+002, 1.078832e+001
3.899900e+002, 1.067290e+001
3.904721e+002, 1.070418e+001
3.909542e+002, 1.085100e+001
3.914363e+002, 1.084059e+001
3.919184e+002, 1.048891e+001
3.924005e+002, 1.006034e+001
3.928827e+002, 9.921337e+000
3.933648e+002, 1.007812e+001
3.938469e+002, 1.031541e+001
3.943290e+002, 1.062175e+001
3.948111e+002, 1.093367e+001
3.952932e+002, 1.116879e+001
3.957754e+002, 1.132261e+001
3.962575e+002, 1.133337e+001
3.967396e+002, 1.104674e+001
3.972217e+002, 1.051237e+001
3.977038e+002, 1.027168e+001
3.981859e+002, 1.065917e+001
3.986681e+002, 1.107172e+001
3.991501e+002, 1.103229e+001
3.996323e+002, 1.065892e+001
4.001144e+002, 1.042671e+001
4.005965e+002, 1.060634e+001
4.010786e+002, 1.102658e+001
4.015607e+002, 1.118186e+001
4.020428e+002, 1.095666e+001
4.025250e+002, 1.071824e+001
4.030071e+002, 1.049134e+001
4.034892e+002, 1.030105e+001
4.039713e+002, 1.018092e+001
4.044534e+002, 1.013790e+001
4.049355e+002, 1.015036e+001
4.054177e+002, 1.019609e+001
4.058998e+002, 1.027823e+001
4.063819e+002, 1.038328e+001
4.068640e+002, 1.061952e+001
4.073461e+002, 1.077403e+001
4.078282e+002, 1.062650e+001
4.083104e+002, 1.030521e+001
4.087925e+002, 1.016230e+001
4.092746e+002, 1.044300e+001
4.097567e+002, 1.101203e+001
4.102388e+002, 1.124760e+001
4.107209e+002, 1.087601e+001
4.112031e+002, 1.049989e+001
4.116852e+002, 1.002777e+001
4.121673e+002, 9.649188e+000
4.126494e+002, 9.587574e+000
4.131315e+002, 9.879492e+000
4.136136e+002, 1.032034e+001
4.140958e+002, 1.066564e+001
4.145779e+002, 1.093074e+001
4.150600e+002, 1.104095e+001
4.155421e+002, 1.093848e+001
4.160242e+002, 1.072812e+001
4.165063e+002, 1.033656e+001
4.169885e+002, 9.862379e+000
4.174706e+002, 9.519279e+000
4.179527e+002, 9.452903e+000
4.184348e+002, 9.604856e+000
4.189169e+002, 9.816993e+000
4.193990e+002, 1.021233e+001
4.198812e+002, 1.038361e+001
4.203633e+002, 1.000162e+001
4.208454e+002, 9.462804e+000
4.213275e+002, 9.113098e+000
4.218096e+002, 9.034940e+000
4.222917e+002, 9.125464e+000
4.227739e+002, 9.357502e+000
4.232560e+002, 9.718140e+000
4.237381e+002, 9.938096e+000
4.242202e+002, 9.911839e+000
4.247023e+002, 9.822128e+000
4.251844e+002, 9.797172e+000
4.256666e+002, 9.827820e+000
4.261487e+002, 9.883142e+000
4.266308e+002, 9.998178e+000
4.271129e+002, 1.010885e+001
4.275950e+002, 1.007936e+001
4.280771e+002, 9.897358e+000
4.285593e+002, 9.790594e+000
4.290414e+002, 9.947680e+000
4.295235e+002, 1.022354e+001
4.300056e+002, 1.028473e+001
4.304877e+002, 1.003103e+001
4.309698e+002, 9.788970e+000
4.314520e+002, 9.731894e+000
4.319341e+002, 9.798774e+000
4.324162e+002, 9.881754e+000
4.328983e+002, 9.959016e+000
4.333804e+002, 1.001295e+001
4.338625e+002, 1.002044e+001
4.343447e+002, 9.975585e+000
4.348268e+002, 9.914384e+000
4.353089e+002, 9.760617e+000
4.357910e+002, 9.656460e+000
4.362731e+002, 9.772752e+000
4.367552e+002, 1.003687e+001
4.372374e+002, 1.019303e+001
4.377195e+002, 1.008155e+001
4.382016e+002, 9.773413e+000
4.386837e+002, 9.540020e+000
4.391658e+002, 9.325196e+000
4.396479e+002, 9.261756e+000
4.401301e+002, 9.520414e+000
4.406122e+002, 9.843311e+000
4.410943e+002, 9.921306e+000
4.415764e+002, 9.727839e+000
4.420585e+002, 9.558847e+000
4.425406e+002, 9.793275e+000
4.430227e+002, 1.052567e+001
4.435049e+002, 1.097295e+001
4.439870e+002, 1.105364e+001
4.444691e+002, 1.092515e+001
4.449512e+002, 1.042549e+001
4.454333e+002, 9.786556e+000
4.459154e+002, 9.373636e+000
4.463976e+002, 9.390224e+000
4.468797e+002, 9.667814e+000
4.473618e+002, 9.854302e+000
4.478439e+002, 9.951464e+000
4.483260e+002, 9.950051e+000
4.488081e+002, 9.739360e+000
4.492903e+002, 9.508101e+000
4.497724e+002, 9.365998e+000
4.502545e+002, 9.321993e+000
4.507366e+002, 9.331325e+000
4.512187e+002, 9.363214e+000
4.517008e+002, 9.420751e+000
4.521830e+002, 9.526820e+000
4.526651e+002, 9.703681e+000
4.531472e+002, 9.872919e+000
4.536293e+002, 1.004804e+001
4.541114e+002, 1.017122e+001
4.545935e+002, 1.011651e+001
4.550757e+002, 9.759072e+000
4.555578e+002, 9.411224e+000
4.560399e+002, 9.376828e+000
4.565220e+002, 9.587025e+000
4.570041e+002, 9.731082e+000
4.574862e+002, 9.701090e+000
4.579684e+002, 9.619602e+000
4.584505e+002, 9.666825e+000
4.589326e+002, 9.842783e+000
4.594147e+002, 9.956396e+000
4.598968e+002, 1.002248e+001
4.603789e+002, 9.976983e+000
4.608611e+002, 9.646260e+000
4.613432e+002, 9.100871e+000
4.618253e+002, 8.716434e+000
4.623074e+002, 8.739923e+000
4.627895e+002, 9.081918e+000
4.632716e+002, 9.375854e+000
4.637538e+002, 9.709057e+000
4.642359e+002, 9.885653e+000
4.647180e+002, 9.762305e+000
4.652001e+002, 9.538605e+000
4.656822e+002, 9.426799e+000
4.661643e+002, 9.462384e+000
4.666465e+002, 9.522494e+000
4.671286e+002, 9.449538e+000
4.676107e+002, 9.205527e+000
4.680928e+002, 9.195606e+000
4.685749e+002, 9.791700e+000
4.690570e+002, 1.022498e+001
4.695392e+002, 1.016192e+001
4.700213e+002, 9.838439e+000
4.705034e+002, 9.623035e+000
4.709855e+002, 9.681001e+000
4.714676e+002, 9.856326e+000
4.719497e+002, 9.848163e+000
4.724319e+002, 9.588933e+000
4.729140e+002, 9.446432e+000
4.733961e+002, 9.640980e+000
4.738782e+002, 9.822678e+000
4.743603e+002, 9.759325e+000
4.748424e+002, 9.492509e+000
4.753246e+002, 9.230560e+000
4.758067e+002, 9.052017e+000
4.762888e+002, 8.978124e+000
4.767709e+002, 9.098531e+000
4.772530e+002, 9.448701e+000
4.777351e+002, 9.770019e+000
4.782173e+002, 9.968105e+000
4.786994e+002, 1.004490e+001
4.791815e+002, 9.978143e+000
4.796636e+002, 9.701121e+000
4.801457e+002, 9.522692e+000
4.806278e+002, 9.731243e+000
4.811100e+002, 1.010938e+001
4.815920e+002, 1.021035e+001
4.820742e+002, 9.944645e+000
4.825563e+002, 9.670567e+000
4.830384e+002, 9.751721e+000
4.835205e+002, 1.017597e+001
4.840026e+002, 1.032259e+001
4.844847e+002, 9.865752e+000
4.849669e+002, 9.501775e+000
4.854490e+002, 9.669230e+000
4.859311e+002, 1.008877e+001
4.864132e+002, 1.021292e+001
4.868953e+002, 9.840846e+000
4.873774e+002, 9.300169e+000
4.878596e+002, 9.154684e+000
4.883417e+002, 9.643986e+000
4.888238e+002, 9.868611e+000
4.893059e+002, 9.579782e+000
4.897880e+002, 9.309313e+000
4.902701e+002, 9.365986e+000
4.907523e+002, 9.649581e+000
4.912344e+002, 9.878630e+000
4.917165e+002, 9.870215e+000
4.921986e+002, 9.733891e+000
4.926807e+002, 9.805840e+000
4.931628e+002, 1.021911e+001
4.936450e+002, 1.047174e+001
4.941271e+002, 1.027038e+001
4.946092e+002, 1.000749e+001
4.950913e+002, 9.976289e+000
4.955734e+002, 1.017274e+001
4.960555e+002, 1.033894e+001
4.965377e+002, 1.026040e+001
4.970198e+002, 1.001898e+001
4.975019e+002, 9.826354e+000
4.979840e+002, 9.684504e+000
4.984661e+002, 9.605344e+000
4.989482e+002, 9.642273e+000
4.994304e+002, 9.729068e+000
4.999125e+002, 9.727373e+000
5.003946e+002, 9.579398e+000
5.008767e+002, 9.467846e+000
5.013588e+002, 9.560502e+000
5.018409e+002, 9.730036e+000
5.023231e+002, 9.704746e+000
5.028052e+002, 9.426404e+000
5.032873e+002, 9.159311e+000
5.037694e+002, 9.187505e+000
5.042515e+002, 9.525130e+000
5.047336e+002, 9.636379e+000
5.052158e+002, 9.326376e+000
5.056979e+002, 9.035076e+000
5.061800e+002, 8.908998e+000
5.066621e+002, 8.904833e+000
5.071442e+002, 8.972919e+000
5.076263e+002, 9.090024e+000
5.081085e+002, 9.203707e+000
5.085906e+002, 9.205628e+000
5.090727e+002, 9.004628e+000
5.095548e+002, 9.022646e+000
5.100369e+002, 9.653973e+000
5.105190e+002, 1.010933e+001
5.110012e+002, 9.930834e+000
5.114833e+002, 9.376161e+000
5.119654e+002, 8.955874e+000
5.124475e+002, 8.931855e+000
5.129296e+002, 9.135791e+000
5.134117e+002, 9.278745e+000
5.138939e+002, 9.353571e+000
5.143760e+002, 9.430227e+000
5.148581e+002, 9.562607e+000
5.153402e+002, 9.659249e+000
5.158223e+002, 9.627288e+000
5.163044e+002, 9.484491e+000
5.167866e+002, 9.351736e+000
5.172687e+002, 9.196336e+000
5.177508e+002, 9.125728e+000
5.182329e+002, 9.351672e+000
5.187150e+002, 9.850037e+000
5.191971e+002, 1.030274e+001
5.196793e+002, 1.059968e+001
5.201614e+002, 1.071451e+001
5.206435e+002, 1.050366e+001
5.211256e+002, 9.782551e+000
5.216077e+002, 9.334319e+000
5.220898e+002, 9.488882e+000
5.225720e+002, 9.830752e+000
5.230541e+002, 1.002955e+001
5.235362e+002, 1.005684e+001
5.240183e+002, 1.000954e+001
5.245004e+002, 9.948127e+000
5.249825e+002, 9.881742e+000
5.254647e+002, 9.857578e+000
5.259468e+002, 9.894567e+000
5.264289e+002, 9.950930e+000
5.269110e+002, 1.001235e+001
5.273931e+002, 1.009761e+001
5.278752e+002, 1.025507e+001
5.283574e+002, 1.046875e+001
5.288395e+002, 1.063640e+001
5.293216e+002, 1.063705e+001
5.298037e+002, 1.050844e+001
5.302858e+002, 1.049320e+001
5.307679e+002, 1.064081e+001
5.312501e+002, 1.078730e+001
5.317322e+002, 1.079891e+001
5.322143e+002, 1.080410e+001
5.326964e+002, 1.097800e+001
5.331785e+002, 1.137770e+001
5.336606e+002, 1.172367e+001
5.341428e+002, 1.176418e+001
5.346249e+002, 1.163478e+001
5.351070e+002, 1.160373e+001
5.355891e+002, 1.170191e+001
5.360712e+002, 1.195474e+001
5.365533e+002, 1.245644e+001
5.370355e+002, 1.313635e+001
5.375176e+002, 1.355361e+001
5.379997e+002, 1.361054e+001
5.384818e+002, 1.355314e+001
5.389639e+002, 1.327034e+001
5.394460e+002, 1.299415e+001
5.399282e+002, 1.305159e+001
5.404103e+002, 1.348934e+001
5.408924e+002, 1.408474e+001
5.413745e+002, 1.464290e+001
5.418566e+002, 1.517184e+001
5.423387e+002, 1.538357e+001
5.428209e+002, 1.494209e+001
5.433029e+002, 1.457056e+001
5.437850e+002, 1.434513e+001
5.442672e+002, 1.429677e+001
5.447493e+002, 1.454655e+001
5.452314e+002, 1.510299e+001
5.457135e+002, 1.562702e+001
5.461956e+002, 1.569357e+001
5.466777e+002, 1.534370e+001
5.471599e+002, 1.505876e+001
5.476420e+002, 1.487488e+001
5.481241e+002, 1.473424e+001
5.486062e+002, 1.462905e+001
5.490883e+002, 1.453812e+001
5.495704e+002, 1.442601e+001
5.500526e+002, 1.428554e+001
5.505347e+002, 1.412714e+001
5.510168e+002, 1.392042e+001
5.514989e+002, 1.370640e+001
5.519810e+002, 1.361989e+001
5.524631e+002, 1.369418e+001
5.529453e+002, 1.368997e+001
5.534274e+002, 1.334130e+001
5.539095e+002, 1.264502e+001
5.543916e+002, 1.219273e+001
5.548737e+002, 1.213431e+001
5.553558e+002, 1.210077e+001
5.558380e+002, 1.202037e+001
5.563201e+002, 1.189455e+001
5.568022e+002, 1.172095e+001
5.572843e+002, 1.150348e+001
5.577664e+002, 1.127155e+001
5.582485e+002, 1.104663e+001
5.587307e+002, 1.082756e+001
5.592128e+002, 1.067583e+001
5.596949e+002, 1.058262e+001
5.601770e+002, 1.057943e+001
5.606591e+002, 1.075720e+001
5.611412e+002, 1.098276e+001
5.616234e+002, 1.110954e+001
5.621055e+002, 1.110231e+001
5.625876e+002, 1.097209e+001
5.630697e+002, 1.062473e+001
5.635518e+002, 1.015536e+001
5.640339e+002, 9.946286e+000
5.645161e+002, 1.010403e+001
5.649982e+002, 1.018081e+001
5.654803e+002, 9.737364e+000
5.659624e+002, 8.950235e+000
5.664445e+002, 8.599575e+000
5.669266e+002, 8.935873e+000
5.674088e+002, 9.346538e+000
5.678909e+002, 9.719096e+000
5.683730e+002, 1.000540e+001
5.688551e+002, 1.012142e+001
5.693372e+002, 1.006581e+001
5.698193e+002, 9.939651e+000
5.703015e+002, 9.833883e+000
5.707836e+002, 9.746152e+000
5.712657e+002, 9.637831e+000
5.717478e+002, 9.462087e+000
5.722299e+002, 9.329710e+000
5.727120e+002, 9.300887e+000
5.731942e+002, 9.293576e+000
5.736763e+002, 9.226106e+000
5.741584e+002, 9.088968e+000
5.746405e+002, 8.939891e+000
5.751226e+002, 8.785555e+000
5.756047e+002, 8.655272e+000
5.760869e+002, 8.724283e+000
5.765690e+002, 9.066436e+000
5.770511e+002, 9.289622e+000
5.775332e+002, 9.103495e+000
5.780153e+002, 8.746367e+000
5.784974e+002, 8.591683e+000
5.789796e+002, 8.660910e+000
5.794617e+002, 8.863049e+000
5.799438e+002, 9.395095e+000
5.804259e+002, 9.905217e+000
5.809080e+002, 9.893239e+000
5.813901e+002, 9.399930e+000
5.818723e+002, 8.923300e+000
5.823544e+002, 8.783416e+000
5.828365e+002, 8.880339e+000
5.833186e+002, 8.868443e+000
5.838007e+002, 8.552825e+000
5.842828e+002, 8.430821e+000
5.847650e+002, 8.712994e+000
5.852471e+002, 9.008927e+000
5.857292e+002, 9.029418e+000
5.862113e+002, 8.824726e+000
5.866934e+002, 8.621225e+000
5.871755e+002, 8.546794e+000
5.876577e+002, 8.587443e+000
5.881398e+002, 8.785087e+000
5.886219e+002, 9.198768e+000
5.891040e+002, 9.339709e+000
5.895861e+002, 8.885447e+000
5.900682e+002, 8.343740e+000
5.905504e+002, 8.239058e+000
5.910325e+002, 8.500393e+000
5.915146e+002, 8.670177e+000
5.919967e+002, 8.534945e+000
5.924788e+002, 8.316675e+000
5.929609e+002, 8.185155e+000
5.934431e+002, 8.126268e+000
5.939252e+002, 8.073192e+000
5.944073e+002, 7.997193e+000
5.948894e+002, 7.973168e+000
5.953715e+002, 8.119843e+000
5.958536e+002, 8.490724e+000
5.963358e+002, 8.792993e+000
5.968179e+002, 9.147330e+000
5.973000e+002, 9.311893e+000
5.977821e+002, 8.973719e+000
5.982642e+002, 8.475474e+000
5.987463e+002, 8.359960e+000
5.992285e+002, 8.799539e+000
5.997106e+002, 9.361756e+000
6.001927e+002, 9.479890e+000
6.006748e+002, 9.174192e+000
6.011569e+002, 9.022091e+000
6.016390e+002, 9.132630e+000
6.021212e+002, 9.216384e+000
6.026033e+002, 9.053757e+000
6.030854e+002, 8.774980e+000
6.035675e+002, 8.576216e+000
6.040496e+002, 8.493574e+000
6.045317e+002, 8.449461e+000
6.050139e+002, 8.399275e+000
6.054960e+002, 8.365314e+000
6.059781e+002, 8.374516e+000
6.064602e+002, 8.431837e+000
6.069423e+002, 8.559082e+000
6.074244e+002, 8.794462e+000
6.079066e+002, 9.087550e+000
6.083887e+002, 9.206617e+000
6.088708e+002, 8.926179e+000
6.093529e+002, 8.792527e+000
6.098350e+002, 9.058602e+000
6.103171e+002, 9.284732e+000
6.107993e+002, 9.036885e+000
6.112814e+002, 8.440756e+000
6.117635e+002, 8.017334e+000
6.122456e+002, 8.149663e+000
6.127277e+002, 8.565395e+000
6.132098e+002, 8.681488e+000
6.136920e+002, 8.472490e+000
6.141741e+002, 8.255856e+000
6.146562e+002, 8.058804e+000
6.151383e+002, 7.944406e+000
6.156204e+002, 8.012477e+000
6.161025e+002, 8.232996e+000
6.165847e+002, 8.435723e+000
6.170668e+002, 8.618409e+000
6.175489e+002, 8.741311e+000
6.180310e+002, 8.743913e+000
6.185131e+002, 8.674207e+000
6.189952e+002, 8.629794e+000
6.194774e+002, 8.639411e+000
6.199595e+002, 8.667803e+000
6.204416e+002, 8.684679e+000
6.209237e+002, 8.696435e+000
6.214058e+002, 8.596774e+000
6.218879e+002, 8.235754e+000
6.223701e+002, 7.946495e+000
6.228522e+002, 7.723558e+000
6.233343e+002, 7.646356e+000
6.238164e+002, 7.897186e+000
6.242985e+002, 8.471201e+000
6.247806e+002, 8.970260e+000
6.252628e+002, 8.999122e+000
6.257448e+002, 8.715689e+000
6.262269e+002, 8.537069e+000
6.267090e+002, 8.478374e+000
6.271912e+002, 8.435753e+000
6.276733e+002, 8.333998e+000
6.281554e+002, 8.246944e+000
6.286375e+002, 8.353526e+000
6.291196e+002, 8.707448e+000
6.296017e+002, 8.959849e+000
6.300839e+002, 9.041142e+000
6.305660e+002, 9.022650e+000
6.310481e+002, 8.901875e+000
6.315302e+002, 8.726314e+000
6.320123e+002, 8.585344e+000
6.324944e+002, 8.520489e+000
6.329766e+002, 8.508954e+000
6.334587e+002, 8.521487e+000
6.339408e+002, 8.567122e+000
6.344229e+002, 8.588327e+000
6.349050e+002, 8.552411e+000
6.353871e+002, 8.534346e+000
6.358693e+002, 8.645704e+000
6.363514e+002, 8.768431e+000
6.368335e+002, 8.680430e+000
6.373156e+002, 8.273458e+000
6.377977e+002, 7.912651e+000
6.382798e+002, 7.933141e+000
6.387620e+002, 8.157020e+000
6.392441e+002, 8.231933e+000
6.397262e+002, 8.122507e+000
6.402083e+002, 8.025653e+000
6.406904e+002, 8.073056e+000
6.411725e+002, 8.223003e+000
6.416547e+002, 8.337383e+000
6.421368e+002, 8.418599e+000
6.426189e+002, 8.455276e+000
6.431010e+002, 8.375903e+000
6.435831e+002, 8.315519e+000
6.440652e+002, 8.407680e+000
6.445474e+002, 8.589598e+000
6.450295e+002, 8.676849e+000
6.455116e+002, 8.555965e+000
6.459937e+002, 8.375744e+000
6.464758e+002, 8.427620e+000
6.469579e+002, 8.708406e+000
6.474401e+002, 8.807631e+000
6.479222e+002, 8.605893e+000
6.484043e+002, 8.334978e+000
6.488864e+002, 8.074327e+000
6.493685e+002, 7.886008e+000
6.498506e+002, 8.000523e+000
6.503328e+002, 8.812484e+000
6.508149e+002, 9.344754e+000
6.512970e+002, 8.907917e+000
6.517791e+002, 8.151313e+000
6.522612e+002, 7.862329e+000
6.527433e+002, 8.105008e+000
6.532255e+002, 8.504699e+000
6.537076e+002, 8.808500e+000
6.541897e+002, 9.001359e+000
6.546718e+002, 9.002445e+000
6.551539e+002, 8.700174e+000
6.556360e+002, 8.476717e+000
6.561182e+002, 8.379478e+000
6.566003e+002, 8.382387e+000
6.570824e+002, 8.556715e+000
6.575645e+002, 8.828744e+000
6.580466e+002, 8.991125e+000
6.585287e+002, 8.970884e+000
6.590109e+002, 8.805867e+000
6.594930e+002, 8.370961e+000
6.599751e+002, 7.824287e+000
6.604572e+002, 7.668677e+000
6.609393e+002, 8.022180e+000
6.614214e+002, 8.465226e+000
6.619036e+002, 8.626716e+000
6.623857e+002, 8.539149e+000
6.628678e+002, 8.552135e+000
6.633499e+002, 8.791499e+000
6.638320e+002, 8.965611e+000
6.643141e+002, 9.076883e+000
6.647963e+002, 9.093896e+000
6.652784e+002, 8.896851e+000
6.657605e+002, 8.565881e+000
6.662426e+002, 8.391752e+000
6.667247e+002, 8.617181e+000
6.672068e+002, 8.993241e+000
6.676890e+002, 9.033495e+000
6.681711e+002, 8.749156e+000
6.686532e+002, 8.522448e+000
6.691353e+002, 8.426392e+000
6.696174e+002, 8.439939e+000
6.700995e+002, 8.598719e+000
6.705817e+002, 8.878180e+000
6.710638e+002, 9.028225e+000
6.715459e+002, 8.914479e+000
6.720280e+002, 8.831638e+000
6.725101e+002, 8.913402e+000
6.729922e+002, 9.048623e+000
6.734744e+002, 9.131851e+000
6.739565e+002, 9.141316e+000
6.744386e+002, 9.084399e+000
6.749207e+002, 8.952789e+000
6.754028e+002, 8.781858e+000
6.758849e+002, 8.690686e+000
6.763671e+002, 8.694240e+000
6.768492e+002, 8.709293e+000
6.773313e+002, 8.698174e+000
6.778134e+002, 8.720535e+000
6.782955e+002, 8.867696e+000
6.787776e+002, 9.092409e+000
6.792598e+002, 9.224465e+000
6.797419e+002, 9.256517e+000
6.802240e+002, 9.146886e+000
6.807061e+002, 8.665870e+000
6.811882e+002, 8.105964e+000
6.816703e+002, 8.010250e+000
6.821525e+002, 8.423123e+000
6.826346e+002, 8.868520e+000
6.831167e+002, 8.950094e+000
6.835988e+002, 8.749167e+000
6.840809e+002, 8.670649e+000
6.845630e+002, 8.774022e+000
6.850452e+002, 8.869938e+000
6.855273e+002, 8.928323e+000
6.860094e+002, 8.976707e+000
6.864915e+002, 9.047168e+000
6.869736e+002, 9.121342e+000
6.874557e+002, 9.137769e+000
6.879379e+002, 9.034487e+000
6.884200e+002, 8.935307e+000
6.889021e+002, 8.990299e+000
6.893842e+002, 9.126987e+000
6.898663e+002, 9.163733e+000
6.903484e+002, 9.069646e+000
6.908306e+002, 8.951447e+000
6.913127e+002, 8.885178e+000
6.917948e+002, 8.869579e+000
6.922769e+002, 8.900992e+000
6.927590e+002, 9.052137e+000
6.932411e+002, 9.132675e+000
6.937233e+002, 9.078552e+000
6.942054e+002, 9.006685e+000
6.946875e+002, 8.992570e+000
6.951696e+002, 9.019442e+000
6.956517e+002, 9.026251e+000
6.961339e+002, 8.977320e+000
6.966160e+002, 8.927587e+000
6.970981e+002, 8.997934e+000
6.975802e+002, 9.122954e+000
6.980623e+002, 9.023321e+000
6.985444e+002, 8.641360e+000
6.990266e+002, 8.277372e+000
6.995087e+002, 8.144240e+000
6.999908e+002, 8.190046e+000
7.004729e+002, 8.220793e+000
7.009550e+002, 8.254194e+000
7.014371e+002, 8.242887e+000
7.019193e+002, 8.067767e+000
7.024014e+002, 7.957399e+000
7.028835e+002, 8.100012e+000
7.033656e+002, 8.410281e+000
7.038477e+002, 8.711809e+000
7.043298e+002, 8.935010e+000
7.048120e+002, 9.059192e+000
7.052941e+002, 8.973753e+000
7.057762e+002, 8.745570e+000
7.062583e+002, 8.751001e+000
7.067404e+002, 9.065604e+000
7.072225e+002, 9.329621e+000
7.077046e+002, 9.337804e+000
7.081867e+002, 9.152117e+000
7.086688e+002, 8.889785e+000
7.091509e+002, 8.385652e+000
7.096331e+002, 8.227526e+000
7.101152e+002, 8.763235e+000
7.105973e+002, 9.353817e+000
7.110794e+002, 9.699313e+000
7.115615e+002, 9.806441e+000
7.120436e+002, 9.692587e+000
7.125258e+002, 9.370611e+000
7.130079e+002, 9.024137e+000
7.134900e+002, 8.869061e+000
7.139721e+002, 8.877239e+000
7.144542e+002, 8.896365e+000
7.149363e+002, 8.924260e+000
7.154185e+002, 8.955541e+000
7.159006e+002, 9.012007e+000
7.163827e+002, 9.045410e+000
7.168648e+002, 8.947942e+000
7.173469e+002, 8.687738e+000
7.178290e+002, 8.504297e+000
7.183112e+002, 8.410293e+000
7.187933e+002, 8.405708e+000
7.192754e+002, 8.584826e+000
7.197575e+002, 8.813891e+000
7.202396e+002, 8.905668e+000
7.207217e+002, 8.814374e+000
7.212039e+002, 8.627611e+000
7.216860e+002, 8.376272e+000
7.221681e+002, 8.110258e+000
7.226502e+002, 8.037505e+000
7.231323e+002, 8.170676e+000
7.236144e+002, 8.411198e+000
7.240966e+002, 8.817517e+000
7.245787e+002, 9.184336e+000
7.250608e+002, 9.225981e+000
7.255429e+002, 8.950037e+000
7.260250e+002, 8.744393e+000
7.265071e+002, 8.652335e+000
7.269893e+002, 8.605330e+000
7.274714e+002, 8.601199e+000
7.279535e+002, 8.615604e+000
7.284356e+002, 8.611416e+000
7.289177e+002, 8.593412e+000
7.293998e+002, 8.614834e+000
7.298820e+002, 8.729540e+000
7.303641e+002, 8.881597e+000
7.308462e+002, 8.924246e+000
7.313283e+002, 8.851968e+000
7.318104e+002, 8.828732e+000
7.322925e+002, 8.893861e+000
7.327747e+002, 9.001323e+000
7.332568e+002, 9.183133e+000
7.337389e+002, 9.382069e+000
7.342210e+002, 9.320517e+000
7.347031e+002, 8.680954e+000
7.351852e+002, 8.273838e+000
7.356674e+002, 8.447615e+000
7.361495e+002, 8.766852e+000
7.366316e+002, 8.877469e+000
7.371137e+002, 8.810721e+000
7.375958e+002, 8.775065e+000
7.380779e+002, 8.877805e+000
7.385601e+002, 9.014933e+000
7.390422e+002, 9.002651e+000
7.395243e+002, 8.864569e+000
7.400064e+002, 8.857052e+000
7.404885e+002, 9.039002e+000
7.409706e+002, 9.167753e+000
7.414528e+002, 9.075764e+000
7.419349e+002, 8.868112e+000
7.424170e+002, 8.795291e+000
7.428991e+002, 8.928887e+000
7.433812e+002, 8.939858e+000
7.438633e+002, 8.630652e+000
7.443455e+002, 8.370872e+000
7.448276e+002, 8.403634e+000
7.453097e+002, 8.595844e+000
7.457918e+002, 8.713857e+000
7.462739e+002, 8.699384e+000
7.467560e+002, 8.708553e+000
7.472382e+002, 8.957758e+000
7.477203e+002, 9.336554e+000
7.482024e+002, 9.494746e+000
7.486845e+002, 9.428659e+000
7.491666e+002, 9.264734e+000
7.496487e+002, 8.993526e+000
7.501309e+002, 8.768427e+000
7.506130e+002, 8.795267e+000
7.510951e+002, 9.092764e+000
7.515772e+002, 9.298956e+000
7.520593e+002, 9.338816e+000
7.525414e+002, 9.392116e+000
7.530236e+002, 9.578684e+000
7.535057e+002, 9.737403e+000
7.539878e+002, 9.655153e+000
7.544699e+002, 9.387376e+000
7.549520e+002, 9.217690e+000
7.554341e+002, 9.336811e+000
7.559163e+002, 9.564164e+000
7.563984e+002, 9.648866e+000
7.568805e+002, 9.620698e+000
7.573626e+002, 9.617839e+000
7.578447e+002, 9.666297e+000
7.583268e+002, 9.678051e+000
7.588090e+002, 9.578250e+000
7.592911e+002, 9.407120e+000
7.597732e+002, 9.299752e+000
7.602553e+002, 9.297626e+000
7.607374e+002, 9.284840e+000
7.612195e+002, 9.237636e+000
7.617017e+002, 9.205883e+000
7.621838e+002, 9.175406e+000
7.626659e+002, 9.189473e+000
7.631480e+002, 9.368145e+000
7.636301e+002, 9.755301e+000
7.641122e+002, 1.003083e+001
7.645944e+002, 9.788651e+000
7.650765e+002, 9.373370e+000
7.655586e+002, 9.422667e+000
7.660407e+002, 9.855889e+000
7.665228e+002, 1.009344e+001
7.670049e+002, 9.906457e+000
7.674871e+002, 9.523377e+000
7.679692e+002, 9.225411e+000
7.684513e+002, 9.009844e+000
7.689334e+002, 8.896244e+000
7.694155e+002, 8.848302e+000
7.698976e+002, 8.966366e+000
7.703798e+002, 9.438631e+000
7.708619e+002, 9.946673e+000
7.713440e+002, 1.025977e+001
7.718261e+002, 1.037845e+001
7.723082e+002, 1.039030e+001
7.727903e+002, 1.025793e+001
7.732725e+002, 1.011879e+001
7.737546e+002, 1.005737e+001
7.742367e+002, 1.005626e+001
7.747188e+002, 1.011172e+001
7.752009e+002, 1.020774e+001
7.756830e+002, 1.027119e+001
7.761652e+002, 1.024697e+001
7.766473e+002, 1.019436e+001
7.771294e+002, 1.028008e+001
7.776115e+002, 1.054268e+001
7.780936e+002, 1.067957e+001
7.785757e+002, 1.062043e+001
7.790579e+002, 1.052951e+001
7.795400e+002, 1.051538e+001
7.800221e+002, 1.051519e+001
7.805042e+002, 1.039977e+001
7.809863e+002, 1.012094e+001
7.814684e+002, 9.946217e+000
7.819506e+002, 9.967106e+000
7.824327e+002, 1.008432e+001
7.829148e+002, 1.034567e+001
7.833969e+002, 1.061932e+001
7.838790e+002, 1.063929e+001
7.843611e+002, 1.037246e+001
7.848433e+002, 1.013642e+001
7.853254e+002, 1.028400e+001
7.858075e+002, 1.064792e+001
7.862896e+002, 1.065635e+001
7.867717e+002, 1.030147e+001
7.872538e+002, 1.014640e+001
7.877360e+002, 1.036286e+001
7.882181e+002, 1.072886e+001
7.887002e+002, 1.111622e+001
7.891823e+002, 1.149073e+001
7.896644e+002, 1.154593e+001
7.901465e+002, 1.094476e+001
7.906286e+002, 1.052461e+001
7.911107e+002, 1.036465e+001
7.915928e+002, 1.038739e+001
7.920750e+002, 1.071128e+001
7.925571e+002, 1.114316e+001
7.930392e+002, 1.126937e+001
7.935213e+002, 1.090807e+001
7.940034e+002, 1.051506e+001
7.944855e+002, 1.053967e+001
7.949677e+002, 1.078414e+001
7.954498e+002, 1.088920e+001
7.959319e+002, 1.084809e+001
7.964140e+002, 1.075330e+001
7.968961e+002, 1.063436e+001
7.973782e+002, 1.056701e+001
7.978604e+002, 1.066099e+001
7.983425e+002, 1.092260e+001
7.988246e+002, 1.122987e+001
7.993067e+002, 1.170560e+001
7.997888e+002, 1.200639e+001
8.002709e+002, 1.194524e+001
8.007531e+002, 1.175543e+001
8.012352e+002, 1.154420e+001
8.017173e+002, 1.134059e+001
8.021994e+002, 1.125222e+001
8.026815e+002, 1.142570e+001
8.031636e+002, 1.154676e+001
8.036458e+002, 1.132883e+001
8.041279e+002, 1.104683e+001
8.046100e+002, 1.108461e+001
8.050921e+002, 1.138808e+001
8.055742e+002, 1.163100e+001
8.060563e+002, 1.163644e+001
8.065385e+002, 1.149178e+001
8.070206e+002, 1.125492e+001
8.075027e+002, 1.094917e+001
8.079848e+002, 1.099348e+001
8.084669e+002, 1.151039e+001
8.089490e+002, 1.181080e+001
8.094312e+002, 1.149567e+001
8.099133e+002, 1.093419e+001
8.103954e+002, 1.066080e+001
8.108775e+002, 1.071169e+001
8.113596e+002, 1.084904e+001
8.118417e+002, 1.125362e+001
8.123239e+002, 1.151338e+001
8.128060e+002, 1.146752e+001
8.132881e+002, 1.126162e+001
8.137702e+002, 1.094160e+001
8.142523e+002, 1.058279e+001
8.147344e+002, 1.037852e+001
8.152166e+002, 1.042931e+001
8.156987e+002, 1.066133e+001
8.161808e+002, 1.121228e+001
8.166629e+002, 1.183182e+001
8.171450e+002, 1.182727e+001
8.176271e+002, 1.119934e+001
8.181093e+002, 1.070645e+001
8.185914e+002, 1.080119e+001
8.190735e+002, 1.115835e+001
8.195556e+002, 1.110533e+001
8.200377e+002, 1.052985e+001
8.205198e+002, 1.027190e+001
8.210020e+002, 1.050005e+001
8.214841e+002, 1.072183e+001
8.219662e+002, 1.065556e+001
8.224483e+002, 1.056425e+001
8.229304e+002, 1.082112e+001
8.234125e+002, 1.140928e+001
8.238947e+002, 1.175171e+001
8.243768e+002, 1.155228e+001
8.248589e+002, 1.130315e+001
8.253410e+002, 1.118341e+001
8.258231e+002, 1.114870e+001
8.263052e+002, 1.113827e+001
8.267874e+002, 1.115701e+001
8.272695e+002, 1.127474e+001
8.277516e+002, 1.155235e+001
8.282337e+002, 1.184423e+001
8.287158e+002, 1.196306e+001
8.291979e+002, 1.192044e+001
8.296801e+002, 1.168452e+001
8.301622e+002, 1.125190e+001
8.306443e+002, 1.100587e+001
8.311264e+002, 1.115497e+001
8.316085e+002, 1.154802e+001
8.320906e+002, 1.197915e+001
8.325728e+002, 1.249148e+001
8.330549e+002, 1.270476e+001
8.335370e+002, 1.230717e+001
8.340191e+002, 1.205790e+001
8.345012e+002, 1.223852e+001
8.349833e+002, 1.253471e+001
8.354655e+002, 1.266651e+001
8.359476e+002, 1.266830e+001
8.364297e+002, 1.279034e+001
8.369118e+002, 1.320445e+001
8.373939e+002, 1.359898e+001
8.378760e+002, 1.370194e+001
8.383582e+002, 1.376369e+001
8.388403e+002, 1.419897e+001
8.393224e+002, 1.487815e+001
8.398045e+002, 1.523309e+001
8.402866e+002, 1.499253e+001
8.407687e+002, 1.464896e+001
8.412509e+002, 1.492277e+001
8.417330e+002, 1.570456e+001
8.422151e+002, 1.638417e+001
8.426972e+002, 1.694776e+001
8.431793e+002, 1.741827e+001
8.436614e+002, 1.778680e+001
8.441436e+002, 1.809676e+001
8.446257e+002, 1.838325e+001
8.451078e+002, 1.864813e+001
8.455899e+002, 1.895437e+001
8.460720e+002, 1.914386e+001
8.465541e+002, 1.961363e+001
8.470363e+002, 2.060102e+001
8.475184e+002, 2.167866e+001
8.480005e+002, 2.267248e+001
8.484826e+002, 2.353614e+001
8.489647e+002, 2.414079e+001
8.494468e+002, 2.433919e+001
8.499290e+002, 2.479355e+001
8.504111e+002, 2.614041e+001
8.508932e+002, 2.769759e+001
8.513753e+002, 2.870697e+001
8.518574e+002, 2.936917e+001
8.523395e+002, 3.027829e+001
8.528217e+002, 3.158977e+001
8.533038e+002, 3.296077e+001
8.537859e+002, 3.404242e+001
8.542680e+002, 3.491698e+001
8.547501e+002, 3.587395e+001
8.552322e+002, 3.691521e+001
8.557144e+002, 3.768190e+001
8.561965e+002, 3.808993e+001
8.566786e+002, 3.825940e+001
8.571607e+002, 3.827559e+001
8.576428e+002, 3.812136e+001
8.581249e+002, 3.773704e+001
8.586071e+002, 3.709547e+001
8.590892e+002, 3.627839e+001
8.595713e+002, 3.538275e+001
8.600534e+002, 3.420498e+001
8.605355e+002, 3.240533e+001
8.610176e+002, 3.042961e+001
8.614998e+002, 2.880265e+001
8.619819e+002, 2.757630e+001
8.624640e+002, 2.647627e+001
8.629461e+002, 2.540434e+001
8.634282e+002, 2.439277e+001
8.639103e+002, 2.354929e+001
8.643925e+002, 2.273635e+001
8.648746e+002, 2.170702e+001
8.653567e+002, 2.049297e+001
8.658388e+002, 1.936722e+001
8.663209e+002, 1.847791e+001
8.668030e+002, 1.782441e+001
8.672852e+002, 1.750973e+001
8.677673e+002, 1.745740e+001
8.682494e+002, 1.726534e+001
8.687315e+002, 1.690980e+001
8.692136e+002, 1.641585e+001
8.696957e+002, 1.574819e+001
8.701779e+002, 1.510209e+001
8.706600e+002, 1.476755e+001
8.711421e+002, 1.474753e+001
8.716242e+002, 1.459849e+001
8.721063e+002, 1.428548e+001
8.725884e+002, 1.390468e+001
8.730705e+002, 1.332212e+001
8.735526e+002, 1.281849e+001
8.740347e+002, 1.254695e+001
8.745168e+002, 1.248857e+001
8.749990e+002, 1.261510e+001
8.754811e+002, 1.301485e+001
8.759632e+002, 1.331310e+001
8.764453e+002, 1.332339e+001
8.769274e+002, 1.323813e+001
8.774095e+002, 1.315224e+001
8.778917e+002, 1.308963e+001
8.783738e+002, 1.311731e+001
8.788559e+002, 1.322177e+001
8.793380e+002, 1.320813e+001
8.798201e+002, 1.282440e+001
8.803022e+002, 1.235408e+001
8.807844e+002, 1.231573e+001
8.812665e+002, 1.259636e+001
8.817486e+002, 1.281028e+001
8.822307e+002, 1.289077e+001
8.827128e+002, 1.282095e+001
8.831949e+002, 1.256160e+001
8.836771e+002, 1.226761e+001
8.841592e+002, 1.230145e+001
8.846413e+002, 1.272944e+001
8.851234e+002, 1.297842e+001
8.856055e+002, 1.299171e+001
8.860876e+002, 1.295732e+001
8.865698e+002, 1.287087e+001
8.870519e+002, 1.283762e+001
8.875340e+002, 1.307179e+001
8.880161e+002, 1.353792e+001
8.884982e+002, 1.369473e+001
8.889803e+002, 1.329301e+001
8.894625e+002, 1.291235e+001
8.899446e+002, 1.261177e+001
8.904267e+002, 1.239959e+001
8.909088e+002, 1.232663e+001
8.913909e+002, 1.233376e+001
8.918730e+002, 1.230992e+001
8.923552e+002, 1.222304e+001
8.928373e+002, 1.213969e+001
8.933194e+002, 1.215685e+001
8.938015e+002, 1.215289e+001
8.942836e+002, 1.191034e+001
8.947657e+002, 1.156968e+001
8.952479e+002, 1.149331e+001
8.957300e+002, 1.170915e+001
8.962121e+002, 1.184852e+001
8.966942e+002, 1.161827e+001
8.971763e+002, 1.121151e+001
8.976584e+002, 1.104217e+001
8.981406e+002, 1.107917e+001
8.986227e+002, 1.096642e+001
8.991048e+002, 1.065296e+001
8.995869e+002, 1.044521e+001
9.000690e+002, 1.051190e+001
9.005511e+002, 1.068686e+001
9.010333e+002, 1.071937e+001
9.015154e+002, 1.060063e+001
9.019975e+002, 1.054189e+001
9.024796e+002, 1.060996e+001
9.029617e+002, 1.061232e+001
9.034438e+002, 1.043947e+001
9.039260e+002, 1.026255e+001
9.044081e+002, 1.014381e+001
9.048902e+002, 1.011555e+001
9.053723e+002, 1.028851e+001
9.058544e+002, 1.077624e+001
9.063365e+002, 1.117161e+001
9.068187e+002, 1.145493e+001
9.073008e+002, 1.153325e+001
9.077829e+002, 1.117208e+001
9.082650e+002, 1.066195e+001
9.087471e+002, 1.043755e+001
9.092292e+002, 1.052657e+001
9.097114e+002, 1.054834e+001
9.101935e+002, 1.021100e+001
9.106756e+002, 9.822139e+000
9.111577e+002, 9.690576e+000
9.116398e+002, 9.732413e+000
9.121219e+002, 9.839682e+000
9.126041e+002, 9.971478e+000
9.130862e+002, 1.002911e+001
9.135683e+002, 9.965605e+000
9.140504e+002, 9.887872e+000
9.145325e+002, 9.981867e+000
9.150146e+002, 1.019161e+001
9.154968e+002, 1.015257e+001
9.159789e+002, 9.853570e+000
9.164610e+002, 9.642314e+000
9.169431e+002, 9.617881e+000
9.174252e+002, 9.643147e+000
9.179073e+002, 9.618026e+000
9.183895e+002, 9.540735e+000
9.188716e+002, 9.389585e+000
9.193537e+002, 9.066228e+000
9.198358e+002, 8.927035e+000
9.203179e+002, 9.155441e+000
9.208000e+002, 9.304819e+000
9.212822e+002, 9.094649e+000
9.217643e+002, 8.785044e+000
9.222464e+002, 8.682294e+000
9.227285e+002, 8.779478e+000
9.232106e+002, 8.797241e+000
9.236927e+002, 8.582040e+000
9.241749e+002, 8.438862e+000
9.246570e+002, 8.605680e+000
9.251391e+002, 8.739991e+000
9.256212e+002, 8.452169e+000
9.261033e+002, 7.950178e+000
9.265854e+002, 7.671911e+000
9.270676e+002, 7.745092e+000
9.275497e+002, 8.050355e+000
9.280318e+002, 8.837223e+000
9.285139e+002, 9.525987e+000
9.289960e+002, 9.361815e+000
9.294781e+002, 8.718917e+000
9.299603e+002, 8.313616e+000
9.304424e+002, 8.257564e+000
9.309245e+002, 8.310027e+000
9.314066e+002, 8.335616e+000
9.318887e+002, 8.286471e+000
9.323708e+002, 7.983926e+000
9.328530e+002, 7.536361e+000
9.333351e+002, 7.476474e+000
9.338172e+002, 7.802855e+000
9.342993e+002, 7.972071e+000
9.347814e+002, 7.769983e+000
9.352635e+002, 7.473673e+000
9.357457e+002, 7.379772e+000
9.362278e+002, 7.459343e+000
9.367099e+002, 7.553807e+000
9.371920e+002, 7.677228e+000
9.376741e+002, 7.746179e+000
9.381563e+002, 7.717369e+000
9.386384e+002, 7.716112e+000
9.391205e+002, 7.870117e+000
9.396026e+002, 8.044140e+000
9.400847e+002, 7.947715e+000
9.405668e+002, 7.483665e+000
9.410490e+002, 7.325650e+000
9.415311e+002, 7.734018e+000
9.420132e+002, 8.079441e+000
9.424953e+002, 8.248326e+000
9.429774e+002, 8.311471e+000
9.434595e+002, 8.254858e+000
9.439417e+002, 8.144743e+000
9.444238e+002, 8.160991e+000
9.449059e+002, 8.402776e+000
9.453880e+002, 8.522334e+000
9.458701e+002, 8.326133e+000
9.463522e+002, 8.043344e+000
9.468344e+002, 7.733887e+000
9.473165e+002, 7.484079e+000
9.477986e+002, 7.413773e+000
9.482807e+002, 7.518392e+000
9.487628e+002, 7.694242e+000
9.492449e+002, 7.927284e+000
9.497271e+002, 8.105364e+000
9.502092e+002, 8.075392e+000
9.506913e+002, 7.948784e+000
9.511734e+002, 7.890638e+000
9.516555e+002, 7.898088e+000
9.521376e+002, 7.905846e+000
9.526198e+002, 7.893400e+000
9.531019e+002, 7.909506e+000
9.535840e+002, 8.044798e+000
9.540661e+002, 8.186721e+000
9.545482e+002, 7.970492e+000
9.550303e+002, 7.474610e+000
9.555124e+002, 7.235615e+000
9.559945e+002, 7.328048e+000
9.564766e+002, 7.538693e+000
9.569587e+002, 7.771281e+000
9.574409e+002, 7.959041e+000
9.579230e+002, 7.976676e+000
9.584051e+002, 7.828396e+000
9.588872e+002, 7.771890e+000
9.593693e+002, 7.852823e+000
9.598514e+002, 7.811906e+000
9.603336e+002, 7.533739e+000
9.608157e+002, 7.259894e+000
9.612978e+002, 7.179541e+000
9.617799e+002, 7.233961e+000
9.622620e+002, 7.259652e+000
9.627441e+002, 7.245235e+000
9.632263e+002, 7.237626e+000
9.637084e+002, 7.258920e+000
9.641905e+002, 7.256795e+000
9.646726e+002, 7.128684e+000
9.651547e+002, 7.043925e+000
9.656368e+002, 7.242885e+000
9.661190e+002, 7.632483e+000
9.666011e+002, 7.764156e+000
9.670832e+002, 7.362266e+000
9.675653e+002, 7.151332e+000
9.680474e+002, 7.527001e+000
9.685295e+002, 7.872789e+000
9.690117e+002, 7.682890e+000
9.694938e+002, 7.335444e+000
9.699759e+002, 7.428407e+000
9.704580e+002, 7.965067e+000
9.709401e+002, 8.337088e+000
9.714222e+002, 8.197341e+000
9.719044e+002, 7.955325e+000
9.723865e+002, 7.791940e+000
9.728686e+002, 7.716980e+000
9.733507e+002, 7.774284e+000
9.738328e+002, 7.922223e+000
9.743149e+002, 8.117709e+000
9.747971e+002, 8.327854e+000
9.752792e+002, 8.398081e+000
9.757613e+002, 8.127898e+000
9.762434e+002, 7.736542e+000
9.767255e+002, 7.431804e+000
9.772076e+002, 7.258446e+000
9.776898e+002, 7.449179e+000
9.781719e+002, 7.910090e+000
9.786540e+002, 8.066449e+000
9.791361e+002, 7.647454e+000
9.796182e+002, 7.069152e+000
9.801003e+002, 6.805366e+000
9.805825e+002, 6.812978e+000
9.810646e+002, 7.070511e+000
9.815467e+002, 7.520180e+000
9.820288e+002, 7.628543e+000
9.825109e+002, 7.291155e+000
9.829930e+002, 6.985889e+000
9.834752e+002, 7.035926e+000
9.839573e+002, 7.244698e+000
9.844394e+002, 7.190962e+000
9.849215e+002, 6.870740e+000
9.854036e+002, 6.945149e+000
9.858857e+002, 7.524816e+000
9.863679e+002, 7.803606e+000
9.868500e+002, 7.486063e+000
9.873321e+002, 7.090125e+000
9.878142e+002, 7.032774e+000
9.882963e+002, 7.222059e+000
9.887784e+002, 7.378255e+000
9.892606e+002, 7.509500e+000
9.897427e+002, 7.566093e+000
9.902248e+002, 7.465200e+000
9.907069e+002, 7.456834e+000
9.911890e+002, 7.718551e+000
9.916711e+002, 7.993465e+000
9.921533e+002, 8.008184e+000
9.926354e+002, 7.811143e+000
9.931175e+002, 7.691295e+000
9.935996e+002, 7.720829e+000
9.940817e+002, 7.697823e+000
9.945638e+002, 7.613171e+000
9.950460e+002, 7.482687e+000
9.955281e+002, 7.174294e+000
9.960102e+002, 6.919021e+000
9.964923e+002, 7.066930e+000
9.969744e+002, 7.551195e+000
9.974565e+002, 7.800681e+000
9.979387e+002, 7.541040e+000
9.984208e+002, 7.318510e+000
9.989029e+002, 7.273253e+000
9.993850e+002, 7.302698e+000
9.998671e+002, 7.369317e+000
1.000349e+003, 7.456932e+000
1.000831e+003, 7.577992e+000
1.001313e+003, 7.718683e+000
1.001796e+003, 7.773786e+000
1.002278e+003, 7.715027e+000
1.002760e+003, 7.537066e+000
1.003242e+003, 6.996144e+000
1.003724e+003, 6.544048e+000
1.004206e+003, 6.769012e+000
1.004688e+003, 7.358439e+000
1.005170e+003, 7.617407e+000
1.005653e+003, 7.405038e+000
1.006135e+003, 7.211923e+000
1.006617e+003, 7.385623e+000
1.007099e+003, 7.655518e+000
1.007581e+003, 7.857836e+000
1.008063e+003, 7.940332e+000
1.008545e+003, 7.758637e+000
1.009027e+003, 7.393221e+000
1.009509e+003, 7.058701e+000
1.009992e+003, 6.838577e+000
1.010474e+003, 6.727609e+000
1.010956e+003, 6.710171e+000
1.011438e+003, 6.813115e+000
1.011920e+003, 7.222796e+000
1.012402e+003, 7.742482e+000
1.012884e+003, 7.864481e+000
1.013366e+003, 7.603202e+000
1.013849e+003, 7.312538e+000
1.014331e+003, 7.149604e+000
1.014813e+003, 7.082399e+000
1.015295e+003, 7.093882e+000
1.015777e+003, 7.158812e+000
1.016259e+003, 7.210298e+000
1.016741e+003, 7.257071e+000
1.017223e+003, 7.376174e+000
1.017705e+003, 7.562150e+000
1.018188e+003, 7.608548e+000
1.018670e+003, 7.400633e+000
1.019152e+003, 7.158364e+000
1.019634e+003, 7.217794e+000
1.020116e+003, 7.495539e+000
1.020598e+003, 7.577087e+000
1.021080e+003, 7.468443e+000
1.021562e+003, 7.320128e+000
1.022044e+003, 7.153841e+000
1.022527e+003, 7.032125e+000
1.023009e+003, 6.995855e+000
1.023491e+003, 6.996820e+000
1.023973e+003, 6.940074e+000
1.024455e+003, 6.837491e+000
1.024937e+003, 6.922209e+000
1.025419e+003, 7.228513e+000
1.025901e+003, 7.431525e+000
1.026384e+003, 7.470790e+000
1.026866e+003, 7.389550e+000
1.027348e+003, 7.175447e+000
1.027830e+003, 6.944582e+000
1.028312e+003, 6.931618e+000
1.028794e+003, 7.149761e+000
1.029276e+003, 7.251026e+000
1.029758e+003, 7.209373e+000
1.030240e+003, 7.145308e+000
1.030723e+003, 7.089698e+000
1.031205e+003, 6.982529e+000
1.031687e+003, 6.720155e+000
1.032169e+003, 6.452645e+000
1.032651e+003, 6.507746e+000
1.033133e+003, 6.934722e+000
1.033615e+003, 7.283655e+000
1.034097e+003, 7.643311e+000
1.034579e+003, 7.713839e+000
1.035062e+003, 7.281469e+000
1.035544e+003, 6.776257e+000
1.036026e+003, 6.383015e+000
1.036508e+003, 6.172786e+000
1.036990e+003, 6.365190e+000
1.037472e+003, 7.094629e+000
1.037954e+003, 7.467206e+000
1.038436e+003, 7.271821e+000
1.038919e+003, 7.052245e+000
1.039401e+003, 6.859231e+000
1.039883e+003, 6.713852e+000
1.040365e+003, 6.578813e+000
1.040847e+003, 6.517341e+000
1.041329e+003, 6.725692e+000
1.041811e+003, 7.315294e+000
1.042293e+003, 7.586797e+000
1.042776e+003, 7.216425e+000
1.043258e+003, 6.965746e+000
1.043740e+003, 7.048773e+000
1.044222e+003, 7.218902e+000
1.044704e+003, 7.421170e+000
1.045186e+003, 7.563111e+000
1.045668e+003, 7.391121e+000
1.046150e+003, 6.797554e+000
1.046632e+003, 6.559340e+000
1.047115e+003, 7.035483e+000
1.047597e+003, 7.493176e+000
1.048079e+003, 7.931171e+000
1.048561e+003, 8.119018e+000
1.049043e+003, 7.721433e+000
1.049525e+003, 7.031538e+000
1.050007e+003, 6.576405e+000
1.050489e+003, 6.425905e+000
1.050971e+003, 6.398355e+000
1.051454e+003, 6.538321e+000
1.051936e+003, 6.689452e+000
1.052418e+003, 6.820917e+000
1.052900e+003, 6.932791e+000
1.053382e+003, 7.071012e+000
1.053864e+003, 7.173021e+000
1.054346e+003, 7.081677e+000
1.054828e+003, 6.767985e+000
1.055311e+003, 6.580100e+000
1.055793e+003, 6.652243e+000
1.056275e+003, 6.806741e+000
1.056757e+003, 7.083704e+000
1.057239e+003, 7.323459e+000
1.057721e+003, 7.477316e+000
1.058203e+003, 7.478734e+000
1.058685e+003, 7.089701e+000
1.059167e+003, 6.298401e+000
1.059650e+003, 5.928723e+000
1.060132e+003, 6.649511e+000
1.060614e+003, 7.296687e+000
1.061096e+003, 7.336671e+000
1.061578e+003, 7.229189e+000
1.062060e+003, 7.332863e+000
1.062542e+003, 7.535260e+000
1.063024e+003, 7.589999e+000
1.063506e+003, 7.469994e+000
1.063989e+003, 7.385907e+000
1.064471e+003, 7.480070e+000
1.064953e+003, 7.529787e+000
1.065435e+003, 7.314878e+000
1.065917e+003, 7.147981e+000
1.066399e+003, 7.436951e+000
1.066881e+003, 7.850927e+000
1.067363e+003, 7.769012e+000
1.067846e+003, 7.177380e+000
1.068328e+003, 6.793396e+000
1.068810e+003, 7.068299e+000
1.069292e+003, 7.274382e+000
1.069774e+003, 6.935716e+000
1.070256e+003, 6.559438e+000
1.070738e+003, 6.583239e+000
1.071220e+003, 6.781762e+000
1.071703e+003, 6.782366e+000
1.072185e+003, 6.571752e+000
1.072667e+003, 6.429056e+000
1.073149e+003, 6.460147e+000
1.073631e+003, 6.564209e+000
1.074113e+003, 6.763144e+000
1.074595e+003, 6.946584e+000
1.075077e+003, 7.054258e+000
1.075559e+003, 7.085444e+000
1.076042e+003, 6.997395e+000
1.076524e+003, 6.830889e+000
1.077006e+003, 6.766229e+000
1.077488e+003, 6.909747e+000
1.077970e+003, 7.014287e+000
1.078452e+003, 6.955383e+000
1.078934e+003, 6.829179e+000
1.079416e+003, 6.598628e+000
1.079898e+003, 6.409044e+000
1.080380e+003, 6.453831e+000
1.080863e+003, 6.696810e+000
1.081345e+003, 6.967500e+000
1.081827e+003, 7.233950e+000
1.082309e+003, 7.419229e+000
1.082791e+003, 7.491819e+000
1.083273e+003, 7.470398e+000
1.083755e+003, 7.241496e+000
1.084237e+003, 7.020559e+000
1.084720e+003, 7.129618e+000
1.085202e+003, 7.431621e+000
1.085684e+003, 7.478953e+000
1.086166e+003, 7.121541e+000
1.086648e+003, 6.852201e+000
1.087130e+003, 6.935517e+000
1.087612e+003, 7.088927e+000
1.088094e+003, 7.210841e+000
1.088577e+003, 7.296537e+000
1.089059e+003, 7.345174e+000
1.089541e+003, 7.357700e+000
1.090023e+003, 7.327035e+000
1.090505e+003, 7.251577e+000
1.090987e+003, 7.179753e+000
1.091469e+003, 7.156440e+000
1.091951e+003, 7.104471e+000
1.092433e+003, 6.893117e+000
1.092916e+003, 6.734820e+000
1.093398e+003, 6.920740e+000
1.093880e+003, 7.222142e+000
1.094362e+003, 7.181088e+000
1.094844e+003, 6.768595e+000
1.095326e+003, 6.532111e+000
1.095808e+003, 6.816150e+000
1.096290e+003, 7.046435e+000
1.096772e+003, 7.022047e+000
1.097255e+003, 6.900120e+000
1.097737e+003, 6.634737e+000
1.098219e+003, 6.422426e+000
1.098701e+003, 6.680355e+000
1.099183e+003, 7.304093e+000
1.099665e+003, 7.421083e+000
1.100147e+003, 6.460958e+000
1.100629e+003, 5.759398e+000
1.101112e+003, 5.724309e+000
1.101594e+003, 5.951295e+000
1.102076e+003, 6.537066e+000
1.102558e+003, 7.059361e+000
1.103040e+003, 6.973848e+000
1.103522e+003, 6.432285e+000
1.104004e+003, 6.100131e+000
1.104486e+003, 6.131323e+000
1.104969e+003, 6.185905e+000
1.105451e+003, 6.226552e+000
1.105933e+003, 6.253088e+000
1.106415e+003, 6.199341e+000
1.106897e+003, 6.191870e+000
1.107379e+003, 6.425084e+000
1.107861e+003, 6.763291e+000
1.108343e+003, 6.840455e+000
1.108825e+003, 6.561116e+000
1.109307e+003, 6.423756e+000
1.109790e+003, 6.594382e+000
1.110272e+003, 6.735448e+000
1.110754e+003, 6.776764e+000
1.111236e+003, 6.773177e+000
1.111718e+003, 6.761544e+000
1.112200e+003, 6.725077e+000
1.112682e+003, 6.596040e+000
1.113164e+003, 6.362000e+000
1.113647e+003, 6.304582e+000
1.114129e+003, 6.556658e+000
1.114611e+003, 6.764994e+000
1.115093e+003, 6.887330e+000
1.115575e+003, 6.990041e+000
1.116057e+003, 7.138094e+000
1.116539e+003, 7.245131e+000
1.117021e+003, 7.183869e+000
1.117504e+003, 6.982866e+000
1.117986e+003, 6.857965e+000
1.118468e+003, 6.868333e+000
1.118950e+003, 6.806355e+000
1.119432e+003, 6.586406e+000
1.119914e+003, 6.471006e+000
1.120396e+003, 6.599922e+000
1.120878e+003, 6.768956e+000
1.121360e+003, 6.821966e+000
1.121843e+003, 6.766953e+000
1.122325e+003, 6.606754e+000
1.122807e+003, 6.299149e+000
1.123289e+003, 6.154123e+000
1.123771e+003, 6.216369e+000
1.124253e+003, 6.293151e+000
1.124735e+003, 6.355621e+000
1.125217e+003, 6.387639e+000
1.125699e+003, 6.373227e+000
1.126182e+003, 6.330957e+000
1.126664e+003, 6.273301e+000
1.127146e+003, 6.209805e+000
1.127628e+003, 6.376679e+000
1.128110e+003, 6.829681e+000
1.128592e+003, 6.953412e+000
1.129074e+003, 6.616745e+000
1.129556e+003, 6.343645e+000
1.130039e+003, 6.378912e+000
1.130521e+003, 6.531936e+000
1.131003e+003, 6.589850e+000
1.131485e+003, 6.584425e+000
1.131967e+003, 6.628869e+000
1.132449e+003, 6.720096e+000
1.132931e+003, 6.823733e+000
1.133413e+003, 6.935075e+000
1.133896e+003, 6.936297e+000
1.134378e+003, 6.791754e+000
1.134860e+003, 6.613047e+000
1.135342e+003, 6.475573e+000
1.135824e+003, 6.414203e+000
1.136306e+003, 6.554229e+000
1.136788e+003, 6.817476e+000
1.137270e+003, 6.884188e+000
1.137752e+003, 6.786833e+000
1.138234e+003, 6.700778e+000
1.138717e+003, 6.656464e+000
1.139199e+003, 6.598702e+000
1.139681e+003, 6.498734e+000
1.140163e+003, 6.403259e+000
1.140645e+003, 6.365436e+000
1.141127e+003, 6.364886e+000
1.141609e+003, 6.347342e+000
1.142091e+003, 6.343886e+000
1.142574e+003, 6.477629e+000
1.143056e+003, 6.691515e+000
1.143538e+003, 6.765412e+000
1.144020e+003, 6.638562e+000
1.144502e+003, 6.425784e+000
1.144984e+003, 6.142402e+000
1.145466e+003, 5.964242e+000
1.145948e+003, 6.186165e+000
1.146431e+003, 6.529403e+000
1.146913e+003, 6.672442e+000
1.147395e+003, 6.652472e+000
1.147877e+003, 6.517093e+000
1.148359e+003, 6.330703e+000
1.148841e+003, 6.283061e+000
1.149323e+003, 6.479673e+000
1.149805e+003, 6.660661e+000
1.150287e+003, 6.638861e+000
1.150770e+003, 6.569451e+000
1.151252e+003, 6.573756e+000
1.151734e+003, 6.582686e+000
1.152216e+003, 6.459083e+000
1.152698e+003, 6.291288e+000
1.153180e+003, 6.344711e+000
1.153662e+003, 6.672298e+000
1.154144e+003, 6.824815e+000
1.154626e+003, 6.478454e+000
1.155109e+003, 6.180677e+000
1.155591e+003, 6.111303e+000
1.156073e+003, 6.145638e+000
1.156555e+003, 6.241623e+000
1.157037e+003, 6.371461e+000
1.157519e+003, 6.589959e+000
1.158001e+003, 6.844337e+000
1.158483e+003, 6.777112e+000
1.158966e+003, 6.075671e+000
1.159448e+003, 5.651950e+000
1.159930e+003, 5.742751e+000
1.160412e+003, 5.868564e+000
1.160894e+003, 5.866990e+000
1.161376e+003, 5.901032e+000
1.161858e+003, 6.162406e+000
1.162340e+003, 6.501310e+000
1.162822e+003, 6.554808e+000
1.163305e+003, 6.274384e+000
1.163787e+003, 6.253898e+000
1.164269e+003, 6.629173e+000
1.164751e+003, 6.861819e+000
1.165233e+003, 6.849420e+000
1.165715e+003, 6.764836e+000
1.166197e+003, 6.642464e+000
1.166679e+003, 6.621226e+000
1.167161e+003, 6.918558e+000
1.167644e+003, 7.399280e+000
1.168126e+003, 7.447837e+000
1.168608e+003, 7.042849e+000
1.169090e+003, 6.916989e+000
1.169572e+003, 7.112169e+000
1.170054e+003, 7.144239e+000
1.170536e+003, 6.877394e+000
1.171018e+003, 6.625092e+000
1.171500e+003, 6.606293e+000
1.171983e+003, 6.699939e+000
1.172465e+003, 6.732027e+000
1.172947e+003, 6.709884e+000
1.173429e+003, 6.607736e+000
1.173911e+003, 6.475024e+000
1.174393e+003, 6.550009e+000
1.174875e+003, 6.806890e+000
1.175357e+003, 6.956356e+000
1.175840e+003, 6.896029e+000
1.176322e+003, 6.788822e+000
1.176804e+003, 6.749266e+000
1.177286e+003, 6.775084e+000
1.177768e+003, 6.932866e+000
1.178250e+003, 7.103098e+000
1.178732e+003, 7.092142e+000
1.179214e+003, 6.963633e+000
1.179697e+003, 6.847555e+000
1.180179e+003, 6.769698e+000
1.180661e+003, 6.703475e+000
1.181143e+003, 6.630940e+000
1.181625e+003, 6.624923e+000
1.182107e+003, 6.810867e+000
1.182589e+003, 6.980188e+000
1.183071e+003, 7.043478e+000
1.183553e+003, 6.982522e+000
1.184036e+003, 6.599881e+000
1.184518e+003, 6.161906e+000
1.185000e+003, 6.210193e+000
1.185482e+003, 6.791739e+000
1.185964e+003, 7.272918e+000
1.186446e+003, 7.572901e+000
1.186928e+003, 7.664446e+000
1.187410e+003, 7.368329e+000
1.187892e+003, 7.080666e+000
1.188375e+003, 6.969127e+000
1.188857e+003, 6.939744e+000
1.189339e+003, 6.908986e+000
1.189821e+003, 6.887903e+000
1.190303e+003, 6.921547e+000
1.190785e+003, 7.037333e+000
1.191267e+003, 7.036394e+000
1.191749e+003, 6.857808e+000
1.192232e+003, 6.739327e+000
1.192714e+003, 6.741104e+000
1.193196e+003, 6.729064e+000
1.193678e+003, 6.611880e+000
1.194160e+003, 6.532198e+000
1.194642e+003, 6.702304e+000
1.195124e+003, 7.010089e+000
1.195606e+003, 6.975583e+000
1.196089e+003, 6.614491e+000
1.196571e+003, 6.266519e+000
1.197053e+003, 5.966381e+000
1.197535e+003, 6.166645e+000
1.198017e+003, 6.938901e+000
1.198499e+003, 7.431582e+000
1.198981e+003, 7.099524e+000
1.199463e+003, 6.477908e+000
1.199945e+003, 6.217741e+000
1.200427e+003, 6.213725e+000
1.200910e+003, 6.310019e+000
1.201392e+003, 6.472449e+000
1.201874e+003, 6.701247e+000
1.202356e+003, 6.914826e+000
1.202838e+003, 6.808214e+000
1.203320e+003, 6.372762e+000
1.203802e+003, 6.168907e+000
1.204284e+003, 6.636940e+000
1.204767e+003, 7.081630e+000
1.205249e+003, 6.837151e+000
1.205731e+003, 6.500246e+000
1.206213e+003, 6.601749e+000
1.206695e+003, 6.874820e+000
1.207177e+003, 6.967575e+000
1.207659e+003, 6.927444e+000
1.208141e+003, 6.995033e+000
1.208624e+003, 7.226433e+000
1.209106e+003, 7.392622e+000
1.209588e+003, 7.533477e+000
1.210070e+003, 7.461281e+000
1.210552e+003, 6.822730e+000
1.211034e+003, 6.335494e+000
1.211516e+003, 6.587305e+000
1.211998e+003, 6.959348e+000
1.212480e+003, 6.758554e+000
1.212963e+003, 6.175294e+000
1.213445e+003, 5.943421e+000
1.213927e+003, 6.129947e+000
1.214409e+003, 6.352538e+000
1.214891e+003, 6.653211e+000
1.215373e+003, 6.796030e+000
1.215855e+003, 6.693772e+000
1.216337e+003, 6.665496e+000
1.216819e+003, 6.909153e+000
1.217302e+003, 7.137670e+000
1.217784e+003, 6.961799e+000
1.218266e+003, 6.555814e+000
1.218748e+003, 6.463935e+000
1.219230e+003, 6.634003e+000
1.219712e+003, 6.857743e+000
1.220194e+003, 7.093028e+000
1.220676e+003, 7.203870e+000
1.221159e+003, 7.167173e+000
1.221641e+003, 7.036827e+000
1.222123e+003, 6.836944e+000
1.222605e+003, 6.670313e+000
1.223087e+003, 6.694081e+000
1.223569e+003, 6.750950e+000
1.224051e+003, 6.612829e+000
1.224533e+003, 6.434554e+000
1.225016e+003, 6.451101e+000
1.225498e+003, 6.578807e+000
1.225980e+003, 6.573138e+000
1.226462e+003, 6.441867e+000
1.226944e+003, 6.520625e+000
1.227426e+003, 7.058668e+000
1.227908e+003, 7.416231e+000
1.228390e+003, 7.271428e+000
1.228872e+003, 7.035642e+000
1.229354e+003, 6.729910e+000
1.229837e+003, 6.548261e+000
1.230319e+003, 6.797740e+000
1.230801e+003, 7.190405e+000
1.231283e+003, 7.174927e+000
1.231765e+003, 6.767650e+000
1.232247e+003, 6.523051e+000
1.232729e+003, 6.403548e+000
1.233211e+003, 6.626789e+000
1.233694e+003, 7.392205e+000
1.234176e+003, 7.786958e+000
1.234658e+003, 7.467865e+000
1.235140e+003, 7.019175e+000
1.235622e+003, 6.852616e+000
1.236104e+003, 6.847739e+000
1.236586e+003, 6.813474e+000
1.237068e+003, 6.756401e+000
1.237551e+003, 6.675626e+000
1.238033e+003, 6.596274e+000
1.238515e+003, 6.675087e+000
1.238997e+003, 6.877942e+000
1.239479e+003, 6.939123e+000
1.239961e+003, 6.811934e+000
1.240443e+003, 6.802149e+000
1.240925e+003, 7.154614e+000
1.241407e+003, 7.414995e+000
1.241890e+003, 6.980534e+000
1.242372e+003, 6.417273e+000
1.242854e+003, 6.269526e+000
1.243336e+003, 6.329706e+000
1.243818e+003, 6.321006e+000
1.244300e+003, 6.292802e+000
1.244782e+003, 6.461541e+000
1.245264e+003, 6.837810e+000
1.245746e+003, 7.072999e+000
1.246229e+003, 7.032286e+000
1.246711e+003, 6.926524e+000
1.247193e+003, 6.580464e+000
1.247675e+003, 6.466512e+000
1.248157e+003, 7.005456e+000
1.248639e+003, 7.505733e+000
1.249121e+003, 7.428903e+000
1.249603e+003, 7.049966e+000
1.250085e+003, 6.840498e+000
1.250568e+003, 6.799268e+000
1.251050e+003, 6.948031e+000
1.251532e+003, 7.328187e+000
1.252014e+003, 7.374769e+000
1.252496e+003, 7.027157e+000
1.252978e+003, 6.927404e+000
1.253460e+003, 7.266387e+000
1.253942e+003, 7.549238e+000
1.254425e+003, 7.429922e+000
1.254907e+003, 7.139748e+000
1.255389e+003, 6.965846e+000
1.255871e+003, 6.868284e+000
1.256353e+003, 6.740221e+000
1.256835e+003, 6.652121e+000
1.257317e+003, 6.801469e+000
1.257799e+003, 7.090524e+000
1.258281e+003, 7.265085e+000
1.258764e+003, 7.278064e+000
1.259246e+003, 7.235876e+000
1.259728e+003, 7.164697e+000
1.260210e+003, 7.115251e+000
1.260692e+003, 7.179025e+000
1.261174e+003, 7.180786e+000
1.261656e+003, 6.860914e+000
1.262138e+003, 6.626604e+000
1.262620e+003, 6.934023e+000
1.263103e+003, 7.450070e+000
1.263585e+003, 7.656031e+000
1.264067e+003, 7.567910e+000
1.264549e+003, 7.297976e+000
1.265031e+003, 6.665030e+000
1.265513e+003, 6.494924e+000
1.265995e+003, 6.886597e+000
1.266477e+003, 7.375594e+000
1.266960e+003, 7.912108e+000
1.267442e+003, 8.123999e+000
1.267924e+003, 7.776934e+000
1.268406e+003, 7.252852e+000
1.268888e+003, 6.982668e+000
1.269370e+003, 6.904414e+000
1.269852e+003, 6.882725e+000
1.270334e+003, 6.930290e+000
1.270817e+003, 7.152159e+000
1.271299e+003, 7.452700e+000
1.271781e+003, 7.565377e+000
1.272263e+003, 7.482488e+000
1.272745e+003, 7.373693e+000
1.273227e+003, 7.303535e+000
1.273709e+003, 7.218300e+000
1.274191e+003, 7.062479e+000
1.274673e+003, 6.915728e+000
1.275156e+003, 6.800138e+000
1.275638e+003, 6.725495e+000
1.276120e+003, 6.746842e+000
1.276602e+003, 6.773441e+000
1.277084e+003, 6.643437e+000
1.277566e+003, 6.441756e+000
1.278048e+003, 6.462285e+000
1.278530e+003, 6.735599e+000
1.279012e+003, 6.962089e+000
1.279495e+003, 7.161658e+000
1.279977e+003, 7.199430e+000
1.280459e+003, 6.996274e+000
1.280941e+003, 7.053297e+000
1.281423e+003, 7.605234e+000
1.281905e+003, 7.922732e+000
1.282387e+003, 7.374633e+000
1.282869e+003, 6.566522e+000
1.283352e+003, 6.548536e+000
1.283834e+003, 7.031768e+000
1.284316e+003, 7.398539e+000
1.284798e+003, 7.649425e+000
##END=



