##NAMES=Lavenite
##RRUFFID=R120044
##IDEAL CHEMISTRY=(Na,Ca)_2_(Mn^2+^,Fe^2+^)(Zr^4+^,Ti^4+^,Nb^5+^)(Si_2_O_7_)(O,F)_2_
##LOCALITY=Mont Saint-Hilaire, Rouville RCM, Montérégie, Québec, Canada
##OWNER=RRUFF
##SOURCE=Donald Doell
##DESCRIPTION=Prismatic yellowish-orange on black amphibole
##STATUS=The identification of this mineral has been confirmed by single-crystal X-ray diffraction.
##URL=rruff.info/R120044
9.001007e+001, 0.000000e+000
9.049219e+001, 3.601924e+001
9.097430e+001, 3.653569e+001
9.145642e+001, 3.632982e+001
9.193854e+001, 3.548100e+001
9.242065e+001, 3.465044e+001
9.290277e+001, 3.446825e+001
9.338489e+001, 3.470901e+001
9.386700e+001, 3.484908e+001
9.434912e+001, 3.463421e+001
9.483124e+001, 3.422479e+001
9.531335e+001, 3.400095e+001
9.579547e+001, 3.399139e+001
9.627759e+001, 3.395270e+001
9.675970e+001, 3.346494e+001
9.724182e+001, 3.257439e+001
9.772394e+001, 3.188911e+001
9.820605e+001, 3.180849e+001
9.868817e+001, 3.226873e+001
9.917029e+001, 3.246773e+001
9.965240e+001, 3.235682e+001
1.001345e+002, 3.204859e+001
1.006166e+002, 3.175810e+001
1.010988e+002, 3.149628e+001
1.015809e+002, 3.119172e+001
1.020630e+002, 3.081238e+001
1.025451e+002, 3.035494e+001
1.030272e+002, 2.978883e+001
1.035093e+002, 2.898424e+001
1.039915e+002, 2.808106e+001
1.044736e+002, 2.769328e+001
1.049557e+002, 2.808411e+001
1.054378e+002, 2.861537e+001
1.059199e+002, 2.884878e+001
1.064020e+002, 2.863692e+001
1.068842e+002, 2.840596e+001
1.073663e+002, 2.823292e+001
1.078484e+002, 2.812220e+001
1.083305e+002, 2.785396e+001
1.088126e+002, 2.725451e+001
1.092947e+002, 2.659776e+001
1.097769e+002, 2.613608e+001
1.102590e+002, 2.613213e+001
1.107411e+002, 2.605725e+001
1.112232e+002, 2.575813e+001
1.117053e+002, 2.513338e+001
1.121874e+002, 2.472912e+001
1.126696e+002, 2.476393e+001
1.131517e+002, 2.499502e+001
1.136338e+002, 2.510780e+001
1.141159e+002, 2.505372e+001
1.145980e+002, 2.487574e+001
1.150801e+002, 2.453890e+001
1.155623e+002, 2.390981e+001
1.160444e+002, 2.344470e+001
1.165265e+002, 2.337635e+001
1.170086e+002, 2.355772e+001
1.174907e+002, 2.368667e+001
1.179728e+002, 2.361933e+001
1.184550e+002, 2.348856e+001
1.189371e+002, 2.339247e+001
1.194192e+002, 2.344193e+001
1.199013e+002, 2.338992e+001
1.203834e+002, 2.298470e+001
1.208655e+002, 2.232565e+001
1.213477e+002, 2.179950e+001
1.218298e+002, 2.175557e+001
1.223119e+002, 2.191164e+001
1.227940e+002, 2.197169e+001
1.232761e+002, 2.181822e+001
1.237582e+002, 2.156091e+001
1.242404e+002, 2.114547e+001
1.247225e+002, 2.060367e+001
1.252046e+002, 2.032712e+001
1.256867e+002, 2.106805e+001
1.261688e+002, 2.226418e+001
1.266509e+002, 2.288665e+001
1.271331e+002, 2.183769e+001
1.276152e+002, 2.022532e+001
1.280973e+002, 1.990194e+001
1.285794e+002, 2.095916e+001
1.290615e+002, 2.219496e+001
1.295436e+002, 2.229348e+001
1.300258e+002, 2.145243e+001
1.305079e+002, 2.054569e+001
1.309900e+002, 1.994309e+001
1.314721e+002, 1.958125e+001
1.319542e+002, 1.925003e+001
1.324363e+002, 1.893998e+001
1.329185e+002, 1.866834e+001
1.334006e+002, 1.843259e+001
1.338827e+002, 1.823237e+001
1.343648e+002, 1.815615e+001
1.348469e+002, 1.837984e+001
1.353290e+002, 1.886490e+001
1.358112e+002, 1.900584e+001
1.362933e+002, 1.866718e+001
1.367754e+002, 1.807422e+001
1.372575e+002, 1.776388e+001
1.377396e+002, 1.778927e+001
1.382217e+002, 1.785207e+001
1.387039e+002, 1.773664e+001
1.391860e+002, 1.740467e+001
1.396681e+002, 1.715676e+001
1.401502e+002, 1.701094e+001
1.406323e+002, 1.697462e+001
1.411144e+002, 1.711934e+001
1.415966e+002, 1.755057e+001
1.420787e+002, 1.796239e+001
1.425608e+002, 1.812300e+001
1.430429e+002, 1.798779e+001
1.435250e+002, 1.771872e+001
1.440071e+002, 1.727182e+001
1.444893e+002, 1.666397e+001
1.449714e+002, 1.623210e+001
1.454535e+002, 1.601729e+001
1.459356e+002, 1.594265e+001
1.464177e+002, 1.595773e+001
1.468998e+002, 1.617688e+001
1.473820e+002, 1.630432e+001
1.478641e+002, 1.625255e+001
1.483462e+002, 1.598408e+001
1.488283e+002, 1.579923e+001
1.493104e+002, 1.570606e+001
1.497925e+002, 1.569149e+001
1.502747e+002, 1.574341e+001
1.507568e+002, 1.599614e+001
1.512389e+002, 1.617561e+001
1.517210e+002, 1.618885e+001
1.522031e+002, 1.594616e+001
1.526852e+002, 1.582267e+001
1.531674e+002, 1.594072e+001
1.536495e+002, 1.615491e+001
1.541316e+002, 1.625545e+001
1.546137e+002, 1.611865e+001
1.550958e+002, 1.595888e+001
1.555779e+002, 1.581892e+001
1.560601e+002, 1.564152e+001
1.565422e+002, 1.562705e+001
1.570243e+002, 1.594401e+001
1.575064e+002, 1.643813e+001
1.579885e+002, 1.681067e+001
1.584706e+002, 1.688414e+001
1.589528e+002, 1.690458e+001
1.594349e+002, 1.697874e+001
1.599170e+002, 1.711334e+001
1.603991e+002, 1.731990e+001
1.608812e+002, 1.761093e+001
1.613633e+002, 1.797756e+001
1.618455e+002, 1.839655e+001
1.623276e+002, 1.876224e+001
1.628097e+002, 1.923418e+001
1.632918e+002, 1.991737e+001
1.637739e+002, 2.081701e+001
1.642560e+002, 2.195103e+001
1.647382e+002, 2.344075e+001
1.652203e+002, 2.520942e+001
1.657024e+002, 2.696340e+001
1.661845e+002, 2.856323e+001
1.666666e+002, 3.009219e+001
1.671487e+002, 3.158411e+001
1.676309e+002, 3.277209e+001
1.681130e+002, 3.423939e+001
1.685951e+002, 3.648855e+001
1.690772e+002, 3.941886e+001
1.695593e+002, 4.237186e+001
1.700414e+002, 4.491732e+001
1.705236e+002, 4.728786e+001
1.710057e+002, 4.972908e+001
1.714878e+002, 5.242728e+001
1.719699e+002, 5.518358e+001
1.724520e+002, 5.778715e+001
1.729341e+002, 6.025917e+001
1.734163e+002, 6.272324e+001
1.738984e+002, 6.531856e+001
1.743805e+002, 6.798199e+001
1.748626e+002, 7.052837e+001
1.753447e+002, 7.285517e+001
1.758268e+002, 7.509934e+001
1.763090e+002, 7.734446e+001
1.767911e+002, 7.956954e+001
1.772732e+002, 8.198794e+001
1.777553e+002, 8.475866e+001
1.782374e+002, 8.747737e+001
1.787195e+002, 8.962035e+001
1.792017e+002, 9.069666e+001
1.796838e+002, 9.122830e+001
1.801659e+002, 9.188738e+001
1.806480e+002, 9.267822e+001
1.811301e+002, 9.369136e+001
1.816122e+002, 9.514046e+001
1.820944e+002, 9.692921e+001
1.825765e+002, 9.870308e+001
1.830586e+002, 1.002603e+002
1.835407e+002, 1.017069e+002
1.840228e+002, 1.033519e+002
1.845049e+002, 1.051968e+002
1.849871e+002, 1.071708e+002
1.854692e+002, 1.092057e+002
1.859513e+002, 1.113022e+002
1.864334e+002, 1.133521e+002
1.869155e+002, 1.153165e+002
1.873976e+002, 1.172072e+002
1.878798e+002, 1.190333e+002
1.883619e+002, 1.207386e+002
1.888440e+002, 1.225609e+002
1.893261e+002, 1.249523e+002
1.898082e+002, 1.278805e+002
1.902903e+002, 1.306459e+002
1.907725e+002, 1.329069e+002
1.912546e+002, 1.347303e+002
1.917367e+002, 1.362287e+002
1.922188e+002, 1.373355e+002
1.927009e+002, 1.383339e+002
1.931830e+002, 1.396862e+002
1.936652e+002, 1.413858e+002
1.941473e+002, 1.431586e+002
1.946294e+002, 1.449568e+002
1.951115e+002, 1.467552e+002
1.955936e+002, 1.481714e+002
1.960757e+002, 1.491218e+002
1.965579e+002, 1.497961e+002
1.970400e+002, 1.505232e+002
1.975221e+002, 1.513043e+002
1.980042e+002, 1.521172e+002
1.984863e+002, 1.530148e+002
1.989684e+002, 1.539969e+002
1.994506e+002, 1.547578e+002
1.999327e+002, 1.551729e+002
2.004148e+002, 1.554801e+002
2.008969e+002, 1.562782e+002
2.013790e+002, 1.576750e+002
2.018611e+002, 1.590299e+002
2.023433e+002, 1.598826e+002
2.028254e+002, 1.601713e+002
2.033075e+002, 1.607637e+002
2.037896e+002, 1.618404e+002
2.042717e+002, 1.631456e+002
2.047538e+002, 1.638812e+002
2.052360e+002, 1.638371e+002
2.057181e+002, 1.639872e+002
2.062002e+002, 1.650932e+002
2.066823e+002, 1.673752e+002
2.071644e+002, 1.691320e+002
2.076465e+002, 1.701268e+002
2.081287e+002, 1.705643e+002
2.086108e+002, 1.710356e+002
2.090929e+002, 1.715098e+002
2.095750e+002, 1.720985e+002
2.100571e+002, 1.729587e+002
2.105392e+002, 1.742305e+002
2.110214e+002, 1.751222e+002
2.115035e+002, 1.754855e+002
2.119856e+002, 1.754536e+002
2.124677e+002, 1.754634e+002
2.129498e+002, 1.754896e+002
2.134319e+002, 1.756243e+002
2.139140e+002, 1.759925e+002
2.143962e+002, 1.767343e+002
2.148783e+002, 1.772093e+002
2.153604e+002, 1.772913e+002
2.158425e+002, 1.770784e+002
2.163246e+002, 1.769665e+002
2.168067e+002, 1.770128e+002
2.172889e+002, 1.770453e+002
2.177710e+002, 1.769206e+002
2.182531e+002, 1.765209e+002
2.187352e+002, 1.763152e+002
2.192173e+002, 1.764046e+002
2.196994e+002, 1.767137e+002
2.201816e+002, 1.768880e+002
2.206637e+002, 1.768834e+002
2.211458e+002, 1.768175e+002
2.216279e+002, 1.767561e+002
2.221100e+002, 1.766905e+002
2.225921e+002, 1.766467e+002
2.230743e+002, 1.766286e+002
2.235564e+002, 1.766348e+002
2.240385e+002, 1.766899e+002
2.245206e+002, 1.769207e+002
2.250027e+002, 1.770099e+002
2.254848e+002, 1.766738e+002
2.259670e+002, 1.755458e+002
2.264491e+002, 1.749155e+002
2.269312e+002, 1.750325e+002
2.274133e+002, 1.757365e+002
2.278954e+002, 1.762607e+002
2.283775e+002, 1.765175e+002
2.288597e+002, 1.767113e+002
2.293418e+002, 1.769704e+002
2.298239e+002, 1.773613e+002
2.303060e+002, 1.776523e+002
2.307881e+002, 1.777779e+002
2.312702e+002, 1.777804e+002
2.317524e+002, 1.778465e+002
2.322345e+002, 1.779063e+002
2.327166e+002, 1.781148e+002
2.331987e+002, 1.786042e+002
2.336808e+002, 1.795961e+002
2.341629e+002, 1.803564e+002
2.346451e+002, 1.807570e+002
2.351272e+002, 1.808847e+002
2.356093e+002, 1.811406e+002
2.360914e+002, 1.816040e+002
2.365735e+002, 1.820864e+002
2.370556e+002, 1.824683e+002
2.375378e+002, 1.826454e+002
2.380199e+002, 1.829766e+002
2.385020e+002, 1.836240e+002
2.389841e+002, 1.844516e+002
2.394662e+002, 1.848168e+002
2.399483e+002, 1.843210e+002
2.404305e+002, 1.839197e+002
2.409126e+002, 1.841796e+002
2.413947e+002, 1.855535e+002
2.418768e+002, 1.866022e+002
2.423589e+002, 1.872243e+002
2.428410e+002, 1.874834e+002
2.433232e+002, 1.875588e+002
2.438053e+002, 1.872326e+002
2.442874e+002, 1.870208e+002
2.447695e+002, 1.872027e+002
2.452516e+002, 1.879530e+002
2.457337e+002, 1.887120e+002
2.462159e+002, 1.895571e+002
2.466980e+002, 1.903843e+002
2.471801e+002, 1.907475e+002
2.476622e+002, 1.900810e+002
2.481443e+002, 1.898019e+002
2.486264e+002, 1.908235e+002
2.491086e+002, 1.943768e+002
2.495907e+002, 1.961835e+002
2.500728e+002, 1.953689e+002
2.505549e+002, 1.929993e+002
2.510370e+002, 1.919990e+002
2.515191e+002, 1.931554e+002
2.520013e+002, 1.944379e+002
2.524834e+002, 1.949223e+002
2.529655e+002, 1.942093e+002
2.534476e+002, 1.937265e+002
2.539297e+002, 1.934490e+002
2.544118e+002, 1.934158e+002
2.548940e+002, 1.937248e+002
2.553761e+002, 1.944528e+002
2.558582e+002, 1.953940e+002
2.563403e+002, 1.966198e+002
2.568224e+002, 1.985151e+002
2.573046e+002, 1.993176e+002
2.577867e+002, 1.985402e+002
2.582688e+002, 1.969695e+002
2.587509e+002, 1.961640e+002
2.592330e+002, 1.964368e+002
2.597151e+002, 1.968439e+002
2.601973e+002, 1.970635e+002
2.606794e+002, 1.970864e+002
2.611615e+002, 1.969247e+002
2.616436e+002, 1.964964e+002
2.621257e+002, 1.959599e+002
2.626078e+002, 1.955489e+002
2.630900e+002, 1.952162e+002
2.635721e+002, 1.951491e+002
2.640542e+002, 1.955195e+002
2.645363e+002, 1.964555e+002
2.650184e+002, 1.970308e+002
2.655005e+002, 1.972251e+002
2.659827e+002, 1.971094e+002
2.664648e+002, 1.966730e+002
2.669469e+002, 1.957050e+002
2.674290e+002, 1.950513e+002
2.679111e+002, 1.950754e+002
2.683932e+002, 1.958343e+002
2.688754e+002, 1.962890e+002
2.693575e+002, 1.963492e+002
2.698396e+002, 1.962366e+002
2.703217e+002, 1.962421e+002
2.708038e+002, 1.964117e+002
2.712859e+002, 1.964904e+002
2.717681e+002, 1.963169e+002
2.722502e+002, 1.959087e+002
2.727323e+002, 1.959843e+002
2.732144e+002, 1.967833e+002
2.736965e+002, 1.975734e+002
2.741786e+002, 1.973956e+002
2.746608e+002, 1.960041e+002
2.751429e+002, 1.949881e+002
2.756250e+002, 1.948366e+002
2.761071e+002, 1.954214e+002
2.765892e+002, 1.957549e+002
2.770714e+002, 1.957672e+002
2.775535e+002, 1.957148e+002
2.780356e+002, 1.958942e+002
2.785177e+002, 1.963461e+002
2.789998e+002, 1.965771e+002
2.794819e+002, 1.963980e+002
2.799641e+002, 1.959375e+002
2.804462e+002, 1.958218e+002
2.809283e+002, 1.961285e+002
2.814104e+002, 1.964415e+002
2.818925e+002, 1.963580e+002
2.823746e+002, 1.958717e+002
2.828568e+002, 1.955281e+002
2.833389e+002, 1.954372e+002
2.838210e+002, 1.955359e+002
2.843031e+002, 1.957027e+002
2.847852e+002, 1.959617e+002
2.852673e+002, 1.961309e+002
2.857495e+002, 1.959495e+002
2.862316e+002, 1.954682e+002
2.867137e+002, 1.953647e+002
2.871958e+002, 1.958186e+002
2.876779e+002, 1.965556e+002
2.881600e+002, 1.970408e+002
2.886422e+002, 1.972720e+002
2.891243e+002, 1.973789e+002
2.896064e+002, 1.971566e+002
2.900885e+002, 1.967699e+002
2.905706e+002, 1.972756e+002
2.910527e+002, 1.989831e+002
2.915349e+002, 2.010670e+002
2.920170e+002, 2.023938e+002
2.924991e+002, 2.029561e+002
2.929812e+002, 2.028307e+002
2.934633e+002, 2.014982e+002
2.939454e+002, 1.994556e+002
2.944276e+002, 1.984042e+002
2.949097e+002, 1.985603e+002
2.953918e+002, 1.991906e+002
2.958739e+002, 1.994365e+002
2.963560e+002, 1.993670e+002
2.968381e+002, 1.993161e+002
2.973203e+002, 1.995177e+002
2.978024e+002, 1.998337e+002
2.982845e+002, 2.000451e+002
2.987666e+002, 2.001639e+002
2.992487e+002, 2.000189e+002
2.997308e+002, 1.990901e+002
3.002130e+002, 1.977012e+002
3.006951e+002, 1.968002e+002
3.011772e+002, 1.971173e+002
3.016593e+002, 1.979626e+002
3.021414e+002, 1.984786e+002
3.026235e+002, 1.986589e+002
3.031057e+002, 1.984313e+002
3.035878e+002, 1.974764e+002
3.040699e+002, 1.960916e+002
3.045520e+002, 1.948412e+002
3.050341e+002, 1.939268e+002
3.055162e+002, 1.932123e+002
3.059984e+002, 1.925928e+002
3.064805e+002, 1.920638e+002
3.069626e+002, 1.915517e+002
3.074447e+002, 1.910110e+002
3.079268e+002, 1.904604e+002
3.084089e+002, 1.899439e+002
3.088911e+002, 1.895261e+002
3.093732e+002, 1.890627e+002
3.098553e+002, 1.883846e+002
3.103374e+002, 1.875526e+002
3.108195e+002, 1.867559e+002
3.113016e+002, 1.861659e+002
3.117838e+002, 1.856364e+002
3.122659e+002, 1.850447e+002
3.127480e+002, 1.843918e+002
3.132301e+002, 1.836165e+002
3.137122e+002, 1.826367e+002
3.141943e+002, 1.814985e+002
3.146765e+002, 1.803214e+002
3.151586e+002, 1.788704e+002
3.156407e+002, 1.776015e+002
3.161228e+002, 1.768981e+002
3.166049e+002, 1.769684e+002
3.170870e+002, 1.769375e+002
3.175692e+002, 1.763371e+002
3.180513e+002, 1.754226e+002
3.185334e+002, 1.745527e+002
3.190155e+002, 1.739103e+002
3.194976e+002, 1.732799e+002
3.199797e+002, 1.725587e+002
3.204619e+002, 1.717296e+002
3.209440e+002, 1.709331e+002
3.214261e+002, 1.702016e+002
3.219082e+002, 1.695305e+002
3.223903e+002, 1.689191e+002
3.228724e+002, 1.682757e+002
3.233546e+002, 1.677797e+002
3.238367e+002, 1.675780e+002
3.243188e+002, 1.676537e+002
3.248009e+002, 1.675630e+002
3.252830e+002, 1.672173e+002
3.257651e+002, 1.666986e+002
3.262473e+002, 1.660609e+002
3.267294e+002, 1.651886e+002
3.272115e+002, 1.643446e+002
3.276936e+002, 1.635033e+002
3.281757e+002, 1.627007e+002
3.286578e+002, 1.620637e+002
3.291400e+002, 1.615720e+002
3.296221e+002, 1.612680e+002
3.301042e+002, 1.611815e+002
3.305863e+002, 1.615046e+002
3.310684e+002, 1.617360e+002
3.315505e+002, 1.619190e+002
3.320327e+002, 1.619988e+002
3.325148e+002, 1.618311e+002
3.329969e+002, 1.611924e+002
3.334790e+002, 1.605907e+002
3.339611e+002, 1.601680e+002
3.344432e+002, 1.599188e+002
3.349254e+002, 1.598694e+002
3.354075e+002, 1.601172e+002
3.358896e+002, 1.604739e+002
3.363717e+002, 1.606898e+002
3.368538e+002, 1.607464e+002
3.373359e+002, 1.606942e+002
3.378180e+002, 1.605372e+002
3.383001e+002, 1.602784e+002
3.387823e+002, 1.599455e+002
3.392644e+002, 1.595119e+002
3.397465e+002, 1.590724e+002
3.402286e+002, 1.587068e+002
3.407107e+002, 1.584169e+002
3.411928e+002, 1.582449e+002
3.416750e+002, 1.582631e+002
3.421571e+002, 1.583932e+002
3.426392e+002, 1.582864e+002
3.431213e+002, 1.579007e+002
3.436034e+002, 1.575054e+002
3.440855e+002, 1.573153e+002
3.445677e+002, 1.573228e+002
3.450498e+002, 1.572928e+002
3.455319e+002, 1.572020e+002
3.460140e+002, 1.570548e+002
3.464961e+002, 1.568721e+002
3.469782e+002, 1.566531e+002
3.474604e+002, 1.563471e+002
3.479425e+002, 1.557037e+002
3.484246e+002, 1.549153e+002
3.489067e+002, 1.548733e+002
3.493888e+002, 1.557577e+002
3.498709e+002, 1.567240e+002
3.503531e+002, 1.565231e+002
3.508352e+002, 1.554656e+002
3.513173e+002, 1.547079e+002
3.517994e+002, 1.551133e+002
3.522815e+002, 1.560008e+002
3.527636e+002, 1.561821e+002
3.532458e+002, 1.556553e+002
3.537279e+002, 1.549702e+002
3.542100e+002, 1.545468e+002
3.546921e+002, 1.542862e+002
3.551742e+002, 1.540119e+002
3.556563e+002, 1.535878e+002
3.561385e+002, 1.532088e+002
3.566206e+002, 1.531217e+002
3.571027e+002, 1.532710e+002
3.575848e+002, 1.533856e+002
3.580669e+002, 1.533899e+002
3.585490e+002, 1.532411e+002
3.590312e+002, 1.528611e+002
3.595133e+002, 1.521217e+002
3.599954e+002, 1.514057e+002
3.604775e+002, 1.509608e+002
3.609596e+002, 1.506998e+002
3.614417e+002, 1.504430e+002
3.619239e+002, 1.500033e+002
3.624060e+002, 1.496341e+002
3.628881e+002, 1.495281e+002
3.633702e+002, 1.497686e+002
3.638523e+002, 1.499305e+002
3.643344e+002, 1.498729e+002
3.648166e+002, 1.496657e+002
3.652987e+002, 1.493859e+002
3.657808e+002, 1.488472e+002
3.662629e+002, 1.484500e+002
3.667450e+002, 1.484023e+002
3.672271e+002, 1.487016e+002
3.677093e+002, 1.488201e+002
3.681914e+002, 1.484543e+002
3.686735e+002, 1.480389e+002
3.691556e+002, 1.478568e+002
3.696377e+002, 1.483069e+002
3.701198e+002, 1.485006e+002
3.706020e+002, 1.482285e+002
3.710841e+002, 1.476491e+002
3.715662e+002, 1.473471e+002
3.720483e+002, 1.475028e+002
3.725304e+002, 1.477168e+002
3.730125e+002, 1.478157e+002
3.734947e+002, 1.477214e+002
3.739768e+002, 1.477421e+002
3.744589e+002, 1.479454e+002
3.749410e+002, 1.482097e+002
3.754231e+002, 1.483042e+002
3.759052e+002, 1.481235e+002
3.763874e+002, 1.480901e+002
3.768695e+002, 1.484362e+002
3.773516e+002, 1.491498e+002
3.778337e+002, 1.493974e+002
3.783158e+002, 1.490960e+002
3.787979e+002, 1.485865e+002
3.792801e+002, 1.481774e+002
3.797622e+002, 1.478687e+002
3.802443e+002, 1.476059e+002
3.807264e+002, 1.473542e+002
3.812085e+002, 1.471584e+002
3.816906e+002, 1.471212e+002
3.821728e+002, 1.472402e+002
3.826549e+002, 1.475203e+002
3.831370e+002, 1.481615e+002
3.836191e+002, 1.490061e+002
3.841012e+002, 1.493208e+002
3.845833e+002, 1.489202e+002
3.850655e+002, 1.483596e+002
3.855476e+002, 1.483994e+002
3.860297e+002, 1.489166e+002
3.865118e+002, 1.494686e+002
3.869939e+002, 1.497491e+002
3.874760e+002, 1.499800e+002
3.879582e+002, 1.506045e+002
3.884403e+002, 1.516415e+002
3.889224e+002, 1.525368e+002
3.894045e+002, 1.526959e+002
3.898866e+002, 1.524673e+002
3.903687e+002, 1.523480e+002
3.908509e+002, 1.526414e+002
3.913330e+002, 1.529483e+002
3.918151e+002, 1.528566e+002
3.922972e+002, 1.524951e+002
3.927793e+002, 1.523813e+002
3.932614e+002, 1.530265e+002
3.937436e+002, 1.538521e+002
3.942257e+002, 1.544477e+002
3.947078e+002, 1.546557e+002
3.951899e+002, 1.548271e+002
3.956720e+002, 1.550262e+002
3.961541e+002, 1.552753e+002
3.966363e+002, 1.556113e+002
3.971184e+002, 1.560574e+002
3.976005e+002, 1.565762e+002
3.980826e+002, 1.572568e+002
3.985647e+002, 1.581600e+002
3.990468e+002, 1.587118e+002
3.995290e+002, 1.584494e+002
4.000111e+002, 1.580418e+002
4.004932e+002, 1.580282e+002
4.009753e+002, 1.587289e+002
4.014574e+002, 1.594025e+002
4.019395e+002, 1.599949e+002
4.024217e+002, 1.605128e+002
4.029038e+002, 1.609550e+002
4.033859e+002, 1.612278e+002
4.038680e+002, 1.615644e+002
4.043501e+002, 1.621253e+002
4.048322e+002, 1.630380e+002
4.053144e+002, 1.637184e+002
4.057965e+002, 1.641548e+002
4.062786e+002, 1.643646e+002
4.067607e+002, 1.642765e+002
4.072428e+002, 1.638034e+002
4.077249e+002, 1.635156e+002
4.082071e+002, 1.636800e+002
4.086892e+002, 1.642079e+002
4.091713e+002, 1.644588e+002
4.096534e+002, 1.643694e+002
4.101355e+002, 1.643764e+002
4.106176e+002, 1.650640e+002
4.110998e+002, 1.662830e+002
4.115819e+002, 1.671344e+002
4.120640e+002, 1.673960e+002
4.125461e+002, 1.672932e+002
4.130282e+002, 1.671225e+002
4.135103e+002, 1.668927e+002
4.139925e+002, 1.666535e+002
4.144746e+002, 1.664446e+002
4.149567e+002, 1.662380e+002
4.154388e+002, 1.659746e+002
4.159209e+002, 1.656383e+002
4.164030e+002, 1.653308e+002
4.168852e+002, 1.651904e+002
4.173673e+002, 1.651249e+002
4.178494e+002, 1.649834e+002
4.183315e+002, 1.644887e+002
4.188136e+002, 1.640817e+002
4.192957e+002, 1.642004e+002
4.197779e+002, 1.647463e+002
4.202600e+002, 1.650675e+002
4.207421e+002, 1.647124e+002
4.212242e+002, 1.641146e+002
4.217063e+002, 1.635545e+002
4.221884e+002, 1.628987e+002
4.226706e+002, 1.626167e+002
4.231527e+002, 1.631626e+002
4.236348e+002, 1.641191e+002
4.241169e+002, 1.647022e+002
4.245990e+002, 1.645770e+002
4.250811e+002, 1.642786e+002
4.255633e+002, 1.638382e+002
4.260454e+002, 1.631728e+002
4.265275e+002, 1.629712e+002
4.270096e+002, 1.636171e+002
4.274917e+002, 1.644166e+002
4.279738e+002, 1.647612e+002
4.284560e+002, 1.642929e+002
4.289381e+002, 1.641389e+002
4.294202e+002, 1.646025e+002
4.299023e+002, 1.654262e+002
4.303844e+002, 1.656918e+002
4.308665e+002, 1.652260e+002
4.313487e+002, 1.646888e+002
4.318308e+002, 1.644188e+002
4.323129e+002, 1.644317e+002
4.327950e+002, 1.644212e+002
4.332771e+002, 1.643849e+002
4.337592e+002, 1.643295e+002
4.342414e+002, 1.642744e+002
4.347235e+002, 1.642171e+002
4.352056e+002, 1.640959e+002
4.356877e+002, 1.638100e+002
4.361698e+002, 1.635077e+002
4.366519e+002, 1.636344e+002
4.371341e+002, 1.641599e+002
4.376162e+002, 1.645322e+002
4.380983e+002, 1.642341e+002
4.385804e+002, 1.635381e+002
4.390625e+002, 1.628882e+002
4.395446e+002, 1.623424e+002
4.400268e+002, 1.619041e+002
4.405089e+002, 1.616447e+002
4.409910e+002, 1.614915e+002
4.414731e+002, 1.612995e+002
4.419552e+002, 1.609991e+002
4.424373e+002, 1.606383e+002
4.429195e+002, 1.601770e+002
4.434016e+002, 1.596220e+002
4.438837e+002, 1.592155e+002
4.443658e+002, 1.591602e+002
4.448479e+002, 1.592322e+002
4.453300e+002, 1.592607e+002
4.458122e+002, 1.592703e+002
4.462943e+002, 1.591533e+002
4.467764e+002, 1.587605e+002
4.472585e+002, 1.582215e+002
4.477406e+002, 1.578711e+002
4.482227e+002, 1.581693e+002
4.487049e+002, 1.582180e+002
4.491870e+002, 1.576494e+002
4.496691e+002, 1.563072e+002
4.501512e+002, 1.553183e+002
4.506333e+002, 1.547336e+002
4.511154e+002, 1.544607e+002
4.515976e+002, 1.544996e+002
4.520797e+002, 1.550177e+002
4.525618e+002, 1.552835e+002
4.530439e+002, 1.551239e+002
4.535260e+002, 1.546757e+002
4.540081e+002, 1.543244e+002
4.544903e+002, 1.540712e+002
4.549724e+002, 1.539081e+002
4.554545e+002, 1.538332e+002
4.559366e+002, 1.538442e+002
4.564187e+002, 1.539753e+002
4.569008e+002, 1.542577e+002
4.573830e+002, 1.544802e+002
4.578651e+002, 1.542069e+002
4.583472e+002, 1.536304e+002
4.588293e+002, 1.534151e+002
4.593114e+002, 1.539751e+002
4.597935e+002, 1.547884e+002
4.602757e+002, 1.552568e+002
4.607578e+002, 1.554074e+002
4.612399e+002, 1.554020e+002
4.617220e+002, 1.552847e+002
4.622041e+002, 1.550894e+002
4.626862e+002, 1.547825e+002
4.631684e+002, 1.542877e+002
4.636505e+002, 1.540170e+002
4.641326e+002, 1.544093e+002
4.646147e+002, 1.550877e+002
4.650968e+002, 1.555708e+002
4.655789e+002, 1.557229e+002
4.660611e+002, 1.556465e+002
4.665432e+002, 1.552053e+002
4.670253e+002, 1.544592e+002
4.675074e+002, 1.540069e+002
4.679895e+002, 1.542163e+002
4.684716e+002, 1.544967e+002
4.689538e+002, 1.545781e+002
4.694359e+002, 1.544228e+002
4.699180e+002, 1.541357e+002
4.704001e+002, 1.536045e+002
4.708822e+002, 1.530128e+002
4.713643e+002, 1.526280e+002
4.718465e+002, 1.524707e+002
4.723286e+002, 1.524643e+002
4.728107e+002, 1.526453e+002
4.732928e+002, 1.529630e+002
4.737749e+002, 1.531836e+002
4.742570e+002, 1.533288e+002
4.747392e+002, 1.532463e+002
4.752213e+002, 1.526227e+002
4.757034e+002, 1.515791e+002
4.761855e+002, 1.509875e+002
4.766676e+002, 1.510006e+002
4.771497e+002, 1.512714e+002
4.776319e+002, 1.514341e+002
4.781140e+002, 1.514859e+002
4.785961e+002, 1.514094e+002
4.790782e+002, 1.511552e+002
4.795603e+002, 1.507958e+002
4.800424e+002, 1.503399e+002
4.805246e+002, 1.498102e+002
4.810067e+002, 1.494066e+002
4.814888e+002, 1.493793e+002
4.819709e+002, 1.494621e+002
4.824530e+002, 1.494074e+002
4.829352e+002, 1.491050e+002
4.834173e+002, 1.488157e+002
4.838994e+002, 1.486932e+002
4.843815e+002, 1.486345e+002
4.848636e+002, 1.484853e+002
4.853457e+002, 1.481890e+002
4.858279e+002, 1.478207e+002
4.863100e+002, 1.473271e+002
4.867921e+002, 1.467110e+002
4.872742e+002, 1.462985e+002
4.877563e+002, 1.461541e+002
4.882384e+002, 1.461482e+002
4.887206e+002, 1.462513e+002
4.892027e+002, 1.466055e+002
4.896848e+002, 1.466771e+002
4.901669e+002, 1.463787e+002
4.906490e+002, 1.458871e+002
4.911311e+002, 1.454247e+002
4.916133e+002, 1.449738e+002
4.920954e+002, 1.447139e+002
4.925775e+002, 1.447712e+002
4.930596e+002, 1.450425e+002
4.935417e+002, 1.451338e+002
4.940238e+002, 1.450411e+002
4.945060e+002, 1.449091e+002
4.949881e+002, 1.448047e+002
4.954702e+002, 1.447423e+002
4.959523e+002, 1.447856e+002
4.964344e+002, 1.449662e+002
4.969165e+002, 1.451333e+002
4.973987e+002, 1.450402e+002
4.978808e+002, 1.448338e+002
4.983629e+002, 1.447943e+002
4.988450e+002, 1.452855e+002
4.993271e+002, 1.457739e+002
4.998092e+002, 1.458320e+002
5.002914e+002, 1.455425e+002
5.007735e+002, 1.453570e+002
5.012556e+002, 1.455280e+002
5.017377e+002, 1.458010e+002
5.022198e+002, 1.460577e+002
5.027019e+002, 1.463553e+002
5.031841e+002, 1.464608e+002
5.036662e+002, 1.461421e+002
5.041483e+002, 1.457034e+002
5.046304e+002, 1.454985e+002
5.051125e+002, 1.456213e+002
5.055946e+002, 1.458345e+002
5.060768e+002, 1.461530e+002
5.065589e+002, 1.465384e+002
5.070410e+002, 1.468231e+002
5.075231e+002, 1.470258e+002
5.080052e+002, 1.470713e+002
5.084873e+002, 1.467878e+002
5.089695e+002, 1.461726e+002
5.094516e+002, 1.460194e+002
5.099337e+002, 1.463999e+002
5.104158e+002, 1.469562e+002
5.108979e+002, 1.472951e+002
5.113800e+002, 1.474573e+002
5.118622e+002, 1.476198e+002
5.123443e+002, 1.478555e+002
5.128264e+002, 1.480753e+002
5.133085e+002, 1.481839e+002
5.137906e+002, 1.481829e+002
5.142728e+002, 1.480765e+002
5.147549e+002, 1.475892e+002
5.152370e+002, 1.471800e+002
5.157191e+002, 1.474041e+002
5.162012e+002, 1.483447e+002
5.166833e+002, 1.490437e+002
5.171655e+002, 1.487653e+002
5.176476e+002, 1.482139e+002
5.181297e+002, 1.479929e+002
5.186118e+002, 1.484703e+002
5.190939e+002, 1.489838e+002
5.195760e+002, 1.494671e+002
5.200582e+002, 1.499159e+002
5.205403e+002, 1.503445e+002
5.210224e+002, 1.508538e+002
5.215045e+002, 1.511864e+002
5.219866e+002, 1.511877e+002
5.224688e+002, 1.508578e+002
5.229509e+002, 1.508197e+002
5.234330e+002, 1.511524e+002
5.239151e+002, 1.515864e+002
5.243972e+002, 1.518824e+002
5.248793e+002, 1.520320e+002
5.253615e+002, 1.524130e+002
5.258436e+002, 1.531427e+002
5.263257e+002, 1.538822e+002
5.268078e+002, 1.540357e+002
5.272899e+002, 1.537131e+002
5.277720e+002, 1.534276e+002
5.282542e+002, 1.533453e+002
5.287363e+002, 1.534382e+002
5.292184e+002, 1.537242e+002
5.297005e+002, 1.541747e+002
5.301826e+002, 1.546487e+002
5.306647e+002, 1.550363e+002
5.311469e+002, 1.554242e+002
5.316290e+002, 1.559621e+002
5.321111e+002, 1.567473e+002
5.325932e+002, 1.572888e+002
5.330753e+002, 1.571553e+002
5.335574e+002, 1.567882e+002
5.340396e+002, 1.566466e+002
5.345217e+002, 1.569479e+002
5.350038e+002, 1.573214e+002
5.354859e+002, 1.577845e+002
5.359680e+002, 1.582891e+002
5.364501e+002, 1.586744e+002
5.369323e+002, 1.588365e+002
5.374144e+002, 1.590481e+002
5.378965e+002, 1.593472e+002
5.383786e+002, 1.597227e+002
5.388607e+002, 1.605992e+002
5.393428e+002, 1.621350e+002
5.398250e+002, 1.636555e+002
5.403071e+002, 1.644822e+002
5.407892e+002, 1.646647e+002
5.412713e+002, 1.647451e+002
5.417534e+002, 1.647683e+002
5.422355e+002, 1.648017e+002
5.427177e+002, 1.650302e+002
5.431998e+002, 1.653660e+002
5.436819e+002, 1.655222e+002
5.441640e+002, 1.650909e+002
5.446461e+002, 1.646137e+002
5.451282e+002, 1.646972e+002
5.456104e+002, 1.652520e+002
5.460925e+002, 1.657127e+002
5.465746e+002, 1.656980e+002
5.470567e+002, 1.655522e+002
5.475388e+002, 1.655026e+002
5.480209e+002, 1.656058e+002
5.485031e+002, 1.657244e+002
5.489852e+002, 1.659571e+002
5.494673e+002, 1.661312e+002
5.499494e+002, 1.660623e+002
5.504315e+002, 1.656407e+002
5.509136e+002, 1.651209e+002
5.513958e+002, 1.643588e+002
5.518779e+002, 1.635535e+002
5.523600e+002, 1.634398e+002
5.528421e+002, 1.642836e+002
5.533242e+002, 1.648754e+002
5.538063e+002, 1.645812e+002
5.542885e+002, 1.635390e+002
5.547706e+002, 1.628613e+002
5.552527e+002, 1.625719e+002
5.557348e+002, 1.623961e+002
5.562169e+002, 1.620495e+002
5.566990e+002, 1.616344e+002
5.571812e+002, 1.614411e+002
5.576633e+002, 1.615634e+002
5.581454e+002, 1.617317e+002
5.586275e+002, 1.616732e+002
5.591096e+002, 1.614823e+002
5.595917e+002, 1.613230e+002
5.600739e+002, 1.613767e+002
5.605560e+002, 1.613725e+002
5.610381e+002, 1.611441e+002
5.615202e+002, 1.607332e+002
5.620023e+002, 1.603190e+002
5.624844e+002, 1.596923e+002
5.629666e+002, 1.592877e+002
5.634487e+002, 1.594201e+002
5.639308e+002, 1.602695e+002
5.644129e+002, 1.607229e+002
5.648950e+002, 1.605899e+002
5.653771e+002, 1.602656e+002
5.658593e+002, 1.600491e+002
5.663414e+002, 1.599382e+002
5.668235e+002, 1.599620e+002
5.673056e+002, 1.601756e+002
5.677877e+002, 1.604445e+002
5.682698e+002, 1.604911e+002
5.687520e+002, 1.603313e+002
5.692341e+002, 1.602195e+002
5.697162e+002, 1.603100e+002
5.701983e+002, 1.604730e+002
5.706804e+002, 1.603937e+002
5.711625e+002, 1.601223e+002
5.716447e+002, 1.599936e+002
5.721268e+002, 1.604321e+002
5.726089e+002, 1.610027e+002
5.730910e+002, 1.612614e+002
5.735731e+002, 1.611323e+002
5.740552e+002, 1.609270e+002
5.745374e+002, 1.607339e+002
5.750195e+002, 1.605571e+002
5.755016e+002, 1.603991e+002
5.759837e+002, 1.602133e+002
5.764658e+002, 1.601011e+002
5.769479e+002, 1.601434e+002
5.774301e+002, 1.602414e+002
5.779122e+002, 1.601812e+002
5.783943e+002, 1.598106e+002
5.788764e+002, 1.595837e+002
5.793585e+002, 1.596988e+002
5.798406e+002, 1.600757e+002
5.803228e+002, 1.600964e+002
5.808049e+002, 1.597010e+002
5.812870e+002, 1.593352e+002
5.817691e+002, 1.593784e+002
5.822512e+002, 1.597157e+002
5.827333e+002, 1.598396e+002
5.832155e+002, 1.597033e+002
5.836975e+002, 1.595650e+002
5.841796e+002, 1.598040e+002
5.846617e+002, 1.601783e+002
5.851439e+002, 1.602300e+002
5.856260e+002, 1.595493e+002
5.861081e+002, 1.590439e+002
5.865902e+002, 1.595210e+002
5.870723e+002, 1.605428e+002
5.875544e+002, 1.612536e+002
5.880366e+002, 1.610410e+002
5.885187e+002, 1.608633e+002
5.890008e+002, 1.611330e+002
5.894829e+002, 1.618151e+002
5.899650e+002, 1.621364e+002
5.904471e+002, 1.617798e+002
5.909293e+002, 1.614669e+002
5.914114e+002, 1.616108e+002
5.918935e+002, 1.623248e+002
5.923756e+002, 1.626313e+002
5.928577e+002, 1.624355e+002
5.933398e+002, 1.620847e+002
5.938220e+002, 1.619781e+002
5.943041e+002, 1.620709e+002
5.947862e+002, 1.620020e+002
5.952683e+002, 1.616905e+002
5.957504e+002, 1.612419e+002
5.962325e+002, 1.607290e+002
5.967147e+002, 1.601815e+002
5.971968e+002, 1.596826e+002
5.976789e+002, 1.593300e+002
5.981610e+002, 1.589857e+002
5.986431e+002, 1.585643e+002
5.991252e+002, 1.580699e+002
5.996074e+002, 1.575182e+002
6.000895e+002, 1.567913e+002
6.005716e+002, 1.561084e+002
6.010537e+002, 1.556107e+002
6.015358e+002, 1.553790e+002
6.020179e+002, 1.549935e+002
6.025001e+002, 1.542438e+002
6.029822e+002, 1.535426e+002
6.034643e+002, 1.532599e+002
6.039464e+002, 1.535758e+002
6.044285e+002, 1.535740e+002
6.049106e+002, 1.531408e+002
6.053928e+002, 1.524828e+002
6.058749e+002, 1.518902e+002
6.063570e+002, 1.513539e+002
6.068391e+002, 1.507802e+002
6.073212e+002, 1.500925e+002
6.078033e+002, 1.494136e+002
6.082855e+002, 1.489250e+002
6.087676e+002, 1.486050e+002
6.092497e+002, 1.483577e+002
6.097318e+002, 1.482740e+002
6.102139e+002, 1.481381e+002
6.106960e+002, 1.476644e+002
6.111782e+002, 1.468620e+002
6.116603e+002, 1.463125e+002
6.121424e+002, 1.464674e+002
6.126245e+002, 1.467540e+002
6.131066e+002, 1.467998e+002
6.135887e+002, 1.463941e+002
6.140709e+002, 1.461911e+002
6.145530e+002, 1.463496e+002
6.150351e+002, 1.465704e+002
6.155172e+002, 1.464804e+002
6.159993e+002, 1.459506e+002
6.164814e+002, 1.457452e+002
6.169636e+002, 1.460951e+002
6.174457e+002, 1.466369e+002
6.179278e+002, 1.465486e+002
6.184099e+002, 1.459041e+002
6.188920e+002, 1.454754e+002
6.193741e+002, 1.456756e+002
6.198563e+002, 1.461985e+002
6.203384e+002, 1.466534e+002
6.208205e+002, 1.470423e+002
6.213026e+002, 1.473810e+002
6.217847e+002, 1.477913e+002
6.222668e+002, 1.480737e+002
6.227490e+002, 1.479593e+002
6.232311e+002, 1.473735e+002
6.237132e+002, 1.470435e+002
6.241953e+002, 1.474216e+002
6.246774e+002, 1.479499e+002
6.251595e+002, 1.482225e+002
6.256417e+002, 1.479471e+002
6.261238e+002, 1.479997e+002
6.266059e+002, 1.484951e+002
6.270880e+002, 1.491965e+002
6.275701e+002, 1.498712e+002
6.280522e+002, 1.505519e+002
6.285344e+002, 1.508550e+002
6.290165e+002, 1.505727e+002
6.294986e+002, 1.500601e+002
6.299807e+002, 1.500637e+002
6.304628e+002, 1.504927e+002
6.309449e+002, 1.508579e+002
6.314271e+002, 1.508352e+002
6.319092e+002, 1.506776e+002
6.323913e+002, 1.506200e+002
6.328734e+002, 1.506618e+002
6.333555e+002, 1.507950e+002
6.338376e+002, 1.511238e+002
6.343198e+002, 1.514546e+002
6.348019e+002, 1.516616e+002
6.352840e+002, 1.517064e+002
6.357661e+002, 1.517666e+002
6.362482e+002, 1.520565e+002
6.367303e+002, 1.522094e+002
6.372125e+002, 1.518937e+002
6.376946e+002, 1.507717e+002
6.381767e+002, 1.502245e+002
6.386588e+002, 1.504760e+002
6.391409e+002, 1.510166e+002
6.396230e+002, 1.510213e+002
6.401052e+002, 1.505433e+002
6.405873e+002, 1.504275e+002
6.410694e+002, 1.510368e+002
6.415515e+002, 1.518539e+002
6.420336e+002, 1.520511e+002
6.425157e+002, 1.517952e+002
6.429979e+002, 1.515749e+002
6.434800e+002, 1.516049e+002
6.439621e+002, 1.517773e+002
6.444442e+002, 1.520434e+002
6.449263e+002, 1.523943e+002
6.454084e+002, 1.527883e+002
6.458906e+002, 1.532977e+002
6.463727e+002, 1.537703e+002
6.468548e+002, 1.541212e+002
6.473369e+002, 1.543335e+002
6.478190e+002, 1.545705e+002
6.483011e+002, 1.548993e+002
6.487833e+002, 1.551497e+002
6.492654e+002, 1.550677e+002
6.497475e+002, 1.545862e+002
6.502296e+002, 1.547047e+002
6.507117e+002, 1.555790e+002
6.511938e+002, 1.566601e+002
6.516760e+002, 1.572851e+002
6.521581e+002, 1.575535e+002
6.526402e+002, 1.577015e+002
6.531223e+002, 1.576480e+002
6.536044e+002, 1.577954e+002
6.540865e+002, 1.587360e+002
6.545687e+002, 1.601150e+002
6.550508e+002, 1.612525e+002
6.555329e+002, 1.617725e+002
6.560150e+002, 1.621463e+002
6.564971e+002, 1.624938e+002
6.569792e+002, 1.628276e+002
6.574614e+002, 1.631935e+002
6.579435e+002, 1.636013e+002
6.584256e+002, 1.640282e+002
6.589077e+002, 1.644718e+002
6.593898e+002, 1.649305e+002
6.598719e+002, 1.653243e+002
6.603541e+002, 1.655988e+002
6.608362e+002, 1.660583e+002
6.613183e+002, 1.672070e+002
6.618004e+002, 1.687550e+002
6.622825e+002, 1.695005e+002
6.627646e+002, 1.693432e+002
6.632468e+002, 1.690031e+002
6.637289e+002, 1.690624e+002
6.642110e+002, 1.693433e+002
6.646931e+002, 1.696370e+002
6.651752e+002, 1.699438e+002
6.656573e+002, 1.701430e+002
6.661395e+002, 1.701024e+002
6.666216e+002, 1.699600e+002
6.671037e+002, 1.698848e+002
6.675858e+002, 1.701621e+002
6.680679e+002, 1.701513e+002
6.685500e+002, 1.696248e+002
6.690322e+002, 1.688616e+002
6.695143e+002, 1.685876e+002
6.699964e+002, 1.689752e+002
6.704785e+002, 1.689475e+002
6.709606e+002, 1.679376e+002
6.714427e+002, 1.664524e+002
6.719249e+002, 1.659976e+002
6.724070e+002, 1.664683e+002
6.728891e+002, 1.670546e+002
6.733712e+002, 1.674893e+002
6.738533e+002, 1.676539e+002
6.743354e+002, 1.672472e+002
6.748176e+002, 1.663272e+002
6.752997e+002, 1.655199e+002
6.757818e+002, 1.651541e+002
6.762639e+002, 1.649981e+002
6.767460e+002, 1.649629e+002
6.772281e+002, 1.651130e+002
6.777103e+002, 1.650749e+002
6.781924e+002, 1.646166e+002
6.786745e+002, 1.641912e+002
6.791566e+002, 1.641736e+002
6.796387e+002, 1.646818e+002
6.801208e+002, 1.650049e+002
6.806030e+002, 1.650509e+002
6.810851e+002, 1.650610e+002
6.815672e+002, 1.654895e+002
6.820493e+002, 1.661850e+002
6.825314e+002, 1.664504e+002
6.830135e+002, 1.659505e+002
6.834957e+002, 1.653571e+002
6.839778e+002, 1.654556e+002
6.844599e+002, 1.659617e+002
6.849420e+002, 1.663367e+002
6.854241e+002, 1.662410e+002
6.859063e+002, 1.661294e+002
6.863884e+002, 1.661812e+002
6.868705e+002, 1.663558e+002
6.873526e+002, 1.664967e+002
6.878347e+002, 1.664632e+002
6.883168e+002, 1.665950e+002
6.887990e+002, 1.670179e+002
6.892811e+002, 1.676929e+002
6.897632e+002, 1.683445e+002
6.902453e+002, 1.689776e+002
6.907274e+002, 1.695483e+002
6.912095e+002, 1.701314e+002
6.916917e+002, 1.706190e+002
6.921738e+002, 1.705695e+002
6.926559e+002, 1.700010e+002
6.931380e+002, 1.694505e+002
6.936201e+002, 1.692087e+002
6.941022e+002, 1.692339e+002
6.945844e+002, 1.695391e+002
6.950665e+002, 1.701615e+002
6.955486e+002, 1.707910e+002
6.960307e+002, 1.714410e+002
6.965128e+002, 1.719731e+002
6.969949e+002, 1.722804e+002
6.974771e+002, 1.722972e+002
6.979592e+002, 1.722150e+002
6.984413e+002, 1.719543e+002
6.989234e+002, 1.717027e+002
6.994055e+002, 1.717377e+002
6.998876e+002, 1.720688e+002
7.003698e+002, 1.723032e+002
7.008519e+002, 1.723617e+002
7.013340e+002, 1.723394e+002
7.018161e+002, 1.724473e+002
7.022982e+002, 1.725827e+002
7.027803e+002, 1.724695e+002
7.032625e+002, 1.717834e+002
7.037446e+002, 1.710889e+002
7.042267e+002, 1.706635e+002
7.047088e+002, 1.705143e+002
7.051909e+002, 1.706655e+002
7.056730e+002, 1.715607e+002
7.061552e+002, 1.722584e+002
7.066373e+002, 1.724684e+002
7.071194e+002, 1.722897e+002
7.076015e+002, 1.721862e+002
7.080836e+002, 1.721809e+002
7.085657e+002, 1.721729e+002
7.090479e+002, 1.721330e+002
7.095300e+002, 1.720520e+002
7.100121e+002, 1.718297e+002
7.104942e+002, 1.714747e+002
7.109763e+002, 1.712474e+002
7.114584e+002, 1.715140e+002
7.119406e+002, 1.719037e+002
7.124227e+002, 1.720337e+002
7.129048e+002, 1.718770e+002
7.133869e+002, 1.713307e+002
7.138690e+002, 1.698228e+002
7.143511e+002, 1.682982e+002
7.148333e+002, 1.673803e+002
7.153154e+002, 1.673144e+002
7.157975e+002, 1.673890e+002
7.162796e+002, 1.678628e+002
7.167617e+002, 1.681636e+002
7.172438e+002, 1.676501e+002
7.177260e+002, 1.661895e+002
7.182081e+002, 1.655572e+002
7.186902e+002, 1.660186e+002
7.191723e+002, 1.666751e+002
7.196544e+002, 1.663342e+002
7.201365e+002, 1.653673e+002
7.206187e+002, 1.647307e+002
7.211008e+002, 1.647026e+002
7.215829e+002, 1.648169e+002
7.220650e+002, 1.647073e+002
7.225471e+002, 1.645263e+002
7.230292e+002, 1.644772e+002
7.235114e+002, 1.650411e+002
7.239935e+002, 1.652107e+002
7.244756e+002, 1.644772e+002
7.249577e+002, 1.633855e+002
7.254398e+002, 1.628614e+002
7.259219e+002, 1.630770e+002
7.264041e+002, 1.633531e+002
7.268862e+002, 1.635682e+002
7.273683e+002, 1.637288e+002
7.278504e+002, 1.638349e+002
7.283325e+002, 1.638910e+002
7.288146e+002, 1.639221e+002
7.292968e+002, 1.638496e+002
7.297789e+002, 1.638349e+002
7.302610e+002, 1.641637e+002
7.307431e+002, 1.647243e+002
7.312252e+002, 1.651460e+002
7.317073e+002, 1.652180e+002
7.321895e+002, 1.651673e+002
7.326716e+002, 1.650344e+002
7.331537e+002, 1.648365e+002
7.336358e+002, 1.647488e+002
7.341179e+002, 1.648554e+002
7.346000e+002, 1.649329e+002
7.350822e+002, 1.648987e+002
7.355643e+002, 1.647576e+002
7.360464e+002, 1.644838e+002
7.365285e+002, 1.640664e+002
7.370106e+002, 1.637534e+002
7.374927e+002, 1.637394e+002
7.379749e+002, 1.639414e+002
7.384570e+002, 1.642697e+002
7.389391e+002, 1.647107e+002
7.394212e+002, 1.651210e+002
7.399033e+002, 1.654327e+002
7.403854e+002, 1.656679e+002
7.408676e+002, 1.658321e+002
7.413497e+002, 1.659092e+002
7.418318e+002, 1.659713e+002
7.423139e+002, 1.659481e+002
7.427960e+002, 1.659928e+002
7.432781e+002, 1.662136e+002
7.437603e+002, 1.666253e+002
7.442424e+002, 1.671740e+002
7.447245e+002, 1.679241e+002
7.452066e+002, 1.685514e+002
7.456887e+002, 1.685005e+002
7.461708e+002, 1.680825e+002
7.466530e+002, 1.681676e+002
7.471351e+002, 1.689807e+002
7.476172e+002, 1.698884e+002
7.480993e+002, 1.705141e+002
7.485814e+002, 1.709406e+002
7.490635e+002, 1.712433e+002
7.495457e+002, 1.712975e+002
7.500278e+002, 1.714575e+002
7.505099e+002, 1.716515e+002
7.509920e+002, 1.720373e+002
7.514741e+002, 1.728863e+002
7.519562e+002, 1.743529e+002
7.524384e+002, 1.755707e+002
7.529205e+002, 1.763717e+002
7.534026e+002, 1.769560e+002
7.538847e+002, 1.776331e+002
7.543668e+002, 1.783623e+002
7.548489e+002, 1.789542e+002
7.553311e+002, 1.791620e+002
7.558132e+002, 1.795646e+002
7.562953e+002, 1.809446e+002
7.567774e+002, 1.828249e+002
7.572595e+002, 1.843385e+002
7.577416e+002, 1.849324e+002
7.582238e+002, 1.854836e+002
7.587059e+002, 1.861752e+002
7.591880e+002, 1.869785e+002
7.596701e+002, 1.878337e+002
7.601522e+002, 1.887395e+002
7.606343e+002, 1.897424e+002
7.611165e+002, 1.908889e+002
7.615986e+002, 1.921248e+002
7.620807e+002, 1.933017e+002
7.625628e+002, 1.944425e+002
7.630449e+002, 1.956759e+002
7.635270e+002, 1.970935e+002
7.640092e+002, 1.985956e+002
7.644913e+002, 2.003418e+002
7.649734e+002, 2.021345e+002
7.654555e+002, 2.033909e+002
7.659376e+002, 2.029437e+002
7.664197e+002, 2.029110e+002
7.669019e+002, 2.042764e+002
7.673840e+002, 2.067171e+002
7.678661e+002, 2.088071e+002
7.683482e+002, 2.104836e+002
7.688303e+002, 2.119680e+002
7.693124e+002, 2.133052e+002
7.697946e+002, 2.145110e+002
7.702767e+002, 2.156307e+002
7.707588e+002, 2.166806e+002
7.712409e+002, 2.178159e+002
7.717230e+002, 2.191676e+002
7.722051e+002, 2.206255e+002
7.726873e+002, 2.220986e+002
7.731694e+002, 2.235896e+002
7.736515e+002, 2.250856e+002
7.741336e+002, 2.267152e+002
7.746157e+002, 2.282377e+002
7.750978e+002, 2.295732e+002
7.755800e+002, 2.307249e+002
7.760621e+002, 2.316219e+002
7.765442e+002, 2.321559e+002
7.770263e+002, 2.327511e+002
7.775084e+002, 2.337073e+002
7.779905e+002, 2.349212e+002
7.784727e+002, 2.358847e+002
7.789548e+002, 2.366051e+002
7.794369e+002, 2.372341e+002
7.799190e+002, 2.377436e+002
7.804011e+002, 2.382990e+002
7.808832e+002, 2.391444e+002
7.813654e+002, 2.402798e+002
7.818475e+002, 2.412939e+002
7.823296e+002, 2.422382e+002
7.828117e+002, 2.428415e+002
7.832938e+002, 2.428918e+002
7.837759e+002, 2.423123e+002
7.842581e+002, 2.420794e+002
7.847402e+002, 2.422406e+002
7.852223e+002, 2.426186e+002
7.857044e+002, 2.433422e+002
7.861865e+002, 2.442071e+002
7.866686e+002, 2.442887e+002
7.871508e+002, 2.435720e+002
7.876329e+002, 2.427772e+002
7.881150e+002, 2.425599e+002
7.885971e+002, 2.424400e+002
7.890792e+002, 2.419201e+002
7.895613e+002, 2.408907e+002
7.900435e+002, 2.399256e+002
7.905256e+002, 2.391044e+002
7.910077e+002, 2.384231e+002
7.914898e+002, 2.379068e+002
7.919719e+002, 2.375976e+002
7.924540e+002, 2.371163e+002
7.929362e+002, 2.364167e+002
7.934183e+002, 2.357526e+002
7.939004e+002, 2.354547e+002
7.943825e+002, 2.353546e+002
7.948646e+002, 2.350136e+002
7.953467e+002, 2.343978e+002
7.958289e+002, 2.335569e+002
7.963110e+002, 2.322455e+002
7.967931e+002, 2.309256e+002
7.972752e+002, 2.300955e+002
7.977573e+002, 2.299928e+002
7.982394e+002, 2.295416e+002
7.987216e+002, 2.283709e+002
7.992037e+002, 2.271096e+002
7.996858e+002, 2.262133e+002
8.001679e+002, 2.257712e+002
8.006500e+002, 2.249255e+002
8.011321e+002, 2.236032e+002
8.016143e+002, 2.222726e+002
8.020964e+002, 2.212523e+002
8.025785e+002, 2.205538e+002
8.030606e+002, 2.203442e+002
8.035427e+002, 2.206826e+002
8.040248e+002, 2.208017e+002
8.045070e+002, 2.201192e+002
8.049891e+002, 2.191204e+002
8.054712e+002, 2.181692e+002
8.059533e+002, 2.173352e+002
8.064354e+002, 2.163858e+002
8.069175e+002, 2.151496e+002
8.073997e+002, 2.140447e+002
8.078818e+002, 2.135147e+002
8.083639e+002, 2.135427e+002
8.088460e+002, 2.130316e+002
8.093281e+002, 2.118976e+002
8.098102e+002, 2.108111e+002
8.102924e+002, 2.105404e+002
8.107745e+002, 2.106149e+002
8.112566e+002, 2.103495e+002
8.117387e+002, 2.096169e+002
8.122208e+002, 2.089719e+002
8.127029e+002, 2.085377e+002
8.131851e+002, 2.083600e+002
8.136672e+002, 2.085449e+002
8.141493e+002, 2.092461e+002
8.146314e+002, 2.095751e+002
8.151135e+002, 2.094044e+002
8.155956e+002, 2.091731e+002
8.160778e+002, 2.092342e+002
8.165599e+002, 2.095363e+002
8.170420e+002, 2.098298e+002
8.175241e+002, 2.100986e+002
8.180062e+002, 2.104700e+002
8.184883e+002, 2.110361e+002
8.189705e+002, 2.117600e+002
8.194526e+002, 2.126088e+002
8.199347e+002, 2.135761e+002
8.204168e+002, 2.146369e+002
8.208989e+002, 2.159918e+002
8.213810e+002, 2.172441e+002
8.218632e+002, 2.181614e+002
8.223453e+002, 2.186982e+002
8.228274e+002, 2.192787e+002
8.233095e+002, 2.198380e+002
8.237916e+002, 2.207963e+002
8.242737e+002, 2.227826e+002
8.247559e+002, 2.253125e+002
8.252380e+002, 2.273155e+002
8.257201e+002, 2.287327e+002
8.262022e+002, 2.302854e+002
8.266843e+002, 2.324525e+002
8.271664e+002, 2.348518e+002
8.276486e+002, 2.372280e+002
8.281307e+002, 2.395661e+002
8.286128e+002, 2.419225e+002
8.290949e+002, 2.440266e+002
8.295770e+002, 2.466537e+002
8.300591e+002, 2.506163e+002
8.305413e+002, 2.556985e+002
8.310234e+002, 2.596293e+002
8.315055e+002, 2.624145e+002
8.319876e+002, 2.646383e+002
8.324697e+002, 2.662808e+002
8.329518e+002, 2.678820e+002
8.334340e+002, 2.701451e+002
8.339161e+002, 2.730589e+002
8.343982e+002, 2.759769e+002
8.348803e+002, 2.786346e+002
8.353624e+002, 2.812928e+002
8.358445e+002, 2.841360e+002
8.363267e+002, 2.871324e+002
8.368088e+002, 2.898522e+002
8.372909e+002, 2.923169e+002
8.377730e+002, 2.943345e+002
8.382551e+002, 2.954418e+002
8.387372e+002, 2.961358e+002
8.392194e+002, 2.979427e+002
8.397015e+002, 3.006374e+002
8.401836e+002, 3.029098e+002
8.406657e+002, 3.041802e+002
8.411478e+002, 3.046367e+002
8.416299e+002, 3.042538e+002
8.421121e+002, 3.030721e+002
8.425942e+002, 3.014483e+002
8.430763e+002, 2.990462e+002
8.435584e+002, 2.968796e+002
8.440405e+002, 2.954162e+002
8.445226e+002, 2.943796e+002
8.450048e+002, 2.928143e+002
8.454869e+002, 2.907087e+002
8.459690e+002, 2.878878e+002
8.464511e+002, 2.835905e+002
8.469332e+002, 2.791399e+002
8.474153e+002, 2.762706e+002
8.478975e+002, 2.744648e+002
8.483796e+002, 2.722540e+002
8.488617e+002, 2.688324e+002
8.493438e+002, 2.652582e+002
8.498259e+002, 2.617212e+002
8.503080e+002, 2.582961e+002
8.507902e+002, 2.552735e+002
8.512723e+002, 2.527681e+002
8.517544e+002, 2.500947e+002
8.522365e+002, 2.469273e+002
8.527186e+002, 2.437035e+002
8.532007e+002, 2.413631e+002
8.536829e+002, 2.396125e+002
8.541650e+002, 2.376199e+002
8.546471e+002, 2.346846e+002
8.551292e+002, 2.318848e+002
8.556113e+002, 2.297917e+002
8.560934e+002, 2.281739e+002
8.565756e+002, 2.265636e+002
8.570577e+002, 2.248777e+002
8.575398e+002, 2.232837e+002
8.580219e+002, 2.217600e+002
8.585040e+002, 2.203492e+002
8.589861e+002, 2.192058e+002
8.594683e+002, 2.182723e+002
8.599504e+002, 2.172198e+002
8.604325e+002, 2.159048e+002
8.609146e+002, 2.147040e+002
8.613967e+002, 2.140890e+002
8.618788e+002, 2.137528e+002
8.623610e+002, 2.133233e+002
8.628431e+002, 2.128237e+002
8.633252e+002, 2.120129e+002
8.638073e+002, 2.106577e+002
8.642894e+002, 2.092346e+002
8.647715e+002, 2.082788e+002
8.652537e+002, 2.078238e+002
8.657358e+002, 2.071683e+002
8.662179e+002, 2.062235e+002
8.667000e+002, 2.053151e+002
8.671821e+002, 2.047680e+002
8.676642e+002, 2.044693e+002
8.681464e+002, 2.043463e+002
8.686285e+002, 2.044420e+002
8.691106e+002, 2.043091e+002
8.695927e+002, 2.037232e+002
8.700748e+002, 2.028785e+002
8.705569e+002, 2.018443e+002
8.710391e+002, 2.005436e+002
8.715212e+002, 1.995909e+002
8.720033e+002, 1.990128e+002
8.724854e+002, 1.986723e+002
8.729675e+002, 1.986617e+002
8.734496e+002, 1.987624e+002
8.739318e+002, 1.983154e+002
8.744139e+002, 1.973588e+002
8.748960e+002, 1.966020e+002
8.753781e+002, 1.967690e+002
8.758602e+002, 1.970018e+002
8.763423e+002, 1.966753e+002
8.768245e+002, 1.957745e+002
8.773066e+002, 1.952775e+002
8.777887e+002, 1.953922e+002
8.782708e+002, 1.954632e+002
8.787529e+002, 1.952421e+002
8.792350e+002, 1.947858e+002
8.797172e+002, 1.940103e+002
8.801993e+002, 1.930510e+002
8.806814e+002, 1.926884e+002
8.811635e+002, 1.943055e+002
8.816456e+002, 1.958201e+002
8.821277e+002, 1.950178e+002
8.826099e+002, 1.928105e+002
8.830920e+002, 1.919634e+002
8.835741e+002, 1.945473e+002
8.840562e+002, 1.963131e+002
8.845383e+002, 1.963536e+002
8.850204e+002, 1.954023e+002
8.855026e+002, 1.949497e+002
8.859847e+002, 1.949800e+002
8.864668e+002, 1.953405e+002
8.869489e+002, 1.960776e+002
8.874310e+002, 1.969149e+002
8.879131e+002, 1.977637e+002
8.883953e+002, 1.984368e+002
8.888774e+002, 1.986474e+002
8.893595e+002, 1.979657e+002
8.898416e+002, 1.973347e+002
8.903237e+002, 1.966421e+002
8.908058e+002, 1.962629e+002
8.912880e+002, 1.967978e+002
8.917701e+002, 1.983664e+002
8.922522e+002, 1.992245e+002
8.927343e+002, 1.991600e+002
8.932164e+002, 1.988241e+002
8.936985e+002, 1.988425e+002
8.941807e+002, 1.990454e+002
8.946628e+002, 1.992367e+002
8.951449e+002, 1.994110e+002
8.956270e+002, 1.993652e+002
8.961091e+002, 1.984580e+002
8.965912e+002, 1.978208e+002
8.970734e+002, 1.982760e+002
8.975555e+002, 1.999676e+002
8.980376e+002, 2.008652e+002
8.985197e+002, 2.008601e+002
8.990018e+002, 2.006975e+002
8.994839e+002, 2.009702e+002
8.999661e+002, 2.014124e+002
9.004482e+002, 2.013840e+002
9.009303e+002, 2.009822e+002
9.014124e+002, 2.008831e+002
9.018945e+002, 2.017438e+002
9.023766e+002, 2.026616e+002
9.028588e+002, 2.031295e+002
9.033409e+002, 2.032641e+002
9.038230e+002, 2.037316e+002
9.043051e+002, 2.046901e+002
9.047872e+002, 2.053217e+002
9.052693e+002, 2.052045e+002
9.057515e+002, 2.047909e+002
9.062336e+002, 2.050766e+002
9.067157e+002, 2.058462e+002
9.071978e+002, 2.064728e+002
9.076799e+002, 2.064554e+002
9.081620e+002, 2.065428e+002
9.086442e+002, 2.072756e+002
9.091263e+002, 2.082661e+002
9.096084e+002, 2.088746e+002
9.100905e+002, 2.089959e+002
9.105726e+002, 2.089595e+002
9.110547e+002, 2.087202e+002
9.115369e+002, 2.085200e+002
9.120190e+002, 2.087265e+002
9.125011e+002, 2.092296e+002
9.129832e+002, 2.097226e+002
9.134653e+002, 2.101524e+002
9.139474e+002, 2.105760e+002
9.144296e+002, 2.109907e+002
9.149117e+002, 2.114395e+002
9.153938e+002, 2.119820e+002
9.158759e+002, 2.126654e+002
9.163580e+002, 2.132136e+002
9.168401e+002, 2.135732e+002
9.173223e+002, 2.139199e+002
9.178044e+002, 2.144090e+002
9.182865e+002, 2.149822e+002
9.187686e+002, 2.153134e+002
9.192507e+002, 2.154583e+002
9.197328e+002, 2.159269e+002
9.202150e+002, 2.175651e+002
9.206971e+002, 2.191559e+002
9.211792e+002, 2.198714e+002
9.216613e+002, 2.197874e+002
9.221434e+002, 2.197627e+002
9.226255e+002, 2.197627e+002
9.231077e+002, 2.199807e+002
9.235898e+002, 2.205350e+002
9.240719e+002, 2.212745e+002
9.245540e+002, 2.218723e+002
9.250361e+002, 2.223536e+002
9.255182e+002, 2.228149e+002
9.260004e+002, 2.233033e+002
9.264825e+002, 2.237617e+002
9.269646e+002, 2.241095e+002
9.274467e+002, 2.244203e+002
9.279288e+002, 2.248208e+002
9.284109e+002, 2.255306e+002
9.288931e+002, 2.258389e+002
9.293752e+002, 2.255423e+002
9.298573e+002, 2.251838e+002
9.303394e+002, 2.255835e+002
9.308215e+002, 2.264532e+002
9.313036e+002, 2.266557e+002
9.317858e+002, 2.260194e+002
9.322679e+002, 2.253861e+002
9.327500e+002, 2.256642e+002
9.332321e+002, 2.259447e+002
9.337142e+002, 2.254475e+002
9.341964e+002, 2.239936e+002
9.346785e+002, 2.227104e+002
9.351606e+002, 2.215933e+002
9.356427e+002, 2.206976e+002
9.361248e+002, 2.201519e+002
9.366069e+002, 2.198270e+002
9.370891e+002, 2.194571e+002
9.375712e+002, 2.189768e+002
9.380533e+002, 2.180761e+002
9.385354e+002, 2.161504e+002
9.390175e+002, 2.141852e+002
9.394996e+002, 2.126311e+002
9.399818e+002, 2.114883e+002
9.404639e+002, 2.108119e+002
9.409460e+002, 2.109895e+002
9.414281e+002, 2.105423e+002
9.419102e+002, 2.090425e+002
9.423923e+002, 2.071336e+002
9.428745e+002, 2.058160e+002
9.433566e+002, 2.049468e+002
9.438387e+002, 2.042014e+002
9.443208e+002, 2.035918e+002
9.448029e+002, 2.027941e+002
9.452850e+002, 2.013372e+002
9.457672e+002, 1.997842e+002
9.462493e+002, 1.987312e+002
9.467314e+002, 1.984162e+002
9.472135e+002, 1.975960e+002
9.476956e+002, 1.960999e+002
9.481777e+002, 1.946933e+002
9.486599e+002, 1.941466e+002
9.491420e+002, 1.941101e+002
9.496241e+002, 1.937508e+002
9.501062e+002, 1.930786e+002
9.505883e+002, 1.923795e+002
9.510704e+002, 1.916957e+002
9.515526e+002, 1.911267e+002
9.520347e+002, 1.909173e+002
9.525168e+002, 1.908849e+002
9.529989e+002, 1.902588e+002
9.534810e+002, 1.888638e+002
9.539631e+002, 1.877025e+002
9.544453e+002, 1.870824e+002
9.549274e+002, 1.868031e+002
9.554095e+002, 1.865831e+002
9.558916e+002, 1.864448e+002
9.563737e+002, 1.864577e+002
9.568558e+002, 1.868355e+002
9.573380e+002, 1.870070e+002
9.578201e+002, 1.867118e+002
9.583022e+002, 1.861623e+002
9.587843e+002, 1.854428e+002
9.592664e+002, 1.844020e+002
9.597485e+002, 1.842300e+002
9.602307e+002, 1.850855e+002
9.607128e+002, 1.858870e+002
9.611949e+002, 1.854791e+002
9.616770e+002, 1.845172e+002
9.621591e+002, 1.838456e+002
9.626412e+002, 1.835230e+002
9.631234e+002, 1.834886e+002
9.636055e+002, 1.840166e+002
9.640876e+002, 1.844991e+002
9.645697e+002, 1.847151e+002
9.650518e+002, 1.847127e+002
9.655339e+002, 1.847445e+002
9.660161e+002, 1.848079e+002
9.664982e+002, 1.846882e+002
9.669803e+002, 1.841565e+002
9.674624e+002, 1.836431e+002
9.679445e+002, 1.838121e+002
9.684266e+002, 1.842921e+002
9.689088e+002, 1.844666e+002
9.693909e+002, 1.838054e+002
9.698730e+002, 1.833497e+002
9.703551e+002, 1.831936e+002
9.708372e+002, 1.832242e+002
9.713193e+002, 1.834258e+002
9.718015e+002, 1.837558e+002
9.722836e+002, 1.837345e+002
9.727657e+002, 1.833170e+002
9.732478e+002, 1.829079e+002
9.737299e+002, 1.827911e+002
9.742120e+002, 1.828406e+002
9.746942e+002, 1.831164e+002
9.751763e+002, 1.836070e+002
9.756584e+002, 1.834035e+002
9.761405e+002, 1.819234e+002
9.766226e+002, 1.809622e+002
9.771047e+002, 1.813478e+002
9.775869e+002, 1.825509e+002
9.780690e+002, 1.831189e+002
9.785511e+002, 1.832067e+002
9.790332e+002, 1.834400e+002
9.795153e+002, 1.843807e+002
9.799974e+002, 1.850748e+002
9.804796e+002, 1.846810e+002
9.809617e+002, 1.838773e+002
9.814438e+002, 1.836490e+002
9.819259e+002, 1.842624e+002
9.824080e+002, 1.846575e+002
9.828901e+002, 1.847328e+002
9.833723e+002, 1.847974e+002
9.838544e+002, 1.853811e+002
9.843365e+002, 1.860995e+002
9.848186e+002, 1.859929e+002
9.853007e+002, 1.850219e+002
9.857828e+002, 1.845378e+002
9.862650e+002, 1.856415e+002
9.867471e+002, 1.868328e+002
9.872292e+002, 1.874009e+002
9.877113e+002, 1.874866e+002
9.881934e+002, 1.878567e+002
9.886755e+002, 1.885220e+002
9.891577e+002, 1.891795e+002
9.896398e+002, 1.897010e+002
9.901219e+002, 1.901641e+002
9.906040e+002, 1.906672e+002
9.910861e+002, 1.911711e+002
9.915682e+002, 1.916069e+002
9.920504e+002, 1.917063e+002
9.925325e+002, 1.921292e+002
9.930146e+002, 1.929716e+002
9.934967e+002, 1.940672e+002
9.939788e+002, 1.954333e+002
9.944609e+002, 1.969982e+002
9.949431e+002, 1.981634e+002
9.954252e+002, 1.989005e+002
9.959073e+002, 1.991912e+002
9.963894e+002, 1.985291e+002
9.968715e+002, 1.978412e+002
9.973536e+002, 1.978265e+002
9.978358e+002, 1.985003e+002
9.983179e+002, 1.993090e+002
9.988000e+002, 2.003074e+002
9.992821e+002, 2.012851e+002
9.997642e+002, 2.022572e+002
1.000246e+003, 2.030829e+002
1.000728e+003, 2.032607e+002
1.001211e+003, 2.030583e+002
1.001693e+003, 2.031888e+002
1.002175e+003, 2.040815e+002
1.002657e+003, 2.048775e+002
1.003139e+003, 2.051956e+002
1.003621e+003, 2.052438e+002
1.004103e+003, 2.051622e+002
1.004585e+003, 2.048786e+002
1.005068e+003, 2.049711e+002
1.005550e+003, 2.054887e+002
1.006032e+003, 2.058931e+002
1.006514e+003, 2.057732e+002
1.006996e+003, 2.053055e+002
1.007478e+003, 2.044605e+002
1.007960e+003, 2.033801e+002
1.008442e+003, 2.027983e+002
1.008924e+003, 2.032894e+002
1.009407e+003, 2.038710e+002
1.009889e+003, 2.045990e+002
1.010371e+003, 2.050786e+002
1.010853e+003, 2.041507e+002
1.011335e+003, 2.020759e+002
1.011817e+003, 2.007211e+002
1.012299e+003, 2.006506e+002
1.012781e+003, 2.007573e+002
1.013263e+003, 2.003072e+002
1.013746e+003, 1.995716e+002
1.014228e+003, 1.987750e+002
1.014710e+003, 1.979206e+002
1.015192e+003, 1.971493e+002
1.015674e+003, 1.964601e+002
1.016156e+003, 1.958771e+002
1.016638e+003, 1.954802e+002
1.017120e+003, 1.951594e+002
1.017603e+003, 1.945874e+002
1.018085e+003, 1.938593e+002
1.018567e+003, 1.933356e+002
1.019049e+003, 1.933803e+002
1.019531e+003, 1.933934e+002
1.020013e+003, 1.931409e+002
1.020495e+003, 1.927808e+002
1.020977e+003, 1.926038e+002
1.021459e+003, 1.926176e+002
1.021942e+003, 1.922678e+002
1.022424e+003, 1.914395e+002
1.022906e+003, 1.905790e+002
1.023388e+003, 1.900684e+002
1.023870e+003, 1.897500e+002
1.024352e+003, 1.894619e+002
1.024834e+003, 1.891850e+002
1.025316e+003, 1.890813e+002
1.025799e+003, 1.892603e+002
1.026281e+003, 1.894115e+002
1.026763e+003, 1.894292e+002
1.027245e+003, 1.893284e+002
1.027727e+003, 1.891352e+002
1.028209e+003, 1.888543e+002
1.028691e+003, 1.884836e+002
1.029173e+003, 1.878774e+002
1.029656e+003, 1.874111e+002
1.030138e+003, 1.873434e+002
1.030620e+003, 1.874564e+002
1.031102e+003, 1.874967e+002
1.031584e+003, 1.874179e+002
1.032066e+003, 1.875740e+002
1.032548e+003, 1.880031e+002
1.033030e+003, 1.883505e+002
1.033512e+003, 1.881767e+002
1.033995e+003, 1.878479e+002
1.034477e+003, 1.878369e+002
1.034959e+003, 1.881047e+002
1.035441e+003, 1.882739e+002
1.035923e+003, 1.882116e+002
1.036405e+003, 1.881129e+002
1.036887e+003, 1.880113e+002
1.037369e+003, 1.878994e+002
1.037851e+003, 1.877615e+002
1.038334e+003, 1.876011e+002
1.038816e+003, 1.873880e+002
1.039298e+003, 1.870780e+002
1.039780e+003, 1.868990e+002
1.040262e+003, 1.873438e+002
1.040744e+003, 1.876980e+002
1.041226e+003, 1.872114e+002
1.041708e+003, 1.857892e+002
1.042191e+003, 1.853845e+002
1.042673e+003, 1.861129e+002
1.043155e+003, 1.868093e+002
1.043637e+003, 1.866579e+002
1.044119e+003, 1.862805e+002
1.044601e+003, 1.867367e+002
1.045083e+003, 1.876290e+002
1.045565e+003, 1.880309e+002
1.046047e+003, 1.870721e+002
1.046530e+003, 1.864840e+002
1.047012e+003, 1.865379e+002
1.047494e+003, 1.868182e+002
1.047976e+003, 1.868405e+002
1.048458e+003, 1.866770e+002
1.048940e+003, 1.867197e+002
1.049422e+003, 1.869902e+002
1.049904e+003, 1.871907e+002
1.050386e+003, 1.873499e+002
1.050869e+003, 1.871797e+002
1.051351e+003, 1.860953e+002
1.051833e+003, 1.844851e+002
1.052315e+003, 1.841084e+002
1.052797e+003, 1.851882e+002
1.053279e+003, 1.856554e+002
1.053761e+003, 1.846394e+002
1.054243e+003, 1.836479e+002
1.054726e+003, 1.852919e+002
1.055208e+003, 1.878744e+002
1.055690e+003, 1.889173e+002
1.056172e+003, 1.873728e+002
1.056654e+003, 1.859878e+002
1.057136e+003, 1.850057e+002
1.057618e+003, 1.842228e+002
1.058100e+003, 1.835204e+002
1.058583e+003, 1.829196e+002
1.059065e+003, 1.825283e+002
1.059547e+003, 1.823229e+002
1.060029e+003, 1.821912e+002
1.060511e+003, 1.821802e+002
1.060993e+003, 1.821169e+002
1.061475e+003, 1.818398e+002
1.061957e+003, 1.815150e+002
1.062439e+003, 1.814905e+002
1.062922e+003, 1.818792e+002
1.063404e+003, 1.813920e+002
1.063886e+003, 1.798404e+002
1.064368e+003, 1.782985e+002
1.064850e+003, 1.776277e+002
1.065332e+003, 1.774995e+002
1.065814e+003, 1.777218e+002
1.066296e+003, 1.782403e+002
1.066778e+003, 1.786654e+002
1.067261e+003, 1.790412e+002
1.067743e+003, 1.791275e+002
1.068225e+003, 1.787630e+002
1.068707e+003, 1.782440e+002
1.069189e+003, 1.782229e+002
1.069671e+003, 1.784689e+002
1.070153e+003, 1.783943e+002
1.070635e+003, 1.777415e+002
1.071118e+003, 1.772000e+002
1.071600e+003, 1.770735e+002
1.072082e+003, 1.771434e+002
1.072564e+003, 1.773697e+002
1.073046e+003, 1.777198e+002
1.073528e+003, 1.778375e+002
1.074010e+003, 1.777159e+002
1.074492e+003, 1.772133e+002
1.074974e+003, 1.758289e+002
1.075457e+003, 1.745268e+002
1.075939e+003, 1.740806e+002
1.076421e+003, 1.741855e+002
1.076903e+003, 1.743490e+002
1.077385e+003, 1.746389e+002
1.077867e+003, 1.745793e+002
1.078349e+003, 1.740307e+002
1.078831e+003, 1.736360e+002
1.079313e+003, 1.744754e+002
1.079796e+003, 1.755816e+002
1.080278e+003, 1.751479e+002
1.080760e+003, 1.733772e+002
1.081242e+003, 1.722688e+002
1.081724e+003, 1.730616e+002
1.082206e+003, 1.738075e+002
1.082688e+003, 1.741896e+002
1.083170e+003, 1.742467e+002
1.083652e+003, 1.737940e+002
1.084135e+003, 1.730500e+002
1.084617e+003, 1.729742e+002
1.085099e+003, 1.738478e+002
1.085581e+003, 1.746136e+002
1.086063e+003, 1.747585e+002
1.086545e+003, 1.744755e+002
1.087027e+003, 1.737168e+002
1.087509e+003, 1.725916e+002
1.087992e+003, 1.722504e+002
1.088474e+003, 1.727032e+002
1.088956e+003, 1.731079e+002
1.089438e+003, 1.731218e+002
1.089920e+003, 1.729488e+002
1.090402e+003, 1.727495e+002
1.090884e+003, 1.725067e+002
1.091366e+003, 1.721989e+002
1.091849e+003, 1.718468e+002
1.092331e+003, 1.713071e+002
1.092813e+003, 1.704656e+002
1.093295e+003, 1.698233e+002
1.093777e+003, 1.698960e+002
1.094259e+003, 1.703450e+002
1.094741e+003, 1.706463e+002
1.095223e+003, 1.707719e+002
1.095705e+003, 1.706589e+002
1.096188e+003, 1.699803e+002
1.096670e+003, 1.694769e+002
1.097152e+003, 1.693235e+002
1.097634e+003, 1.693081e+002
1.098116e+003, 1.691275e+002
1.098598e+003, 1.688350e+002
1.099080e+003, 1.687514e+002
1.099562e+003, 1.688999e+002
1.100044e+003, 1.689187e+002
1.100527e+003, 1.684143e+002
1.101009e+003, 1.678936e+002
1.101491e+003, 1.676369e+002
1.101973e+003, 1.675835e+002
1.102455e+003, 1.675981e+002
1.102937e+003, 1.676855e+002
1.103419e+003, 1.676000e+002
1.103901e+003, 1.672292e+002
1.104384e+003, 1.668909e+002
1.104866e+003, 1.669858e+002
1.105348e+003, 1.672124e+002
1.105830e+003, 1.672652e+002
1.106312e+003, 1.670917e+002
1.106794e+003, 1.668893e+002
1.107276e+003, 1.666142e+002
1.107758e+003, 1.664928e+002
1.108240e+003, 1.667200e+002
1.108723e+003, 1.670415e+002
1.109205e+003, 1.671400e+002
1.109687e+003, 1.670113e+002
1.110169e+003, 1.666233e+002
1.110651e+003, 1.654920e+002
1.111133e+003, 1.650430e+002
1.111615e+003, 1.656719e+002
1.112097e+003, 1.664131e+002
1.112579e+003, 1.664470e+002
1.113062e+003, 1.659940e+002
1.113544e+003, 1.658029e+002
1.114026e+003, 1.658462e+002
1.114508e+003, 1.659657e+002
1.114990e+003, 1.662869e+002
1.115472e+003, 1.664116e+002
1.115954e+003, 1.660885e+002
1.116436e+003, 1.656183e+002
1.116919e+003, 1.654012e+002
1.117401e+003, 1.654157e+002
1.117883e+003, 1.653203e+002
1.118365e+003, 1.650864e+002
1.118847e+003, 1.649824e+002
1.119329e+003, 1.655414e+002
1.119811e+003, 1.659780e+002
1.120293e+003, 1.655163e+002
1.120776e+003, 1.644991e+002
1.121258e+003, 1.641407e+002
1.121740e+003, 1.645008e+002
1.122222e+003, 1.650090e+002
1.122704e+003, 1.656473e+002
1.123186e+003, 1.659465e+002
1.123668e+003, 1.649315e+002
1.124150e+003, 1.636432e+002
1.124632e+003, 1.632776e+002
1.125115e+003, 1.640820e+002
1.125597e+003, 1.645500e+002
1.126079e+003, 1.645505e+002
1.126561e+003, 1.646103e+002
1.127043e+003, 1.650160e+002
1.127525e+003, 1.654514e+002
1.128007e+003, 1.652798e+002
1.128489e+003, 1.648076e+002
1.128971e+003, 1.645878e+002
1.129454e+003, 1.649350e+002
1.129936e+003, 1.650296e+002
1.130418e+003, 1.646413e+002
1.130900e+003, 1.643048e+002
1.131382e+003, 1.644206e+002
1.131864e+003, 1.648034e+002
1.132346e+003, 1.649120e+002
1.132828e+003, 1.647916e+002
1.133311e+003, 1.645922e+002
1.133793e+003, 1.641549e+002
1.134275e+003, 1.639492e+002
1.134757e+003, 1.641869e+002
1.135239e+003, 1.645549e+002
1.135721e+003, 1.648082e+002
1.136203e+003, 1.649377e+002
1.136685e+003, 1.648194e+002
1.137167e+003, 1.644817e+002
1.137650e+003, 1.642820e+002
1.138132e+003, 1.645898e+002
1.138614e+003, 1.649171e+002
1.139096e+003, 1.650311e+002
1.139578e+003, 1.650109e+002
1.140060e+003, 1.649539e+002
1.140542e+003, 1.648599e+002
1.141024e+003, 1.648405e+002
1.141506e+003, 1.649142e+002
1.141989e+003, 1.649818e+002
1.142471e+003, 1.649274e+002
1.142953e+003, 1.648733e+002
1.143435e+003, 1.650341e+002
1.143917e+003, 1.652968e+002
1.144399e+003, 1.650386e+002
1.144881e+003, 1.641338e+002
1.145363e+003, 1.635988e+002
1.145846e+003, 1.637059e+002
1.146328e+003, 1.640502e+002
1.146810e+003, 1.642838e+002
1.147292e+003, 1.644550e+002
1.147774e+003, 1.646780e+002
1.148256e+003, 1.649721e+002
1.148738e+003, 1.648188e+002
1.149220e+003, 1.640094e+002
1.149703e+003, 1.635282e+002
1.150185e+003, 1.638877e+002
1.150667e+003, 1.644062e+002
1.151149e+003, 1.637753e+002
1.151631e+003, 1.627240e+002
1.152113e+003, 1.625104e+002
1.152595e+003, 1.637847e+002
1.153077e+003, 1.644748e+002
1.153559e+003, 1.642364e+002
1.154042e+003, 1.639239e+002
1.154524e+003, 1.639948e+002
1.155006e+003, 1.642857e+002
1.155488e+003, 1.644663e+002
1.155970e+003, 1.645672e+002
1.156452e+003, 1.646552e+002
1.156934e+003, 1.647671e+002
1.157416e+003, 1.648550e+002
1.157898e+003, 1.650023e+002
1.158381e+003, 1.649951e+002
1.158863e+003, 1.645163e+002
1.159345e+003, 1.637548e+002
1.159827e+003, 1.635155e+002
1.160309e+003, 1.637018e+002
1.160791e+003, 1.639311e+002
1.161273e+003, 1.640700e+002
1.161755e+003, 1.641637e+002
1.162238e+003, 1.641438e+002
1.162720e+003, 1.641681e+002
1.163202e+003, 1.645048e+002
1.163684e+003, 1.650657e+002
1.164166e+003, 1.652407e+002
1.164648e+003, 1.650394e+002
1.165130e+003, 1.648181e+002
1.165612e+003, 1.648276e+002
1.166094e+003, 1.648015e+002
1.166577e+003, 1.645685e+002
1.167059e+003, 1.642758e+002
1.167541e+003, 1.642444e+002
1.168023e+003, 1.644307e+002
1.168505e+003, 1.641024e+002
1.168987e+003, 1.631797e+002
1.169469e+003, 1.625699e+002
1.169951e+003, 1.634809e+002
1.170433e+003, 1.643279e+002
1.170916e+003, 1.637978e+002
1.171398e+003, 1.625684e+002
1.171880e+003, 1.624261e+002
1.172362e+003, 1.633518e+002
1.172844e+003, 1.640394e+002
1.173326e+003, 1.642108e+002
1.173808e+003, 1.643507e+002
1.174290e+003, 1.647831e+002
1.174773e+003, 1.654021e+002
1.175255e+003, 1.664179e+002
1.175737e+003, 1.676109e+002
1.176219e+003, 1.676247e+002
1.176701e+003, 1.663984e+002
1.177183e+003, 1.652243e+002
1.177665e+003, 1.643822e+002
1.178147e+003, 1.639242e+002
1.178630e+003, 1.643047e+002
1.179112e+003, 1.648068e+002
1.179594e+003, 1.645973e+002
1.180076e+003, 1.636486e+002
1.180558e+003, 1.631825e+002
1.181040e+003, 1.632350e+002
1.181522e+003, 1.633638e+002
1.182004e+003, 1.632777e+002
1.182486e+003, 1.634629e+002
1.182969e+003, 1.649928e+002
1.183451e+003, 1.667906e+002
1.183933e+003, 1.674497e+002
1.184415e+003, 1.666441e+002
1.184897e+003, 1.659767e+002
1.185379e+003, 1.654491e+002
1.185861e+003, 1.650000e+002
1.186343e+003, 1.645847e+002
1.186825e+003, 1.642539e+002
1.187308e+003, 1.639922e+002
1.187790e+003, 1.638855e+002
1.188272e+003, 1.641493e+002
1.188754e+003, 1.651445e+002
1.189236e+003, 1.653659e+002
1.189718e+003, 1.646520e+002
1.190200e+003, 1.639976e+002
1.190682e+003, 1.641788e+002
1.191165e+003, 1.646740e+002
1.191647e+003, 1.648819e+002
1.192129e+003, 1.648767e+002
1.192611e+003, 1.647964e+002
1.193093e+003, 1.645933e+002
1.193575e+003, 1.644971e+002
1.194057e+003, 1.645311e+002
1.194539e+003, 1.645925e+002
1.195021e+003, 1.645184e+002
1.195504e+003, 1.644787e+002
1.195986e+003, 1.649051e+002
1.196468e+003, 1.655575e+002
1.196950e+003, 1.656841e+002
1.197432e+003, 1.646882e+002
1.197914e+003, 1.643006e+002
1.198396e+003, 1.647730e+002
1.198878e+003, 1.653171e+002
1.199360e+003, 1.651008e+002
1.199843e+003, 1.645411e+002
1.200325e+003, 1.641853e+002
1.200807e+003, 1.640280e+002
1.201289e+003, 1.639626e+002
1.201771e+003, 1.640757e+002
1.202253e+003, 1.639940e+002
1.202735e+003, 1.635799e+002
1.203217e+003, 1.632912e+002
1.203700e+003, 1.638260e+002
1.204182e+003, 1.646942e+002
1.204664e+003, 1.652854e+002
1.205146e+003, 1.655464e+002
1.205628e+003, 1.654347e+002
1.206110e+003, 1.646320e+002
1.206592e+003, 1.641902e+002
1.207074e+003, 1.643105e+002
1.207557e+003, 1.647119e+002
1.208039e+003, 1.651716e+002
1.208521e+003, 1.656086e+002
1.209003e+003, 1.659485e+002
1.209485e+003, 1.661731e+002
1.209967e+003, 1.661267e+002
1.210449e+003, 1.656455e+002
1.210931e+003, 1.652642e+002
1.211413e+003, 1.650689e+002
1.211896e+003, 1.650793e+002
1.212378e+003, 1.654326e+002
1.212860e+003, 1.659468e+002
1.213342e+003, 1.663924e+002
1.213824e+003, 1.667460e+002
1.214306e+003, 1.669392e+002
1.214788e+003, 1.670999e+002
1.215270e+003, 1.667331e+002
1.215752e+003, 1.655145e+002
1.216235e+003, 1.642168e+002
1.216717e+003, 1.639702e+002
1.217199e+003, 1.643438e+002
1.217681e+003, 1.647771e+002
1.218163e+003, 1.652054e+002
1.218645e+003, 1.655412e+002
1.219127e+003, 1.658833e+002
1.219609e+003, 1.658103e+002
1.220092e+003, 1.650427e+002
1.220574e+003, 1.641267e+002
1.221056e+003, 1.638937e+002
1.221538e+003, 1.640266e+002
1.222020e+003, 1.640271e+002
1.222502e+003, 1.637638e+002
1.222984e+003, 1.639508e+002
1.223466e+003, 1.648092e+002
1.223948e+003, 1.654179e+002
1.224431e+003, 1.653649e+002
1.224913e+003, 1.650507e+002
1.225395e+003, 1.648568e+002
1.225877e+003, 1.648749e+002
1.226359e+003, 1.653859e+002
1.226841e+003, 1.666740e+002
1.227323e+003, 1.669171e+002
1.227805e+003, 1.657949e+002
1.228287e+003, 1.649122e+002
1.228770e+003, 1.650114e+002
1.229252e+003, 1.655447e+002
1.229734e+003, 1.660270e+002
1.230216e+003, 1.663379e+002
1.230698e+003, 1.662263e+002
1.231180e+003, 1.655132e+002
1.231662e+003, 1.651605e+002
1.232144e+003, 1.651883e+002
1.232627e+003, 1.654694e+002
1.233109e+003, 1.660554e+002
1.233591e+003, 1.666862e+002
1.234073e+003, 1.672900e+002
1.234555e+003, 1.676355e+002
1.235037e+003, 1.672388e+002
1.235519e+003, 1.658342e+002
1.236001e+003, 1.653160e+002
1.236484e+003, 1.657727e+002
1.236966e+003, 1.664082e+002
1.237448e+003, 1.670170e+002
1.237930e+003, 1.673303e+002
1.238412e+003, 1.667489e+002
1.238894e+003, 1.658720e+002
1.239376e+003, 1.656002e+002
1.239858e+003, 1.660892e+002
1.240340e+003, 1.660682e+002
1.240823e+003, 1.655028e+002
1.241305e+003, 1.651360e+002
1.241787e+003, 1.654666e+002
1.242269e+003, 1.660004e+002
1.242751e+003, 1.665344e+002
1.243233e+003, 1.668855e+002
1.243715e+003, 1.667446e+002
1.244197e+003, 1.660251e+002
1.244679e+003, 1.658416e+002
1.245162e+003, 1.661825e+002
1.245644e+003, 1.665246e+002
1.246126e+003, 1.665954e+002
1.246608e+003, 1.665708e+002
1.247090e+003, 1.665059e+002
1.247572e+003, 1.664612e+002
1.248054e+003, 1.665100e+002
1.248536e+003, 1.666607e+002
1.249019e+003, 1.667966e+002
1.249501e+003, 1.669171e+002
1.249983e+003, 1.669894e+002
1.250465e+003, 1.668988e+002
1.250947e+003, 1.668771e+002
1.251429e+003, 1.672166e+002
1.251911e+003, 1.675379e+002
1.252393e+003, 1.673935e+002
1.252875e+003, 1.668242e+002
1.253358e+003, 1.667193e+002
1.253840e+003, 1.670220e+002
1.254322e+003, 1.673627e+002
1.254804e+003, 1.675690e+002
1.255286e+003, 1.677482e+002
1.255768e+003, 1.679677e+002
1.256250e+003, 1.681421e+002
1.256732e+003, 1.682377e+002
1.257214e+003, 1.682305e+002
1.257697e+003, 1.678801e+002
1.258179e+003, 1.672627e+002
1.258661e+003, 1.667290e+002
1.259143e+003, 1.662761e+002
1.259625e+003, 1.661885e+002
1.260107e+003, 1.666199e+002
1.260589e+003, 1.672195e+002
1.261071e+003, 1.676746e+002
1.261554e+003, 1.680654e+002
1.262036e+003, 1.685879e+002
1.262518e+003, 1.692658e+002
1.263000e+003, 1.701858e+002
1.263482e+003, 1.724020e+002
1.263964e+003, 1.730567e+002
1.264446e+003, 1.713133e+002
1.264928e+003, 1.694482e+002
1.265411e+003, 1.699178e+002
1.265893e+003, 1.712875e+002
1.266375e+003, 1.703018e+002
1.266857e+003, 1.679054e+002
1.267339e+003, 1.667372e+002
1.267821e+003, 1.686643e+002
1.268303e+003, 1.696408e+002
1.268785e+003, 1.693898e+002
1.269267e+003, 1.689287e+002
1.269750e+003, 1.691332e+002
1.270232e+003, 1.695420e+002
1.270714e+003, 1.695508e+002
1.271196e+003, 1.692926e+002
1.271678e+003, 1.690856e+002
1.272160e+003, 1.689854e+002
1.272642e+003, 1.688208e+002
1.273124e+003, 1.685629e+002
1.273606e+003, 1.684427e+002
1.274089e+003, 1.687935e+002
1.274571e+003, 1.691908e+002
1.275053e+003, 1.691939e+002
1.275535e+003, 1.689971e+002
1.276017e+003, 1.689733e+002
1.276499e+003, 1.691761e+002
1.276981e+003, 1.691951e+002
1.277463e+003, 1.690270e+002
1.277946e+003, 1.689612e+002
1.278428e+003, 1.693610e+002
1.278910e+003, 1.697338e+002
1.279392e+003, 1.698237e+002
1.279874e+003, 1.696764e+002
1.280356e+003, 1.692183e+002
1.280838e+003, 1.684761e+002
1.281320e+003, 1.684515e+002
1.281802e+003, 1.690730e+002
1.282285e+003, 1.695934e+002
1.282767e+003, 1.694108e+002
1.283249e+003, 1.693181e+002
1.283731e+003, 1.698152e+002
1.284213e+003, 1.702798e+002
1.284695e+003, 1.699487e+002
1.285177e+003, 1.690974e+002
1.285659e+003, 1.691791e+002
1.286141e+003, 1.699966e+002
1.286624e+003, 1.706992e+002
1.287106e+003, 1.708796e+002
1.287588e+003, 1.709497e+002
1.288070e+003, 1.709054e+002
1.288552e+003, 1.709084e+002
1.289034e+003, 1.711941e+002
1.289516e+003, 1.715777e+002
1.289998e+003, 1.715600e+002
1.290481e+003, 1.712971e+002
1.290963e+003, 1.711964e+002
1.291445e+003, 1.716732e+002
1.291927e+003, 1.717194e+002
1.292409e+003, 1.712158e+002
1.292891e+003, 1.707381e+002
1.293373e+003, 1.708518e+002
1.293855e+003, 1.711029e+002
1.294338e+003, 1.707137e+002
1.294820e+003, 1.700979e+002
1.295302e+003, 1.701497e+002
1.295784e+003, 1.712469e+002
1.296266e+003, 1.715005e+002
1.296748e+003, 1.708575e+002
1.297230e+003, 1.703128e+002
1.297712e+003, 1.704889e+002
1.298194e+003, 1.709789e+002
1.298677e+003, 1.717213e+002
1.299159e+003, 1.724152e+002
1.299641e+003, 1.726979e+002
1.300123e+003, 1.725615e+002
1.300605e+003, 1.722063e+002
1.301087e+003, 1.716738e+002
1.301569e+003, 1.713516e+002
1.302051e+003, 1.715136e+002
1.302533e+003, 1.717626e+002
1.303016e+003, 1.719778e+002
##END=



