##NAMES=Lavinskyite
##RRUFFID=R141115
##IDEAL CHEMISTRY=K(LiCu^2+^)Cu^2+^_6_(Si_4_O_11_)_2_(OH)_4_
##LOCALITY=Wessels mine, South Africa
##OWNER=RRUFF
##SOURCE=Jaco and Tania Janse van Nieuwenhuizen
##DESCRIPTION=Greenish blue or light blue platy crystals, associated with dark blue scottyite (R141116) and blue wesselsite (with cleavage)
##STATUS=The identification of this mineral is confirmed by single-crystal X-ray diffraction and chemical analysis.
##URL=rruff.info/R141115
##MEASURED CHEMISTRY=(K_0.98_Sr_0.01_)_Σ=0.99_(Li_1.25_Cu_0.71_Na_0.08_)_Σ=2.04_Cu_6_(Si_4.03_O_11_)_2_(OH)_4_; (Lavinskyite is the dark grey material in the image, associated with light grey R141116 scottyite)
9.059570e+001, 1.003254e+003
9.107782e+001, 1.011346e+003
9.155994e+001, 1.014273e+003
9.204205e+001, 1.005583e+003
9.252417e+001, 9.962394e+002
9.300629e+001, 9.922087e+002
9.348840e+001, 9.890508e+002
9.397052e+001, 9.768150e+002
9.445264e+001, 9.474123e+002
9.493475e+001, 9.095142e+002
9.541687e+001, 8.763209e+002
9.589898e+001, 8.500970e+002
9.638110e+001, 8.274781e+002
9.686321e+001, 8.058113e+002
9.734533e+001, 7.834327e+002
9.782745e+001, 7.589396e+002
9.830956e+001, 7.345695e+002
9.879168e+001, 7.083277e+002
9.927380e+001, 6.843631e+002
9.975591e+001, 6.636341e+002
1.002380e+002, 6.455924e+002
1.007201e+002, 6.294641e+002
1.012023e+002, 6.151188e+002
1.016844e+002, 6.022319e+002
1.021665e+002, 5.892094e+002
1.026486e+002, 5.750085e+002
1.031307e+002, 5.611519e+002
1.036128e+002, 5.491472e+002
1.040950e+002, 5.390192e+002
1.045771e+002, 5.299594e+002
1.050592e+002, 5.215001e+002
1.055413e+002, 5.135231e+002
1.060234e+002, 5.060513e+002
1.065055e+002, 4.990352e+002
1.069877e+002, 4.924664e+002
1.074698e+002, 4.865324e+002
1.079519e+002, 4.827811e+002
1.084340e+002, 4.775517e+002
1.089161e+002, 4.692033e+002
1.093982e+002, 4.582289e+002
1.098804e+002, 4.459637e+002
1.103625e+002, 4.330139e+002
1.108446e+002, 4.188220e+002
1.113267e+002, 4.072174e+002
1.118088e+002, 3.989857e+002
1.122909e+002, 3.923628e+002
1.127731e+002, 3.870824e+002
1.132552e+002, 3.828665e+002
1.137373e+002, 3.790633e+002
1.142194e+002, 3.747449e+002
1.147015e+002, 3.689717e+002
1.151836e+002, 3.644058e+002
1.156658e+002, 3.620042e+002
1.161479e+002, 3.602933e+002
1.166300e+002, 3.578461e+002
1.171121e+002, 3.541355e+002
1.175942e+002, 3.495941e+002
1.180763e+002, 3.452617e+002
1.185584e+002, 3.415407e+002
1.190406e+002, 3.372102e+002
1.195227e+002, 3.310869e+002
1.200048e+002, 3.239476e+002
1.204869e+002, 3.179252e+002
1.209690e+002, 3.141708e+002
1.214511e+002, 3.121305e+002
1.219333e+002, 3.102109e+002
1.224154e+002, 3.084214e+002
1.228975e+002, 3.067288e+002
1.233796e+002, 3.050341e+002
1.238617e+002, 3.032882e+002
1.243438e+002, 3.019015e+002
1.248260e+002, 3.026635e+002
1.253081e+002, 3.033245e+002
1.257902e+002, 3.014171e+002
1.262723e+002, 2.955012e+002
1.267544e+002, 2.872959e+002
1.272365e+002, 2.806078e+002
1.277187e+002, 2.756208e+002
1.282008e+002, 2.720806e+002
1.286829e+002, 2.700979e+002
1.291650e+002, 2.691657e+002
1.296471e+002, 2.688327e+002
1.301292e+002, 2.690508e+002
1.306114e+002, 2.696675e+002
1.310935e+002, 2.683756e+002
1.315756e+002, 2.626464e+002
1.320577e+002, 2.573177e+002
1.325398e+002, 2.539797e+002
1.330219e+002, 2.521153e+002
1.335041e+002, 2.502786e+002
1.339862e+002, 2.472141e+002
1.344683e+002, 2.427389e+002
1.349504e+002, 2.379048e+002
1.354325e+002, 2.315313e+002
1.359146e+002, 2.257661e+002
1.363968e+002, 2.219131e+002
1.368789e+002, 2.200607e+002
1.373610e+002, 2.194755e+002
1.378431e+002, 2.196457e+002
1.383252e+002, 2.208652e+002
1.388073e+002, 2.211134e+002
1.392895e+002, 2.196191e+002
1.397716e+002, 2.173548e+002
1.402537e+002, 2.155133e+002
1.407358e+002, 2.144460e+002
1.412179e+002, 2.134719e+002
1.417000e+002, 2.115166e+002
1.421821e+002, 2.086722e+002
1.426643e+002, 2.060893e+002
1.431464e+002, 2.046723e+002
1.436285e+002, 2.040008e+002
1.441106e+002, 2.024826e+002
1.445927e+002, 1.993895e+002
1.450748e+002, 1.957238e+002
1.455570e+002, 1.922602e+002
1.460391e+002, 1.890277e+002
1.465212e+002, 1.861772e+002
1.470033e+002, 1.837721e+002
1.474854e+002, 1.817886e+002
1.479675e+002, 1.804671e+002
1.484497e+002, 1.810924e+002
1.489318e+002, 1.816120e+002
1.494139e+002, 1.807214e+002
1.498960e+002, 1.781907e+002
1.503781e+002, 1.749369e+002
1.508602e+002, 1.722541e+002
1.513424e+002, 1.701225e+002
1.518245e+002, 1.686610e+002
1.523066e+002, 1.687908e+002
1.527887e+002, 1.689488e+002
1.532708e+002, 1.675540e+002
1.537529e+002, 1.640807e+002
1.542351e+002, 1.596293e+002
1.547172e+002, 1.569864e+002
1.551993e+002, 1.586978e+002
1.556814e+002, 1.592881e+002
1.561635e+002, 1.577522e+002
1.566456e+002, 1.551876e+002
1.571278e+002, 1.529710e+002
1.576099e+002, 1.518116e+002
1.580920e+002, 1.513660e+002
1.585741e+002, 1.501516e+002
1.590562e+002, 1.476183e+002
1.595383e+002, 1.450586e+002
1.600205e+002, 1.428552e+002
1.605026e+002, 1.408659e+002
1.609847e+002, 1.386201e+002
1.614668e+002, 1.356494e+002
1.619489e+002, 1.323829e+002
1.624310e+002, 1.305950e+002
1.629131e+002, 1.318074e+002
1.633953e+002, 1.329336e+002
1.638774e+002, 1.320578e+002
1.643595e+002, 1.293343e+002
1.648416e+002, 1.262296e+002
1.653237e+002, 1.232873e+002
1.658058e+002, 1.206980e+002
1.662880e+002, 1.188737e+002
1.667701e+002, 1.188271e+002
1.672522e+002, 1.187881e+002
1.677343e+002, 1.161160e+002
1.682164e+002, 1.100752e+002
1.686985e+002, 1.049246e+002
1.691807e+002, 1.040049e+002
1.696628e+002, 1.052755e+002
1.701449e+002, 1.064662e+002
1.706270e+002, 1.067406e+002
1.711091e+002, 1.064132e+002
1.715912e+002, 1.063114e+002
1.720734e+002, 1.069363e+002
1.725555e+002, 1.067898e+002
1.730376e+002, 1.048215e+002
1.735197e+002, 1.019431e+002
1.740018e+002, 9.944237e+001
1.744839e+002, 9.813786e+001
1.749661e+002, 9.782751e+001
1.754482e+002, 9.731042e+001
1.759303e+002, 9.648136e+001
1.764124e+002, 9.553224e+001
1.768945e+002, 9.431473e+001
1.773766e+002, 9.302742e+001
1.778588e+002, 9.203110e+001
1.783409e+002, 9.163094e+001
1.788230e+002, 9.183306e+001
1.793051e+002, 9.175962e+001
1.797872e+002, 9.154882e+001
1.802693e+002, 9.093559e+001
1.807515e+002, 8.943491e+001
1.812336e+002, 8.738808e+001
1.817157e+002, 8.562920e+001
1.821978e+002, 8.491509e+001
1.826799e+002, 8.539024e+001
1.831620e+002, 8.552434e+001
1.836441e+002, 8.479075e+001
1.841263e+002, 8.425220e+001
1.846084e+002, 8.472910e+001
1.850905e+002, 8.605623e+001
1.855726e+002, 8.728990e+001
1.860547e+002, 8.763706e+001
1.865368e+002, 8.698132e+001
1.870190e+002, 8.543894e+001
1.875011e+002, 8.154133e+001
1.879832e+002, 7.782989e+001
1.884653e+002, 7.664990e+001
1.889474e+002, 7.816316e+001
1.894296e+002, 7.999853e+001
1.899117e+002, 7.966468e+001
1.903938e+002, 7.722565e+001
1.908759e+002, 7.554224e+001
1.913580e+002, 7.522900e+001
1.918401e+002, 7.567814e+001
1.923223e+002, 7.658633e+001
1.928044e+002, 7.812822e+001
1.932865e+002, 7.902352e+001
1.937686e+002, 7.711111e+001
1.942507e+002, 7.328329e+001
1.947328e+002, 7.028313e+001
1.952150e+002, 6.911450e+001
1.956971e+002, 6.929868e+001
1.961792e+002, 7.006033e+001
1.966613e+002, 7.163921e+001
1.971434e+002, 7.314103e+001
1.976255e+002, 7.392265e+001
1.981077e+002, 7.413671e+001
1.985898e+002, 7.408642e+001
1.990719e+002, 7.400594e+001
1.995540e+002, 7.381019e+001
2.000361e+002, 7.297119e+001
2.005182e+002, 7.054980e+001
2.010004e+002, 6.884624e+001
2.014825e+002, 6.956802e+001
2.019646e+002, 7.193968e+001
2.024467e+002, 7.401110e+001
2.029288e+002, 7.395251e+001
2.034109e+002, 7.197098e+001
2.038930e+002, 7.173322e+001
2.043752e+002, 7.544783e+001
2.048573e+002, 7.868295e+001
2.053394e+002, 7.954482e+001
2.058215e+002, 7.853571e+001
2.063036e+002, 7.706603e+001
2.067857e+002, 7.621403e+001
2.072679e+002, 7.600496e+001
2.077500e+002, 7.592271e+001
2.082321e+002, 7.660078e+001
2.087142e+002, 7.682140e+001
2.091963e+002, 7.584643e+001
2.096784e+002, 7.400050e+001
2.101606e+002, 7.217365e+001
2.106427e+002, 7.117547e+001
2.111248e+002, 7.111591e+001
2.116069e+002, 7.096532e+001
2.120890e+002, 7.095678e+001
2.125711e+002, 7.066013e+001
2.130533e+002, 6.967210e+001
2.135354e+002, 6.817507e+001
2.140175e+002, 6.675462e+001
2.144996e+002, 6.600529e+001
2.149817e+002, 6.610816e+001
2.154638e+002, 6.556107e+001
2.159460e+002, 6.364382e+001
2.164281e+002, 6.186019e+001
2.169102e+002, 6.122004e+001
2.173923e+002, 6.154575e+001
2.178744e+002, 6.176177e+001
2.183565e+002, 6.083104e+001
2.188387e+002, 5.856421e+001
2.193208e+002, 5.678192e+001
2.198029e+002, 5.543954e+001
2.202850e+002, 5.453529e+001
2.207671e+002, 5.436405e+001
2.212492e+002, 5.480210e+001
2.217314e+002, 5.507486e+001
2.222135e+002, 5.445226e+001
2.226956e+002, 5.285644e+001
2.231777e+002, 5.156367e+001
2.236598e+002, 5.060659e+001
2.241419e+002, 4.991726e+001
2.246240e+002, 4.941806e+001
2.251062e+002, 4.911007e+001
2.255883e+002, 4.917422e+001
2.260704e+002, 5.013335e+001
2.265525e+002, 5.171867e+001
2.270346e+002, 5.207537e+001
2.275167e+002, 4.968813e+001
2.279989e+002, 4.689672e+001
2.284810e+002, 4.606901e+001
2.289631e+002, 4.736319e+001
2.294452e+002, 4.896034e+001
2.299273e+002, 4.961110e+001
2.304094e+002, 4.953844e+001
2.308916e+002, 4.937943e+001
2.313737e+002, 4.942394e+001
2.318558e+002, 4.931843e+001
2.323379e+002, 4.835563e+001
2.328200e+002, 4.634242e+001
2.333021e+002, 4.484389e+001
2.337843e+002, 4.587163e+001
2.342664e+002, 4.788421e+001
2.347485e+002, 4.835606e+001
2.352306e+002, 4.553912e+001
2.357127e+002, 4.185504e+001
2.361948e+002, 4.094302e+001
2.366770e+002, 4.349848e+001
2.371591e+002, 4.592619e+001
2.376412e+002, 4.637628e+001
2.381233e+002, 4.566505e+001
2.386054e+002, 4.442115e+001
2.390875e+002, 4.253668e+001
2.395697e+002, 4.063634e+001
2.400518e+002, 3.991194e+001
2.405339e+002, 4.079983e+001
2.410160e+002, 4.145514e+001
2.414981e+002, 4.084332e+001
2.419802e+002, 3.979451e+001
2.424624e+002, 3.907199e+001
2.429445e+002, 3.895590e+001
2.434266e+002, 3.920662e+001
2.439087e+002, 3.953284e+001
2.443908e+002, 4.014272e+001
2.448729e+002, 4.022781e+001
2.453550e+002, 3.931484e+001
2.458372e+002, 3.796340e+001
2.463193e+002, 3.654992e+001
2.468014e+002, 3.518546e+001
2.472835e+002, 3.395903e+001
2.477656e+002, 3.299321e+001
2.482477e+002, 3.228159e+001
2.487299e+002, 3.188856e+001
2.492120e+002, 3.264032e+001
2.496941e+002, 3.320980e+001
2.501762e+002, 3.218232e+001
2.506583e+002, 2.918877e+001
2.511404e+002, 2.564715e+001
2.516226e+002, 2.408351e+001
2.521047e+002, 2.570717e+001
2.525868e+002, 2.661123e+001
2.530689e+002, 2.594294e+001
2.535510e+002, 2.487510e+001
2.540331e+002, 2.421961e+001
2.545153e+002, 2.418367e+001
2.549974e+002, 2.443814e+001
2.554795e+002, 2.460109e+001
2.559616e+002, 2.510649e+001
2.564437e+002, 2.447090e+001
2.569258e+002, 2.141231e+001
2.574080e+002, 1.832823e+001
2.578901e+002, 1.692873e+001
2.583722e+002, 1.744419e+001
2.588543e+002, 1.876909e+001
2.593364e+002, 1.945790e+001
2.598185e+002, 1.934851e+001
2.603007e+002, 1.894366e+001
2.607828e+002, 1.826648e+001
2.612649e+002, 1.734509e+001
2.617470e+002, 1.580003e+001
2.622291e+002, 1.381552e+001
2.627112e+002, 1.233208e+001
2.631934e+002, 1.258619e+001
2.636755e+002, 1.541320e+001
2.641576e+002, 1.690823e+001
2.646397e+002, 1.652890e+001
2.651218e+002, 1.555969e+001
2.656039e+002, 1.459756e+001
2.660861e+002, 1.371999e+001
2.665682e+002, 1.271157e+001
2.670503e+002, 1.128226e+001
2.675324e+002, 9.249429e+000
2.680145e+002, 8.088026e+000
2.684966e+002, 8.476599e+000
2.689788e+002, 8.930453e+000
2.694609e+002, 8.618100e+000
2.699430e+002, 7.665096e+000
2.704251e+002, 6.814004e+000
2.709072e+002, 6.771852e+000
2.713893e+002, 7.601435e+000
2.718715e+002, 7.268313e+000
2.723536e+002, 4.411439e+000
2.728357e+002, 1.981986e+000
2.733178e+002, 1.560395e+000
2.737999e+002, 2.663200e+000
2.742820e+002, 3.829139e+000
2.747642e+002, 4.087591e+000
2.752463e+002, 3.510710e+000
2.757284e+002, 2.958776e+000
2.762105e+002, 2.317251e+000
2.766926e+002, 1.810691e+000
2.771747e+002, 1.719500e+000
2.776568e+002, 1.823898e+000
2.781389e+002, 1.536469e+000
2.786211e+002, 4.318472e-001
2.791032e+002, -1.153532e+000
2.795853e+002, -1.711136e+000
2.800674e+002, -2.588580e-003
2.805495e+002, 1.071460e+000
2.810316e+002, 1.024580e-001
2.815138e+002, -1.908077e+000
2.819959e+002, -3.090974e+000
2.824780e+002, -2.562988e+000
2.829601e+002, -1.020012e+000
2.834422e+002, -2.445524e-001
2.839243e+002, -4.486574e-001
2.844065e+002, -8.502967e-001
2.848886e+002, -1.326665e+000
2.853707e+002, -1.899144e+000
2.858528e+002, -2.654533e+000
2.863349e+002, -3.646418e+000
2.868170e+002, -4.681572e+000
2.872992e+002, -5.423433e+000
2.877813e+002, -5.807153e+000
2.882634e+002, -6.146681e+000
2.887455e+002, -6.624319e+000
2.892276e+002, -7.024956e+000
2.897097e+002, -7.031385e+000
2.901919e+002, -6.562615e+000
2.906740e+002, -5.891578e+000
2.911561e+002, -5.279729e+000
2.916382e+002, -4.709652e+000
2.921203e+002, -4.401767e+000
2.926024e+002, -4.331007e+000
2.930846e+002, -4.560142e+000
2.935667e+002, -5.319063e+000
2.940488e+002, -6.623839e+000
2.945309e+002, -7.890238e+000
2.950130e+002, -8.524394e+000
2.954951e+002, -8.510473e+000
2.959773e+002, -8.704803e+000
2.964594e+002, -9.130697e+000
2.969415e+002, -9.778893e+000
2.974236e+002, -1.092160e+001
2.979057e+002, -1.246908e+001
2.983878e+002, -1.355033e+001
2.988700e+002, -1.337345e+001
2.993521e+002, -1.215013e+001
2.998342e+002, -1.149791e+001
3.003163e+002, -1.174379e+001
3.007984e+002, -1.225056e+001
3.012805e+002, -1.286451e+001
3.017627e+002, -1.349752e+001
3.022448e+002, -1.374601e+001
3.027269e+002, -1.329196e+001
3.032090e+002, -1.237623e+001
3.036911e+002, -1.171484e+001
3.041732e+002, -1.115277e+001
3.046554e+002, -1.103098e+001
3.051375e+002, -1.192527e+001
3.056196e+002, -1.340629e+001
3.061017e+002, -1.422369e+001
3.065838e+002, -1.369234e+001
3.070659e+002, -1.268201e+001
3.075481e+002, -1.305887e+001
3.080302e+002, -1.518247e+001
3.085123e+002, -1.693675e+001
3.089944e+002, -1.735587e+001
3.094765e+002, -1.702164e+001
3.099586e+002, -1.689293e+001
3.104408e+002, -1.721151e+001
3.109229e+002, -1.777619e+001
3.114050e+002, -1.839935e+001
3.118871e+002, -1.909631e+001
3.123692e+002, -1.964276e+001
3.128513e+002, -2.029879e+001
3.133335e+002, -2.063972e+001
3.138156e+002, -1.984918e+001
3.142977e+002, -1.776244e+001
3.147798e+002, -1.573730e+001
3.152619e+002, -1.513684e+001
3.157440e+002, -1.588687e+001
3.162262e+002, -1.642416e+001
3.167083e+002, -1.626550e+001
3.171904e+002, -1.610401e+001
3.176725e+002, -1.675255e+001
3.181546e+002, -1.815061e+001
3.186367e+002, -1.922994e+001
3.191188e+002, -1.925909e+001
3.196010e+002, -1.834054e+001
3.200831e+002, -1.732184e+001
3.205652e+002, -1.562383e+001
3.210473e+002, -1.438935e+001
3.215294e+002, -1.441075e+001
3.220115e+002, -1.545976e+001
3.224937e+002, -1.679161e+001
3.229758e+002, -1.815436e+001
3.234579e+002, -1.947349e+001
3.239400e+002, -2.062713e+001
3.244221e+002, -2.200303e+001
3.249042e+002, -2.250773e+001
3.253864e+002, -2.085485e+001
3.258685e+002, -1.819377e+001
3.263506e+002, -1.684092e+001
3.268327e+002, -1.767695e+001
3.273148e+002, -1.943742e+001
3.277969e+002, -2.010967e+001
3.282791e+002, -1.949885e+001
3.287612e+002, -1.918619e+001
3.292433e+002, -1.992122e+001
3.297254e+002, -2.089009e+001
3.302075e+002, -2.078343e+001
3.306896e+002, -1.937452e+001
3.311718e+002, -1.836013e+001
3.316539e+002, -1.993823e+001
3.321360e+002, -2.435219e+001
3.326181e+002, -2.649963e+001
3.331002e+002, -2.438439e+001
3.335823e+002, -2.133812e+001
3.340645e+002, -1.973410e+001
3.345466e+002, -1.957974e+001
3.350287e+002, -1.958674e+001
3.355108e+002, -1.870763e+001
3.359929e+002, -1.724610e+001
3.364750e+002, -1.726684e+001
3.369572e+002, -1.991134e+001
3.374393e+002, -2.265089e+001
3.379214e+002, -2.480991e+001
3.384035e+002, -2.627318e+001
3.388856e+002, -2.655517e+001
3.393677e+002, -2.522202e+001
3.398499e+002, -2.306438e+001
3.403320e+002, -2.231263e+001
3.408141e+002, -2.367754e+001
3.412962e+002, -2.491410e+001
3.417783e+002, -2.572583e+001
3.422604e+002, -2.613412e+001
3.427426e+002, -2.609662e+001
3.432247e+002, -2.560151e+001
3.437068e+002, -2.481599e+001
3.441889e+002, -2.389672e+001
3.446710e+002, -2.262396e+001
3.451531e+002, -2.198602e+001
3.456353e+002, -2.223239e+001
3.461174e+002, -2.295246e+001
3.465995e+002, -2.398309e+001
3.470816e+002, -2.523309e+001
3.475637e+002, -2.653333e+001
3.480458e+002, -2.780549e+001
3.485280e+002, -2.907339e+001
3.490101e+002, -2.945378e+001
3.494922e+002, -2.817306e+001
3.499743e+002, -2.694348e+001
3.504564e+002, -2.660991e+001
3.509385e+002, -2.691229e+001
3.514207e+002, -2.711578e+001
3.519028e+002, -2.676031e+001
3.523849e+002, -2.605323e+001
3.528670e+002, -2.589730e+001
3.533491e+002, -2.736387e+001
3.538312e+002, -2.805327e+001
3.543134e+002, -2.703581e+001
3.547955e+002, -2.534339e+001
3.552776e+002, -2.401309e+001
3.557597e+002, -2.343279e+001
3.562418e+002, -2.363782e+001
3.567239e+002, -2.480217e+001
3.572061e+002, -2.803341e+001
3.576882e+002, -2.989877e+001
3.581703e+002, -2.931732e+001
3.586524e+002, -2.831553e+001
3.591345e+002, -2.822524e+001
3.596166e+002, -2.916576e+001
3.600987e+002, -3.056223e+001
3.605808e+002, -3.196247e+001
3.610630e+002, -3.345534e+001
3.615451e+002, -3.404265e+001
3.620272e+002, -3.299629e+001
3.625093e+002, -3.186613e+001
3.629914e+002, -3.109885e+001
3.634735e+002, -3.063005e+001
3.639557e+002, -3.021080e+001
3.644378e+002, -2.966106e+001
3.649199e+002, -2.912424e+001
3.654020e+002, -2.922727e+001
3.658841e+002, -3.040339e+001
3.663662e+002, -3.168003e+001
3.668484e+002, -3.309901e+001
3.673305e+002, -3.447510e+001
3.678126e+002, -3.581488e+001
3.682947e+002, -3.706555e+001
3.687768e+002, -3.782629e+001
3.692589e+002, -3.726936e+001
3.697411e+002, -3.465509e+001
3.702232e+002, -3.274278e+001
3.707053e+002, -3.170584e+001
3.711874e+002, -3.126347e+001
3.716695e+002, -3.161329e+001
3.721516e+002, -3.253041e+001
3.726338e+002, -3.332489e+001
3.731159e+002, -3.335761e+001
3.735980e+002, -3.265132e+001
3.740801e+002, -3.186809e+001
3.745622e+002, -3.008442e+001
3.750443e+002, -2.946832e+001
3.755265e+002, -3.177036e+001
3.760086e+002, -3.539585e+001
3.764907e+002, -3.792481e+001
3.769728e+002, -3.816813e+001
3.774549e+002, -3.672519e+001
3.779370e+002, -3.454978e+001
3.784192e+002, -3.091458e+001
3.789013e+002, -2.864821e+001
3.793834e+002, -2.949983e+001
3.798655e+002, -3.140980e+001
3.803476e+002, -3.282745e+001
3.808297e+002, -3.344760e+001
3.813119e+002, -3.406849e+001
3.817940e+002, -3.611730e+001
3.822761e+002, -3.953271e+001
3.827582e+002, -4.064143e+001
3.832403e+002, -3.710714e+001
3.837224e+002, -3.334311e+001
3.842046e+002, -3.248462e+001
3.846867e+002, -3.395745e+001
3.851688e+002, -3.557088e+001
3.856509e+002, -3.600320e+001
3.861330e+002, -3.578424e+001
3.866151e+002, -3.623294e+001
3.870973e+002, -3.757281e+001
3.875794e+002, -3.877132e+001
3.880615e+002, -3.926687e+001
3.885436e+002, -3.923457e+001
3.890257e+002, -3.883326e+001
3.895078e+002, -3.798262e+001
3.899900e+002, -3.696717e+001
3.904721e+002, -3.578570e+001
3.909542e+002, -3.452588e+001
3.914363e+002, -3.410259e+001
3.919184e+002, -3.545332e+001
3.924005e+002, -3.695813e+001
3.928827e+002, -3.588564e+001
3.933648e+002, -3.196775e+001
3.938469e+002, -2.920978e+001
3.943290e+002, -3.008586e+001
3.948111e+002, -3.280280e+001
3.952932e+002, -3.460517e+001
3.957754e+002, -3.509472e+001
3.962575e+002, -3.491144e+001
3.967396e+002, -3.443472e+001
3.972217e+002, -3.369818e+001
3.977038e+002, -3.312643e+001
3.981859e+002, -3.237879e+001
3.986681e+002, -3.210943e+001
3.991501e+002, -3.318411e+001
3.996323e+002, -3.520728e+001
4.001144e+002, -3.671061e+001
4.005965e+002, -3.687197e+001
4.010786e+002, -3.618294e+001
4.015607e+002, -3.607916e+001
4.020428e+002, -3.700948e+001
4.025250e+002, -3.764191e+001
4.030071e+002, -3.767902e+001
4.034892e+002, -3.733014e+001
4.039713e+002, -3.676713e+001
4.044534e+002, -3.604845e+001
4.049355e+002, -3.523602e+001
4.054177e+002, -3.431730e+001
4.058998e+002, -3.312055e+001
4.063819e+002, -3.284236e+001
4.068640e+002, -3.421331e+001
4.073461e+002, -3.568193e+001
4.078282e+002, -3.666587e+001
4.083104e+002, -3.712020e+001
4.087925e+002, -3.710712e+001
4.092746e+002, -3.663874e+001
4.097567e+002, -3.579639e+001
4.102388e+002, -3.493586e+001
4.107209e+002, -3.360054e+001
4.112031e+002, -3.288618e+001
4.116852e+002, -3.318639e+001
4.121673e+002, -3.396482e+001
4.126494e+002, -3.488375e+001
4.131315e+002, -3.578479e+001
4.136136e+002, -3.642264e+001
4.140958e+002, -3.642157e+001
4.145779e+002, -3.563178e+001
4.150600e+002, -3.479771e+001
4.155421e+002, -3.347081e+001
4.160242e+002, -3.252877e+001
4.165063e+002, -3.245152e+001
4.169885e+002, -3.305323e+001
4.174706e+002, -3.387761e+001
4.179527e+002, -3.469939e+001
4.184348e+002, -3.547282e+001
4.189169e+002, -3.609687e+001
4.193990e+002, -3.670192e+001
4.198812e+002, -3.683921e+001
4.203633e+002, -3.585958e+001
4.208454e+002, -3.465344e+001
4.213275e+002, -3.411122e+001
4.218096e+002, -3.445892e+001
4.222917e+002, -3.504720e+001
4.227739e+002, -3.526222e+001
4.232560e+002, -3.511499e+001
4.237381e+002, -3.482943e+001
4.242202e+002, -3.430132e+001
4.247023e+002, -3.383284e+001
4.251844e+002, -3.361234e+001
4.256666e+002, -3.362269e+001
4.261487e+002, -3.381504e+001
4.266308e+002, -3.425997e+001
4.271129e+002, -3.483483e+001
4.275950e+002, -3.550250e+001
4.280771e+002, -3.629768e+001
4.285593e+002, -3.661016e+001
4.290414e+002, -3.592914e+001
4.295235e+002, -3.461958e+001
4.300056e+002, -3.353732e+001
4.304877e+002, -3.265747e+001
4.309698e+002, -3.206581e+001
4.314520e+002, -3.201402e+001
4.319341e+002, -3.225186e+001
4.324162e+002, -3.211320e+001
4.328983e+002, -3.135160e+001
4.333804e+002, -3.083310e+001
4.338625e+002, -3.194504e+001
4.343447e+002, -3.506255e+001
4.348268e+002, -3.627503e+001
4.353089e+002, -3.330814e+001
4.357910e+002, -3.022592e+001
4.362731e+002, -3.018808e+001
4.367552e+002, -3.250673e+001
4.372374e+002, -3.431491e+001
4.377195e+002, -3.385225e+001
4.382016e+002, -3.182253e+001
4.386837e+002, -3.091587e+001
4.391658e+002, -3.242525e+001
4.396479e+002, -3.341410e+001
4.401301e+002, -3.340012e+001
4.406122e+002, -3.294495e+001
4.410943e+002, -3.251738e+001
4.415764e+002, -3.223981e+001
4.420585e+002, -3.203120e+001
4.425406e+002, -3.182487e+001
4.430227e+002, -3.164647e+001
4.435049e+002, -3.127868e+001
4.439870e+002, -3.023565e+001
4.444691e+002, -2.951047e+001
4.449512e+002, -2.933587e+001
4.454333e+002, -2.970630e+001
4.459154e+002, -3.081802e+001
4.463976e+002, -3.289798e+001
4.468797e+002, -3.509626e+001
4.473618e+002, -3.516739e+001
4.478439e+002, -3.198825e+001
4.483260e+002, -3.003851e+001
4.488081e+002, -3.119667e+001
4.492903e+002, -3.307656e+001
4.497724e+002, -3.445917e+001
4.502545e+002, -3.516957e+001
4.507366e+002, -3.534173e+001
4.512187e+002, -3.460774e+001
4.517008e+002, -3.332626e+001
4.521830e+002, -3.318098e+001
4.526651e+002, -3.457736e+001
4.531472e+002, -3.617072e+001
4.536293e+002, -3.734927e+001
4.541114e+002, -3.817991e+001
4.545935e+002, -3.862694e+001
4.550757e+002, -3.842059e+001
4.555578e+002, -3.833669e+001
4.560399e+002, -3.927543e+001
4.565220e+002, -4.096180e+001
4.570041e+002, -4.216657e+001
4.574862e+002, -4.244813e+001
4.579684e+002, -4.233813e+001
4.584505e+002, -4.272277e+001
4.589326e+002, -4.364218e+001
4.594147e+002, -4.362836e+001
4.598968e+002, -4.121440e+001
4.603789e+002, -3.862875e+001
4.608611e+002, -3.801758e+001
4.613432e+002, -3.920697e+001
4.618253e+002, -4.060453e+001
4.623074e+002, -4.129021e+001
4.627895e+002, -4.138977e+001
4.632716e+002, -4.142785e+001
4.637538e+002, -4.069055e+001
4.642359e+002, -4.082063e+001
4.647180e+002, -4.308590e+001
4.652001e+002, -4.572478e+001
4.656822e+002, -4.684833e+001
4.661643e+002, -4.614895e+001
4.666465e+002, -4.465413e+001
4.671286e+002, -4.343543e+001
4.676107e+002, -4.249903e+001
4.680928e+002, -4.169337e+001
4.685749e+002, -4.026445e+001
4.690570e+002, -3.979750e+001
4.695392e+002, -4.183120e+001
4.700213e+002, -4.480782e+001
4.705034e+002, -4.625147e+001
4.709855e+002, -4.502425e+001
4.714676e+002, -4.263813e+001
4.719497e+002, -4.186470e+001
4.724319e+002, -4.314949e+001
4.729140e+002, -4.408439e+001
4.733961e+002, -4.392329e+001
4.738782e+002, -4.366591e+001
4.743603e+002, -4.391830e+001
4.748424e+002, -4.460170e+001
4.753246e+002, -4.526497e+001
4.758067e+002, -4.560545e+001
4.762888e+002, -4.575621e+001
4.767709e+002, -4.617805e+001
4.772530e+002, -4.700925e+001
4.777351e+002, -4.722026e+001
4.782173e+002, -4.613947e+001
4.786994e+002, -4.420522e+001
4.791815e+002, -4.191151e+001
4.796636e+002, -3.889484e+001
4.801457e+002, -3.693579e+001
4.806278e+002, -3.779346e+001
4.811100e+002, -4.009781e+001
4.815920e+002, -4.112193e+001
4.820742e+002, -4.033263e+001
4.825563e+002, -3.961559e+001
4.830384e+002, -4.089986e+001
4.835205e+002, -4.412450e+001
4.840026e+002, -4.593949e+001
4.844847e+002, -4.575460e+001
4.849669e+002, -4.490112e+001
4.854490e+002, -4.324762e+001
4.859311e+002, -4.143181e+001
4.864132e+002, -4.055223e+001
4.868953e+002, -4.101064e+001
4.873774e+002, -4.231062e+001
4.878596e+002, -4.374397e+001
4.883417e+002, -4.577867e+001
4.888238e+002, -4.662361e+001
4.893059e+002, -4.558069e+001
4.897880e+002, -4.422672e+001
4.902701e+002, -4.293926e+001
4.907523e+002, -4.197680e+001
4.912344e+002, -4.183703e+001
4.917165e+002, -4.296784e+001
4.921986e+002, -4.469744e+001
4.926807e+002, -4.490534e+001
4.931628e+002, -4.261301e+001
4.936450e+002, -4.150806e+001
4.941271e+002, -4.405009e+001
4.946092e+002, -4.682199e+001
4.950913e+002, -4.727536e+001
4.955734e+002, -4.543560e+001
4.960555e+002, -4.348717e+001
4.965377e+002, -4.328999e+001
4.970198e+002, -4.410653e+001
4.975019e+002, -4.375052e+001
4.979840e+002, -4.191147e+001
4.984661e+002, -4.014418e+001
4.989482e+002, -3.909759e+001
4.994304e+002, -3.876697e+001
4.999125e+002, -3.914644e+001
5.003946e+002, -4.052309e+001
5.008767e+002, -4.190434e+001
5.013588e+002, -4.292464e+001
5.018409e+002, -4.359239e+001
5.023231e+002, -4.389151e+001
5.028052e+002, -4.381454e+001
5.032873e+002, -4.350618e+001
5.037694e+002, -4.304787e+001
5.042515e+002, -4.242904e+001
5.047336e+002, -4.204568e+001
5.052158e+002, -4.177546e+001
5.056979e+002, -4.184390e+001
5.061800e+002, -4.261781e+001
5.066621e+002, -4.369657e+001
5.071442e+002, -4.451558e+001
5.076263e+002, -4.486650e+001
5.081085e+002, -4.484862e+001
5.085906e+002, -4.447017e+001
5.090727e+002, -4.333991e+001
5.095548e+002, -4.326843e+001
5.100369e+002, -4.586379e+001
5.105190e+002, -4.790911e+001
5.110012e+002, -4.765993e+001
5.114833e+002, -4.603112e+001
5.119654e+002, -4.494041e+001
5.124475e+002, -4.545036e+001
5.129296e+002, -4.658744e+001
5.134117e+002, -4.629501e+001
5.138939e+002, -4.424727e+001
5.143760e+002, -4.335905e+001
5.148581e+002, -4.527788e+001
5.153402e+002, -4.754086e+001
5.158223e+002, -4.802598e+001
5.163044e+002, -4.693387e+001
5.167866e+002, -4.574728e+001
5.172687e+002, -4.481433e+001
5.177508e+002, -4.427676e+001
5.182329e+002, -4.457030e+001
5.187150e+002, -4.561678e+001
5.191971e+002, -4.640172e+001
5.196793e+002, -4.646292e+001
5.201614e+002, -4.595735e+001
5.206435e+002, -4.504182e+001
5.211256e+002, -4.324447e+001
5.216077e+002, -4.243339e+001
5.220898e+002, -4.391804e+001
5.225720e+002, -4.582168e+001
5.230541e+002, -4.637475e+001
5.235362e+002, -4.562641e+001
5.240183e+002, -4.478328e+001
5.245004e+002, -4.473396e+001
5.249825e+002, -4.528214e+001
5.254647e+002, -4.539756e+001
5.259468e+002, -4.463578e+001
5.264289e+002, -4.406324e+001
5.269110e+002, -4.375498e+001
5.273931e+002, -4.367025e+001
5.278752e+002, -4.381737e+001
5.283574e+002, -4.417012e+001
5.288395e+002, -4.462452e+001
5.293216e+002, -4.503620e+001
5.298037e+002, -4.545988e+001
5.302858e+002, -4.640509e+001
5.307679e+002, -4.837540e+001
5.312501e+002, -4.968536e+001
5.317322e+002, -4.890114e+001
5.322143e+002, -4.741640e+001
5.326964e+002, -4.658989e+001
5.331785e+002, -4.664857e+001
5.336606e+002, -4.718808e+001
5.341428e+002, -4.833520e+001
5.346249e+002, -4.969909e+001
5.351070e+002, -5.031198e+001
5.355891e+002, -4.999775e+001
5.360712e+002, -4.970398e+001
5.365533e+002, -5.039700e+001
5.370355e+002, -5.172993e+001
5.375176e+002, -5.164160e+001
5.379997e+002, -4.816153e+001
5.384818e+002, -4.579588e+001
5.389639e+002, -4.691715e+001
5.394460e+002, -4.934108e+001
5.399282e+002, -5.016255e+001
5.404103e+002, -4.888391e+001
5.408924e+002, -4.725075e+001
5.413745e+002, -4.715250e+001
5.418566e+002, -4.864918e+001
5.423387e+002, -4.960036e+001
5.428209e+002, -4.988439e+001
5.433029e+002, -4.970679e+001
5.437850e+002, -4.849804e+001
5.442672e+002, -4.714388e+001
5.447493e+002, -4.690949e+001
5.452314e+002, -4.805876e+001
5.457135e+002, -4.916285e+001
5.461956e+002, -4.806998e+001
5.466777e+002, -4.508841e+001
5.471599e+002, -4.431682e+001
5.476420e+002, -4.725716e+001
5.481241e+002, -4.967531e+001
5.486062e+002, -4.796309e+001
5.490883e+002, -4.418317e+001
5.495704e+002, -4.157280e+001
5.500526e+002, -4.093534e+001
5.505347e+002, -4.096238e+001
5.510168e+002, -4.090828e+001
5.514989e+002, -4.091352e+001
5.519810e+002, -4.140618e+001
5.524631e+002, -4.248981e+001
5.529453e+002, -4.350249e+001
5.534274e+002, -4.374081e+001
5.539095e+002, -4.320114e+001
5.543916e+002, -4.320833e+001
5.548737e+002, -4.473600e+001
5.553558e+002, -4.556633e+001
5.558380e+002, -4.441420e+001
5.563201e+002, -4.253723e+001
5.568022e+002, -4.135748e+001
5.572843e+002, -4.129082e+001
5.577664e+002, -4.210815e+001
5.582485e+002, -4.381862e+001
5.587307e+002, -4.648361e+001
5.592128e+002, -4.802660e+001
5.596949e+002, -4.775832e+001
5.601770e+002, -4.729308e+001
5.606591e+002, -4.723294e+001
5.611412e+002, -4.728414e+001
5.616234e+002, -4.702723e+001
5.621055e+002, -4.632825e+001
5.625876e+002, -4.564775e+001
5.630697e+002, -4.542293e+001
5.635518e+002, -4.554283e+001
5.640339e+002, -4.572562e+001
5.645161e+002, -4.600911e+001
5.649982e+002, -4.597122e+001
5.654803e+002, -4.511565e+001
5.659624e+002, -4.368102e+001
5.664445e+002, -4.274540e+001
5.669266e+002, -4.230680e+001
5.674088e+002, -4.235913e+001
5.678909e+002, -4.323896e+001
5.683730e+002, -4.444879e+001
5.688551e+002, -4.546058e+001
5.693372e+002, -4.613693e+001
5.698193e+002, -4.649968e+001
5.703015e+002, -4.658602e+001
5.707836e+002, -4.638071e+001
5.712657e+002, -4.555190e+001
5.717478e+002, -4.281673e+001
5.722299e+002, -4.121551e+001
5.727120e+002, -4.182435e+001
5.731942e+002, -4.333350e+001
5.736763e+002, -4.480624e+001
5.741584e+002, -4.596771e+001
5.746405e+002, -4.656855e+001
5.751226e+002, -4.603214e+001
5.756047e+002, -4.471001e+001
5.760869e+002, -4.404478e+001
5.765690e+002, -4.407327e+001
5.770511e+002, -4.464914e+001
5.775332e+002, -4.621734e+001
5.780153e+002, -4.799488e+001
5.784974e+002, -4.858783e+001
5.789796e+002, -4.763491e+001
5.794617e+002, -4.703747e+001
5.799438e+002, -4.819421e+001
5.804259e+002, -4.967588e+001
5.809080e+002, -4.962652e+001
5.813901e+002, -4.811365e+001
5.818723e+002, -4.656584e+001
5.823544e+002, -4.586052e+001
5.828365e+002, -4.583160e+001
5.833186e+002, -4.590078e+001
5.838007e+002, -4.580160e+001
5.842828e+002, -4.624518e+001
5.847650e+002, -4.832736e+001
5.852471e+002, -5.001702e+001
5.857292e+002, -4.949268e+001
5.862113e+002, -4.730445e+001
5.866934e+002, -4.549541e+001
5.871755e+002, -4.545557e+001
5.876577e+002, -4.637862e+001
5.881398e+002, -4.626983e+001
5.886219e+002, -4.489222e+001
5.891040e+002, -4.409850e+001
5.895861e+002, -4.433191e+001
5.900682e+002, -4.533020e+001
5.905504e+002, -4.740647e+001
5.910325e+002, -5.025157e+001
5.915146e+002, -5.174259e+001
5.919967e+002, -5.043330e+001
5.924788e+002, -4.818862e+001
5.929609e+002, -4.614851e+001
5.934431e+002, -4.446330e+001
5.939252e+002, -4.352314e+001
5.944073e+002, -4.349225e+001
5.948894e+002, -4.408878e+001
5.953715e+002, -4.500819e+001
5.958536e+002, -4.643565e+001
5.963358e+002, -4.733276e+001
5.968179e+002, -4.731913e+001
5.973000e+002, -4.728009e+001
5.977821e+002, -4.738853e+001
5.982642e+002, -4.771770e+001
5.987463e+002, -4.851538e+001
5.992285e+002, -4.983427e+001
5.997106e+002, -5.099154e+001
6.001927e+002, -5.104950e+001
6.006748e+002, -5.004792e+001
6.011569e+002, -4.909875e+001
6.016390e+002, -4.827938e+001
6.021212e+002, -4.744882e+001
6.026033e+002, -4.622187e+001
6.030854e+002, -4.503175e+001
6.035675e+002, -4.457531e+001
6.040496e+002, -4.495406e+001
6.045317e+002, -4.599748e+001
6.050139e+002, -4.872548e+001
6.054960e+002, -5.158369e+001
6.059781e+002, -5.182026e+001
6.064602e+002, -4.936008e+001
6.069423e+002, -4.669317e+001
6.074244e+002, -4.554058e+001
6.079066e+002, -4.569637e+001
6.083887e+002, -4.625458e+001
6.088708e+002, -4.794083e+001
6.093529e+002, -4.897411e+001
6.098350e+002, -4.930128e+001
6.103171e+002, -4.897101e+001
6.107993e+002, -4.739440e+001
6.112814e+002, -4.510932e+001
6.117635e+002, -4.375337e+001
6.122456e+002, -4.461542e+001
6.127277e+002, -4.661420e+001
6.132098e+002, -4.747482e+001
6.136920e+002, -4.711502e+001
6.141741e+002, -4.657491e+001
6.146562e+002, -4.589766e+001
6.151383e+002, -4.539561e+001
6.156204e+002, -4.563198e+001
6.161025e+002, -4.643644e+001
6.165847e+002, -4.670693e+001
6.170668e+002, -4.533410e+001
6.175489e+002, -4.423755e+001
6.180310e+002, -4.529473e+001
6.185131e+002, -4.740296e+001
6.189952e+002, -4.812996e+001
6.194774e+002, -4.678955e+001
6.199595e+002, -4.485219e+001
6.204416e+002, -4.400244e+001
6.209237e+002, -4.428247e+001
6.214058e+002, -4.498979e+001
6.218879e+002, -4.720441e+001
6.223701e+002, -4.848779e+001
6.228522e+002, -4.769265e+001
6.233343e+002, -4.610309e+001
6.238164e+002, -4.504424e+001
6.242985e+002, -4.476271e+001
6.247806e+002, -4.457223e+001
6.252628e+002, -4.341247e+001
6.257448e+002, -4.199117e+001
6.262269e+002, -4.272430e+001
6.267090e+002, -4.589848e+001
6.271912e+002, -4.830215e+001
6.276733e+002, -4.831698e+001
6.281554e+002, -4.687430e+001
6.286375e+002, -4.550747e+001
6.291196e+002, -4.406367e+001
6.296017e+002, -4.331099e+001
6.300839e+002, -4.379687e+001
6.305660e+002, -4.461683e+001
6.310481e+002, -4.537664e+001
6.315302e+002, -4.593775e+001
6.320123e+002, -4.606680e+001
6.324944e+002, -4.565521e+001
6.329766e+002, -4.500939e+001
6.334587e+002, -4.464127e+001
6.339408e+002, -4.459186e+001
6.344229e+002, -4.460671e+001
6.349050e+002, -4.470690e+001
6.353871e+002, -4.484251e+001
6.358693e+002, -4.515648e+001
6.363514e+002, -4.543509e+001
6.368335e+002, -4.530168e+001
6.373156e+002, -4.459510e+001
6.377977e+002, -4.380802e+001
6.382798e+002, -4.341964e+001
6.387620e+002, -4.315783e+001
6.392441e+002, -4.214447e+001
6.397262e+002, -4.035485e+001
6.402083e+002, -3.954295e+001
6.406904e+002, -4.115750e+001
6.411725e+002, -4.423953e+001
6.416547e+002, -4.556458e+001
6.421368e+002, -4.276153e+001
6.426189e+002, -4.169023e+001
6.431010e+002, -4.390851e+001
6.435831e+002, -4.646280e+001
6.440652e+002, -4.778442e+001
6.445474e+002, -4.784041e+001
6.450295e+002, -4.692731e+001
6.455116e+002, -4.505068e+001
6.459937e+002, -4.300304e+001
6.464758e+002, -4.212221e+001
6.469579e+002, -4.240014e+001
6.474401e+002, -4.294912e+001
6.479222e+002, -4.387278e+001
6.484043e+002, -4.454650e+001
6.488864e+002, -4.422103e+001
6.493685e+002, -4.325463e+001
6.498506e+002, -4.281227e+001
6.503328e+002, -4.357591e+001
6.508149e+002, -4.395176e+001
6.512970e+002, -4.250341e+001
6.517791e+002, -4.077489e+001
6.522612e+002, -4.102333e+001
6.527433e+002, -4.318418e+001
6.532255e+002, -4.518650e+001
6.537076e+002, -4.548537e+001
6.541897e+002, -4.446439e+001
6.546718e+002, -4.349996e+001
6.551539e+002, -4.255570e+001
6.556360e+002, -4.176289e+001
6.561182e+002, -4.111249e+001
6.566003e+002, -4.065139e+001
6.570824e+002, -4.046681e+001
6.575645e+002, -4.050338e+001
6.580466e+002, -4.060523e+001
6.585287e+002, -4.074769e+001
6.590109e+002, -4.087843e+001
6.594930e+002, -4.091616e+001
6.599751e+002, -4.090315e+001
6.604572e+002, -4.108984e+001
6.609393e+002, -4.154580e+001
6.614214e+002, -4.160373e+001
6.619036e+002, -4.048595e+001
6.623857e+002, -3.838836e+001
6.628678e+002, -3.744852e+001
6.633499e+002, -3.886896e+001
6.638320e+002, -3.987186e+001
6.643141e+002, -4.012301e+001
6.647963e+002, -3.995036e+001
6.652784e+002, -3.936731e+001
6.657605e+002, -3.857701e+001
6.662426e+002, -3.816782e+001
6.667247e+002, -3.871650e+001
6.672068e+002, -3.948677e+001
6.676890e+002, -3.887759e+001
6.681711e+002, -3.694392e+001
6.686532e+002, -3.573507e+001
6.691353e+002, -3.601386e+001
6.696174e+002, -3.636554e+001
6.700995e+002, -3.510244e+001
6.705817e+002, -3.250750e+001
6.710638e+002, -3.141804e+001
6.715459e+002, -3.335101e+001
6.720280e+002, -3.497771e+001
6.725101e+002, -3.514189e+001
6.729922e+002, -3.452794e+001
6.734744e+002, -3.384881e+001
6.739565e+002, -3.320360e+001
6.744386e+002, -3.230209e+001
6.749207e+002, -3.086503e+001
6.754028e+002, -2.909390e+001
6.758849e+002, -2.762221e+001
6.763671e+002, -2.647033e+001
6.768492e+002, -2.552374e+001
6.773313e+002, -2.470173e+001
6.778134e+002, -2.415434e+001
6.782955e+002, -2.417463e+001
6.787776e+002, -2.457707e+001
6.792598e+002, -2.466917e+001
6.797419e+002, -2.375365e+001
6.802240e+002, -2.318377e+001
6.807061e+002, -2.458195e+001
6.811882e+002, -2.652368e+001
6.816703e+002, -2.646193e+001
6.821525e+002, -2.414540e+001
6.826346e+002, -2.143596e+001
6.831167e+002, -1.973703e+001
6.835988e+002, -1.905743e+001
6.840809e+002, -1.960620e+001
6.845630e+002, -2.241709e+001
6.850452e+002, -2.418979e+001
6.855273e+002, -2.308247e+001
6.860094e+002, -2.204861e+001
6.864915e+002, -2.317568e+001
6.869736e+002, -2.582248e+001
6.874557e+002, -2.783746e+001
6.879379e+002, -2.809258e+001
6.884200e+002, -2.803120e+001
6.889021e+002, -2.931501e+001
6.893842e+002, -3.119719e+001
6.898663e+002, -3.150816e+001
6.903484e+002, -2.991510e+001
6.908306e+002, -2.875985e+001
6.913127e+002, -2.994824e+001
6.917948e+002, -3.304255e+001
6.922769e+002, -3.592786e+001
6.927590e+002, -3.951697e+001
6.932411e+002, -4.135274e+001
6.937233e+002, -4.043867e+001
6.942054e+002, -3.867494e+001
6.946875e+002, -3.648748e+001
6.951696e+002, -3.444389e+001
6.956517e+002, -3.376257e+001
6.961339e+002, -3.532883e+001
6.966160e+002, -3.732027e+001
6.970981e+002, -3.748906e+001
6.975802e+002, -3.637321e+001
6.980623e+002, -3.602303e+001
6.985444e+002, -3.680510e+001
6.990266e+002, -3.741906e+001
6.995087e+002, -3.682940e+001
6.999908e+002, -3.544345e+001
7.004729e+002, -3.482145e+001
7.009550e+002, -3.534249e+001
7.014371e+002, -3.608390e+001
7.019193e+002, -3.751355e+001
7.024014e+002, -3.871719e+001
7.028835e+002, -3.898215e+001
7.033656e+002, -3.860189e+001
7.038477e+002, -3.826332e+001
7.043298e+002, -3.826034e+001
7.048120e+002, -3.839375e+001
7.052941e+002, -3.830605e+001
7.057762e+002, -3.811505e+001
7.062583e+002, -3.858872e+001
7.067404e+002, -3.994114e+001
7.072225e+002, -4.092469e+001
7.077046e+002, -4.070734e+001
7.081867e+002, -3.971532e+001
7.086688e+002, -3.901035e+001
7.091509e+002, -3.865923e+001
7.096331e+002, -3.840435e+001
7.101152e+002, -3.796661e+001
7.105973e+002, -3.787487e+001
7.110794e+002, -3.862802e+001
7.115615e+002, -3.989926e+001
7.120436e+002, -4.124224e+001
7.125258e+002, -4.248162e+001
7.130079e+002, -4.326900e+001
7.134900e+002, -4.303345e+001
7.139721e+002, -4.195242e+001
7.144542e+002, -4.087224e+001
7.149363e+002, -3.973278e+001
7.154185e+002, -3.922755e+001
7.159006e+002, -4.003175e+001
7.163827e+002, -4.128394e+001
7.168648e+002, -4.134162e+001
7.173469e+002, -3.989343e+001
7.178290e+002, -3.924515e+001
7.183112e+002, -4.042474e+001
7.187933e+002, -4.155364e+001
7.192754e+002, -4.164894e+001
7.197575e+002, -4.112454e+001
7.202396e+002, -4.054481e+001
7.207217e+002, -4.010032e+001
7.212039e+002, -3.981355e+001
7.216860e+002, -3.964479e+001
7.221681e+002, -3.966547e+001
7.226502e+002, -4.032896e+001
7.231323e+002, -4.176759e+001
7.236144e+002, -4.281194e+001
7.240966e+002, -4.317607e+001
7.245787e+002, -4.286236e+001
7.250608e+002, -4.147585e+001
7.255429e+002, -3.904667e+001
7.260250e+002, -3.769972e+001
7.265071e+002, -3.780717e+001
7.269893e+002, -3.869430e+001
7.274714e+002, -4.127962e+001
7.279535e+002, -4.383301e+001
7.284356e+002, -4.394697e+001
7.289177e+002, -4.173806e+001
7.293998e+002, -3.956473e+001
7.298820e+002, -3.915400e+001
7.303641e+002, -3.989710e+001
7.308462e+002, -4.041896e+001
7.313283e+002, -4.070248e+001
7.318104e+002, -4.141022e+001
7.322925e+002, -4.311494e+001
7.327747e+002, -4.420153e+001
7.332568e+002, -4.291756e+001
7.337389e+002, -3.979736e+001
7.342210e+002, -3.777183e+001
7.347031e+002, -3.684769e+001
7.351852e+002, -3.700348e+001
7.356674e+002, -3.944497e+001
7.361495e+002, -4.199656e+001
7.366316e+002, -4.288116e+001
7.371137e+002, -4.227290e+001
7.375958e+002, -4.103123e+001
7.380779e+002, -3.950130e+001
7.385601e+002, -3.822168e+001
7.390422e+002, -3.837828e+001
7.395243e+002, -3.973545e+001
7.400064e+002, -3.969894e+001
7.404885e+002, -3.764065e+001
7.409706e+002, -3.620201e+001
7.414528e+002, -3.720483e+001
7.419349e+002, -3.951296e+001
7.424170e+002, -4.064740e+001
7.428991e+002, -4.046830e+001
7.433812e+002, -3.976350e+001
7.438633e+002, -3.756540e+001
7.443455e+002, -3.592643e+001
7.448276e+002, -3.634571e+001
7.453097e+002, -3.787783e+001
7.457918e+002, -3.919918e+001
7.462739e+002, -3.986736e+001
7.467560e+002, -3.989011e+001
7.472382e+002, -3.891373e+001
7.477203e+002, -3.735559e+001
7.482024e+002, -3.653138e+001
7.486845e+002, -3.645359e+001
7.491666e+002, -3.663948e+001
7.496487e+002, -3.704588e+001
7.501309e+002, -3.735595e+001
7.506130e+002, -3.707983e+001
7.510951e+002, -3.615857e+001
7.515772e+002, -3.585762e+001
7.520593e+002, -3.667804e+001
7.525414e+002, -3.741328e+001
7.530236e+002, -3.823725e+001
7.535057e+002, -3.854887e+001
7.539878e+002, -3.722423e+001
7.544699e+002, -3.475507e+001
7.549520e+002, -3.319467e+001
7.554341e+002, -3.394207e+001
7.559163e+002, -3.563205e+001
7.563984e+002, -3.653953e+001
7.568805e+002, -3.674939e+001
7.573626e+002, -3.642598e+001
7.578447e+002, -3.554351e+001
7.583268e+002, -3.507497e+001
7.588090e+002, -3.599412e+001
7.592911e+002, -3.756598e+001
7.597732e+002, -3.722980e+001
7.602553e+002, -3.268294e+001
7.607374e+002, -3.044964e+001
7.612195e+002, -3.275785e+001
7.617017e+002, -3.486969e+001
7.621838e+002, -3.401223e+001
7.626659e+002, -3.167303e+001
7.631480e+002, -3.045169e+001
7.636301e+002, -3.109888e+001
7.641122e+002, -3.194236e+001
7.645944e+002, -3.173055e+001
7.650765e+002, -3.094103e+001
7.655586e+002, -3.009926e+001
7.660407e+002, -2.932828e+001
7.665228e+002, -2.909810e+001
7.670049e+002, -2.959301e+001
7.674871e+002, -3.069363e+001
7.679692e+002, -3.251401e+001
7.684513e+002, -3.518000e+001
7.689334e+002, -3.537447e+001
7.694155e+002, -3.050001e+001
7.698976e+002, -2.740713e+001
7.703798e+002, -2.911569e+001
7.708619e+002, -3.187830e+001
7.713440e+002, -3.280099e+001
7.718261e+002, -3.205072e+001
7.723082e+002, -3.142968e+001
7.727903e+002, -3.151358e+001
7.732725e+002, -3.197736e+001
7.737546e+002, -3.305278e+001
7.742367e+002, -3.416328e+001
7.747188e+002, -3.415975e+001
7.752009e+002, -3.309483e+001
7.756830e+002, -3.219103e+001
7.761652e+002, -3.226612e+001
7.766473e+002, -3.294612e+001
7.771294e+002, -3.336040e+001
7.776115e+002, -3.347172e+001
7.780936e+002, -3.368531e+001
7.785757e+002, -3.458162e+001
7.790579e+002, -3.452200e+001
7.795400e+002, -3.137230e+001
7.800221e+002, -2.724197e+001
7.805042e+002, -2.591284e+001
7.809863e+002, -2.810608e+001
7.814684e+002, -2.995258e+001
7.819506e+002, -3.030687e+001
7.824327e+002, -3.024201e+001
7.829148e+002, -3.044040e+001
7.833969e+002, -3.070211e+001
7.838790e+002, -3.064187e+001
7.843611e+002, -3.015708e+001
7.848433e+002, -2.933350e+001
7.853254e+002, -2.791694e+001
7.858075e+002, -2.642691e+001
7.862896e+002, -2.688367e+001
7.867717e+002, -2.932716e+001
7.872538e+002, -3.069030e+001
7.877360e+002, -2.995224e+001
7.882181e+002, -2.872794e+001
7.887002e+002, -2.846794e+001
7.891823e+002, -2.905297e+001
7.896644e+002, -2.947824e+001
7.901465e+002, -3.022316e+001
7.906286e+002, -3.013000e+001
7.911107e+002, -2.795650e+001
7.915928e+002, -2.598949e+001
7.920750e+002, -2.590172e+001
7.925571e+002, -2.714150e+001
7.930392e+002, -2.851544e+001
7.935213e+002, -2.968440e+001
7.940034e+002, -3.011970e+001
7.944855e+002, -2.880907e+001
7.949677e+002, -2.667401e+001
7.954498e+002, -2.523596e+001
7.959319e+002, -2.461460e+001
7.964140e+002, -2.513861e+001
7.968961e+002, -2.704485e+001
7.973782e+002, -2.907638e+001
7.978604e+002, -2.944542e+001
7.983425e+002, -2.807827e+001
7.988246e+002, -2.679345e+001
7.993067e+002, -2.556336e+001
7.997888e+002, -2.445725e+001
8.002709e+002, -2.297931e+001
8.007531e+002, -2.205183e+001
8.012352e+002, -2.285853e+001
8.017173e+002, -2.499422e+001
8.021994e+002, -2.643519e+001
8.026815e+002, -2.625588e+001
8.031636e+002, -2.585853e+001
8.036458e+002, -2.612218e+001
8.041279e+002, -2.646421e+001
8.046100e+002, -2.590414e+001
8.050921e+002, -2.470461e+001
8.055742e+002, -2.423273e+001
8.060563e+002, -2.528929e+001
8.065385e+002, -2.661249e+001
8.070206e+002, -2.583966e+001
8.075027e+002, -2.318457e+001
8.079848e+002, -2.172505e+001
8.084669e+002, -2.176025e+001
8.089490e+002, -2.210230e+001
8.094312e+002, -2.235018e+001
8.099133e+002, -2.246997e+001
8.103954e+002, -2.239286e+001
8.108775e+002, -2.208963e+001
8.113596e+002, -2.176208e+001
8.118417e+002, -2.105577e+001
8.123239e+002, -2.077496e+001
8.128060e+002, -2.137140e+001
8.132881e+002, -2.232425e+001
8.137702e+002, -2.351869e+001
8.142523e+002, -2.464711e+001
8.147344e+002, -2.473453e+001
8.152166e+002, -2.279153e+001
8.156987e+002, -2.070173e+001
8.161808e+002, -2.057837e+001
8.166629e+002, -2.176571e+001
8.171450e+002, -2.312547e+001
8.176271e+002, -2.439361e+001
8.181093e+002, -2.497297e+001
8.185914e+002, -2.452472e+001
8.190735e+002, -2.316487e+001
8.195556e+002, -2.079664e+001
8.200377e+002, -1.696956e+001
8.205198e+002, -1.502646e+001
8.210020e+002, -1.549695e+001
8.214841e+002, -1.685055e+001
8.219662e+002, -1.922558e+001
8.224483e+002, -2.171494e+001
8.229304e+002, -2.341999e+001
8.234125e+002, -2.433286e+001
8.238947e+002, -2.453000e+001
8.243768e+002, -2.336823e+001
8.248589e+002, -2.227956e+001
8.253410e+002, -2.211267e+001
8.258231e+002, -2.219488e+001
8.263052e+002, -2.170830e+001
8.267874e+002, -2.069549e+001
8.272695e+002, -1.962881e+001
8.277516e+002, -1.865938e+001
8.282337e+002, -1.827357e+001
8.287158e+002, -1.990017e+001
8.291979e+002, -2.277908e+001
8.296801e+002, -2.336279e+001
8.301622e+002, -2.132916e+001
8.306443e+002, -1.938318e+001
8.311264e+002, -1.886353e+001
8.316085e+002, -1.913970e+001
8.320906e+002, -1.915363e+001
8.325728e+002, -1.879662e+001
8.330549e+002, -1.897239e+001
8.335370e+002, -2.005336e+001
8.340191e+002, -2.113669e+001
8.345012e+002, -2.244885e+001
8.349833e+002, -2.334153e+001
8.354655e+002, -2.300029e+001
8.359476e+002, -2.167445e+001
8.364297e+002, -2.065116e+001
8.369118e+002, -2.016767e+001
8.373939e+002, -2.029888e+001
8.378760e+002, -2.187100e+001
8.383582e+002, -2.355894e+001
8.388403e+002, -2.354037e+001
8.393224e+002, -2.214876e+001
8.398045e+002, -2.086263e+001
8.402866e+002, -2.037539e+001
8.407687e+002, -2.062667e+001
8.412509e+002, -2.222176e+001
8.417330e+002, -2.465417e+001
8.422151e+002, -2.439743e+001
8.426972e+002, -2.117741e+001
8.431793e+002, -1.903928e+001
8.436614e+002, -1.965138e+001
8.441436e+002, -2.132342e+001
8.446257e+002, -2.225275e+001
8.451078e+002, -2.244625e+001
8.455899e+002, -2.208450e+001
8.460720e+002, -2.027035e+001
8.465541e+002, -1.922906e+001
8.470363e+002, -1.993293e+001
8.475184e+002, -2.070356e+001
8.480005e+002, -2.031506e+001
8.484826e+002, -1.921034e+001
8.489647e+002, -1.848091e+001
8.494468e+002, -1.841965e+001
8.499290e+002, -1.867080e+001
8.504111e+002, -1.933740e+001
8.508932e+002, -1.998720e+001
8.513753e+002, -1.983142e+001
8.518574e+002, -1.936017e+001
8.523395e+002, -1.995208e+001
8.528217e+002, -2.190706e+001
8.533038e+002, -2.393074e+001
8.537859e+002, -2.476282e+001
8.542680e+002, -2.465926e+001
8.547501e+002, -2.444140e+001
8.552322e+002, -2.410953e+001
8.557144e+002, -2.285527e+001
8.561965e+002, -2.009107e+001
8.566786e+002, -1.844385e+001
8.571607e+002, -2.052789e+001
8.576428e+002, -2.474279e+001
8.581249e+002, -2.577511e+001
8.586071e+002, -2.107561e+001
8.590892e+002, -1.872902e+001
8.595713e+002, -2.132289e+001
8.600534e+002, -2.318094e+001
8.605355e+002, -2.123104e+001
8.610176e+002, -1.807046e+001
8.614998e+002, -1.707691e+001
8.619819e+002, -1.853038e+001
8.624640e+002, -1.974539e+001
8.629461e+002, -1.877472e+001
8.634282e+002, -1.815292e+001
8.639103e+002, -2.047233e+001
8.643925e+002, -2.376046e+001
8.648746e+002, -2.519921e+001
8.653567e+002, -2.465322e+001
8.658388e+002, -2.345723e+001
8.663209e+002, -2.232546e+001
8.668030e+002, -2.142785e+001
8.672852e+002, -2.087681e+001
8.677673e+002, -2.076556e+001
8.682494e+002, -2.212765e+001
8.687315e+002, -2.510006e+001
8.692136e+002, -2.650933e+001
8.696957e+002, -2.473129e+001
8.701779e+002, -2.186830e+001
8.706600e+002, -2.058509e+001
8.711421e+002, -2.088099e+001
8.716242e+002, -2.245878e+001
8.721063e+002, -2.729464e+001
8.725884e+002, -2.992881e+001
8.730705e+002, -2.745951e+001
8.735526e+002, -2.437501e+001
8.740347e+002, -2.327580e+001
8.745168e+002, -2.363644e+001
8.749990e+002, -2.398312e+001
8.754811e+002, -2.398096e+001
8.759632e+002, -2.427798e+001
8.764453e+002, -2.562228e+001
8.769274e+002, -2.684165e+001
8.774095e+002, -2.655865e+001
8.778917e+002, -2.572909e+001
8.783738e+002, -2.654564e+001
8.788559e+002, -2.916969e+001
8.793380e+002, -3.079907e+001
8.798201e+002, -2.864678e+001
8.803022e+002, -2.495917e+001
8.807844e+002, -2.343277e+001
8.812665e+002, -2.356656e+001
8.817486e+002, -2.343911e+001
8.822307e+002, -2.277827e+001
8.827128e+002, -2.269082e+001
8.831949e+002, -2.395613e+001
8.836771e+002, -2.587924e+001
8.841592e+002, -2.699288e+001
8.846413e+002, -2.719227e+001
8.851234e+002, -2.739228e+001
8.856055e+002, -2.764231e+001
8.860876e+002, -2.776513e+001
8.865698e+002, -2.764690e+001
8.870519e+002, -2.742950e+001
8.875340e+002, -2.726668e+001
8.880161e+002, -2.715335e+001
8.884982e+002, -2.700328e+001
8.889803e+002, -2.596984e+001
8.894625e+002, -2.609005e+001
8.899446e+002, -2.917109e+001
8.904267e+002, -3.214396e+001
8.909088e+002, -3.252206e+001
8.913909e+002, -3.128841e+001
8.918730e+002, -3.064729e+001
8.923552e+002, -3.122088e+001
8.928373e+002, -3.188977e+001
8.933194e+002, -3.162617e+001
8.938015e+002, -3.136606e+001
8.942836e+002, -3.243202e+001
8.947657e+002, -3.419078e+001
8.952479e+002, -3.530111e+001
8.957300e+002, -3.548512e+001
8.962121e+002, -3.521571e+001
8.966942e+002, -3.482851e+001
8.971763e+002, -3.425189e+001
8.976584e+002, -3.308522e+001
8.981406e+002, -3.146162e+001
8.986227e+002, -3.083669e+001
8.991048e+002, -3.142414e+001
8.995869e+002, -3.192587e+001
9.000690e+002, -3.160706e+001
9.005511e+002, -3.129872e+001
9.010333e+002, -3.250998e+001
9.015154e+002, -3.540444e+001
9.019975e+002, -3.594481e+001
9.024796e+002, -3.206280e+001
9.029617e+002, -2.968250e+001
9.034438e+002, -3.105559e+001
9.039260e+002, -3.313866e+001
9.044081e+002, -3.392690e+001
9.048902e+002, -3.381995e+001
9.053723e+002, -3.393476e+001
9.058544e+002, -3.472928e+001
9.063365e+002, -3.476323e+001
9.068187e+002, -3.264861e+001
9.073008e+002, -3.077518e+001
9.077829e+002, -3.059941e+001
9.082650e+002, -3.155197e+001
9.087471e+002, -3.331458e+001
9.092292e+002, -3.545260e+001
9.097114e+002, -3.627117e+001
9.101935e+002, -3.369742e+001
9.106756e+002, -3.109284e+001
9.111577e+002, -3.306659e+001
9.116398e+002, -3.696736e+001
9.121219e+002, -3.741364e+001
9.126041e+002, -3.458905e+001
9.130862e+002, -3.223678e+001
9.135683e+002, -3.212743e+001
9.140504e+002, -3.330776e+001
9.145325e+002, -3.478238e+001
9.150146e+002, -3.643455e+001
9.154968e+002, -3.782189e+001
9.159789e+002, -3.897508e+001
9.164610e+002, -3.863779e+001
9.169431e+002, -3.609130e+001
9.174252e+002, -3.391418e+001
9.179073e+002, -3.446710e+001
9.183895e+002, -3.686228e+001
9.188716e+002, -3.777821e+001
9.193537e+002, -3.635307e+001
9.198358e+002, -3.568711e+001
9.203179e+002, -3.643370e+001
9.208000e+002, -3.701090e+001
9.212822e+002, -3.625711e+001
9.217643e+002, -3.537409e+001
9.222464e+002, -3.590961e+001
9.227285e+002, -3.780265e+001
9.232106e+002, -3.914746e+001
9.236927e+002, -3.952200e+001
9.241749e+002, -3.953544e+001
9.246570e+002, -3.924197e+001
9.251391e+002, -3.874870e+001
9.256212e+002, -3.820086e+001
9.261033e+002, -3.750403e+001
9.265854e+002, -3.623489e+001
9.270676e+002, -3.423841e+001
9.275497e+002, -3.283548e+001
9.280318e+002, -3.286155e+001
9.285139e+002, -3.393293e+001
9.289960e+002, -3.663483e+001
9.294781e+002, -3.975118e+001
9.299603e+002, -4.083912e+001
9.304424e+002, -3.973085e+001
9.309245e+002, -3.803717e+001
9.314066e+002, -3.670008e+001
9.318887e+002, -3.579445e+001
9.323708e+002, -3.547304e+001
9.328530e+002, -3.569510e+001
9.333351e+002, -3.648613e+001
9.338172e+002, -3.779187e+001
9.342993e+002, -3.882489e+001
9.347814e+002, -3.930861e+001
9.352635e+002, -3.918621e+001
9.357457e+002, -3.833795e+001
9.362278e+002, -3.686094e+001
9.367099e+002, -3.501916e+001
9.371920e+002, -3.222744e+001
9.376741e+002, -3.190426e+001
9.381563e+002, -3.561658e+001
9.386384e+002, -3.925225e+001
9.391205e+002, -4.087819e+001
9.396026e+002, -4.079908e+001
9.400847e+002, -3.927308e+001
9.405668e+002, -3.588837e+001
9.410490e+002, -3.351376e+001
9.415311e+002, -3.279655e+001
9.420132e+002, -3.215395e+001
9.424953e+002, -3.071179e+001
9.429774e+002, -2.976429e+001
9.434595e+002, -3.082164e+001
9.439417e+002, -3.306783e+001
9.444238e+002, -3.433917e+001
9.449059e+002, -3.407262e+001
9.453880e+002, -3.339177e+001
9.458701e+002, -3.186827e+001
9.463522e+002, -3.093163e+001
9.468344e+002, -3.216227e+001
9.473165e+002, -3.421914e+001
9.477986e+002, -3.526113e+001
9.482807e+002, -3.512770e+001
9.487628e+002, -3.487676e+001
9.492449e+002, -3.519318e+001
9.497271e+002, -3.526715e+001
9.502092e+002, -3.393028e+001
9.506913e+002, -3.207745e+001
9.511734e+002, -3.121328e+001
9.516555e+002, -3.112859e+001
9.521376e+002, -3.064078e+001
9.526198e+002, -2.940098e+001
9.531019e+002, -2.838369e+001
9.535840e+002, -2.880171e+001
9.540661e+002, -2.974975e+001
9.545482e+002, -2.861038e+001
9.550303e+002, -2.580352e+001
9.555124e+002, -2.411007e+001
9.559945e+002, -2.391683e+001
9.564766e+002, -2.452952e+001
9.569587e+002, -2.566695e+001
9.574409e+002, -2.690358e+001
9.579230e+002, -2.757939e+001
9.584051e+002, -2.770106e+001
9.588872e+002, -2.728968e+001
9.593693e+002, -2.606433e+001
9.598514e+002, -2.554069e+001
9.603336e+002, -2.619114e+001
9.608157e+002, -2.735621e+001
9.612978e+002, -2.903776e+001
9.617799e+002, -3.055490e+001
9.622620e+002, -2.973514e+001
9.627441e+002, -2.506860e+001
9.632263e+002, -2.276477e+001
9.637084e+002, -2.509600e+001
9.641905e+002, -2.672156e+001
9.646726e+002, -2.502929e+001
9.651547e+002, -2.304488e+001
9.656368e+002, -2.400723e+001
9.661190e+002, -2.710685e+001
9.666011e+002, -2.835067e+001
9.670832e+002, -2.623837e+001
9.675653e+002, -2.432264e+001
9.680474e+002, -2.329904e+001
9.685295e+002, -2.273136e+001
9.690117e+002, -2.270289e+001
9.694938e+002, -2.279467e+001
9.699759e+002, -2.227653e+001
9.704580e+002, -2.121905e+001
9.709401e+002, -2.073242e+001
9.714222e+002, -2.111427e+001
9.719044e+002, -2.250124e+001
9.723865e+002, -2.629465e+001
9.728686e+002, -3.010881e+001
9.733507e+002, -3.119660e+001
9.738328e+002, -3.017492e+001
9.743149e+002, -2.874502e+001
9.747971e+002, -2.749147e+001
9.752792e+002, -2.637898e+001
9.757613e+002, -2.534203e+001
9.762434e+002, -2.448359e+001
9.767255e+002, -2.393215e+001
9.772076e+002, -2.366854e+001
9.776898e+002, -2.350730e+001
9.781719e+002, -2.354604e+001
9.786540e+002, -2.453340e+001
9.791361e+002, -2.682240e+001
9.796182e+002, -2.908798e+001
9.801003e+002, -2.971493e+001
9.805825e+002, -2.898867e+001
9.810646e+002, -2.739198e+001
9.815467e+002, -2.513597e+001
9.820288e+002, -2.399635e+001
9.825109e+002, -2.432648e+001
9.829930e+002, -2.538945e+001
9.834752e+002, -2.684121e+001
9.839573e+002, -2.809627e+001
9.844394e+002, -2.776974e+001
9.849215e+002, -2.584371e+001
9.854036e+002, -2.529202e+001
9.858857e+002, -2.644960e+001
9.863679e+002, -2.695538e+001
9.868500e+002, -2.607538e+001
9.873321e+002, -2.469817e+001
9.878142e+002, -2.326713e+001
9.882963e+002, -2.214955e+001
9.887784e+002, -2.266965e+001
9.892606e+002, -2.558341e+001
9.897427e+002, -2.745455e+001
9.902248e+002, -2.811127e+001
9.907069e+002, -2.801753e+001
9.911890e+002, -2.688697e+001
9.916711e+002, -2.552859e+001
9.921533e+002, -2.463773e+001
9.926354e+002, -2.418477e+001
9.931175e+002, -2.399347e+001
9.935996e+002, -2.367185e+001
9.940817e+002, -2.431388e+001
9.945638e+002, -2.777972e+001
9.950460e+002, -3.000790e+001
9.955281e+002, -2.835420e+001
9.960102e+002, -2.543344e+001
9.964923e+002, -2.396624e+001
9.969744e+002, -2.394860e+001
9.974565e+002, -2.412002e+001
9.979387e+002, -2.415211e+001
9.984208e+002, -2.451675e+001
9.989029e+002, -2.594904e+001
9.993850e+002, -2.710229e+001
9.998671e+002, -2.698899e+001
1.000349e+003, -2.612620e+001
1.000831e+003, -2.497282e+001
1.001313e+003, -2.376219e+001
1.001796e+003, -2.346972e+001
1.002278e+003, -2.524110e+001
1.002760e+003, -2.689226e+001
1.003242e+003, -2.719589e+001
1.003724e+003, -2.687271e+001
1.004206e+003, -2.612607e+001
1.004688e+003, -2.544514e+001
1.005170e+003, -2.586551e+001
1.005653e+003, -2.748257e+001
1.006135e+003, -2.869648e+001
1.006617e+003, -2.829087e+001
1.007099e+003, -2.734739e+001
1.007581e+003, -2.693228e+001
1.008063e+003, -2.658770e+001
1.008545e+003, -2.549177e+001
1.009027e+003, -2.387671e+001
1.009509e+003, -2.243160e+001
1.009992e+003, -2.145307e+001
1.010474e+003, -2.123193e+001
1.010956e+003, -2.231899e+001
1.011438e+003, -2.398977e+001
1.011920e+003, -2.542173e+001
1.012402e+003, -2.650150e+001
1.012884e+003, -2.687766e+001
1.013366e+003, -2.660897e+001
1.013849e+003, -2.592433e+001
1.014331e+003, -2.495192e+001
1.014813e+003, -2.455602e+001
1.015295e+003, -2.617384e+001
1.015777e+003, -2.871467e+001
1.016259e+003, -2.942588e+001
1.016741e+003, -2.856592e+001
1.017223e+003, -2.704231e+001
1.017705e+003, -2.510245e+001
1.018188e+003, -2.348234e+001
1.018670e+003, -2.253754e+001
1.019152e+003, -2.257115e+001
1.019634e+003, -2.451594e+001
1.020116e+003, -2.765086e+001
1.020598e+003, -2.816812e+001
1.021080e+003, -2.617004e+001
1.021562e+003, -2.434816e+001
1.022044e+003, -2.315067e+001
1.022527e+003, -2.250097e+001
1.023009e+003, -2.241843e+001
1.023491e+003, -2.252761e+001
1.023973e+003, -2.211001e+001
1.024455e+003, -2.124681e+001
1.024937e+003, -2.146119e+001
1.025419e+003, -2.292409e+001
1.025901e+003, -2.410694e+001
1.026384e+003, -2.485001e+001
1.026866e+003, -2.458942e+001
1.027348e+003, -2.259638e+001
1.027830e+003, -2.021937e+001
1.028312e+003, -2.010036e+001
1.028794e+003, -2.235746e+001
1.029276e+003, -2.398328e+001
1.029758e+003, -2.500637e+001
1.030240e+003, -2.523347e+001
1.030723e+003, -2.432223e+001
1.031205e+003, -2.334204e+001
1.031687e+003, -2.304564e+001
1.032169e+003, -2.305754e+001
1.032651e+003, -2.247397e+001
1.033133e+003, -2.106449e+001
1.033615e+003, -2.118387e+001
1.034097e+003, -2.439757e+001
1.034579e+003, -2.561459e+001
1.035062e+003, -2.276349e+001
1.035544e+003, -1.938272e+001
1.036026e+003, -1.768672e+001
1.036508e+003, -1.712883e+001
1.036990e+003, -1.660902e+001
1.037472e+003, -1.610462e+001
1.037954e+003, -1.576079e+001
1.038436e+003, -1.541582e+001
1.038919e+003, -1.550236e+001
1.039401e+003, -1.638019e+001
1.039883e+003, -1.739634e+001
1.040365e+003, -1.807416e+001
1.040847e+003, -1.861637e+001
1.041329e+003, -1.959312e+001
1.041811e+003, -2.127249e+001
1.042293e+003, -2.198408e+001
1.042776e+003, -2.122213e+001
1.043258e+003, -2.016342e+001
1.043740e+003, -1.786650e+001
1.044222e+003, -1.648855e+001
1.044704e+003, -1.824122e+001
1.045186e+003, -2.162778e+001
1.045668e+003, -2.387720e+001
1.046150e+003, -2.481165e+001
1.046632e+003, -2.457599e+001
1.047115e+003, -2.206159e+001
1.047597e+003, -1.993313e+001
1.048079e+003, -1.922566e+001
1.048561e+003, -1.874154e+001
1.049043e+003, -1.689509e+001
1.049525e+003, -1.494566e+001
1.050007e+003, -1.567364e+001
1.050489e+003, -1.967739e+001
1.050971e+003, -2.274224e+001
1.051454e+003, -2.470409e+001
1.051936e+003, -2.472887e+001
1.052418e+003, -2.040979e+001
1.052900e+003, -1.614852e+001
1.053382e+003, -1.537361e+001
1.053864e+003, -1.684598e+001
1.054346e+003, -1.822977e+001
1.054828e+003, -1.920576e+001
1.055311e+003, -1.965868e+001
1.055793e+003, -1.913605e+001
1.056275e+003, -1.865885e+001
1.056757e+003, -1.858407e+001
1.057239e+003, -1.867294e+001
1.057721e+003, -1.859626e+001
1.058203e+003, -1.861610e+001
1.058685e+003, -1.941904e+001
1.059167e+003, -2.107153e+001
1.059650e+003, -2.212120e+001
1.060132e+003, -2.212124e+001
1.060614e+003, -2.140292e+001
1.061096e+003, -1.917090e+001
1.061578e+003, -1.716547e+001
1.062060e+003, -1.699728e+001
1.062542e+003, -1.784107e+001
1.063024e+003, -1.837489e+001
1.063506e+003, -1.834805e+001
1.063989e+003, -1.781133e+001
1.064471e+003, -1.620208e+001
1.064953e+003, -1.490864e+001
1.065435e+003, -1.461224e+001
1.065917e+003, -1.473673e+001
1.066399e+003, -1.467720e+001
1.066881e+003, -1.482215e+001
1.067363e+003, -1.633731e+001
1.067846e+003, -1.904417e+001
1.068328e+003, -2.032871e+001
1.068810e+003, -1.844901e+001
1.069292e+003, -1.632471e+001
1.069774e+003, -1.520504e+001
1.070256e+003, -1.438594e+001
1.070738e+003, -1.267656e+001
1.071220e+003, -1.129428e+001
1.071703e+003, -1.280547e+001
1.072185e+003, -1.678397e+001
1.072667e+003, -1.879291e+001
1.073149e+003, -1.569349e+001
1.073631e+003, -1.389951e+001
1.074113e+003, -1.861506e+001
1.074595e+003, -2.338767e+001
1.075077e+003, -2.297466e+001
1.075559e+003, -2.011567e+001
1.076042e+003, -1.862775e+001
1.076524e+003, -1.869724e+001
1.077006e+003, -1.827430e+001
1.077488e+003, -1.630318e+001
1.077970e+003, -1.492165e+001
1.078452e+003, -1.595072e+001
1.078934e+003, -1.699308e+001
1.079416e+003, -1.618700e+001
1.079898e+003, -1.463596e+001
1.080380e+003, -1.321885e+001
1.080863e+003, -1.240374e+001
1.081345e+003, -1.342966e+001
1.081827e+003, -1.734135e+001
1.082309e+003, -1.971502e+001
1.082791e+003, -1.689344e+001
1.083273e+003, -1.388249e+001
1.083755e+003, -1.374946e+001
1.084237e+003, -1.501577e+001
1.084720e+003, -1.645285e+001
1.085202e+003, -1.769849e+001
1.085684e+003, -1.851630e+001
1.086166e+003, -1.888479e+001
1.086648e+003, -1.836511e+001
1.087130e+003, -1.570347e+001
1.087612e+003, -1.343592e+001
1.088094e+003, -1.297598e+001
1.088577e+003, -1.341269e+001
1.089059e+003, -1.422319e+001
1.089541e+003, -1.511061e+001
1.090023e+003, -1.563135e+001
1.090505e+003, -1.569757e+001
1.090987e+003, -1.580581e+001
1.091469e+003, -1.613062e+001
1.091951e+003, -1.655271e+001
1.092433e+003, -1.759295e+001
1.092916e+003, -1.815937e+001
1.093398e+003, -1.671737e+001
1.093880e+003, -1.450109e+001
1.094362e+003, -1.392367e+001
1.094844e+003, -1.515610e+001
1.095326e+003, -1.547803e+001
1.095808e+003, -1.250625e+001
1.096290e+003, -1.076713e+001
1.096772e+003, -1.312775e+001
1.097255e+003, -1.568686e+001
1.097737e+003, -1.559231e+001
1.098219e+003, -1.441564e+001
1.098701e+003, -1.455511e+001
1.099183e+003, -1.598617e+001
1.099665e+003, -1.678125e+001
1.100147e+003, -1.611260e+001
1.100629e+003, -1.559199e+001
1.101112e+003, -1.593354e+001
1.101594e+003, -1.616051e+001
1.102076e+003, -1.551727e+001
1.102558e+003, -1.472615e+001
1.103040e+003, -1.474405e+001
1.103522e+003, -1.532358e+001
1.104004e+003, -1.517835e+001
1.104486e+003, -1.342488e+001
1.104969e+003, -1.318598e+001
1.105451e+003, -1.757315e+001
1.105933e+003, -2.022042e+001
1.106415e+003, -1.764128e+001
1.106897e+003, -1.364250e+001
1.107379e+003, -1.009785e+001
1.107861e+003, -7.825266e+000
1.108343e+003, -9.027102e+000
1.108825e+003, -1.486955e+001
1.109307e+003, -1.829142e+001
1.109790e+003, -1.678555e+001
1.110272e+003, -1.551130e+001
1.110754e+003, -1.565688e+001
1.111236e+003, -1.614128e+001
1.111718e+003, -1.634180e+001
1.112200e+003, -1.644399e+001
1.112682e+003, -1.704439e+001
1.113164e+003, -1.823597e+001
1.113647e+003, -1.794479e+001
1.114129e+003, -1.379256e+001
1.114611e+003, -1.217424e+001
1.115093e+003, -1.607001e+001
1.115575e+003, -1.904674e+001
1.116057e+003, -1.748796e+001
1.116539e+003, -1.449557e+001
1.117021e+003, -1.375285e+001
1.117504e+003, -1.487789e+001
1.117986e+003, -1.495770e+001
1.118468e+003, -1.297355e+001
1.118950e+003, -1.243880e+001
1.119432e+003, -1.416176e+001
1.119914e+003, -1.582100e+001
1.120396e+003, -1.697850e+001
1.120878e+003, -1.731344e+001
1.121360e+003, -1.616346e+001
1.121843e+003, -1.425855e+001
1.122325e+003, -1.384172e+001
1.122807e+003, -1.522880e+001
1.123289e+003, -1.619660e+001
1.123771e+003, -1.669491e+001
1.124253e+003, -1.699092e+001
1.124735e+003, -1.723701e+001
1.125217e+003, -1.695341e+001
1.125699e+003, -1.571355e+001
1.126182e+003, -1.399737e+001
1.126664e+003, -1.248423e+001
1.127146e+003, -1.123128e+001
1.127628e+003, -1.150886e+001
1.128110e+003, -1.353088e+001
1.128592e+003, -1.522456e+001
1.129074e+003, -1.636479e+001
1.129556e+003, -1.662095e+001
1.130039e+003, -1.567583e+001
1.130521e+003, -1.481323e+001
1.131003e+003, -1.569071e+001
1.131485e+003, -1.753509e+001
1.131967e+003, -1.761868e+001
1.132449e+003, -1.600385e+001
1.132931e+003, -1.307814e+001
1.133413e+003, -8.967420e+000
1.133896e+003, -8.160315e+000
1.134378e+003, -1.201556e+001
1.134860e+003, -1.552026e+001
1.135342e+003, -1.466699e+001
1.135824e+003, -1.177512e+001
1.136306e+003, -1.115537e+001
1.136788e+003, -1.208649e+001
1.137270e+003, -1.145616e+001
1.137752e+003, -9.703401e+000
1.138234e+003, -9.494534e+000
1.138717e+003, -1.103326e+001
1.139199e+003, -1.178670e+001
1.139681e+003, -1.045356e+001
1.140163e+003, -8.942847e+000
1.140645e+003, -1.001883e+001
1.141127e+003, -1.174103e+001
1.141609e+003, -9.541602e+000
1.142091e+003, -5.620990e+000
1.142574e+003, -5.531464e+000
1.143056e+003, -8.464568e+000
1.143538e+003, -9.496195e+000
1.144020e+003, -7.304421e+000
1.144502e+003, -5.048846e+000
1.144984e+003, -4.789070e+000
1.145466e+003, -5.799426e+000
1.145948e+003, -8.569800e+000
1.146431e+003, -1.115693e+001
1.146913e+003, -1.061949e+001
1.147395e+003, -8.237989e+000
1.147877e+003, -6.400161e+000
1.148359e+003, -5.477686e+000
1.148841e+003, -4.683487e+000
1.149323e+003, -3.595014e+000
1.149805e+003, -3.138416e+000
1.150287e+003, -4.496265e+000
1.150770e+003, -6.015235e+000
1.151252e+003, -6.407948e+000
1.151734e+003, -6.404502e+000
1.152216e+003, -7.012663e+000
1.152698e+003, -7.865324e+000
1.153180e+003, -7.675523e+000
1.153662e+003, -6.187057e+000
1.154144e+003, -5.631833e+000
1.154626e+003, -8.137042e+000
1.155109e+003, -9.727856e+000
1.155591e+003, -8.006264e+000
1.156073e+003, -6.171235e+000
1.156555e+003, -6.269172e+000
1.157037e+003, -7.390457e+000
1.157519e+003, -8.592937e+000
1.158001e+003, -9.667350e+000
1.158483e+003, -9.842104e+000
1.158966e+003, -8.737594e+000
1.159448e+003, -7.401072e+000
1.159930e+003, -4.752397e+000
1.160412e+003, -3.470471e+000
1.160894e+003, -5.266263e+000
1.161376e+003, -7.541466e+000
1.161858e+003, -8.672607e+000
1.162340e+003, -8.767371e+000
1.162822e+003, -7.932183e+000
1.163305e+003, -6.050706e+000
1.163787e+003, -4.392354e+000
1.164269e+003, -2.643811e+000
1.164751e+003, -2.073704e+000
1.165233e+003, -2.946634e+000
1.165715e+003, -4.944945e+000
1.166197e+003, -8.517419e+000
1.166679e+003, -1.160280e+001
1.167161e+003, -1.167293e+001
1.167644e+003, -9.323112e+000
1.168126e+003, -6.607886e+000
1.168608e+003, -3.460944e+000
1.169090e+003, -2.251627e+000
1.169572e+003, -3.131600e+000
1.170054e+003, -4.250028e+000
1.170536e+003, -5.117806e+000
1.171018e+003, -5.446699e+000
1.171500e+003, -5.004670e+000
1.171983e+003, -4.130209e+000
1.172465e+003, -3.109753e+000
1.172947e+003, -2.195899e+000
1.173429e+003, -2.418417e+000
1.173911e+003, -3.494630e+000
1.174393e+003, -4.456161e+000
1.174875e+003, -5.148367e+000
1.175357e+003, -5.554540e+000
1.175840e+003, -5.692848e+000
1.176322e+003, -5.851363e+000
1.176804e+003, -6.419889e+000
1.177286e+003, -6.784709e+000
1.177768e+003, -5.672265e+000
1.178250e+003, -4.245871e+000
1.178732e+003, -4.566927e+000
1.179214e+003, -5.762948e+000
1.179697e+003, -5.988768e+000
1.180179e+003, -5.042559e+000
1.180661e+003, -3.616219e+000
1.181143e+003, -1.912764e+000
1.181625e+003, -4.534002e-001
1.182107e+003, 4.746852e-001
1.182589e+003, 1.008064e+000
1.183071e+003, 1.123367e+000
1.183553e+003, 9.801616e-001
1.184036e+003, 7.626558e-001
1.184518e+003, 3.853664e-001
1.185000e+003, -5.767867e-001
1.185482e+003, -2.100120e+000
1.185964e+003, -2.810696e+000
1.186446e+003, -1.540497e+000
1.186928e+003, -8.317233e-001
1.187410e+003, -2.448879e+000
1.187892e+003, -3.032886e+000
1.188375e+003, 3.152396e-001
1.188857e+003, 4.010336e+000
1.189339e+003, 4.323475e+000
1.189821e+003, 2.495845e+000
1.190303e+003, 2.221000e+000
1.190785e+003, 3.983917e+000
1.191267e+003, 4.364145e+000
1.191749e+003, 2.803629e+000
1.192232e+003, 1.348994e+000
1.192714e+003, 1.212635e-001
1.193196e+003, -3.187210e-001
1.193678e+003, 4.437743e-001
1.194160e+003, 1.757406e+000
1.194642e+003, 2.884395e+000
1.195124e+003, 3.824162e+000
1.195606e+003, 4.564397e+000
1.196089e+003, 5.106493e+000
1.196571e+003, 5.554451e+000
1.197053e+003, 5.885946e+000
1.197535e+003, 5.521188e+000
1.198017e+003, 4.348516e+000
1.198499e+003, 2.980436e+000
1.198981e+003, 1.771980e+000
1.199463e+003, 9.209298e-001
1.199945e+003, 9.762878e-001
1.200427e+003, 1.358965e+000
1.200910e+003, 2.555989e-001
1.201392e+003, -1.158737e+000
1.201874e+003, 5.566862e-001
1.202356e+003, 4.319445e+000
1.202838e+003, 5.637351e+000
1.203320e+003, 3.695721e+000
1.203802e+003, 2.447684e+000
1.204284e+003, 4.651006e+000
1.204767e+003, 6.821732e+000
1.205249e+003, 6.391504e+000
1.205731e+003, 4.762687e+000
1.206213e+003, 1.889990e+000
1.206695e+003, -5.912225e-001
1.207177e+003, -2.015805e-001
1.207659e+003, 2.050883e+000
1.208141e+003, 2.885304e+000
1.208624e+003, 1.514546e+000
1.209106e+003, 1.373165e+000
1.209588e+003, 5.044670e+000
1.210070e+003, 7.370816e+000
1.210552e+003, 5.982821e+000
1.211034e+003, 4.563930e+000
1.211516e+003, 5.087289e+000
1.211998e+003, 6.355076e+000
1.212480e+003, 7.444677e+000
1.212963e+003, 8.219924e+000
1.213445e+003, 7.983831e+000
1.213927e+003, 6.239117e+000
1.214409e+003, 6.209912e+000
1.214891e+003, 8.588702e+000
1.215373e+003, 9.771526e+000
1.215855e+003, 8.803303e+000
1.216337e+003, 7.954516e+000
1.216819e+003, 8.425616e+000
1.217302e+003, 9.603700e+000
1.217784e+003, 1.086233e+001
1.218266e+003, 1.203132e+001
1.218748e+003, 1.274545e+001
1.219230e+003, 1.289720e+001
1.219712e+003, 1.139784e+001
1.220194e+003, 8.689899e+000
1.220676e+003, 7.237717e+000
1.221159e+003, 7.517001e+000
1.221641e+003, 8.627275e+000
1.222123e+003, 1.012209e+001
1.222605e+003, 1.136194e+001
1.223087e+003, 1.187994e+001
1.223569e+003, 1.162845e+001
1.224051e+003, 9.811872e+000
1.224533e+003, 7.758300e+000
1.225016e+003, 7.231932e+000
1.225498e+003, 7.873280e+000
1.225980e+003, 8.953394e+000
1.226462e+003, 1.015695e+001
1.226944e+003, 1.096966e+001
1.227426e+003, 1.151730e+001
1.227908e+003, 1.072713e+001
1.228390e+003, 6.134006e+000
1.228872e+003, 2.887691e+000
1.229354e+003, 4.292381e+000
1.229837e+003, 6.763661e+000
1.230319e+003, 7.624350e+000
1.230801e+003, 7.531500e+000
1.231283e+003, 7.794718e+000
1.231765e+003, 8.399763e+000
1.232247e+003, 8.849768e+000
1.232729e+003, 9.265090e+000
1.233211e+003, 9.025968e+000
1.233694e+003, 7.717796e+000
1.234176e+003, 7.254832e+000
1.234658e+003, 8.415362e+000
1.235140e+003, 9.580180e+000
1.235622e+003, 9.501046e+000
1.236104e+003, 9.075670e+000
1.236586e+003, 9.945078e+000
1.237068e+003, 1.173317e+001
1.237551e+003, 1.317405e+001
1.238033e+003, 1.410644e+001
1.238515e+003, 1.323357e+001
1.238997e+003, 1.102980e+001
1.239479e+003, 1.045275e+001
1.239961e+003, 1.211520e+001
1.240443e+003, 1.360764e+001
1.240925e+003, 1.339251e+001
1.241407e+003, 1.257055e+001
1.241890e+003, 1.170183e+001
1.242372e+003, 1.126071e+001
1.242854e+003, 1.229251e+001
1.243336e+003, 1.356512e+001
1.243818e+003, 1.293138e+001
1.244300e+003, 1.153530e+001
1.244782e+003, 1.249152e+001
1.245264e+003, 1.605017e+001
1.245746e+003, 1.828232e+001
1.246229e+003, 1.716860e+001
1.246711e+003, 1.651532e+001
1.247193e+003, 1.798816e+001
1.247675e+003, 1.860848e+001
1.248157e+003, 1.662827e+001
1.248639e+003, 1.438040e+001
1.249121e+003, 1.356074e+001
1.249603e+003, 1.345032e+001
1.250085e+003, 1.264459e+001
1.250568e+003, 1.123942e+001
1.251050e+003, 1.093453e+001
1.251532e+003, 1.180958e+001
1.252014e+003, 1.308035e+001
1.252496e+003, 1.472249e+001
1.252978e+003, 1.570838e+001
1.253460e+003, 1.573515e+001
1.253942e+003, 1.605580e+001
1.254425e+003, 1.759747e+001
1.254907e+003, 1.912806e+001
1.255389e+003, 1.861030e+001
1.255871e+003, 1.713255e+001
1.256353e+003, 1.662772e+001
1.256835e+003, 1.675127e+001
1.257317e+003, 1.686990e+001
1.257799e+003, 1.705160e+001
1.258281e+003, 1.798599e+001
1.258764e+003, 1.950183e+001
1.259246e+003, 1.979711e+001
1.259728e+003, 1.756472e+001
1.260210e+003, 1.612431e+001
1.260692e+003, 1.741460e+001
1.261174e+003, 1.933632e+001
1.261656e+003, 2.166857e+001
1.262138e+003, 2.346999e+001
1.262620e+003, 2.361625e+001
1.263103e+003, 2.303035e+001
1.263585e+003, 2.342298e+001
1.264067e+003, 2.457379e+001
1.264549e+003, 2.446675e+001
1.265031e+003, 2.268117e+001
1.265513e+003, 2.103125e+001
1.265995e+003, 1.952032e+001
1.266477e+003, 1.809513e+001
1.266960e+003, 1.664583e+001
1.267442e+003, 1.606830e+001
1.267924e+003, 1.692771e+001
1.268406e+003, 1.826045e+001
1.268888e+003, 1.886926e+001
1.269370e+003, 1.923648e+001
1.269852e+003, 2.056669e+001
1.270334e+003, 2.251297e+001
1.270817e+003, 2.463386e+001
1.271299e+003, 2.648697e+001
1.271781e+003, 2.687014e+001
1.272263e+003, 2.590976e+001
1.272745e+003, 2.475149e+001
1.273227e+003, 2.383158e+001
1.273709e+003, 2.329289e+001
1.274191e+003, 2.344867e+001
1.274673e+003, 2.368314e+001
1.275156e+003, 2.359548e+001
1.275638e+003, 2.358795e+001
1.276120e+003, 2.359930e+001
1.276602e+003, 2.409646e+001
1.277084e+003, 2.606285e+001
1.277566e+003, 2.888664e+001
1.278048e+003, 3.061307e+001
1.278530e+003, 3.121917e+001
1.279012e+003, 3.079920e+001
1.279495e+003, 2.894905e+001
1.279977e+003, 2.728271e+001
1.280459e+003, 2.561647e+001
1.280941e+003, 2.668399e+001
1.281423e+003, 3.193152e+001
1.281905e+003, 3.579449e+001
1.282387e+003, 3.363334e+001
1.282869e+003, 2.895547e+001
1.283352e+003, 2.719758e+001
1.283834e+003, 2.768732e+001
1.284316e+003, 2.899685e+001
1.284798e+003, 3.112902e+001
##END=



