##NAMES=Lazaraskeite
##RRUFFID=R180026
##IDEAL CHEMISTRY=Cu^2+^(C_2_H_3_O_3_)_2_
##LOCALITY=Western end of Pusch Ridge in the Santa Catalina Mountains, north of Tucson, Pima County, Arizona, USA
##OWNER=RRUFF
##SOURCE=Warren Lazar
##DESCRIPTION=Pale blue to blue prismatic or bladed crystals, associated with chrysocolla, muscovite, orthoclase, calcite, and quartz. Type specimen (UAMM 22052)
##STATUS=The identification of this mineral is confirmed by single-crystal X-ray diffraction and chemical analysis.
##URL=rruff.info/R180026
##MEASURED CHEMISTRY=Cu^2+^_1.01_(C_1.994_H_3_O_3_)_2_ ; The C content of 22.6(2) wt.% was obtained from an Elemental Combustion System equipped with mass spectrometry. Crystals are easily damaged by electron beam (lower photo),
8.813672e+001, 6.953137e+003
8.861884e+001, 6.903289e+003
8.910095e+001, 6.953854e+003
8.958307e+001, 7.201770e+003
9.006519e+001, 7.512756e+003
9.054730e+001, 7.756738e+003
9.102942e+001, 7.940487e+003
9.151154e+001, 8.041548e+003
9.199365e+001, 8.034283e+003
9.247577e+001, 7.931065e+003
9.295789e+001, 7.762409e+003
9.344000e+001, 7.526390e+003
9.392212e+001, 7.234492e+003
9.440424e+001, 6.908526e+003
9.488635e+001, 6.555181e+003
9.536847e+001, 6.192669e+003
9.585059e+001, 5.843768e+003
9.633270e+001, 5.506608e+003
9.681482e+001, 5.189552e+003
9.729694e+001, 4.898017e+003
9.777905e+001, 4.630596e+003
9.826117e+001, 4.392471e+003
9.874329e+001, 4.186928e+003
9.922540e+001, 4.009925e+003
9.970752e+001, 3.849081e+003
1.001896e+002, 3.704845e+003
1.006718e+002, 3.578368e+003
1.011539e+002, 3.472890e+003
1.016360e+002, 3.388647e+003
1.021181e+002, 3.319611e+003
1.026002e+002, 3.265386e+003
1.030823e+002, 3.225811e+003
1.035645e+002, 3.201212e+003
1.040466e+002, 3.192013e+003
1.045287e+002, 3.196292e+003
1.050108e+002, 3.212232e+003
1.054929e+002, 3.237806e+003
1.059750e+002, 3.277951e+003
1.064572e+002, 3.333291e+003
1.069393e+002, 3.403843e+003
1.074214e+002, 3.488340e+003
1.079035e+002, 3.588853e+003
1.083856e+002, 3.702480e+003
1.088677e+002, 3.824135e+003
1.093499e+002, 3.948170e+003
1.098320e+002, 4.087643e+003
1.103141e+002, 4.248930e+003
1.107962e+002, 4.444224e+003
1.112783e+002, 4.631245e+003
1.117604e+002, 4.824074e+003
1.122426e+002, 5.006925e+003
1.127247e+002, 5.151670e+003
1.132068e+002, 5.262325e+003
1.136889e+002, 5.328819e+003
1.141710e+002, 5.343521e+003
1.146531e+002, 5.293562e+003
1.151353e+002, 5.214845e+003
1.156174e+002, 5.098592e+003
1.160995e+002, 4.957500e+003
1.165816e+002, 4.823077e+003
1.170637e+002, 4.698290e+003
1.175458e+002, 4.589074e+003
1.180280e+002, 4.498223e+003
1.185101e+002, 4.428145e+003
1.189922e+002, 4.375675e+003
1.194743e+002, 4.343233e+003
1.199564e+002, 4.328867e+003
1.204385e+002, 4.324698e+003
1.209207e+002, 4.332987e+003
1.214028e+002, 4.347081e+003
1.218849e+002, 4.359621e+003
1.223670e+002, 4.371413e+003
1.228491e+002, 4.378136e+003
1.233312e+002, 4.377132e+003
1.238134e+002, 4.368090e+003
1.242955e+002, 4.348527e+003
1.247776e+002, 4.314418e+003
1.252597e+002, 4.267909e+003
1.257418e+002, 4.213605e+003
1.262239e+002, 4.148115e+003
1.267061e+002, 4.076522e+003
1.271882e+002, 4.008298e+003
1.276703e+002, 3.942799e+003
1.281524e+002, 3.880586e+003
1.286345e+002, 3.821827e+003
1.291166e+002, 3.766792e+003
1.295988e+002, 3.716425e+003
1.300809e+002, 3.670917e+003
1.305630e+002, 3.630568e+003
1.310451e+002, 3.596854e+003
1.315272e+002, 3.570945e+003
1.320093e+002, 3.549542e+003
1.324915e+002, 3.527233e+003
1.329736e+002, 3.504047e+003
1.334557e+002, 3.483483e+003
1.339378e+002, 3.469167e+003
1.344199e+002, 3.460517e+003
1.349020e+002, 3.449397e+003
1.353842e+002, 3.434299e+003
1.358663e+002, 3.417272e+003
1.363484e+002, 3.403050e+003
1.368305e+002, 3.392511e+003
1.373126e+002, 3.379810e+003
1.377947e+002, 3.361495e+003
1.382769e+002, 3.337046e+003
1.387590e+002, 3.309033e+003
1.392411e+002, 3.278052e+003
1.397232e+002, 3.243421e+003
1.402053e+002, 3.204146e+003
1.406874e+002, 3.158282e+003
1.411696e+002, 3.110920e+003
1.416517e+002, 3.065874e+003
1.421338e+002, 3.022802e+003
1.426159e+002, 2.982900e+003
1.430980e+002, 2.947433e+003
1.435801e+002, 2.916079e+003
1.440623e+002, 2.881220e+003
1.445444e+002, 2.838699e+003
1.450265e+002, 2.797582e+003
1.455086e+002, 2.765827e+003
1.459907e+002, 2.746924e+003
1.464728e+002, 2.731598e+003
1.469550e+002, 2.718595e+003
1.474371e+002, 2.707970e+003
1.479192e+002, 2.700160e+003
1.484013e+002, 2.694602e+003
1.488834e+002, 2.692154e+003
1.493655e+002, 2.693577e+003
1.498477e+002, 2.698032e+003
1.503298e+002, 2.707177e+003
1.508119e+002, 2.722662e+003
1.512940e+002, 2.745802e+003
1.517761e+002, 2.767256e+003
1.522583e+002, 2.781839e+003
1.527404e+002, 2.796019e+003
1.532225e+002, 2.816784e+003
1.537046e+002, 2.847197e+003
1.541867e+002, 2.881832e+003
1.546688e+002, 2.921151e+003
1.551510e+002, 2.968091e+003
1.556331e+002, 3.009632e+003
1.561152e+002, 3.037833e+003
1.565973e+002, 3.060671e+003
1.570794e+002, 3.088523e+003
1.575615e+002, 3.130589e+003
1.580437e+002, 3.172785e+003
1.585258e+002, 3.209131e+003
1.590079e+002, 3.237180e+003
1.594900e+002, 3.264989e+003
1.599721e+002, 3.296125e+003
1.604542e+002, 3.328471e+003
1.609364e+002, 3.358308e+003
1.614185e+002, 3.382297e+003
1.619006e+002, 3.404768e+003
1.623827e+002, 3.427793e+003
1.628648e+002, 3.451173e+003
1.633469e+002, 3.476236e+003
1.638291e+002, 3.504743e+003
1.643112e+002, 3.535297e+003
1.647933e+002, 3.565365e+003
1.652754e+002, 3.594755e+003
1.657575e+002, 3.622656e+003
1.662396e+002, 3.648322e+003
1.667218e+002, 3.671086e+003
1.672039e+002, 3.692684e+003
1.676860e+002, 3.715950e+003
1.681681e+002, 3.739309e+003
1.686502e+002, 3.758528e+003
1.691323e+002, 3.774672e+003
1.696145e+002, 3.783936e+003
1.700966e+002, 3.782157e+003
1.705787e+002, 3.767099e+003
1.710608e+002, 3.742714e+003
1.715429e+002, 3.711825e+003
1.720250e+002, 3.673922e+003
1.725072e+002, 3.628977e+003
1.729893e+002, 3.572191e+003
1.734714e+002, 3.508771e+003
1.739535e+002, 3.445989e+003
1.744356e+002, 3.386531e+003
1.749177e+002, 3.327348e+003
1.753999e+002, 3.262805e+003
1.758820e+002, 3.193105e+003
1.763641e+002, 3.125604e+003
1.768462e+002, 3.063132e+003
1.773283e+002, 3.005578e+003
1.778104e+002, 2.952358e+003
1.782926e+002, 2.903014e+003
1.787747e+002, 2.858963e+003
1.792568e+002, 2.823118e+003
1.797389e+002, 2.795651e+003
1.802210e+002, 2.773146e+003
1.807031e+002, 2.753262e+003
1.811853e+002, 2.736472e+003
1.816674e+002, 2.724546e+003
1.821495e+002, 2.718261e+003
1.826316e+002, 2.717125e+003
1.831137e+002, 2.720426e+003
1.835958e+002, 2.728176e+003
1.840780e+002, 2.740225e+003
1.845601e+002, 2.757906e+003
1.850422e+002, 2.780099e+003
1.855243e+002, 2.803942e+003
1.860064e+002, 2.830336e+003
1.864885e+002, 2.857008e+003
1.869707e+002, 2.878335e+003
1.874528e+002, 2.894664e+003
1.879349e+002, 2.904061e+003
1.884170e+002, 2.905891e+003
1.888991e+002, 2.899813e+003
1.893812e+002, 2.882989e+003
1.898634e+002, 2.853852e+003
1.903455e+002, 2.813199e+003
1.908276e+002, 2.762250e+003
1.913097e+002, 2.699616e+003
1.917918e+002, 2.631512e+003
1.922739e+002, 2.562976e+003
1.927561e+002, 2.493188e+003
1.932382e+002, 2.426597e+003
1.937203e+002, 2.364243e+003
1.942024e+002, 2.306008e+003
1.946845e+002, 2.248980e+003
1.951666e+002, 2.192860e+003
1.956488e+002, 2.139956e+003
1.961309e+002, 2.093495e+003
1.966130e+002, 2.053057e+003
1.970951e+002, 2.016461e+003
1.975772e+002, 1.983560e+003
1.980593e+002, 1.954024e+003
1.985415e+002, 1.923315e+003
1.990236e+002, 1.890508e+003
1.995057e+002, 1.859332e+003
1.999878e+002, 1.835754e+003
2.004699e+002, 1.820587e+003
2.009520e+002, 1.807359e+003
2.014342e+002, 1.794422e+003
2.019163e+002, 1.781774e+003
2.023984e+002, 1.769460e+003
2.028805e+002, 1.757256e+003
2.033626e+002, 1.745948e+003
2.038447e+002, 1.735713e+003
2.043269e+002, 1.725794e+003
2.048090e+002, 1.720746e+003
2.052911e+002, 1.723280e+003
2.057732e+002, 1.733572e+003
2.062553e+002, 1.742205e+003
2.067374e+002, 1.747851e+003
2.072196e+002, 1.753810e+003
2.077017e+002, 1.764350e+003
2.081838e+002, 1.779535e+003
2.086659e+002, 1.799035e+003
2.091480e+002, 1.822681e+003
2.096301e+002, 1.850726e+003
2.101123e+002, 1.881981e+003
2.105944e+002, 1.916652e+003
2.110765e+002, 1.954473e+003
2.115586e+002, 1.994684e+003
2.120407e+002, 2.036421e+003
2.125228e+002, 2.083186e+003
2.130050e+002, 2.136302e+003
2.134871e+002, 2.195917e+003
2.139692e+002, 2.257321e+003
2.144513e+002, 2.319457e+003
2.149334e+002, 2.384538e+003
2.154155e+002, 2.456155e+003
2.158977e+002, 2.533392e+003
2.163798e+002, 2.619611e+003
2.168619e+002, 2.714357e+003
2.173440e+002, 2.816358e+003
2.178261e+002, 2.933008e+003
2.183082e+002, 3.061965e+003
2.187904e+002, 3.206252e+003
2.192725e+002, 3.369757e+003
2.197546e+002, 3.550212e+003
2.202367e+002, 3.751473e+003
2.207188e+002, 3.969637e+003
2.212009e+002, 4.203893e+003
2.216831e+002, 4.474349e+003
2.221652e+002, 4.777542e+003
2.226473e+002, 5.120037e+003
2.231294e+002, 5.503948e+003
2.236115e+002, 5.933243e+003
2.240936e+002, 6.403006e+003
2.245758e+002, 6.921948e+003
2.250579e+002, 7.492726e+003
2.255400e+002, 8.082538e+003
2.260221e+002, 8.710688e+003
2.265042e+002, 9.341424e+003
2.269863e+002, 9.930478e+003
2.274685e+002, 1.053491e+004
2.279506e+002, 1.100384e+004
2.284327e+002, 1.131329e+004
2.289148e+002, 1.147394e+004
2.293969e+002, 1.140033e+004
2.298790e+002, 1.103977e+004
2.303612e+002, 1.048982e+004
2.308433e+002, 9.855822e+003
2.313254e+002, 9.075937e+003
2.318075e+002, 8.309662e+003
2.322896e+002, 7.583437e+003
2.327717e+002, 6.895883e+003
2.332539e+002, 6.281997e+003
2.337360e+002, 5.755629e+003
2.342181e+002, 5.304758e+003
2.347002e+002, 4.915495e+003
2.351823e+002, 4.599419e+003
2.356644e+002, 4.330078e+003
2.361466e+002, 4.105905e+003
2.366287e+002, 3.929292e+003
2.371108e+002, 3.776128e+003
2.375929e+002, 3.650312e+003
2.380750e+002, 3.547503e+003
2.385571e+002, 3.464753e+003
2.390393e+002, 3.405811e+003
2.395214e+002, 3.360178e+003
2.400035e+002, 3.327268e+003
2.404856e+002, 3.307148e+003
2.409677e+002, 3.293522e+003
2.414498e+002, 3.287184e+003
2.419320e+002, 3.286516e+003
2.424141e+002, 3.290791e+003
2.428962e+002, 3.304180e+003
2.433783e+002, 3.314594e+003
2.438604e+002, 3.320818e+003
2.443425e+002, 3.322771e+003
2.448247e+002, 3.317550e+003
2.453068e+002, 3.307452e+003
2.457889e+002, 3.287495e+003
2.462710e+002, 3.253317e+003
2.467531e+002, 3.204045e+003
2.472352e+002, 3.142073e+003
2.477174e+002, 3.066359e+003
2.481995e+002, 2.977894e+003
2.486816e+002, 2.880824e+003
2.491637e+002, 2.771222e+003
2.496458e+002, 2.657425e+003
2.501279e+002, 2.546490e+003
2.506101e+002, 2.435942e+003
2.510922e+002, 2.331915e+003
2.515743e+002, 2.236639e+003
2.520564e+002, 2.149287e+003
2.525385e+002, 2.066295e+003
2.530206e+002, 1.986284e+003
2.535028e+002, 1.911851e+003
2.539849e+002, 1.846845e+003
2.544670e+002, 1.792743e+003
2.549491e+002, 1.742257e+003
2.554312e+002, 1.694461e+003
2.559133e+002, 1.649823e+003
2.563955e+002, 1.608834e+003
2.568776e+002, 1.571831e+003
2.573597e+002, 1.537624e+003
2.578418e+002, 1.505304e+003
2.583239e+002, 1.473832e+003
2.588061e+002, 1.446271e+003
2.592882e+002, 1.423108e+003
2.597703e+002, 1.403728e+003
2.602524e+002, 1.386724e+003
2.607345e+002, 1.373203e+003
2.612166e+002, 1.359843e+003
2.616988e+002, 1.344029e+003
2.621809e+002, 1.324412e+003
2.626630e+002, 1.308084e+003
2.631451e+002, 1.296677e+003
2.636272e+002, 1.288284e+003
2.641093e+002, 1.277850e+003
2.645915e+002, 1.264293e+003
2.650736e+002, 1.251026e+003
2.655557e+002, 1.239593e+003
2.660378e+002, 1.230655e+003
2.665199e+002, 1.221660e+003
2.670020e+002, 1.212324e+003
2.674842e+002, 1.203180e+003
2.679663e+002, 1.195612e+003
2.684484e+002, 1.189899e+003
2.689305e+002, 1.184961e+003
2.694126e+002, 1.180970e+003
2.698947e+002, 1.178436e+003
2.703769e+002, 1.172761e+003
2.708590e+002, 1.162444e+003
2.713411e+002, 1.150788e+003
2.718232e+002, 1.144100e+003
2.723053e+002, 1.143708e+003
2.727874e+002, 1.143019e+003
2.732696e+002, 1.139032e+003
2.737517e+002, 1.131435e+003
2.742338e+002, 1.126162e+003
2.747159e+002, 1.123743e+003
2.751980e+002, 1.122533e+003
2.756801e+002, 1.120191e+003
2.761623e+002, 1.116430e+003
2.766444e+002, 1.113375e+003
2.771265e+002, 1.112305e+003
2.776086e+002, 1.112972e+003
2.780907e+002, 1.111326e+003
2.785728e+002, 1.107113e+003
2.790550e+002, 1.101418e+003
2.795371e+002, 1.094813e+003
2.800192e+002, 1.087146e+003
2.805013e+002, 1.080868e+003
2.809834e+002, 1.076857e+003
2.814655e+002, 1.074781e+003
2.819477e+002, 1.073026e+003
2.824298e+002, 1.071653e+003
2.829119e+002, 1.070396e+003
2.833940e+002, 1.069216e+003
2.838761e+002, 1.068093e+003
2.843582e+002, 1.066120e+003
2.848404e+002, 1.062506e+003
2.853225e+002, 1.058221e+003
2.858046e+002, 1.056868e+003
2.862867e+002, 1.058738e+003
2.867688e+002, 1.060454e+003
2.872509e+002, 1.058620e+003
2.877331e+002, 1.053724e+003
2.882152e+002, 1.050338e+003
2.886973e+002, 1.049674e+003
2.891794e+002, 1.050293e+003
2.896615e+002, 1.048680e+003
2.901436e+002, 1.044847e+003
2.906258e+002, 1.041731e+003
2.911079e+002, 1.041823e+003
2.915900e+002, 1.044424e+003
2.920721e+002, 1.046669e+003
2.925542e+002, 1.048374e+003
2.930363e+002, 1.049238e+003
2.935185e+002, 1.048000e+003
2.940006e+002, 1.044939e+003
2.944827e+002, 1.042729e+003
2.949648e+002, 1.043512e+003
2.954469e+002, 1.046245e+003
2.959290e+002, 1.047679e+003
2.964112e+002, 1.047221e+003
2.968933e+002, 1.047287e+003
2.973754e+002, 1.051773e+003
2.978575e+002, 1.059574e+003
2.983396e+002, 1.066703e+003
2.988217e+002, 1.070911e+003
2.993039e+002, 1.073229e+003
2.997860e+002, 1.074967e+003
3.002681e+002, 1.076093e+003
3.007502e+002, 1.077644e+003
3.012323e+002, 1.080137e+003
3.017144e+002, 1.083824e+003
3.021966e+002, 1.089162e+003
3.026787e+002, 1.097338e+003
3.031608e+002, 1.106765e+003
3.036429e+002, 1.116247e+003
3.041250e+002, 1.125644e+003
3.046071e+002, 1.133791e+003
3.050893e+002, 1.138188e+003
3.055714e+002, 1.140962e+003
3.060535e+002, 1.145499e+003
3.065356e+002, 1.154364e+003
3.070177e+002, 1.163843e+003
3.074998e+002, 1.169457e+003
3.079820e+002, 1.172094e+003
3.084641e+002, 1.176204e+003
3.089462e+002, 1.186571e+003
3.094283e+002, 1.199117e+003
3.099104e+002, 1.209499e+003
3.103925e+002, 1.216913e+003
3.108747e+002, 1.221359e+003
3.113568e+002, 1.221179e+003
3.118389e+002, 1.217680e+003
3.123210e+002, 1.214510e+003
3.128031e+002, 1.214651e+003
3.132852e+002, 1.215103e+003
3.137674e+002, 1.213365e+003
3.142495e+002, 1.208510e+003
3.147316e+002, 1.203209e+003
3.152137e+002, 1.198322e+003
3.156958e+002, 1.193961e+003
3.161779e+002, 1.190311e+003
3.166601e+002, 1.188668e+003
3.171422e+002, 1.186794e+003
3.176243e+002, 1.183444e+003
3.181064e+002, 1.178385e+003
3.185885e+002, 1.172884e+003
3.190706e+002, 1.168191e+003
3.195528e+002, 1.163020e+003
3.200349e+002, 1.155912e+003
3.205170e+002, 1.143376e+003
3.209991e+002, 1.131807e+003
3.214812e+002, 1.124322e+003
3.219633e+002, 1.121004e+003
3.224455e+002, 1.115682e+003
3.229276e+002, 1.105285e+003
3.234097e+002, 1.093348e+003
3.238918e+002, 1.082519e+003
3.243739e+002, 1.073207e+003
3.248560e+002, 1.064972e+003
3.253382e+002, 1.058674e+003
3.258203e+002, 1.053822e+003
3.263024e+002, 1.047429e+003
3.267845e+002, 1.036868e+003
3.272666e+002, 1.026441e+003
3.277487e+002, 1.018223e+003
3.282309e+002, 1.014391e+003
3.287130e+002, 1.009917e+003
3.291951e+002, 1.004111e+003
3.296772e+002, 9.976838e+002
3.301593e+002, 9.924612e+002
3.306414e+002, 9.898214e+002
3.311236e+002, 9.868756e+002
3.316057e+002, 9.824508e+002
3.320878e+002, 9.757452e+002
3.325699e+002, 9.700112e+002
3.330520e+002, 9.656541e+002
3.335341e+002, 9.620742e+002
3.340163e+002, 9.583768e+002
3.344984e+002, 9.542397e+002
3.349805e+002, 9.507343e+002
3.354626e+002, 9.483898e+002
3.359447e+002, 9.472835e+002
3.364268e+002, 9.451470e+002
3.369090e+002, 9.413184e+002
3.373911e+002, 9.374540e+002
3.378732e+002, 9.355700e+002
3.383553e+002, 9.364209e+002
3.388374e+002, 9.360096e+002
3.393195e+002, 9.330077e+002
3.398017e+002, 9.282606e+002
3.402838e+002, 9.259075e+002
3.407659e+002, 9.265724e+002
3.412480e+002, 9.273340e+002
3.417301e+002, 9.256963e+002
3.422122e+002, 9.215215e+002
3.426944e+002, 9.186172e+002
3.431765e+002, 9.177477e+002
3.436586e+002, 9.177681e+002
3.441407e+002, 9.161795e+002
3.446228e+002, 9.129578e+002
3.451049e+002, 9.097725e+002
3.455871e+002, 9.079432e+002
3.460692e+002, 9.070975e+002
3.465513e+002, 9.048810e+002
3.470334e+002, 9.009058e+002
3.475155e+002, 8.970435e+002
3.479977e+002, 8.967960e+002
3.484798e+002, 8.993114e+002
3.489619e+002, 9.000574e+002
3.494440e+002, 8.956664e+002
3.499261e+002, 8.887847e+002
3.504082e+002, 8.846068e+002
3.508904e+002, 8.831199e+002
3.513725e+002, 8.830705e+002
3.518546e+002, 8.835293e+002
3.523367e+002, 8.846017e+002
3.528188e+002, 8.867497e+002
3.533009e+002, 8.912692e+002
3.537831e+002, 8.954222e+002
3.542652e+002, 8.961468e+002
3.547473e+002, 8.937916e+002
3.552294e+002, 8.899777e+002
3.557115e+002, 8.837844e+002
3.561936e+002, 8.775424e+002
3.566758e+002, 8.741301e+002
3.571579e+002, 8.748199e+002
3.576400e+002, 8.761509e+002
3.581221e+002, 8.757002e+002
3.586042e+002, 8.741713e+002
3.590863e+002, 8.729377e+002
3.595685e+002, 8.731257e+002
3.600506e+002, 8.734429e+002
3.605327e+002, 8.728456e+002
3.610148e+002, 8.711038e+002
3.614969e+002, 8.699376e+002
3.619790e+002, 8.703605e+002
3.624612e+002, 8.716102e+002
3.629433e+002, 8.728683e+002
3.634254e+002, 8.743146e+002
3.639075e+002, 8.753068e+002
3.643896e+002, 8.754509e+002
3.648717e+002, 8.747972e+002
3.653539e+002, 8.741501e+002
3.658360e+002, 8.742736e+002
3.663181e+002, 8.740133e+002
3.668002e+002, 8.726444e+002
3.672823e+002, 8.677746e+002
3.677644e+002, 8.647092e+002
3.682466e+002, 8.648544e+002
3.687287e+002, 8.671195e+002
3.692108e+002, 8.684476e+002
3.696929e+002, 8.686642e+002
3.701750e+002, 8.681415e+002
3.706571e+002, 8.668741e+002
3.711393e+002, 8.645233e+002
3.716214e+002, 8.625649e+002
3.721035e+002, 8.611173e+002
3.725856e+002, 8.599828e+002
3.730677e+002, 8.589533e+002
3.735498e+002, 8.581107e+002
3.740320e+002, 8.572098e+002
3.745141e+002, 8.561088e+002
3.749962e+002, 8.548622e+002
3.754783e+002, 8.541683e+002
3.759604e+002, 8.541964e+002
3.764425e+002, 8.544498e+002
3.769247e+002, 8.545138e+002
3.774068e+002, 8.543493e+002
3.778889e+002, 8.544132e+002
3.783710e+002, 8.549514e+002
3.788531e+002, 8.555656e+002
3.793352e+002, 8.552394e+002
3.798174e+002, 8.539268e+002
3.802995e+002, 8.521932e+002
3.807816e+002, 8.496097e+002
3.812637e+002, 8.465386e+002
3.817458e+002, 8.461689e+002
3.822279e+002, 8.491299e+002
3.827101e+002, 8.526888e+002
3.831922e+002, 8.529916e+002
3.836743e+002, 8.507061e+002
3.841564e+002, 8.490124e+002
3.846385e+002, 8.491954e+002
3.851206e+002, 8.507021e+002
3.856028e+002, 8.530679e+002
3.860849e+002, 8.562207e+002
3.865670e+002, 8.587643e+002
3.870491e+002, 8.594613e+002
3.875312e+002, 8.588807e+002
3.880133e+002, 8.579323e+002
3.884955e+002, 8.568069e+002
3.889776e+002, 8.554677e+002
3.894597e+002, 8.532090e+002
3.899418e+002, 8.506149e+002
3.904239e+002, 8.493392e+002
3.909060e+002, 8.516332e+002
3.913882e+002, 8.547075e+002
3.918703e+002, 8.566302e+002
3.923524e+002, 8.572401e+002
3.928345e+002, 8.564034e+002
3.933166e+002, 8.517451e+002
3.937987e+002, 8.462760e+002
3.942809e+002, 8.438502e+002
3.947630e+002, 8.488553e+002
3.952451e+002, 8.538490e+002
3.957272e+002, 8.564698e+002
3.962093e+002, 8.567015e+002
3.966914e+002, 8.560919e+002
3.971736e+002, 8.540202e+002
3.976557e+002, 8.518068e+002
3.981378e+002, 8.502516e+002
3.986199e+002, 8.500861e+002
3.991020e+002, 8.497650e+002
3.995841e+002, 8.485778e+002
4.000663e+002, 8.472292e+002
4.005484e+002, 8.475342e+002
4.010305e+002, 8.514046e+002
4.015126e+002, 8.545322e+002
4.019947e+002, 8.554572e+002
4.024768e+002, 8.538727e+002
4.029590e+002, 8.514786e+002
4.034411e+002, 8.473881e+002
4.039232e+002, 8.435052e+002
4.044053e+002, 8.422780e+002
4.048874e+002, 8.445996e+002
4.053695e+002, 8.465112e+002
4.058517e+002, 8.471774e+002
4.063338e+002, 8.468742e+002
4.068159e+002, 8.467186e+002
4.072980e+002, 8.466866e+002
4.077801e+002, 8.469537e+002
4.082622e+002, 8.485003e+002
4.087444e+002, 8.510755e+002
4.092265e+002, 8.502137e+002
4.097086e+002, 8.445356e+002
4.101907e+002, 8.377941e+002
4.106728e+002, 8.361000e+002
4.111549e+002, 8.388099e+002
4.116371e+002, 8.419138e+002
4.121192e+002, 8.434126e+002
4.126013e+002, 8.440540e+002
4.130834e+002, 8.458512e+002
4.135655e+002, 8.487785e+002
4.140476e+002, 8.505560e+002
4.145298e+002, 8.477992e+002
4.150119e+002, 8.429406e+002
4.154940e+002, 8.400842e+002
4.159761e+002, 8.413473e+002
4.164582e+002, 8.435009e+002
4.169403e+002, 8.438486e+002
4.174225e+002, 8.429007e+002
4.179046e+002, 8.420851e+002
4.183867e+002, 8.429115e+002
4.188688e+002, 8.436467e+002
4.193509e+002, 8.427477e+002
4.198330e+002, 8.396155e+002
4.203152e+002, 8.371539e+002
4.207973e+002, 8.369554e+002
4.212794e+002, 8.378647e+002
4.217615e+002, 8.385400e+002
4.222436e+002, 8.387432e+002
4.227257e+002, 8.386058e+002
4.232079e+002, 8.378293e+002
4.236900e+002, 8.365143e+002
4.241721e+002, 8.358892e+002
4.246542e+002, 8.372687e+002
4.251363e+002, 8.383861e+002
4.256184e+002, 8.380134e+002
4.261006e+002, 8.344935e+002
4.265827e+002, 8.325735e+002
4.270648e+002, 8.331533e+002
4.275469e+002, 8.348680e+002
4.280290e+002, 8.351281e+002
4.285111e+002, 8.330439e+002
4.289933e+002, 8.314943e+002
4.294754e+002, 8.314568e+002
4.299575e+002, 8.328903e+002
4.304396e+002, 8.342679e+002
4.309217e+002, 8.356537e+002
4.314038e+002, 8.368156e+002
4.318860e+002, 8.372568e+002
4.323681e+002, 8.369674e+002
4.328502e+002, 8.375542e+002
4.333323e+002, 8.395367e+002
4.338144e+002, 8.420960e+002
4.342965e+002, 8.435492e+002
4.347787e+002, 8.439720e+002
4.352608e+002, 8.443280e+002
4.357429e+002, 8.453533e+002
4.362250e+002, 8.466564e+002
4.367071e+002, 8.472098e+002
4.371892e+002, 8.469277e+002
4.376714e+002, 8.466351e+002
4.381535e+002, 8.470474e+002
4.386356e+002, 8.479963e+002
4.391177e+002, 8.492399e+002
4.395998e+002, 8.511434e+002
4.400819e+002, 8.528121e+002
4.405641e+002, 8.530746e+002
4.410462e+002, 8.523724e+002
4.415283e+002, 8.522781e+002
4.420104e+002, 8.536670e+002
4.424925e+002, 8.559035e+002
4.429746e+002, 8.589310e+002
4.434568e+002, 8.632830e+002
4.439389e+002, 8.663203e+002
4.444210e+002, 8.656079e+002
4.449031e+002, 8.636543e+002
4.453852e+002, 8.634565e+002
4.458673e+002, 8.669059e+002
4.463495e+002, 8.706989e+002
4.468316e+002, 8.739113e+002
4.473137e+002, 8.766393e+002
4.477958e+002, 8.805724e+002
4.482779e+002, 8.866891e+002
4.487600e+002, 8.929414e+002
4.492422e+002, 8.980316e+002
4.497243e+002, 9.003314e+002
4.502064e+002, 9.056647e+002
4.506885e+002, 9.152485e+002
4.511706e+002, 9.268762e+002
4.516527e+002, 9.369816e+002
4.521349e+002, 9.455750e+002
4.526170e+002, 9.528006e+002
4.530991e+002, 9.574310e+002
4.535812e+002, 9.606644e+002
4.540633e+002, 9.694073e+002
4.545454e+002, 9.841330e+002
4.550276e+002, 1.001040e+003
4.555097e+002, 1.016448e+003
4.559918e+002, 1.031186e+003
4.564739e+002, 1.048427e+003
4.569560e+002, 1.068725e+003
4.574381e+002, 1.091838e+003
4.579203e+002, 1.118898e+003
4.584024e+002, 1.148724e+003
4.588845e+002, 1.178178e+003
4.593666e+002, 1.200949e+003
4.598488e+002, 1.224961e+003
4.603309e+002, 1.259841e+003
4.608130e+002, 1.305057e+003
4.612951e+002, 1.353615e+003
4.617772e+002, 1.400369e+003
4.622593e+002, 1.447683e+003
4.627415e+002, 1.497273e+003
4.632236e+002, 1.550607e+003
4.637057e+002, 1.604246e+003
4.641878e+002, 1.657576e+003
4.646699e+002, 1.709642e+003
4.651520e+002, 1.759635e+003
4.656342e+002, 1.813563e+003
4.661163e+002, 1.858157e+003
4.665984e+002, 1.892227e+003
4.670805e+002, 1.916498e+003
4.675626e+002, 1.918681e+003
4.680447e+002, 1.895195e+003
4.685269e+002, 1.852997e+003
4.690090e+002, 1.794968e+003
4.694911e+002, 1.714179e+003
4.699732e+002, 1.631389e+003
4.704553e+002, 1.545297e+003
4.709374e+002, 1.459166e+003
4.714196e+002, 1.377971e+003
4.719017e+002, 1.301191e+003
4.723838e+002, 1.233050e+003
4.728659e+002, 1.175861e+003
4.733480e+002, 1.128978e+003
4.738301e+002, 1.088448e+003
4.743123e+002, 1.054335e+003
4.747944e+002, 1.024691e+003
4.752765e+002, 9.977407e+002
4.757586e+002, 9.737054e+002
4.762407e+002, 9.537385e+002
4.767228e+002, 9.384952e+002
4.772050e+002, 9.263813e+002
4.776871e+002, 9.160906e+002
4.781692e+002, 9.073673e+002
4.786513e+002, 8.995675e+002
4.791334e+002, 8.929466e+002
4.796155e+002, 8.867092e+002
4.800977e+002, 8.796111e+002
4.805798e+002, 8.716554e+002
4.810619e+002, 8.649647e+002
4.815440e+002, 8.612005e+002
4.820261e+002, 8.591165e+002
4.825082e+002, 8.575952e+002
4.829904e+002, 8.564875e+002
4.834725e+002, 8.557653e+002
4.839546e+002, 8.555889e+002
4.844367e+002, 8.557913e+002
4.849188e+002, 8.560148e+002
4.854009e+002, 8.562018e+002
4.858831e+002, 8.564266e+002
4.863652e+002, 8.565807e+002
4.868473e+002, 8.566194e+002
4.873294e+002, 8.573015e+002
4.878115e+002, 8.584407e+002
4.882936e+002, 8.604518e+002
4.887758e+002, 8.636816e+002
4.892579e+002, 8.682819e+002
4.897400e+002, 8.738281e+002
4.902221e+002, 8.807595e+002
4.907042e+002, 8.880404e+002
4.911863e+002, 8.934019e+002
4.916685e+002, 8.967879e+002
4.921506e+002, 8.995833e+002
4.926327e+002, 9.017355e+002
4.931148e+002, 9.038063e+002
4.935969e+002, 9.077503e+002
4.940790e+002, 9.136029e+002
4.945612e+002, 9.201025e+002
4.950433e+002, 9.270059e+002
4.955254e+002, 9.337242e+002
4.960075e+002, 9.385720e+002
4.964896e+002, 9.400858e+002
4.969717e+002, 9.432819e+002
4.974539e+002, 9.549805e+002
4.979360e+002, 9.712505e+002
4.984181e+002, 9.845675e+002
4.989002e+002, 9.900721e+002
4.993823e+002, 9.934293e+002
4.998644e+002, 9.976954e+002
5.003466e+002, 1.002786e+003
5.008287e+002, 1.006611e+003
5.013108e+002, 1.007484e+003
5.017929e+002, 1.007687e+003
5.022750e+002, 1.008737e+003
5.027571e+002, 1.012560e+003
5.032393e+002, 1.013707e+003
5.037214e+002, 1.010902e+003
5.042035e+002, 1.006002e+003
5.046856e+002, 1.001262e+003
5.051677e+002, 9.965594e+002
5.056498e+002, 9.923766e+002
5.061320e+002, 9.890643e+002
5.066141e+002, 9.863217e+002
5.070962e+002, 9.824512e+002
5.075783e+002, 9.771194e+002
5.080604e+002, 9.720301e+002
5.085425e+002, 9.682535e+002
5.090247e+002, 9.656871e+002
5.095068e+002, 9.637988e+002
5.099889e+002, 9.628234e+002
5.104710e+002, 9.611357e+002
5.109531e+002, 9.557917e+002
5.114352e+002, 9.481061e+002
5.119174e+002, 9.420363e+002
5.123995e+002, 9.392722e+002
5.128816e+002, 9.379825e+002
5.133637e+002, 9.360441e+002
5.138458e+002, 9.338641e+002
5.143279e+002, 9.327438e+002
5.148101e+002, 9.345172e+002
5.152922e+002, 9.367892e+002
5.157743e+002, 9.378088e+002
5.162564e+002, 9.373273e+002
5.167385e+002, 9.368276e+002
5.172206e+002, 9.357290e+002
5.177028e+002, 9.354421e+002
5.181849e+002, 9.371108e+002
5.186670e+002, 9.417230e+002
5.191491e+002, 9.473093e+002
5.196312e+002, 9.545365e+002
5.201133e+002, 9.624623e+002
5.205955e+002, 9.691820e+002
5.210776e+002, 9.739529e+002
5.215597e+002, 9.786649e+002
5.220418e+002, 9.833830e+002
5.225239e+002, 9.882302e+002
5.230060e+002, 9.958018e+002
5.234882e+002, 1.006498e+003
5.239703e+002, 1.018532e+003
5.244524e+002, 1.030351e+003
5.249345e+002, 1.042064e+003
5.254166e+002, 1.055373e+003
5.258987e+002, 1.070676e+003
5.263809e+002, 1.087195e+003
5.268630e+002, 1.103107e+003
5.273451e+002, 1.119498e+003
5.278272e+002, 1.139464e+003
5.283093e+002, 1.166312e+003
5.287914e+002, 1.195830e+003
5.292736e+002, 1.222831e+003
5.297557e+002, 1.248540e+003
5.302378e+002, 1.277185e+003
5.307199e+002, 1.310533e+003
5.312020e+002, 1.348434e+003
5.316841e+002, 1.390591e+003
5.321663e+002, 1.437776e+003
5.326484e+002, 1.487923e+003
5.331305e+002, 1.538040e+003
5.336126e+002, 1.592731e+003
5.340947e+002, 1.657234e+003
5.345768e+002, 1.733381e+003
5.350590e+002, 1.816880e+003
5.355411e+002, 1.905933e+003
5.360232e+002, 2.002306e+003
5.365053e+002, 2.108745e+003
5.369874e+002, 2.223843e+003
5.374695e+002, 2.349083e+003
5.379517e+002, 2.484938e+003
5.384338e+002, 2.631853e+003
5.389159e+002, 2.786335e+003
5.393980e+002, 2.951529e+003
5.398801e+002, 3.102212e+003
5.403622e+002, 3.229588e+003
5.408444e+002, 3.324867e+003
5.413265e+002, 3.355727e+003
5.418086e+002, 3.315886e+003
5.422907e+002, 3.219531e+003
5.427728e+002, 3.062735e+003
5.432549e+002, 2.861986e+003
5.437371e+002, 2.656113e+003
5.442192e+002, 2.443540e+003
5.447013e+002, 2.246738e+003
5.451834e+002, 2.079357e+003
5.456655e+002, 1.938303e+003
5.461476e+002, 1.817674e+003
5.466298e+002, 1.718854e+003
5.471119e+002, 1.636466e+003
5.475940e+002, 1.568882e+003
5.480761e+002, 1.517279e+003
5.485582e+002, 1.474482e+003
5.490403e+002, 1.441331e+003
5.495225e+002, 1.415014e+003
5.500046e+002, 1.393902e+003
5.504867e+002, 1.378738e+003
5.509688e+002, 1.367217e+003
5.514509e+002, 1.359572e+003
5.519330e+002, 1.355095e+003
5.524152e+002, 1.352098e+003
5.528973e+002, 1.350326e+003
5.533794e+002, 1.351731e+003
5.538615e+002, 1.357304e+003
5.543436e+002, 1.366535e+003
5.548257e+002, 1.378268e+003
5.553079e+002, 1.392374e+003
5.557900e+002, 1.407526e+003
5.562721e+002, 1.421393e+003
5.567542e+002, 1.435884e+003
5.572363e+002, 1.453961e+003
5.577184e+002, 1.476036e+003
5.582006e+002, 1.501423e+003
5.586827e+002, 1.529355e+003
5.591648e+002, 1.560332e+003
5.596469e+002, 1.595528e+003
5.601290e+002, 1.638583e+003
5.606111e+002, 1.682003e+003
5.610933e+002, 1.719606e+003
5.615754e+002, 1.755271e+003
5.620575e+002, 1.799248e+003
5.625396e+002, 1.855964e+003
5.630217e+002, 1.918224e+003
5.635038e+002, 1.984561e+003
5.639860e+002, 2.055254e+003
5.644681e+002, 2.130634e+003
5.649502e+002, 2.210182e+003
5.654323e+002, 2.295062e+003
5.659144e+002, 2.384454e+003
5.663965e+002, 2.478539e+003
5.668787e+002, 2.580097e+003
5.673608e+002, 2.688189e+003
5.678429e+002, 2.805051e+003
5.683250e+002, 2.929243e+003
5.688071e+002, 3.062020e+003
5.692892e+002, 3.205286e+003
5.697714e+002, 3.357553e+003
5.702535e+002, 3.521564e+003
5.707356e+002, 3.699058e+003
5.712177e+002, 3.891024e+003
5.716998e+002, 4.090264e+003
5.721819e+002, 4.296335e+003
5.726641e+002, 4.510973e+003
5.731462e+002, 4.732769e+003
5.736283e+002, 4.963454e+003
5.741104e+002, 5.209857e+003
5.745925e+002, 5.485495e+003
5.750746e+002, 5.771559e+003
5.755568e+002, 6.060374e+003
5.760389e+002, 6.343674e+003
5.765210e+002, 6.634931e+003
5.770031e+002, 6.946305e+003
5.774852e+002, 7.259846e+003
5.779673e+002, 7.556003e+003
5.784495e+002, 7.842109e+003
5.789316e+002, 8.096528e+003
5.794137e+002, 8.321150e+003
5.798958e+002, 8.506091e+003
5.803779e+002, 8.638045e+003
5.808600e+002, 8.716072e+003
5.813422e+002, 8.728347e+003
5.818243e+002, 8.666890e+003
5.823064e+002, 8.535408e+003
5.827885e+002, 8.335231e+003
5.832706e+002, 8.066103e+003
5.837527e+002, 7.755085e+003
5.842349e+002, 7.401857e+003
5.847170e+002, 7.023966e+003
5.851991e+002, 6.637327e+003
5.856812e+002, 6.234852e+003
5.861633e+002, 5.843688e+003
5.866454e+002, 5.468471e+003
5.871276e+002, 5.111626e+003
5.876097e+002, 4.780842e+003
5.880918e+002, 4.479584e+003
5.885739e+002, 4.199015e+003
5.890560e+002, 3.938920e+003
5.895381e+002, 3.698284e+003
5.900203e+002, 3.473662e+003
5.905024e+002, 3.263754e+003
5.909845e+002, 3.072594e+003
5.914666e+002, 2.905941e+003
5.919487e+002, 2.761292e+003
5.924308e+002, 2.622326e+003
5.929130e+002, 2.488510e+003
5.933951e+002, 2.364121e+003
5.938772e+002, 2.255189e+003
5.943593e+002, 2.159073e+003
5.948414e+002, 2.069388e+003
5.953235e+002, 1.986239e+003
5.958057e+002, 1.909995e+003
5.962878e+002, 1.842923e+003
5.967699e+002, 1.782503e+003
5.972520e+002, 1.725935e+003
5.977341e+002, 1.672250e+003
5.982162e+002, 1.621499e+003
5.986984e+002, 1.573291e+003
5.991805e+002, 1.528450e+003
5.996626e+002, 1.486617e+003
6.001447e+002, 1.447458e+003
6.006268e+002, 1.411673e+003
6.011089e+002, 1.380211e+003
6.015911e+002, 1.352680e+003
6.020732e+002, 1.326487e+003
6.025553e+002, 1.302101e+003
6.030374e+002, 1.278604e+003
6.035195e+002, 1.255409e+003
6.040016e+002, 1.232525e+003
6.044838e+002, 1.212551e+003
6.049659e+002, 1.196057e+003
6.054480e+002, 1.180622e+003
6.059301e+002, 1.163118e+003
6.064122e+002, 1.144590e+003
6.068943e+002, 1.128617e+003
6.073765e+002, 1.116298e+003
6.078586e+002, 1.105382e+003
6.083407e+002, 1.094530e+003
6.088228e+002, 1.083422e+003
6.093049e+002, 1.071735e+003
6.097870e+002, 1.057422e+003
6.102692e+002, 1.044187e+003
6.107513e+002, 1.034031e+003
6.112334e+002, 1.026411e+003
6.117155e+002, 1.019382e+003
6.121976e+002, 1.013210e+003
6.126797e+002, 1.006814e+003
6.131619e+002, 9.998703e+002
6.136440e+002, 9.923015e+002
6.141261e+002, 9.843063e+002
6.146082e+002, 9.751047e+002
6.150903e+002, 9.667438e+002
6.155724e+002, 9.606296e+002
6.160546e+002, 9.568047e+002
6.165367e+002, 9.541324e+002
6.170188e+002, 9.530285e+002
6.175009e+002, 9.511504e+002
6.179830e+002, 9.443135e+002
6.184651e+002, 9.344064e+002
6.189473e+002, 9.273256e+002
6.194294e+002, 9.260106e+002
6.199115e+002, 9.249863e+002
6.203936e+002, 9.180350e+002
6.208757e+002, 9.077405e+002
6.213578e+002, 8.992928e+002
6.218400e+002, 8.959922e+002
6.223221e+002, 8.937653e+002
6.228042e+002, 8.908574e+002
6.232863e+002, 8.874518e+002
6.237684e+002, 8.851882e+002
6.242505e+002, 8.863480e+002
6.247327e+002, 8.862902e+002
6.252148e+002, 8.828146e+002
6.256969e+002, 8.754583e+002
6.261790e+002, 8.702155e+002
6.266611e+002, 8.675681e+002
6.271432e+002, 8.658787e+002
6.276254e+002, 8.641768e+002
6.281075e+002, 8.624098e+002
6.285896e+002, 8.598846e+002
6.290717e+002, 8.564907e+002
6.295538e+002, 8.527736e+002
6.300359e+002, 8.485956e+002
6.305181e+002, 8.446730e+002
6.310002e+002, 8.425983e+002
6.314823e+002, 8.439369e+002
6.319644e+002, 8.454395e+002
6.324465e+002, 8.449899e+002
6.329286e+002, 8.430598e+002
6.334108e+002, 8.405964e+002
6.338929e+002, 8.363510e+002
6.343750e+002, 8.331968e+002
6.348571e+002, 8.327918e+002
6.353392e+002, 8.346167e+002
6.358214e+002, 8.347967e+002
6.363035e+002, 8.320775e+002
6.367856e+002, 8.296818e+002
6.372677e+002, 8.292188e+002
6.377498e+002, 8.306678e+002
6.382319e+002, 8.306748e+002
6.387141e+002, 8.290358e+002
6.391962e+002, 8.269606e+002
6.396783e+002, 8.254513e+002
6.401604e+002, 8.243206e+002
6.406425e+002, 8.226478e+002
6.411246e+002, 8.201545e+002
6.416068e+002, 8.185101e+002
6.420889e+002, 8.205568e+002
6.425710e+002, 8.240256e+002
6.430531e+002, 8.257813e+002
6.435352e+002, 8.250204e+002
6.440173e+002, 8.223921e+002
6.444995e+002, 8.153588e+002
6.449816e+002, 8.071780e+002
6.454637e+002, 8.034064e+002
6.459458e+002, 8.095699e+002
6.464279e+002, 8.146500e+002
6.469100e+002, 8.167324e+002
6.473922e+002, 8.164251e+002
6.478743e+002, 8.159892e+002
6.483564e+002, 8.152997e+002
6.488385e+002, 8.147948e+002
6.493206e+002, 8.146031e+002
6.498027e+002, 8.147348e+002
6.502849e+002, 8.156376e+002
6.507670e+002, 8.172859e+002
6.512491e+002, 8.183159e+002
6.517312e+002, 8.175902e+002
6.522133e+002, 8.156661e+002
6.526954e+002, 8.126320e+002
6.531776e+002, 8.083177e+002
6.536597e+002, 8.057735e+002
6.541418e+002, 8.092003e+002
6.546239e+002, 8.138444e+002
6.551060e+002, 8.152419e+002
6.555881e+002, 8.102789e+002
6.560703e+002, 8.062028e+002
6.565524e+002, 8.041462e+002
6.570345e+002, 8.033431e+002
6.575166e+002, 8.029690e+002
6.579987e+002, 8.029173e+002
6.584808e+002, 8.036292e+002
6.589630e+002, 8.055652e+002
6.594451e+002, 8.078649e+002
6.599272e+002, 8.087606e+002
6.604093e+002, 8.082656e+002
6.608914e+002, 8.066282e+002
6.613735e+002, 8.030853e+002
6.618557e+002, 7.992092e+002
6.623378e+002, 7.982030e+002
6.628199e+002, 7.993718e+002
6.633020e+002, 7.996090e+002
6.637841e+002, 7.954626e+002
6.642662e+002, 7.911005e+002
6.647484e+002, 7.894266e+002
6.652305e+002, 7.906503e+002
6.657126e+002, 7.928953e+002
6.661947e+002, 7.969338e+002
6.666768e+002, 8.008541e+002
6.671589e+002, 8.036964e+002
6.676411e+002, 8.053511e+002
6.681232e+002, 8.060502e+002
6.686053e+002, 8.052006e+002
6.690874e+002, 8.043200e+002
6.695695e+002, 8.049765e+002
6.700516e+002, 8.070925e+002
6.705338e+002, 8.089740e+002
6.710159e+002, 8.104115e+002
6.714980e+002, 8.115577e+002
6.719801e+002, 8.121956e+002
6.724622e+002, 8.127111e+002
6.729443e+002, 8.141712e+002
6.734265e+002, 8.180778e+002
6.739086e+002, 8.210887e+002
6.743907e+002, 8.198792e+002
6.748728e+002, 8.164086e+002
6.753549e+002, 8.143754e+002
6.758370e+002, 8.161723e+002
6.763192e+002, 8.180798e+002
6.768013e+002, 8.187146e+002
6.772834e+002, 8.186850e+002
6.777655e+002, 8.203950e+002
6.782476e+002, 8.248152e+002
6.787297e+002, 8.286901e+002
6.792119e+002, 8.305636e+002
6.796940e+002, 8.308149e+002
6.801761e+002, 8.308967e+002
6.806582e+002, 8.307277e+002
6.811403e+002, 8.328581e+002
6.816224e+002, 8.422583e+002
6.821046e+002, 8.539855e+002
6.825867e+002, 8.579813e+002
6.830688e+002, 8.537743e+002
6.835509e+002, 8.502271e+002
6.840330e+002, 8.533969e+002
6.845151e+002, 8.594600e+002
6.849973e+002, 8.654559e+002
6.854794e+002, 8.712140e+002
6.859615e+002, 8.761922e+002
6.864436e+002, 8.787126e+002
6.869257e+002, 8.815490e+002
6.874078e+002, 8.872876e+002
6.878900e+002, 8.977355e+002
6.883721e+002, 9.058786e+002
6.888542e+002, 9.105085e+002
6.893363e+002, 9.138960e+002
6.898184e+002, 9.196200e+002
6.903005e+002, 9.273347e+002
6.907827e+002, 9.339562e+002
6.912648e+002, 9.377754e+002
6.917469e+002, 9.418128e+002
6.922290e+002, 9.498237e+002
6.927111e+002, 9.610275e+002
6.931932e+002, 9.734698e+002
6.936754e+002, 9.875007e+002
6.941575e+002, 1.001366e+003
6.946396e+002, 1.013781e+003
6.951217e+002, 1.025179e+003
6.956038e+002, 1.037533e+003
6.960859e+002, 1.050570e+003
6.965681e+002, 1.065026e+003
6.970502e+002, 1.081381e+003
6.975323e+002, 1.099461e+003
6.980144e+002, 1.117237e+003
6.984965e+002, 1.134298e+003
6.989786e+002, 1.152931e+003
6.994608e+002, 1.174749e+003
6.999429e+002, 1.199376e+003
7.004250e+002, 1.225119e+003
7.009071e+002, 1.252050e+003
7.013892e+002, 1.278979e+003
7.018713e+002, 1.303287e+003
7.023535e+002, 1.328078e+003
7.028356e+002, 1.357327e+003
7.033177e+002, 1.392195e+003
7.037998e+002, 1.427036e+003
7.042819e+002, 1.458249e+003
7.047640e+002, 1.489778e+003
7.052462e+002, 1.525483e+003
7.057283e+002, 1.570352e+003
7.062104e+002, 1.607557e+003
7.066925e+002, 1.633812e+003
7.071746e+002, 1.656411e+003
7.076567e+002, 1.684439e+003
7.081389e+002, 1.718101e+003
7.086210e+002, 1.748027e+003
7.091031e+002, 1.773332e+003
7.095852e+002, 1.793606e+003
7.100673e+002, 1.808181e+003
7.105494e+002, 1.817218e+003
7.110316e+002, 1.821657e+003
7.115137e+002, 1.822785e+003
7.119958e+002, 1.817776e+003
7.124779e+002, 1.801960e+003
7.129600e+002, 1.779102e+003
7.134421e+002, 1.756511e+003
7.139243e+002, 1.740421e+003
7.144064e+002, 1.719229e+003
7.148885e+002, 1.688952e+003
7.153706e+002, 1.652151e+003
7.158527e+002, 1.617643e+003
7.163348e+002, 1.586431e+003
7.168170e+002, 1.554256e+003
7.172991e+002, 1.519332e+003
7.177812e+002, 1.482747e+003
7.182633e+002, 1.449438e+003
7.187454e+002, 1.418765e+003
7.192275e+002, 1.388914e+003
7.197097e+002, 1.357145e+003
7.201918e+002, 1.325965e+003
7.206739e+002, 1.297905e+003
7.211560e+002, 1.272995e+003
7.216381e+002, 1.248792e+003
7.221202e+002, 1.222420e+003
7.226024e+002, 1.198260e+003
7.230845e+002, 1.180093e+003
7.235666e+002, 1.169211e+003
7.240487e+002, 1.154139e+003
7.245308e+002, 1.132058e+003
7.250129e+002, 1.109948e+003
7.254951e+002, 1.092473e+003
7.259772e+002, 1.079696e+003
7.264593e+002, 1.065364e+003
7.269414e+002, 1.049108e+003
7.274235e+002, 1.033888e+003
7.279056e+002, 1.022485e+003
7.283878e+002, 1.014061e+003
7.288699e+002, 1.007828e+003
7.293520e+002, 1.004094e+003
7.298341e+002, 9.990927e+002
7.303162e+002, 9.886365e+002
7.307983e+002, 9.766385e+002
7.312805e+002, 9.667421e+002
7.317626e+002, 9.605293e+002
7.322447e+002, 9.548698e+002
7.327268e+002, 9.497746e+002
7.332089e+002, 9.449421e+002
7.336910e+002, 9.398216e+002
7.341732e+002, 9.340708e+002
7.346553e+002, 9.300825e+002
7.351374e+002, 9.288242e+002
7.356195e+002, 9.278605e+002
7.361016e+002, 9.225847e+002
7.365837e+002, 9.143492e+002
7.370659e+002, 9.080201e+002
7.375480e+002, 9.058068e+002
7.380301e+002, 9.045045e+002
7.385122e+002, 9.012927e+002
7.389943e+002, 8.970986e+002
7.394764e+002, 8.935363e+002
7.399586e+002, 8.919269e+002
7.404407e+002, 8.900833e+002
7.409228e+002, 8.873939e+002
7.414049e+002, 8.841455e+002
7.418870e+002, 8.806525e+002
7.423691e+002, 8.763853e+002
7.428513e+002, 8.739681e+002
7.433334e+002, 8.750662e+002
7.438155e+002, 8.776696e+002
7.442976e+002, 8.757179e+002
7.447797e+002, 8.697253e+002
7.452618e+002, 8.641968e+002
7.457440e+002, 8.620233e+002
7.462261e+002, 8.609244e+002
7.467082e+002, 8.583885e+002
7.471903e+002, 8.547427e+002
7.476724e+002, 8.511298e+002
7.481545e+002, 8.470832e+002
7.486367e+002, 8.440575e+002
7.491188e+002, 8.432792e+002
7.496009e+002, 8.444972e+002
7.500830e+002, 8.443905e+002
7.505651e+002, 8.423141e+002
7.510472e+002, 8.402504e+002
7.515294e+002, 8.392056e+002
7.520115e+002, 8.389557e+002
7.524936e+002, 8.383828e+002
7.529757e+002, 8.374860e+002
7.534578e+002, 8.352018e+002
7.539399e+002, 8.289004e+002
7.544221e+002, 8.217770e+002
7.549042e+002, 8.190801e+002
7.553863e+002, 8.207177e+002
7.558684e+002, 8.215441e+002
7.563505e+002, 8.172207e+002
7.568326e+002, 8.127056e+002
7.573148e+002, 8.117050e+002
7.577969e+002, 8.155352e+002
7.582790e+002, 8.160156e+002
7.587611e+002, 8.115706e+002
7.592432e+002, 8.062278e+002
7.597253e+002, 8.023468e+002
7.602075e+002, 7.998956e+002
7.606896e+002, 7.984763e+002
7.611717e+002, 7.981918e+002
7.616538e+002, 7.977054e+002
7.621359e+002, 7.954875e+002
7.626180e+002, 7.924179e+002
7.631002e+002, 7.903364e+002
7.635823e+002, 7.896944e+002
7.640644e+002, 7.877004e+002
7.645465e+002, 7.799254e+002
7.650286e+002, 7.720496e+002
7.655107e+002, 7.694010e+002
7.659929e+002, 7.765463e+002
7.664750e+002, 7.784478e+002
7.669571e+002, 7.720779e+002
7.674392e+002, 7.644772e+002
7.679213e+002, 7.627560e+002
7.684034e+002, 7.670352e+002
7.688856e+002, 7.685577e+002
7.693677e+002, 7.661876e+002
7.698498e+002, 7.635040e+002
7.703319e+002, 7.652032e+002
7.708140e+002, 7.689928e+002
7.712961e+002, 7.707103e+002
7.717783e+002, 7.690763e+002
7.722604e+002, 7.667074e+002
7.727425e+002, 7.638618e+002
7.732246e+002, 7.615451e+002
7.737067e+002, 7.608166e+002
7.741888e+002, 7.630880e+002
7.746710e+002, 7.649098e+002
7.751531e+002, 7.664044e+002
7.756352e+002, 7.673055e+002
7.761173e+002, 7.671749e+002
7.765994e+002, 7.660170e+002
7.770815e+002, 7.644988e+002
7.775637e+002, 7.626072e+002
7.780458e+002, 7.608160e+002
7.785279e+002, 7.593948e+002
7.790100e+002, 7.585464e+002
7.794921e+002, 7.587865e+002
7.799742e+002, 7.609960e+002
7.804564e+002, 7.628063e+002
7.809385e+002, 7.625685e+002
7.814206e+002, 7.615352e+002
7.819027e+002, 7.614335e+002
7.823848e+002, 7.628256e+002
7.828669e+002, 7.643088e+002
7.833491e+002, 7.660197e+002
7.838312e+002, 7.674871e+002
7.843133e+002, 7.679872e+002
7.847954e+002, 7.675278e+002
7.852775e+002, 7.659354e+002
7.857596e+002, 7.624982e+002
7.862418e+002, 7.597382e+002
7.867239e+002, 7.617015e+002
7.872060e+002, 7.664050e+002
7.876881e+002, 7.703057e+002
7.881702e+002, 7.717494e+002
7.886523e+002, 7.726852e+002
7.891345e+002, 7.739644e+002
7.896166e+002, 7.750955e+002
7.900987e+002, 7.751944e+002
7.905808e+002, 7.734878e+002
7.910629e+002, 7.723934e+002
7.915450e+002, 7.720553e+002
7.920272e+002, 7.727438e+002
7.925093e+002, 7.761072e+002
7.929914e+002, 7.815865e+002
7.934735e+002, 7.840192e+002
7.939556e+002, 7.806084e+002
7.944377e+002, 7.762609e+002
7.949199e+002, 7.766497e+002
7.954020e+002, 7.799020e+002
7.958841e+002, 7.826200e+002
7.963662e+002, 7.829615e+002
7.968483e+002, 7.833904e+002
7.973304e+002, 7.845313e+002
7.978126e+002, 7.861071e+002
7.982947e+002, 7.875983e+002
7.987768e+002, 7.888068e+002
7.992589e+002, 7.906757e+002
7.997410e+002, 7.938359e+002
8.002231e+002, 7.969927e+002
8.007053e+002, 7.972567e+002
8.011874e+002, 7.952910e+002
8.016695e+002, 7.938451e+002
8.021516e+002, 7.942556e+002
8.026337e+002, 7.949384e+002
8.031158e+002, 7.946193e+002
8.035980e+002, 7.936492e+002
8.040801e+002, 7.926047e+002
8.045622e+002, 7.904258e+002
8.050443e+002, 7.898381e+002
8.055264e+002, 7.918296e+002
8.060085e+002, 7.952845e+002
8.064907e+002, 7.984022e+002
8.069728e+002, 8.012939e+002
8.074549e+002, 8.028201e+002
8.079370e+002, 8.020672e+002
8.084191e+002, 8.011524e+002
8.089012e+002, 8.045408e+002
8.093834e+002, 8.106239e+002
8.098655e+002, 8.150673e+002
8.103476e+002, 8.157167e+002
8.108297e+002, 8.150977e+002
8.113118e+002, 8.142691e+002
8.117939e+002, 8.132510e+002
8.122761e+002, 8.120728e+002
8.127582e+002, 8.103362e+002
8.132403e+002, 8.090657e+002
8.137224e+002, 8.084040e+002
8.142045e+002, 8.082426e+002
8.146866e+002, 8.086359e+002
8.151688e+002, 8.095644e+002
8.156509e+002, 8.097262e+002
8.161330e+002, 8.084146e+002
8.166151e+002, 8.071833e+002
8.170972e+002, 8.088558e+002
8.175793e+002, 8.118849e+002
8.180615e+002, 8.133573e+002
8.185436e+002, 8.103081e+002
8.190257e+002, 8.081862e+002
8.195078e+002, 8.101954e+002
8.199899e+002, 8.137154e+002
8.204720e+002, 8.144929e+002
8.209542e+002, 8.107736e+002
8.214363e+002, 8.091545e+002
8.219184e+002, 8.111631e+002
8.224005e+002, 8.142756e+002
8.228826e+002, 8.143552e+002
8.233647e+002, 8.119730e+002
8.238469e+002, 8.094134e+002
8.243290e+002, 8.067889e+002
8.248111e+002, 8.053870e+002
8.252932e+002, 8.073898e+002
8.257753e+002, 8.109269e+002
8.262574e+002, 8.133795e+002
8.267396e+002, 8.131010e+002
8.272217e+002, 8.132616e+002
8.277038e+002, 8.144825e+002
8.281859e+002, 8.160320e+002
8.286681e+002, 8.169769e+002
8.291502e+002, 8.172035e+002
8.296323e+002, 8.177725e+002
8.301144e+002, 8.188484e+002
8.305966e+002, 8.201224e+002
8.310787e+002, 8.210257e+002
8.315608e+002, 8.218836e+002
8.320429e+002, 8.234617e+002
8.325250e+002, 8.261337e+002
8.330071e+002, 8.287871e+002
8.334893e+002, 8.309312e+002
8.339714e+002, 8.327277e+002
8.344535e+002, 8.343918e+002
8.349356e+002, 8.361183e+002
8.354177e+002, 8.372753e+002
8.358998e+002, 8.375383e+002
8.363820e+002, 8.378571e+002
8.368641e+002, 8.391644e+002
8.373462e+002, 8.414423e+002
8.378283e+002, 8.447343e+002
8.383104e+002, 8.491564e+002
8.387925e+002, 8.534612e+002
8.392747e+002, 8.561946e+002
8.397568e+002, 8.584525e+002
8.402389e+002, 8.614177e+002
8.407210e+002, 8.653448e+002
8.412031e+002, 8.697896e+002
8.416852e+002, 8.754175e+002
8.421674e+002, 8.807396e+002
8.426495e+002, 8.845355e+002
8.431316e+002, 8.863875e+002
8.436137e+002, 8.895504e+002
8.440958e+002, 8.942542e+002
8.445779e+002, 8.989650e+002
8.450601e+002, 9.014977e+002
8.455422e+002, 9.033690e+002
8.460243e+002, 9.080919e+002
8.465064e+002, 9.160153e+002
8.469885e+002, 9.228986e+002
8.474706e+002, 9.251121e+002
8.479528e+002, 9.267620e+002
8.484349e+002, 9.303074e+002
8.489170e+002, 9.359431e+002
8.493991e+002, 9.437101e+002
8.498812e+002, 9.548481e+002
8.503633e+002, 9.653346e+002
8.508455e+002, 9.723036e+002
8.513276e+002, 9.764891e+002
8.518097e+002, 9.814909e+002
8.522918e+002, 9.873202e+002
8.527739e+002, 9.937632e+002
8.532560e+002, 1.000741e+003
8.537382e+002, 1.008243e+003
8.542203e+002, 1.016664e+003
8.547024e+002, 1.025871e+003
8.551845e+002, 1.034483e+003
8.556666e+002, 1.041272e+003
8.561487e+002, 1.048464e+003
8.566309e+002, 1.056984e+003
8.571130e+002, 1.066426e+003
8.575951e+002, 1.075283e+003
8.580772e+002, 1.083585e+003
8.585593e+002, 1.091935e+003
8.590414e+002, 1.101054e+003
8.595236e+002, 1.110259e+003
8.600057e+002, 1.117985e+003
8.604878e+002, 1.124827e+003
8.609699e+002, 1.132596e+003
8.614520e+002, 1.144707e+003
8.619341e+002, 1.155072e+003
8.624163e+002, 1.160114e+003
8.628984e+002, 1.162022e+003
8.633805e+002, 1.166034e+003
8.638626e+002, 1.172399e+003
8.643447e+002, 1.180327e+003
8.648268e+002, 1.190291e+003
8.653090e+002, 1.200658e+003
8.657911e+002, 1.207739e+003
8.662732e+002, 1.212499e+003
8.667553e+002, 1.217587e+003
8.672374e+002, 1.224305e+003
8.677195e+002, 1.231227e+003
8.682017e+002, 1.238253e+003
8.686838e+002, 1.244732e+003
8.691659e+002, 1.249342e+003
8.696480e+002, 1.251659e+003
8.701301e+002, 1.252748e+003
8.706122e+002, 1.251773e+003
8.710944e+002, 1.251053e+003
8.715765e+002, 1.255080e+003
8.720586e+002, 1.262751e+003
8.725407e+002, 1.267566e+003
8.730228e+002, 1.268114e+003
8.735049e+002, 1.266822e+003
8.739871e+002, 1.264094e+003
8.744692e+002, 1.261570e+003
8.749513e+002, 1.261438e+003
8.754334e+002, 1.266066e+003
8.759155e+002, 1.268136e+003
8.763976e+002, 1.265682e+003
8.768798e+002, 1.262282e+003
8.773619e+002, 1.260933e+003
8.778440e+002, 1.261745e+003
8.783261e+002, 1.260987e+003
8.788082e+002, 1.258470e+003
8.792903e+002, 1.255093e+003
8.797725e+002, 1.250715e+003
8.802546e+002, 1.246386e+003
8.807367e+002, 1.243679e+003
8.812188e+002, 1.242756e+003
8.817009e+002, 1.241686e+003
8.821830e+002, 1.238870e+003
8.826652e+002, 1.236729e+003
8.831473e+002, 1.237126e+003
8.836294e+002, 1.239877e+003
8.841115e+002, 1.238334e+003
8.845936e+002, 1.231685e+003
8.850757e+002, 1.226406e+003
8.855579e+002, 1.228065e+003
8.860400e+002, 1.232617e+003
8.865221e+002, 1.232302e+003
8.870042e+002, 1.228052e+003
8.874863e+002, 1.223809e+003
8.879684e+002, 1.220607e+003
8.884506e+002, 1.218661e+003
8.889327e+002, 1.218860e+003
8.894148e+002, 1.220397e+003
8.898969e+002, 1.220681e+003
8.903790e+002, 1.219448e+003
8.908611e+002, 1.217777e+003
8.913433e+002, 1.215660e+003
8.918254e+002, 1.213708e+003
8.923075e+002, 1.213689e+003
8.927896e+002, 1.214820e+003
8.932717e+002, 1.214706e+003
8.937538e+002, 1.212027e+003
8.942360e+002, 1.208661e+003
8.947181e+002, 1.205199e+003
8.952002e+002, 1.201911e+003
8.956823e+002, 1.199116e+003
8.961644e+002, 1.196010e+003
8.966465e+002, 1.195480e+003
8.971287e+002, 1.198433e+003
8.976108e+002, 1.202532e+003
8.980929e+002, 1.205594e+003
8.985750e+002, 1.207353e+003
8.990571e+002, 1.205851e+003
8.995392e+002, 1.200225e+003
9.000214e+002, 1.196050e+003
9.005035e+002, 1.199896e+003
9.009856e+002, 1.205404e+003
9.014677e+002, 1.206127e+003
9.019498e+002, 1.198384e+003
9.024319e+002, 1.197003e+003
9.029141e+002, 1.204930e+003
9.033962e+002, 1.214084e+003
9.038783e+002, 1.219773e+003
9.043604e+002, 1.222227e+003
9.048425e+002, 1.222565e+003
9.053246e+002, 1.220980e+003
9.058068e+002, 1.220696e+003
9.062889e+002, 1.225339e+003
9.067710e+002, 1.230961e+003
9.072531e+002, 1.234274e+003
9.077352e+002, 1.235480e+003
9.082173e+002, 1.237526e+003
9.086995e+002, 1.241874e+003
9.091816e+002, 1.245402e+003
9.096637e+002, 1.246767e+003
9.101458e+002, 1.246971e+003
9.106279e+002, 1.249425e+003
9.111100e+002, 1.253848e+003
9.115922e+002, 1.257609e+003
9.120743e+002, 1.259382e+003
9.125564e+002, 1.260611e+003
9.130385e+002, 1.262367e+003
9.135206e+002, 1.264615e+003
9.140027e+002, 1.267321e+003
9.144849e+002, 1.268893e+003
9.149670e+002, 1.273504e+003
9.154491e+002, 1.283312e+003
9.159312e+002, 1.294096e+003
9.164133e+002, 1.299724e+003
9.168954e+002, 1.300558e+003
9.173776e+002, 1.303517e+003
9.178597e+002, 1.309762e+003
9.183418e+002, 1.316011e+003
9.188239e+002, 1.318173e+003
9.193060e+002, 1.319212e+003
9.197881e+002, 1.322616e+003
9.202703e+002, 1.329511e+003
9.207524e+002, 1.335818e+003
9.212345e+002, 1.340301e+003
9.217166e+002, 1.344889e+003
9.221987e+002, 1.351053e+003
9.226808e+002, 1.358617e+003
9.231630e+002, 1.363708e+003
9.236451e+002, 1.366375e+003
9.241272e+002, 1.368775e+003
9.246093e+002, 1.372478e+003
9.250914e+002, 1.376559e+003
9.255735e+002, 1.379508e+003
9.260557e+002, 1.381817e+003
9.265378e+002, 1.385891e+003
9.270199e+002, 1.395786e+003
9.275020e+002, 1.403143e+003
9.279841e+002, 1.405322e+003
9.284662e+002, 1.404362e+003
9.289484e+002, 1.405050e+003
9.294305e+002, 1.407372e+003
9.299126e+002, 1.411701e+003
9.303947e+002, 1.418809e+003
9.308768e+002, 1.426315e+003
9.313589e+002, 1.431946e+003
9.318411e+002, 1.436153e+003
9.323232e+002, 1.439497e+003
9.328053e+002, 1.441989e+003
9.332874e+002, 1.443744e+003
9.337695e+002, 1.444326e+003
9.342516e+002, 1.444788e+003
9.347338e+002, 1.446514e+003
9.352159e+002, 1.449442e+003
9.356980e+002, 1.450844e+003
9.361801e+002, 1.450565e+003
9.366622e+002, 1.448986e+003
9.371443e+002, 1.445058e+003
9.376265e+002, 1.440909e+003
9.381086e+002, 1.438954e+003
9.385907e+002, 1.439405e+003
9.390728e+002, 1.439533e+003
9.395549e+002, 1.439198e+003
9.400370e+002, 1.437938e+003
9.405192e+002, 1.435172e+003
9.410013e+002, 1.431375e+003
9.414834e+002, 1.429488e+003
9.419655e+002, 1.429181e+003
9.424476e+002, 1.427160e+003
9.429297e+002, 1.421270e+003
9.434119e+002, 1.413615e+003
9.438940e+002, 1.405510e+003
9.443761e+002, 1.397103e+003
9.448582e+002, 1.388668e+003
9.453403e+002, 1.379672e+003
9.458224e+002, 1.371725e+003
9.463046e+002, 1.365503e+003
9.467867e+002, 1.359768e+003
9.472688e+002, 1.353286e+003
9.477509e+002, 1.345891e+003
9.482330e+002, 1.336169e+003
9.487151e+002, 1.323540e+003
9.491973e+002, 1.311284e+003
9.496794e+002, 1.302429e+003
9.501615e+002, 1.294920e+003
9.506436e+002, 1.287299e+003
9.511257e+002, 1.279817e+003
9.516078e+002, 1.269529e+003
9.520900e+002, 1.254827e+003
9.525721e+002, 1.240643e+003
9.530542e+002, 1.231062e+003
9.535363e+002, 1.224180e+003
9.540184e+002, 1.210356e+003
9.545005e+002, 1.190958e+003
9.549827e+002, 1.173647e+003
9.554648e+002, 1.164268e+003
9.559469e+002, 1.156891e+003
9.564290e+002, 1.149406e+003
9.569111e+002, 1.141017e+003
9.573932e+002, 1.129754e+003
9.578754e+002, 1.114377e+003
9.583575e+002, 1.098890e+003
9.588396e+002, 1.083578e+003
9.593217e+002, 1.069479e+003
9.598038e+002, 1.059720e+003
9.602859e+002, 1.052613e+003
9.607681e+002, 1.043707e+003
9.612502e+002, 1.031610e+003
9.617323e+002, 1.018962e+003
9.622144e+002, 1.005787e+003
9.626965e+002, 9.937399e+002
9.631786e+002, 9.845768e+002
9.636608e+002, 9.790285e+002
9.641429e+002, 9.722113e+002
9.646250e+002, 9.639504e+002
9.651071e+002, 9.555558e+002
9.655892e+002, 9.480233e+002
9.660714e+002, 9.410239e+002
9.665535e+002, 9.329420e+002
9.670356e+002, 9.243214e+002
9.675177e+002, 9.175802e+002
9.679998e+002, 9.176180e+002
9.684819e+002, 9.154766e+002
9.689641e+002, 9.054373e+002
9.694462e+002, 8.915059e+002
9.699283e+002, 8.836234e+002
9.704104e+002, 8.823592e+002
9.708925e+002, 8.808881e+002
9.713746e+002, 8.776671e+002
9.718568e+002, 8.735502e+002
9.723389e+002, 8.685675e+002
9.728210e+002, 8.637210e+002
9.733031e+002, 8.607960e+002
9.737852e+002, 8.613501e+002
9.742673e+002, 8.605514e+002
9.747495e+002, 8.568299e+002
9.752316e+002, 8.522061e+002
9.757137e+002, 8.481505e+002
9.761958e+002, 8.446212e+002
9.766779e+002, 8.390560e+002
9.771600e+002, 8.314445e+002
9.776422e+002, 8.245533e+002
9.781243e+002, 8.191609e+002
9.786064e+002, 8.160629e+002
9.790885e+002, 8.175948e+002
9.795706e+002, 8.224683e+002
9.800527e+002, 8.247169e+002
9.805349e+002, 8.224976e+002
9.810170e+002, 8.191271e+002
9.814991e+002, 8.147559e+002
9.819812e+002, 8.101773e+002
9.824633e+002, 8.068946e+002
9.829454e+002, 8.047823e+002
9.834276e+002, 8.033878e+002
9.839097e+002, 8.027182e+002
9.843918e+002, 8.022864e+002
9.848739e+002, 8.025343e+002
9.853560e+002, 8.023712e+002
9.858381e+002, 8.002170e+002
9.863203e+002, 7.949105e+002
9.868024e+002, 7.931459e+002
9.872845e+002, 7.962281e+002
9.877666e+002, 7.984025e+002
9.882487e+002, 7.932693e+002
9.887308e+002, 7.850685e+002
9.892130e+002, 7.849135e+002
9.896951e+002, 7.911798e+002
9.901772e+002, 7.951927e+002
9.906593e+002, 7.903836e+002
9.911414e+002, 7.852772e+002
9.916235e+002, 7.830460e+002
9.921057e+002, 7.827523e+002
9.925878e+002, 7.824976e+002
9.930699e+002, 7.822394e+002
9.935520e+002, 7.826756e+002
9.940341e+002, 7.842511e+002
9.945162e+002, 7.853847e+002
9.949984e+002, 7.832343e+002
9.954805e+002, 7.799299e+002
9.959626e+002, 7.786154e+002
9.964447e+002, 7.805675e+002
9.969268e+002, 7.814994e+002
9.974089e+002, 7.802252e+002
9.978911e+002, 7.785891e+002
9.983732e+002, 7.777684e+002
9.988553e+002, 7.775497e+002
9.993374e+002, 7.757174e+002
9.998195e+002, 7.725144e+002
1.000302e+003, 7.702556e+002
1.000784e+003, 7.713307e+002
1.001266e+003, 7.728012e+002
1.001748e+003, 7.722496e+002
1.002230e+003, 7.705655e+002
1.002712e+003, 7.702006e+002
1.003194e+003, 7.718684e+002
1.003676e+003, 7.734531e+002
1.004159e+003, 7.749246e+002
1.004641e+003, 7.756895e+002
1.005123e+003, 7.745809e+002
1.005605e+003, 7.722216e+002
1.006087e+003, 7.698544e+002
1.006569e+003, 7.675538e+002
1.007051e+003, 7.661654e+002
1.007533e+003, 7.660834e+002
1.008016e+003, 7.670646e+002
1.008498e+003, 7.693660e+002
1.008980e+003, 7.728079e+002
1.009462e+003, 7.744152e+002
1.009944e+003, 7.741110e+002
1.010426e+003, 7.733583e+002
1.010908e+003, 7.725087e+002
1.011390e+003, 7.720109e+002
1.011872e+003, 7.732452e+002
1.012355e+003, 7.751036e+002
1.012837e+003, 7.753597e+002
1.013319e+003, 7.703223e+002
1.013801e+003, 7.682531e+002
1.014283e+003, 7.707142e+002
1.014765e+003, 7.749012e+002
1.015247e+003, 7.782303e+002
1.015729e+003, 7.806823e+002
1.016211e+003, 7.812164e+002
1.016694e+003, 7.797827e+002
1.017176e+003, 7.797906e+002
1.017658e+003, 7.851678e+002
1.018140e+003, 7.914542e+002
1.018622e+003, 7.950585e+002
1.019104e+003, 7.964152e+002
1.019586e+003, 8.002100e+002
1.020068e+003, 8.065416e+002
1.020551e+003, 8.151292e+002
1.021033e+003, 8.265909e+002
1.021515e+003, 8.390229e+002
1.021997e+003, 8.493102e+002
1.022479e+003, 8.581371e+002
1.022961e+003, 8.668734e+002
1.023443e+003, 8.768501e+002
1.023925e+003, 8.846935e+002
1.024407e+003, 8.911047e+002
1.024890e+003, 8.935936e+002
1.025372e+003, 8.896964e+002
1.025854e+003, 8.794579e+002
1.026336e+003, 8.665309e+002
1.026818e+003, 8.509465e+002
1.027300e+003, 8.360912e+002
1.027782e+003, 8.231798e+002
1.028264e+003, 8.126692e+002
1.028746e+003, 8.059484e+002
1.029229e+003, 8.021221e+002
1.029711e+003, 7.974222e+002
1.030193e+003, 7.904921e+002
1.030675e+003, 7.854980e+002
1.031157e+003, 7.834280e+002
1.031639e+003, 7.828926e+002
1.032121e+003, 7.825100e+002
1.032603e+003, 7.819471e+002
1.033086e+003, 7.801766e+002
1.033568e+003, 7.767709e+002
1.034050e+003, 7.740245e+002
1.034532e+003, 7.734917e+002
1.035014e+003, 7.734205e+002
1.035496e+003, 7.728317e+002
1.035978e+003, 7.717980e+002
1.036460e+003, 7.708890e+002
1.036943e+003, 7.701285e+002
1.037425e+003, 7.703528e+002
1.037907e+003, 7.728613e+002
1.038389e+003, 7.754088e+002
1.038871e+003, 7.751747e+002
1.039353e+003, 7.736310e+002
1.039835e+003, 7.733549e+002
1.040317e+003, 7.753069e+002
1.040799e+003, 7.776764e+002
1.041281e+003, 7.806790e+002
1.041764e+003, 7.835436e+002
1.042246e+003, 7.851533e+002
1.042728e+003, 7.861115e+002
1.043210e+003, 7.882131e+002
1.043692e+003, 7.914601e+002
1.044174e+003, 7.942341e+002
1.044656e+003, 7.955423e+002
1.045138e+003, 7.963862e+002
1.045621e+003, 7.966139e+002
1.046103e+003, 7.968612e+002
1.046585e+003, 7.994144e+002
1.047067e+003, 8.043285e+002
1.047549e+003, 8.077539e+002
1.048031e+003, 8.079740e+002
1.048513e+003, 8.090508e+002
1.048995e+003, 8.158622e+002
1.049478e+003, 8.253981e+002
1.049960e+003, 8.344246e+002
1.050442e+003, 8.423840e+002
1.050924e+003, 8.496735e+002
1.051406e+003, 8.554829e+002
1.051888e+003, 8.628533e+002
1.052370e+003, 8.742911e+002
1.052852e+003, 8.881774e+002
1.053334e+003, 9.000607e+002
1.053817e+003, 9.106421e+002
1.054299e+003, 9.222803e+002
1.054781e+003, 9.354043e+002
1.055263e+003, 9.505297e+002
1.055745e+003, 9.691022e+002
1.056227e+003, 9.889130e+002
1.056709e+003, 1.007272e+003
1.057191e+003, 1.024131e+003
1.057673e+003, 1.043818e+003
1.058156e+003, 1.066995e+003
1.058638e+003, 1.087110e+003
1.059120e+003, 1.099091e+003
1.059602e+003, 1.105857e+003
1.060084e+003, 1.110044e+003
1.060566e+003, 1.111361e+003
1.061048e+003, 1.107185e+003
1.061530e+003, 1.096735e+003
1.062013e+003, 1.083306e+003
1.062495e+003, 1.067413e+003
1.062977e+003, 1.049569e+003
1.063459e+003, 1.029195e+003
1.063941e+003, 1.007627e+003
1.064423e+003, 9.868691e+002
1.064905e+003, 9.671378e+002
1.065387e+003, 9.491449e+002
1.065870e+003, 9.330553e+002
1.066352e+003, 9.191663e+002
1.066834e+003, 9.080241e+002
1.067316e+003, 8.993419e+002
1.067798e+003, 8.897762e+002
1.068280e+003, 8.795853e+002
1.068762e+003, 8.714667e+002
1.069244e+003, 8.692756e+002
1.069726e+003, 8.667695e+002
1.070208e+003, 8.591080e+002
1.070691e+003, 8.488612e+002
1.071173e+003, 8.403660e+002
1.071655e+003, 8.340303e+002
1.072137e+003, 8.282435e+002
1.072619e+003, 8.230148e+002
1.073101e+003, 8.176204e+002
1.073583e+003, 8.104823e+002
1.074065e+003, 8.033408e+002
1.074548e+003, 7.988314e+002
1.075030e+003, 7.967618e+002
1.075512e+003, 7.942480e+002
1.075994e+003, 7.897281e+002
1.076476e+003, 7.861105e+002
1.076958e+003, 7.842380e+002
1.077440e+003, 7.832864e+002
1.077922e+003, 7.820941e+002
1.078405e+003, 7.805328e+002
1.078887e+003, 7.780911e+002
1.079369e+003, 7.745390e+002
1.079851e+003, 7.707894e+002
1.080333e+003, 7.661864e+002
1.080815e+003, 7.626526e+002
1.081297e+003, 7.614288e+002
1.081779e+003, 7.623516e+002
1.082261e+003, 7.646165e+002
1.082744e+003, 7.682044e+002
1.083226e+003, 7.695948e+002
1.083708e+003, 7.657200e+002
1.084190e+003, 7.613320e+002
1.084672e+003, 7.608304e+002
1.085154e+003, 7.626730e+002
1.085636e+003, 7.647606e+002
1.086118e+003, 7.677371e+002
1.086601e+003, 7.684899e+002
1.087083e+003, 7.665488e+002
1.087565e+003, 7.640825e+002
1.088047e+003, 7.627022e+002
1.088529e+003, 7.620216e+002
1.089011e+003, 7.614384e+002
1.089493e+003, 7.609365e+002
1.089975e+003, 7.604899e+002
1.090458e+003, 7.590649e+002
1.090940e+003, 7.594533e+002
1.091422e+003, 7.635883e+002
1.091904e+003, 7.678676e+002
1.092386e+003, 7.656436e+002
1.092868e+003, 7.586649e+002
1.093350e+003, 7.544933e+002
1.093832e+003, 7.541066e+002
1.094314e+003, 7.554103e+002
1.094797e+003, 7.591774e+002
1.095279e+003, 7.622419e+002
1.095761e+003, 7.623702e+002
1.096243e+003, 7.602522e+002
1.096725e+003, 7.582514e+002
1.097207e+003, 7.563366e+002
1.097689e+003, 7.561055e+002
1.098171e+003, 7.587076e+002
1.098653e+003, 7.612162e+002
1.099136e+003, 7.600707e+002
1.099618e+003, 7.575823e+002
1.100100e+003, 7.563945e+002
1.100582e+003, 7.571303e+002
1.101064e+003, 7.579186e+002
1.101546e+003, 7.589479e+002
1.102028e+003, 7.592955e+002
1.102510e+003, 7.582457e+002
1.102993e+003, 7.563820e+002
1.103475e+003, 7.539499e+002
1.103957e+003, 7.516139e+002
1.104439e+003, 7.509104e+002
1.104921e+003, 7.548890e+002
1.105403e+003, 7.567103e+002
1.105885e+003, 7.548798e+002
1.106367e+003, 7.523082e+002
1.106849e+003, 7.520227e+002
1.107332e+003, 7.533441e+002
1.107814e+003, 7.533068e+002
1.108296e+003, 7.520215e+002
1.108778e+003, 7.511598e+002
1.109260e+003, 7.528082e+002
1.109742e+003, 7.536714e+002
1.110224e+003, 7.515593e+002
1.110706e+003, 7.483678e+002
1.111188e+003, 7.474641e+002
1.111671e+003, 7.487538e+002
1.112153e+003, 7.493580e+002
1.112635e+003, 7.488751e+002
1.113117e+003, 7.479313e+002
1.113599e+003, 7.466290e+002
1.114081e+003, 7.454134e+002
1.114563e+003, 7.443406e+002
1.115045e+003, 7.435949e+002
1.115528e+003, 7.448544e+002
1.116010e+003, 7.486498e+002
1.116492e+003, 7.509559e+002
1.116974e+003, 7.500133e+002
1.117456e+003, 7.486019e+002
1.117938e+003, 7.503621e+002
1.118420e+003, 7.536730e+002
1.118902e+003, 7.566539e+002
1.119385e+003, 7.591570e+002
1.119867e+003, 7.599643e+002
1.120349e+003, 7.582975e+002
1.120831e+003, 7.569180e+002
1.121313e+003, 7.575777e+002
1.121795e+003, 7.591522e+002
1.122277e+003, 7.592640e+002
1.122759e+003, 7.583571e+002
1.123241e+003, 7.574387e+002
1.123724e+003, 7.559584e+002
1.124206e+003, 7.562748e+002
1.124688e+003, 7.602615e+002
1.125170e+003, 7.638904e+002
1.125652e+003, 7.633568e+002
1.126134e+003, 7.595709e+002
1.126616e+003, 7.565465e+002
1.127098e+003, 7.544185e+002
1.127580e+003, 7.535860e+002
1.128063e+003, 7.558256e+002
1.128545e+003, 7.575941e+002
1.129027e+003, 7.570723e+002
1.129509e+003, 7.554938e+002
1.129991e+003, 7.541013e+002
1.130473e+003, 7.529059e+002
1.130955e+003, 7.530105e+002
1.131437e+003, 7.545231e+002
1.131920e+003, 7.560980e+002
1.132402e+003, 7.565740e+002
1.132884e+003, 7.568895e+002
1.133366e+003, 7.578760e+002
1.133848e+003, 7.592404e+002
1.134330e+003, 7.600771e+002
1.134812e+003, 7.604572e+002
1.135294e+003, 7.593152e+002
1.135776e+003, 7.560298e+002
1.136259e+003, 7.531300e+002
1.136741e+003, 7.537225e+002
1.137223e+003, 7.557065e+002
1.137705e+003, 7.567220e+002
1.138187e+003, 7.564509e+002
1.138669e+003, 7.579340e+002
1.139151e+003, 7.619218e+002
1.139633e+003, 7.651532e+002
1.140115e+003, 7.666044e+002
1.140598e+003, 7.665812e+002
1.141080e+003, 7.644308e+002
1.141562e+003, 7.615533e+002
1.142044e+003, 7.600912e+002
1.142526e+003, 7.606878e+002
1.143008e+003, 7.625362e+002
1.143490e+003, 7.666541e+002
1.143972e+003, 7.694722e+002
1.144455e+003, 7.687179e+002
1.144937e+003, 7.656219e+002
1.145419e+003, 7.613825e+002
1.145901e+003, 7.573060e+002
1.146383e+003, 7.567986e+002
1.146865e+003, 7.651007e+002
1.147347e+003, 7.704022e+002
1.147829e+003, 7.703805e+002
1.148312e+003, 7.680712e+002
1.148794e+003, 7.651892e+002
1.149276e+003, 7.620149e+002
1.149758e+003, 7.592868e+002
1.150240e+003, 7.574142e+002
1.150722e+003, 7.585059e+002
1.151204e+003, 7.683453e+002
1.151686e+003, 7.753252e+002
1.152168e+003, 7.735483e+002
1.152651e+003, 7.689720e+002
1.153133e+003, 7.688143e+002
1.153615e+003, 7.725033e+002
1.154097e+003, 7.737700e+002
1.154579e+003, 7.722916e+002
1.155061e+003, 7.709183e+002
1.155543e+003, 7.711111e+002
1.156025e+003, 7.722979e+002
1.156507e+003, 7.747325e+002
1.156990e+003, 7.777465e+002
1.157472e+003, 7.802206e+002
1.157954e+003, 7.821572e+002
1.158436e+003, 7.839267e+002
1.158918e+003, 7.856760e+002
1.159400e+003, 7.861832e+002
1.159882e+003, 7.828696e+002
1.160364e+003, 7.792980e+002
1.160847e+003, 7.783011e+002
1.161329e+003, 7.795472e+002
1.161811e+003, 7.812750e+002
1.162293e+003, 7.836207e+002
1.162775e+003, 7.847311e+002
1.163257e+003, 7.840667e+002
1.163739e+003, 7.823975e+002
1.164221e+003, 7.794349e+002
1.164703e+003, 7.765859e+002
1.165186e+003, 7.754899e+002
1.165668e+003, 7.763738e+002
1.166150e+003, 7.769601e+002
1.166632e+003, 7.772021e+002
1.167114e+003, 7.774113e+002
1.167596e+003, 7.775660e+002
1.168078e+003, 7.780432e+002
1.168560e+003, 7.801722e+002
1.169042e+003, 7.825214e+002
1.169525e+003, 7.828159e+002
1.170007e+003, 7.797521e+002
1.170489e+003, 7.785935e+002
1.170971e+003, 7.797239e+002
1.171453e+003, 7.813779e+002
1.171935e+003, 7.829328e+002
1.172417e+003, 7.841411e+002
1.172899e+003, 7.837707e+002
1.173382e+003, 7.829946e+002
1.173864e+003, 7.841799e+002
1.174346e+003, 7.911503e+002
1.174828e+003, 7.928604e+002
1.175310e+003, 7.876644e+002
1.175792e+003, 7.813712e+002
1.176274e+003, 7.771553e+002
1.176756e+003, 7.751027e+002
1.177239e+003, 7.760489e+002
1.177721e+003, 7.791281e+002
1.178203e+003, 7.821036e+002
1.178685e+003, 7.857384e+002
1.179167e+003, 7.866172e+002
1.179649e+003, 7.837075e+002
1.180131e+003, 7.800106e+002
1.180613e+003, 7.775872e+002
1.181095e+003, 7.766844e+002
1.181578e+003, 7.793346e+002
1.182060e+003, 7.843798e+002
1.182542e+003, 7.867064e+002
1.183024e+003, 7.812361e+002
1.183506e+003, 7.774263e+002
1.183988e+003, 7.767891e+002
1.184470e+003, 7.778492e+002
1.184952e+003, 7.799600e+002
1.185434e+003, 7.821438e+002
1.185917e+003, 7.806137e+002
1.186399e+003, 7.758444e+002
1.186881e+003, 7.739073e+002
1.187363e+003, 7.807952e+002
1.187845e+003, 7.860624e+002
1.188327e+003, 7.868005e+002
1.188809e+003, 7.857797e+002
1.189291e+003, 7.880543e+002
1.189774e+003, 7.919645e+002
1.190256e+003, 7.917324e+002
1.190738e+003, 7.867780e+002
1.191220e+003, 7.828423e+002
1.191702e+003, 7.830152e+002
1.192184e+003, 7.840030e+002
1.192666e+003, 7.851102e+002
1.193148e+003, 7.860368e+002
1.193630e+003, 7.855925e+002
1.194113e+003, 7.844650e+002
1.194595e+003, 7.855621e+002
1.195077e+003, 7.896727e+002
1.195559e+003, 7.921977e+002
1.196041e+003, 7.895858e+002
1.196523e+003, 7.864899e+002
1.197005e+003, 7.843710e+002
1.197487e+003, 7.832506e+002
1.197969e+003, 7.835451e+002
1.198452e+003, 7.849105e+002
1.198934e+003, 7.860846e+002
1.199416e+003, 7.866891e+002
1.199898e+003, 7.873889e+002
1.200380e+003, 7.891058e+002
1.200862e+003, 7.902230e+002
1.201344e+003, 7.897635e+002
1.201826e+003, 7.882272e+002
1.202309e+003, 7.871882e+002
1.202791e+003, 7.866750e+002
1.203273e+003, 7.870372e+002
1.203755e+003, 7.889078e+002
1.204237e+003, 7.900067e+002
1.204719e+003, 7.879441e+002
1.205201e+003, 7.862897e+002
1.205683e+003, 7.876710e+002
1.206166e+003, 7.909790e+002
1.206648e+003, 7.902263e+002
1.207130e+003, 7.865431e+002
1.207612e+003, 7.848712e+002
1.208094e+003, 7.882560e+002
1.208576e+003, 7.912057e+002
1.209058e+003, 7.905723e+002
1.209540e+003, 7.894723e+002
1.210022e+003, 7.895894e+002
1.210505e+003, 7.909074e+002
1.210987e+003, 7.938738e+002
1.211469e+003, 7.981112e+002
1.211951e+003, 8.017578e+002
1.212433e+003, 8.040814e+002
1.212915e+003, 8.056066e+002
1.213397e+003, 8.056288e+002
1.213879e+003, 8.057717e+002
1.214361e+003, 8.072474e+002
1.214844e+003, 8.099039e+002
1.215326e+003, 8.126825e+002
1.215808e+003, 8.156617e+002
1.216290e+003, 8.192928e+002
1.216772e+003, 8.230204e+002
1.217254e+003, 8.285197e+002
1.217736e+003, 8.372897e+002
1.218218e+003, 8.469105e+002
1.218701e+003, 8.549208e+002
1.219183e+003, 8.618845e+002
1.219665e+003, 8.714985e+002
1.220147e+003, 8.837609e+002
1.220629e+003, 8.987342e+002
1.221111e+003, 9.161439e+002
1.221593e+003, 9.371742e+002
1.222075e+003, 9.634949e+002
1.222557e+003, 9.917790e+002
1.223040e+003, 1.017927e+003
1.223522e+003, 1.043214e+003
1.224004e+003, 1.071984e+003
1.224486e+003, 1.104912e+003
1.224968e+003, 1.144319e+003
1.225450e+003, 1.188914e+003
1.225932e+003, 1.244218e+003
1.226414e+003, 1.311658e+003
1.226896e+003, 1.388165e+003
1.227379e+003, 1.468258e+003
1.227861e+003, 1.554357e+003
1.228343e+003, 1.665737e+003
1.228825e+003, 1.798095e+003
1.229307e+003, 1.918026e+003
1.229789e+003, 2.027344e+003
1.230271e+003, 2.096207e+003
1.230753e+003, 2.117564e+003
1.231236e+003, 2.102895e+003
1.231718e+003, 2.065495e+003
1.232200e+003, 2.004607e+003
1.232682e+003, 1.912019e+003
1.233164e+003, 1.790507e+003
1.233646e+003, 1.664834e+003
1.234128e+003, 1.534784e+003
1.234610e+003, 1.418083e+003
1.235093e+003, 1.319039e+003
1.235575e+003, 1.234230e+003
1.236057e+003, 1.161904e+003
1.236539e+003, 1.101005e+003
1.237021e+003, 1.050964e+003
1.237503e+003, 1.011631e+003
1.237985e+003, 9.783300e+002
1.238467e+003, 9.509539e+002
1.238949e+003, 9.287474e+002
1.239432e+003, 9.122028e+002
1.239914e+003, 8.992045e+002
1.240396e+003, 8.876942e+002
1.240878e+003, 8.774316e+002
1.241360e+003, 8.682663e+002
1.241842e+003, 8.600612e+002
1.242324e+003, 8.529222e+002
1.242806e+003, 8.466694e+002
1.243288e+003, 8.415529e+002
1.243771e+003, 8.377352e+002
1.244253e+003, 8.346376e+002
1.244735e+003, 8.313340e+002
1.245217e+003, 8.282645e+002
1.245699e+003, 8.263978e+002
1.246181e+003, 8.257068e+002
1.246663e+003, 8.240739e+002
1.247145e+003, 8.207388e+002
1.247628e+003, 8.180547e+002
1.248110e+003, 8.164565e+002
1.248592e+003, 8.158818e+002
1.249074e+003, 8.172201e+002
1.249556e+003, 8.189423e+002
1.250038e+003, 8.189564e+002
1.250520e+003, 8.172064e+002
1.251002e+003, 8.162039e+002
1.251484e+003, 8.158674e+002
1.251967e+003, 8.175888e+002
1.252449e+003, 8.225405e+002
1.252931e+003, 8.260754e+002
1.253413e+003, 8.207414e+002
1.253895e+003, 8.131808e+002
1.254377e+003, 8.105051e+002
1.254859e+003, 8.127870e+002
1.255341e+003, 8.138096e+002
1.255823e+003, 8.134440e+002
1.256306e+003, 8.127104e+002
1.256788e+003, 8.116979e+002
1.257270e+003, 8.111335e+002
1.257752e+003, 8.115085e+002
1.258234e+003, 8.127821e+002
1.258716e+003, 8.155494e+002
1.259198e+003, 8.192915e+002
1.259680e+003, 8.214189e+002
1.260163e+003, 8.219297e+002
1.260645e+003, 8.222074e+002
1.261127e+003, 8.225176e+002
1.261609e+003, 8.230277e+002
1.262091e+003, 8.242461e+002
1.262573e+003, 8.253511e+002
1.263055e+003, 8.257498e+002
1.263537e+003, 8.256155e+002
1.264020e+003, 8.253856e+002
1.264502e+003, 8.251172e+002
1.264984e+003, 8.252296e+002
1.265466e+003, 8.258212e+002
1.265948e+003, 8.267745e+002
1.266430e+003, 8.281412e+002
1.266912e+003, 8.297241e+002
1.267394e+003, 8.313090e+002
1.267876e+003, 8.330661e+002
1.268359e+003, 8.362842e+002
1.268841e+003, 8.402012e+002
1.269323e+003, 8.413431e+002
1.269805e+003, 8.384247e+002
1.270287e+003, 8.373805e+002
1.270769e+003, 8.430636e+002
1.271251e+003, 8.481559e+002
1.271733e+003, 8.500817e+002
1.272215e+003, 8.502293e+002
1.272698e+003, 8.512883e+002
1.273180e+003, 8.530075e+002
1.273662e+003, 8.546193e+002
1.274144e+003, 8.558880e+002
1.274626e+003, 8.585321e+002
1.275108e+003, 8.641639e+002
1.275590e+003, 8.682132e+002
1.276072e+003, 8.682679e+002
1.276555e+003, 8.678486e+002
1.277037e+003, 8.737911e+002
1.277519e+003, 8.826328e+002
1.278001e+003, 8.888141e+002
1.278483e+003, 8.910906e+002
1.278965e+003, 8.952255e+002
1.279447e+003, 9.016166e+002
1.279929e+003, 9.093258e+002
1.280411e+003, 9.183727e+002
1.280894e+003, 9.274780e+002
1.281376e+003, 9.343834e+002
1.281858e+003, 9.410223e+002
1.282340e+003, 9.500659e+002
1.282822e+003, 9.616766e+002
1.283304e+003, 9.716998e+002
1.283786e+003, 9.797516e+002
1.284268e+003, 9.903456e+002
1.284750e+003, 1.004890e+003
1.285233e+003, 1.022083e+003
1.285715e+003, 1.040287e+003
1.286197e+003, 1.060771e+003
1.286679e+003, 1.085538e+003
1.287161e+003, 1.113580e+003
1.287643e+003, 1.140796e+003
1.288125e+003, 1.167561e+003
1.288607e+003, 1.198781e+003
1.289090e+003, 1.235486e+003
1.289572e+003, 1.275662e+003
1.290054e+003, 1.316382e+003
1.290536e+003, 1.363082e+003
1.291018e+003, 1.417788e+003
1.291500e+003, 1.479944e+003
1.291982e+003, 1.548918e+003
1.292464e+003, 1.623766e+003
1.292947e+003, 1.703862e+003
1.293429e+003, 1.789367e+003
1.293911e+003, 1.876449e+003
1.294393e+003, 1.964936e+003
1.294875e+003, 2.053652e+003
1.295357e+003, 2.144942e+003
1.295839e+003, 2.232130e+003
1.296321e+003, 2.306365e+003
1.296803e+003, 2.367069e+003
1.297286e+003, 2.413159e+003
1.297768e+003, 2.444542e+003
1.298250e+003, 2.454926e+003
1.298732e+003, 2.441948e+003
1.299214e+003, 2.417413e+003
1.299696e+003, 2.382862e+003
1.300178e+003, 2.342482e+003
1.300660e+003, 2.300683e+003
##END=



