##NAMES=Lazaraskeite
##RRUFFID=R180026
##IDEAL CHEMISTRY=Cu^2+^(C_2_H_3_O_3_)_2_
##LOCALITY=Western end of Pusch Ridge in the Santa Catalina Mountains, north of Tucson, Pima County, Arizona, USA
##OWNER=RRUFF
##SOURCE=Warren Lazar
##DESCRIPTION=Pale blue to blue prismatic or bladed crystals, associated with chrysocolla, muscovite, orthoclase, calcite, and quartz. Type specimen (UAMM 22052)
##STATUS=The identification of this mineral is confirmed by single-crystal X-ray diffraction and chemical analysis.
##URL=rruff.info/R180026
##MEASURED CHEMISTRY=Cu^2+^_1.01_(C_1.994_H_3_O_3_)_2_ ; The C content of 22.6(2) wt.% was obtained from an Elemental Combustion System equipped with mass spectrometry. Crystals are easily damaged by electron beam (lower photo),
8.758203e+001, 8.185533e+002
8.806415e+001, 7.962700e+002
8.854626e+001, 7.923458e+002
8.902838e+001, 8.160830e+002
8.951050e+001, 8.444890e+002
8.999261e+001, 8.715143e+002
9.047473e+001, 8.958042e+002
9.095685e+001, 9.146984e+002
9.143896e+001, 9.252006e+002
9.192108e+001, 9.267127e+002
9.240320e+001, 9.245519e+002
9.288531e+001, 9.069232e+002
9.336743e+001, 8.708801e+002
9.384955e+001, 8.243182e+002
9.433167e+001, 7.812870e+002
9.481378e+001, 7.382847e+002
9.529590e+001, 6.969654e+002
9.577802e+001, 6.574933e+002
9.626013e+001, 6.217432e+002
9.674225e+001, 5.901178e+002
9.722437e+001, 5.620480e+002
9.770648e+001, 5.376444e+002
9.818860e+001, 5.172485e+002
9.867072e+001, 4.994968e+002
9.915283e+001, 4.837672e+002
9.963495e+001, 4.698032e+002
1.001171e+002, 4.575678e+002
1.005992e+002, 4.471086e+002
1.010813e+002, 4.380402e+002
1.015634e+002, 4.312797e+002
1.020455e+002, 4.267424e+002
1.025277e+002, 4.236090e+002
1.030098e+002, 4.211577e+002
1.034919e+002, 4.190742e+002
1.039740e+002, 4.176273e+002
1.044561e+002, 4.178151e+002
1.049382e+002, 4.205335e+002
1.054204e+002, 4.238524e+002
1.059025e+002, 4.271847e+002
1.063846e+002, 4.309700e+002
1.068667e+002, 4.360819e+002
1.073488e+002, 4.432128e+002
1.078309e+002, 4.521144e+002
1.083131e+002, 4.604850e+002
1.087952e+002, 4.684049e+002
1.092773e+002, 4.758504e+002
1.097594e+002, 4.832036e+002
1.102415e+002, 4.904055e+002
1.107236e+002, 4.961631e+002
1.112058e+002, 4.998079e+002
1.116879e+002, 5.010938e+002
1.121700e+002, 4.991489e+002
1.126521e+002, 4.926069e+002
1.131342e+002, 4.830208e+002
1.136163e+002, 4.727623e+002
1.140985e+002, 4.618489e+002
1.145806e+002, 4.504616e+002
1.150627e+002, 4.378542e+002
1.155448e+002, 4.247933e+002
1.160269e+002, 4.130594e+002
1.165090e+002, 4.042309e+002
1.169912e+002, 3.982647e+002
1.174733e+002, 3.925129e+002
1.179554e+002, 3.871841e+002
1.184375e+002, 3.818460e+002
1.189196e+002, 3.759880e+002
1.194017e+002, 3.697917e+002
1.198839e+002, 3.640195e+002
1.203660e+002, 3.595438e+002
1.208481e+002, 3.567079e+002
1.213302e+002, 3.544869e+002
1.218123e+002, 3.535077e+002
1.222944e+002, 3.525741e+002
1.227766e+002, 3.511483e+002
1.232587e+002, 3.490002e+002
1.237408e+002, 3.459161e+002
1.242229e+002, 3.414918e+002
1.247050e+002, 3.337388e+002
1.251871e+002, 3.271805e+002
1.256693e+002, 3.223283e+002
1.261514e+002, 3.185812e+002
1.266335e+002, 3.152083e+002
1.271156e+002, 3.118635e+002
1.275977e+002, 3.087422e+002
1.280798e+002, 3.064971e+002
1.285620e+002, 3.054081e+002
1.290441e+002, 3.044648e+002
1.295262e+002, 3.034716e+002
1.300083e+002, 3.023651e+002
1.304904e+002, 3.008659e+002
1.309725e+002, 2.987364e+002
1.314547e+002, 2.961277e+002
1.319368e+002, 2.934206e+002
1.324189e+002, 2.903421e+002
1.329010e+002, 2.875214e+002
1.333831e+002, 2.857852e+002
1.338652e+002, 2.853493e+002
1.343474e+002, 2.848553e+002
1.348295e+002, 2.837882e+002
1.353116e+002, 2.822318e+002
1.357937e+002, 2.801143e+002
1.362758e+002, 2.772079e+002
1.367579e+002, 2.738667e+002
1.372401e+002, 2.711020e+002
1.377222e+002, 2.695254e+002
1.382043e+002, 2.675626e+002
1.386864e+002, 2.644266e+002
1.391685e+002, 2.606551e+002
1.396507e+002, 2.570247e+002
1.401328e+002, 2.540678e+002
1.406149e+002, 2.517560e+002
1.410970e+002, 2.495962e+002
1.415791e+002, 2.482193e+002
1.420612e+002, 2.463989e+002
1.425434e+002, 2.433969e+002
1.430255e+002, 2.395831e+002
1.435076e+002, 2.358291e+002
1.439897e+002, 2.328509e+002
1.444718e+002, 2.305911e+002
1.449539e+002, 2.297442e+002
1.454361e+002, 2.319940e+002
1.459182e+002, 2.340027e+002
1.464003e+002, 2.334228e+002
1.468824e+002, 2.302419e+002
1.473645e+002, 2.265890e+002
1.478466e+002, 2.248968e+002
1.483288e+002, 2.258371e+002
1.488109e+002, 2.267814e+002
1.492930e+002, 2.277245e+002
1.497751e+002, 2.286384e+002
1.502572e+002, 2.295605e+002
1.507393e+002, 2.305313e+002
1.512215e+002, 2.313208e+002
1.517036e+002, 2.312609e+002
1.521857e+002, 2.303403e+002
1.526678e+002, 2.300677e+002
1.531499e+002, 2.312719e+002
1.536320e+002, 2.334921e+002
1.541142e+002, 2.357068e+002
1.545963e+002, 2.379460e+002
1.550784e+002, 2.396549e+002
1.555605e+002, 2.401204e+002
1.560426e+002, 2.393492e+002
1.565247e+002, 2.386663e+002
1.570069e+002, 2.389325e+002
1.574890e+002, 2.401399e+002
1.579711e+002, 2.418994e+002
1.584532e+002, 2.449299e+002
1.589353e+002, 2.479076e+002
1.594174e+002, 2.500286e+002
1.598996e+002, 2.511818e+002
1.603817e+002, 2.516198e+002
1.608638e+002, 2.513405e+002
1.613459e+002, 2.498380e+002
1.618280e+002, 2.493730e+002
1.623102e+002, 2.515329e+002
1.627923e+002, 2.539576e+002
1.632744e+002, 2.549657e+002
1.637565e+002, 2.541016e+002
1.642386e+002, 2.522599e+002
1.647207e+002, 2.510941e+002
1.652029e+002, 2.510317e+002
1.656850e+002, 2.510428e+002
1.661671e+002, 2.510956e+002
1.666492e+002, 2.511574e+002
1.671313e+002, 2.512567e+002
1.676134e+002, 2.514018e+002
1.680956e+002, 2.514927e+002
1.685777e+002, 2.512330e+002
1.690598e+002, 2.510074e+002
1.695419e+002, 2.499280e+002
1.700240e+002, 2.476684e+002
1.705061e+002, 2.445627e+002
1.709883e+002, 2.409324e+002
1.714704e+002, 2.368702e+002
1.719525e+002, 2.325710e+002
1.724346e+002, 2.289162e+002
1.729167e+002, 2.258208e+002
1.733988e+002, 2.232433e+002
1.738810e+002, 2.215091e+002
1.743631e+002, 2.203405e+002
1.748452e+002, 2.189927e+002
1.753273e+002, 2.169958e+002
1.758094e+002, 2.145703e+002
1.762915e+002, 2.126031e+002
1.767737e+002, 2.115227e+002
1.772558e+002, 2.103844e+002
1.777379e+002, 2.082271e+002
1.782200e+002, 2.051944e+002
1.787021e+002, 2.028336e+002
1.791842e+002, 2.023038e+002
1.796664e+002, 2.029833e+002
1.801485e+002, 2.035241e+002
1.806306e+002, 2.035082e+002
1.811127e+002, 2.036120e+002
1.815948e+002, 2.048602e+002
1.820769e+002, 2.075284e+002
1.825591e+002, 2.097630e+002
1.830412e+002, 2.101467e+002
1.835233e+002, 2.096715e+002
1.840054e+002, 2.092804e+002
1.844875e+002, 2.092672e+002
1.849696e+002, 2.095059e+002
1.854518e+002, 2.098672e+002
1.859339e+002, 2.105858e+002
1.864160e+002, 2.108561e+002
1.868981e+002, 2.106541e+002
1.873802e+002, 2.098417e+002
1.878623e+002, 2.081594e+002
1.883445e+002, 2.054074e+002
1.888266e+002, 2.017996e+002
1.893087e+002, 1.980193e+002
1.897908e+002, 1.934290e+002
1.902729e+002, 1.895875e+002
1.907550e+002, 1.871116e+002
1.912372e+002, 1.854664e+002
1.917193e+002, 1.840923e+002
1.922014e+002, 1.827492e+002
1.926835e+002, 1.813105e+002
1.931656e+002, 1.789027e+002
1.936477e+002, 1.738837e+002
1.941299e+002, 1.695281e+002
1.946120e+002, 1.665110e+002
1.950941e+002, 1.645203e+002
1.955762e+002, 1.630552e+002
1.960583e+002, 1.618103e+002
1.965404e+002, 1.607725e+002
1.970226e+002, 1.597149e+002
1.975047e+002, 1.585669e+002
1.979868e+002, 1.574760e+002
1.984689e+002, 1.564342e+002
1.989510e+002, 1.554794e+002
1.994331e+002, 1.546954e+002
1.999153e+002, 1.541449e+002
2.003974e+002, 1.538255e+002
2.008795e+002, 1.535775e+002
2.013616e+002, 1.538484e+002
2.018437e+002, 1.537564e+002
2.023258e+002, 1.526224e+002
2.028080e+002, 1.506906e+002
2.032901e+002, 1.489182e+002
2.037722e+002, 1.480485e+002
2.042543e+002, 1.480048e+002
2.047364e+002, 1.474395e+002
2.052185e+002, 1.453483e+002
2.057007e+002, 1.436046e+002
2.061828e+002, 1.437821e+002
2.066649e+002, 1.457207e+002
2.071470e+002, 1.475868e+002
2.076291e+002, 1.480670e+002
2.081112e+002, 1.473487e+002
2.085934e+002, 1.467591e+002
2.090755e+002, 1.462625e+002
2.095576e+002, 1.459734e+002
2.100397e+002, 1.461240e+002
2.105218e+002, 1.467356e+002
2.110039e+002, 1.472680e+002
2.114861e+002, 1.472459e+002
2.119682e+002, 1.469052e+002
2.124503e+002, 1.467120e+002
2.129324e+002, 1.465354e+002
2.134145e+002, 1.466912e+002
2.138967e+002, 1.477638e+002
2.143788e+002, 1.499603e+002
2.148609e+002, 1.521012e+002
2.153430e+002, 1.530941e+002
2.158251e+002, 1.537136e+002
2.163072e+002, 1.549404e+002
2.167894e+002, 1.571811e+002
2.172715e+002, 1.601062e+002
2.177536e+002, 1.631986e+002
2.182357e+002, 1.664660e+002
2.187178e+002, 1.698793e+002
2.191999e+002, 1.732564e+002
2.196821e+002, 1.768253e+002
2.201642e+002, 1.807693e+002
2.206463e+002, 1.850123e+002
2.211284e+002, 1.898947e+002
2.216105e+002, 1.963609e+002
2.220926e+002, 2.050091e+002
2.225748e+002, 2.141289e+002
2.230569e+002, 2.229632e+002
2.235390e+002, 2.319319e+002
2.240211e+002, 2.416130e+002
2.245032e+002, 2.523348e+002
2.249853e+002, 2.637615e+002
2.254675e+002, 2.756049e+002
2.259496e+002, 2.901465e+002
2.264317e+002, 3.009086e+002
2.269138e+002, 3.063126e+002
2.273959e+002, 3.079061e+002
2.278780e+002, 3.074044e+002
2.283602e+002, 3.056595e+002
2.288423e+002, 3.021489e+002
2.293244e+002, 2.949904e+002
2.298065e+002, 2.808305e+002
2.302886e+002, 2.673909e+002
2.307707e+002, 2.552867e+002
2.312529e+002, 2.444440e+002
2.317350e+002, 2.346801e+002
2.322171e+002, 2.259096e+002
2.326992e+002, 2.181144e+002
2.331813e+002, 2.112721e+002
2.336634e+002, 2.064621e+002
2.341456e+002, 2.013445e+002
2.346277e+002, 1.946293e+002
2.351098e+002, 1.878861e+002
2.355919e+002, 1.830550e+002
2.360740e+002, 1.810328e+002
2.365561e+002, 1.810401e+002
2.370383e+002, 1.807904e+002
2.375204e+002, 1.796071e+002
2.380025e+002, 1.789743e+002
2.384846e+002, 1.796556e+002
2.389667e+002, 1.807160e+002
2.394488e+002, 1.808713e+002
2.399310e+002, 1.795618e+002
2.404131e+002, 1.774687e+002
2.408952e+002, 1.763215e+002
2.413773e+002, 1.767507e+002
2.418594e+002, 1.772571e+002
2.423415e+002, 1.774781e+002
2.428237e+002, 1.777751e+002
2.433058e+002, 1.790130e+002
2.437879e+002, 1.816268e+002
2.442700e+002, 1.843573e+002
2.447521e+002, 1.842334e+002
2.452342e+002, 1.793587e+002
2.457164e+002, 1.756262e+002
2.461985e+002, 1.750076e+002
2.466806e+002, 1.756974e+002
2.471627e+002, 1.752223e+002
2.476448e+002, 1.727261e+002
2.481269e+002, 1.690779e+002
2.486091e+002, 1.656739e+002
2.490912e+002, 1.625812e+002
2.495733e+002, 1.594298e+002
2.500554e+002, 1.554774e+002
2.505375e+002, 1.515770e+002
2.510196e+002, 1.493826e+002
2.515018e+002, 1.495926e+002
2.519839e+002, 1.503671e+002
2.524660e+002, 1.486479e+002
2.529481e+002, 1.442899e+002
2.534302e+002, 1.406288e+002
2.539123e+002, 1.386539e+002
2.543945e+002, 1.378312e+002
2.548766e+002, 1.375711e+002
2.553587e+002, 1.379237e+002
2.558408e+002, 1.382009e+002
2.563229e+002, 1.374795e+002
2.568051e+002, 1.359017e+002
2.572872e+002, 1.340579e+002
2.577693e+002, 1.316803e+002
2.582514e+002, 1.292475e+002
2.587335e+002, 1.274542e+002
2.592156e+002, 1.263670e+002
2.596978e+002, 1.260354e+002
2.601799e+002, 1.273172e+002
2.606620e+002, 1.296532e+002
2.611441e+002, 1.309882e+002
2.616262e+002, 1.299516e+002
2.621083e+002, 1.277629e+002
2.625905e+002, 1.264929e+002
2.630726e+002, 1.265257e+002
2.635547e+002, 1.265571e+002
2.640368e+002, 1.248784e+002
2.645189e+002, 1.224159e+002
2.650010e+002, 1.211907e+002
2.654832e+002, 1.228217e+002
2.659653e+002, 1.256827e+002
2.664474e+002, 1.272193e+002
2.669295e+002, 1.272200e+002
2.674116e+002, 1.266560e+002
2.678937e+002, 1.256006e+002
2.683759e+002, 1.244558e+002
2.688580e+002, 1.238853e+002
2.693401e+002, 1.245257e+002
2.698222e+002, 1.254466e+002
2.703043e+002, 1.250534e+002
2.707864e+002, 1.229804e+002
2.712686e+002, 1.211811e+002
2.717507e+002, 1.209245e+002
2.722328e+002, 1.213478e+002
2.727149e+002, 1.215751e+002
2.731970e+002, 1.212767e+002
2.736791e+002, 1.209041e+002
2.741613e+002, 1.211967e+002
2.746434e+002, 1.223421e+002
2.751255e+002, 1.231929e+002
2.756076e+002, 1.228094e+002
2.760897e+002, 1.221906e+002
2.765718e+002, 1.222377e+002
2.770540e+002, 1.232357e+002
2.775361e+002, 1.243868e+002
2.780182e+002, 1.247199e+002
2.785003e+002, 1.241279e+002
2.789824e+002, 1.234554e+002
2.794645e+002, 1.228314e+002
2.799467e+002, 1.222540e+002
2.804288e+002, 1.216811e+002
2.809109e+002, 1.211121e+002
2.813930e+002, 1.206969e+002
2.818751e+002, 1.205830e+002
2.823572e+002, 1.207765e+002
2.828394e+002, 1.212077e+002
2.833215e+002, 1.223138e+002
2.838036e+002, 1.232899e+002
2.842857e+002, 1.237134e+002
2.847678e+002, 1.235602e+002
2.852499e+002, 1.230020e+002
2.857321e+002, 1.218735e+002
2.862142e+002, 1.201459e+002
2.866963e+002, 1.192920e+002
2.871784e+002, 1.203033e+002
2.876605e+002, 1.213169e+002
2.881426e+002, 1.213358e+002
2.886248e+002, 1.205586e+002
2.891069e+002, 1.197534e+002
2.895890e+002, 1.195329e+002
2.900711e+002, 1.198418e+002
2.905532e+002, 1.199745e+002
2.910353e+002, 1.197073e+002
2.915175e+002, 1.195397e+002
2.919996e+002, 1.197049e+002
2.924817e+002, 1.200996e+002
2.929638e+002, 1.205317e+002
2.934459e+002, 1.209080e+002
2.939280e+002, 1.212240e+002
2.944102e+002, 1.214966e+002
2.948923e+002, 1.220230e+002
2.953744e+002, 1.219868e+002
2.958565e+002, 1.205783e+002
2.963386e+002, 1.187181e+002
2.968207e+002, 1.176232e+002
2.973029e+002, 1.179342e+002
2.977850e+002, 1.191826e+002
2.982671e+002, 1.203443e+002
2.987492e+002, 1.217838e+002
2.992313e+002, 1.223313e+002
2.997134e+002, 1.209593e+002
3.001956e+002, 1.191039e+002
3.006777e+002, 1.181077e+002
3.011598e+002, 1.184285e+002
3.016419e+002, 1.194980e+002
3.021240e+002, 1.203782e+002
3.026061e+002, 1.209660e+002
3.030883e+002, 1.216533e+002
3.035704e+002, 1.237129e+002
3.040525e+002, 1.250863e+002
3.045346e+002, 1.235309e+002
3.050167e+002, 1.189376e+002
3.054988e+002, 1.141729e+002
3.059810e+002, 1.131136e+002
3.064631e+002, 1.167627e+002
3.069452e+002, 1.194855e+002
3.074273e+002, 1.203421e+002
3.079094e+002, 1.206510e+002
3.083915e+002, 1.207707e+002
3.088737e+002, 1.208375e+002
3.093558e+002, 1.210392e+002
3.098379e+002, 1.217382e+002
3.103200e+002, 1.230004e+002
3.108021e+002, 1.234050e+002
3.112842e+002, 1.218102e+002
3.117664e+002, 1.204786e+002
3.122485e+002, 1.201875e+002
3.127306e+002, 1.207838e+002
3.132127e+002, 1.219572e+002
3.136948e+002, 1.238726e+002
3.141769e+002, 1.261405e+002
3.146591e+002, 1.261328e+002
3.151412e+002, 1.212954e+002
3.156233e+002, 1.177127e+002
3.161054e+002, 1.181135e+002
3.165875e+002, 1.203990e+002
3.170696e+002, 1.216410e+002
3.175518e+002, 1.203013e+002
3.180339e+002, 1.175566e+002
3.185160e+002, 1.165341e+002
3.189981e+002, 1.183900e+002
3.194802e+002, 1.196161e+002
3.199623e+002, 1.190352e+002
3.204445e+002, 1.178252e+002
3.209266e+002, 1.170968e+002
3.214087e+002, 1.171841e+002
3.218908e+002, 1.174229e+002
3.223729e+002, 1.165680e+002
3.228550e+002, 1.140066e+002
3.233372e+002, 1.125322e+002
3.238193e+002, 1.137742e+002
3.243014e+002, 1.152673e+002
3.247835e+002, 1.153360e+002
3.252656e+002, 1.139467e+002
3.257477e+002, 1.125397e+002
3.262299e+002, 1.128875e+002
3.267120e+002, 1.152487e+002
3.271941e+002, 1.165910e+002
3.276762e+002, 1.157503e+002
3.281583e+002, 1.148621e+002
3.286404e+002, 1.151047e+002
3.291226e+002, 1.161163e+002
3.296047e+002, 1.167222e+002
3.300868e+002, 1.157726e+002
3.305689e+002, 1.136249e+002
3.310510e+002, 1.128684e+002
3.315331e+002, 1.149762e+002
3.320153e+002, 1.162618e+002
3.324974e+002, 1.149349e+002
3.329795e+002, 1.121653e+002
3.334616e+002, 1.095125e+002
3.339437e+002, 1.075446e+002
3.344258e+002, 1.064044e+002
3.349080e+002, 1.067497e+002
3.353901e+002, 1.094715e+002
3.358722e+002, 1.113520e+002
3.363543e+002, 1.103582e+002
3.368365e+002, 1.087376e+002
3.373186e+002, 1.087893e+002
3.378007e+002, 1.112333e+002
3.382828e+002, 1.138926e+002
3.387649e+002, 1.135401e+002
3.392470e+002, 1.095981e+002
3.397292e+002, 1.070150e+002
3.402113e+002, 1.079075e+002
3.406934e+002, 1.096145e+002
3.411755e+002, 1.106948e+002
3.416576e+002, 1.110170e+002
3.421397e+002, 1.108767e+002
3.426219e+002, 1.101973e+002
3.431040e+002, 1.090785e+002
3.435861e+002, 1.086106e+002
3.440682e+002, 1.090190e+002
3.445503e+002, 1.099344e+002
3.450324e+002, 1.118974e+002
3.455146e+002, 1.141908e+002
3.459967e+002, 1.149279e+002
3.464788e+002, 1.118271e+002
3.469609e+002, 1.069114e+002
3.474430e+002, 1.056955e+002
3.479251e+002, 1.097703e+002
3.484073e+002, 1.131228e+002
3.488894e+002, 1.118944e+002
3.493715e+002, 1.085113e+002
3.498536e+002, 1.056489e+002
3.503357e+002, 1.039719e+002
3.508178e+002, 1.031773e+002
3.513000e+002, 1.030667e+002
3.517821e+002, 1.036675e+002
3.522642e+002, 1.044400e+002
3.527463e+002, 1.055042e+002
3.532284e+002, 1.064308e+002
3.537105e+002, 1.066573e+002
3.541927e+002, 1.060768e+002
3.546748e+002, 1.055864e+002
3.551569e+002, 1.060127e+002
3.556390e+002, 1.071101e+002
3.561211e+002, 1.077225e+002
3.566032e+002, 1.074349e+002
3.570854e+002, 1.069780e+002
3.575675e+002, 1.070738e+002
3.580496e+002, 1.076163e+002
3.585317e+002, 1.081160e+002
3.590138e+002, 1.081735e+002
3.594959e+002, 1.081475e+002
3.599781e+002, 1.089922e+002
3.604602e+002, 1.110045e+002
3.609423e+002, 1.121718e+002
3.614244e+002, 1.100787e+002
3.619065e+002, 1.061521e+002
3.623886e+002, 1.039809e+002
3.628708e+002, 1.048126e+002
3.633529e+002, 1.067464e+002
3.638350e+002, 1.087889e+002
3.643171e+002, 1.108138e+002
3.647992e+002, 1.119653e+002
3.652813e+002, 1.118021e+002
3.657635e+002, 1.105460e+002
3.662456e+002, 1.084028e+002
3.667277e+002, 1.046557e+002
3.672098e+002, 1.022346e+002
3.676919e+002, 1.033727e+002
3.681740e+002, 1.064729e+002
3.686562e+002, 1.084228e+002
3.691383e+002, 1.083402e+002
3.696204e+002, 1.076065e+002
3.701025e+002, 1.080742e+002
3.705846e+002, 1.098676e+002
3.710667e+002, 1.107808e+002
3.715489e+002, 1.098995e+002
3.720310e+002, 1.084534e+002
3.725131e+002, 1.074118e+002
3.729952e+002, 1.068655e+002
3.734773e+002, 1.067097e+002
3.739594e+002, 1.069624e+002
3.744416e+002, 1.075674e+002
3.749237e+002, 1.078762e+002
3.754058e+002, 1.076849e+002
3.758879e+002, 1.074524e+002
3.763700e+002, 1.073053e+002
3.768521e+002, 1.072541e+002
3.773343e+002, 1.073965e+002
3.778164e+002, 1.078199e+002
3.782985e+002, 1.082605e+002
3.787806e+002, 1.080768e+002
3.792627e+002, 1.068498e+002
3.797448e+002, 1.056925e+002
3.802270e+002, 1.041835e+002
3.807091e+002, 1.030538e+002
3.811912e+002, 1.033594e+002
3.816733e+002, 1.051460e+002
3.821554e+002, 1.070895e+002
3.826375e+002, 1.076789e+002
3.831197e+002, 1.065821e+002
3.836018e+002, 1.057295e+002
3.840839e+002, 1.047584e+002
3.845660e+002, 1.043227e+002
3.850481e+002, 1.049922e+002
3.855302e+002, 1.064605e+002
3.860124e+002, 1.080852e+002
3.864945e+002, 1.095179e+002
3.869766e+002, 1.106369e+002
3.874587e+002, 1.107797e+002
3.879408e+002, 1.086633e+002
3.884229e+002, 1.070743e+002
3.889051e+002, 1.063246e+002
3.893872e+002, 1.062146e+002
3.898693e+002, 1.066990e+002
3.903514e+002, 1.077133e+002
3.908335e+002, 1.088601e+002
3.913156e+002, 1.095120e+002
3.917978e+002, 1.095723e+002
3.922799e+002, 1.093863e+002
3.927620e+002, 1.087908e+002
3.932441e+002, 1.081121e+002
3.937262e+002, 1.073388e+002
3.942083e+002, 1.065933e+002
3.946905e+002, 1.062036e+002
3.951726e+002, 1.065594e+002
3.956547e+002, 1.075506e+002
3.961368e+002, 1.079797e+002
3.966189e+002, 1.072253e+002
3.971010e+002, 1.068057e+002
3.975832e+002, 1.079827e+002
3.980653e+002, 1.094712e+002
3.985474e+002, 1.092724e+002
3.990295e+002, 1.063322e+002
3.995116e+002, 1.026741e+002
3.999937e+002, 1.018742e+002
4.004759e+002, 1.045636e+002
4.009580e+002, 1.068359e+002
4.014401e+002, 1.077213e+002
4.019222e+002, 1.078661e+002
4.024043e+002, 1.074559e+002
4.028864e+002, 1.065736e+002
4.033686e+002, 1.057680e+002
4.038507e+002, 1.054736e+002
4.043328e+002, 1.055995e+002
4.048149e+002, 1.058044e+002
4.052970e+002, 1.061851e+002
4.057791e+002, 1.063795e+002
4.062613e+002, 1.057673e+002
4.067434e+002, 1.048080e+002
4.072255e+002, 1.045018e+002
4.077076e+002, 1.056426e+002
4.081897e+002, 1.071003e+002
4.086718e+002, 1.076878e+002
4.091540e+002, 1.074202e+002
4.096361e+002, 1.065067e+002
4.101182e+002, 1.044483e+002
4.106003e+002, 1.023080e+002
4.110824e+002, 1.019743e+002
4.115645e+002, 1.038529e+002
4.120467e+002, 1.058006e+002
4.125288e+002, 1.072845e+002
4.130109e+002, 1.081307e+002
4.134930e+002, 1.077097e+002
4.139751e+002, 1.057767e+002
4.144572e+002, 1.037073e+002
4.149394e+002, 1.028766e+002
4.154215e+002, 1.033689e+002
4.159036e+002, 1.041996e+002
4.163857e+002, 1.061242e+002
4.168678e+002, 1.076960e+002
4.173499e+002, 1.075209e+002
4.178321e+002, 1.060623e+002
4.183142e+002, 1.050386e+002
4.187963e+002, 1.054517e+002
4.192784e+002, 1.068922e+002
4.197605e+002, 1.079760e+002
4.202426e+002, 1.088176e+002
4.207248e+002, 1.091787e+002
4.212069e+002, 1.086235e+002
4.216890e+002, 1.077874e+002
4.221711e+002, 1.073902e+002
4.226532e+002, 1.075647e+002
4.231353e+002, 1.078353e+002
4.236175e+002, 1.076007e+002
4.240996e+002, 1.066983e+002
4.245817e+002, 1.061330e+002
4.250638e+002, 1.060652e+002
4.255459e+002, 1.061235e+002
4.260280e+002, 1.063830e+002
4.265102e+002, 1.066386e+002
4.269923e+002, 1.064681e+002
4.274744e+002, 1.055829e+002
4.279565e+002, 1.042667e+002
4.284386e+002, 1.035152e+002
4.289207e+002, 1.037141e+002
4.294029e+002, 1.037907e+002
4.298850e+002, 1.035669e+002
4.303671e+002, 1.032075e+002
4.308492e+002, 1.026514e+002
4.313313e+002, 1.019748e+002
4.318134e+002, 1.016536e+002
4.322956e+002, 1.025182e+002
4.327777e+002, 1.046214e+002
4.332598e+002, 1.057158e+002
4.337419e+002, 1.050940e+002
4.342241e+002, 1.042810e+002
4.347062e+002, 1.038525e+002
4.351883e+002, 1.037833e+002
4.356704e+002, 1.040306e+002
4.361525e+002, 1.046456e+002
4.366346e+002, 1.054697e+002
4.371168e+002, 1.064028e+002
4.375989e+002, 1.075005e+002
4.380810e+002, 1.081151e+002
4.385631e+002, 1.079333e+002
4.390452e+002, 1.071790e+002
4.395273e+002, 1.058896e+002
4.400095e+002, 1.039733e+002
4.404916e+002, 1.026733e+002
4.409737e+002, 1.028779e+002
4.414558e+002, 1.041220e+002
4.419379e+002, 1.057320e+002
4.424200e+002, 1.077783e+002
4.429022e+002, 1.091436e+002
4.433843e+002, 1.082662e+002
4.438664e+002, 1.057156e+002
4.443485e+002, 1.049753e+002
4.448306e+002, 1.082103e+002
4.453127e+002, 1.113827e+002
4.457949e+002, 1.118763e+002
4.462770e+002, 1.104654e+002
4.467591e+002, 1.093000e+002
4.472412e+002, 1.092987e+002
4.477233e+002, 1.097561e+002
4.482054e+002, 1.092898e+002
4.486876e+002, 1.072340e+002
4.491697e+002, 1.057592e+002
4.496518e+002, 1.050045e+002
4.501339e+002, 1.048289e+002
4.506160e+002, 1.054744e+002
4.510981e+002, 1.067141e+002
4.515803e+002, 1.077297e+002
4.520624e+002, 1.078216e+002
4.525445e+002, 1.070655e+002
4.530266e+002, 1.064474e+002
4.535087e+002, 1.056409e+002
4.539908e+002, 1.053878e+002
4.544730e+002, 1.064187e+002
4.549551e+002, 1.077822e+002
4.554372e+002, 1.082191e+002
4.559193e+002, 1.074045e+002
4.564014e+002, 1.063620e+002
4.568835e+002, 1.068002e+002
4.573657e+002, 1.092968e+002
4.578478e+002, 1.106157e+002
4.583299e+002, 1.093846e+002
4.588120e+002, 1.081474e+002
4.592941e+002, 1.079009e+002
4.597762e+002, 1.084806e+002
4.602584e+002, 1.093374e+002
4.607405e+002, 1.101859e+002
4.612226e+002, 1.111114e+002
4.617047e+002, 1.124999e+002
4.621868e+002, 1.145921e+002
4.626689e+002, 1.159753e+002
4.631511e+002, 1.153253e+002
4.636332e+002, 1.142900e+002
4.641153e+002, 1.147498e+002
4.645974e+002, 1.169468e+002
4.650795e+002, 1.187827e+002
4.655616e+002, 1.185904e+002
4.660438e+002, 1.171958e+002
4.665259e+002, 1.166287e+002
4.670080e+002, 1.172895e+002
4.674901e+002, 1.177443e+002
4.679722e+002, 1.165880e+002
4.684543e+002, 1.142200e+002
4.689365e+002, 1.127115e+002
4.694186e+002, 1.126805e+002
4.699007e+002, 1.129812e+002
4.703828e+002, 1.131662e+002
4.708649e+002, 1.132404e+002
4.713470e+002, 1.132489e+002
4.718292e+002, 1.132184e+002
4.723113e+002, 1.130296e+002
4.727934e+002, 1.125027e+002
4.732755e+002, 1.116001e+002
4.737576e+002, 1.103843e+002
4.742397e+002, 1.080753e+002
4.747219e+002, 1.061472e+002
4.752040e+002, 1.058724e+002
4.756861e+002, 1.067880e+002
4.761682e+002, 1.073680e+002
4.766503e+002, 1.065601e+002
4.771324e+002, 1.049086e+002
4.776146e+002, 1.046141e+002
4.780967e+002, 1.069415e+002
4.785788e+002, 1.086130e+002
4.790609e+002, 1.091145e+002
4.795430e+002, 1.090576e+002
4.800251e+002, 1.087782e+002
4.805073e+002, 1.084014e+002
4.809894e+002, 1.080776e+002
4.814715e+002, 1.080667e+002
4.819536e+002, 1.083165e+002
4.824357e+002, 1.079892e+002
4.829178e+002, 1.064498e+002
4.834000e+002, 1.054512e+002
4.838821e+002, 1.064118e+002
4.843642e+002, 1.080899e+002
4.848463e+002, 1.087369e+002
4.853284e+002, 1.076614e+002
4.858105e+002, 1.062548e+002
4.862927e+002, 1.057489e+002
4.867748e+002, 1.060752e+002
4.872569e+002, 1.069544e+002
4.877390e+002, 1.086362e+002
4.882211e+002, 1.102263e+002
4.887032e+002, 1.106097e+002
4.891854e+002, 1.099866e+002
4.896675e+002, 1.092651e+002
4.901496e+002, 1.079459e+002
4.906317e+002, 1.071386e+002
4.911138e+002, 1.083558e+002
4.915959e+002, 1.110187e+002
4.920781e+002, 1.127714e+002
4.925602e+002, 1.123236e+002
4.930423e+002, 1.108188e+002
4.935244e+002, 1.108442e+002
4.940065e+002, 1.138767e+002
4.944886e+002, 1.155987e+002
4.949708e+002, 1.148735e+002
4.954529e+002, 1.135431e+002
4.959350e+002, 1.129288e+002
4.964171e+002, 1.130579e+002
4.968992e+002, 1.132457e+002
4.973813e+002, 1.129498e+002
4.978635e+002, 1.122863e+002
4.983456e+002, 1.119844e+002
4.988277e+002, 1.122036e+002
4.993098e+002, 1.125724e+002
4.997919e+002, 1.133343e+002
5.002740e+002, 1.140188e+002
5.007562e+002, 1.141691e+002
5.012383e+002, 1.137303e+002
5.017204e+002, 1.130635e+002
5.022025e+002, 1.123608e+002
5.026846e+002, 1.116643e+002
5.031667e+002, 1.115451e+002
5.036489e+002, 1.123657e+002
5.041310e+002, 1.130872e+002
5.046131e+002, 1.130723e+002
5.050952e+002, 1.126392e+002
5.055773e+002, 1.121221e+002
5.060594e+002, 1.113757e+002
5.065416e+002, 1.111105e+002
5.070237e+002, 1.125252e+002
5.075058e+002, 1.149916e+002
5.079879e+002, 1.162548e+002
5.084700e+002, 1.156863e+002
5.089521e+002, 1.141999e+002
5.094343e+002, 1.123711e+002
5.099164e+002, 1.102341e+002
5.103985e+002, 1.091549e+002
5.108806e+002, 1.105292e+002
5.113627e+002, 1.117139e+002
5.118448e+002, 1.106401e+002
5.123270e+002, 1.082624e+002
5.128091e+002, 1.069391e+002
5.132912e+002, 1.077161e+002
5.137733e+002, 1.094939e+002
5.142554e+002, 1.102390e+002
5.147375e+002, 1.093514e+002
5.152197e+002, 1.088153e+002
5.157018e+002, 1.090431e+002
5.161839e+002, 1.091876e+002
5.166660e+002, 1.083822e+002
5.171481e+002, 1.071310e+002
5.176302e+002, 1.067130e+002
5.181124e+002, 1.079660e+002
5.185945e+002, 1.103018e+002
5.190766e+002, 1.124355e+002
5.195587e+002, 1.147231e+002
5.200408e+002, 1.156417e+002
5.205229e+002, 1.131136e+002
5.210051e+002, 1.103856e+002
5.214872e+002, 1.099178e+002
5.219693e+002, 1.114943e+002
5.224514e+002, 1.128120e+002
5.229335e+002, 1.120820e+002
5.234156e+002, 1.103627e+002
5.238978e+002, 1.096062e+002
5.243799e+002, 1.098611e+002
5.248620e+002, 1.105072e+002
5.253441e+002, 1.112656e+002
5.258262e+002, 1.122357e+002
5.263083e+002, 1.136565e+002
5.267905e+002, 1.157023e+002
5.272726e+002, 1.175835e+002
5.277547e+002, 1.192700e+002
5.282368e+002, 1.205597e+002
5.287189e+002, 1.208060e+002
5.292010e+002, 1.201781e+002
5.296832e+002, 1.201889e+002
5.301653e+002, 1.222300e+002
5.306474e+002, 1.257597e+002
5.311295e+002, 1.271553e+002
5.316116e+002, 1.230491e+002
5.320938e+002, 1.209848e+002
5.325759e+002, 1.228862e+002
5.330580e+002, 1.262496e+002
5.335401e+002, 1.289158e+002
5.340222e+002, 1.305201e+002
5.345043e+002, 1.319461e+002
5.349865e+002, 1.340026e+002
5.354686e+002, 1.366482e+002
5.359507e+002, 1.394070e+002
5.364328e+002, 1.425170e+002
5.369149e+002, 1.453038e+002
5.373970e+002, 1.475169e+002
5.378792e+002, 1.493162e+002
5.383613e+002, 1.507929e+002
5.388434e+002, 1.519606e+002
5.393255e+002, 1.528952e+002
5.398076e+002, 1.542101e+002
5.402897e+002, 1.553053e+002
5.407719e+002, 1.543410e+002
5.412540e+002, 1.509200e+002
5.417361e+002, 1.466259e+002
5.422182e+002, 1.422629e+002
5.427003e+002, 1.379746e+002
5.431824e+002, 1.342626e+002
5.436646e+002, 1.312716e+002
5.441467e+002, 1.286671e+002
5.446288e+002, 1.262736e+002
5.451109e+002, 1.242109e+002
5.455930e+002, 1.226946e+002
5.460751e+002, 1.217452e+002
5.465573e+002, 1.211163e+002
5.470394e+002, 1.205205e+002
5.475215e+002, 1.199458e+002
5.480036e+002, 1.199390e+002
5.484857e+002, 1.211315e+002
5.489678e+002, 1.221955e+002
5.494500e+002, 1.229293e+002
5.499321e+002, 1.233969e+002
5.504142e+002, 1.236731e+002
5.508963e+002, 1.237807e+002
5.513784e+002, 1.237231e+002
5.518605e+002, 1.233201e+002
5.523427e+002, 1.226290e+002
5.528248e+002, 1.225475e+002
5.533069e+002, 1.232642e+002
5.537890e+002, 1.242622e+002
5.542711e+002, 1.256718e+002
5.547532e+002, 1.270517e+002
5.552354e+002, 1.276117e+002
5.557175e+002, 1.269211e+002
5.561996e+002, 1.262213e+002
5.566817e+002, 1.260871e+002
5.571638e+002, 1.265498e+002
5.576459e+002, 1.280390e+002
5.581281e+002, 1.306533e+002
5.586102e+002, 1.328831e+002
5.590923e+002, 1.332681e+002
5.595744e+002, 1.319190e+002
5.600565e+002, 1.312448e+002
5.605386e+002, 1.311890e+002
5.610208e+002, 1.317498e+002
5.615029e+002, 1.334861e+002
5.619850e+002, 1.355589e+002
5.624671e+002, 1.367502e+002
5.629492e+002, 1.369616e+002
5.634313e+002, 1.374397e+002
5.639135e+002, 1.395562e+002
5.643956e+002, 1.432892e+002
5.648777e+002, 1.470502e+002
5.653598e+002, 1.510128e+002
5.658419e+002, 1.547174e+002
5.663240e+002, 1.582163e+002
5.668062e+002, 1.613430e+002
5.672883e+002, 1.635776e+002
5.677704e+002, 1.647772e+002
5.682525e+002, 1.664523e+002
5.687346e+002, 1.698299e+002
5.692167e+002, 1.745950e+002
5.696989e+002, 1.800484e+002
5.701810e+002, 1.862520e+002
5.706631e+002, 1.923383e+002
5.711452e+002, 1.975562e+002
5.716273e+002, 2.023265e+002
5.721094e+002, 2.078786e+002
5.725916e+002, 2.141255e+002
5.730737e+002, 2.212262e+002
5.735558e+002, 2.299790e+002
5.740379e+002, 2.391788e+002
5.745200e+002, 2.472430e+002
5.750021e+002, 2.541505e+002
5.754843e+002, 2.612736e+002
5.759664e+002, 2.698510e+002
5.764485e+002, 2.793936e+002
5.769306e+002, 2.868431e+002
5.774127e+002, 2.911940e+002
5.778948e+002, 2.949002e+002
5.783770e+002, 2.980133e+002
5.788591e+002, 3.008613e+002
5.793412e+002, 3.045692e+002
5.798233e+002, 3.086319e+002
5.803054e+002, 3.103733e+002
5.807875e+002, 3.068313e+002
5.812697e+002, 2.999513e+002
5.817518e+002, 2.951813e+002
5.822339e+002, 2.929633e+002
5.827161e+002, 2.885600e+002
5.831982e+002, 2.791187e+002
5.836803e+002, 2.674159e+002
5.841624e+002, 2.577527e+002
5.846445e+002, 2.502640e+002
5.851266e+002, 2.424996e+002
5.856088e+002, 2.333150e+002
5.860909e+002, 2.239724e+002
5.865730e+002, 2.155070e+002
5.870551e+002, 2.078980e+002
5.875372e+002, 2.006633e+002
5.880193e+002, 1.936070e+002
5.885015e+002, 1.868876e+002
5.889836e+002, 1.809082e+002
5.894657e+002, 1.759155e+002
5.899478e+002, 1.711585e+002
5.904299e+002, 1.664775e+002
5.909120e+002, 1.621419e+002
5.913942e+002, 1.584867e+002
5.918763e+002, 1.552665e+002
5.923584e+002, 1.517620e+002
5.928405e+002, 1.473798e+002
5.933226e+002, 1.435310e+002
5.938047e+002, 1.433303e+002
5.942869e+002, 1.466715e+002
5.947690e+002, 1.472220e+002
5.952511e+002, 1.427806e+002
5.957332e+002, 1.372321e+002
5.962153e+002, 1.339673e+002
5.966974e+002, 1.323923e+002
5.971796e+002, 1.306212e+002
5.976617e+002, 1.278095e+002
5.981438e+002, 1.253403e+002
5.986259e+002, 1.241381e+002
5.991080e+002, 1.237355e+002
5.995901e+002, 1.234024e+002
6.000723e+002, 1.229389e+002
6.005544e+002, 1.223673e+002
6.010365e+002, 1.216686e+002
6.015186e+002, 1.208326e+002
6.020007e+002, 1.203518e+002
6.024828e+002, 1.210667e+002
6.029650e+002, 1.210974e+002
6.034471e+002, 1.194578e+002
6.039292e+002, 1.173872e+002
6.044113e+002, 1.161655e+002
6.048934e+002, 1.159913e+002
6.053755e+002, 1.160536e+002
6.058577e+002, 1.157864e+002
6.063398e+002, 1.151917e+002
6.068219e+002, 1.140774e+002
6.073040e+002, 1.122618e+002
6.077861e+002, 1.109667e+002
6.082682e+002, 1.107641e+002
6.087504e+002, 1.114061e+002
6.092325e+002, 1.126574e+002
6.097146e+002, 1.147990e+002
6.101967e+002, 1.160398e+002
6.106788e+002, 1.151773e+002
6.111609e+002, 1.137766e+002
6.116431e+002, 1.133131e+002
6.121252e+002, 1.136008e+002
6.126073e+002, 1.135974e+002
6.130894e+002, 1.127318e+002
6.135715e+002, 1.114784e+002
6.140536e+002, 1.108547e+002
6.145358e+002, 1.109783e+002
6.150179e+002, 1.114597e+002
6.155000e+002, 1.133846e+002
6.159821e+002, 1.145761e+002
6.164642e+002, 1.135783e+002
6.169464e+002, 1.112738e+002
6.174285e+002, 1.093621e+002
6.179106e+002, 1.085067e+002
6.183927e+002, 1.082041e+002
6.188748e+002, 1.079719e+002
6.193569e+002, 1.078091e+002
6.198391e+002, 1.076712e+002
6.203212e+002, 1.075096e+002
6.208033e+002, 1.075704e+002
6.212854e+002, 1.082559e+002
6.217675e+002, 1.093629e+002
6.222496e+002, 1.097228e+002
6.227318e+002, 1.080897e+002
6.232139e+002, 1.073478e+002
6.236960e+002, 1.093994e+002
6.241781e+002, 1.120737e+002
6.246602e+002, 1.129608e+002
6.251423e+002, 1.118934e+002
6.256245e+002, 1.101698e+002
6.261066e+002, 1.087284e+002
6.265887e+002, 1.075963e+002
6.270708e+002, 1.069316e+002
6.275529e+002, 1.069766e+002
6.280350e+002, 1.069065e+002
6.285172e+002, 1.064623e+002
6.289993e+002, 1.059158e+002
6.294814e+002, 1.052175e+002
6.299635e+002, 1.045041e+002
6.304456e+002, 1.043668e+002
6.309277e+002, 1.057357e+002
6.314099e+002, 1.072360e+002
6.318920e+002, 1.069417e+002
6.323741e+002, 1.053565e+002
6.328562e+002, 1.046891e+002
6.333383e+002, 1.057307e+002
6.338204e+002, 1.071980e+002
6.343026e+002, 1.075413e+002
6.347847e+002, 1.066112e+002
6.352668e+002, 1.059420e+002
6.357489e+002, 1.057446e+002
6.362310e+002, 1.055124e+002
6.367131e+002, 1.051319e+002
6.371953e+002, 1.046227e+002
6.376774e+002, 1.038979e+002
6.381595e+002, 1.030040e+002
6.386416e+002, 1.022928e+002
6.391237e+002, 1.020188e+002
6.396058e+002, 1.022117e+002
6.400880e+002, 1.032593e+002
6.405701e+002, 1.055193e+002
6.410522e+002, 1.071821e+002
6.415343e+002, 1.074353e+002
6.420164e+002, 1.067935e+002
6.424985e+002, 1.057474e+002
6.429807e+002, 1.042167e+002
6.434628e+002, 1.034632e+002
6.439449e+002, 1.047026e+002
6.444270e+002, 1.061227e+002
6.449091e+002, 1.060245e+002
6.453912e+002, 1.048797e+002
6.458734e+002, 1.040324e+002
6.463555e+002, 1.040320e+002
6.468376e+002, 1.046783e+002
6.473197e+002, 1.058865e+002
6.478018e+002, 1.080398e+002
6.482839e+002, 1.085392e+002
6.487661e+002, 1.052867e+002
6.492482e+002, 1.029442e+002
6.497303e+002, 1.037869e+002
6.502124e+002, 1.058881e+002
6.506945e+002, 1.067902e+002
6.511766e+002, 1.059266e+002
6.516588e+002, 1.047222e+002
6.521409e+002, 1.040665e+002
6.526230e+002, 1.038811e+002
6.531051e+002, 1.041459e+002
6.535872e+002, 1.048398e+002
6.540693e+002, 1.054400e+002
6.545515e+002, 1.056690e+002
6.550336e+002, 1.056491e+002
6.555157e+002, 1.056332e+002
6.559978e+002, 1.056390e+002
6.564799e+002, 1.056037e+002
6.569620e+002, 1.055364e+002
6.574442e+002, 1.054188e+002
6.579263e+002, 1.051453e+002
6.584084e+002, 1.048382e+002
6.588905e+002, 1.047965e+002
6.593726e+002, 1.051385e+002
6.598547e+002, 1.054154e+002
6.603369e+002, 1.047962e+002
6.608190e+002, 1.033851e+002
6.613011e+002, 1.028153e+002
6.617832e+002, 1.034474e+002
6.622653e+002, 1.041392e+002
6.627474e+002, 1.041495e+002
6.632296e+002, 1.038622e+002
6.637117e+002, 1.041074e+002
6.641938e+002, 1.051596e+002
6.646759e+002, 1.058727e+002
6.651580e+002, 1.060045e+002
6.656401e+002, 1.055604e+002
6.661223e+002, 1.038639e+002
6.666044e+002, 1.015386e+002
6.670865e+002, 1.006159e+002
6.675686e+002, 1.021960e+002
6.680507e+002, 1.048776e+002
6.685328e+002, 1.059469e+002
6.690150e+002, 1.049977e+002
6.694971e+002, 1.041572e+002
6.699792e+002, 1.032468e+002
6.704613e+002, 1.027393e+002
6.709434e+002, 1.033782e+002
6.714255e+002, 1.043190e+002
6.719077e+002, 1.040247e+002
6.723898e+002, 1.018473e+002
6.728719e+002, 1.001690e+002
6.733540e+002, 1.009700e+002
6.738361e+002, 1.030077e+002
6.743182e+002, 1.044677e+002
6.748004e+002, 1.052214e+002
6.752825e+002, 1.057244e+002
6.757646e+002, 1.062325e+002
6.762467e+002, 1.066412e+002
6.767288e+002, 1.066396e+002
6.772109e+002, 1.056257e+002
6.776931e+002, 1.056350e+002
6.781752e+002, 1.083535e+002
6.786573e+002, 1.102394e+002
6.791394e+002, 1.089545e+002
6.796215e+002, 1.060619e+002
6.801036e+002, 1.041727e+002
6.805858e+002, 1.041901e+002
6.810679e+002, 1.048923e+002
6.815500e+002, 1.051449e+002
6.820321e+002, 1.051556e+002
6.825142e+002, 1.055802e+002
6.829963e+002, 1.064865e+002
6.834785e+002, 1.074641e+002
6.839606e+002, 1.083616e+002
6.844427e+002, 1.091067e+002
6.849248e+002, 1.095525e+002
6.854069e+002, 1.097603e+002
6.858890e+002, 1.094848e+002
6.863712e+002, 1.080733e+002
6.868533e+002, 1.068242e+002
6.873354e+002, 1.067171e+002
6.878175e+002, 1.072013e+002
6.882996e+002, 1.070495e+002
6.887817e+002, 1.058159e+002
6.892639e+002, 1.046796e+002
6.897460e+002, 1.055196e+002
6.902281e+002, 1.079212e+002
6.907102e+002, 1.089145e+002
6.911923e+002, 1.081879e+002
6.916744e+002, 1.068125e+002
6.921566e+002, 1.046331e+002
6.926387e+002, 1.026188e+002
6.931208e+002, 1.030767e+002
6.936029e+002, 1.067629e+002
6.940850e+002, 1.092185e+002
6.945671e+002, 1.083323e+002
6.950493e+002, 1.073238e+002
6.955314e+002, 1.086524e+002
6.960135e+002, 1.113361e+002
6.964956e+002, 1.133875e+002
6.969777e+002, 1.140521e+002
6.974598e+002, 1.136750e+002
6.979420e+002, 1.122244e+002
6.984241e+002, 1.097925e+002
6.989062e+002, 1.088859e+002
6.993883e+002, 1.098655e+002
6.998704e+002, 1.113739e+002
7.003525e+002, 1.129982e+002
7.008347e+002, 1.147611e+002
7.013168e+002, 1.170368e+002
7.017989e+002, 1.199671e+002
7.022810e+002, 1.214554e+002
7.027631e+002, 1.187259e+002
7.032452e+002, 1.164207e+002
7.037274e+002, 1.189629e+002
7.042095e+002, 1.241964e+002
7.046916e+002, 1.275821e+002
7.051737e+002, 1.276998e+002
7.056558e+002, 1.265540e+002
7.061379e+002, 1.264490e+002
7.066201e+002, 1.273069e+002
7.071022e+002, 1.276458e+002
7.075843e+002, 1.272420e+002
7.080664e+002, 1.268417e+002
7.085485e+002, 1.265383e+002
7.090306e+002, 1.264470e+002
7.095128e+002, 1.266231e+002
7.099949e+002, 1.270795e+002
7.104770e+002, 1.279462e+002
7.109591e+002, 1.301078e+002
7.114412e+002, 1.318811e+002
7.119233e+002, 1.319945e+002
7.124055e+002, 1.308457e+002
7.128876e+002, 1.288423e+002
7.133697e+002, 1.262425e+002
7.138518e+002, 1.240394e+002
7.143339e+002, 1.232938e+002
7.148160e+002, 1.237868e+002
7.152982e+002, 1.239576e+002
7.157803e+002, 1.238194e+002
7.162624e+002, 1.233289e+002
7.167445e+002, 1.225759e+002
7.172266e+002, 1.213584e+002
7.177087e+002, 1.188816e+002
7.181909e+002, 1.156716e+002
7.186730e+002, 1.139022e+002
7.191551e+002, 1.152583e+002
7.196372e+002, 1.168806e+002
7.201193e+002, 1.167615e+002
7.206014e+002, 1.156219e+002
7.210836e+002, 1.146197e+002
7.215657e+002, 1.139610e+002
7.220478e+002, 1.133157e+002
7.225299e+002, 1.124020e+002
7.230120e+002, 1.113895e+002
7.234941e+002, 1.109710e+002
7.239763e+002, 1.114498e+002
7.244584e+002, 1.116706e+002
7.249405e+002, 1.112664e+002
7.254226e+002, 1.108542e+002
7.259047e+002, 1.108522e+002
7.263868e+002, 1.110693e+002
7.268690e+002, 1.110899e+002
7.273511e+002, 1.107923e+002
7.278332e+002, 1.103620e+002
7.283153e+002, 1.099902e+002
7.287974e+002, 1.095091e+002
7.292795e+002, 1.084849e+002
7.297617e+002, 1.070497e+002
7.302438e+002, 1.059238e+002
7.307259e+002, 1.054908e+002
7.312080e+002, 1.056216e+002
7.316901e+002, 1.061453e+002
7.321722e+002, 1.072300e+002
7.326544e+002, 1.079817e+002
7.331365e+002, 1.082185e+002
7.336186e+002, 1.083696e+002
7.341007e+002, 1.091280e+002
7.345828e+002, 1.096617e+002
7.350649e+002, 1.085075e+002
7.355471e+002, 1.052903e+002
7.360292e+002, 1.028381e+002
7.365113e+002, 1.031602e+002
7.369934e+002, 1.043220e+002
7.374755e+002, 1.044982e+002
7.379576e+002, 1.038648e+002
7.384398e+002, 1.030900e+002
7.389219e+002, 1.024242e+002
7.394040e+002, 1.020057e+002
7.398861e+002, 1.019839e+002
7.403682e+002, 1.023598e+002
7.408503e+002, 1.033856e+002
7.413325e+002, 1.060126e+002
7.418146e+002, 1.072684e+002
7.422967e+002, 1.048428e+002
7.427788e+002, 1.018098e+002
7.432609e+002, 1.009482e+002
7.437430e+002, 1.020486e+002
7.442252e+002, 1.027223e+002
7.447073e+002, 1.013045e+002
7.451894e+002, 1.002372e+002
7.456715e+002, 1.018957e+002
7.461536e+002, 1.046162e+002
7.466357e+002, 1.056321e+002
7.471179e+002, 1.046028e+002
7.476000e+002, 1.030993e+002
7.480821e+002, 1.023274e+002
7.485642e+002, 1.020082e+002
7.490463e+002, 1.010062e+002
7.495284e+002, 9.889836e+001
7.500106e+002, 9.810878e+001
7.504927e+002, 9.972678e+001
7.509748e+002, 1.016651e+002
7.514569e+002, 1.025917e+002
7.519390e+002, 1.027910e+002
7.524211e+002, 1.028108e+002
7.529033e+002, 1.026788e+002
7.533854e+002, 1.024431e+002
7.538675e+002, 1.019922e+002
7.543496e+002, 1.015426e+002
7.548317e+002, 1.010820e+002
7.553138e+002, 1.008089e+002
7.557960e+002, 1.014304e+002
7.562781e+002, 1.032708e+002
7.567602e+002, 1.051164e+002
7.572423e+002, 1.048185e+002
7.577244e+002, 1.024756e+002
7.582065e+002, 1.016346e+002
7.586887e+002, 1.029186e+002
7.591708e+002, 1.036836e+002
7.596529e+002, 1.023067e+002
7.601350e+002, 1.002454e+002
7.606171e+002, 9.987679e+001
7.610992e+002, 1.013309e+002
7.615814e+002, 1.022195e+002
7.620635e+002, 1.015104e+002
7.625456e+002, 1.010146e+002
7.630277e+002, 1.019344e+002
7.635098e+002, 1.033636e+002
7.639919e+002, 1.041672e+002
7.644741e+002, 1.041358e+002
7.649562e+002, 1.036604e+002
7.654383e+002, 1.029490e+002
7.659204e+002, 1.021257e+002
7.664025e+002, 1.014703e+002
7.668846e+002, 1.009821e+002
7.673668e+002, 1.005409e+002
7.678489e+002, 1.000806e+002
7.683310e+002, 9.982222e+001
7.688131e+002, 1.000221e+002
7.692952e+002, 1.005830e+002
7.697773e+002, 1.009513e+002
7.702595e+002, 1.014090e+002
7.707416e+002, 1.012715e+002
7.712237e+002, 9.994057e+001
7.717058e+002, 9.852165e+001
7.721879e+002, 9.795726e+001
7.726700e+002, 9.780309e+001
7.731522e+002, 9.669777e+001
7.736343e+002, 9.399756e+001
7.741164e+002, 9.211287e+001
7.745985e+002, 9.476799e+001
7.750806e+002, 9.952644e+001
7.755627e+002, 1.001577e+002
7.760449e+002, 9.672926e+001
7.765270e+002, 9.425153e+001
7.770091e+002, 9.499367e+001
7.774912e+002, 9.728757e+001
7.779733e+002, 9.870242e+001
7.784554e+002, 9.916199e+001
7.789376e+002, 9.945205e+001
7.794197e+002, 9.946967e+001
7.799019e+002, 9.945567e+001
7.803840e+002, 9.945644e+001
7.808661e+002, 9.945084e+001
7.813482e+002, 9.967749e+001
7.818303e+002, 9.997265e+001
7.823124e+002, 9.943157e+001
7.827946e+002, 9.672586e+001
7.832767e+002, 9.421131e+001
7.837588e+002, 9.382569e+001
7.842409e+002, 9.495243e+001
7.847230e+002, 9.708655e+001
7.852051e+002, 9.980625e+001
7.856873e+002, 1.013575e+002
7.861694e+002, 1.003241e+002
7.866515e+002, 9.804912e+001
7.871336e+002, 9.835686e+001
7.876157e+002, 1.020286e+002
7.880978e+002, 1.038277e+002
7.885800e+002, 1.024224e+002
7.890621e+002, 1.008076e+002
7.895442e+002, 1.006304e+002
7.900263e+002, 1.012380e+002
7.905084e+002, 1.017249e+002
7.909905e+002, 1.021569e+002
7.914727e+002, 1.019316e+002
7.919548e+002, 1.001270e+002
7.924369e+002, 9.840057e+001
7.929190e+002, 9.750777e+001
7.934011e+002, 9.752008e+001
7.938832e+002, 9.895250e+001
7.943654e+002, 1.016325e+002
7.948475e+002, 1.036817e+002
7.953296e+002, 1.030380e+002
7.958117e+002, 1.008534e+002
7.962938e+002, 1.004396e+002
7.967759e+002, 1.017513e+002
7.972581e+002, 1.023871e+002
7.977402e+002, 1.017153e+002
7.982223e+002, 1.004880e+002
7.987044e+002, 9.914296e+001
7.991865e+002, 9.780526e+001
7.996686e+002, 9.722725e+001
8.001508e+002, 9.784750e+001
8.006329e+002, 9.862151e+001
8.011150e+002, 9.999880e+001
8.015971e+002, 1.010680e+002
8.020792e+002, 1.008783e+002
8.025613e+002, 1.001412e+002
8.030435e+002, 1.004113e+002
8.035256e+002, 1.022523e+002
8.040077e+002, 1.036406e+002
8.044898e+002, 1.021911e+002
8.049719e+002, 9.991841e+001
8.054540e+002, 1.001602e+002
8.059362e+002, 1.023609e+002
8.064183e+002, 1.037071e+002
8.069004e+002, 1.032043e+002
8.073825e+002, 1.020054e+002
8.078646e+002, 1.014118e+002
8.083467e+002, 1.013755e+002
8.088289e+002, 1.012796e+002
8.093110e+002, 1.010811e+002
8.097931e+002, 1.009613e+002
8.102752e+002, 1.012540e+002
8.107573e+002, 1.013103e+002
8.112394e+002, 1.002113e+002
8.117216e+002, 9.843382e+001
8.122037e+002, 9.759571e+001
8.126858e+002, 9.824480e+001
8.131679e+002, 9.921446e+001
8.136500e+002, 1.009783e+002
8.141321e+002, 1.021923e+002
8.146143e+002, 1.009713e+002
8.150964e+002, 9.830080e+001
8.155785e+002, 9.662256e+001
8.160606e+002, 9.692565e+001
8.165427e+002, 9.811326e+001
8.170248e+002, 9.910080e+001
8.175070e+002, 9.993523e+001
8.179891e+002, 1.009618e+002
8.184712e+002, 1.021828e+002
8.189533e+002, 1.024798e+002
8.194354e+002, 1.012323e+002
8.199175e+002, 9.980862e+001
8.203997e+002, 9.993417e+001
8.208818e+002, 1.015683e+002
8.213639e+002, 1.022399e+002
8.218460e+002, 1.009382e+002
8.223281e+002, 1.001744e+002
8.228102e+002, 1.006061e+002
8.232924e+002, 1.012719e+002
8.237745e+002, 1.015467e+002
8.242566e+002, 1.015466e+002
8.247387e+002, 1.017591e+002
8.252208e+002, 1.025516e+002
8.257029e+002, 1.028131e+002
8.261851e+002, 1.011554e+002
8.266672e+002, 9.910280e+001
8.271493e+002, 9.880214e+001
8.276314e+002, 9.973737e+001
8.281135e+002, 9.971848e+001
8.285956e+002, 9.794267e+001
8.290778e+002, 9.601549e+001
8.295599e+002, 9.610593e+001
8.300420e+002, 9.781248e+001
8.305241e+002, 9.822889e+001
8.310062e+002, 9.708165e+001
8.314883e+002, 9.645114e+001
8.319705e+002, 9.701299e+001
8.324526e+002, 9.803608e+001
8.329347e+002, 9.883031e+001
8.334168e+002, 9.945084e+001
8.338989e+002, 1.004204e+002
8.343810e+002, 1.025347e+002
8.348632e+002, 1.038129e+002
8.353453e+002, 1.033224e+002
8.358274e+002, 1.026803e+002
8.363095e+002, 1.030176e+002
8.367916e+002, 1.039249e+002
8.372737e+002, 1.044661e+002
8.377559e+002, 1.043502e+002
8.382380e+002, 1.041548e+002
8.387201e+002, 1.044126e+002
8.392022e+002, 1.047640e+002
8.396843e+002, 1.047136e+002
8.401664e+002, 1.043244e+002
8.406486e+002, 1.037901e+002
8.411307e+002, 1.031857e+002
8.416128e+002, 1.026662e+002
8.420949e+002, 1.023852e+002
8.425770e+002, 1.023211e+002
8.430591e+002, 1.023921e+002
8.435413e+002, 1.026112e+002
8.440234e+002, 1.029486e+002
8.445055e+002, 1.036168e+002
8.449876e+002, 1.039682e+002
8.454697e+002, 1.031186e+002
8.459518e+002, 1.017226e+002
8.464340e+002, 1.018374e+002
8.469161e+002, 1.044951e+002
8.473982e+002, 1.058387e+002
8.478803e+002, 1.043676e+002
8.483624e+002, 1.026864e+002
8.488445e+002, 1.019183e+002
8.493267e+002, 1.018396e+002
8.498088e+002, 1.018896e+002
8.502909e+002, 1.020535e+002
8.507730e+002, 1.031365e+002
8.512551e+002, 1.068775e+002
8.517372e+002, 1.105648e+002
8.522194e+002, 1.103074e+002
8.527015e+002, 1.075387e+002
8.531836e+002, 1.057882e+002
8.536657e+002, 1.056109e+002
8.541478e+002, 1.055952e+002
8.546299e+002, 1.047472e+002
8.551121e+002, 1.036372e+002
8.555942e+002, 1.037541e+002
8.560763e+002, 1.053509e+002
8.565584e+002, 1.059255e+002
8.570405e+002, 1.049186e+002
8.575226e+002, 1.041706e+002
8.580048e+002, 1.046362e+002
8.584869e+002, 1.056325e+002
8.589690e+002, 1.061934e+002
8.594511e+002, 1.062951e+002
8.599332e+002, 1.064208e+002
8.604153e+002, 1.064385e+002
8.608975e+002, 1.066792e+002
8.613796e+002, 1.075415e+002
8.618617e+002, 1.084195e+002
8.623438e+002, 1.088567e+002
8.628259e+002, 1.088315e+002
8.633080e+002, 1.083256e+002
8.637902e+002, 1.071004e+002
8.642723e+002, 1.063364e+002
8.647544e+002, 1.079069e+002
8.652365e+002, 1.100735e+002
8.657186e+002, 1.093387e+002
8.662007e+002, 1.065304e+002
8.666829e+002, 1.058548e+002
8.671650e+002, 1.088259e+002
8.676471e+002, 1.125682e+002
8.681292e+002, 1.137170e+002
8.686113e+002, 1.126282e+002
8.690934e+002, 1.111264e+002
8.695756e+002, 1.090159e+002
8.700577e+002, 1.081436e+002
8.705398e+002, 1.095683e+002
8.710219e+002, 1.106717e+002
8.715040e+002, 1.088124e+002
8.719861e+002, 1.051451e+002
8.724683e+002, 1.040263e+002
8.729504e+002, 1.076883e+002
8.734325e+002, 1.097447e+002
8.739146e+002, 1.092838e+002
8.743967e+002, 1.082051e+002
8.748788e+002, 1.065522e+002
8.753610e+002, 1.051544e+002
8.758431e+002, 1.053169e+002
8.763252e+002, 1.070735e+002
8.768073e+002, 1.084837e+002
8.772894e+002, 1.084820e+002
8.777715e+002, 1.079508e+002
8.782537e+002, 1.073206e+002
8.787358e+002, 1.067247e+002
8.792179e+002, 1.063864e+002
8.797000e+002, 1.062954e+002
8.801821e+002, 1.061604e+002
8.806642e+002, 1.057685e+002
8.811464e+002, 1.057316e+002
8.816285e+002, 1.074255e+002
8.821106e+002, 1.104115e+002
8.825927e+002, 1.122064e+002
8.830748e+002, 1.126784e+002
8.835569e+002, 1.124934e+002
8.840391e+002, 1.117962e+002
8.845212e+002, 1.108852e+002
8.850033e+002, 1.099484e+002
8.854854e+002, 1.090505e+002
8.859675e+002, 1.095303e+002
8.864496e+002, 1.128824e+002
8.869318e+002, 1.146407e+002
8.874139e+002, 1.135482e+002
8.878960e+002, 1.114411e+002
8.883781e+002, 1.084122e+002
8.888602e+002, 1.053625e+002
8.893423e+002, 1.041556e+002
8.898245e+002, 1.053201e+002
8.903066e+002, 1.068068e+002
8.907887e+002, 1.088019e+002
8.912708e+002, 1.101590e+002
8.917529e+002, 1.093858e+002
8.922350e+002, 1.079973e+002
8.927172e+002, 1.085180e+002
8.931993e+002, 1.108635e+002
8.936814e+002, 1.122467e+002
8.941635e+002, 1.106176e+002
8.946456e+002, 1.080446e+002
8.951277e+002, 1.065386e+002
8.956099e+002, 1.061244e+002
8.960920e+002, 1.074763e+002
8.965741e+002, 1.102554e+002
8.970562e+002, 1.121425e+002
8.975383e+002, 1.120135e+002
8.980204e+002, 1.109572e+002
8.985026e+002, 1.105124e+002
8.989847e+002, 1.106193e+002
8.994668e+002, 1.104147e+002
8.999489e+002, 1.097523e+002
9.004310e+002, 1.097063e+002
9.009131e+002, 1.109090e+002
9.013953e+002, 1.119563e+002
9.018774e+002, 1.114588e+002
9.023595e+002, 1.098339e+002
9.028416e+002, 1.089864e+002
9.033237e+002, 1.090881e+002
9.038058e+002, 1.096733e+002
9.042880e+002, 1.117843e+002
9.047701e+002, 1.131633e+002
9.052522e+002, 1.120903e+002
9.057343e+002, 1.102569e+002
9.062164e+002, 1.098934e+002
9.066985e+002, 1.111442e+002
9.071807e+002, 1.122355e+002
9.076628e+002, 1.124952e+002
9.081449e+002, 1.124855e+002
9.086270e+002, 1.121448e+002
9.091091e+002, 1.119553e+002
9.095912e+002, 1.130269e+002
9.100734e+002, 1.147524e+002
9.105555e+002, 1.149909e+002
9.110376e+002, 1.127417e+002
9.115197e+002, 1.101298e+002
9.120018e+002, 1.092806e+002
9.124839e+002, 1.097422e+002
9.129661e+002, 1.108775e+002
9.134482e+002, 1.125034e+002
9.139303e+002, 1.139770e+002
9.144124e+002, 1.151191e+002
9.148945e+002, 1.158472e+002
9.153766e+002, 1.160884e+002
9.158588e+002, 1.158689e+002
9.163409e+002, 1.150142e+002
9.168230e+002, 1.133377e+002
9.173051e+002, 1.129517e+002
9.177872e+002, 1.143699e+002
9.182693e+002, 1.160204e+002
9.187515e+002, 1.173529e+002
9.192336e+002, 1.182141e+002
9.197157e+002, 1.182554e+002
9.201978e+002, 1.173699e+002
9.206799e+002, 1.167230e+002
9.211620e+002, 1.162495e+002
9.216442e+002, 1.161141e+002
9.221263e+002, 1.162494e+002
9.226084e+002, 1.168134e+002
9.230905e+002, 1.185671e+002
9.235726e+002, 1.207130e+002
9.240547e+002, 1.212708e+002
9.245369e+002, 1.194302e+002
9.250190e+002, 1.178718e+002
9.255011e+002, 1.174179e+002
9.259832e+002, 1.176907e+002
9.264653e+002, 1.192358e+002
9.269474e+002, 1.209297e+002
9.274296e+002, 1.210687e+002
9.279117e+002, 1.196116e+002
9.283938e+002, 1.178658e+002
9.288759e+002, 1.162969e+002
9.293580e+002, 1.154540e+002
9.298401e+002, 1.166598e+002
9.303223e+002, 1.187217e+002
9.308044e+002, 1.191019e+002
9.312865e+002, 1.180299e+002
9.317686e+002, 1.175232e+002
9.322507e+002, 1.183792e+002
9.327328e+002, 1.195686e+002
9.332150e+002, 1.199443e+002
9.336971e+002, 1.196688e+002
9.341792e+002, 1.191647e+002
9.346613e+002, 1.184357e+002
9.351434e+002, 1.185006e+002
9.356255e+002, 1.196068e+002
9.361077e+002, 1.211867e+002
9.365898e+002, 1.230804e+002
9.370719e+002, 1.248238e+002
9.375540e+002, 1.252951e+002
9.380361e+002, 1.241631e+002
9.385182e+002, 1.236347e+002
9.390004e+002, 1.243416e+002
9.394825e+002, 1.243924e+002
9.399646e+002, 1.226720e+002
9.404467e+002, 1.206732e+002
9.409288e+002, 1.197339e+002
9.414109e+002, 1.196830e+002
9.418931e+002, 1.198602e+002
9.423752e+002, 1.207130e+002
9.428573e+002, 1.209256e+002
9.433394e+002, 1.194007e+002
9.438215e+002, 1.182420e+002
9.443036e+002, 1.188360e+002
9.447858e+002, 1.202604e+002
9.452679e+002, 1.214488e+002
9.457500e+002, 1.221949e+002
9.462321e+002, 1.223995e+002
9.467142e+002, 1.213976e+002
9.471964e+002, 1.206540e+002
9.476785e+002, 1.218679e+002
9.481606e+002, 1.232096e+002
9.486427e+002, 1.224312e+002
9.491248e+002, 1.199712e+002
9.496069e+002, 1.172470e+002
9.500891e+002, 1.148359e+002
9.505712e+002, 1.131966e+002
9.510533e+002, 1.134208e+002
9.515354e+002, 1.142622e+002
9.520175e+002, 1.135935e+002
9.524996e+002, 1.118247e+002
9.529818e+002, 1.099460e+002
9.534639e+002, 1.082201e+002
9.539460e+002, 1.069403e+002
9.544281e+002, 1.062818e+002
9.549102e+002, 1.062217e+002
9.553923e+002, 1.070493e+002
9.558745e+002, 1.085906e+002
9.563566e+002, 1.089320e+002
9.568387e+002, 1.079797e+002
9.573208e+002, 1.075335e+002
9.578029e+002, 1.082576e+002
9.582850e+002, 1.089692e+002
9.587672e+002, 1.085680e+002
9.592493e+002, 1.072733e+002
9.597314e+002, 1.058307e+002
9.602135e+002, 1.038759e+002
9.606956e+002, 1.031794e+002
9.611777e+002, 1.044161e+002
9.616599e+002, 1.056972e+002
9.621420e+002, 1.065788e+002
9.626241e+002, 1.067715e+002
9.631062e+002, 1.055463e+002
9.635883e+002, 1.029134e+002
9.640704e+002, 1.014090e+002
9.645526e+002, 1.011937e+002
9.650347e+002, 1.018179e+002
9.655168e+002, 1.042270e+002
9.659989e+002, 1.064266e+002
9.664810e+002, 1.074416e+002
9.669631e+002, 1.075083e+002
9.674453e+002, 1.071434e+002
9.679274e+002, 1.064201e+002
9.684095e+002, 1.047279e+002
9.688916e+002, 9.980067e+001
9.693737e+002, 9.648420e+001
9.698558e+002, 9.838860e+001
9.703380e+002, 1.016800e+002
9.708201e+002, 1.027440e+002
9.713022e+002, 1.019892e+002
9.717843e+002, 1.013916e+002
9.722664e+002, 1.016010e+002
9.727485e+002, 1.019394e+002
9.732307e+002, 1.016143e+002
9.737128e+002, 1.015188e+002
9.741949e+002, 1.031828e+002
9.746770e+002, 1.054100e+002
9.751591e+002, 1.060658e+002
9.756412e+002, 1.050401e+002
9.761234e+002, 1.035309e+002
9.766055e+002, 1.020991e+002
9.770876e+002, 1.011876e+002
9.775698e+002, 1.019369e+002
9.780519e+002, 1.033496e+002
9.785340e+002, 1.028967e+002
9.790161e+002, 1.010170e+002
9.794982e+002, 9.993260e+001
9.799803e+002, 1.001937e+002
9.804625e+002, 1.008439e+002
9.809446e+002, 1.011474e+002
9.814267e+002, 1.012478e+002
9.819088e+002, 1.014968e+002
9.823909e+002, 1.018599e+002
9.828730e+002, 1.018593e+002
9.833552e+002, 1.014490e+002
9.838373e+002, 1.016665e+002
9.843194e+002, 1.030088e+002
9.848015e+002, 1.043012e+002
9.852836e+002, 1.041899e+002
9.857657e+002, 1.030678e+002
9.862479e+002, 1.030736e+002
9.867300e+002, 1.046056e+002
9.872121e+002, 1.050763e+002
9.876942e+002, 1.040070e+002
9.881763e+002, 1.026541e+002
9.886584e+002, 1.014848e+002
9.891406e+002, 1.004877e+002
9.896227e+002, 9.960596e+001
9.901048e+002, 9.883823e+001
9.905869e+002, 9.866045e+001
9.910690e+002, 9.955110e+001
9.915511e+002, 1.000774e+002
9.920333e+002, 9.949918e+001
9.925154e+002, 9.927783e+001
9.929975e+002, 1.006847e+002
9.934796e+002, 1.026880e+002
9.939617e+002, 1.037478e+002
9.944438e+002, 1.038312e+002
9.949260e+002, 1.032644e+002
9.954081e+002, 1.016539e+002
9.958902e+002, 9.996932e+001
9.963723e+002, 9.767634e+001
9.968544e+002, 9.608448e+001
9.973365e+002, 9.669679e+001
9.978187e+002, 9.845058e+001
9.983008e+002, 9.927405e+001
9.987829e+002, 9.879829e+001
9.992650e+002, 9.803476e+001
9.997471e+002, 9.674324e+001
1.000229e+003, 9.589918e+001
1.000711e+003, 9.584740e+001
1.001193e+003, 9.653569e+001
1.001676e+003, 9.879314e+001
1.002158e+003, 1.015922e+002
1.002640e+003, 1.020372e+002
1.003122e+003, 9.895634e+001
1.003604e+003, 9.691795e+001
1.004086e+003, 9.995090e+001
1.004568e+003, 1.035376e+002
1.005050e+003, 1.040667e+002
1.005533e+003, 1.028569e+002
1.006015e+003, 1.014691e+002
1.006497e+003, 1.003086e+002
1.006979e+003, 9.958003e+001
1.007461e+003, 9.939970e+001
1.007943e+003, 9.939560e+001
1.008425e+003, 9.927647e+001
1.008907e+003, 9.912053e+001
1.009389e+003, 9.890279e+001
1.009872e+003, 9.877048e+001
1.010354e+003, 9.929090e+001
1.010836e+003, 1.003161e+002
1.011318e+003, 1.006755e+002
1.011800e+003, 9.962929e+001
1.012282e+003, 9.818291e+001
1.012764e+003, 9.727582e+001
1.013246e+003, 9.701695e+001
1.013729e+003, 9.809380e+001
1.014211e+003, 1.000502e+002
1.014693e+003, 1.010860e+002
1.015175e+003, 1.008659e+002
1.015657e+003, 1.005058e+002
1.016139e+003, 1.007968e+002
1.016621e+003, 1.012860e+002
1.017103e+003, 1.010878e+002
1.017585e+003, 1.004031e+002
1.018068e+003, 1.000805e+002
1.018550e+003, 1.001478e+002
1.019032e+003, 1.007004e+002
1.019514e+003, 1.017604e+002
1.019996e+003, 1.026656e+002
1.020478e+003, 1.028910e+002
1.020960e+003, 1.025520e+002
1.021442e+003, 1.015151e+002
1.021924e+003, 9.986823e+001
1.022407e+003, 1.003309e+002
1.022889e+003, 1.031658e+002
1.023371e+003, 1.048270e+002
1.023853e+003, 1.040798e+002
1.024335e+003, 1.026717e+002
1.024817e+003, 1.020693e+002
1.025299e+003, 1.021641e+002
1.025781e+003, 1.028951e+002
1.026264e+003, 1.045194e+002
1.026746e+003, 1.043930e+002
1.027228e+003, 1.019731e+002
1.027710e+003, 9.992900e+001
1.028192e+003, 9.909279e+001
1.028674e+003, 9.916521e+001
1.029156e+003, 1.001097e+002
1.029638e+003, 1.015529e+002
1.030120e+003, 1.018887e+002
1.030603e+003, 1.006750e+002
1.031085e+003, 1.000449e+002
1.031567e+003, 1.003259e+002
1.032049e+003, 1.004948e+002
1.032531e+003, 1.003217e+002
1.033013e+003, 9.964683e+001
1.033495e+003, 9.782178e+001
1.033977e+003, 9.541035e+001
1.034459e+003, 9.542521e+001
1.034942e+003, 9.961459e+001
1.035424e+003, 1.020207e+002
1.035906e+003, 1.015802e+002
1.036388e+003, 1.011423e+002
1.036870e+003, 1.019164e+002
1.037352e+003, 1.028379e+002
1.037834e+003, 1.026781e+002
1.038316e+003, 1.016923e+002
1.038799e+003, 1.014254e+002
1.039281e+003, 1.024521e+002
1.039763e+003, 1.030768e+002
1.040245e+003, 1.030897e+002
1.040727e+003, 1.029745e+002
1.041209e+003, 1.030658e+002
1.041691e+003, 1.029587e+002
1.042173e+003, 1.017819e+002
1.042656e+003, 9.994077e+001
1.043138e+003, 9.965091e+001
1.043620e+003, 1.021918e+002
1.044102e+003, 1.038709e+002
1.044584e+003, 1.043853e+002
1.045066e+003, 1.041165e+002
1.045548e+003, 1.019293e+002
1.046030e+003, 1.000005e+002
1.046512e+003, 1.012935e+002
1.046995e+003, 1.048851e+002
1.047477e+003, 1.062499e+002
1.047959e+003, 1.037254e+002
1.048441e+003, 1.016852e+002
1.048923e+003, 1.008364e+002
1.049405e+003, 1.005210e+002
1.049887e+003, 1.007291e+002
1.050369e+003, 1.011472e+002
1.050851e+003, 1.013157e+002
1.051334e+003, 1.014084e+002
1.051816e+003, 1.023153e+002
1.052298e+003, 1.049168e+002
1.052780e+003, 1.063016e+002
1.053262e+003, 1.045122e+002
1.053744e+003, 1.029374e+002
1.054226e+003, 1.030524e+002
1.054708e+003, 1.042061e+002
1.055191e+003, 1.062323e+002
1.055673e+003, 1.086433e+002
1.056155e+003, 1.100186e+002
1.056637e+003, 1.097008e+002
1.057119e+003, 1.095784e+002
1.057601e+003, 1.104102e+002
1.058083e+003, 1.113369e+002
1.058565e+003, 1.120542e+002
1.059047e+003, 1.125593e+002
1.059530e+003, 1.129633e+002
1.060012e+003, 1.131708e+002
1.060494e+003, 1.127820e+002
1.060976e+003, 1.114751e+002
1.061458e+003, 1.106638e+002
1.061940e+003, 1.116339e+002
1.062422e+003, 1.122729e+002
1.062904e+003, 1.109546e+002
1.063386e+003, 1.091758e+002
1.063869e+003, 1.082810e+002
1.064351e+003, 1.082774e+002
1.064833e+003, 1.090153e+002
1.065315e+003, 1.106949e+002
1.065797e+003, 1.112540e+002
1.066279e+003, 1.087562e+002
1.066761e+003, 1.062684e+002
1.067243e+003, 1.057921e+002
1.067726e+003, 1.058174e+002
1.068208e+003, 1.046590e+002
1.068690e+003, 1.027593e+002
1.069172e+003, 1.013203e+002
1.069654e+003, 1.006193e+002
1.070136e+003, 1.009205e+002
1.070618e+003, 1.037199e+002
1.071100e+003, 1.058406e+002
1.071583e+003, 1.048536e+002
1.072065e+003, 1.030481e+002
1.072547e+003, 1.025724e+002
1.073029e+003, 1.030430e+002
1.073511e+003, 1.033696e+002
1.073993e+003, 1.032910e+002
1.074475e+003, 1.026138e+002
1.074957e+003, 1.003213e+002
1.075439e+003, 9.860023e+001
1.075922e+003, 9.887285e+001
1.076404e+003, 9.990919e+001
1.076886e+003, 1.009457e+002
1.077368e+003, 1.017785e+002
1.077850e+003, 1.020495e+002
1.078332e+003, 1.017807e+002
1.078814e+003, 1.020233e+002
1.079296e+003, 1.045305e+002
1.079779e+003, 1.058221e+002
1.080261e+003, 1.026636e+002
1.080743e+003, 9.913119e+001
1.081225e+003, 9.877563e+001
1.081707e+003, 1.002656e+002
1.082189e+003, 1.013172e+002
1.082671e+003, 1.015517e+002
1.083153e+003, 1.016062e+002
1.083635e+003, 1.017546e+002
1.084118e+003, 1.017031e+002
1.084600e+003, 1.012444e+002
1.085082e+003, 1.006161e+002
1.085564e+003, 9.984832e+001
1.086046e+003, 9.910856e+001
1.086528e+003, 9.835316e+001
1.087010e+003, 9.777654e+001
1.087492e+003, 9.831684e+001
1.087974e+003, 1.010194e+002
1.088457e+003, 1.029100e+002
1.088939e+003, 1.017710e+002
1.089421e+003, 1.005456e+002
1.089903e+003, 1.017610e+002
1.090385e+003, 1.034302e+002
1.090867e+003, 1.026998e+002
1.091349e+003, 1.001533e+002
1.091831e+003, 9.886556e+001
1.092314e+003, 1.000122e+002
1.092796e+003, 1.009506e+002
1.093278e+003, 1.006849e+002
1.093760e+003, 1.000057e+002
1.094242e+003, 9.868079e+001
1.094724e+003, 9.766272e+001
1.095206e+003, 9.822476e+001
1.095688e+003, 9.977301e+001
1.096171e+003, 1.007821e+002
1.096653e+003, 1.009890e+002
1.097135e+003, 1.003160e+002
1.097617e+003, 9.713908e+001
1.098099e+003, 9.517873e+001
1.098581e+003, 9.704771e+001
1.099063e+003, 9.960475e+001
1.099545e+003, 1.006238e+002
1.100027e+003, 1.003620e+002
1.100510e+003, 9.936140e+001
1.100992e+003, 9.767990e+001
1.101474e+003, 9.653806e+001
1.101956e+003, 9.639171e+001
1.102438e+003, 9.656324e+001
1.102920e+003, 9.728125e+001
1.103402e+003, 9.783613e+001
1.103884e+003, 9.752274e+001
1.104366e+003, 9.693092e+001
1.104849e+003, 9.681184e+001
1.105331e+003, 9.723233e+001
1.105813e+003, 9.813286e+001
1.106295e+003, 1.004309e+002
1.106777e+003, 1.017430e+002
1.107259e+003, 1.009276e+002
1.107741e+003, 1.000434e+002
1.108223e+003, 9.990854e+001
1.108706e+003, 1.002437e+002
1.109188e+003, 1.011423e+002
1.109670e+003, 1.023064e+002
1.110152e+003, 1.021582e+002
1.110634e+003, 9.932497e+001
1.111116e+003, 9.807877e+001
1.111598e+003, 1.004977e+002
1.112080e+003, 1.020477e+002
1.112563e+003, 1.005363e+002
1.113045e+003, 9.850154e+001
1.113527e+003, 9.788360e+001
1.114009e+003, 9.828999e+001
1.114491e+003, 9.879163e+001
1.114973e+003, 9.958235e+001
1.115455e+003, 9.961018e+001
1.115937e+003, 9.818098e+001
1.116419e+003, 9.721696e+001
1.116901e+003, 9.737582e+001
1.117384e+003, 9.761369e+001
1.117866e+003, 9.717223e+001
1.118348e+003, 9.654551e+001
1.118830e+003, 9.668995e+001
1.119312e+003, 9.764511e+001
1.119794e+003, 9.771871e+001
1.120276e+003, 9.615225e+001
1.120758e+003, 9.577025e+001
1.121241e+003, 9.746965e+001
1.121723e+003, 9.899141e+001
1.122205e+003, 9.926709e+001
1.122687e+003, 9.899516e+001
1.123169e+003, 9.902198e+001
1.123651e+003, 9.922746e+001
1.124133e+003, 9.868654e+001
1.124615e+003, 9.686292e+001
1.125098e+003, 9.713171e+001
1.125580e+003, 1.001925e+002
1.126062e+003, 1.030697e+002
1.126544e+003, 1.050746e+002
1.127026e+003, 1.054642e+002
1.127508e+003, 1.031651e+002
1.127990e+003, 9.972800e+001
1.128472e+003, 9.930263e+001
1.128954e+003, 1.020010e+002
1.129437e+003, 1.035769e+002
1.129919e+003, 1.040413e+002
1.130401e+003, 1.028377e+002
1.130883e+003, 9.963577e+001
1.131365e+003, 9.747059e+001
1.131847e+003, 9.828355e+001
1.132329e+003, 1.002161e+002
1.132811e+003, 1.003917e+002
1.133293e+003, 9.932452e+001
1.133776e+003, 9.965572e+001
1.134258e+003, 1.011689e+002
1.134740e+003, 1.019814e+002
1.135222e+003, 1.018530e+002
1.135704e+003, 1.004457e+002
1.136186e+003, 9.766017e+001
1.136668e+003, 9.609466e+001
1.137150e+003, 9.880980e+001
1.137633e+003, 1.030840e+002
1.138115e+003, 1.027915e+002
1.138597e+003, 9.963434e+001
1.139079e+003, 9.924248e+001
1.139561e+003, 1.011022e+002
1.140043e+003, 1.014851e+002
1.140525e+003, 9.967004e+001
1.141007e+003, 9.786044e+001
1.141490e+003, 9.744645e+001
1.141972e+003, 9.774885e+001
1.142454e+003, 9.827068e+001
1.142936e+003, 9.874986e+001
1.143418e+003, 9.842171e+001
1.143900e+003, 9.785464e+001
1.144382e+003, 9.845987e+001
1.144864e+003, 1.000460e+002
1.145346e+003, 1.013914e+002
1.145828e+003, 1.019931e+002
1.146311e+003, 1.016581e+002
1.146793e+003, 9.921645e+001
1.147275e+003, 9.693288e+001
1.147757e+003, 9.744504e+001
1.148239e+003, 9.887161e+001
1.148721e+003, 9.885995e+001
1.149203e+003, 9.802377e+001
1.149685e+003, 9.794898e+001
1.150168e+003, 9.890614e+001
1.150650e+003, 1.001730e+002
1.151132e+003, 1.019495e+002
1.151614e+003, 1.027661e+002
1.152096e+003, 1.011437e+002
1.152578e+003, 9.910732e+001
1.153060e+003, 9.757502e+001
1.153542e+003, 9.675031e+001
1.154025e+003, 9.686648e+001
1.154507e+003, 9.779807e+001
1.154989e+003, 9.938142e+001
1.155471e+003, 1.019918e+002
1.155953e+003, 1.031454e+002
1.156435e+003, 1.006153e+002
1.156917e+003, 9.882024e+001
1.157399e+003, 9.986745e+001
1.157881e+003, 1.014036e+002
1.158364e+003, 1.021206e+002
1.158846e+003, 1.020818e+002
1.159328e+003, 1.012186e+002
1.159810e+003, 9.950847e+001
1.160292e+003, 9.859296e+001
1.160774e+003, 9.869700e+001
1.161256e+003, 9.924858e+001
1.161738e+003, 1.008845e+002
1.162220e+003, 1.018453e+002
1.162703e+003, 1.010357e+002
1.163185e+003, 9.995396e+001
1.163667e+003, 1.001467e+002
1.164149e+003, 1.011163e+002
1.164631e+003, 1.010647e+002
1.165113e+003, 9.963235e+001
1.165595e+003, 9.953263e+001
1.166077e+003, 1.011539e+002
1.166560e+003, 1.023785e+002
1.167042e+003, 1.027044e+002
1.167524e+003, 1.029365e+002
1.168006e+003, 1.036207e+002
1.168488e+003, 1.041527e+002
1.168970e+003, 1.034869e+002
1.169452e+003, 1.019651e+002
1.169934e+003, 1.016352e+002
1.170417e+003, 1.023412e+002
1.170899e+003, 1.013421e+002
1.171381e+003, 9.857632e+001
1.171863e+003, 9.736787e+001
1.172345e+003, 9.880106e+001
1.172827e+003, 1.009412e+002
1.173309e+003, 1.022810e+002
1.173791e+003, 1.031515e+002
1.174273e+003, 1.043513e+002
1.174755e+003, 1.053971e+002
1.175238e+003, 1.047161e+002
1.175720e+003, 1.029765e+002
1.176202e+003, 1.019920e+002
1.176684e+003, 1.020613e+002
1.177166e+003, 1.031326e+002
1.177648e+003, 1.051551e+002
1.178130e+003, 1.063354e+002
1.178612e+003, 1.041634e+002
1.179095e+003, 1.016062e+002
1.179577e+003, 1.019120e+002
1.180059e+003, 1.033291e+002
1.180541e+003, 1.041923e+002
1.181023e+003, 1.042577e+002
1.181505e+003, 1.030760e+002
1.181987e+003, 1.009261e+002
1.182469e+003, 9.953819e+001
1.182952e+003, 9.963480e+001
1.183434e+003, 1.004801e+002
1.183916e+003, 1.027712e+002
1.184398e+003, 1.044762e+002
1.184880e+003, 1.042194e+002
1.185362e+003, 1.030546e+002
1.185844e+003, 1.016994e+002
1.186326e+003, 1.003788e+002
1.186808e+003, 9.936717e+001
1.187291e+003, 9.868280e+001
1.187773e+003, 9.835760e+001
1.188255e+003, 9.770551e+001
1.188737e+003, 9.854226e+001
1.189219e+003, 1.030859e+002
1.189701e+003, 1.062420e+002
1.190183e+003, 1.050174e+002
1.190665e+003, 1.023561e+002
1.191147e+003, 1.013119e+002
1.191630e+003, 1.015540e+002
1.192112e+003, 1.018280e+002
1.192594e+003, 1.023784e+002
1.193076e+003, 1.013658e+002
1.193558e+003, 9.812763e+001
1.194040e+003, 9.696867e+001
1.194522e+003, 9.916765e+001
1.195004e+003, 1.017950e+002
1.195487e+003, 1.032047e+002
1.195969e+003, 1.035197e+002
1.196451e+003, 1.025628e+002
1.196933e+003, 1.010078e+002
1.197415e+003, 1.021416e+002
1.197897e+003, 1.051755e+002
1.198379e+003, 1.048913e+002
1.198861e+003, 1.015973e+002
1.199344e+003, 1.005065e+002
1.199826e+003, 1.028133e+002
1.200308e+003, 1.041125e+002
1.200790e+003, 1.011348e+002
1.201272e+003, 9.766296e+001
1.201754e+003, 9.906408e+001
1.202236e+003, 1.021141e+002
1.202718e+003, 1.019739e+002
1.203200e+003, 1.003121e+002
1.203682e+003, 1.003441e+002
1.204165e+003, 1.016701e+002
1.204647e+003, 1.019157e+002
1.205129e+003, 1.004756e+002
1.205611e+003, 9.900809e+001
1.206093e+003, 9.810473e+001
1.206575e+003, 9.785579e+001
1.207057e+003, 9.870299e+001
1.207539e+003, 9.978468e+001
1.208022e+003, 1.004870e+002
1.208504e+003, 1.011139e+002
1.208986e+003, 1.020306e+002
1.209468e+003, 1.032369e+002
1.209950e+003, 1.048590e+002
1.210432e+003, 1.075273e+002
1.210914e+003, 1.080333e+002
1.211396e+003, 1.041155e+002
1.211879e+003, 1.011471e+002
1.212361e+003, 9.966647e+001
1.212843e+003, 9.965551e+001
1.213325e+003, 1.018819e+002
1.213807e+003, 1.045075e+002
1.214289e+003, 1.052603e+002
1.214771e+003, 1.045123e+002
1.215253e+003, 1.040094e+002
1.215735e+003, 1.037666e+002
1.216218e+003, 1.036846e+002
1.216700e+003, 1.037742e+002
1.217182e+003, 1.038011e+002
1.217664e+003, 1.037001e+002
1.218146e+003, 1.039632e+002
1.218628e+003, 1.049434e+002
1.219110e+003, 1.056441e+002
1.219592e+003, 1.044853e+002
1.220074e+003, 1.024321e+002
1.220557e+003, 1.018070e+002
1.221039e+003, 1.021514e+002
1.221521e+003, 1.020804e+002
1.222003e+003, 1.018450e+002
1.222485e+003, 1.027421e+002
1.222967e+003, 1.049115e+002
1.223449e+003, 1.072769e+002
1.223931e+003, 1.093235e+002
1.224414e+003, 1.109726e+002
1.224896e+003, 1.108871e+002
1.225378e+003, 1.118061e+002
1.225860e+003, 1.171142e+002
1.226342e+003, 1.235823e+002
1.226824e+003, 1.271630e+002
1.227306e+003, 1.294479e+002
1.227788e+003, 1.348035e+002
1.228271e+003, 1.434570e+002
1.228753e+003, 1.494710e+002
1.229235e+003, 1.503816e+002
1.229717e+003, 1.508828e+002
1.230199e+003, 1.517514e+002
1.230681e+003, 1.520799e+002
1.231163e+003, 1.524352e+002
1.231645e+003, 1.510774e+002
1.232127e+003, 1.460259e+002
1.232609e+003, 1.390573e+002
1.233092e+003, 1.336745e+002
1.233574e+003, 1.297979e+002
1.234056e+003, 1.246781e+002
1.234538e+003, 1.177812e+002
1.235020e+003, 1.147257e+002
1.235502e+003, 1.163813e+002
1.235984e+003, 1.160400e+002
1.236466e+003, 1.113167e+002
1.236949e+003, 1.073599e+002
1.237431e+003, 1.083917e+002
1.237913e+003, 1.111738e+002
1.238395e+003, 1.103724e+002
1.238877e+003, 1.074227e+002
1.239359e+003, 1.051772e+002
1.239841e+003, 1.038131e+002
1.240323e+003, 1.044154e+002
1.240806e+003, 1.061464e+002
1.241288e+003, 1.060782e+002
1.241770e+003, 1.035969e+002
1.242252e+003, 1.010049e+002
1.242734e+003, 9.895127e+001
1.243216e+003, 9.879323e+001
1.243698e+003, 1.040906e+002
1.244180e+003, 1.084659e+002
1.244662e+003, 1.060250e+002
1.245145e+003, 1.016716e+002
1.245627e+003, 1.001104e+002
1.246109e+003, 1.009362e+002
1.246591e+003, 1.027368e+002
1.247073e+003, 1.054834e+002
1.247555e+003, 1.066271e+002
1.248037e+003, 1.046358e+002
1.248519e+003, 1.037565e+002
1.249001e+003, 1.050330e+002
1.249484e+003, 1.055552e+002
1.249966e+003, 1.039657e+002
1.250448e+003, 1.023691e+002
1.250930e+003, 1.025176e+002
1.251412e+003, 1.034964e+002
1.251894e+003, 1.034723e+002
1.252376e+003, 1.026431e+002
1.252858e+003, 1.024920e+002
1.253341e+003, 1.029665e+002
1.253823e+003, 1.037595e+002
1.254305e+003, 1.047400e+002
1.254787e+003, 1.053585e+002
1.255269e+003, 1.054332e+002
1.255751e+003, 1.049159e+002
1.256233e+003, 1.036659e+002
1.256715e+003, 1.025475e+002
1.257198e+003, 1.028011e+002
1.257680e+003, 1.033691e+002
1.258162e+003, 1.029782e+002
1.258644e+003, 1.022351e+002
1.259126e+003, 1.015935e+002
1.259608e+003, 1.014016e+002
1.260090e+003, 1.024120e+002
1.260572e+003, 1.045595e+002
1.261054e+003, 1.063082e+002
1.261536e+003, 1.075612e+002
1.262019e+003, 1.077037e+002
1.262501e+003, 1.056029e+002
1.262983e+003, 1.037866e+002
1.263465e+003, 1.031263e+002
1.263947e+003, 1.028264e+002
1.264429e+003, 1.023062e+002
1.264911e+003, 1.019928e+002
1.265393e+003, 1.026963e+002
1.265876e+003, 1.041604e+002
1.266358e+003, 1.043811e+002
1.266840e+003, 1.032210e+002
1.267322e+003, 1.036402e+002
1.267804e+003, 1.057504e+002
1.268286e+003, 1.078412e+002
1.268768e+003, 1.094368e+002
1.269250e+003, 1.095025e+002
1.269733e+003, 1.074526e+002
1.270215e+003, 1.047407e+002
1.270697e+003, 1.026361e+002
1.271179e+003, 1.011865e+002
1.271661e+003, 1.002219e+002
1.272143e+003, 1.001273e+002
1.272625e+003, 1.022739e+002
1.273107e+003, 1.052864e+002
1.273589e+003, 1.066967e+002
1.274072e+003, 1.064596e+002
1.274554e+003, 1.058808e+002
1.275036e+003, 1.052100e+002
1.275518e+003, 1.051698e+002
1.276000e+003, 1.065809e+002
1.276482e+003, 1.077603e+002
1.276964e+003, 1.087208e+002
1.277446e+003, 1.087472e+002
1.277929e+003, 1.066848e+002
1.278411e+003, 1.045192e+002
1.278893e+003, 1.042840e+002
1.279375e+003, 1.052744e+002
1.279857e+003, 1.055348e+002
1.280339e+003, 1.050492e+002
1.280821e+003, 1.048531e+002
1.281303e+003, 1.049522e+002
1.281786e+003, 1.058167e+002
1.282268e+003, 1.075142e+002
##END=



