##NAMES=Leucophanite
##RRUFFID=R060199
##IDEAL CHEMISTRY=NaCaBeSi_2_O_6_F
##LOCALITY=Mont Saint-Hilaire, Rouville County, Quebec, Canada
##OWNER=RRUFF
##SOURCE=Royal Ontario Museum
##DESCRIPTION=Gray colored transparent fragment
##STATUS=The identification of this mineral is confirmed by single-crystal X-ray diffraction and chemical analysis.
##URL=rruff.info/R060199
##MEASURED CHEMISTRY=Ca_2.00_Na_2.00_Be_2.00_Si_4.00_O_12_F_2.00_ ; Be not measured but estimated by difference and charge balance
173.2856, 43500.04
173.7677, 43612.71
174.2498, 43698.61
174.7319, 43759.30
175.2140, 43772.99
175.6961, 43767.50
176.1783, 43786.65
176.6604, 43843.24
177.1425, 43917.49
177.6246, 43998.01
178.1067, 44080.69
178.5888, 44144.24
179.0710, 44147.20
179.5531, 44118.72
180.0352, 44126.15
180.5173, 44198.31
180.9994, 44300.67
181.4815, 44376.39
181.9637, 44426.76
182.4458, 44471.16
182.9279, 44521.30
183.4100, 44578.34
183.8921, 44649.07
184.3742, 44747.25
184.8564, 44855.34
185.3385, 44925.95
185.8206, 44957.66
186.3027, 44976.25
186.7848, 45005.61
187.2669, 45044.71
187.7491, 45086.89
188.2312, 45132.92
188.7133, 45180.17
189.1954, 45213.93
189.6775, 45229.63
190.1596, 45251.44
190.6418, 45321.84
191.1239, 45438.97
191.6060, 45540.32
192.0881, 45592.29
192.5702, 45601.11
193.0524, 45621.05
193.5345, 45653.17
194.0166, 45693.47
194.4987, 45738.21
194.9808, 45787.91
195.4629, 45834.13
195.9451, 45864.95
196.4272, 45881.41
196.9093, 45921.11
197.3914, 45986.02
197.8735, 46072.87
198.3556, 46190.78
198.8378, 46348.68
199.3199, 46479.05
199.8020, 46526.41
200.2841, 46482.33
200.7662, 46476.14
201.2483, 46519.44
201.7305, 46600.73
202.2126, 46706.64
202.6947, 46851.85
203.1768, 46966.83
203.6589, 46987.51
204.1410, 46892.68
204.6232, 46859.26
205.1053, 46924.58
205.5874, 47051.80
206.0695, 47106.90
206.5516, 47061.31
207.0337, 47018.61
207.5159, 47061.97
207.9980, 47214.67
208.4801, 47337.67
208.9622, 47407.71
209.4443, 47435.21
209.9264, 47472.88
210.4086, 47528.13
210.8907, 47578.85
211.3728, 47600.13
211.8549, 47575.32
212.3370, 47579.51
212.8191, 47629.35
213.3013, 47719.43
213.7834, 47811.77
214.2655, 47913.10
214.7476, 48006.11
215.2297, 48068.68
215.7118, 48083.15
216.1940, 48117.87
216.6761, 48184.94
217.1582, 48283.84
217.6403, 48407.23
218.1224, 48579.60
218.6045, 48741.90
219.0867, 48828.04
219.5688, 48798.44
220.0509, 48784.62
220.5330, 48815.38
221.0151, 48891.94
221.4972, 48971.71
221.9794, 49055.24
222.4615, 49142.09
222.9436, 49231.63
223.4257, 49319.48
223.9078, 49422.07
224.3899, 49553.59
224.8721, 49721.98
225.3542, 49833.13
225.8363, 49859.35
226.3184, 49855.54
226.8005, 49890.33
227.2827, 49988.94
227.7648, 50077.03
228.2469, 50129.02
228.7290, 50136.07
229.2111, 50177.02
229.6932, 50273.21
230.1754, 50385.50
230.6575, 50462.95
231.1396, 50490.65
231.6217, 50507.88
232.1038, 50517.10
232.5859, 50509.23
233.0681, 50545.78
233.5502, 50648.82
234.0323, 50780.06
234.5144, 50882.97
234.9965, 50933.40
235.4786, 50995.38
235.9608, 51092.60
236.4429, 51234.07
236.9250, 51362.65
237.4071, 51472.65
237.8892, 51572.36
238.3713, 51676.45
238.8535, 51795.15
239.3356, 51901.09
239.8177, 51984.69
240.2998, 52042.30
240.7819, 52090.70
241.2640, 52123.97
241.7462, 52152.19
242.2283, 52193.05
242.7104, 52250.62
243.1925, 52314.34
243.6746, 52383.25
244.1567, 52462.94
244.6389, 52528.75
245.1210, 52574.69
245.6031, 52610.23
246.0852, 52651.06
246.5673, 52696.77
247.0494, 52748.48
247.5316, 52807.74
248.0137, 52877.38
248.4958, 52945.64
248.9779, 53013.86
249.4600, 53079.59
249.9421, 53136.15
250.4243, 53180.61
250.9064, 53221.89
251.3885, 53263.58
251.8706, 53307.36
252.3527, 53346.57
252.8348, 53381.77
253.3170, 53412.03
253.7991, 53428.41
254.2812, 53405.73
254.7633, 53417.54
255.2454, 53509.30
255.7275, 53723.29
256.2097, 53848.77
256.6918, 53839.78
257.1739, 53772.51
257.6560, 53798.10
258.1381, 53967.50
258.6202, 54124.73
259.1024, 54202.68
259.5845, 54172.40
260.0666, 54181.25
260.5487, 54240.84
261.0308, 54330.83
261.5129, 54418.20
261.9951, 54501.77
262.4772, 54583.70
262.9593, 54662.12
263.4414, 54735.24
263.9235, 54816.86
264.4056, 54909.40
264.8878, 55009.23
265.3699, 55115.39
265.8520, 55235.04
266.3341, 55343.13
266.8162, 55428.93
267.2983, 55488.25
267.7805, 55545.38
268.2626, 55595.29
268.7447, 55648.14
269.2268, 55722.34
269.7089, 55820.98
270.1910, 55929.52
270.6732, 56045.91
271.1553, 56170.69
271.6374, 56284.34
272.1195, 56368.80
272.6016, 56468.95
273.0837, 56690.57
273.5659, 57075.00
274.0480, 57374.01
274.5301, 57446.60
275.0122, 57280.31
275.4943, 57256.88
275.9764, 57418.61
276.4586, 57643.60
276.9407, 57733.90
277.4228, 57670.53
277.9049, 57629.64
278.3870, 57713.20
278.8691, 57911.09
279.3513, 57968.86
279.8334, 57853.32
280.3155, 57682.99
280.7976, 57625.09
281.2798, 57685.02
281.7619, 57741.38
282.2440, 57730.77
282.7261, 57668.86
283.2082, 57686.88
283.6903, 57799.04
284.1725, 57938.80
284.6546, 58020.54
285.1367, 58045.93
285.6188, 58076.39
286.1009, 58138.62
286.5830, 58223.92
287.0652, 58291.01
287.5473, 58335.94
288.0294, 58382.62
288.5115, 58471.21
288.9936, 58594.49
289.4757, 58688.03
289.9579, 58708.20
290.4400, 58689.02
290.9221, 58732.99
291.4042, 58843.98
291.8863, 58969.66
292.3684, 59053.68
292.8506, 59105.64
293.3327, 59169.34
293.8148, 59267.73
294.2969, 59381.45
294.7790, 59475.43
295.2611, 59549.96
295.7433, 59614.05
296.2254, 59668.93
296.7075, 59720.00
297.1896, 59779.58
297.6717, 59849.97
298.1538, 59933.24
298.6360, 60033.73
299.1181, 60151.55
299.6002, 60276.94
300.0823, 60399.83
300.5644, 60526.50
301.0465, 60672.32
301.5287, 60853.37
302.0108, 61039.82
302.4929, 61186.61
302.9750, 61302.13
303.4571, 61425.86
303.9392, 61599.47
304.4214, 61793.90
304.9035, 61974.62
305.3856, 62129.40
305.8677, 62268.19
306.3498, 62370.43
306.8319, 62453.16
307.3141, 62579.67
307.7962, 62815.33
308.2783, 63097.87
308.7604, 63379.19
309.2425, 63663.48
309.7246, 63901.71
310.2068, 64028.77
310.6889, 64081.51
311.1710, 64157.16
311.6531, 64306.38
312.1352, 64494.35
312.6173, 64701.44
313.0995, 64932.48
313.5816, 65152.05
314.0637, 65358.42
314.5458, 65541.85
315.0279, 65686.20
315.5100, 65782.16
315.9922, 65839.73
316.4743, 65849.81
316.9564, 65793.27
317.4385, 65764.57
317.9206, 65814.13
318.4027, 65905.80
318.8849, 65989.05
319.3670, 66006.19
319.8491, 66051.42
320.3312, 66196.28
320.8133, 66480.52
321.2954, 66651.42
321.7776, 66578.60
322.2597, 66401.45
322.7418, 66268.55
323.2239, 66206.41
323.7060, 66185.23
324.1881, 66220.42
324.6703, 66319.87
325.1524, 66374.98
325.6345, 66314.63
326.1166, 66240.31
326.5987, 66233.64
327.0808, 66361.57
327.5630, 66478.73
328.0451, 66563.77
328.5272, 66618.48
329.0093, 66681.66
329.4914, 66738.62
329.9735, 66815.63
330.4557, 66931.70
330.9378, 67111.34
331.4199, 67287.37
331.9020, 67449.02
332.3841, 67602.75
332.8662, 67784.60
333.3484, 68014.00
333.8305, 68239.34
334.3126, 68433.09
334.7947, 68584.17
335.2768, 68728.24
335.7589, 68853.47
336.2411, 68979.87
336.7232, 69185.09
337.2053, 69513.28
337.6874, 69786.66
338.1695, 69882.34
338.6516, 69764.94
339.1338, 69780.34
339.6159, 69958.31
340.0980, 70232.15
340.5801, 70499.02
341.0622, 70763.36
341.5443, 71009.55
342.0265, 71257.35
342.5086, 71495.30
342.9907, 71615.33
343.4728, 71596.65
343.9549, 71537.55
344.4370, 71548.61
344.9192, 71625.98
345.4013, 71738.77
345.8834, 71888.34
346.3655, 72061.13
346.8476, 72207.02
347.3297, 72323.92
347.8119, 72455.32
348.2940, 72643.46
348.7761, 72878.82
349.2582, 73128.44
349.7403, 73391.06
350.2225, 73661.66
350.7046, 73936.73
351.1867, 74217.64
351.6688, 74495.80
352.1509, 74792.05
352.6331, 75075.52
353.1152, 75292.55
353.5973, 75407.19
354.0794, 75498.16
354.5615, 75627.05
355.0436, 75788.25
355.5258, 75964.69
356.0079, 76153.16
356.4900, 76349.36
356.9721, 76554.09
357.4542, 76774.38
357.9363, 76980.03
358.4185, 77162.92
358.9006, 77318.82
359.3827, 77440.41
359.8648, 77475.88
360.3469, 77515.13
360.8290, 77614.14
361.3112, 77787.61
361.7933, 77950.05
362.2754, 78090.80
362.7575, 78201.66
363.2396, 78273.98
363.7217, 78296.27
364.2039, 78288.33
364.6860, 78268.84
365.1681, 78237.89
365.6502, 78131.60
366.1323, 77866.98
366.6144, 77570.14
367.0966, 77326.77
367.5787, 77143.44
368.0608, 77012.80
368.5429, 76954.61
369.0250, 76955.18
369.5071, 76944.29
369.9893, 76901.25
370.4714, 76870.74
370.9535, 76880.20
371.4356, 76964.56
371.9177, 77004.91
372.3998, 76973.35
372.8820, 76910.43
373.3641, 76914.26
373.8462, 77013.58
374.3283, 77104.85
374.8104, 77141.48
375.2925, 77118.08
375.7747, 77112.62
376.2568, 77136.77
376.7389, 77155.71
377.2210, 77118.35
377.7031, 77021.72
378.1852, 76911.47
378.6674, 76796.96
379.1495, 76680.16
379.6316, 76548.72
380.1137, 76397.74
380.5958, 76286.70
381.0779, 76325.29
381.5601, 76472.78
382.0422, 76517.41
382.5243, 76378.75
383.0064, 76158.61
383.4885, 76022.81
383.9706, 75961.75
384.4528, 75913.85
384.9349, 75847.49
385.4170, 75763.70
385.8991, 75649.74
386.3812, 75484.98
386.8633, 75347.96
387.3455, 75334.56
387.8276, 75405.68
388.3097, 75471.88
388.7918, 75474.39
389.2739, 75462.23
389.7560, 75467.90
390.2382, 75492.81
390.7203, 75548.55
391.2024, 75668.59
391.6845, 75813.25
392.1666, 75938.38
392.6487, 75983.38
393.1309, 76048.48
393.6130, 76186.59
394.0951, 76391.62
394.5772, 76583.02
395.0593, 76706.17
395.5414, 76831.02
396.0236, 77000.33
396.5057, 77296.23
396.9878, 77547.19
397.4699, 77701.59
397.9520, 77793.92
398.4341, 77931.17
398.9163, 78145.48
399.3984, 78371.41
399.8805, 78587.35
400.3626, 78792.35
400.8447, 78989.02
401.3268, 79171.19
401.8090, 79349.38
402.2911, 79538.91
402.7732, 79731.81
403.2553, 79954.32
403.7374, 80229.38
404.2195, 80551.34
404.7017, 80811.89
405.1838, 81000.02
405.6659, 81158.58
406.1480, 81336.22
406.6301, 81534.83
407.1122, 81681.58
407.5944, 81755.30
408.0765, 81778.21
408.5586, 81785.81
409.0407, 81778.77
409.5228, 81796.21
410.0049, 81883.62
410.4871, 82015.55
410.9692, 82130.42
411.4513, 82228.20
411.9334, 82284.14
412.4155, 82243.06
412.8976, 82133.23
413.3798, 82038.38
413.8619, 82002.47
414.3440, 81995.77
414.8261, 81987.18
415.3082, 81975.95
415.7903, 81974.23
416.2725, 81975.44
416.7546, 81995.79
417.2367, 82053.59
417.7188, 82145.31
418.2009, 82284.79
418.6830, 82531.59
419.1652, 82846.53
419.6473, 83076.04
420.1294, 83075.45
420.6115, 83047.00
421.0937, 83103.59
421.5758, 83294.58
422.0579, 83494.13
422.5400, 83710.79
423.0221, 83921.63
423.5042, 84092.66
423.9864, 84170.64
424.4685, 84265.64
424.9506, 84408.18
425.4327, 84600.45
425.9148, 84792.07
426.3969, 84998.52
426.8791, 85186.64
427.3612, 85313.53
427.8433, 85344.86
428.3254, 85423.97
428.8075, 85581.45
429.2896, 85796.00
429.7718, 85991.28
430.2539, 86163.68
430.7360, 86337.59
431.2181, 86527.30
431.7002, 86731.61
432.1823, 86937.91
432.6645, 87149.76
433.1466, 87350.26
433.6287, 87519.12
434.1108, 87656.09
434.5929, 87758.41
435.0750, 87807.83
435.5572, 87828.00
436.0393, 87864.70
436.5214, 87916.58
437.0035, 87954.79
437.4856, 87955.33
437.9677, 87928.39
438.4499, 87887.35
438.9320, 87833.98
439.4141, 87770.02
439.8962, 87652.41
440.3783, 87521.31
440.8604, 87476.77
441.3426, 87671.62
441.8247, 87884.09
442.3068, 87974.19
442.7889, 87896.88
443.2710, 87841.17
443.7531, 87895.09
444.2353, 87981.53
444.7174, 88016.13
445.1995, 87907.52
445.6816, 87832.99
446.1637, 87833.68
446.6458, 87902.39
447.1280, 87965.16
447.6101, 88017.91
448.0922, 88069.45
448.5743, 88123.49
449.0564, 88179.59
449.5385, 88238.10
450.0207, 88289.54
450.5028, 88351.61
450.9849, 88474.37
451.4670, 88675.48
451.9491, 88840.02
452.4312, 88899.00
452.9134, 88872.95
453.3955, 88936.96
453.8776, 89100.52
454.3597, 89283.56
454.8418, 89403.60
455.3239, 89474.61
455.8061, 89551.10
456.2882, 89652.27
456.7703, 89755.30
457.2524, 89815.38
457.7345, 89844.41
458.2166, 89892.86
458.6988, 90012.73
459.1809, 90156.32
459.6630, 90261.08
460.1451, 90314.11
460.6272, 90385.44
461.1093, 90574.07
461.5915, 90789.84
462.0736, 90916.53
462.5557, 90759.29
463.0378, 90660.02
463.5199, 90794.24
464.0020, 91127.88
464.4842, 91400.77
464.9663, 91483.27
465.4484, 91545.14
465.9305, 91680.93
466.4126, 91976.88
466.8947, 92202.75
467.3769, 92320.51
467.8590, 92384.34
468.3411, 92484.69
468.8232, 92637.95
469.3053, 92795.13
469.7874, 92947.16
470.2696, 93093.75
470.7517, 93237.27
471.2338, 93387.48
471.7159, 93503.83
472.1980, 93531.48
472.6801, 93472.93
473.1623, 93434.75
473.6444, 93430.33
474.1265, 93455.16
474.6086, 93531.91
475.0907, 93646.77
475.5728, 93710.42
476.0550, 93641.66
476.5371, 93503.06
477.0192, 93364.27
477.5013, 93225.52
477.9834, 93177.10
478.4655, 93362.39
478.9477, 93657.73
479.4298, 93897.92
479.9119, 94004.55
480.3940, 94085.69
480.8761, 94191.91
481.3582, 94315.71
481.8404, 94434.41
482.3225, 94492.51
482.8046, 94583.47
483.2867, 94766.08
483.7688, 95083.97
484.2509, 95358.68
484.7331, 95538.44
485.2152, 95686.40
485.6973, 95863.63
486.1794, 96073.50
486.6615, 96309.59
487.1436, 96583.98
487.6258, 96885.64
488.1079, 97158.67
488.5900, 97389.29
489.0721, 97625.11
489.5542, 97898.37
490.0363, 98210.67
490.5185, 98500.92
491.0006, 98761.02
491.4827, 99012.83
491.9648, 99267.34
492.4470, 99530.05
492.9291, 99832.07
493.4112, 100204.1
493.8933, 100597.1
494.3754, 100922.6
494.8575, 101190.4
495.3397, 101443.9
495.8218, 101729.7
496.3039, 102011.8
496.7860, 102242.7
497.2681, 102408.6
497.7502, 102564.8
498.2324, 102724.6
498.7145, 102898.0
499.1966, 103101.6
499.6787, 103430.3
500.1608, 103697.1
500.6429, 103800.1
501.1251, 103753.1
501.6072, 103786.9
502.0893, 104025.4
502.5714, 104253.1
503.0535, 104363.6
503.5356, 104293.8
504.0178, 104258.6
504.4999, 104275.3
504.9820, 104311.2
505.4641, 104318.5
505.9462, 104294.7
506.4283, 104251.1
506.9105, 104172.2
507.3926, 104080.4
507.8747, 104085.1
508.3568, 104191.8
508.8389, 104291.9
509.3210, 104293.1
509.8032, 104226.1
510.2853, 104175.8
510.7674, 104153.7
511.2495, 104143.5
511.7316, 104127.1
512.2137, 104110.2
512.6959, 104104.4
513.1780, 104147.4
513.6601, 104175.7
514.1422, 104117.8
514.6243, 103991.4
515.1064, 103919.3
515.5886, 104014.0
516.0707, 104132.5
516.5528, 104183.5
517.0349, 104114.5
517.5170, 104064.0
517.9991, 104047.4
518.4813, 104055.7
518.9634, 104078.1
519.4455, 104105.4
519.9276, 104164.6
520.4097, 104278.4
520.8918, 104431.7
521.3740, 104526.3
521.8561, 104541.1
522.3382, 104567.9
522.8203, 104677.0
523.3024, 104862.0
523.7845, 105032.6
524.2667, 105182.2
524.7488, 105326.5
525.2309, 105509.5
525.7130, 105712.0
526.1951, 105858.8
526.6772, 105869.0
527.1594, 105865.8
527.6415, 106016.8
528.1236, 106290.0
528.6057, 106548.7
529.0878, 106716.4
529.5699, 106836.4
530.0521, 106936.5
530.5342, 107021.6
531.0163, 107086.8
531.4984, 107093.3
531.9805, 107095.7
532.4626, 107151.9
532.9448, 107324.2
533.4269, 107486.4
533.9090, 107636.6
534.3911, 107767.9
534.8732, 107843.6
535.3553, 107842.2
535.8375, 107826.3
536.3196, 107820.2
536.8017, 107823.7
537.2838, 107837.4
537.7659, 107864.4
538.2480, 107891.3
538.7302, 107888.5
539.2123, 107865.2
539.6944, 107898.0
540.1765, 108034.5
540.6586, 108177.1
541.1407, 108156.1
541.6229, 108015.9
542.1050, 107915.1
542.5871, 107970.6
543.0692, 108083.1
543.5513, 108167.5
544.0334, 108218.8
544.5156, 108268.7
544.9977, 108338.4
545.4798, 108409.3
545.9619, 108464.0
546.4440, 108468.3
546.9261, 108502.8
547.4083, 108586.2
547.8904, 108706.1
548.3725, 108840.8
548.8546, 109010.1
549.3367, 109161.7
549.8188, 109271.6
550.3010, 109346.4
550.7831, 109471.3
551.2652, 109659.8
551.7473, 109854.0
552.2294, 110000.2
552.7115, 110106.2
553.1937, 110253.9
553.6758, 110457.9
554.1579, 110669.6
554.6400, 110824.1
555.1221, 110937.6
555.6042, 111054.4
556.0864, 111211.1
556.5685, 111359.0
557.0506, 111422.6
557.5327, 111428.9
558.0148, 111478.6
558.4969, 111683.5
558.9791, 111899.9
559.4612, 112027.5
559.9433, 112034.1
560.4254, 112065.1
560.9075, 112165.4
561.3896, 112291.0
561.8718, 112404.0
562.3539, 112491.0
562.8360, 112591.2
563.3181, 112727.1
563.8002, 112867.6
564.2823, 112928.6
564.7645, 112892.1
565.2466, 112855.1
565.7287, 112861.1
566.2108, 112898.4
566.6929, 112911.7
567.1750, 112900.8
567.6572, 112866.6
568.1393, 112777.7
568.6214, 112671.7
569.1035, 112632.9
569.5856, 112683.2
570.0677, 112763.9
570.5499, 112851.3
571.0320, 112932.5
571.5141, 112988.0
571.9962, 112953.4
572.4783, 112948.4
572.9604, 113046.3
573.4426, 113224.7
573.9247, 113368.9
574.4068, 113454.2
574.8889, 113504.8
575.3710, 113505.0
575.8531, 113420.0
576.3353, 113484.0
576.8174, 113783.4
577.2995, 114102.6
577.7816, 114202.7
578.2637, 114053.4
578.7458, 114012.6
579.2280, 114157.0
579.7101, 114385.6
580.1922, 114525.0
580.6743, 114586.8
581.1564, 114638.1
581.6385, 114727.7
582.1207, 114814.7
582.6028, 114804.2
583.0849, 114715.8
583.5670, 114702.3
584.0491, 114916.7
584.5313, 115201.9
585.0134, 115438.8
585.4955, 115599.8
585.9776, 115742.4
586.4597, 115862.6
586.9418, 115978.7
587.4240, 116110.9
587.9061, 116273.2
588.3882, 116431.2
588.8703, 116579.8
589.3524, 116722.1
589.8345, 116867.1
590.3167, 117015.3
590.7988, 117164.4
591.2809, 117299.3
591.7630, 117431.0
592.2451, 117622.0
592.7272, 117874.5
593.2094, 118131.9
593.6915, 118371.4
594.1736, 118577.4
594.6557, 118698.3
595.1378, 118697.4
595.6199, 118723.3
596.1021, 118891.5
596.5842, 119155.4
597.0663, 119449.8
597.5485, 119813.5
598.0306, 120136.0
598.5127, 120365.0
598.9948, 120518.2
599.4769, 120676.1
599.9590, 120830.1
600.4412, 121009.2
600.9233, 121232.5
601.4054, 121506.8
601.8875, 121736.5
602.3696, 121913.0
602.8517, 122061.9
603.3339, 122184.9
603.8160, 122287.0
604.2981, 122432.5
604.7802, 122635.2
605.2623, 122854.5
605.7444, 123026.9
606.2266, 123172.5
606.7087, 123337.6
607.1908, 123561.0
607.6729, 123791.8
608.1550, 124002.3
608.6371, 124189.3
609.1193, 124349.8
609.6014, 124445.3
610.0835, 124544.4
610.5656, 124682.9
611.0477, 124869.7
611.5298, 125044.4
612.0120, 125207.2
612.4941, 125354.0
612.9762, 125476.6
613.4583, 125564.2
613.9404, 125673.7
614.4225, 125827.1
614.9047, 125966.7
615.3868, 125962.1
615.8689, 125831.4
616.3510, 125826.7
616.8331, 126081.5
617.3152, 126420.9
617.7974, 126576.9
618.2795, 126581.7
618.7616, 126569.6
619.2437, 126551.4
619.7258, 126590.8
620.2079, 126777.2
620.6901, 127111.5
621.1722, 127392.7
621.6543, 127551.8
622.1364, 127635.0
622.6185, 127654.9
623.1006, 127531.4
623.5828, 127536.9
624.0649, 127749.2
624.5470, 128019.0
625.0291, 128149.1
625.5112, 128101.4
625.9933, 128125.2
626.4755, 128287.6
626.9576, 128514.1
627.4397, 128642.6
627.9218, 128685.1
628.4039, 128733.0
628.8860, 128863.8
629.3682, 129009.2
629.8503, 129038.5
630.3324, 128972.9
630.8145, 128970.7
631.2966, 129172.8
631.7787, 129437.5
632.2609, 129674.9
632.7430, 129879.2
633.2251, 130034.1
633.7072, 130086.0
634.1893, 130116.0
634.6714, 130191.7
635.1536, 130330.7
635.6357, 130479.5
636.1178, 130638.5
636.5999, 130799.1
637.0820, 130932.2
637.5641, 131034.7
638.0463, 131179.8
638.5284, 131418.3
639.0105, 131691.5
639.4926, 131881.7
639.9747, 132000.1
640.4568, 132105.8
640.9390, 132218.8
641.4211, 132347.7
641.9032, 132506.6
642.3853, 132695.8
642.8674, 132885.0
643.3495, 133093.4
643.8317, 133275.9
644.3138, 133396.7
644.7959, 133384.8
645.2780, 133438.4
645.7601, 133564.9
646.2422, 133750.0
646.7244, 134005.3
647.2065, 134359.1
647.6886, 134615.9
648.1707, 134712.7
648.6528, 134732.5
649.1349, 134837.5
649.6171, 135019.6
650.0992, 135221.8
650.5813, 135418.3
651.0634, 135620.0
651.5455, 135850.6
652.0276, 136104.6
652.5098, 136341.4
652.9919, 136512.4
653.4740, 136681.0
653.9561, 136893.0
654.4382, 137162.0
654.9203, 137415.8
655.4025, 137637.5
655.8846, 137848.0
656.3667, 138056.8
656.8488, 138260.1
657.3309, 138467.4
657.8130, 138663.3
658.2952, 138894.0
658.7773, 139253.1
659.2594, 139730.6
659.7415, 140166.8
660.2236, 140510.2
660.7057, 140811.4
661.1879, 141076.8
661.6700, 141349.3
662.1521, 141748.1
662.6342, 142409.4
663.1163, 143147.3
663.5984, 143874.0
664.0806, 144583.6
664.5627, 145261.8
665.0448, 145857.8
665.5269, 146456.3
666.0090, 147091.3
666.4911, 147758.3
666.9733, 148452.1
667.4554, 149171.5
667.9375, 149919.4
668.4196, 150702.9
668.9017, 151524.3
669.3839, 152355.4
669.8660, 153190.8
670.3481, 154034.9
670.8302, 154907.7
671.3123, 155788.6
671.7944, 156638.5
672.2766, 157448.2
672.7587, 158204.2
673.2408, 158916.7
673.7229, 159569.6
674.2050, 160146.6
674.6871, 160689.5
675.1693, 161103.2
675.6514, 161394.5
676.1335, 161550.1
676.6156, 161475.0
677.0977, 161150.2
677.5798, 160638.9
678.0620, 159948.1
678.5441, 159084.1
679.0262, 158150.9
679.5083, 157137.4
679.9904, 156105.6
680.4725, 155016.7
680.9547, 153969.6
681.4368, 153156.0
681.9189, 152624.1
682.4010, 152147.3
682.8831, 151551.3
683.3652, 150950.0
683.8474, 150469.7
684.3295, 150217.8
684.8116, 149961.1
685.2937, 149612.5
685.7758, 149264.5
686.2579, 149051.6
686.7401, 149022.3
687.2222, 148992.2
687.7043, 148914.6
688.1864, 148831.4
688.6685, 148866.6
689.1506, 149012.0
689.6328, 149137.6
690.1149, 149152.0
690.5970, 149135.6
691.0791, 149229.1
691.5612, 149410.8
692.0433, 149565.8
692.5255, 149536.4
693.0076, 149540.7
693.4897, 149750.5
693.9718, 150198.7
694.4539, 150588.8
694.9360, 150879.1
695.4182, 151101.4
695.9003, 151264.6
696.3824, 151350.4
696.8645, 151432.4
697.3466, 151491.5
697.8287, 151597.3
698.3109, 151854.5
698.7930, 152234.8
699.2751, 152585.4
699.7572, 152869.8
700.2393, 153145.2
700.7214, 153490.4
701.2036, 153862.1
701.6857, 154187.7
702.1678, 154424.3
702.6499, 154630.3
703.1320, 154792.2
703.6141, 154940.1
704.0963, 155157.8
704.5784, 155572.4
705.0605, 155868.0
705.5426, 155943.8
706.0247, 155851.9
706.5068, 155832.2
706.9890, 155896.1
707.4711, 155933.9
707.9532, 155865.7
708.4353, 155734.7
708.9174, 155665.4
709.3995, 155650.1
709.8817, 155615.6
710.3638, 155491.0
710.8459, 155338.5
711.3280, 155215.5
711.8101, 155130.4
712.2922, 155043.1
712.7744, 154881.1
713.2565, 154759.4
713.7386, 154765.6
714.2207, 154995.1
714.7028, 155086.3
715.1849, 154972.4
715.6671, 154837.5
716.1492, 154919.8
716.6313, 155196.9
717.1134, 155409.0
717.5955, 155502.9
718.0776, 155543.6
718.5598, 155591.6
719.0419, 155645.3
719.5240, 155701.5
720.0061, 155757.3
720.4882, 155818.2
720.9703, 155865.6
721.4525, 155921.9
721.9346, 156039.1
722.4167, 156295.8
722.8988, 156522.0
723.3809, 156679.2
723.8630, 156783.4
724.3452, 156890.7
724.8273, 156997.9
725.3094, 157128.7
725.7915, 157303.0
726.2736, 157504.5
726.7557, 157697.0
727.2379, 157880.0
727.7200, 158049.3
728.2021, 158181.3
728.6842, 158312.8
729.1663, 158483.8
729.6484, 158698.4
730.1306, 158897.2
730.6127, 159068.9
731.0948, 159214.2
731.5769, 159329.8
732.0590, 159404.2
732.5411, 159503.5
733.0233, 159632.9
733.5054, 159775.6
733.9875, 159906.7
734.4696, 160033.1
734.9517, 160224.4
735.4338, 160505.8
735.9160, 160751.9
736.3981, 160776.8
736.8802, 160702.4
737.3623, 160715.9
737.8444, 160923.1
738.3266, 161115.2
738.8087, 161161.5
739.2908, 161164.0
739.7729, 161273.9
740.2551, 161558.6
740.7372, 161842.7
741.2193, 162129.2
741.7014, 162385.5
742.1835, 162522.1
742.6656, 162537.1
743.1478, 162557.8
743.6299, 162618.0
744.1120, 162715.6
744.5941, 162861.0
745.0762, 163042.3
745.5583, 163226.4
746.0405, 163393.0
746.5226, 163559.8
747.0047, 163735.2
747.4868, 163918.5
747.9689, 164102.0
748.4510, 164272.4
748.9332, 164458.4
749.4153, 164694.8
749.8974, 164967.3
750.3795, 165082.3
750.8616, 165012.7
751.3438, 164993.2
751.8259, 165219.6
752.3080, 165595.0
752.7901, 165904.5
753.2722, 166143.0
753.7543, 166348.0
754.2365, 166519.5
754.7186, 166685.2
755.2007, 166878.0
755.6828, 167118.0
756.1649, 167294.2
756.6470, 167327.9
757.1292, 167348.1
757.6113, 167422.7
758.0934, 167547.4
758.5755, 167757.5
759.0576, 168071.5
759.5397, 168415.9
760.0219, 168730.4
760.5040, 169015.0
760.9861, 169257.3
761.4682, 169450.0
761.9503, 169617.9
762.4324, 169808.7
762.9146, 169975.0
763.3967, 170052.1
763.8788, 169889.6
764.3609, 169857.9
764.8430, 170128.9
765.3251, 170497.6
765.8073, 170736.3
766.2894, 170814.5
766.7715, 170874.2
767.2536, 170920.5
767.7357, 170981.8
768.2178, 171122.9
768.7000, 171326.0
769.1821, 171512.5
769.6642, 171652.1
770.1463, 171776.9
770.6284, 171914.5
771.1105, 172057.2
771.5927, 172190.7
772.0748, 172316.3
772.5569, 172424.5
773.0390, 172492.4
773.5211, 172544.9
774.0032, 172644.9
774.4854, 172798.6
774.9675, 172978.3
775.4496, 173180.3
775.9317, 173399.0
776.4138, 173654.6
776.8959, 173926.6
777.3781, 174115.5
777.8602, 174053.8
778.3423, 173978.6
778.8244, 174127.4
779.3065, 174447.5
779.7886, 174708.5
780.2708, 174756.5
780.7529, 174823.5
781.2350, 175004.7
781.7171, 175283.1
782.1992, 175500.4
782.6813, 175647.5
783.1635, 175760.3
783.6456, 175808.0
784.1277, 175842.0
784.6098, 176092.8
785.0919, 176534.0
785.5740, 176913.4
786.0562, 176961.4
786.5383, 176960.3
787.0204, 177187.8
787.5025, 177659.6
787.9846, 178025.2
788.4667, 178093.8
788.9489, 178139.7
789.4310, 178284.9
789.9131, 178536.4
790.3952, 178724.2
790.8773, 178832.3
791.3594, 178943.5
791.8416, 179149.4
792.3237, 179400.9
792.8058, 179544.6
793.2879, 179576.4
793.7700, 179625.7
794.2521, 179724.6
794.7343, 179918.5
795.2164, 180294.3
795.6985, 180945.0
796.1806, 181396.6
796.6627, 181477.6
797.1448, 181494.1
797.6270, 181645.4
798.1091, 181955.3
798.5912, 182215.6
799.0733, 182428.6
799.5554, 182583.0
800.0375, 182595.3
800.5197, 182558.8
801.0018, 182677.4
801.4839, 182995.5
801.9660, 183319.3
802.4481, 183545.1
802.9302, 183717.2
803.4124, 183871.6
803.8945, 184010.9
804.3766, 184130.1
804.8587, 184198.8
805.3408, 184287.7
805.8229, 184465.2
806.3051, 184731.0
806.7872, 185046.4
807.2693, 185424.8
807.7514, 185755.4
808.2335, 185883.5
808.7156, 185907.7
809.1978, 185979.1
809.6799, 186143.0
810.1620, 186308.7
810.6441, 186434.9
811.1262, 186547.6
811.6083, 186673.8
812.0905, 186838.2
812.5726, 186958.0
813.0547, 187015.7
813.5368, 187057.4
814.0189, 187130.3
814.5010, 187233.4
814.9832, 187370.2
815.4653, 187548.9
815.9474, 187721.2
816.4295, 187816.2
816.9116, 187891.4
817.3937, 188022.7
817.8759, 188261.3
818.3580, 188489.8
818.8401, 188709.5
819.3222, 188889.5
819.8043, 188979.3
820.2864, 188939.7
820.7686, 189001.0
821.2507, 189200.9
821.7328, 189451.1
822.2149, 189652.4
822.6970, 189810.0
823.1791, 189931.0
823.6613, 190001.8
824.1434, 190083.9
824.6255, 190218.5
825.1076, 190386.2
825.5897, 190563.2
826.0718, 190780.8
826.5540, 190956.5
827.0361, 191077.2
827.5182, 191173.9
828.0003, 191263.5
828.4824, 191346.3
828.9645, 191537.7
829.4467, 191877.4
829.9288, 192229.6
830.4109, 192431.9
830.8930, 192545.9
831.3751, 192659.9
831.8572, 192767.9
832.3394, 192942.0
832.8215, 193269.4
833.3036, 193645.1
833.7857, 193958.6
834.2678, 194202.9
834.7499, 194387.0
835.2321, 194492.7
835.7142, 194577.8
836.1963, 194694.1
836.6784, 194849.2
837.1605, 195090.5
837.6426, 195450.1
838.1248, 195780.8
838.6069, 195931.0
839.0890, 196007.1
839.5711, 196120.1
840.0532, 196269.9
840.5353, 196505.6
841.0175, 196854.6
841.4996, 197260.6
841.9817, 197676.6
842.4638, 198106.3
842.9459, 198491.6
843.4280, 198822.1
843.9102, 199132.8
844.3923, 199469.3
844.8744, 199810.5
845.3565, 200107.2
845.8386, 200329.3
846.3207, 200590.5
846.8029, 200980.2
847.2850, 201401.1
847.7671, 201766.0
848.2492, 202046.0
848.7313, 202340.9
849.2134, 202642.5
849.6956, 202974.9
850.1777, 203427.1
850.6598, 203936.5
851.1419, 204227.5
851.6240, 204241.6
852.1061, 204320.8
852.5883, 204848.0
853.0704, 205488.0
853.5525, 205929.8
854.0346, 206048.8
854.5167, 206189.1
854.9988, 206353.4
855.4810, 206566.5
855.9631, 206885.4
856.4452, 207314.5
856.9273, 207588.6
857.4094, 207692.2
857.8915, 207761.7
858.3737, 207974.5
858.8558, 208192.7
859.3379, 208192.5
859.8200, 207928.6
860.3021, 207748.6
860.7842, 207891.1
861.2664, 208064.0
861.7485, 208095.9
862.2306, 207970.0
862.7127, 207870.5
863.1948, 207792.8
863.6769, 207758.6
864.1591, 207817.1
864.6412, 207922.5
865.1233, 207958.0
865.6054, 207925.3
866.0875, 207897.1
866.5696, 207932.2
867.0518, 207972.6
867.5339, 207989.1
868.0160, 207978.0
868.4981, 207922.3
868.9802, 207794.4
869.4623, 207677.8
869.9445, 207595.1
870.4266, 207557.3
870.9087, 207634.9
871.3908, 207821.1
871.8729, 208030.2
872.3550, 208275.2
872.8372, 208471.0
873.3193, 208480.2
873.8014, 208350.1
874.2835, 208347.5
874.7656, 208668.9
875.2477, 208964.2
875.7299, 209144.2
876.2120, 209232.4
876.6941, 209311.1
877.1762, 209380.0
877.6583, 209485.4
878.1404, 209682.7
878.6226, 209889.0
879.1047, 209997.6
879.5869, 210026.1
880.0690, 210022.1
880.5511, 209961.5
881.0332, 209919.2
881.5153, 209925.6
881.9974, 209961.4
882.4796, 209974.8
882.9617, 209946.8
883.4438, 210021.6
883.9259, 210272.6
884.4080, 210559.2
884.8901, 210608.8
885.3723, 210521.3
885.8544, 210534.0
886.3365, 210785.6
886.8186, 211059.2
887.3007, 211290.2
887.7828, 211471.4
888.2650, 211589.4
888.7471, 211609.8
889.2292, 211659.8
889.7113, 211754.9
890.1934, 211871.0
890.6755, 211959.6
891.1577, 212043.9
891.6398, 212219.1
892.1219, 212522.0
892.6040, 212807.5
893.0861, 212934.8
893.5682, 213016.7
894.0504, 213163.4
894.5325, 213428.1
895.0146, 213654.7
895.4967, 213820.7
895.9788, 213989.3
896.4609, 214231.0
896.9431, 214527.5
897.4252, 214744.3
897.9073, 214873.5
898.3894, 214999.5
898.8715, 215192.4
899.3536, 215409.0
899.8358, 215613.2
900.3179, 215797.4
900.8000, 216002.7
901.2821, 216256.8
901.7642, 216495.5
902.2463, 216697.9
902.7285, 216860.6
903.2106, 216941.5
903.6927, 216946.5
904.1748, 217034.3
904.6569, 217425.3
905.1390, 217856.1
905.6212, 218014.9
906.1033, 217963.4
906.5854, 218001.1
907.0675, 218291.9
907.5496, 218585.6
908.0317, 218828.3
908.5139, 219030.0
908.9960, 219212.1
909.4781, 219374.0
909.9602, 219571.3
910.4423, 219837.8
910.9244, 220122.2
911.4066, 220371.1
911.8887, 220589.2
912.3708, 220788.7
912.8529, 220921.8
913.3350, 221103.1
913.8171, 221386.5
914.2993, 221700.8
914.7814, 221933.0
915.2635, 222071.6
915.7456, 222307.4
916.2277, 222693.2
916.7098, 223069.4
917.1920, 223205.6
917.6741, 223227.0
918.1562, 223323.5
918.6383, 223559.8
919.1204, 223773.9
919.6025, 223826.7
920.0847, 223917.4
920.5668, 224222.6
921.0489, 224807.7
921.5310, 225107.3
922.0131, 225090.6
922.4952, 225039.8
922.9774, 225208.3
923.4595, 225474.8
923.9416, 225641.6
924.4237, 225706.1
924.9058, 225822.6
925.3879, 226138.3
925.8701, 226432.4
926.3522, 226614.3
926.8343, 226695.0
927.3164, 226750.7
927.7985, 226779.0
928.2806, 226803.4
928.7628, 226790.6
929.2449, 226821.2
929.7270, 227111.2
930.2091, 227551.6
930.6912, 227855.5
931.1733, 227695.8
931.6555, 227624.7
932.1376, 227914.3
932.6197, 228347.5
933.1018, 228531.3
933.5839, 228416.9
934.0660, 228446.5
934.5482, 228730.1
935.0303, 229088.8
935.5124, 229315.1
935.9945, 229451.5
936.4766, 229555.5
936.9587, 229597.9
937.4409, 229734.3
937.9230, 230108.7
938.4051, 230528.7
938.8872, 230844.3
939.3693, 231037.4
939.8514, 231255.8
940.3336, 231505.1
940.8157, 231728.3
941.2978, 231847.7
941.7799, 231927.8
942.2620, 232072.3
942.7441, 232282.9
943.2263, 232478.3
943.7084, 232523.5
944.1905, 232660.3
944.6726, 233031.4
945.1547, 233581.7
945.6368, 233946.8
946.1190, 234119.5
946.6011, 234278.3
947.0832, 234494.2
947.5653, 234749.3
948.0474, 235069.1
948.5295, 235409.1
949.0117, 235665.6
949.4938, 235675.2
949.9759, 235762.4
950.4580, 236011.4
950.9401, 236349.0
951.4222, 236682.6
951.9044, 237014.5
952.3865, 237278.3
952.8686, 237455.0
953.3507, 237601.6
953.8328, 237782.7
954.3149, 237967.5
954.7971, 238088.9
955.2792, 238069.8
955.7613, 238239.9
956.2434, 238809.3
956.7255, 239380.6
957.2076, 239671.0
957.6898, 239694.6
958.1719, 239964.8
958.6540, 240479.7
959.1361, 240967.4
959.6182, 241165.5
960.1003, 241314.6
960.5825, 241661.2
961.0646, 242176.3
961.5467, 242645.1
962.0288, 243033.5
962.5109, 243352.8
962.9930, 243558.8
963.4752, 243728.2
963.9573, 244082.0
964.4394, 244585.2
964.9215, 245037.2
965.4036, 245358.1
965.8857, 245636.7
966.3679, 245977.4
966.8500, 246306.0
967.3321, 246522.7
967.8142, 246514.3
968.2963, 246570.6
968.7784, 246694.3
969.2606, 246879.1
969.7427, 247179.8
970.2248, 247537.0
970.7069, 247689.6
971.1890, 247620.6
971.6711, 247595.2
972.1533, 247828.8
972.6354, 248129.9
973.1175, 248369.2
973.5996, 248543.0
974.0817, 248754.5
974.5638, 249019.7
975.0460, 249263.8
975.5281, 249445.3
976.0102, 249599.0
976.4923, 249773.6
976.9744, 249982.5
977.4565, 250265.3
977.9387, 250726.0
978.4208, 251161.7
978.9029, 251501.6
979.3850, 251773.6
979.8671, 252002.1
980.3492, 252170.3
980.8314, 252395.6
981.3135, 252699.0
981.7956, 253027.4
982.2777, 253315.5
982.7598, 253598.2
983.2419, 253941.1
983.7241, 254366.1
984.2062, 254745.4
984.6883, 254968.3
985.1704, 255212.2
985.6525, 255571.8
986.1346, 256032.3
986.6168, 256428.1
987.0989, 256761.3
987.5810, 257104.9
988.0631, 257514.9
988.5452, 257944.2
989.0273, 258335.4
989.5095, 258708.0
989.9916, 259109.7
990.4737, 259571.3
990.9558, 260035.5
991.4379, 260505.8
991.9200, 260954.0
992.4022, 261317.9
992.8843, 261613.5
993.3664, 261916.1
993.8485, 262231.0
994.3306, 262589.2
994.8127, 263068.6
995.2949, 263563.2
995.7770, 263943.6
996.2591, 264164.3
996.7412, 264598.4
997.2233, 265306.5
997.7054, 265991.4
998.1876, 266429.2
998.6697, 266732.2
999.1518, 267174.8
999.6339, 267719.9
1000.116, 268223.6
1000.598, 268612.7
1001.080, 268962.5
1001.562, 269225.4
1002.044, 269502.2
1002.527, 270032.2
1003.009, 270836.5
1003.491, 271538.4
1003.973, 272062.0
1004.455, 272450.6
1004.937, 272593.0
1005.419, 272696.2
1005.901, 273054.3
1006.384, 273806.2
1006.866, 274424.7
1007.348, 274743.5
1007.830, 275077.7
1008.312, 275637.7
1008.794, 276368.2
1009.276, 276937.3
1009.758, 277362.5
1010.240, 277808.8
1010.723, 278354.3
1011.205, 278969.3
1011.687, 279695.8
1012.169, 280471.4
1012.651, 281113.7
1013.133, 281528.1
1013.615, 282110.5
1014.097, 282955.8
1014.580, 283895.1
1015.062, 284671.7
1015.544, 285366.5
1016.026, 286125.2
1016.508, 286962.0
1016.990, 287915.3
1017.472, 289070.1
1017.954, 290286.9
1018.436, 291502.3
1018.919, 292705.4
1019.401, 293871.2
1019.883, 294999.4
1020.365, 296081.3
1020.847, 297064.3
1021.329, 298037.7
1021.811, 299171.9
1022.293, 300357.3
1022.776, 301343.2
1023.258, 301922.1
1023.740, 302581.1
1024.222, 303433.3
1024.704, 304271.8
1025.186, 304855.5
1025.668, 305183.9
1026.150, 305154.6
1026.632, 304724.9
1027.115, 304357.9
1027.597, 304351.3
1028.079, 304490.2
1028.561, 304611.8
1029.043, 304716.8
1029.525, 305020.9
1030.007, 305530.5
1030.489, 306150.8
1030.972, 306907.6
1031.454, 307671.9
1031.936, 308203.8
1032.418, 308624.5
1032.900, 309184.1
1033.382, 310142.8
1033.864, 310993.4
1034.346, 311620.9
1034.828, 312208.1
1035.311, 312975.8
1035.793, 313894.3
1036.275, 314700.6
1036.757, 315379.6
1037.239, 316081.4
1037.721, 316962.2
1038.203, 317863.9
1038.685, 318641.4
1039.167, 319308.8
1039.650, 320079.3
1040.132, 320963.0
1040.614, 321883.8
1041.096, 322802.0
1041.578, 323733.9
1042.060, 324740.2
1042.542, 325747.3
1043.024, 326612.0
1043.507, 327118.1
1043.989, 327819.1
1044.471, 328973.8
1044.953, 330177.3
1045.435, 331135.6
1045.917, 331859.3
1046.399, 332476.3
1046.881, 332996.2
1047.364, 333602.8
1047.846, 334574.6
1048.328, 335533.9
1048.810, 336183.3
1049.292, 336584.8
1049.774, 337078.7
1050.256, 337711.8
1050.738, 338281.3
1051.220, 338744.7
1051.703, 339133.7
1052.185, 339452.2
1052.667, 339729.5
1053.149, 340020.9
1053.631, 340351.3
1054.113, 340626.5
1054.595, 340797.4
1055.077, 340937.2
1055.559, 341111.8
1056.042, 341291.4
1056.524, 341210.5
1057.006, 340906.1
1057.488, 340681.5
1057.970, 340882.2
1058.452, 341028.6
1058.934, 340744.2
1059.416, 340218.1
1059.899, 339831.1
1060.381, 339655.1
1060.863, 339388.6
1061.345, 339001.6
1061.827, 338541.7
1062.309, 338011.4
1062.791, 337455.5
1063.273, 336967.1
1063.755, 336546.7
1064.238, 336069.3
1064.720, 335471.9
1065.202, 334836.6
1065.684, 334181.6
1066.166, 333514.4
1066.648, 332859.1
1067.130, 332222.3
1067.612, 331590.3
1068.094, 330980.2
1068.577, 330321.5
1069.059, 329483.7
1069.541, 328630.1
1070.023, 327917.8
1070.505, 327374.8
1070.987, 326807.3
1071.469, 326212.9
1071.951, 325552.7
1072.434, 324665.9
1072.916, 323787.6
1073.398, 323313.2
1073.880, 323090.4
1074.362, 322578.2
1074.844, 321321.6
1075.326, 320342.6
1075.808, 319836.6
1076.291, 319508.8
1076.773, 318976.0
1077.255, 318275.6
1077.737, 317489.8
1078.219, 316632.5
1078.701, 315837.1
1079.183, 315197.5
1079.665, 314631.8
1080.147, 314096.2
1080.630, 313589.4
1081.112, 313084.6
1081.594, 312582.5
1082.076, 312107.2
1082.558, 311672.4
1083.040, 311258.2
1083.522, 310831.5
1084.004, 310421.4
1084.486, 310077.1
1084.969, 309842.1
1085.451, 309532.9
1085.933, 309123.3
1086.415, 308749.1
1086.897, 308587.5
1087.379, 308495.4
1087.861, 308172.9
1088.343, 307679.1
1088.826, 307283.4
1089.308, 307068.6
1089.790, 307010.8
1090.272, 307177.3
1090.754, 307403.2
1091.236, 307407.6
1091.718, 307238.6
1092.200, 307127.3
1092.682, 307114.4
1093.165, 307076.0
1093.647, 306865.8
1094.129, 306669.8
1094.611, 306625.7
1095.093, 306706.2
1095.575, 306701.5
1096.057, 306605.6
1096.539, 306576.9
1097.022, 306696.3
1097.504, 306862.9
1097.986, 307053.3
1098.468, 307191.9
1098.950, 307152.7
1099.432, 306804.1
1099.914, 306583.3
1100.396, 306506.1
1100.879, 306517.1
1101.361, 306580.5
1101.843, 306704.3
1102.325, 306964.5
1102.807, 307311.4
1103.289, 307555.6
1103.771, 307508.7
1104.253, 307519.8
1104.735, 307685.1
1105.218, 307888.2
1105.700, 307925.3
1106.182, 307848.8
1106.664, 307922.5
1107.146, 308178.3
1107.628, 308464.0
1108.110, 308739.3
1108.592, 308966.6
1109.074, 309088.8
1109.557, 309147.2
1110.039, 309313.3
1110.521, 309590.2
1111.003, 309833.3
1111.485, 309988.5
1111.967, 310125.3
1112.449, 310270.5
1112.931, 310451.8
1113.414, 310725.2
1113.896, 311132.3
1114.378, 311418.4
1114.860, 311568.8
1115.342, 311663.0
1115.824, 311769.1
1116.306, 311826.1
1116.788, 311602.6
1117.271, 311269.5
1117.753, 311207.0
1118.235, 311859.3
1118.717, 312310.5
1119.199, 312481.2
1119.681, 312489.2
1120.163, 312350.8
1120.645, 312158.2
1121.127, 312203.4
1121.609, 312482.6
1122.092, 312821.6
1122.574, 313310.1
1123.056, 313610.9
1123.538, 313514.0
1124.020, 313258.2
1124.502, 313363.2
1124.984, 313778.5
1125.466, 314063.4
1125.949, 314121.8
1126.431, 314160.0
1126.913, 314340.8
1127.395, 314536.2
1127.877, 314617.2
1128.359, 314610.9
1128.841, 314796.2
1129.323, 315188.5
1129.806, 315489.0
1130.288, 315531.8
1130.770, 315562.1
1131.252, 315869.7
1131.734, 316296.3
1132.216, 316634.8
1132.698, 316854.2
1133.180, 317000.8
1133.662, 317046.6
1134.145, 317134.4
1134.627, 317358.7
1135.109, 317680.4
1135.591, 318116.3
1136.073, 318594.8
1136.555, 318922.0
1137.037, 318852.7
1137.519, 318926.3
1138.001, 319209.5
1138.484, 319565.6
1138.966, 319845.1
1139.448, 320087.3
1139.930, 320408.6
1140.412, 320802.7
1140.894, 321121.7
1141.376, 321203.7
1141.858, 321344.1
1142.341, 321646.6
1142.823, 322020.4
1143.305, 322295.8
1143.787, 322496.8
1144.269, 322737.9
1144.751, 323040.3
1145.233, 323357.7
1145.715, 323697.8
1146.198, 324012.9
1146.680, 324266.9
1147.162, 324479.3
1147.644, 324718.3
1148.126, 324987.1
1148.608, 325317.6
1149.090, 325747.8
1149.572, 326182.3
1150.054, 326601.0
1150.536, 326950.5
1151.019, 327165.5
1151.501, 327235.6
1151.983, 327336.4
1152.465, 327466.5
1152.947, 327668.9
1153.429, 328025.8
1153.911, 328398.8
1154.393, 328617.3
1154.876, 328768.3
1155.358, 329010.0
1155.840, 329376.5
1156.322, 329766.7
1156.804, 330195.9
1157.286, 330553.7
1157.768, 330646.4
1158.250, 330689.5
1158.733, 330993.2
1159.215, 331490.8
1159.697, 331916.2
1160.179, 332263.2
1160.661, 332429.5
1161.143, 332326.6
1161.625, 332259.6
1162.107, 332716.3
1162.589, 333388.7
1163.072, 333680.1
1163.554, 333580.5
1164.036, 333700.4
1164.518, 334426.8
1165.000, 334962.2
1165.482, 335044.4
1165.964, 334962.4
1166.446, 335263.5
1166.928, 335798.2
1167.411, 336257.0
1167.893, 336590.1
1168.375, 336790.7
1168.857, 336715.4
1169.339, 336689.0
1169.821, 336851.0
1170.303, 337135.4
1170.785, 337353.8
1171.268, 337529.0
1171.750, 337739.8
1172.232, 338001.2
1172.714, 338321.4
1173.196, 338812.8
1173.678, 339251.9
1174.160, 339451.3
1174.642, 339468.8
1175.125, 339674.2
1175.607, 340046.9
1176.089, 340467.0
1176.571, 340978.5
1177.053, 341397.8
1177.535, 341539.8
1178.017, 341630.5
1178.499, 341899.3
1178.981, 342344.9
1179.464, 342659.3
1179.946, 342848.5
1180.428, 343034.7
1180.910, 343286.8
1181.392, 343565.3
1181.874, 343874.6
1182.356, 344189.8
1182.838, 344481.9
1183.320, 344754.1
1183.803, 344960.2
1184.285, 345095.3
1184.767, 345236.3
1185.249, 345325.9
1185.731, 345553.1
1186.213, 346208.2
1186.695, 347082.1
1187.177, 347562.3
1187.660, 347618.3
1188.142, 347736.0
1188.624, 347988.9
1189.106, 348342.1
1189.588, 348920.7
1190.070, 349456.1
1190.552, 349619.8
1191.034, 349494.1
1191.516, 349772.6
1191.999, 350520.6
1192.481, 351030.9
1192.963, 351062.4
1193.445, 351064.5
1193.927, 351566.1
1194.409, 352211.4
1194.891, 352617.1
1195.373, 352753.7
1195.855, 353010.3
1196.338, 353411.7
1196.820, 353718.8
1197.302, 353784.9
1197.784, 353825.1
1198.266, 354039.0
1198.748, 354384.6
1199.230, 354848.3
1199.712, 355457.4
1200.195, 355906.5
1200.677, 356170.6
1201.159, 356453.6
1201.641, 356893.9
1202.123, 357364.6
1202.605, 357692.5
1203.087, 357957.4
1203.569, 358327.6
1204.052, 358966.4
1204.534, 359196.0
1205.016, 358931.8
1205.498, 358774.6
1205.980, 359335.8
1206.462, 360069.3
1206.944, 360228.3
1207.426, 360090.6
1207.908, 360337.2
1208.391, 361263.1
1208.873, 361857.9
1209.355, 362040.6
1209.837, 362132.7
1210.319, 362385.5
1210.801, 362712.7
1211.283, 363037.4
1211.765, 363350.5
1212.247, 363633.0
1212.730, 363925.1
1213.212, 364017.4
1213.694, 363828.3
1214.176, 363725.4
1214.658, 364225.9
1215.140, 364894.2
1215.622, 365208.4
1216.104, 365207.2
1216.587, 365275.3
1217.069, 365421.6
1217.551, 365721.2
1218.033, 366225.9
1218.515, 366715.2
1218.997, 366916.1
1219.479, 366984.5
1219.961, 367064.4
1220.443, 367175.8
1220.926, 367371.6
1221.408, 367671.2
1221.890, 367987.3
1222.372, 368329.0
1222.854, 368577.1
1223.336, 368454.7
1223.818, 368243.9
1224.300, 368288.5
1224.782, 368641.9
1225.265, 368933.7
1225.747, 369133.4
1226.229, 369428.8
1226.711, 369920.3
1227.193, 370411.4
1227.675, 370666.9
1228.157, 370784.3
1228.639, 370843.7
1229.122, 370844.5
1229.604, 370983.8
1230.086, 371289.4
1230.568, 371549.8
1231.050, 371664.8
1231.532, 371740.1
1232.014, 371870.7
1232.496, 372047.7
1232.979, 372275.2
1233.461, 372559.5
1233.943, 372821.4
1234.425, 373058.8
1234.907, 373271.3
1235.389, 373447.7
1235.871, 373616.5
1236.353, 373795.8
1236.835, 373996.0
1237.318, 374252.6
1237.800, 374593.8
1238.282, 374741.4
1238.764, 374682.3
1239.246, 374672.9
1239.728, 374834.9
1240.210, 375128.2
1240.692, 375673.9
1241.175, 376244.6
1241.657, 376495.2
1242.139, 376345.4
1242.621, 376434.0
1243.103, 376764.2
1243.585, 377065.4
1244.067, 377092.3
1244.549, 377124.7
1245.031, 377421.4
1245.514, 377802.8
1245.996, 377994.8
1246.478, 377972.4
1246.960, 378124.4
1247.442, 378447.7
1247.924, 378746.3
1248.406, 378867.8
1248.888, 378954.0
1249.370, 379072.3
1249.853, 379210.3
1250.335, 379333.4
1250.817, 379443.7
1251.299, 379708.2
1251.781, 380117.6
1252.263, 380448.7
1252.745, 380418.7
1253.227, 380453.2
1253.710, 380827.6
1254.192, 381299.6
1254.674, 381548.2
1255.156, 381610.0
1255.638, 381760.7
1256.120, 382006.8
1256.602, 382219.3
1257.084, 382195.2
1257.567, 382303.7
1258.049, 382682.4
1258.531, 383203.6
1259.013, 383789.5
1259.495, 384364.5
1259.977, 384571.5
1260.459, 384423.0
1260.941, 384355.4
1261.423, 384682.8
1261.906, 384950.8
1262.388, 385026.5
1262.870, 385052.3
1263.352, 385259.4
1263.834, 385566.3
1264.316, 385778.3
1264.798, 385883.8
1265.280, 385997.5
1265.762, 386160.8
1266.245, 386321.0
1266.727, 386461.1
1267.209, 386615.6
1267.691, 386896.7
1268.173, 387193.5
1268.655, 387256.7
1269.137, 387090.9
1269.619, 387143.8
1270.102, 387517.9
1270.584, 387969.5
1271.066, 388494.9
1271.548, 388915.5
1272.030, 388894.8
1272.512, 388703.9
1272.994, 388644.9
1273.476, 388744.3
1273.958, 388859.8
1274.441, 388962.5
1274.923, 389221.1
1275.405, 389710.8
1275.887, 390181.8
1276.369, 390361.3
1276.851, 390406.1
1277.333, 390426.4
1277.815, 390441.1
1278.297, 390497.9
1278.780, 390596.1
1279.262, 390757.5
1279.744, 390993.8
1280.226, 391241.0
1280.708, 391436.3
1281.190, 391638.6
1281.672, 391952.3
1282.154, 392299.3
1282.637, 392278.7
1283.119, 391953.5
1283.601, 391964.2
1284.083, 392494.3
1284.565, 393012.9
1285.047, 393261.7
1285.529, 393322.5
1286.011, 393159.2
1286.494, 392920.2
1286.976, 393098.4
1287.458, 393563.5
1287.940, 393850.4
1288.422, 393835.8
1288.904, 393887.5
1289.386, 394253.1
1289.868, 394559.7
1290.350, 394687.8
1290.833, 394683.5
1291.315, 394524.7
1291.797, 394337.7
1292.279, 394396.1
1292.761, 394776.8
1293.243, 395159.8
1293.725, 395505.8
1294.207, 395854.8
1294.689, 396254.7
1295.172, 396587.1
1295.654, 396569.3
1296.136, 396438.9
1296.618, 396539.9
1297.100, 396949.2
1297.582, 397208.0
1298.064, 397293.8
1298.546, 397372.5
1299.029, 397476.2
1299.511, 397654.3
1299.993, 398076.4
1300.475, 398508.1
1300.957, 398677.0
1301.439, 398622.9
1301.921, 398613.9
1302.403, 398650.3
1302.885, 398738.3
1303.368, 398883.4
1303.850, 399063.7
1304.332, 399195.8
1304.814, 399439.6
1305.296, 399939.6
1305.778, 400587.5
##END=



