##NAMES=Leucophosphite
##RRUFFID=R060338
##IDEAL CHEMISTRY=KFe^3+^_2_(PO_4_)_2_(OH)&#183;2H_2_O
##LOCALITY=Gunheath pit, St. Austell, Cornwall, England
##OWNER=RRUFF
##SOURCE=Michael Scott
##DESCRIPTION=White to pale pink spherical aggregates associated with green chalcosiderite, R060339, and orange cyrilovite, R060504
##STATUS=The identification of this mineral is confirmed by single-crystal X-ray diffraction and chemical analysis.
##URL=rruff.info/R060338
##MEASURED CHEMISTRY=K_1.00_(Fe^3+^_1.90_Al_0.10_)_Σ=2_(P_1.00_O_4_)_2_(OH)·2.75H_2_O; H_2_O estimated by difference; (OH) by charge balance
99.72919, 307.5141
100.2113, 298.1330
100.6934, 291.3208
101.1755, 286.4230
101.6577, 282.2979
102.1398, 277.7599
102.6219, 272.3048
103.1040, 269.1410
103.5861, 269.1333
104.0682, 269.9383
104.5504, 270.5644
105.0325, 270.7413
105.5146, 270.4709
105.9967, 269.6519
106.4788, 267.9732
106.9609, 266.4494
107.4431, 265.4025
107.9252, 264.4507
108.4073, 262.9796
108.8894, 260.6524
109.3715, 258.0284
109.8536, 256.1082
110.3358, 254.9167
110.8179, 253.9497
111.3000, 252.7890
111.7821, 251.5002
112.2642, 250.7893
112.7463, 251.4955
113.2285, 252.5873
113.7106, 252.9871
114.1927, 252.3933
114.6748, 251.4171
115.1569, 250.9161
115.6390, 251.0733
116.1212, 251.2359
116.6033, 251.6035
117.0854, 251.7425
117.5675, 251.0366
118.0496, 249.0428
118.5317, 246.1761
119.0139, 244.4600
119.4960, 245.0346
119.9781, 245.6779
120.4602, 246.0631
120.9423, 246.2251
121.4244, 246.2272
121.9066, 246.0479
122.3887, 245.6108
122.8708, 246.1920
123.3529, 248.1303
123.8350, 250.5064
124.3171, 253.0954
124.7993, 255.7989
125.2814, 258.3539
125.7635, 260.3661
126.2456, 261.6122
126.7277, 263.8790
127.2098, 267.9021
127.6920, 272.6364
128.1741, 277.0922
128.6562, 281.0642
129.1383, 284.7035
129.6204, 287.9698
130.1025, 290.9055
130.5847, 294.1276
131.0668, 297.9520
131.5489, 302.2740
132.0310, 306.7270
132.5131, 311.3241
132.9952, 316.0152
133.4774, 320.4792
133.9595, 324.7329
134.4416, 329.6138
134.9237, 336.2597
135.4058, 345.0544
135.8879, 353.1630
136.3701, 358.9919
136.8522, 364.6273
137.3343, 371.2532
137.8164, 379.2083
138.2985, 387.9053
138.7806, 396.5355
139.2628, 405.4161
139.7449, 413.5796
140.2270, 421.4330
140.7091, 428.4816
141.1912, 434.2385
141.6733, 438.4579
142.1555, 441.3739
142.6376, 443.6978
143.1197, 445.4982
143.6018, 446.5485
144.0839, 446.4082
144.5660, 445.5298
145.0482, 444.6949
145.5303, 444.4285
146.0124, 444.5278
146.4945, 443.4462
146.9766, 440.8754
147.4587, 437.7449
147.9409, 434.4960
148.4230, 431.0566
148.9051, 426.9949
149.3872, 421.7228
149.8693, 415.4966
150.3514, 409.9095
150.8336, 405.1614
151.3157, 400.9593
151.7978, 397.0800
152.2799, 393.5109
152.7620, 390.1658
153.2441, 386.6157
153.7263, 383.2446
154.2084, 380.8557
154.6905, 380.4027
155.1726, 381.0406
155.6547, 380.8596
156.1368, 379.5111
156.6190, 377.9262
157.1011, 376.9025
157.5832, 376.0644
158.0653, 374.5991
158.5474, 371.4439
159.0295, 366.8329
159.5117, 363.9227
159.9938, 363.7694
160.4759, 364.4843
160.9580, 365.7201
161.4401, 367.2867
161.9222, 368.9539
162.4044, 370.7018
162.8865, 372.7903
163.3686, 373.3636
163.8507, 373.0855
164.3328, 370.9149
164.8149, 366.2010
165.2971, 358.9714
165.7792, 349.7949
166.2613, 339.1088
166.7434, 326.2930
167.2255, 313.7407
167.7076, 301.1452
168.1898, 288.9117
168.6719, 277.1401
169.1540, 265.8710
169.6361, 255.5811
170.1182, 246.9808
170.6003, 240.6058
171.0825, 234.8937
171.5646, 229.8044
172.0467, 225.3624
172.5288, 221.6618
173.0109, 218.7576
173.4930, 216.4332
173.9752, 214.4027
174.4573, 212.5992
174.9394, 211.1550
175.4215, 210.0087
175.9036, 209.2428
176.3857, 209.1270
176.8679, 209.9242
177.3500, 211.1368
177.8321, 212.0019
178.3142, 212.4681
178.7963, 213.1390
179.2784, 214.4470
179.7606, 216.3380
180.2427, 218.2699
180.7248, 219.9812
181.2069, 221.8162
181.6890, 224.0861
182.1711, 226.8359
182.6533, 229.7381
183.1354, 232.5468
183.6175, 235.2736
184.0996, 237.8166
184.5817, 239.5887
185.0638, 241.5250
185.5460, 244.3981
186.0281, 248.3421
186.5102, 252.5254
186.9923, 255.7761
187.4744, 257.8229
187.9565, 259.5978
188.4387, 261.0433
188.9208, 262.4121
189.4029, 263.9169
189.8850, 265.6201
190.3671, 267.3477
190.8492, 268.7509
191.3314, 269.3365
191.8135, 270.4094
192.2956, 272.4033
192.7777, 274.6728
193.2598, 276.6509
193.7419, 278.1110
194.2241, 279.2317
194.7062, 280.4404
195.1883, 281.6963
195.6704, 283.1209
196.1525, 284.7049
196.6346, 286.4584
197.1168, 288.3382
197.5989, 290.3156
198.0810, 292.5087
198.5631, 295.3086
199.0452, 299.3518
199.5273, 303.1234
200.0095, 306.4526
200.4916, 309.3427
200.9737, 311.8050
201.4558, 313.8403
201.9379, 315.4744
202.4200, 316.8111
202.9022, 317.9763
203.3843, 318.7471
203.8664, 319.0826
204.3485, 318.9684
204.8306, 318.3348
205.3127, 317.0863
205.7949, 315.3336
206.2770, 313.3797
206.7591, 311.1120
207.2412, 308.8847
207.7233, 306.7708
208.2054, 304.8040
208.6876, 303.2061
209.1697, 301.8506
209.6518, 301.1779
210.1339, 301.6867
210.6160, 303.5954
211.0981, 306.1113
211.5803, 308.8439
212.0624, 311.7907
212.5445, 314.3593
213.0266, 315.7119
213.5087, 316.9655
213.9908, 319.3669
214.4730, 323.2616
214.9551, 327.3262
215.4372, 330.0113
215.9193, 331.1423
216.4014, 332.0511
216.8836, 333.6016
217.3657, 334.7703
217.8478, 334.5441
218.3299, 332.6552
218.8120, 330.2892
219.2941, 329.1613
219.7763, 329.7071
220.2584, 330.0605
220.7405, 330.0608
221.2226, 329.6599
221.7047, 328.8989
222.1868, 327.7694
222.6690, 326.0375
223.1511, 323.1642
223.6332, 318.4059
224.1153, 314.1540
224.5974, 311.1036
225.0795, 308.2809
225.5617, 304.9872
226.0438, 301.0298
226.5259, 296.7050
227.0080, 292.4156
227.4901, 287.6632
227.9722, 284.0190
228.4544, 282.0175
228.9365, 280.6694
229.4186, 279.4253
229.9007, 278.0677
230.3828, 276.4772
230.8649, 274.4257
231.3471, 271.3489
231.8292, 268.6997
232.3113, 266.6155
232.7934, 264.8373
233.2755, 262.9488
233.7576, 260.9015
234.2398, 259.2402
234.7219, 258.9448
235.2040, 261.2256
235.6861, 262.7824
236.1682, 262.9548
236.6503, 262.7763
237.1325, 263.1010
237.6146, 264.1641
238.0967, 265.7864
238.5788, 267.7462
239.0609, 270.1928
239.5430, 272.6523
240.0252, 275.1471
240.5073, 277.6200
240.9894, 279.9027
241.4715, 281.9691
241.9536, 284.1025
242.4357, 286.6996
242.9179, 289.7962
243.4000, 293.2276
243.8821, 297.0929
244.3642, 301.2282
244.8463, 305.3969
245.3284, 309.5597
245.8106, 313.9545
246.2927, 318.9791
246.7748, 324.6605
247.2569, 330.2698
247.7390, 335.7901
248.2211, 341.1669
248.7033, 346.3347
249.1854, 351.2862
249.6675, 356.0701
250.1496, 360.6350
250.6317, 365.0584
251.1138, 369.6819
251.5960, 374.9396
252.0781, 380.2961
252.5602, 384.9841
253.0423, 388.8031
253.5244, 392.5654
254.0065, 397.2505
254.4887, 402.4470
254.9708, 406.9556
255.4529, 409.9891
255.9350, 412.3535
256.4171, 415.2531
256.8992, 418.8858
257.3813, 422.3012
257.8635, 424.7122
258.3456, 426.4486
258.8277, 427.9785
259.3098, 429.4163
259.7919, 430.7076
260.2740, 431.8279
260.7562, 432.8269
261.2383, 433.4265
261.7204, 433.3975
262.2025, 432.8777
262.6846, 431.8730
263.1667, 430.0951
263.6489, 428.1834
264.1310, 427.1993
264.6131, 427.4099
265.0952, 427.3804
265.5773, 426.1529
266.0594, 424.4877
266.5416, 423.0431
267.0237, 421.9892
267.5058, 421.2299
267.9879, 420.5498
268.4700, 419.8570
268.9521, 419.7025
269.4343, 420.5413
269.9164, 421.8819
270.3985, 423.5031
270.8806, 425.3812
271.3627, 427.2619
271.8448, 428.6021
272.3270, 429.1476
272.8091, 430.5090
273.2912, 433.6287
273.7733, 437.3676
274.2554, 441.2290
274.7375, 445.1210
275.2197, 448.8813
275.7018, 452.3930
276.1839, 455.6457
276.6660, 458.6158
277.1481, 461.1518
277.6302, 463.4729
278.1124, 465.8323
278.5945, 468.1650
279.0766, 469.9517
279.5587, 470.5228
280.0408, 469.7446
280.5229, 469.0045
281.0051, 468.5031
281.4872, 467.9207
281.9693, 467.4243
282.4514, 466.8085
282.9335, 465.5040
283.4156, 463.0102
283.8978, 459.3161
284.3799, 454.9571
284.8620, 449.3968
285.3441, 443.6456
285.8262, 438.0751
286.3083, 432.5904
286.7905, 426.8719
287.2726, 420.5788
287.7547, 413.8311
288.2368, 407.9401
288.7189, 403.4495
289.2010, 399.2505
289.6832, 395.2021
290.1653, 391.2259
290.6474, 387.1038
291.1295, 382.6372
291.6116, 378.1128
292.0938, 374.8230
292.5759, 373.9703
293.0580, 372.6938
293.5401, 369.4551
294.0222, 365.8943
294.5043, 364.0173
294.9865, 364.7523
295.4686, 367.1303
295.9507, 368.8179
296.4328, 369.4016
296.9149, 369.9897
297.3970, 370.0759
297.8792, 370.5670
298.3613, 372.4446
298.8434, 375.9512
299.3255, 380.2455
299.8076, 383.9533
300.2897, 386.8496
300.7719, 389.6369
301.2540, 392.0497
301.7361, 394.5988
302.2182, 397.9603
302.7003, 402.0554
303.1824, 405.9665
303.6646, 408.6292
304.1467, 409.8896
304.6288, 410.3481
305.1109, 408.9877
305.5930, 407.7603
306.0751, 407.8480
306.5573, 409.0181
307.0394, 410.1371
307.5215, 410.1335
308.0036, 408.9161
308.4857, 407.8826
308.9678, 407.1349
309.4500, 406.4771
309.9321, 406.0356
310.4142, 405.6361
310.8963, 404.9043
311.3784, 403.5071
311.8605, 401.5913
312.3427, 400.3611
312.8248, 400.9034
313.3069, 400.8577
313.7890, 399.3570
314.2711, 397.1634
314.7532, 395.1642
315.2354, 393.7898
315.7175, 393.0344
316.1996, 392.9945
316.6817, 394.5817
317.1638, 395.4223
317.6459, 394.8782
318.1281, 393.7726
318.6102, 392.7104
319.0923, 391.9175
319.5744, 391.4465
320.0565, 391.4393
320.5386, 392.1426
321.0208, 392.7491
321.5029, 393.5836
321.9850, 394.0648
322.4671, 393.4434
322.9492, 391.8580
323.4313, 390.4283
323.9135, 390.5636
324.3956, 392.7411
324.8777, 394.0444
325.3598, 393.6525
325.8419, 393.1458
326.3240, 393.0777
326.8062, 393.4132
327.2883, 393.8102
327.7704, 393.8887
328.2525, 393.7233
328.7346, 394.6603
329.2167, 398.1152
329.6989, 401.1253
330.1810, 402.8735
330.6631, 403.7582
331.1452, 404.4036
331.6273, 405.1532
332.1094, 405.8669
332.5916, 406.1443
333.0737, 406.1480
333.5558, 405.3421
334.0379, 403.8019
334.5200, 401.4779
335.0021, 398.3215
335.4843, 394.3138
335.9664, 389.5206
336.4485, 384.0622
336.9306, 377.9000
337.4127, 371.1070
337.8948, 363.3676
338.3770, 355.2591
338.8591, 347.0220
339.3412, 338.6898
339.8233, 330.3379
340.3055, 321.9808
340.7876, 313.6554
341.2697, 305.2652
341.7518, 296.4713
342.2339, 288.0190
342.7160, 280.1211
343.1982, 272.7769
343.6803, 265.8808
344.1624, 259.3356
344.6445, 253.1859
345.1266, 247.6781
345.6087, 242.9806
346.0909, 238.7202
346.5730, 234.6245
347.0551, 230.8484
347.5372, 227.7044
348.0193, 225.3693
348.5014, 223.4246
348.9836, 220.9619
349.4657, 217.6956
349.9478, 214.9150
350.4299, 213.1661
350.9120, 211.8989
351.3941, 210.8127
351.8763, 209.8446
352.3584, 208.9771
352.8405, 208.2065
353.3226, 207.5303
353.8047, 206.9081
354.2868, 206.1580
354.7690, 205.6724
355.2511, 205.7640
355.7332, 206.3447
356.2153, 207.0259
356.6974, 207.5463
357.1795, 207.9633
357.6617, 208.5825
358.1438, 209.6484
358.6259, 210.3919
359.1080, 209.8689
359.5901, 208.8425
360.0722, 208.5683
360.5544, 209.6446
361.0365, 211.4878
361.5186, 213.5511
362.0007, 215.9249
362.4828, 217.6828
362.9649, 217.9392
363.4471, 217.6523
363.9292, 217.9571
364.4113, 219.0738
364.8934, 220.3034
365.3755, 221.0439
365.8576, 221.3996
366.3398, 221.9454
366.8219, 222.8344
367.3040, 223.9354
367.7861, 225.2609
368.2682, 226.7734
368.7503, 227.9404
369.2325, 228.1699
369.7146, 228.0359
370.1967, 228.6334
370.6788, 230.1656
371.1609, 231.7684
371.6430, 232.8364
372.1252, 233.4345
372.6073, 233.7649
373.0894, 233.5721
373.5715, 233.3396
374.0536, 233.6253
374.5357, 234.3042
375.0179, 234.5527
375.5000, 233.7710
375.9821, 232.4952
376.4642, 232.0710
376.9463, 232.9490
377.4284, 233.5283
377.9106, 232.9055
378.3927, 231.6675
378.8748, 230.8723
379.3569, 230.8314
379.8390, 231.0283
380.3211, 230.7402
380.8033, 229.8183
381.2854, 229.3287
381.7675, 229.3493
382.2496, 229.8270
382.7317, 230.9872
383.2138, 232.7077
383.6960, 234.2434
384.1781, 234.9717
384.6602, 234.9704
385.1423, 235.4801
385.6244, 236.3577
386.1065, 237.7845
386.5887, 240.4158
387.0708, 243.5237
387.5529, 245.7003
388.0350, 246.2818
388.5171, 246.1954
388.9992, 247.4931
389.4814, 251.2841
389.9635, 254.8642
390.4456, 258.3882
390.9277, 261.6092
391.4098, 264.0459
391.8919, 265.7928
392.3741, 267.6867
392.8562, 270.6153
393.3383, 274.7180
393.8204, 278.9175
394.3025, 283.1757
394.7846, 287.5687
395.2668, 292.4745
395.7489, 297.5131
396.2310, 301.8832
396.7131, 305.0450
397.1952, 307.5043
397.6773, 311.0887
398.1595, 316.6408
398.6416, 321.9851
399.1237, 327.2631
399.6058, 331.9974
400.0879, 335.5150
400.5700, 337.7704
401.0522, 339.7188
401.5343, 342.7153
402.0164, 347.0359
402.4985, 350.6668
402.9806, 352.9229
403.4627, 355.0246
403.9449, 357.9257
404.4270, 361.1317
404.9091, 363.3269
405.3912, 363.4888
405.8733, 362.1528
406.3554, 361.0591
406.8376, 360.5161
407.3197, 359.4051
407.8018, 356.7042
408.2839, 353.4874
408.7660, 350.9062
409.2481, 349.2855
409.7303, 347.8960
410.2124, 346.0605
410.6945, 343.7948
411.1766, 341.2656
411.6587, 338.4076
412.1408, 335.3986
412.6230, 332.3598
413.1051, 329.3091
413.5872, 326.3829
414.0693, 324.0128
414.5514, 321.6616
415.0335, 318.2898
415.5157, 313.7432
415.9978, 309.2464
416.4799, 305.6237
416.9620, 302.6605
417.4441, 299.6127
417.9262, 296.5056
418.4084, 293.2349
418.8905, 289.7716
419.3726, 286.1094
419.8547, 282.2070
420.3368, 278.0152
420.8189, 273.6913
421.3011, 269.5380
421.7832, 265.6488
422.2653, 261.5487
422.7474, 256.7564
423.2295, 252.0285
423.7116, 248.2215
424.1938, 245.2619
424.6759, 242.1113
425.1580, 237.8246
425.6401, 232.5181
426.1222, 228.2433
426.6043, 225.6324
427.0865, 223.1436
427.5686, 220.5663
428.0507, 217.8172
428.5328, 214.5127
429.0149, 210.5373
429.4970, 206.7669
429.9792, 204.8846
430.4613, 206.3721
430.9434, 206.4888
431.4255, 204.0002
431.9076, 201.4708
432.3897, 200.5316
432.8719, 200.9329
433.3540, 201.3676
433.8361, 200.8235
434.3182, 199.4220
434.8003, 197.9946
435.2824, 196.4340
435.7646, 195.0357
436.2467, 194.4521
436.7288, 193.7835
437.2109, 191.9999
437.6930, 188.7719
438.1751, 184.8210
438.6573, 180.8571
439.1394, 176.8564
439.6215, 173.2277
440.1036, 170.2617
440.5857, 167.4224
441.0678, 164.3458
441.5500, 161.0757
442.0321, 157.8109
442.5142, 154.3684
442.9963, 151.0934
443.4784, 148.6990
443.9605, 147.2760
444.4427, 146.0394
444.9248, 144.7480
445.4069, 143.3345
445.8890, 141.6513
446.3711, 139.5114
446.8532, 137.5944
447.3354, 136.2657
447.8175, 135.4368
448.2996, 135.0095
448.7817, 135.0115
449.2638, 135.0980
449.7459, 134.8769
450.2281, 134.3238
450.7102, 133.9037
451.1923, 133.7125
451.6744, 133.5878
452.1565, 133.4163
452.6386, 133.2240
453.1208, 133.1251
453.6029, 133.1931
454.0850, 133.3426
454.5671, 133.3311
455.0492, 132.5186
455.5313, 132.4563
456.0135, 133.6941
456.4956, 135.3289
456.9777, 136.6881
457.4598, 137.6650
457.9419, 138.4871
458.4240, 139.3145
458.9062, 140.1400
459.3883, 141.4747
459.8704, 144.1448
460.3525, 146.4075
460.8346, 147.5658
461.3167, 148.2229
461.7989, 149.1278
462.2810, 150.5704
462.7631, 152.3426
463.2452, 154.1439
463.7273, 155.9631
464.2094, 157.8837
464.6916, 160.1045
465.1737, 162.2433
465.6558, 163.8682
466.1379, 165.1655
466.6200, 166.8475
467.1021, 169.5996
467.5843, 172.8563
468.0664, 175.3907
468.5485, 177.1098
469.0306, 178.8552
469.5127, 181.0380
469.9948, 183.4573
470.4770, 185.7375
470.9591, 187.8193
471.4412, 189.9452
471.9233, 192.2176
472.4054, 194.6252
472.8875, 197.1946
473.3697, 199.9471
473.8518, 202.6335
474.3339, 205.0613
474.8160, 207.2021
475.2981, 209.0685
475.7802, 210.6065
476.2624, 211.9290
476.7445, 212.8045
477.2266, 213.5505
477.7087, 214.9472
478.1908, 217.3319
478.6729, 219.8660
479.1551, 221.0167
479.6372, 220.2348
480.1193, 219.2576
480.6014, 218.0239
481.0835, 216.6725
481.5656, 215.3693
482.0478, 214.0250
482.5299, 212.4239
483.0120, 210.4504
483.4941, 208.0730
483.9762, 205.1982
484.4583, 201.6379
484.9405, 197.9527
485.4226, 194.1420
485.9047, 190.3242
486.3868, 186.5780
486.8689, 182.9235
487.3510, 179.4610
487.8332, 176.4002
488.3153, 173.6501
488.7974, 170.5779
489.2795, 166.9523
489.7616, 163.5338
490.2437, 160.7012
490.7259, 158.3974
491.2080, 156.6655
491.6901, 155.8485
492.1722, 154.9729
492.6543, 153.3355
493.1364, 151.0852
493.6186, 148.5496
494.1007, 145.7029
494.5828, 142.9678
495.0649, 140.8720
495.5470, 139.4873
496.0291, 138.0289
496.5113, 136.7424
496.9934, 135.1166
497.4755, 132.6444
497.9576, 129.5939
498.4397, 126.6794
498.9218, 124.2817
499.4040, 122.0201
499.8861, 119.0174
500.3682, 114.4243
500.8503, 110.7066
501.3324, 108.4308
501.8145, 106.4240
502.2967, 103.9215
502.7788, 101.0062
503.2609, 98.20408
503.7430, 95.88999
504.2251, 93.93679
504.7072, 91.79695
505.1894, 89.12515
505.6715, 87.05235
506.1536, 86.60250
506.6357, 86.36335
507.1178, 84.96707
507.5999, 82.32623
508.0821, 80.00041
508.5642, 79.72490
509.0463, 80.64207
509.5284, 79.92659
510.0105, 77.02278
510.4926, 74.27226
510.9748, 73.35298
511.4569, 73.56973
511.9390, 73.19682
512.4211, 71.77951
512.9032, 70.44900
513.3853, 69.93833
513.8674, 69.83769
514.3495, 69.39150
514.8317, 68.42764
515.3138, 67.41534
515.7959, 66.84686
516.2780, 66.75917
516.7601, 66.54713
517.2422, 66.25344
517.7244, 65.80891
518.2065, 64.97819
518.6886, 64.05247
519.1707, 63.51634
519.6528, 63.52279
520.1349, 63.68734
520.6171, 63.36607
521.0992, 62.35519
521.5813, 61.69259
522.0634, 61.65641
522.5455, 61.71387
523.0276, 61.74824
523.5098, 61.72760
523.9919, 61.62716
524.4740, 61.44420
524.9561, 61.15308
525.4382, 60.56751
525.9203, 59.67852
526.4025, 59.26511
526.8846, 59.78127
527.3667, 60.46975
527.8488, 60.50925
528.3309, 60.01193
528.8130, 59.70657
529.2952, 59.82910
529.7773, 60.21433
530.2594, 60.85616
530.7415, 61.66854
531.2236, 62.27450
531.7057, 62.47481
532.1879, 62.47674
532.6700, 62.68214
533.1521, 63.22318
533.6342, 63.67682
534.1163, 63.94915
534.5984, 64.20416
535.0806, 64.55784
535.5627, 64.98937
536.0448, 65.41386
536.5269, 65.77691
537.0090, 66.09659
537.4911, 66.38106
537.9733, 66.44638
538.4554, 66.90129
538.9375, 68.16651
539.4196, 69.53326
539.9017, 70.67860
540.3839, 71.54528
540.8660, 72.08340
541.3481, 71.95738
541.8302, 71.65074
542.3123, 72.42905
542.7944, 74.43672
543.2766, 76.23586
543.7587, 77.14967
544.2408, 77.65170
544.7229, 78.50140
545.2050, 79.76661
545.6871, 80.77737
546.1693, 81.11021
546.6514, 81.19085
547.1335, 81.42817
547.6156, 81.85854
548.0977, 82.45341
548.5798, 83.21482
549.0620, 84.09763
549.5441, 84.94397
550.0262, 86.17276
550.5083, 86.76455
550.9904, 86.00727
551.4725, 85.14588
551.9547, 85.35803
552.4368, 86.44178
552.9189, 87.23550
553.4010, 86.82547
553.8831, 85.50790
554.3652, 84.51233
554.8474, 84.07711
555.3295, 83.37376
555.8116, 81.66180
556.2937, 79.97395
556.7758, 79.17977
557.2579, 79.27877
557.7401, 79.42787
558.2222, 79.12153
558.7043, 78.55595
559.1864, 78.03093
559.6685, 77.55748
560.1506, 77.17427
560.6328, 76.96552
561.1149, 76.80001
561.5970, 76.30421
562.0791, 75.27241
562.5612, 74.62277
563.0433, 74.86595
563.5255, 75.30077
564.0076, 75.25387
564.4897, 74.80627
564.9718, 74.51648
565.4539, 74.75028
565.9360, 75.37334
566.4182, 75.95532
566.9003, 76.64070
567.3824, 77.00504
567.8645, 76.79789
568.3466, 76.49178
568.8287, 76.27055
569.3109, 76.20634
569.7930, 76.43723
570.2751, 77.19196
570.7572, 78.14673
571.2393, 78.44038
571.7214, 77.97552
572.2036, 78.07175
572.6857, 79.55289
573.1678, 81.32296
573.6499, 81.92046
574.1320, 81.38046
574.6141, 81.24129
575.0963, 82.29498
575.5784, 83.61985
576.0605, 84.41347
576.5426, 84.77537
577.0247, 85.13074
577.5068, 85.65667
577.9890, 86.36559
578.4711, 87.31203
578.9532, 88.70234
579.4353, 89.79671
579.9174, 90.30537
580.3995, 90.84750
580.8817, 91.65723
581.3638, 92.73050
581.8459, 94.12629
582.3280, 95.92632
582.8101, 97.63244
583.2922, 98.13271
583.7744, 97.27757
584.2565, 97.50472
584.7386, 99.83726
585.2207, 102.3203
585.7029, 103.3501
586.1850, 103.4601
586.6671, 104.0156
587.1492, 105.5647
587.6313, 107.3560
588.1135, 108.8790
588.5956, 110.2258
589.0777, 111.6163
589.5598, 113.1046
590.0419, 114.5941
590.5240, 115.9354
591.0062, 117.1019
591.4883, 118.6322
591.9704, 120.8303
592.4525, 122.9801
592.9346, 124.7864
593.4167, 126.5117
593.8989, 128.4625
594.3810, 130.7036
594.8631, 133.1266
595.3452, 135.5888
595.8273, 138.1099
596.3094, 140.9282
596.7916, 143.9983
597.2737, 147.4972
597.7558, 152.1316
598.2379, 156.9445
598.7200, 160.7031
599.2021, 163.1323
599.6843, 165.9348
600.1664, 170.3568
600.6485, 175.4978
601.1306, 179.9588
601.6127, 183.7218
602.0948, 187.8539
602.5770, 193.0055
603.0591, 198.8629
603.5412, 204.5430
604.0233, 209.3213
604.5054, 215.1814
604.9875, 223.0464
605.4697, 231.1919
605.9518, 238.4963
606.4339, 245.1349
606.9160, 251.8186
607.3981, 258.9839
607.8802, 266.2072
608.3624, 272.6506
608.8445, 278.2617
609.3266, 283.4265
609.8087, 288.3979
610.2908, 292.6416
610.7729, 295.9415
611.2551, 298.2923
611.7372, 299.5995
612.2193, 299.4399
612.7014, 298.7292
613.1835, 298.1620
613.6656, 297.5214
614.1478, 296.2002
614.6299, 294.0595
615.1120, 291.7273
615.5941, 289.7793
616.0762, 288.2117
616.5583, 287.1482
617.0405, 287.2715
617.5226, 287.0326
618.0047, 285.7575
618.4868, 284.2589
618.9689, 283.1583
619.4510, 282.6470
619.9332, 282.8606
620.4153, 284.1887
620.8974, 286.2759
621.3795, 287.7990
621.8616, 288.6746
622.3438, 289.4326
622.8259, 290.1909
623.3080, 290.9977
623.7901, 291.7617
624.2722, 292.4435
624.7543, 293.7786
625.2365, 296.4333
625.7186, 299.4332
626.2007, 302.2363
626.6828, 304.6986
627.1649, 306.5010
627.6470, 307.5123
628.1292, 307.9807
628.6113, 308.3062
629.0934, 308.5120
629.5755, 308.4623
630.0576, 309.2902
630.5397, 308.5643
631.0219, 305.2516
631.5040, 300.0429
631.9861, 293.8468
632.4682, 286.9201
632.9503, 279.1518
633.4324, 270.0977
633.9146, 260.1071
634.3967, 250.3753
634.8788, 241.0459
635.3609, 231.8917
635.8430, 222.9418
636.3251, 213.9782
636.8073, 204.4331
637.2894, 193.7212
637.7715, 183.8214
638.2536, 175.2361
638.7357, 167.3597
639.2178, 159.6421
639.7000, 152.2155
640.1821, 145.6341
640.6642, 140.2036
641.1463, 135.4642
641.6284, 130.3713
642.1105, 124.7924
642.5927, 119.6717
643.0748, 115.2201
643.5569, 111.1272
644.0390, 107.0330
644.5211, 103.1409
645.0032, 99.94402
645.4854, 97.78600
645.9675, 95.75735
646.4496, 93.12273
646.9317, 90.22290
647.4138, 87.65646
647.8959, 85.51091
648.3781, 83.71462
648.8602, 82.27618
649.3423, 81.09693
649.8244, 79.76922
650.3065, 78.19630
650.7886, 76.60495
651.2708, 74.66428
651.7529, 72.99101
652.2350, 72.35967
652.7171, 72.37058
653.1992, 71.78310
653.6813, 69.74268
654.1635, 67.28387
654.6456, 66.14102
655.1277, 66.19233
655.6098, 65.85220
656.0919, 64.69767
656.5740, 63.46421
657.0562, 62.85392
657.5383, 62.75802
658.0204, 62.32430
658.5025, 61.05936
658.9846, 60.07573
659.4667, 59.88625
659.9489, 60.02489
660.4310, 60.06718
660.9131, 59.93168
661.3952, 59.68939
661.8773, 59.39635
662.3594, 59.02179
662.8416, 58.41118
663.3237, 57.44714
663.8058, 56.67761
664.2879, 56.32890
664.7700, 56.06855
665.2521, 55.62670
665.7343, 55.06734
666.2164, 54.60899
666.6985, 54.24934
667.1806, 54.08937
667.6627, 54.41531
668.1448, 54.93584
668.6270, 55.04511
669.1091, 54.64162
669.5912, 54.11532
670.0733, 53.81659
670.5554, 53.69385
671.0375, 53.35883
671.5197, 52.69402
672.0018, 52.00489
672.4839, 51.09750
672.9660, 50.37089
673.4481, 50.22485
673.9302, 50.52418
674.4124, 50.76249
674.8945, 50.64830
675.3766, 50.41831
675.8587, 50.40725
676.3408, 50.55223
676.8229, 50.52796
677.3051, 50.23781
677.7872, 49.94832
678.2693, 49.91729
678.7514, 50.11424
679.2335, 50.18476
679.7156, 50.06907
680.1978, 49.92196
680.6799, 49.58376
681.1620, 49.35801
681.6441, 49.69672
682.1262, 50.42787
682.6083, 50.86125
683.0905, 50.52649
683.5726, 49.74683
684.0547, 49.06377
684.5368, 48.47961
685.0189, 48.03957
685.5010, 47.74874
685.9832, 47.61969
686.4653, 47.73292
686.9474, 48.03601
687.4295, 48.24779
687.9116, 48.44202
688.3937, 48.43356
688.8759, 47.97234
689.3580, 47.41336
689.8401, 47.16661
690.3222, 47.20278
690.8043, 47.17452
691.2864, 46.83596
691.7686, 46.35747
692.2507, 46.13285
692.7328, 46.17169
693.2149, 46.44371
693.6970, 47.19043
694.1791, 47.81431
694.6613, 47.84160
695.1434, 47.45115
695.6255, 46.98510
696.1076, 46.34042
696.5897, 45.93969
697.0718, 46.27462
697.5540, 46.78181
698.0361, 46.63611
698.5182, 45.91591
699.0003, 45.42659
699.4824, 45.68857
699.9645, 46.34692
700.4467, 46.51114
700.9288, 46.02736
701.4109, 45.60285
701.8930, 45.05532
702.3751, 44.86049
702.8572, 45.59497
703.3394, 46.70762
703.8215, 47.20091
704.3036, 46.72530
704.7857, 46.22844
705.2678, 46.35574
705.7499, 46.73165
706.2321, 46.86523
706.7142, 46.73975
707.1963, 46.52178
707.6784, 46.28926
708.1605, 46.05944
708.6426, 45.85828
709.1248, 45.66961
709.6069, 45.56483
710.0890, 45.46478
710.5711, 45.55267
711.0532, 46.11370
711.5353, 46.79097
712.0175, 47.06950
712.4996, 46.83453
712.9817, 46.59486
713.4638, 46.73560
713.9459, 47.01717
714.4280, 47.16656
714.9102, 47.15571
715.3923, 46.84313
715.8744, 46.13009
716.3565, 45.43600
716.8386, 45.43209
717.3207, 46.25817
717.8029, 46.75621
718.2850, 46.62618
718.7671, 46.52650
719.2492, 46.64318
719.7313, 46.83479
720.2134, 46.95884
720.6956, 47.00039
721.1777, 47.03718
721.6598, 47.23808
722.1419, 47.37553
722.6240, 46.97633
723.1061, 46.22137
723.5883, 45.88471
724.0704, 46.21193
724.5525, 46.74957
725.0346, 47.06428
725.5167, 47.15273
725.9988, 46.92869
726.4810, 45.77648
726.9631, 45.21253
727.4452, 45.91927
727.9273, 46.84217
728.4094, 47.15757
728.8915, 46.94340
729.3737, 46.78832
729.8558, 47.07240
730.3379, 47.34084
730.8200, 46.93926
731.3021, 46.14717
731.7842, 45.74414
732.2664, 45.86527
732.7485, 46.24839
733.2306, 46.74358
733.7127, 47.29181
734.1948, 47.65803
734.6769, 47.78662
735.1591, 47.82849
735.6412, 47.69709
736.1233, 47.57843
736.6054, 47.61257
737.0875, 47.71631
737.5696, 47.73209
738.0518, 47.60901
738.5339, 47.40156
739.0160, 47.02099
739.4981, 46.63584
739.9802, 46.59976
740.4623, 46.90331
740.9445, 47.26961
741.4266, 47.57094
741.9087, 47.80967
742.3908, 47.98981
742.8729, 48.11178
743.3550, 48.17489
743.8372, 48.15519
744.3193, 48.10199
744.8014, 47.92154
745.2835, 47.77626
745.7656, 47.87273
746.2477, 48.22821
746.7299, 48.61910
747.2120, 49.07756
747.6941, 49.39437
748.1762, 49.14179
748.6583, 48.53389
749.1404, 48.31784
749.6226, 48.69945
750.1047, 49.12580
750.5868, 49.01945
751.0689, 48.43106
751.5510, 47.86640
752.0331, 47.06884
752.5153, 46.79930
752.9974, 47.69703
753.4795, 48.70739
753.9616, 49.17821
754.4437, 49.20512
754.9258, 49.19361
755.4080, 49.30509
755.8901, 49.32997
756.3722, 48.88469
756.8543, 48.37764
757.3364, 48.57856
757.8185, 49.42766
758.3007, 50.11903
758.7828, 50.14579
759.2649, 49.84240
759.7470, 50.01800
760.2291, 50.89241
760.7112, 51.14213
761.1934, 50.28123
761.6755, 49.50570
762.1576, 49.40040
762.6397, 49.68701
763.1218, 50.10867
763.6039, 50.67659
764.0861, 51.08591
764.5682, 51.19488
765.0503, 51.14093
765.5324, 50.96498
766.0145, 50.72309
766.4966, 50.49657
766.9788, 50.31246
767.4609, 50.14781
767.9430, 49.90820
768.4251, 49.69651
768.9072, 50.23324
769.3893, 51.79412
769.8715, 52.58246
770.3536, 51.70576
770.8357, 50.56892
771.3178, 50.54903
771.7999, 51.43676
772.2820, 52.15567
772.7642, 52.67923
773.2463, 52.98179
773.7284, 52.99238
774.2105, 52.82927
774.6926, 52.50908
775.1747, 52.11149
775.6569, 51.81234
776.1390, 51.70387
776.6211, 51.67705
777.1032, 51.55264
777.5853, 51.36670
778.0674, 51.37970
778.5496, 51.64585
779.0317, 51.77227
779.5138, 51.50225
779.9959, 51.08338
780.4780, 50.97828
780.9601, 51.32197
781.4423, 51.42817
781.9244, 50.90931
782.4065, 50.63246
782.8886, 51.13717
783.3707, 51.86113
783.8528, 52.25385
784.3350, 52.22241
784.8171, 51.88757
785.2992, 51.07394
785.7813, 50.27294
786.2634, 50.27008
786.7455, 50.82227
787.2277, 51.14769
787.7098, 51.08870
788.1919, 50.80588
788.6740, 50.34282
789.1561, 49.87966
789.6382, 50.15980
790.1204, 51.68062
790.6025, 52.73738
791.0846, 53.09017
791.5667, 53.12067
792.0488, 52.69139
792.5309, 52.16788
793.0131, 52.25711
793.4952, 53.20877
793.9773, 53.75053
794.4594, 52.84581
794.9415, 51.64312
795.4236, 51.22523
795.9058, 51.38607
796.3879, 51.54694
796.8700, 51.51850
797.3521, 51.40428
797.8342, 51.29799
798.3163, 51.20332
798.7985, 51.12263
799.2806, 51.03700
799.7627, 51.08740
800.2448, 51.38118
800.7269, 51.69791
801.2090, 51.90159
801.6912, 51.96950
802.1733, 51.82093
802.6554, 51.19708
803.1375, 50.76776
803.6196, 50.64823
804.1017, 50.77135
804.5839, 51.38506
805.0660, 52.14151
805.5481, 52.26778
806.0302, 51.47498
806.5123, 50.56927
806.9944, 50.47081
807.4766, 50.83242
807.9587, 50.68587
808.4408, 50.07418
808.9229, 49.91613
809.4050, 50.60068
809.8871, 51.51975
810.3693, 51.97364
810.8514, 51.96392
811.3335, 51.73266
811.8156, 50.81998
812.2977, 50.46023
812.7798, 51.51842
813.2620, 52.54753
813.7441, 52.33101
814.2262, 51.30756
814.7083, 50.85445
815.1904, 51.54546
815.6725, 52.32627
816.1547, 52.71318
816.6368, 52.80592
817.1189, 52.56887
817.6010, 52.14283
818.0831, 51.93440
818.5652, 52.11109
819.0474, 52.35649
819.5295, 52.13144
820.0116, 51.54246
820.4937, 51.71532
820.9758, 52.82970
821.4579, 53.60277
821.9401, 53.51996
822.4222, 53.13826
822.9043, 53.02798
823.3864, 53.17904
823.8685, 53.26721
824.3506, 53.19740
824.8328, 53.20066
825.3149, 53.46063
825.7970, 53.67326
826.2791, 53.48001
826.7612, 53.08200
827.2433, 52.98794
827.7255, 53.40607
828.2076, 53.95696
828.6897, 54.40257
829.1718, 54.73022
829.6539, 54.94284
830.1360, 55.02297
830.6182, 54.80811
831.1003, 54.23301
831.5824, 53.71391
832.0645, 53.77374
832.5466, 54.36527
833.0287, 54.89363
833.5109, 55.28798
833.9930, 55.85718
834.4751, 56.97572
834.9572, 57.90775
835.4393, 57.91669
835.9214, 57.25783
836.4036, 56.60742
836.8857, 55.78906
837.3678, 55.44206
837.8499, 56.20968
838.3320, 57.05027
838.8141, 57.00147
839.2963, 56.52520
839.7784, 56.62651
840.2605, 57.59121
840.7426, 58.68503
841.2247, 59.45051
841.7068, 59.80883
842.1890, 59.38530
842.6711, 58.33761
843.1532, 57.51355
843.6353, 57.12675
844.1174, 57.16819
844.5995, 57.70917
845.0817, 58.58437
845.5638, 59.01940
846.0459, 58.88239
846.5280, 58.67216
847.0101, 58.46084
847.4922, 58.13037
847.9744, 57.32512
848.4565, 56.48560
848.9386, 56.47555
849.4207, 57.55518
849.9028, 58.02646
850.3849, 56.78375
850.8671, 55.50379
851.3492, 55.40594
851.8313, 55.76163
852.3134, 55.43075
852.7955, 54.34893
853.2776, 53.40195
853.7598, 53.23619
854.2419, 53.39991
854.7240, 53.13725
855.2061, 52.59593
855.6882, 52.46704
856.1703, 52.82442
856.6525, 53.02464
857.1346, 52.68108
857.6167, 52.06962
858.0988, 51.71331
858.5809, 51.64816
859.0630, 51.61380
859.5452, 51.72509
860.0273, 51.66121
860.5094, 51.15660
860.9915, 50.56996
861.4736, 50.23899
861.9557, 50.12561
862.4379, 49.95805
862.9200, 49.51485
863.4021, 49.25906
863.8842, 49.61180
864.3663, 50.00407
864.8484, 49.83084
865.3306, 49.28983
865.8127, 49.03169
866.2948, 49.30119
866.7769, 49.45699
867.2590, 48.69788
867.7411, 47.44436
868.2233, 46.38119
868.7054, 45.60108
869.1875, 45.68599
869.6696, 46.81361
870.1517, 47.97081
870.6339, 48.17257
871.1160, 47.64221
871.5981, 47.42585
872.0802, 47.69777
872.5623, 47.62241
873.0444, 46.89964
873.5266, 46.18641
874.0087, 45.79950
874.4908, 45.68121
874.9729, 45.77760
875.4550, 46.15881
875.9371, 46.34439
876.4193, 46.19043
876.9014, 45.92442
877.3835, 45.50397
877.8656, 45.11228
878.3477, 44.96286
878.8298, 45.03653
879.3120, 45.15272
879.7941, 45.25201
880.2762, 45.28349
880.7583, 45.13400
881.2404, 44.91090
881.7225, 44.84168
882.2047, 44.89851
882.6868, 44.83134
883.1689, 44.53284
883.6510, 44.26220
884.1331, 44.46206
884.6152, 44.99554
885.0974, 44.58500
885.5795, 42.99100
886.0616, 42.31812
886.5437, 43.38686
887.0258, 44.66780
887.5079, 44.91846
887.9901, 44.37384
888.4722, 43.97902
888.9543, 43.89112
889.4364, 43.65081
889.9185, 42.95410
890.4006, 42.46163
890.8828, 42.53582
891.3649, 42.89715
891.8470, 43.34483
892.3291, 43.80264
892.8112, 43.83900
893.2933, 42.64671
893.7755, 41.70119
894.2576, 42.30105
894.7397, 43.44035
895.2218, 43.85109
895.7039, 43.55218
896.1860, 43.20697
896.6682, 43.12854
897.1503, 43.19758
897.6324, 43.31221
898.1145, 43.44850
898.5966, 43.58929
899.0787, 43.71157
899.5609, 43.52918
900.0430, 42.92276
900.5251, 42.43288
901.0072, 42.64320
901.4893, 43.35022
901.9714, 43.55737
902.4536, 43.16335
902.9357, 42.60992
903.4178, 41.77466
903.8999, 41.06896
904.3820, 40.71250
904.8641, 40.62093
905.3463, 40.69186
905.8284, 40.95224
906.3105, 41.14190
906.7926, 41.34288
907.2747, 41.34260
907.7568, 40.64520
908.2390, 40.06835
908.7211, 40.55448
909.2032, 41.79235
909.6853, 42.69920
910.1674, 42.87136
910.6495, 42.74074
911.1317, 42.43713
911.6138, 42.10147
912.0959, 41.86011
912.5780, 41.72788
913.0601, 41.73325
913.5422, 41.87075
914.0244, 42.06696
914.5065, 42.30648
914.9886, 42.48113
915.4707, 42.21046
915.9528, 41.61417
916.4349, 41.51338
916.9171, 42.02375
917.3992, 42.64278
917.8813, 43.12177
918.3634, 43.47199
918.8455, 43.72056
919.3276, 43.87084
919.8098, 43.82722
920.2919, 43.44880
920.7740, 43.25272
921.2561, 43.52735
921.7382, 43.80524
922.2203, 43.62526
922.7025, 43.12858
923.1846, 42.86440
923.6667, 42.85121
924.1488, 43.02647
924.6309, 43.53363
925.1130, 44.05875
925.5952, 44.53978
926.0773, 44.91206
926.5594, 45.00562
927.0415, 44.86882
927.5236, 44.94033
928.0057, 45.65331
928.4879, 46.25578
928.9700, 46.15958
929.4521, 45.75256
929.9342, 45.40831
930.4163, 45.17856
930.8984, 45.00356
931.3806, 44.86939
931.8627, 44.93697
932.3448, 45.47059
932.8269, 46.25827
933.3090, 47.07183
933.7911, 47.77486
934.2733, 47.55773
934.7554, 46.32450
935.2375, 45.25503
935.7196, 45.17204
936.2017, 45.60532
936.6838, 45.40367
937.1660, 44.48446
937.6481, 44.81376
938.1302, 46.79121
938.6123, 48.24011
939.0944, 48.34888
939.5765, 47.84678
940.0587, 47.32555
940.5408, 46.83884
941.0229, 46.81606
941.5050, 47.62931
941.9871, 48.22401
942.4692, 48.42520
942.9514, 48.56552
943.4335, 48.62070
943.9156, 48.77355
944.3977, 49.31690
944.8798, 50.25653
945.3619, 51.13060
945.8441, 51.71541
946.3262, 52.38174
946.8083, 53.49676
947.2904, 54.54090
947.7725, 55.00473
948.2546, 55.06149
948.7368, 55.09417
949.2189, 55.21232
949.7010, 55.62527
950.1831, 56.47766
950.6652, 57.69042
951.1473, 59.42541
951.6295, 61.36513
952.1116, 63.02781
952.5937, 64.30212
953.0758, 65.06182
953.5579, 65.18078
954.0400, 65.28732
954.5222, 66.17323
955.0043, 67.74326
955.4864, 70.07012
955.9685, 72.95232
956.4506, 74.96900
956.9327, 75.69753
957.4149, 76.25330
957.8970, 77.63567
958.3791, 79.59216
958.8612, 81.34388
959.3433, 82.84914
959.8254, 84.72810
960.3076, 87.14763
960.7897, 89.34969
961.2718, 90.91957
961.7539, 92.28808
962.2360, 93.94215
962.7181, 95.88850
963.2003, 98.18846
963.6824, 101.3855
964.1645, 103.8014
964.6466, 104.7729
965.1287, 105.5667
965.6108, 106.6481
966.0930, 108.0559
966.5751, 109.9405
967.0572, 112.3498
967.5393, 114.6874
968.0214, 116.7103
968.5035, 118.8896
968.9857, 121.2205
969.4678, 123.8785
969.9499, 127.3495
970.4320, 131.1853
970.9141, 134.3474
971.3962, 136.4684
971.8784, 138.9046
972.3605, 142.6440
972.8426, 146.4763
973.3247, 149.6892
973.8068, 152.4127
974.2889, 154.6114
974.7711, 156.5305
975.2532, 158.9548
975.7353, 162.3183
976.2174, 165.7568
976.6995, 168.5396
977.1816, 170.8899
977.6638, 172.6160
978.1459, 174.2763
978.6280, 177.4391
979.1101, 182.2414
979.5922, 187.0727
980.0743, 190.7747
980.5565, 193.9648
981.0386, 197.3209
981.5207, 201.0035
982.0028, 205.5445
982.4849, 210.9583
982.9670, 217.3885
983.4492, 224.8746
983.9313, 232.5703
984.4134, 239.6471
984.8955, 246.4505
985.3776, 254.1612
985.8597, 262.7999
986.3419, 271.7870
986.8240, 281.2442
987.3061, 290.1362
987.7882, 297.9226
988.2703, 305.3101
988.7524, 313.2946
989.2346, 321.7675
989.7167, 329.1885
990.1988, 335.6638
990.6809, 340.8281
991.1630, 344.5864
991.6451, 347.1481
992.1273, 348.2918
992.6094, 348.5668
993.0915, 348.5708
993.5736, 348.2382
994.0557, 348.8393
994.5378, 351.8960
995.0200, 353.6300
995.5021, 353.6574
995.9842, 352.3205
996.4663, 349.3620
996.9484, 345.3407
997.4305, 341.1443
997.9127, 336.8785
998.3948, 332.0752
998.8769, 327.3203
999.3590, 321.0931
999.8411, 312.8272
1000.323, 302.9664
1000.805, 290.7497
1001.287, 277.5460
1001.770, 266.2811
1002.252, 257.6804
1002.734, 249.2360
1003.216, 239.3090
1003.698, 230.0030
1004.180, 222.4793
1004.662, 216.3220
1005.144, 211.5023
1005.627, 207.5866
1006.109, 203.5740
1006.591, 199.0694
1007.073, 195.4174
1007.555, 193.9611
1008.037, 193.4144
1008.519, 192.8712
1009.001, 192.2362
1009.483, 191.1647
1009.966, 189.8873
1010.448, 189.3206
1010.930, 189.9223
1011.412, 190.8514
1011.894, 191.2447
1012.376, 191.4403
1012.858, 192.1960
1013.340, 193.1455
1013.823, 193.2566
1014.305, 192.4624
1014.787, 191.3818
1015.269, 190.3333
1015.751, 189.7296
1016.233, 190.5591
1016.715, 192.1621
1017.197, 192.5886
1017.679, 192.0253
1018.162, 191.3360
1018.644, 190.7690
1019.126, 190.8258
1019.608, 191.8900
1020.090, 193.3699
1020.572, 194.1301
1021.054, 194.3312
1021.536, 195.1111
1022.018, 196.4752
1022.501, 198.5128
1022.983, 201.3048
1023.465, 203.8435
1023.947, 205.3065
1024.429, 206.3811
1024.911, 208.6561
1025.393, 212.1690
1025.875, 215.3463
1026.358, 218.2194
1026.840, 220.4470
1027.322, 221.8749
1027.804, 222.9296
1028.286, 223.9222
1028.768, 224.8123
1029.250, 225.5597
1029.732, 226.2374
1030.214, 226.1837
1030.697, 225.3326
1031.179, 223.9108
1031.661, 221.7801
1032.143, 219.5275
1032.625, 217.5748
1033.107, 215.8595
1033.589, 214.2062
1034.071, 212.5709
1034.553, 211.1782
1035.036, 209.9049
1035.518, 209.1374
1036.000, 209.1479
1036.482, 209.4275
1036.964, 209.4759
1037.446, 209.5265
1037.928, 210.2709
1038.410, 211.8376
1038.893, 213.6457
1039.375, 215.4806
1039.857, 217.9031
1040.339, 221.1145
1040.821, 224.8939
1041.303, 229.0484
1041.785, 233.6463
1042.267, 238.9046
1042.750, 245.1983
1043.232, 250.8720
1043.714, 254.9005
1044.196, 259.6473
1044.678, 265.7963
1045.160, 272.6768
1045.642, 280.2829
1046.124, 288.1054
1046.606, 294.8139
1047.089, 299.7944
1047.571, 305.9133
1048.053, 314.4662
1048.535, 322.7809
1049.017, 329.4647
1049.499, 336.3198
1049.981, 344.9711
1050.463, 354.7602
1050.945, 364.2459
1051.428, 373.3585
1051.910, 381.5894
1052.392, 388.0828
1052.874, 394.6530
1053.356, 402.6327
1053.838, 410.2448
1054.320, 416.5503
1054.802, 421.2797
1055.285, 424.1309
1055.767, 425.0255
1056.249, 424.3136
1056.731, 421.9013
1057.213, 418.1265
1057.695, 413.2865
1058.177, 406.9987
1058.659, 398.0726
1059.141, 387.7934
1059.624, 378.6257
1060.106, 371.0255
1060.588, 362.6914
1061.070, 352.6306
1061.552, 342.0436
1062.034, 331.2649
1062.516, 320.3127
1062.998, 309.1840
1063.480, 297.9592
1063.963, 286.7124
1064.445, 275.4967
1064.927, 264.5249
1065.409, 254.2284
1065.891, 243.7150
1066.373, 232.4438
1066.855, 221.0461
1067.337, 209.6427
1067.820, 198.6465
1068.302, 188.6944
1068.784, 179.7981
1069.266, 170.9883
1069.748, 161.6526
1070.230, 152.8681
1070.712, 144.7384
1071.194, 137.6725
1071.677, 132.3255
1072.159, 127.9790
1072.641, 123.7369
1073.123, 119.4135
1073.605, 115.0997
1074.087, 110.6191
1074.569, 106.6602
1075.051, 103.5672
1075.533, 101.0867
1076.016, 99.41080
1076.498, 97.99258
1076.980, 96.06873
1077.462, 93.71197
1077.944, 91.61964
1078.426, 90.01108
1078.908, 88.72702
1079.390, 87.88992
1079.873, 87.12116
1080.355, 85.98022
1080.837, 84.91611
1081.319, 84.76481
1081.801, 85.16499
1082.283, 84.77519
1082.765, 83.05000
1083.247, 81.53555
1083.729, 81.08913
1084.212, 80.86694
1084.694, 80.64917
1085.176, 80.19253
1085.658, 78.97214
1086.140, 77.39113
1086.622, 76.46647
1087.104, 76.46142
1087.586, 76.46811
1088.068, 75.85679
1088.551, 75.48098
1089.033, 76.16397
1089.515, 76.90240
1089.997, 76.56660
1090.479, 75.71672
1090.961, 75.61781
1091.443, 76.44849
1091.925, 77.00795
1092.408, 76.47615
1092.890, 76.09692
1093.372, 76.55115
1093.854, 77.14785
1094.336, 77.33897
1094.818, 77.37185
1095.300, 77.67045
1095.782, 78.25825
1096.265, 78.84205
1096.747, 79.28111
1097.229, 79.82063
1097.711, 80.56178
1098.193, 81.40504
1098.675, 82.37019
1099.157, 83.35036
1099.639, 84.21870
1100.121, 84.99078
1100.604, 85.79906
1101.086, 86.77393
1101.568, 87.47082
1102.050, 87.70854
1102.532, 87.72521
1103.014, 87.46078
1103.496, 87.16220
1103.978, 87.06882
1104.460, 87.11494
1104.943, 87.15234
1105.425, 87.22321
1105.907, 86.90746
1106.389, 85.79121
1106.871, 84.74142
1107.353, 83.98783
1107.835, 83.40182
1108.317, 83.14864
1108.800, 82.89010
1109.282, 82.00494
1109.764, 80.42736
1110.246, 78.88622
1110.728, 77.28840
1111.210, 75.95980
1111.692, 75.28279
1112.174, 74.48608
1112.656, 72.96786
1113.139, 71.27467
1113.621, 70.04736
1114.103, 69.27659
1114.585, 68.74052
1115.067, 68.79282
1115.549, 68.43845
1116.031, 67.36567
1116.513, 66.31887
1116.995, 65.23438
1117.478, 64.58583
1117.960, 65.02827
1118.442, 66.18015
1118.924, 66.79476
1119.406, 66.65947
1119.888, 66.85766
1120.370, 67.72780
1120.852, 68.16580
1121.335, 67.47399
1121.817, 67.15389
1122.299, 68.42832
1122.781, 70.40861
1123.263, 71.45303
1123.745, 71.53674
1124.227, 71.84605
1124.709, 72.46441
1125.192, 72.93177
1125.674, 72.96272
1126.156, 73.62605
1126.638, 75.66195
1127.120, 77.91749
1127.602, 78.95615
1128.084, 79.08093
1128.566, 79.80880
1129.048, 81.21622
1129.531, 82.60721
1130.013, 83.99730
1130.495, 85.05714
1130.977, 85.66316
1131.459, 86.00611
1131.941, 86.20063
1132.423, 86.35461
1132.905, 86.80939
1133.387, 87.51327
1133.870, 87.51337
1134.352, 86.84608
1134.834, 86.63341
1135.316, 87.08141
1135.798, 87.31081
1136.280, 86.84180
1136.762, 85.95518
1137.244, 84.99025
1137.727, 83.90327
1138.209, 82.40598
1138.691, 80.66713
1139.173, 79.58894
1139.655, 79.10170
1140.137, 78.29855
1140.619, 76.84878
1141.101, 74.76956
1141.583, 71.82891
1142.066, 69.06717
1142.548, 68.67746
1143.030, 69.33434
1143.512, 68.18755
1143.994, 65.75117
1144.476, 63.60645
1144.958, 62.13029
1145.440, 61.26737
1145.922, 61.01690
1146.405, 60.87438
1146.887, 60.45220
1147.369, 59.80646
1147.851, 58.84220
1148.333, 57.79668
1148.815, 57.01367
1149.297, 56.47680
1149.779, 56.05980
1150.262, 55.71879
1150.744, 55.39076
1151.226, 55.01139
1151.708, 54.68951
1152.190, 54.49413
1152.672, 54.38960
1153.154, 54.33207
1153.636, 54.35238
1154.119, 54.45090
1154.601, 54.66676
1155.083, 55.19812
1155.565, 56.28390
1156.047, 57.02998
1156.529, 57.00868
1157.011, 56.76098
1157.493, 56.22167
1157.975, 55.83319
1158.458, 55.91533
1158.940, 56.43537
1159.422, 57.43814
1159.904, 58.98696
1160.386, 60.01878
1160.868, 59.75561
1161.350, 60.03170
1161.832, 61.23253
1162.314, 62.76154
1162.797, 64.76000
1163.279, 66.58365
1163.761, 67.30169
1164.243, 67.27657
1164.725, 68.29231
1165.207, 70.92898
1165.689, 72.43517
1166.171, 72.08688
1166.654, 72.95144
1167.136, 76.27798
1167.618, 79.32201
1168.100, 80.13871
1168.582, 79.90726
1169.064, 80.62592
1169.546, 82.17079
1170.028, 83.35226
1170.510, 84.15768
1170.993, 85.28367
1171.475, 86.81416
1171.957, 88.32610
1172.439, 89.68493
1172.921, 90.49634
1173.403, 90.30508
1173.885, 89.72787
1174.367, 90.25148
1174.849, 91.36719
1175.332, 91.25410
1175.814, 90.11928
1176.296, 88.94036
1176.778, 87.88857
1177.260, 86.70531
1177.742, 85.26400
1178.224, 83.76340
1178.706, 82.29598
1179.189, 80.96321
1179.671, 80.09679
1180.153, 79.31499
1180.635, 77.84549
1181.117, 76.05573
1181.599, 74.96580
1182.081, 74.66039
1182.563, 74.28820
1183.046, 73.53598
1183.528, 72.37512
1184.010, 70.35394
1184.492, 68.42397
1184.974, 67.27937
1185.456, 66.52134
1185.938, 65.83877
1186.420, 65.13161
1186.902, 64.31818
1187.385, 63.39510
1187.867, 62.20386
1188.349, 60.35700
1188.831, 58.76815
1189.313, 57.71273
1189.795, 56.81275
1190.277, 55.88714
1190.759, 55.04131
1191.241, 54.47193
1191.724, 54.06529
1192.206, 53.35254
1192.688, 52.23007
1193.170, 51.24423
1193.652, 50.46187
1194.134, 49.58675
1194.616, 48.47837
1195.098, 47.57072
1195.581, 47.15247
1196.063, 46.91187
1196.545, 46.42272
1197.027, 45.74008
1197.509, 45.06905
1197.991, 44.41127
1198.473, 43.87599
1198.955, 43.45396
1199.438, 42.90760
1199.920, 42.19256
1200.402, 41.62436
1200.884, 41.43029
1201.366, 41.33730
1201.848, 41.01377
1202.330, 40.51662
1202.812, 39.88688
1203.294, 39.20089
1203.776, 38.51200
1204.259, 37.92975
1204.741, 37.79544
1205.223, 38.13140
1205.705, 38.33220
1206.187, 37.93015
1206.669, 37.62856
1207.151, 38.13381
1207.633, 38.69236
1208.116, 38.82375
1208.598, 38.58644
1209.080, 37.86091
1209.562, 36.90973
1210.044, 36.35626
1210.526, 36.33352
1211.008, 36.37595
1211.490, 36.40593
1211.973, 36.47403
1212.455, 36.68885
1212.937, 36.81866
1213.419, 36.78460
1213.901, 36.59877
1214.383, 36.22949
1214.865, 35.73085
1215.347, 35.22860
1215.829, 34.62263
1216.312, 34.80200
1216.794, 35.98209
1217.276, 36.91290
1217.758, 37.41876
1218.240, 37.31892
1218.722, 36.45431
1219.204, 35.42731
1219.686, 34.85970
1220.168, 34.73440
1220.651, 35.24995
1221.133, 36.14352
1221.615, 36.20101
1222.097, 35.61434
1222.579, 35.42113
1223.061, 35.73978
1223.543, 35.94024
1224.025, 35.72385
1224.508, 35.43041
1224.990, 35.36224
1225.472, 35.35350
1225.954, 35.11444
1226.436, 34.95070
1226.918, 35.35413
1227.400, 36.01206
1227.882, 36.50362
1228.365, 36.69511
1228.847, 36.33364
1229.329, 35.09211
1229.811, 34.39485
1230.293, 35.20983
1230.775, 35.82470
1231.257, 35.54044
1231.739, 35.03566
1232.221, 34.50014
1232.703, 34.18187
1233.186, 34.56490
1233.668, 35.47950
1234.150, 35.71954
1234.632, 34.95579
1235.114, 34.88917
1235.596, 35.73027
1236.078, 36.30984
1236.560, 36.34102
1237.043, 36.19407
1237.525, 36.06736
1238.007, 35.96995
1238.489, 35.92801
1238.971, 35.89933
1239.453, 35.79329
1239.935, 35.59603
1240.417, 35.13303
1240.900, 34.54640
1241.382, 34.38873
1241.864, 34.69862
1242.346, 35.03635
1242.828, 35.19128
1243.310, 35.26502
1243.792, 35.28729
1244.274, 35.32331
1244.756, 35.45846
1245.239, 35.60125
1245.721, 35.77087
1246.203, 35.82329
1246.685, 35.42480
1247.167, 34.68142
1247.649, 34.24487
1248.131, 34.28191
1248.613, 34.43464
1249.095, 35.08827
1249.578, 35.16071
1250.060, 33.82017
1250.542, 32.94524
1251.024, 33.81826
1251.506, 35.06783
1251.988, 34.98634
1252.470, 33.97160
1252.952, 33.57611
1253.435, 33.81406
1253.917, 34.06497
1254.399, 34.31775
1254.881, 34.49299
1255.363, 34.58110
1255.845, 34.65651
1256.327, 34.75455
1256.809, 34.88170
1257.292, 35.06663
1257.774, 35.22834
1258.256, 35.29042
1258.738, 35.23014
1259.220, 34.81164
1259.702, 34.36351
1260.184, 34.61258
1260.666, 35.33778
1261.148, 35.62171
1261.630, 35.21331
1262.113, 34.69436
1262.595, 34.11980
1263.077, 33.70119
1263.559, 33.37614
1264.041, 33.37059
1264.523, 34.21733
1265.005, 35.02755
1265.487, 34.97030
1265.970, 34.34684
1266.452, 33.78820
1266.934, 33.28816
1267.416, 33.27713
1267.898, 33.87840
1268.380, 33.94969
1268.862, 33.34872
1269.344, 32.80224
1269.827, 32.54210
1270.309, 32.68943
1270.791, 33.37055
1271.273, 34.14965
1271.755, 34.42442
1272.237, 34.36536
1272.719, 34.08137
1273.201, 33.81272
1273.683, 34.16182
1274.166, 34.83826
1274.648, 35.18285
1275.130, 35.03816
1275.612, 34.36327
1276.094, 32.87923
1276.576, 32.03054
1277.058, 32.93773
1277.540, 33.83150
1278.022, 34.10011
1278.505, 34.05838
1278.987, 33.81190
1279.469, 33.44476
1279.951, 32.99200
1280.433, 32.50612
1280.915, 32.19863
1281.397, 32.07839
1281.879, 32.13554
1282.362, 32.38271
1282.844, 32.69783
1283.326, 33.06494
1283.808, 33.24672
1284.290, 33.14473
1284.772, 33.04428
1285.254, 33.15483
1285.736, 33.47520
##END=



