##NAMES=Leucophoenicite
##RRUFFID=R150131
##IDEAL CHEMISTRY=Mn^2+^_7_(SiO_4_)_3_(OH)_2_
##LOCALITY=Franklin, Sussex County, New Jersey, USA
##OWNER=RRUFF
##SOURCE=Steven Kuitems
##DESCRIPTION=Striated raspberry-red or deep to light pink prismatic crystals, associated with white prismatic willemite
##STATUS=The identification of this mineral has been confirmed by single-crystal X-ray diffraction.
##URL=rruff.info/R150131
9.059570e+001, 3.121783e+002
9.107782e+001, 3.116579e+002
9.155994e+001, 3.114882e+002
9.204205e+001, 3.119616e+002
9.252417e+001, 3.125854e+002
9.300629e+001, 3.131593e+002
9.348840e+001, 3.120252e+002
9.397052e+001, 3.073922e+002
9.445264e+001, 2.989398e+002
9.493475e+001, 2.905437e+002
9.541687e+001, 2.831358e+002
9.589898e+001, 2.774432e+002
9.638110e+001, 2.724740e+002
9.686321e+001, 2.672777e+002
9.734533e+001, 2.612596e+002
9.782745e+001, 2.542885e+002
9.830956e+001, 2.483164e+002
9.879168e+001, 2.432845e+002
9.927380e+001, 2.389752e+002
9.975591e+001, 2.355424e+002
1.002380e+002, 2.327339e+002
1.007201e+002, 2.299890e+002
1.012023e+002, 2.269511e+002
1.016844e+002, 2.236982e+002
1.021665e+002, 2.206375e+002
1.026486e+002, 2.178985e+002
1.031307e+002, 2.152094e+002
1.036128e+002, 2.123025e+002
1.040950e+002, 2.091113e+002
1.045771e+002, 2.059112e+002
1.050592e+002, 2.026351e+002
1.055413e+002, 1.994217e+002
1.060234e+002, 1.965682e+002
1.065055e+002, 1.941978e+002
1.069877e+002, 1.922647e+002
1.074698e+002, 1.906357e+002
1.079519e+002, 1.896224e+002
1.084340e+002, 1.885106e+002
1.089161e+002, 1.872034e+002
1.093982e+002, 1.855929e+002
1.098804e+002, 1.834603e+002
1.103625e+002, 1.803303e+002
1.108446e+002, 1.757877e+002
1.113267e+002, 1.725176e+002
1.118088e+002, 1.711744e+002
1.122909e+002, 1.704226e+002
1.127731e+002, 1.697759e+002
1.132552e+002, 1.691107e+002
1.137373e+002, 1.684977e+002
1.142194e+002, 1.680495e+002
1.147015e+002, 1.678688e+002
1.151836e+002, 1.676827e+002
1.156658e+002, 1.677204e+002
1.161479e+002, 1.676551e+002
1.166300e+002, 1.671506e+002
1.171121e+002, 1.660796e+002
1.175942e+002, 1.645870e+002
1.180763e+002, 1.629318e+002
1.185584e+002, 1.609297e+002
1.190406e+002, 1.591539e+002
1.195227e+002, 1.579294e+002
1.200048e+002, 1.570869e+002
1.204869e+002, 1.561319e+002
1.209690e+002, 1.547813e+002
1.214511e+002, 1.532426e+002
1.219333e+002, 1.519012e+002
1.224154e+002, 1.506934e+002
1.228975e+002, 1.497832e+002
1.233796e+002, 1.493636e+002
1.238617e+002, 1.494609e+002
1.243438e+002, 1.498032e+002
1.248260e+002, 1.507858e+002
1.253081e+002, 1.517632e+002
1.257902e+002, 1.520403e+002
1.262723e+002, 1.512072e+002
1.267544e+002, 1.497466e+002
1.272365e+002, 1.487373e+002
1.277187e+002, 1.483346e+002
1.282008e+002, 1.481766e+002
1.286829e+002, 1.481638e+002
1.291650e+002, 1.482752e+002
1.296471e+002, 1.484863e+002
1.301292e+002, 1.487827e+002
1.306114e+002, 1.491655e+002
1.310935e+002, 1.496458e+002
1.315756e+002, 1.506544e+002
1.320577e+002, 1.513506e+002
1.325398e+002, 1.514209e+002
1.330219e+002, 1.509793e+002
1.335041e+002, 1.503171e+002
1.339862e+002, 1.496603e+002
1.344683e+002, 1.489824e+002
1.349504e+002, 1.485178e+002
1.354325e+002, 1.483458e+002
1.359146e+002, 1.482749e+002
1.363968e+002, 1.482710e+002
1.368789e+002, 1.483024e+002
1.373610e+002, 1.482424e+002
1.378431e+002, 1.479050e+002
1.383252e+002, 1.472012e+002
1.388073e+002, 1.466790e+002
1.392895e+002, 1.465589e+002
1.397716e+002, 1.465594e+002
1.402537e+002, 1.463321e+002
1.407358e+002, 1.457771e+002
1.412179e+002, 1.450906e+002
1.417000e+002, 1.445351e+002
1.421821e+002, 1.441005e+002
1.426643e+002, 1.436215e+002
1.431464e+002, 1.431821e+002
1.436285e+002, 1.426807e+002
1.441106e+002, 1.416761e+002
1.445927e+002, 1.396996e+002
1.450748e+002, 1.376092e+002
1.455570e+002, 1.361669e+002
1.460391e+002, 1.353834e+002
1.465212e+002, 1.348151e+002
1.470033e+002, 1.341015e+002
1.474854e+002, 1.332217e+002
1.479675e+002, 1.323912e+002
1.484497e+002, 1.319431e+002
1.489318e+002, 1.313555e+002
1.494139e+002, 1.302389e+002
1.498960e+002, 1.285367e+002
1.503781e+002, 1.265924e+002
1.508602e+002, 1.249172e+002
1.513424e+002, 1.235665e+002
1.518245e+002, 1.223645e+002
1.523066e+002, 1.213790e+002
1.527887e+002, 1.204497e+002
1.532708e+002, 1.193880e+002
1.537529e+002, 1.181386e+002
1.542351e+002, 1.168527e+002
1.547172e+002, 1.159233e+002
1.551993e+002, 1.159545e+002
1.556814e+002, 1.156302e+002
1.561635e+002, 1.146532e+002
1.566456e+002, 1.133605e+002
1.571278e+002, 1.121591e+002
1.576099e+002, 1.112529e+002
1.580920e+002, 1.105679e+002
1.585741e+002, 1.097939e+002
1.590562e+002, 1.089307e+002
1.595383e+002, 1.079948e+002
1.600205e+002, 1.068117e+002
1.605026e+002, 1.055434e+002
1.609847e+002, 1.045854e+002
1.614668e+002, 1.042243e+002
1.619489e+002, 1.043319e+002
1.624310e+002, 1.042663e+002
1.629131e+002, 1.039740e+002
1.633953e+002, 1.035815e+002
1.638774e+002, 1.030671e+002
1.643595e+002, 1.024540e+002
1.648416e+002, 1.019856e+002
1.653237e+002, 1.018377e+002
1.658058e+002, 1.019547e+002
1.662880e+002, 1.021733e+002
1.667701e+002, 1.025403e+002
1.672522e+002, 1.029544e+002
1.677343e+002, 1.033254e+002
1.682164e+002, 1.036647e+002
1.686985e+002, 1.039039e+002
1.691807e+002, 1.038644e+002
1.696628e+002, 1.037303e+002
1.701449e+002, 1.037432e+002
1.706270e+002, 1.040603e+002
1.711091e+002, 1.045402e+002
1.715912e+002, 1.048766e+002
1.720734e+002, 1.050879e+002
1.725555e+002, 1.050931e+002
1.730376e+002, 1.047322e+002
1.735197e+002, 1.042093e+002
1.740018e+002, 1.038230e+002
1.744839e+002, 1.037836e+002
1.749661e+002, 1.040215e+002
1.754482e+002, 1.041142e+002
1.759303e+002, 1.039781e+002
1.764124e+002, 1.037710e+002
1.768945e+002, 1.034587e+002
1.773766e+002, 1.031121e+002
1.778588e+002, 1.028682e+002
1.783409e+002, 1.028600e+002
1.788230e+002, 1.030912e+002
1.793051e+002, 1.030118e+002
1.797872e+002, 1.022078e+002
1.802693e+002, 1.015003e+002
1.807515e+002, 1.012505e+002
1.812336e+002, 1.013270e+002
1.817157e+002, 1.013357e+002
1.821978e+002, 1.009052e+002
1.826799e+002, 9.995017e+001
1.831620e+002, 9.941943e+001
1.836441e+002, 9.958530e+001
1.841263e+002, 9.982840e+001
1.846084e+002, 9.991068e+001
1.850905e+002, 9.979876e+001
1.855726e+002, 9.950172e+001
1.860547e+002, 9.897018e+001
1.865368e+002, 9.815010e+001
1.870190e+002, 9.770538e+001
1.875011e+002, 9.793856e+001
1.879832e+002, 9.831863e+001
1.884653e+002, 9.852357e+001
1.889474e+002, 9.850847e+001
1.894296e+002, 9.828519e+001
1.899117e+002, 9.786293e+001
1.903938e+002, 9.722936e+001
1.908759e+002, 9.632588e+001
1.913580e+002, 9.467916e+001
1.918401e+002, 9.297592e+001
1.923223e+002, 9.216354e+001
1.928044e+002, 9.249624e+001
1.932865e+002, 9.293533e+001
1.937686e+002, 9.239639e+001
1.942507e+002, 9.113299e+001
1.947328e+002, 8.977507e+001
1.952150e+002, 8.831232e+001
1.956971e+002, 8.691035e+001
1.961792e+002, 8.594077e+001
1.966613e+002, 8.556507e+001
1.971434e+002, 8.534515e+001
1.976255e+002, 8.499372e+001
1.981077e+002, 8.453548e+001
1.985898e+002, 8.402750e+001
1.990719e+002, 8.347346e+001
1.995540e+002, 8.288462e+001
2.000361e+002, 8.229407e+001
2.005182e+002, 8.159153e+001
2.010004e+002, 8.106139e+001
2.014825e+002, 8.092488e+001
2.019646e+002, 8.106604e+001
2.024467e+002, 8.120177e+001
2.029288e+002, 8.112376e+001
2.034109e+002, 8.084621e+001
2.038930e+002, 8.060303e+001
2.043752e+002, 8.034965e+001
2.048573e+002, 8.019163e+001
2.053394e+002, 8.026186e+001
2.058215e+002, 8.046954e+001
2.063036e+002, 8.060090e+001
2.067857e+002, 8.044646e+001
2.072679e+002, 7.998460e+001
2.077500e+002, 7.966291e+001
2.082321e+002, 7.945081e+001
2.087142e+002, 7.941982e+001
2.091963e+002, 7.967764e+001
2.096784e+002, 8.015760e+001
2.101606e+002, 8.070119e+001
2.106427e+002, 8.117623e+001
2.111248e+002, 8.157610e+001
2.116069e+002, 8.193674e+001
2.120890e+002, 8.221882e+001
2.125711e+002, 8.250100e+001
2.130533e+002, 8.284689e+001
2.135354e+002, 8.323010e+001
2.140175e+002, 8.355674e+001
2.144996e+002, 8.371745e+001
2.149817e+002, 8.365673e+001
2.154638e+002, 8.384600e+001
2.159460e+002, 8.457666e+001
2.164281e+002, 8.524403e+001
2.169102e+002, 8.539439e+001
2.173923e+002, 8.512828e+001
2.178744e+002, 8.499584e+001
2.183565e+002, 8.554845e+001
2.188387e+002, 8.690469e+001
2.193208e+002, 8.787085e+001
2.198029e+002, 8.808830e+001
2.202850e+002, 8.825976e+001
2.207671e+002, 8.896277e+001
2.212492e+002, 9.014329e+001
2.217314e+002, 9.113460e+001
2.222135e+002, 9.124252e+001
2.226956e+002, 9.040850e+001
2.231777e+002, 9.025849e+001
2.236598e+002, 9.123975e+001
2.241419e+002, 9.256360e+001
2.246240e+002, 9.366365e+001
2.251062e+002, 9.451122e+001
2.255883e+002, 9.534911e+001
2.260704e+002, 9.637408e+001
2.265525e+002, 9.757195e+001
2.270346e+002, 9.878054e+001
2.275167e+002, 1.000380e+002
2.279989e+002, 1.012709e+002
2.284810e+002, 1.023995e+002
2.289631e+002, 1.034175e+002
2.294452e+002, 1.043581e+002
2.299273e+002, 1.051629e+002
2.304094e+002, 1.059027e+002
2.308916e+002, 1.067813e+002
2.313737e+002, 1.081170e+002
2.318558e+002, 1.094454e+002
2.323379e+002, 1.101809e+002
2.328200e+002, 1.102592e+002
2.333021e+002, 1.101955e+002
2.337843e+002, 1.103033e+002
2.342664e+002, 1.104793e+002
2.347485e+002, 1.105711e+002
2.352306e+002, 1.105779e+002
2.357127e+002, 1.104519e+002
2.361948e+002, 1.101143e+002
2.366770e+002, 1.095399e+002
2.371591e+002, 1.088448e+002
2.376412e+002, 1.078592e+002
2.381233e+002, 1.068535e+002
2.386054e+002, 1.061639e+002
2.390875e+002, 1.059715e+002
2.395697e+002, 1.060261e+002
2.400518e+002, 1.059373e+002
2.405339e+002, 1.056660e+002
2.410160e+002, 1.053735e+002
2.414981e+002, 1.052057e+002
2.419802e+002, 1.050144e+002
2.424624e+002, 1.045887e+002
2.429445e+002, 1.037958e+002
2.434266e+002, 1.029352e+002
2.439087e+002, 1.026082e+002
2.443908e+002, 1.030965e+002
2.448729e+002, 1.033447e+002
2.453550e+002, 1.026775e+002
2.458372e+002, 1.018584e+002
2.463193e+002, 1.016274e+002
2.468014e+002, 1.022596e+002
2.472835e+002, 1.032408e+002
2.477656e+002, 1.036653e+002
2.482477e+002, 1.032847e+002
2.487299e+002, 1.029191e+002
2.492120e+002, 1.027359e+002
2.496941e+002, 1.026103e+002
2.501762e+002, 1.024560e+002
2.506583e+002, 1.022453e+002
2.511404e+002, 1.019971e+002
2.516226e+002, 1.017127e+002
2.521047e+002, 1.012920e+002
2.525868e+002, 1.010817e+002
2.530689e+002, 1.013984e+002
2.535510e+002, 1.017184e+002
2.540331e+002, 1.016123e+002
2.545153e+002, 1.009955e+002
2.549974e+002, 1.001689e+002
2.554795e+002, 9.958743e+001
2.559616e+002, 9.937166e+001
2.564437e+002, 9.916002e+001
2.569258e+002, 9.909663e+001
2.574080e+002, 9.893079e+001
2.578901e+002, 9.841783e+001
2.583722e+002, 9.755450e+001
2.588543e+002, 9.660067e+001
2.593364e+002, 9.591991e+001
2.598185e+002, 9.566499e+001
2.603007e+002, 9.530321e+001
2.607828e+002, 9.471009e+001
2.612649e+002, 9.412450e+001
2.617470e+002, 9.371249e+001
2.622291e+002, 9.347803e+001
2.627112e+002, 9.331572e+001
2.631934e+002, 9.313490e+001
2.636755e+002, 9.302758e+001
2.641576e+002, 9.251711e+001
2.646397e+002, 9.129980e+001
2.651218e+002, 9.001875e+001
2.656039e+002, 8.908071e+001
2.660861e+002, 8.846256e+001
2.665682e+002, 8.783931e+001
2.670503e+002, 8.686943e+001
2.675324e+002, 8.546449e+001
2.680145e+002, 8.430347e+001
2.684966e+002, 8.341682e+001
2.689788e+002, 8.268797e+001
2.694609e+002, 8.216660e+001
2.699430e+002, 8.178259e+001
2.704251e+002, 8.133629e+001
2.709072e+002, 8.064552e+001
2.713893e+002, 7.970144e+001
2.718715e+002, 7.890614e+001
2.723536e+002, 7.845417e+001
2.728357e+002, 7.792977e+001
2.733178e+002, 7.701204e+001
2.737999e+002, 7.585404e+001
2.742820e+002, 7.490988e+001
2.747642e+002, 7.452206e+001
2.752463e+002, 7.462889e+001
2.757284e+002, 7.447275e+001
2.762105e+002, 7.383223e+001
2.766926e+002, 7.323431e+001
2.771747e+002, 7.285009e+001
2.776568e+002, 7.264014e+001
2.781389e+002, 7.251093e+001
2.786211e+002, 7.241769e+001
2.791032e+002, 7.235735e+001
2.795853e+002, 7.231976e+001
2.800674e+002, 7.244893e+001
2.805495e+002, 7.243264e+001
2.810316e+002, 7.210041e+001
2.815138e+002, 7.158119e+001
2.819959e+002, 7.111614e+001
2.824780e+002, 7.082058e+001
2.829601e+002, 7.059947e+001
2.834422e+002, 7.017525e+001
2.839243e+002, 6.923394e+001
2.844065e+002, 6.868928e+001
2.848886e+002, 6.908390e+001
2.853707e+002, 6.989485e+001
2.858528e+002, 7.032541e+001
2.863349e+002, 7.009396e+001
2.868170e+002, 6.954524e+001
2.872992e+002, 6.928130e+001
2.877813e+002, 6.944820e+001
2.882634e+002, 6.938698e+001
2.887455e+002, 6.872202e+001
2.892276e+002, 6.788483e+001
2.897097e+002, 6.749384e+001
2.901919e+002, 6.770545e+001
2.906740e+002, 6.800273e+001
2.911561e+002, 6.764926e+001
2.916382e+002, 6.650994e+001
2.921203e+002, 6.582414e+001
2.926024e+002, 6.607520e+001
2.930846e+002, 6.662936e+001
2.935667e+002, 6.691116e+001
2.940488e+002, 6.684439e+001
2.945309e+002, 6.657469e+001
2.950130e+002, 6.619195e+001
2.954951e+002, 6.569256e+001
2.959773e+002, 6.522623e+001
2.964594e+002, 6.475282e+001
2.969415e+002, 6.434653e+001
2.974236e+002, 6.405006e+001
2.979057e+002, 6.386931e+001
2.983878e+002, 6.382630e+001
2.988700e+002, 6.397699e+001
2.993521e+002, 6.429128e+001
2.998342e+002, 6.453138e+001
3.003163e+002, 6.466579e+001
3.007984e+002, 6.475484e+001
3.012805e+002, 6.483159e+001
3.017627e+002, 6.489308e+001
3.022448e+002, 6.493092e+001
3.027269e+002, 6.495139e+001
3.032090e+002, 6.493381e+001
3.036911e+002, 6.480614e+001
3.041732e+002, 6.438401e+001
3.046554e+002, 6.415032e+001
3.051375e+002, 6.452547e+001
3.056196e+002, 6.526824e+001
3.061017e+002, 6.569521e+001
3.065838e+002, 6.545630e+001
3.070659e+002, 6.495782e+001
3.075481e+002, 6.505684e+001
3.080302e+002, 6.590235e+001
3.085123e+002, 6.660782e+001
3.089944e+002, 6.677336e+001
3.094765e+002, 6.663717e+001
3.099586e+002, 6.659903e+001
3.104408e+002, 6.676463e+001
3.109229e+002, 6.702046e+001
3.114050e+002, 6.716617e+001
3.118871e+002, 6.717872e+001
3.123692e+002, 6.744675e+001
3.128513e+002, 6.832748e+001
3.133335e+002, 6.937353e+001
3.138156e+002, 7.004467e+001
3.142977e+002, 7.025478e+001
3.147798e+002, 7.027620e+001
3.152619e+002, 7.031853e+001
3.157440e+002, 7.038161e+001
3.162262e+002, 7.045190e+001
3.167083e+002, 7.055519e+001
3.171904e+002, 7.064607e+001
3.176725e+002, 7.066026e+001
3.181546e+002, 7.060489e+001
3.186367e+002, 7.059803e+001
3.191188e+002, 7.077357e+001
3.196010e+002, 7.105211e+001
3.200831e+002, 7.108965e+001
3.205652e+002, 7.085140e+001
3.210473e+002, 7.041936e+001
3.215294e+002, 6.967136e+001
3.220115e+002, 6.872551e+001
3.224937e+002, 6.803576e+001
3.229758e+002, 6.791061e+001
3.234579e+002, 6.806000e+001
3.239400e+002, 6.771624e+001
3.244221e+002, 6.664531e+001
3.249042e+002, 6.568168e+001
3.253864e+002, 6.532228e+001
3.258685e+002, 6.524181e+001
3.263506e+002, 6.474133e+001
3.268327e+002, 6.352972e+001
3.273148e+002, 6.210716e+001
3.277969e+002, 6.133229e+001
3.282791e+002, 6.133363e+001
3.287612e+002, 6.109965e+001
3.292433e+002, 6.016605e+001
3.297254e+002, 5.903236e+001
3.302075e+002, 5.831432e+001
3.306896e+002, 5.811811e+001
3.311718e+002, 5.809064e+001
3.316539e+002, 5.793479e+001
3.321360e+002, 5.763579e+001
3.326181e+002, 5.712894e+001
3.331002e+002, 5.616312e+001
3.335823e+002, 5.518072e+001
3.340645e+002, 5.448520e+001
3.345466e+002, 5.408469e+001
3.350287e+002, 5.385681e+001
3.355108e+002, 5.375747e+001
3.359929e+002, 5.376283e+001
3.364750e+002, 5.369312e+001
3.369572e+002, 5.355352e+001
3.374393e+002, 5.334374e+001
3.379214e+002, 5.308209e+001
3.384035e+002, 5.275027e+001
3.388856e+002, 5.226349e+001
3.393677e+002, 5.154331e+001
3.398499e+002, 5.073644e+001
3.403320e+002, 5.027515e+001
3.408141e+002, 5.035894e+001
3.412962e+002, 5.036919e+001
3.417783e+002, 5.013108e+001
3.422604e+002, 4.977620e+001
3.427426e+002, 4.945490e+001
3.432247e+002, 4.921102e+001
3.437068e+002, 4.905021e+001
3.441889e+002, 4.900935e+001
3.446710e+002, 4.919891e+001
3.451531e+002, 4.915149e+001
3.456353e+002, 4.855893e+001
3.461174e+002, 4.794111e+001
3.465995e+002, 4.778975e+001
3.470816e+002, 4.809047e+001
3.475637e+002, 4.838560e+001
3.480458e+002, 4.824555e+001
3.485280e+002, 4.763985e+001
3.490101e+002, 4.722166e+001
3.494922e+002, 4.704539e+001
3.499743e+002, 4.696539e+001
3.504564e+002, 4.692527e+001
3.509385e+002, 4.693420e+001
3.514207e+002, 4.705937e+001
3.519028e+002, 4.736338e+001
3.523849e+002, 4.776099e+001
3.528670e+002, 4.787853e+001
3.533491e+002, 4.747031e+001
3.538312e+002, 4.708903e+001
3.543134e+002, 4.665939e+001
3.547955e+002, 4.634632e+001
3.552776e+002, 4.644012e+001
3.557597e+002, 4.702605e+001
3.562418e+002, 4.775735e+001
3.567239e+002, 4.802504e+001
3.572061e+002, 4.742375e+001
3.576882e+002, 4.718294e+001
3.581703e+002, 4.759278e+001
3.586524e+002, 4.811003e+001
3.591345e+002, 4.836092e+001
3.596166e+002, 4.832267e+001
3.600987e+002, 4.818978e+001
3.605808e+002, 4.813551e+001
3.610630e+002, 4.815350e+001
3.615451e+002, 4.831988e+001
3.620272e+002, 4.884588e+001
3.625093e+002, 4.929088e+001
3.629914e+002, 4.945203e+001
3.634735e+002, 4.942820e+001
3.639557e+002, 4.940893e+001
3.644378e+002, 4.950623e+001
3.649199e+002, 4.970617e+001
3.654020e+002, 4.995553e+001
3.658841e+002, 5.034875e+001
3.663662e+002, 5.065792e+001
3.668484e+002, 5.083326e+001
3.673305e+002, 5.092869e+001
3.678126e+002, 5.095339e+001
3.682947e+002, 5.092249e+001
3.687768e+002, 5.093317e+001
3.692589e+002, 5.113922e+001
3.697411e+002, 5.157582e+001
3.702232e+002, 5.212363e+001
3.707053e+002, 5.296308e+001
3.711874e+002, 5.375273e+001
3.716695e+002, 5.430177e+001
3.721516e+002, 5.461963e+001
3.726338e+002, 5.484688e+001
3.731159e+002, 5.506802e+001
3.735980e+002, 5.528640e+001
3.740801e+002, 5.564967e+001
3.745622e+002, 5.626325e+001
3.750443e+002, 5.690348e+001
3.755265e+002, 5.745174e+001
3.760086e+002, 5.798554e+001
3.764907e+002, 5.863581e+001
3.769728e+002, 5.949067e+001
3.774549e+002, 6.044948e+001
3.779370e+002, 6.127664e+001
3.784192e+002, 6.190892e+001
3.789013e+002, 6.258903e+001
3.793834e+002, 6.336332e+001
3.798655e+002, 6.422337e+001
3.803476e+002, 6.518105e+001
3.808297e+002, 6.623786e+001
3.813119e+002, 6.735509e+001
3.817940e+002, 6.854377e+001
3.822761e+002, 6.980207e+001
3.827582e+002, 7.088424e+001
3.832403e+002, 7.160967e+001
3.837224e+002, 7.232818e+001
3.842046e+002, 7.324550e+001
3.846867e+002, 7.434368e+001
3.851688e+002, 7.557582e+001
3.856509e+002, 7.704094e+001
3.861330e+002, 7.859044e+001
3.866151e+002, 7.984856e+001
3.870973e+002, 8.072690e+001
3.875794e+002, 8.162078e+001
3.880615e+002, 8.298048e+001
3.885436e+002, 8.443582e+001
3.890257e+002, 8.539897e+001
3.895078e+002, 8.556384e+001
3.899900e+002, 8.557153e+001
3.904721e+002, 8.605293e+001
3.909542e+002, 8.693590e+001
3.914363e+002, 8.760894e+001
3.919184e+002, 8.775735e+001
3.924005e+002, 8.775359e+001
3.928827e+002, 8.818665e+001
3.933648e+002, 8.909938e+001
3.938469e+002, 8.983985e+001
3.943290e+002, 8.996885e+001
3.948111e+002, 8.982663e+001
3.952932e+002, 8.996104e+001
3.957754e+002, 9.046544e+001
3.962575e+002, 9.110237e+001
3.967396e+002, 9.174029e+001
3.972217e+002, 9.235323e+001
3.977038e+002, 9.275814e+001
3.981859e+002, 9.288461e+001
3.986681e+002, 9.286034e+001
3.991501e+002, 9.264345e+001
3.996323e+002, 9.231848e+001
4.001144e+002, 9.219627e+001
4.005965e+002, 9.247160e+001
4.010786e+002, 9.298591e+001
4.015607e+002, 9.328110e+001
4.020428e+002, 9.335188e+001
4.025250e+002, 9.325867e+001
4.030071e+002, 9.275346e+001
4.034892e+002, 9.220602e+001
4.039713e+002, 9.220094e+001
4.044534e+002, 9.282666e+001
4.049355e+002, 9.343794e+001
4.054177e+002, 9.323892e+001
4.058998e+002, 9.201516e+001
4.063819e+002, 9.101942e+001
4.068640e+002, 9.057280e+001
4.073461e+002, 9.002474e+001
4.078282e+002, 8.894102e+001
4.083104e+002, 8.748148e+001
4.087925e+002, 8.609548e+001
4.092746e+002, 8.505864e+001
4.097567e+002, 8.429087e+001
4.102388e+002, 8.340461e+001
4.107209e+002, 8.238895e+001
4.112031e+002, 8.125374e+001
4.116852e+002, 7.988041e+001
4.121673e+002, 7.845555e+001
4.126494e+002, 7.715628e+001
4.131315e+002, 7.602626e+001
4.136136e+002, 7.498202e+001
4.140958e+002, 7.393556e+001
4.145779e+002, 7.290755e+001
4.150600e+002, 7.177280e+001
4.155421e+002, 7.033552e+001
4.160242e+002, 6.897824e+001
4.165063e+002, 6.793527e+001
4.169885e+002, 6.709481e+001
4.174706e+002, 6.617371e+001
4.179527e+002, 6.492988e+001
4.184348e+002, 6.352027e+001
4.189169e+002, 6.249815e+001
4.193990e+002, 6.204461e+001
4.198812e+002, 6.159349e+001
4.203633e+002, 6.105141e+001
4.208454e+002, 6.039423e+001
4.213275e+002, 5.952214e+001
4.218096e+002, 5.840269e+001
4.222917e+002, 5.733515e+001
4.227739e+002, 5.666930e+001
4.232560e+002, 5.638734e+001
4.237381e+002, 5.609217e+001
4.242202e+002, 5.573111e+001
4.247023e+002, 5.533634e+001
4.251844e+002, 5.496741e+001
4.256666e+002, 5.459770e+001
4.261487e+002, 5.412126e+001
4.266308e+002, 5.333440e+001
4.271129e+002, 5.248621e+001
4.275950e+002, 5.200127e+001
4.280771e+002, 5.189860e+001
4.285593e+002, 5.180824e+001
4.290414e+002, 5.154779e+001
4.295235e+002, 5.116644e+001
4.300056e+002, 5.079771e+001
4.304877e+002, 5.045879e+001
4.309698e+002, 5.009447e+001
4.314520e+002, 4.965845e+001
4.319341e+002, 4.918287e+001
4.324162e+002, 4.871938e+001
4.328983e+002, 4.827941e+001
4.333804e+002, 4.787426e+001
4.338625e+002, 4.748506e+001
4.343447e+002, 4.709722e+001
4.348268e+002, 4.696250e+001
4.353089e+002, 4.737301e+001
4.357910e+002, 4.779741e+001
4.362731e+002, 4.790249e+001
4.367552e+002, 4.771340e+001
4.372374e+002, 4.736391e+001
4.377195e+002, 4.690663e+001
4.382016e+002, 4.639793e+001
4.386837e+002, 4.606289e+001
4.391658e+002, 4.614581e+001
4.396479e+002, 4.608942e+001
4.401301e+002, 4.566301e+001
4.406122e+002, 4.519184e+001
4.410943e+002, 4.505948e+001
4.415764e+002, 4.530247e+001
4.420585e+002, 4.557512e+001
4.425406e+002, 4.545454e+001
4.430227e+002, 4.486063e+001
4.435049e+002, 4.445955e+001
4.439870e+002, 4.434023e+001
4.444691e+002, 4.432738e+001
4.449512e+002, 4.450472e+001
4.454333e+002, 4.472823e+001
4.459154e+002, 4.475660e+001
4.463976e+002, 4.444907e+001
4.468797e+002, 4.396463e+001
4.473618e+002, 4.363005e+001
4.478439e+002, 4.343018e+001
4.483260e+002, 4.342902e+001
4.488081e+002, 4.386342e+001
4.492903e+002, 4.433755e+001
4.497724e+002, 4.463209e+001
4.502545e+002, 4.472326e+001
4.507366e+002, 4.467236e+001
4.512187e+002, 4.446511e+001
4.517008e+002, 4.414222e+001
4.521830e+002, 4.386159e+001
4.526651e+002, 4.359193e+001
4.531472e+002, 4.345336e+001
4.536293e+002, 4.370054e+001
4.541114e+002, 4.408028e+001
4.545935e+002, 4.419788e+001
4.550757e+002, 4.385327e+001
4.555578e+002, 4.345904e+001
4.560399e+002, 4.340857e+001
4.565220e+002, 4.361678e+001
4.570041e+002, 4.371781e+001
4.574862e+002, 4.361403e+001
4.579684e+002, 4.335448e+001
4.584505e+002, 4.290536e+001
4.589326e+002, 4.225977e+001
4.594147e+002, 4.183388e+001
4.598968e+002, 4.187786e+001
4.603789e+002, 4.204698e+001
4.608611e+002, 4.205225e+001
4.613432e+002, 4.189561e+001
4.618253e+002, 4.172038e+001
4.623074e+002, 4.163020e+001
4.627895e+002, 4.157131e+001
4.632716e+002, 4.130967e+001
4.637538e+002, 4.053724e+001
4.642359e+002, 3.997861e+001
4.647180e+002, 3.986373e+001
4.652001e+002, 3.991644e+001
4.656822e+002, 3.986670e+001
4.661643e+002, 3.965725e+001
4.666465e+002, 3.938291e+001
4.671286e+002, 3.914510e+001
4.676107e+002, 3.894612e+001
4.680928e+002, 3.874165e+001
4.685749e+002, 3.856798e+001
4.690570e+002, 3.834800e+001
4.695392e+002, 3.799686e+001
4.700213e+002, 3.760339e+001
4.705034e+002, 3.731324e+001
4.709855e+002, 3.719368e+001
4.714676e+002, 3.714727e+001
4.719497e+002, 3.698462e+001
4.724319e+002, 3.666167e+001
4.729140e+002, 3.641743e+001
4.733961e+002, 3.630861e+001
4.738782e+002, 3.627555e+001
4.743603e+002, 3.632293e+001
4.748424e+002, 3.642672e+001
4.753246e+002, 3.650856e+001
4.758067e+002, 3.654793e+001
4.762888e+002, 3.652477e+001
4.767709e+002, 3.632845e+001
4.772530e+002, 3.590728e+001
4.777351e+002, 3.565416e+001
4.782173e+002, 3.587905e+001
4.786994e+002, 3.631813e+001
4.791815e+002, 3.654509e+001
4.796636e+002, 3.649904e+001
4.801457e+002, 3.640318e+001
4.806278e+002, 3.629133e+001
4.811100e+002, 3.622416e+001
4.815920e+002, 3.638534e+001
4.820742e+002, 3.682014e+001
4.825563e+002, 3.718382e+001
4.830384e+002, 3.711792e+001
4.835205e+002, 3.663117e+001
4.840026e+002, 3.638555e+001
4.844847e+002, 3.654046e+001
4.849669e+002, 3.674675e+001
4.854490e+002, 3.691069e+001
4.859311e+002, 3.701971e+001
4.864132e+002, 3.702882e+001
4.868953e+002, 3.692327e+001
4.873774e+002, 3.681332e+001
4.878596e+002, 3.689502e+001
4.883417e+002, 3.728880e+001
4.888238e+002, 3.754523e+001
4.893059e+002, 3.763017e+001
4.897880e+002, 3.763546e+001
4.902701e+002, 3.750448e+001
4.907523e+002, 3.733303e+001
4.912344e+002, 3.733569e+001
4.917165e+002, 3.767048e+001
4.921986e+002, 3.818137e+001
4.926807e+002, 3.840257e+001
4.931628e+002, 3.818016e+001
4.936450e+002, 3.809304e+001
4.941271e+002, 3.851875e+001
4.946092e+002, 3.893374e+001
4.950913e+002, 3.887248e+001
4.955734e+002, 3.836950e+001
4.960555e+002, 3.798392e+001
4.965377e+002, 3.827752e+001
4.970198e+002, 3.896888e+001
4.975019e+002, 3.925134e+001
4.979840e+002, 3.903716e+001
4.984661e+002, 3.874846e+001
4.989482e+002, 3.855350e+001
4.994304e+002, 3.845598e+001
4.999125e+002, 3.849104e+001
5.003946e+002, 3.878309e+001
5.008767e+002, 3.890680e+001
5.013588e+002, 3.848678e+001
5.018409e+002, 3.780015e+001
5.023231e+002, 3.735261e+001
5.028052e+002, 3.725011e+001
5.032873e+002, 3.724627e+001
5.037694e+002, 3.709835e+001
5.042515e+002, 3.679841e+001
5.047336e+002, 3.665078e+001
5.052158e+002, 3.678860e+001
5.056979e+002, 3.691172e+001
5.061800e+002, 3.696394e+001
5.066621e+002, 3.691791e+001
5.071442e+002, 3.669493e+001
5.076263e+002, 3.627657e+001
5.081085e+002, 3.581500e+001
5.085906e+002, 3.556346e+001
5.090727e+002, 3.560802e+001
5.095548e+002, 3.554985e+001
5.100369e+002, 3.525027e+001
5.105190e+002, 3.498642e+001
5.110012e+002, 3.488075e+001
5.114833e+002, 3.488559e+001
5.119654e+002, 3.489335e+001
5.124475e+002, 3.484439e+001
5.129296e+002, 3.479364e+001
5.134117e+002, 3.483872e+001
5.138939e+002, 3.498535e+001
5.143760e+002, 3.519014e+001
5.148581e+002, 3.548869e+001
5.153402e+002, 3.580058e+001
5.158223e+002, 3.606298e+001
5.163044e+002, 3.627863e+001
5.167866e+002, 3.647066e+001
5.172687e+002, 3.668654e+001
5.177508e+002, 3.686353e+001
5.182329e+002, 3.688980e+001
5.187150e+002, 3.677611e+001
5.191971e+002, 3.666973e+001
5.196793e+002, 3.662556e+001
5.201614e+002, 3.664756e+001
5.206435e+002, 3.679591e+001
5.211256e+002, 3.720926e+001
5.216077e+002, 3.733534e+001
5.220898e+002, 3.681266e+001
5.225720e+002, 3.615298e+001
5.230541e+002, 3.580134e+001
5.235362e+002, 3.576989e+001
5.240183e+002, 3.585469e+001
5.245004e+002, 3.593020e+001
5.249825e+002, 3.597348e+001
5.254647e+002, 3.585777e+001
5.259468e+002, 3.545761e+001
5.264289e+002, 3.507076e+001
5.269110e+002, 3.470576e+001
5.273931e+002, 3.437424e+001
5.278752e+002, 3.408042e+001
5.283574e+002, 3.382818e+001
5.288395e+002, 3.362735e+001
5.293216e+002, 3.348114e+001
5.298037e+002, 3.339299e+001
5.302858e+002, 3.340042e+001
5.307679e+002, 3.355516e+001
5.312501e+002, 3.368539e+001
5.317322e+002, 3.373901e+001
5.322143e+002, 3.371887e+001
5.326964e+002, 3.357586e+001
5.331785e+002, 3.327219e+001
5.336606e+002, 3.306168e+001
5.341428e+002, 3.319719e+001
5.346249e+002, 3.352668e+001
5.351070e+002, 3.370691e+001
5.355891e+002, 3.368455e+001
5.360712e+002, 3.364393e+001
5.365533e+002, 3.371488e+001
5.370355e+002, 3.388768e+001
5.375176e+002, 3.407986e+001
5.379997e+002, 3.426315e+001
5.384818e+002, 3.449851e+001
5.389639e+002, 3.485328e+001
5.394460e+002, 3.524776e+001
5.399282e+002, 3.560885e+001
5.404103e+002, 3.590987e+001
5.408924e+002, 3.611152e+001
5.413745e+002, 3.614841e+001
5.418566e+002, 3.601220e+001
5.423387e+002, 3.600252e+001
5.428209e+002, 3.625606e+001
5.433029e+002, 3.647774e+001
5.437850e+002, 3.654755e+001
5.442672e+002, 3.658442e+001
5.447493e+002, 3.676675e+001
5.452314e+002, 3.713125e+001
5.457135e+002, 3.746628e+001
5.461956e+002, 3.744338e+001
5.466777e+002, 3.711167e+001
5.471599e+002, 3.708523e+001
5.476420e+002, 3.750807e+001
5.481241e+002, 3.799801e+001
5.486062e+002, 3.840849e+001
5.490883e+002, 3.870904e+001
5.495704e+002, 3.879695e+001
5.500526e+002, 3.852358e+001
5.505347e+002, 3.831660e+001
5.510168e+002, 3.852287e+001
5.514989e+002, 3.897461e+001
5.519810e+002, 3.930468e+001
5.524631e+002, 3.943377e+001
5.529453e+002, 3.955669e+001
5.534274e+002, 3.987086e+001
5.539095e+002, 4.037844e+001
5.543916e+002, 4.076869e+001
5.548737e+002, 4.101072e+001
5.553558e+002, 4.119181e+001
5.558380e+002, 4.124691e+001
5.563201e+002, 4.129589e+001
5.568022e+002, 4.153367e+001
5.572843e+002, 4.198603e+001
5.577664e+002, 4.242572e+001
5.582485e+002, 4.254503e+001
5.587307e+002, 4.232307e+001
5.592128e+002, 4.236486e+001
5.596949e+002, 4.287614e+001
5.601770e+002, 4.336147e+001
5.606591e+002, 4.359461e+001
5.611412e+002, 4.373866e+001
5.616234e+002, 4.401220e+001
5.621055e+002, 4.447991e+001
5.625876e+002, 4.495969e+001
5.630697e+002, 4.524245e+001
5.635518e+002, 4.540594e+001
5.640339e+002, 4.572268e+001
5.645161e+002, 4.624314e+001
5.649982e+002, 4.682202e+001
5.654803e+002, 4.732196e+001
5.659624e+002, 4.780198e+001
5.664445e+002, 4.849076e+001
5.669266e+002, 4.949022e+001
5.674088e+002, 5.054959e+001
5.678909e+002, 5.153612e+001
5.683730e+002, 5.255700e+001
5.688551e+002, 5.380536e+001
5.693372e+002, 5.528057e+001
5.698193e+002, 5.678263e+001
5.703015e+002, 5.810387e+001
5.707836e+002, 5.926002e+001
5.712657e+002, 6.046159e+001
5.717478e+002, 6.182929e+001
5.722299e+002, 6.308111e+001
5.727120e+002, 6.425166e+001
5.731942e+002, 6.525000e+001
5.736763e+002, 6.598940e+001
5.741584e+002, 6.646301e+001
5.746405e+002, 6.672972e+001
5.751226e+002, 6.687419e+001
5.756047e+002, 6.685954e+001
5.760869e+002, 6.650028e+001
5.765690e+002, 6.574937e+001
5.770511e+002, 6.486153e+001
5.775332e+002, 6.405341e+001
5.780153e+002, 6.311222e+001
5.784974e+002, 6.166990e+001
5.789796e+002, 5.959632e+001
5.794617e+002, 5.758691e+001
5.799438e+002, 5.594995e+001
5.804259e+002, 5.448801e+001
5.809080e+002, 5.289774e+001
5.813901e+002, 5.121179e+001
5.818723e+002, 4.976946e+001
5.823544e+002, 4.882489e+001
5.828365e+002, 4.820552e+001
5.833186e+002, 4.731377e+001
5.838007e+002, 4.584382e+001
5.842828e+002, 4.455881e+001
5.847650e+002, 4.361882e+001
5.852471e+002, 4.272735e+001
5.857292e+002, 4.162798e+001
5.862113e+002, 4.039070e+001
5.866934e+002, 3.927785e+001
5.871755e+002, 3.845431e+001
5.876577e+002, 3.785652e+001
5.881398e+002, 3.740670e+001
5.886219e+002, 3.714461e+001
5.891040e+002, 3.674488e+001
5.895861e+002, 3.606665e+001
5.900682e+002, 3.528679e+001
5.905504e+002, 3.449280e+001
5.910325e+002, 3.371425e+001
5.915146e+002, 3.317168e+001
5.919967e+002, 3.324458e+001
5.924788e+002, 3.331818e+001
5.929609e+002, 3.274154e+001
5.934431e+002, 3.172550e+001
5.939252e+002, 3.092525e+001
5.944073e+002, 3.058839e+001
5.948894e+002, 3.045552e+001
5.953715e+002, 3.015874e+001
5.958536e+002, 2.963475e+001
5.963358e+002, 2.923308e+001
5.968179e+002, 2.903873e+001
5.973000e+002, 2.885345e+001
5.977821e+002, 2.861850e+001
5.982642e+002, 2.834401e+001
5.987463e+002, 2.804361e+001
5.992285e+002, 2.772272e+001
5.997106e+002, 2.740147e+001
6.001927e+002, 2.706771e+001
6.006748e+002, 2.672595e+001
6.011569e+002, 2.657371e+001
6.016390e+002, 2.673731e+001
6.021212e+002, 2.683996e+001
6.026033e+002, 2.656930e+001
6.030854e+002, 2.612891e+001
6.035675e+002, 2.583707e+001
6.040496e+002, 2.577496e+001
6.045317e+002, 2.572683e+001
6.050139e+002, 2.553439e+001
6.054960e+002, 2.530976e+001
6.059781e+002, 2.526584e+001
6.064602e+002, 2.540372e+001
6.069423e+002, 2.547924e+001
6.074244e+002, 2.529911e+001
6.079066e+002, 2.493556e+001
6.083887e+002, 2.471502e+001
6.088708e+002, 2.478096e+001
6.093529e+002, 2.479090e+001
6.098350e+002, 2.463469e+001
6.103171e+002, 2.449921e+001
6.107993e+002, 2.455301e+001
6.112814e+002, 2.475656e+001
6.117635e+002, 2.494333e+001
6.122456e+002, 2.501964e+001
6.127277e+002, 2.499591e+001
6.132098e+002, 2.485889e+001
6.136920e+002, 2.459225e+001
6.141741e+002, 2.440450e+001
6.146562e+002, 2.439280e+001
6.151383e+002, 2.441395e+001
6.156204e+002, 2.430169e+001
6.161025e+002, 2.408210e+001
6.165847e+002, 2.391581e+001
6.170668e+002, 2.385600e+001
6.175489e+002, 2.383844e+001
6.180310e+002, 2.385224e+001
6.185131e+002, 2.387322e+001
6.189952e+002, 2.383365e+001
6.194774e+002, 2.371732e+001
6.199595e+002, 2.362046e+001
6.204416e+002, 2.367184e+001
6.209237e+002, 2.388849e+001
6.214058e+002, 2.399637e+001
6.218879e+002, 2.391579e+001
6.223701e+002, 2.381894e+001
6.228522e+002, 2.376826e+001
6.233343e+002, 2.370402e+001
6.238164e+002, 2.348544e+001
6.242985e+002, 2.311629e+001
6.247806e+002, 2.290442e+001
6.252628e+002, 2.327930e+001
6.257448e+002, 2.397762e+001
6.262269e+002, 2.423927e+001
6.267090e+002, 2.401394e+001
6.271912e+002, 2.377525e+001
6.276733e+002, 2.373412e+001
6.281554e+002, 2.380839e+001
6.286375e+002, 2.384485e+001
6.291196e+002, 2.383187e+001
6.296017e+002, 2.384257e+001
6.300839e+002, 2.400570e+001
6.305660e+002, 2.409094e+001
6.310481e+002, 2.385059e+001
6.315302e+002, 2.340812e+001
6.320123e+002, 2.304028e+001
6.324944e+002, 2.287502e+001
6.329766e+002, 2.289740e+001
6.334587e+002, 2.315500e+001
6.339408e+002, 2.375044e+001
6.344229e+002, 2.405148e+001
6.349050e+002, 2.391009e+001
6.353871e+002, 2.364279e+001
6.358693e+002, 2.328739e+001
6.363514e+002, 2.294142e+001
6.368335e+002, 2.276012e+001
6.373156e+002, 2.279620e+001
6.377977e+002, 2.292828e+001
6.382798e+002, 2.312715e+001
6.387620e+002, 2.334482e+001
6.392441e+002, 2.349105e+001
6.397262e+002, 2.355555e+001
6.402083e+002, 2.357653e+001
6.406904e+002, 2.357271e+001
6.411725e+002, 2.355043e+001
6.416547e+002, 2.352983e+001
6.421368e+002, 2.346062e+001
6.426189e+002, 2.347216e+001
6.431010e+002, 2.368278e+001
6.435831e+002, 2.386858e+001
6.440652e+002, 2.387520e+001
6.445474e+002, 2.373700e+001
6.450295e+002, 2.357002e+001
6.455116e+002, 2.343402e+001
6.459937e+002, 2.330474e+001
6.464758e+002, 2.307744e+001
6.469579e+002, 2.275505e+001
6.474401e+002, 2.274365e+001
6.479222e+002, 2.324807e+001
6.484043e+002, 2.376485e+001
6.488864e+002, 2.386619e+001
6.493685e+002, 2.367073e+001
6.498506e+002, 2.354419e+001
6.503328e+002, 2.354029e+001
6.508149e+002, 2.356743e+001
6.512970e+002, 2.361314e+001
6.517791e+002, 2.365823e+001
6.522612e+002, 2.367342e+001
6.527433e+002, 2.366011e+001
6.532255e+002, 2.365338e+001
6.537076e+002, 2.368562e+001
6.541897e+002, 2.373058e+001
6.546718e+002, 2.367337e+001
6.551539e+002, 2.343368e+001
6.556360e+002, 2.328691e+001
6.561182e+002, 2.337691e+001
6.566003e+002, 2.347883e+001
6.570824e+002, 2.342242e+001
6.575645e+002, 2.327119e+001
6.580466e+002, 2.324460e+001
6.585287e+002, 2.351407e+001
6.590109e+002, 2.379519e+001
6.594930e+002, 2.375310e+001
6.599751e+002, 2.350931e+001
6.604572e+002, 2.342161e+001
6.609393e+002, 2.357011e+001
6.614214e+002, 2.377740e+001
6.619036e+002, 2.390604e+001
6.623857e+002, 2.395454e+001
6.628678e+002, 2.390574e+001
6.633499e+002, 2.360514e+001
6.638320e+002, 2.341288e+001
6.643141e+002, 2.342068e+001
6.647963e+002, 2.350097e+001
6.652784e+002, 2.357227e+001
6.657605e+002, 2.362072e+001
6.662426e+002, 2.365628e+001
6.667247e+002, 2.369039e+001
6.672068e+002, 2.370660e+001
6.676890e+002, 2.363557e+001
6.681711e+002, 2.348310e+001
6.686532e+002, 2.346658e+001
6.691353e+002, 2.366758e+001
6.696174e+002, 2.393859e+001
6.700995e+002, 2.418737e+001
6.705817e+002, 2.439699e+001
6.710638e+002, 2.444803e+001
6.715459e+002, 2.424523e+001
6.720280e+002, 2.399881e+001
6.725101e+002, 2.363234e+001
6.729922e+002, 2.334124e+001
6.734744e+002, 2.342127e+001
6.739565e+002, 2.383873e+001
6.744386e+002, 2.424703e+001
6.749207e+002, 2.438694e+001
6.754028e+002, 2.431632e+001
6.758849e+002, 2.420961e+001
6.763671e+002, 2.405470e+001
6.768492e+002, 2.391670e+001
6.773313e+002, 2.380214e+001
6.778134e+002, 2.371531e+001
6.782955e+002, 2.365945e+001
6.787776e+002, 2.363195e+001
6.792598e+002, 2.362439e+001
6.797419e+002, 2.362037e+001
6.802240e+002, 2.365448e+001
6.807061e+002, 2.380922e+001
6.811882e+002, 2.399146e+001
6.816703e+002, 2.403570e+001
6.821525e+002, 2.392524e+001
6.826346e+002, 2.378581e+001
6.831167e+002, 2.371987e+001
6.835988e+002, 2.371063e+001
6.840809e+002, 2.365838e+001
6.845630e+002, 2.346626e+001
6.850452e+002, 2.344363e+001
6.855273e+002, 2.380049e+001
6.860094e+002, 2.419007e+001
6.864915e+002, 2.445120e+001
6.869736e+002, 2.457950e+001
6.874557e+002, 2.459560e+001
6.879379e+002, 2.447317e+001
6.884200e+002, 2.429963e+001
6.889021e+002, 2.414001e+001
6.893842e+002, 2.399073e+001
6.898663e+002, 2.380443e+001
6.903484e+002, 2.357699e+001
6.908306e+002, 2.349167e+001
6.913127e+002, 2.372802e+001
6.917948e+002, 2.419785e+001
6.922769e+002, 2.445793e+001
6.927590e+002, 2.437578e+001
6.932411e+002, 2.428834e+001
6.937233e+002, 2.389617e+001
6.942054e+002, 2.378960e+001
6.946875e+002, 2.479930e+001
6.951696e+002, 2.636743e+001
6.956517e+002, 2.699932e+001
6.961339e+002, 2.581304e+001
6.966160e+002, 2.419213e+001
6.970981e+002, 2.366651e+001
6.975802e+002, 2.399135e+001
6.980623e+002, 2.436285e+001
6.985444e+002, 2.467352e+001
6.990266e+002, 2.482565e+001
6.995087e+002, 2.469833e+001
6.999908e+002, 2.439068e+001
7.004729e+002, 2.428569e+001
7.009550e+002, 2.465516e+001
7.014371e+002, 2.481002e+001
7.019193e+002, 2.449722e+001
7.024014e+002, 2.419388e+001
7.028835e+002, 2.424604e+001
7.033656e+002, 2.453004e+001
7.038477e+002, 2.476264e+001
7.043298e+002, 2.483000e+001
7.048120e+002, 2.473606e+001
7.052941e+002, 2.432501e+001
7.057762e+002, 2.371968e+001
7.062583e+002, 2.359091e+001
7.067404e+002, 2.406312e+001
7.072225e+002, 2.459647e+001
7.077046e+002, 2.494579e+001
7.081867e+002, 2.509724e+001
7.086688e+002, 2.497584e+001
7.091509e+002, 2.440756e+001
7.096331e+002, 2.402586e+001
7.101152e+002, 2.390710e+001
7.105973e+002, 2.394993e+001
7.110794e+002, 2.424254e+001
7.115615e+002, 2.461294e+001
7.120436e+002, 2.473402e+001
7.125258e+002, 2.449451e+001
7.130079e+002, 2.420342e+001
7.134900e+002, 2.425876e+001
7.139721e+002, 2.458855e+001
7.144542e+002, 2.479319e+001
7.149363e+002, 2.484949e+001
7.154185e+002, 2.484367e+001
7.159006e+002, 2.477499e+001
7.163827e+002, 2.470542e+001
7.168648e+002, 2.476989e+001
7.173469e+002, 2.500832e+001
7.178290e+002, 2.512847e+001
7.183112e+002, 2.495703e+001
7.187933e+002, 2.482087e+001
7.192754e+002, 2.495567e+001
7.197575e+002, 2.519775e+001
7.202396e+002, 2.527506e+001
7.207217e+002, 2.513428e+001
7.212039e+002, 2.498897e+001
7.216860e+002, 2.508002e+001
7.221681e+002, 2.532844e+001
7.226502e+002, 2.537367e+001
7.231323e+002, 2.517306e+001
7.236144e+002, 2.515559e+001
7.240966e+002, 2.557500e+001
7.245787e+002, 2.605282e+001
7.250608e+002, 2.606750e+001
7.255429e+002, 2.563286e+001
7.260250e+002, 2.546266e+001
7.265071e+002, 2.585016e+001
7.269893e+002, 2.620091e+001
7.274714e+002, 2.625958e+001
7.279535e+002, 2.619373e+001
7.284356e+002, 2.621101e+001
7.289177e+002, 2.632054e+001
7.293998e+002, 2.636564e+001
7.298820e+002, 2.620351e+001
7.303641e+002, 2.595381e+001
7.308462e+002, 2.592480e+001
7.313283e+002, 2.612688e+001
7.318104e+002, 2.623454e+001
7.322925e+002, 2.614429e+001
7.327747e+002, 2.604388e+001
7.332568e+002, 2.610198e+001
7.337389e+002, 2.628409e+001
7.342210e+002, 2.639829e+001
7.347031e+002, 2.640081e+001
7.351852e+002, 2.640241e+001
7.356674e+002, 2.645110e+001
7.361495e+002, 2.648653e+001
7.366316e+002, 2.640256e+001
7.371137e+002, 2.626223e+001
7.375958e+002, 2.624813e+001
7.380779e+002, 2.645702e+001
7.385601e+002, 2.676966e+001
7.390422e+002, 2.706584e+001
7.395243e+002, 2.732994e+001
7.400064e+002, 2.737191e+001
7.404885e+002, 2.712441e+001
7.409706e+002, 2.688825e+001
7.414528e+002, 2.680438e+001
7.419349e+002, 2.685744e+001
7.424170e+002, 2.706587e+001
7.428991e+002, 2.755328e+001
7.433812e+002, 2.776454e+001
7.438633e+002, 2.732345e+001
7.443455e+002, 2.694119e+001
7.448276e+002, 2.709906e+001
7.453097e+002, 2.752240e+001
7.457918e+002, 2.776862e+001
7.462739e+002, 2.771387e+001
7.467560e+002, 2.754478e+001
7.472382e+002, 2.737970e+001
7.477203e+002, 2.725076e+001
7.482024e+002, 2.729714e+001
7.486845e+002, 2.752443e+001
7.491666e+002, 2.768844e+001
7.496487e+002, 2.768045e+001
7.501309e+002, 2.764899e+001
7.506130e+002, 2.779755e+001
7.510951e+002, 2.814324e+001
7.515772e+002, 2.831233e+001
7.520593e+002, 2.808741e+001
7.525414e+002, 2.798203e+001
7.530236e+002, 2.820413e+001
7.535057e+002, 2.852390e+001
7.539878e+002, 2.874531e+001
7.544699e+002, 2.885619e+001
7.549520e+002, 2.893786e+001
7.554341e+002, 2.903140e+001
7.559163e+002, 2.912807e+001
7.563984e+002, 2.921964e+001
7.568805e+002, 2.930438e+001
7.573626e+002, 2.935589e+001
7.578447e+002, 2.936494e+001
7.583268e+002, 2.942944e+001
7.588090e+002, 2.963823e+001
7.592911e+002, 2.993654e+001
7.597732e+002, 3.014254e+001
7.602553e+002, 3.023925e+001
7.607374e+002, 3.027234e+001
7.612195e+002, 3.005333e+001
7.617017e+002, 2.997395e+001
7.621838e+002, 3.043052e+001
7.626659e+002, 3.107338e+001
7.631480e+002, 3.127464e+001
7.636301e+002, 3.084259e+001
7.641122e+002, 3.044267e+001
7.645944e+002, 3.068990e+001
7.650765e+002, 3.121629e+001
7.655586e+002, 3.143944e+001
7.660407e+002, 3.138073e+001
7.665228e+002, 3.126986e+001
7.670049e+002, 3.118644e+001
7.674871e+002, 3.119324e+001
7.679692e+002, 3.138609e+001
7.684513e+002, 3.177474e+001
7.689334e+002, 3.213330e+001
7.694155e+002, 3.245656e+001
7.698976e+002, 3.275892e+001
7.703798e+002, 3.300439e+001
7.708619e+002, 3.326202e+001
7.713440e+002, 3.358511e+001
7.718261e+002, 3.396932e+001
7.723082e+002, 3.437874e+001
7.727903e+002, 3.484024e+001
7.732725e+002, 3.527019e+001
7.737546e+002, 3.566147e+001
7.742367e+002, 3.595908e+001
7.747188e+002, 3.597919e+001
7.752009e+002, 3.576915e+001
7.756830e+002, 3.569788e+001
7.761652e+002, 3.602100e+001
7.766473e+002, 3.658014e+001
7.771294e+002, 3.702538e+001
7.776115e+002, 3.736284e+001
7.780936e+002, 3.752272e+001
7.785757e+002, 3.734132e+001
7.790579e+002, 3.727639e+001
7.795400e+002, 3.762069e+001
7.800221e+002, 3.822151e+001
7.805042e+002, 3.883521e+001
7.809863e+002, 3.946773e+001
7.814684e+002, 4.007220e+001
7.819506e+002, 4.059322e+001
7.824327e+002, 4.112635e+001
7.829148e+002, 4.177951e+001
7.833969e+002, 4.247365e+001
7.838790e+002, 4.301464e+001
7.843611e+002, 4.338496e+001
7.848433e+002, 4.384976e+001
7.853254e+002, 4.467570e+001
7.858075e+002, 4.576861e+001
7.862896e+002, 4.681152e+001
7.867717e+002, 4.779712e+001
7.872538e+002, 4.901026e+001
7.877360e+002, 5.058634e+001
7.882181e+002, 5.220755e+001
7.887002e+002, 5.356023e+001
7.891823e+002, 5.468303e+001
7.896644e+002, 5.585832e+001
7.901465e+002, 5.666157e+001
7.906286e+002, 5.813136e+001
7.911107e+002, 6.088008e+001
7.915928e+002, 6.382301e+001
7.920750e+002, 6.617236e+001
7.925571e+002, 6.818685e+001
7.930392e+002, 7.053087e+001
7.935213e+002, 7.343686e+001
7.940034e+002, 7.668920e+001
7.944855e+002, 8.016573e+001
7.949677e+002, 8.383590e+001
7.954498e+002, 8.746420e+001
7.959319e+002, 9.115053e+001
7.964140e+002, 9.547953e+001
7.968961e+002, 1.007305e+002
7.973782e+002, 1.064961e+002
7.978604e+002, 1.121914e+002
7.983425e+002, 1.178261e+002
7.988246e+002, 1.238749e+002
7.993067e+002, 1.301434e+002
7.997888e+002, 1.372140e+002
8.002709e+002, 1.452044e+002
8.007531e+002, 1.540783e+002
8.012352e+002, 1.639712e+002
8.017173e+002, 1.747620e+002
8.021994e+002, 1.857287e+002
8.026815e+002, 1.964697e+002
8.031636e+002, 2.076451e+002
8.036458e+002, 2.198549e+002
8.041279e+002, 2.324127e+002
8.046100e+002, 2.444775e+002
8.050921e+002, 2.560384e+002
8.055742e+002, 2.678192e+002
8.060563e+002, 2.801615e+002
8.065385e+002, 2.923247e+002
8.070206e+002, 3.027767e+002
8.075027e+002, 3.116926e+002
8.079848e+002, 3.212867e+002
8.084669e+002, 3.318372e+002
8.089490e+002, 3.423471e+002
8.094312e+002, 3.524316e+002
8.099133e+002, 3.621141e+002
8.103954e+002, 3.714062e+002
8.108775e+002, 3.802986e+002
8.113596e+002, 3.887693e+002
8.118417e+002, 3.970509e+002
8.123239e+002, 4.045877e+002
8.128060e+002, 4.110865e+002
8.132881e+002, 4.168519e+002
8.137702e+002, 4.224825e+002
8.142523e+002, 4.276696e+002
8.147344e+002, 4.311636e+002
8.152166e+002, 4.323740e+002
8.156987e+002, 4.315921e+002
8.161808e+002, 4.286229e+002
8.166629e+002, 4.239935e+002
8.171450e+002, 4.184715e+002
8.176271e+002, 4.123253e+002
8.181093e+002, 4.065230e+002
8.185914e+002, 4.015809e+002
8.190735e+002, 3.974969e+002
8.195556e+002, 3.942627e+002
8.200377e+002, 3.918643e+002
8.205198e+002, 3.904456e+002
8.210020e+002, 3.904378e+002
8.214841e+002, 3.905627e+002
8.219662e+002, 3.901372e+002
8.224483e+002, 3.897656e+002
8.229304e+002, 3.905974e+002
8.234125e+002, 3.925435e+002
8.238947e+002, 3.928969e+002
8.243768e+002, 3.909807e+002
8.248589e+002, 3.875502e+002
8.253410e+002, 3.824406e+002
8.258231e+002, 3.763016e+002
8.263052e+002, 3.697130e+002
8.267874e+002, 3.628133e+002
8.272695e+002, 3.555594e+002
8.277516e+002, 3.478179e+002
8.282337e+002, 3.400641e+002
8.287158e+002, 3.328563e+002
8.291979e+002, 3.261896e+002
8.296801e+002, 3.199345e+002
8.301622e+002, 3.141076e+002
8.306443e+002, 3.092242e+002
8.311264e+002, 3.056328e+002
8.316085e+002, 3.029063e+002
8.320906e+002, 3.002164e+002
8.325728e+002, 2.973651e+002
8.330549e+002, 2.960824e+002
8.335370e+002, 2.974115e+002
8.340191e+002, 2.988412e+002
8.345012e+002, 2.991827e+002
8.349833e+002, 2.998820e+002
8.354655e+002, 3.024448e+002
8.359476e+002, 3.065592e+002
8.364297e+002, 3.104430e+002
8.369118e+002, 3.134787e+002
8.373939e+002, 3.163104e+002
8.378760e+002, 3.192768e+002
8.383582e+002, 3.222552e+002
8.388403e+002, 3.252846e+002
8.393224e+002, 3.282033e+002
8.398045e+002, 3.306863e+002
8.402866e+002, 3.325822e+002
8.407687e+002, 3.336760e+002
8.412509e+002, 3.334667e+002
8.417330e+002, 3.321333e+002
8.422151e+002, 3.308391e+002
8.426972e+002, 3.296690e+002
8.431793e+002, 3.275052e+002
8.436614e+002, 3.238511e+002
8.441436e+002, 3.193694e+002
8.446257e+002, 3.148730e+002
8.451078e+002, 3.103355e+002
8.455899e+002, 3.050077e+002
8.460720e+002, 2.984439e+002
8.465541e+002, 2.917480e+002
8.470363e+002, 2.847387e+002
8.475184e+002, 2.778716e+002
8.480005e+002, 2.720404e+002
8.484826e+002, 2.664314e+002
8.489647e+002, 2.590819e+002
8.494468e+002, 2.491785e+002
8.499290e+002, 2.389663e+002
8.504111e+002, 2.292649e+002
8.508932e+002, 2.201116e+002
8.513753e+002, 2.118140e+002
8.518574e+002, 2.039739e+002
8.523395e+002, 1.955327e+002
8.528217e+002, 1.863060e+002
8.533038e+002, 1.772521e+002
8.537859e+002, 1.695168e+002
8.542680e+002, 1.626506e+002
8.547501e+002, 1.550647e+002
8.552322e+002, 1.467461e+002
8.557144e+002, 1.399597e+002
8.561965e+002, 1.354274e+002
8.566786e+002, 1.313785e+002
8.571607e+002, 1.264394e+002
8.576428e+002, 1.210661e+002
8.581249e+002, 1.167216e+002
8.586071e+002, 1.139880e+002
8.590892e+002, 1.110508e+002
8.595713e+002, 1.074241e+002
8.600534e+002, 1.041660e+002
8.605355e+002, 1.018104e+002
8.610176e+002, 9.992100e+001
8.614998e+002, 9.795979e+001
8.619819e+002, 9.586785e+001
8.624640e+002, 9.394439e+001
8.629461e+002, 9.235182e+001
8.634282e+002, 9.089526e+001
8.639103e+002, 8.954152e+001
8.643925e+002, 8.819112e+001
8.648746e+002, 8.666971e+001
8.653567e+002, 8.499989e+001
8.658388e+002, 8.343054e+001
8.663209e+002, 8.211720e+001
8.668030e+002, 8.088008e+001
8.672852e+002, 7.938289e+001
8.677673e+002, 7.771213e+001
8.682494e+002, 7.638016e+001
8.687315e+002, 7.543191e+001
8.692136e+002, 7.433350e+001
8.696957e+002, 7.279556e+001
8.701779e+002, 7.124862e+001
8.706600e+002, 7.035205e+001
8.711421e+002, 7.011388e+001
8.716242e+002, 6.933691e+001
8.721063e+002, 6.757703e+001
8.725884e+002, 6.606003e+001
8.730705e+002, 6.528764e+001
8.735526e+002, 6.454338e+001
8.740347e+002, 6.327320e+001
8.745168e+002, 6.172126e+001
8.749990e+002, 6.050219e+001
8.754811e+002, 5.982823e+001
8.759632e+002, 5.916290e+001
8.764453e+002, 5.829260e+001
8.769274e+002, 5.739621e+001
8.774095e+002, 5.663215e+001
8.778917e+002, 5.592664e+001
8.783738e+002, 5.507727e+001
8.788559e+002, 5.407858e+001
8.793380e+002, 5.323556e+001
8.798201e+002, 5.287531e+001
8.803022e+002, 5.270205e+001
8.807844e+002, 5.221678e+001
8.812665e+002, 5.149445e+001
8.817486e+002, 5.076443e+001
8.822307e+002, 5.007511e+001
8.827128e+002, 4.957716e+001
8.831949e+002, 4.939366e+001
8.836771e+002, 4.935126e+001
8.841592e+002, 4.907516e+001
8.846413e+002, 4.852359e+001
8.851234e+002, 4.803096e+001
8.856055e+002, 4.755033e+001
8.860876e+002, 4.725695e+001
8.865698e+002, 4.733949e+001
8.870519e+002, 4.750143e+001
8.875340e+002, 4.738100e+001
8.880161e+002, 4.700050e+001
8.884982e+002, 4.671268e+001
8.889803e+002, 4.661037e+001
8.894625e+002, 4.648402e+001
8.899446e+002, 4.631358e+001
8.904267e+002, 4.609236e+001
8.909088e+002, 4.570714e+001
8.913909e+002, 4.529926e+001
8.918730e+002, 4.520384e+001
8.923552e+002, 4.552938e+001
8.928373e+002, 4.573904e+001
8.933194e+002, 4.528820e+001
8.938015e+002, 4.472088e+001
8.942836e+002, 4.475809e+001
8.947657e+002, 4.509393e+001
8.952479e+002, 4.497485e+001
8.957300e+002, 4.431377e+001
8.962121e+002, 4.372061e+001
8.966942e+002, 4.367545e+001
8.971763e+002, 4.388795e+001
8.976584e+002, 4.374947e+001
8.981406e+002, 4.330156e+001
8.986227e+002, 4.297168e+001
8.991048e+002, 4.280837e+001
8.995869e+002, 4.264597e+001
9.000690e+002, 4.241382e+001
9.005511e+002, 4.210936e+001
9.010333e+002, 4.168369e+001
9.015154e+002, 4.111573e+001
9.019975e+002, 4.093298e+001
9.024796e+002, 4.147683e+001
9.029617e+002, 4.176985e+001
9.034438e+002, 4.148871e+001
9.039260e+002, 4.103907e+001
9.044081e+002, 4.059460e+001
9.048902e+002, 4.020734e+001
9.053723e+002, 4.002889e+001
9.058544e+002, 4.014711e+001
9.063365e+002, 4.027061e+001
9.068187e+002, 4.042505e+001
9.073008e+002, 4.046321e+001
9.077829e+002, 4.017923e+001
9.082650e+002, 3.978453e+001
9.087471e+002, 3.959653e+001
9.092292e+002, 3.963782e+001
9.097114e+002, 3.963900e+001
9.101935e+002, 3.938013e+001
9.106756e+002, 3.911361e+001
9.111577e+002, 3.915060e+001
9.116398e+002, 3.934092e+001
9.121219e+002, 3.942807e+001
9.126041e+002, 3.938623e+001
9.130862e+002, 3.924936e+001
9.135683e+002, 3.903332e+001
9.140504e+002, 3.882868e+001
9.145325e+002, 3.874949e+001
9.150146e+002, 3.878889e+001
9.154968e+002, 3.893117e+001
9.159789e+002, 3.918202e+001
9.164610e+002, 3.937721e+001
9.169431e+002, 3.946795e+001
9.174252e+002, 3.954218e+001
9.179073e+002, 3.968636e+001
9.183895e+002, 3.986108e+001
9.188716e+002, 3.991233e+001
9.193537e+002, 3.975622e+001
9.198358e+002, 3.969499e+001
9.203179e+002, 3.981926e+001
9.208000e+002, 3.990804e+001
9.212822e+002, 3.976220e+001
9.217643e+002, 3.960985e+001
9.222464e+002, 3.968634e+001
9.227285e+002, 3.999330e+001
9.232106e+002, 4.045170e+001
9.236927e+002, 4.122832e+001
9.241749e+002, 4.191389e+001
9.246570e+002, 4.246078e+001
9.251391e+002, 4.281240e+001
9.256212e+002, 4.286336e+001
9.261033e+002, 4.270042e+001
9.265854e+002, 4.244221e+001
9.270676e+002, 4.211704e+001
9.275497e+002, 4.194197e+001
9.280318e+002, 4.212695e+001
9.285139e+002, 4.247211e+001
9.289960e+002, 4.286956e+001
9.294781e+002, 4.324329e+001
9.299603e+002, 4.333585e+001
9.304424e+002, 4.321077e+001
9.309245e+002, 4.339214e+001
9.314066e+002, 4.423686e+001
9.318887e+002, 4.541512e+001
9.323708e+002, 4.639365e+001
9.328530e+002, 4.725169e+001
9.333351e+002, 4.836431e+001
9.338172e+002, 4.973165e+001
9.342993e+002, 5.098974e+001
9.347814e+002, 5.196928e+001
9.352635e+002, 5.308607e+001
9.357457e+002, 5.486483e+001
9.362278e+002, 5.713070e+001
9.367099e+002, 5.879703e+001
9.371920e+002, 5.969123e+001
9.376741e+002, 6.077550e+001
9.381563e+002, 6.231110e+001
9.386384e+002, 6.372399e+001
9.391205e+002, 6.477384e+001
9.396026e+002, 6.546330e+001
9.400847e+002, 6.580254e+001
9.405668e+002, 6.578790e+001
9.410490e+002, 6.544302e+001
9.415311e+002, 6.467707e+001
9.420132e+002, 6.371935e+001
9.424953e+002, 6.262998e+001
9.429774e+002, 6.134859e+001
9.434595e+002, 5.978204e+001
9.439417e+002, 5.799194e+001
9.444238e+002, 5.611885e+001
9.449059e+002, 5.413028e+001
9.453880e+002, 5.227903e+001
9.458701e+002, 5.069019e+001
9.463522e+002, 4.921661e+001
9.468344e+002, 4.772054e+001
9.473165e+002, 4.631882e+001
9.477986e+002, 4.527745e+001
9.482807e+002, 4.454113e+001
9.487628e+002, 4.365381e+001
9.492449e+002, 4.229022e+001
9.497271e+002, 4.090547e+001
9.502092e+002, 3.994591e+001
9.506913e+002, 3.923219e+001
9.511734e+002, 3.851917e+001
9.516555e+002, 3.778389e+001
9.521376e+002, 3.700940e+001
9.526198e+002, 3.620165e+001
9.531019e+002, 3.549316e+001
9.535840e+002, 3.507372e+001
9.540661e+002, 3.475866e+001
9.545482e+002, 3.397908e+001
9.550303e+002, 3.284238e+001
9.555124e+002, 3.213616e+001
9.559945e+002, 3.196586e+001
9.564766e+002, 3.172311e+001
9.569587e+002, 3.106034e+001
9.574409e+002, 3.024956e+001
9.579230e+002, 2.972076e+001
9.584051e+002, 2.946743e+001
9.588872e+002, 2.935953e+001
9.593693e+002, 2.948332e+001
9.598514e+002, 2.934247e+001
9.603336e+002, 2.869748e+001
9.608157e+002, 2.807401e+001
9.612978e+002, 2.789480e+001
9.617799e+002, 2.801519e+001
9.622620e+002, 2.803552e+001
9.627441e+002, 2.794353e+001
9.632263e+002, 2.778756e+001
9.637084e+002, 2.744843e+001
9.641905e+002, 2.720905e+001
9.646726e+002, 2.725843e+001
9.651547e+002, 2.734280e+001
9.656368e+002, 2.722011e+001
9.661190e+002, 2.693389e+001
9.666011e+002, 2.669705e+001
9.670832e+002, 2.646471e+001
9.675653e+002, 2.642584e+001
9.680474e+002, 2.688343e+001
9.685295e+002, 2.726125e+001
9.690117e+002, 2.707619e+001
9.694938e+002, 2.669747e+001
9.699759e+002, 2.669198e+001
9.704580e+002, 2.707104e+001
9.709401e+002, 2.730165e+001
9.714222e+002, 2.708504e+001
9.719044e+002, 2.676644e+001
9.723865e+002, 2.653994e+001
9.728686e+002, 2.633977e+001
9.733507e+002, 2.604363e+001
9.738328e+002, 2.572820e+001
9.743149e+002, 2.560309e+001
9.747971e+002, 2.571437e+001
9.752792e+002, 2.584145e+001
9.757613e+002, 2.577532e+001
9.762434e+002, 2.566831e+001
9.767255e+002, 2.575294e+001
9.772076e+002, 2.594294e+001
9.776898e+002, 2.604188e+001
9.781719e+002, 2.604700e+001
9.786540e+002, 2.612429e+001
9.791361e+002, 2.635188e+001
9.796182e+002, 2.647640e+001
9.801003e+002, 2.607947e+001
9.805825e+002, 2.536239e+001
9.810646e+002, 2.504914e+001
9.815467e+002, 2.508817e+001
9.820288e+002, 2.502830e+001
9.825109e+002, 2.478148e+001
9.829930e+002, 2.462254e+001
9.834752e+002, 2.473820e+001
9.839573e+002, 2.501650e+001
9.844394e+002, 2.531260e+001
9.849215e+002, 2.562938e+001
9.854036e+002, 2.545794e+001
9.858857e+002, 2.467847e+001
9.863679e+002, 2.413532e+001
9.868500e+002, 2.408704e+001
9.873321e+002, 2.420320e+001
9.878142e+002, 2.423089e+001
9.882963e+002, 2.420420e+001
9.887784e+002, 2.423565e+001
9.892606e+002, 2.435467e+001
9.897427e+002, 2.443030e+001
9.902248e+002, 2.448139e+001
9.907069e+002, 2.444491e+001
9.911890e+002, 2.420844e+001
9.916711e+002, 2.397889e+001
9.921533e+002, 2.398292e+001
9.926354e+002, 2.417669e+001
9.931175e+002, 2.430058e+001
9.935996e+002, 2.434717e+001
9.940817e+002, 2.433752e+001
9.945638e+002, 2.424808e+001
9.950460e+002, 2.413091e+001
9.955281e+002, 2.392965e+001
9.960102e+002, 2.376382e+001
9.964923e+002, 2.379733e+001
9.969744e+002, 2.400539e+001
9.974565e+002, 2.416663e+001
9.979387e+002, 2.429389e+001
9.984208e+002, 2.428041e+001
9.989029e+002, 2.391494e+001
9.993850e+002, 2.359337e+001
9.998671e+002, 2.365338e+001
1.000349e+003, 2.386960e+001
1.000831e+003, 2.390574e+001
1.001313e+003, 2.372660e+001
1.001796e+003, 2.351994e+001
1.002278e+003, 2.324138e+001
1.002760e+003, 2.313908e+001
1.003242e+003, 2.360309e+001
1.003724e+003, 2.408317e+001
1.004206e+003, 2.396014e+001
1.004688e+003, 2.348394e+001
1.005170e+003, 2.324006e+001
1.005653e+003, 2.335158e+001
1.006135e+003, 2.343602e+001
1.006617e+003, 2.318251e+001
1.007099e+003, 2.289509e+001
1.007581e+003, 2.288505e+001
1.008063e+003, 2.300423e+001
1.008545e+003, 2.306943e+001
1.009027e+003, 2.306568e+001
1.009509e+003, 2.303889e+001
1.009992e+003, 2.300041e+001
1.010474e+003, 2.287315e+001
1.010956e+003, 2.246105e+001
1.011438e+003, 2.206389e+001
1.011920e+003, 2.230711e+001
1.012402e+003, 2.287013e+001
1.012884e+003, 2.292435e+001
1.013366e+003, 2.249215e+001
1.013849e+003, 2.220958e+001
1.014331e+003, 2.235055e+001
1.014813e+003, 2.257197e+001
1.015295e+003, 2.245193e+001
1.015777e+003, 2.215622e+001
1.016259e+003, 2.212347e+001
1.016741e+003, 2.229735e+001
1.017223e+003, 2.244130e+001
1.017705e+003, 2.251215e+001
1.018188e+003, 2.247381e+001
1.018670e+003, 2.230446e+001
1.019152e+003, 2.207019e+001
1.019634e+003, 2.185211e+001
1.020116e+003, 2.165096e+001
1.020598e+003, 2.143537e+001
1.021080e+003, 2.121216e+001
1.021562e+003, 2.120038e+001
1.022044e+003, 2.145340e+001
1.022527e+003, 2.161106e+001
1.023009e+003, 2.145382e+001
1.023491e+003, 2.114379e+001
1.023973e+003, 2.091452e+001
1.024455e+003, 2.077081e+001
1.024937e+003, 2.084546e+001
1.025419e+003, 2.118343e+001
1.025901e+003, 2.133404e+001
1.026384e+003, 2.117548e+001
1.026866e+003, 2.099703e+001
1.027348e+003, 2.097583e+001
1.027830e+003, 2.105103e+001
1.028312e+003, 2.111315e+001
1.028794e+003, 2.116175e+001
1.029276e+003, 2.123222e+001
1.029758e+003, 2.135662e+001
1.030240e+003, 2.138247e+001
1.030723e+003, 2.124625e+001
1.031205e+003, 2.108293e+001
1.031687e+003, 2.095062e+001
1.032169e+003, 2.088320e+001
1.032651e+003, 2.097029e+001
1.033133e+003, 2.124430e+001
1.033615e+003, 2.139811e+001
1.034097e+003, 2.140789e+001
1.034579e+003, 2.133225e+001
1.035062e+003, 2.103522e+001
1.035544e+003, 2.089373e+001
1.036026e+003, 2.137438e+001
1.036508e+003, 2.204703e+001
1.036990e+003, 2.190336e+001
1.037472e+003, 2.068436e+001
1.037954e+003, 2.011423e+001
1.038436e+003, 2.069958e+001
1.038919e+003, 2.112590e+001
1.039401e+003, 2.105565e+001
1.039883e+003, 2.088685e+001
1.040365e+003, 2.086474e+001
1.040847e+003, 2.092567e+001
1.041329e+003, 2.093333e+001
1.041811e+003, 2.087437e+001
1.042293e+003, 2.083459e+001
1.042776e+003, 2.090272e+001
1.043258e+003, 2.086793e+001
1.043740e+003, 2.047728e+001
1.044222e+003, 2.018576e+001
1.044704e+003, 2.044257e+001
1.045186e+003, 2.095527e+001
1.045668e+003, 2.112049e+001
1.046150e+003, 2.084071e+001
1.046632e+003, 2.064129e+001
1.047115e+003, 2.065821e+001
1.047597e+003, 2.065048e+001
1.048079e+003, 2.051674e+001
1.048561e+003, 2.038145e+001
1.049043e+003, 2.033219e+001
1.049525e+003, 2.034227e+001
1.050007e+003, 2.035507e+001
1.050489e+003, 2.036345e+001
1.050971e+003, 2.038641e+001
1.051454e+003, 2.050142e+001
1.051936e+003, 2.053063e+001
1.052418e+003, 2.033137e+001
1.052900e+003, 2.011476e+001
1.053382e+003, 2.003548e+001
1.053864e+003, 2.004857e+001
1.054346e+003, 2.004920e+001
1.054828e+003, 2.002098e+001
1.055311e+003, 2.005227e+001
1.055793e+003, 2.021486e+001
1.056275e+003, 2.037493e+001
1.056757e+003, 2.052830e+001
1.057239e+003, 2.062256e+001
1.057721e+003, 2.063363e+001
1.058203e+003, 2.055120e+001
1.058685e+003, 2.029540e+001
1.059167e+003, 1.986553e+001
1.059650e+003, 1.962964e+001
1.060132e+003, 1.990724e+001
1.060614e+003, 2.012964e+001
1.061096e+003, 1.997273e+001
1.061578e+003, 1.978589e+001
1.062060e+003, 1.990079e+001
1.062542e+003, 2.014342e+001
1.063024e+003, 2.017650e+001
1.063506e+003, 1.996288e+001
1.063989e+003, 1.979023e+001
1.064471e+003, 1.979867e+001
1.064953e+003, 1.981492e+001
1.065435e+003, 1.977016e+001
1.065917e+003, 1.970377e+001
1.066399e+003, 1.967029e+001
1.066881e+003, 1.962328e+001
1.067363e+003, 1.942676e+001
1.067846e+003, 1.910253e+001
1.068328e+003, 1.896632e+001
1.068810e+003, 1.929622e+001
1.069292e+003, 1.955346e+001
1.069774e+003, 1.937938e+001
1.070256e+003, 1.916225e+001
1.070738e+003, 1.914880e+001
1.071220e+003, 1.930513e+001
1.071703e+003, 1.966068e+001
1.072185e+003, 2.013785e+001
1.072667e+003, 2.035365e+001
1.073149e+003, 2.003651e+001
1.073631e+003, 1.974273e+001
1.074113e+003, 1.976522e+001
1.074595e+003, 1.986827e+001
1.075077e+003, 1.997513e+001
1.075559e+003, 1.999907e+001
1.076042e+003, 1.974704e+001
1.076524e+003, 1.929733e+001
1.077006e+003, 1.906091e+001
1.077488e+003, 1.923738e+001
1.077970e+003, 1.944373e+001
1.078452e+003, 1.954002e+001
1.078934e+003, 1.956454e+001
1.079416e+003, 1.951258e+001
1.079898e+003, 1.942611e+001
1.080380e+003, 1.934310e+001
1.080863e+003, 1.927068e+001
1.081345e+003, 1.920246e+001
1.081827e+003, 1.912748e+001
1.082309e+003, 1.910374e+001
1.082791e+003, 1.927935e+001
1.083273e+003, 1.937201e+001
1.083755e+003, 1.907833e+001
1.084237e+003, 1.871255e+001
1.084720e+003, 1.861790e+001
1.085202e+003, 1.875102e+001
1.085684e+003, 1.891948e+001
1.086166e+003, 1.908277e+001
1.086648e+003, 1.918019e+001
1.087130e+003, 1.913858e+001
1.087612e+003, 1.908348e+001
1.088094e+003, 1.911942e+001
1.088577e+003, 1.913764e+001
1.089059e+003, 1.898890e+001
1.089541e+003, 1.875519e+001
1.090023e+003, 1.864080e+001
1.090505e+003, 1.868743e+001
1.090987e+003, 1.868287e+001
1.091469e+003, 1.850157e+001
1.091951e+003, 1.831440e+001
1.092433e+003, 1.814108e+001
1.092916e+003, 1.804179e+001
1.093398e+003, 1.807733e+001
1.093880e+003, 1.821532e+001
1.094362e+003, 1.845510e+001
1.094844e+003, 1.877338e+001
1.095326e+003, 1.893003e+001
1.095808e+003, 1.870367e+001
1.096290e+003, 1.851974e+001
1.096772e+003, 1.856225e+001
1.097255e+003, 1.864186e+001
1.097737e+003, 1.865417e+001
1.098219e+003, 1.861979e+001
1.098701e+003, 1.853544e+001
1.099183e+003, 1.842857e+001
1.099665e+003, 1.845026e+001
1.100147e+003, 1.873442e+001
1.100629e+003, 1.894058e+001
1.101112e+003, 1.899078e+001
1.101594e+003, 1.893069e+001
1.102076e+003, 1.871957e+001
1.102558e+003, 1.845737e+001
1.103040e+003, 1.820140e+001
1.103522e+003, 1.798573e+001
1.104004e+003, 1.790957e+001
1.104486e+003, 1.803007e+001
1.104969e+003, 1.815122e+001
1.105451e+003, 1.831119e+001
1.105933e+003, 1.837161e+001
1.106415e+003, 1.812071e+001
1.106897e+003, 1.790164e+001
1.107379e+003, 1.805141e+001
1.107861e+003, 1.843502e+001
1.108343e+003, 1.872201e+001
1.108825e+003, 1.889459e+001
1.109307e+003, 1.893535e+001
1.109790e+003, 1.878129e+001
1.110272e+003, 1.858256e+001
1.110754e+003, 1.828637e+001
1.111236e+003, 1.804157e+001
1.111718e+003, 1.798813e+001
1.112200e+003, 1.801828e+001
1.112682e+003, 1.792855e+001
1.113164e+003, 1.770514e+001
1.113647e+003, 1.762420e+001
1.114129e+003, 1.787968e+001
1.114611e+003, 1.794978e+001
1.115093e+003, 1.754913e+001
1.115575e+003, 1.730674e+001
1.116057e+003, 1.765338e+001
1.116539e+003, 1.813809e+001
1.117021e+003, 1.822247e+001
1.117504e+003, 1.796413e+001
1.117986e+003, 1.779089e+001
1.118468e+003, 1.774658e+001
1.118950e+003, 1.768027e+001
1.119432e+003, 1.754826e+001
1.119914e+003, 1.748500e+001
1.120396e+003, 1.756852e+001
1.120878e+003, 1.767838e+001
1.121360e+003, 1.772859e+001
1.121843e+003, 1.771298e+001
1.122325e+003, 1.759290e+001
1.122807e+003, 1.732451e+001
1.123289e+003, 1.725189e+001
1.123771e+003, 1.748873e+001
1.124253e+003, 1.750966e+001
1.124735e+003, 1.713457e+001
1.125217e+003, 1.672251e+001
1.125699e+003, 1.647549e+001
1.126182e+003, 1.638222e+001
1.126664e+003, 1.643245e+001
1.127146e+003, 1.662274e+001
1.127628e+003, 1.696044e+001
1.128110e+003, 1.750321e+001
1.128592e+003, 1.758767e+001
1.129074e+003, 1.705586e+001
1.129556e+003, 1.660631e+001
1.130039e+003, 1.655684e+001
1.130521e+003, 1.672263e+001
1.131003e+003, 1.692310e+001
1.131485e+003, 1.712462e+001
1.131967e+003, 1.718639e+001
1.132449e+003, 1.711829e+001
1.132931e+003, 1.709433e+001
1.133413e+003, 1.712443e+001
1.133896e+003, 1.718546e+001
1.134378e+003, 1.727025e+001
1.134860e+003, 1.735598e+001
1.135342e+003, 1.742743e+001
1.135824e+003, 1.747631e+001
1.136306e+003, 1.746711e+001
1.136788e+003, 1.742481e+001
1.137270e+003, 1.750316e+001
1.137752e+003, 1.764730e+001
1.138234e+003, 1.751402e+001
1.138717e+003, 1.709620e+001
1.139199e+003, 1.683534e+001
1.139681e+003, 1.695733e+001
1.140163e+003, 1.718567e+001
1.140645e+003, 1.718944e+001
1.141127e+003, 1.711402e+001
1.141609e+003, 1.728688e+001
1.142091e+003, 1.756479e+001
1.142574e+003, 1.762396e+001
1.143056e+003, 1.747817e+001
1.143538e+003, 1.726946e+001
1.144020e+003, 1.706124e+001
1.144502e+003, 1.693647e+001
1.144984e+003, 1.696124e+001
1.145466e+003, 1.707452e+001
1.145948e+003, 1.727326e+001
1.146431e+003, 1.747410e+001
1.146913e+003, 1.755699e+001
1.147395e+003, 1.756791e+001
1.147877e+003, 1.760783e+001
1.148359e+003, 1.767967e+001
1.148841e+003, 1.771187e+001
1.149323e+003, 1.767384e+001
1.149805e+003, 1.759689e+001
1.150287e+003, 1.750396e+001
1.150770e+003, 1.737518e+001
1.151252e+003, 1.717251e+001
1.151734e+003, 1.694579e+001
1.152216e+003, 1.666907e+001
1.152698e+003, 1.643669e+001
1.153180e+003, 1.647869e+001
1.153662e+003, 1.684113e+001
1.154144e+003, 1.715516e+001
1.154626e+003, 1.726821e+001
1.155109e+003, 1.735646e+001
1.155591e+003, 1.753999e+001
1.156073e+003, 1.764855e+001
1.156555e+003, 1.746260e+001
1.157037e+003, 1.721317e+001
1.157519e+003, 1.725158e+001
1.158001e+003, 1.753906e+001
1.158483e+003, 1.766856e+001
1.158966e+003, 1.752229e+001
1.159448e+003, 1.739036e+001
1.159930e+003, 1.725360e+001
1.160412e+003, 1.718424e+001
1.160894e+003, 1.722399e+001
1.161376e+003, 1.731270e+001
1.161858e+003, 1.743910e+001
1.162340e+003, 1.756506e+001
1.162822e+003, 1.760670e+001
1.163305e+003, 1.755995e+001
1.163787e+003, 1.746685e+001
1.164269e+003, 1.729557e+001
1.164751e+003, 1.717521e+001
1.165233e+003, 1.713782e+001
1.165715e+003, 1.711481e+001
1.166197e+003, 1.708824e+001
1.166679e+003, 1.701205e+001
1.167161e+003, 1.679357e+001
1.167644e+003, 1.651912e+001
1.168126e+003, 1.661292e+001
1.168608e+003, 1.709603e+001
1.169090e+003, 1.726247e+001
1.169572e+003, 1.707442e+001
1.170054e+003, 1.684274e+001
1.170536e+003, 1.664997e+001
1.171018e+003, 1.652540e+001
1.171500e+003, 1.648758e+001
1.171983e+003, 1.654619e+001
1.172465e+003, 1.679344e+001
1.172947e+003, 1.712094e+001
1.173429e+003, 1.709504e+001
1.173911e+003, 1.682842e+001
1.174393e+003, 1.679585e+001
1.174875e+003, 1.699197e+001
1.175357e+003, 1.701194e+001
1.175840e+003, 1.672263e+001
1.176322e+003, 1.650178e+001
1.176804e+003, 1.674060e+001
1.177286e+003, 1.701844e+001
1.177768e+003, 1.665116e+001
1.178250e+003, 1.610832e+001
1.178732e+003, 1.613470e+001
1.179214e+003, 1.650266e+001
1.179697e+003, 1.670311e+001
1.180179e+003, 1.667268e+001
1.180661e+003, 1.659080e+001
1.181143e+003, 1.652068e+001
1.181625e+003, 1.649696e+001
1.182107e+003, 1.662504e+001
1.182589e+003, 1.670499e+001
1.183071e+003, 1.658502e+001
1.183553e+003, 1.637314e+001
1.184036e+003, 1.605824e+001
1.184518e+003, 1.578239e+001
1.185000e+003, 1.586507e+001
1.185482e+003, 1.631888e+001
1.185964e+003, 1.654818e+001
1.186446e+003, 1.622714e+001
1.186928e+003, 1.598400e+001
1.187410e+003, 1.597976e+001
1.187892e+003, 1.600235e+001
1.188375e+003, 1.592222e+001
1.188857e+003, 1.586771e+001
1.189339e+003, 1.601049e+001
1.189821e+003, 1.625788e+001
1.190303e+003, 1.632358e+001
1.190785e+003, 1.615776e+001
1.191267e+003, 1.611893e+001
1.191749e+003, 1.629777e+001
1.192232e+003, 1.634054e+001
1.192714e+003, 1.615764e+001
1.193196e+003, 1.591715e+001
1.193678e+003, 1.566832e+001
1.194160e+003, 1.550999e+001
1.194642e+003, 1.559134e+001
1.195124e+003, 1.583215e+001
1.195606e+003, 1.591187e+001
1.196089e+003, 1.583615e+001
1.196571e+003, 1.571769e+001
1.197053e+003, 1.557049e+001
1.197535e+003, 1.560632e+001
1.198017e+003, 1.586090e+001
1.198499e+003, 1.597015e+001
1.198981e+003, 1.570051e+001
1.199463e+003, 1.528770e+001
1.199945e+003, 1.495180e+001
1.200427e+003, 1.476532e+001
1.200910e+003, 1.503616e+001
1.201392e+003, 1.550098e+001
1.201874e+003, 1.551452e+001
1.202356e+003, 1.517648e+001
1.202838e+003, 1.495347e+001
1.203320e+003, 1.498350e+001
1.203802e+003, 1.521164e+001
1.204284e+003, 1.572900e+001
1.204767e+003, 1.605783e+001
1.205249e+003, 1.553231e+001
1.205731e+003, 1.499333e+001
1.206213e+003, 1.529525e+001
1.206695e+003, 1.587774e+001
1.207177e+003, 1.609428e+001
1.207659e+003, 1.595816e+001
1.208141e+003, 1.565629e+001
1.208624e+003, 1.520568e+001
1.209106e+003, 1.495044e+001
1.209588e+003, 1.509248e+001
1.210070e+003, 1.525961e+001
1.210552e+003, 1.541217e+001
1.211034e+003, 1.552819e+001
1.211516e+003, 1.557557e+001
1.211998e+003, 1.560178e+001
1.212480e+003, 1.569176e+001
1.212963e+003, 1.579173e+001
1.213445e+003, 1.567194e+001
1.213927e+003, 1.525020e+001
1.214409e+003, 1.504333e+001
1.214891e+003, 1.512590e+001
1.215373e+003, 1.510325e+001
1.215855e+003, 1.486190e+001
1.216337e+003, 1.471099e+001
1.216819e+003, 1.482386e+001
1.217302e+003, 1.505193e+001
1.217784e+003, 1.521644e+001
1.218266e+003, 1.534798e+001
1.218748e+003, 1.561605e+001
1.219230e+003, 1.594127e+001
1.219712e+003, 1.583051e+001
1.220194e+003, 1.536164e+001
1.220676e+003, 1.505461e+001
1.221159e+003, 1.501885e+001
1.221641e+003, 1.509062e+001
1.222123e+003, 1.518482e+001
1.222605e+003, 1.527911e+001
1.223087e+003, 1.532633e+001
1.223569e+003, 1.538668e+001
1.224051e+003, 1.562164e+001
1.224533e+003, 1.584061e+001
1.225016e+003, 1.569928e+001
1.225498e+003, 1.537913e+001
1.225980e+003, 1.528548e+001
1.226462e+003, 1.545218e+001
1.226944e+003, 1.558045e+001
1.227426e+003, 1.553404e+001
1.227908e+003, 1.553953e+001
1.228390e+003, 1.578165e+001
1.228872e+003, 1.594960e+001
1.229354e+003, 1.585169e+001
1.229837e+003, 1.568894e+001
1.230319e+003, 1.559584e+001
1.230801e+003, 1.555971e+001
1.231283e+003, 1.555490e+001
1.231765e+003, 1.558039e+001
1.232247e+003, 1.560085e+001
1.232729e+003, 1.563144e+001
1.233211e+003, 1.560531e+001
1.233694e+003, 1.550082e+001
1.234176e+003, 1.540617e+001
1.234658e+003, 1.534768e+001
1.235140e+003, 1.530453e+001
1.235622e+003, 1.526050e+001
1.236104e+003, 1.522717e+001
1.236586e+003, 1.523293e+001
1.237068e+003, 1.526204e+001
1.237551e+003, 1.521749e+001
1.238033e+003, 1.513529e+001
1.238515e+003, 1.521291e+001
1.238997e+003, 1.542511e+001
1.239479e+003, 1.555718e+001
1.239961e+003, 1.555243e+001
1.240443e+003, 1.550923e+001
1.240925e+003, 1.548522e+001
1.241407e+003, 1.546711e+001
1.241890e+003, 1.542978e+001
1.242372e+003, 1.540501e+001
1.242854e+003, 1.543908e+001
1.243336e+003, 1.549222e+001
1.243818e+003, 1.548955e+001
1.244300e+003, 1.547485e+001
1.244782e+003, 1.560027e+001
1.245264e+003, 1.586562e+001
1.245746e+003, 1.593659e+001
1.246229e+003, 1.552441e+001
1.246711e+003, 1.528717e+001
1.247193e+003, 1.546973e+001
1.247675e+003, 1.566178e+001
1.248157e+003, 1.570330e+001
1.248639e+003, 1.573682e+001
1.249121e+003, 1.588739e+001
1.249603e+003, 1.607216e+001
1.250085e+003, 1.615218e+001
1.250568e+003, 1.612599e+001
1.251050e+003, 1.594260e+001
1.251532e+003, 1.557562e+001
1.252014e+003, 1.532894e+001
1.252496e+003, 1.522428e+001
1.252978e+003, 1.528259e+001
1.253460e+003, 1.550917e+001
1.253942e+003, 1.576359e+001
1.254425e+003, 1.595436e+001
1.254907e+003, 1.605902e+001
1.255389e+003, 1.597135e+001
1.255871e+003, 1.582970e+001
1.256353e+003, 1.591812e+001
1.256835e+003, 1.613340e+001
1.257317e+003, 1.632368e+001
1.257799e+003, 1.645547e+001
1.258281e+003, 1.650756e+001
1.258764e+003, 1.647645e+001
1.259246e+003, 1.635529e+001
1.259728e+003, 1.609475e+001
1.260210e+003, 1.592397e+001
1.260692e+003, 1.602654e+001
1.261174e+003, 1.614244e+001
1.261656e+003, 1.612813e+001
1.262138e+003, 1.610070e+001
1.262620e+003, 1.619564e+001
1.263103e+003, 1.631237e+001
1.263585e+003, 1.626904e+001
1.264067e+003, 1.608740e+001
1.264549e+003, 1.594690e+001
1.265031e+003, 1.581000e+001
1.265513e+003, 1.587285e+001
1.265995e+003, 1.621201e+001
1.266477e+003, 1.638538e+001
1.266960e+003, 1.626682e+001
1.267442e+003, 1.618756e+001
1.267924e+003, 1.634609e+001
1.268406e+003, 1.649492e+001
1.268888e+003, 1.631072e+001
1.269370e+003, 1.595796e+001
1.269852e+003, 1.576379e+001
1.270334e+003, 1.572679e+001
1.270817e+003, 1.593823e+001
1.271299e+003, 1.627808e+001
1.271781e+003, 1.643261e+001
1.272263e+003, 1.638053e+001
1.272745e+003, 1.629499e+001
1.273227e+003, 1.624178e+001
1.273709e+003, 1.611319e+001
1.274191e+003, 1.562197e+001
1.274673e+003, 1.534886e+001
1.275156e+003, 1.581984e+001
1.275638e+003, 1.633664e+001
1.276120e+003, 1.641771e+001
1.276602e+003, 1.630575e+001
1.277084e+003, 1.626330e+001
1.277566e+003, 1.628806e+001
1.278048e+003, 1.632604e+001
1.278530e+003, 1.637850e+001
1.279012e+003, 1.641624e+001
1.279495e+003, 1.638457e+001
1.279977e+003, 1.659232e+001
1.280459e+003, 1.716833e+001
1.280941e+003, 1.743280e+001
1.281423e+003, 1.710975e+001
1.281905e+003, 1.668379e+001
1.282387e+003, 1.653552e+001
1.282869e+003, 1.651707e+001
1.283352e+003, 1.631342e+001
1.283834e+003, 1.608279e+001
1.284316e+003, 1.616371e+001
1.284798e+003, 1.655721e+001
##END=



