##NAMES=Liebenbergite
##RRUFFID=R150037
##IDEAL CHEMISTRY=Ni^2+^_2_SiO_4_
##LOCALITY=Agios Konstantinos, Lavrion District slag localities, Attikí Prefecture, Greece
##OWNER=RRUFF
##SOURCE=Gunnar Farber
##DESCRIPTION=Euhedral vitreous green crystals, associated with R150038 black octahedral trevorite
##STATUS=The identification of this mineral is confirmed by single-crystal X-ray diffraction and chemical analysis.
##URL=rruff.info/R150037
##MEASURED CHEMISTRY=(Ni_1.01_Mg_1.00_Fe_0.03_Zn_0.01_)_Σ=2.05_Si_0.98_O_4_ 
9.059570e+001, 1.277582e+003
9.107782e+001, 1.278766e+003
9.155994e+001, 1.279250e+003
9.204205e+001, 1.280249e+003
9.252417e+001, 1.279632e+003
9.300629e+001, 1.276152e+003
9.348840e+001, 1.263162e+003
9.397052e+001, 1.234081e+003
9.445264e+001, 1.188604e+003
9.493475e+001, 1.140758e+003
9.541687e+001, 1.099156e+003
9.589898e+001, 1.067246e+003
9.638110e+001, 1.039721e+003
9.686321e+001, 1.011506e+003
9.734533e+001, 9.796846e+002
9.782745e+001, 9.442797e+002
9.830956e+001, 9.144553e+002
9.879168e+001, 8.909425e+002
9.927380e+001, 8.701403e+002
9.975591e+001, 8.518098e+002
1.002380e+002, 8.352436e+002
1.007201e+002, 8.189891e+002
1.012023e+002, 8.018756e+002
1.016844e+002, 7.844114e+002
1.021665e+002, 7.685641e+002
1.026486e+002, 7.545897e+002
1.031307e+002, 7.417628e+002
1.036128e+002, 7.293451e+002
1.040950e+002, 7.170593e+002
1.045771e+002, 7.059614e+002
1.050592e+002, 6.966348e+002
1.055413e+002, 6.886691e+002
1.060234e+002, 6.818700e+002
1.065055e+002, 6.762687e+002
1.069877e+002, 6.717187e+002
1.074698e+002, 6.679528e+002
1.079519e+002, 6.670831e+002
1.084340e+002, 6.641078e+002
1.089161e+002, 6.568893e+002
1.093982e+002, 6.460361e+002
1.098804e+002, 6.331627e+002
1.103625e+002, 6.187980e+002
1.108446e+002, 6.019561e+002
1.113267e+002, 5.892122e+002
1.118088e+002, 5.834357e+002
1.122909e+002, 5.789769e+002
1.127731e+002, 5.731564e+002
1.132552e+002, 5.656734e+002
1.137373e+002, 5.579482e+002
1.142194e+002, 5.520896e+002
1.147015e+002, 5.489940e+002
1.151836e+002, 5.464063e+002
1.156658e+002, 5.453641e+002
1.161479e+002, 5.443402e+002
1.166300e+002, 5.416473e+002
1.171121e+002, 5.366212e+002
1.175942e+002, 5.302249e+002
1.180763e+002, 5.247978e+002
1.185584e+002, 5.210182e+002
1.190406e+002, 5.166010e+002
1.195227e+002, 5.104646e+002
1.200048e+002, 5.031219e+002
1.204869e+002, 4.957891e+002
1.209690e+002, 4.886133e+002
1.214511e+002, 4.822485e+002
1.219333e+002, 4.774117e+002
1.224154e+002, 4.741703e+002
1.228975e+002, 4.723067e+002
1.233796e+002, 4.726131e+002
1.238617e+002, 4.755192e+002
1.243438e+002, 4.769226e+002
1.248260e+002, 4.742122e+002
1.253081e+002, 4.691586e+002
1.257902e+002, 4.626333e+002
1.262723e+002, 4.543499e+002
1.267544e+002, 4.455439e+002
1.272365e+002, 4.392310e+002
1.277187e+002, 4.366853e+002
1.282008e+002, 4.346864e+002
1.286829e+002, 4.321464e+002
1.291650e+002, 4.294493e+002
1.296471e+002, 4.271967e+002
1.301292e+002, 4.258615e+002
1.306114e+002, 4.253463e+002
1.310935e+002, 4.241900e+002
1.315756e+002, 4.221527e+002
1.320577e+002, 4.196482e+002
1.325398e+002, 4.167355e+002
1.330219e+002, 4.134203e+002
1.335041e+002, 4.096470e+002
1.339862e+002, 4.052686e+002
1.344683e+002, 4.000670e+002
1.349504e+002, 3.956927e+002
1.354325e+002, 3.923499e+002
1.359146e+002, 3.894736e+002
1.363968e+002, 3.867175e+002
1.368789e+002, 3.840602e+002
1.373610e+002, 3.817642e+002
1.378431e+002, 3.802287e+002
1.383252e+002, 3.796219e+002
1.388073e+002, 3.790198e+002
1.392895e+002, 3.781826e+002
1.397716e+002, 3.773956e+002
1.402537e+002, 3.774941e+002
1.407358e+002, 3.790488e+002
1.412179e+002, 3.799549e+002
1.417000e+002, 3.768828e+002
1.421821e+002, 3.702643e+002
1.426643e+002, 3.632622e+002
1.431464e+002, 3.564647e+002
1.436285e+002, 3.501542e+002
1.441106e+002, 3.454063e+002
1.445927e+002, 3.430643e+002
1.450748e+002, 3.418277e+002
1.455570e+002, 3.405467e+002
1.460391e+002, 3.391971e+002
1.465212e+002, 3.376895e+002
1.470033e+002, 3.357620e+002
1.474854e+002, 3.333183e+002
1.479675e+002, 3.313732e+002
1.484497e+002, 3.313496e+002
1.489318e+002, 3.310815e+002
1.494139e+002, 3.289274e+002
1.498960e+002, 3.246518e+002
1.503781e+002, 3.198391e+002
1.508602e+002, 3.170710e+002
1.513424e+002, 3.176962e+002
1.518245e+002, 3.174021e+002
1.523066e+002, 3.153470e+002
1.527887e+002, 3.126458e+002
1.532708e+002, 3.099654e+002
1.537529e+002, 3.076006e+002
1.542351e+002, 3.056510e+002
1.547172e+002, 3.043995e+002
1.551993e+002, 3.048031e+002
1.556814e+002, 3.048101e+002
1.561635e+002, 3.043294e+002
1.566456e+002, 3.034059e+002
1.571278e+002, 3.021489e+002
1.576099e+002, 3.006249e+002
1.580920e+002, 2.987458e+002
1.585741e+002, 2.960586e+002
1.590562e+002, 2.911531e+002
1.595383e+002, 2.871115e+002
1.600205e+002, 2.851899e+002
1.605026e+002, 2.847445e+002
1.609847e+002, 2.842809e+002
1.614668e+002, 2.829391e+002
1.619489e+002, 2.809285e+002
1.624310e+002, 2.792978e+002
1.629131e+002, 2.780162e+002
1.633953e+002, 2.770943e+002
1.638774e+002, 2.769245e+002
1.643595e+002, 2.773927e+002
1.648416e+002, 2.773152e+002
1.653237e+002, 2.755855e+002
1.658058e+002, 2.728521e+002
1.662880e+002, 2.706847e+002
1.667701e+002, 2.695293e+002
1.672522e+002, 2.687701e+002
1.677343e+002, 2.677910e+002
1.682164e+002, 2.665952e+002
1.686985e+002, 2.651719e+002
1.691807e+002, 2.630944e+002
1.696628e+002, 2.608833e+002
1.701449e+002, 2.592788e+002
1.706270e+002, 2.589395e+002
1.711091e+002, 2.591606e+002
1.715912e+002, 2.581580e+002
1.720734e+002, 2.550704e+002
1.725555e+002, 2.523315e+002
1.730376e+002, 2.510095e+002
1.735197e+002, 2.505351e+002
1.740018e+002, 2.501081e+002
1.744839e+002, 2.492556e+002
1.749661e+002, 2.480710e+002
1.754482e+002, 2.471300e+002
1.759303e+002, 2.465827e+002
1.764124e+002, 2.461447e+002
1.768945e+002, 2.461861e+002
1.773766e+002, 2.462634e+002
1.778588e+002, 2.455374e+002
1.783409e+002, 2.432165e+002
1.788230e+002, 2.392740e+002
1.793051e+002, 2.366568e+002
1.797872e+002, 2.363312e+002
1.802693e+002, 2.363581e+002
1.807515e+002, 2.363891e+002
1.812336e+002, 2.363244e+002
1.817157e+002, 2.361153e+002
1.821978e+002, 2.357029e+002
1.826799e+002, 2.350562e+002
1.831620e+002, 2.344984e+002
1.836441e+002, 2.341164e+002
1.841263e+002, 2.337237e+002
1.846084e+002, 2.335042e+002
1.850905e+002, 2.333100e+002
1.855726e+002, 2.324557e+002
1.860547e+002, 2.300333e+002
1.865368e+002, 2.257005e+002
1.870190e+002, 2.233699e+002
1.875011e+002, 2.247423e+002
1.879832e+002, 2.268374e+002
1.884653e+002, 2.275113e+002
1.889474e+002, 2.265362e+002
1.894296e+002, 2.249089e+002
1.899117e+002, 2.234012e+002
1.903938e+002, 2.220336e+002
1.908759e+002, 2.209437e+002
1.913580e+002, 2.201607e+002
1.918401e+002, 2.196645e+002
1.923223e+002, 2.196788e+002
1.928044e+002, 2.203838e+002
1.932865e+002, 2.207745e+002
1.937686e+002, 2.192442e+002
1.942507e+002, 2.164230e+002
1.947328e+002, 2.143016e+002
1.952150e+002, 2.137935e+002
1.956971e+002, 2.143371e+002
1.961792e+002, 2.149697e+002
1.966613e+002, 2.158436e+002
1.971434e+002, 2.162767e+002
1.976255e+002, 2.157112e+002
1.981077e+002, 2.143589e+002
1.985898e+002, 2.126804e+002
1.990719e+002, 2.104748e+002
1.995540e+002, 2.080165e+002
2.000361e+002, 2.066022e+002
2.005182e+002, 2.069060e+002
2.010004e+002, 2.074061e+002
2.014825e+002, 2.071970e+002
2.019646e+002, 2.065029e+002
2.024467e+002, 2.059031e+002
2.029288e+002, 2.058884e+002
2.034109e+002, 2.064124e+002
2.038930e+002, 2.066871e+002
2.043752e+002, 2.067860e+002
2.048573e+002, 2.065012e+002
2.053394e+002, 2.052939e+002
2.058215e+002, 2.035958e+002
2.063036e+002, 2.024120e+002
2.067857e+002, 2.028174e+002
2.072679e+002, 2.049480e+002
2.077500e+002, 2.060013e+002
2.082321e+002, 2.051490e+002
2.087142e+002, 2.039015e+002
2.091963e+002, 2.023344e+002
2.096784e+002, 2.007050e+002
2.101606e+002, 1.994739e+002
2.106427e+002, 1.991251e+002
2.111248e+002, 1.997987e+002
2.116069e+002, 2.001211e+002
2.120890e+002, 2.001483e+002
2.125711e+002, 1.998196e+002
2.130533e+002, 1.986618e+002
2.135354e+002, 1.970072e+002
2.140175e+002, 1.958182e+002
2.144996e+002, 1.961004e+002
2.149817e+002, 1.982139e+002
2.154638e+002, 1.992319e+002
2.159460e+002, 1.987189e+002
2.164281e+002, 1.977771e+002
2.169102e+002, 1.968067e+002
2.173923e+002, 1.958870e+002
2.178744e+002, 1.949925e+002
2.183565e+002, 1.940882e+002
2.188387e+002, 1.931614e+002
2.193208e+002, 1.924546e+002
2.198029e+002, 1.922875e+002
2.202850e+002, 1.920536e+002
2.207671e+002, 1.911969e+002
2.212492e+002, 1.897877e+002
2.217314e+002, 1.885342e+002
2.222135e+002, 1.881118e+002
2.226956e+002, 1.885904e+002
2.231777e+002, 1.887386e+002
2.236598e+002, 1.884807e+002
2.241419e+002, 1.879576e+002
2.246240e+002, 1.870517e+002
2.251062e+002, 1.858046e+002
2.255883e+002, 1.848607e+002
2.260704e+002, 1.849337e+002
2.265525e+002, 1.858772e+002
2.270346e+002, 1.863561e+002
2.275167e+002, 1.858975e+002
2.279989e+002, 1.851866e+002
2.284810e+002, 1.848552e+002
2.289631e+002, 1.849413e+002
2.294452e+002, 1.851353e+002
2.299273e+002, 1.853902e+002
2.304094e+002, 1.855721e+002
2.308916e+002, 1.853092e+002
2.313737e+002, 1.843109e+002
2.318558e+002, 1.829646e+002
2.323379e+002, 1.816113e+002
2.328200e+002, 1.802232e+002
2.333021e+002, 1.790165e+002
2.337843e+002, 1.779788e+002
2.342664e+002, 1.772494e+002
2.347485e+002, 1.771609e+002
2.352306e+002, 1.781666e+002
2.357127e+002, 1.795382e+002
2.361948e+002, 1.803410e+002
2.366770e+002, 1.805391e+002
2.371591e+002, 1.803206e+002
2.376412e+002, 1.792161e+002
2.381233e+002, 1.779212e+002
2.386054e+002, 1.772749e+002
2.390875e+002, 1.777088e+002
2.395697e+002, 1.786493e+002
2.400518e+002, 1.791927e+002
2.405339e+002, 1.792446e+002
2.410160e+002, 1.792012e+002
2.414981e+002, 1.791966e+002
2.419802e+002, 1.791853e+002
2.424624e+002, 1.791277e+002
2.429445e+002, 1.790147e+002
2.434266e+002, 1.788360e+002
2.439087e+002, 1.785885e+002
2.443908e+002, 1.783036e+002
2.448729e+002, 1.778519e+002
2.453550e+002, 1.768724e+002
2.458372e+002, 1.758877e+002
2.463193e+002, 1.754145e+002
2.468014e+002, 1.756449e+002
2.472835e+002, 1.762125e+002
2.477656e+002, 1.764898e+002
2.482477e+002, 1.763619e+002
2.487299e+002, 1.762018e+002
2.492120e+002, 1.761620e+002
2.496941e+002, 1.760734e+002
2.501762e+002, 1.759378e+002
2.506583e+002, 1.757327e+002
2.511404e+002, 1.751629e+002
2.516226e+002, 1.735297e+002
2.521047e+002, 1.699703e+002
2.525868e+002, 1.673569e+002
2.530689e+002, 1.661875e+002
2.535510e+002, 1.657227e+002
2.540331e+002, 1.656619e+002
2.545153e+002, 1.658498e+002
2.549974e+002, 1.659886e+002
2.554795e+002, 1.656214e+002
2.559616e+002, 1.646311e+002
2.564437e+002, 1.633342e+002
2.569258e+002, 1.614665e+002
2.574080e+002, 1.595558e+002
2.578901e+002, 1.578432e+002
2.583722e+002, 1.564225e+002
2.588543e+002, 1.553500e+002
2.593364e+002, 1.547939e+002
2.598185e+002, 1.552204e+002
2.603007e+002, 1.549488e+002
2.607828e+002, 1.532413e+002
2.612649e+002, 1.515467e+002
2.617470e+002, 1.507630e+002
2.622291e+002, 1.509694e+002
2.627112e+002, 1.517059e+002
2.631934e+002, 1.525257e+002
2.636755e+002, 1.536224e+002
2.641576e+002, 1.540211e+002
2.646397e+002, 1.534126e+002
2.651218e+002, 1.525159e+002
2.656039e+002, 1.516461e+002
2.660861e+002, 1.508594e+002
2.665682e+002, 1.501010e+002
2.670503e+002, 1.493159e+002
2.675324e+002, 1.484953e+002
2.680145e+002, 1.477213e+002
2.684966e+002, 1.471994e+002
2.689788e+002, 1.465336e+002
2.694609e+002, 1.454289e+002
2.699430e+002, 1.439729e+002
2.704251e+002, 1.424953e+002
2.709072e+002, 1.412467e+002
2.713893e+002, 1.402381e+002
2.718715e+002, 1.394224e+002
2.723536e+002, 1.390251e+002
2.728357e+002, 1.385589e+002
2.733178e+002, 1.375007e+002
2.737999e+002, 1.361542e+002
2.742820e+002, 1.354029e+002
2.747642e+002, 1.359352e+002
2.752463e+002, 1.376122e+002
2.757284e+002, 1.387010e+002
2.762105e+002, 1.393445e+002
2.766926e+002, 1.394252e+002
2.771747e+002, 1.386198e+002
2.776568e+002, 1.372143e+002
2.781389e+002, 1.357438e+002
2.786211e+002, 1.344298e+002
2.791032e+002, 1.333664e+002
2.795853e+002, 1.330296e+002
2.800674e+002, 1.340178e+002
2.805495e+002, 1.348709e+002
2.810316e+002, 1.351792e+002
2.815138e+002, 1.351147e+002
2.819959e+002, 1.350510e+002
2.824780e+002, 1.351968e+002
2.829601e+002, 1.352784e+002
2.834422e+002, 1.344488e+002
2.839243e+002, 1.318532e+002
2.844065e+002, 1.300713e+002
2.848886e+002, 1.301402e+002
2.853707e+002, 1.312035e+002
2.858528e+002, 1.320825e+002
2.863349e+002, 1.324111e+002
2.868170e+002, 1.323338e+002
2.872992e+002, 1.319674e+002
2.877813e+002, 1.310826e+002
2.882634e+002, 1.306962e+002
2.887455e+002, 1.316257e+002
2.892276e+002, 1.328767e+002
2.897097e+002, 1.331116e+002
2.901919e+002, 1.320015e+002
2.906740e+002, 1.304398e+002
2.911561e+002, 1.294936e+002
2.916382e+002, 1.292571e+002
2.921203e+002, 1.289523e+002
2.926024e+002, 1.282635e+002
2.930846e+002, 1.276093e+002
2.935667e+002, 1.274157e+002
2.940488e+002, 1.277342e+002
2.945309e+002, 1.283459e+002
2.950130e+002, 1.292201e+002
2.954951e+002, 1.303279e+002
2.959773e+002, 1.308029e+002
2.964594e+002, 1.299299e+002
2.969415e+002, 1.289079e+002
2.974236e+002, 1.288525e+002
2.979057e+002, 1.297149e+002
2.983878e+002, 1.304056e+002
2.988700e+002, 1.300416e+002
2.993521e+002, 1.288200e+002
2.998342e+002, 1.281725e+002
3.003163e+002, 1.285572e+002
3.007984e+002, 1.290885e+002
3.012805e+002, 1.293170e+002
3.017627e+002, 1.292653e+002
3.022448e+002, 1.290171e+002
3.027269e+002, 1.284876e+002
3.032090e+002, 1.278918e+002
3.036911e+002, 1.278338e+002
3.041732e+002, 1.284571e+002
3.046554e+002, 1.293067e+002
3.051375e+002, 1.303782e+002
3.056196e+002, 1.315369e+002
3.061017e+002, 1.324216e+002
3.065838e+002, 1.328735e+002
3.070659e+002, 1.330287e+002
3.075481e+002, 1.330465e+002
3.080302e+002, 1.327938e+002
3.085123e+002, 1.328806e+002
3.089944e+002, 1.339281e+002
3.094765e+002, 1.353573e+002
3.099586e+002, 1.359629e+002
3.104408e+002, 1.352748e+002
3.109229e+002, 1.344310e+002
3.114050e+002, 1.352310e+002
3.118871e+002, 1.377387e+002
3.123692e+002, 1.396428e+002
3.128513e+002, 1.402561e+002
3.133335e+002, 1.401378e+002
3.138156e+002, 1.397484e+002
3.142977e+002, 1.391297e+002
3.147798e+002, 1.387734e+002
3.152619e+002, 1.393447e+002
3.157440e+002, 1.407578e+002
3.162262e+002, 1.416130e+002
3.167083e+002, 1.416929e+002
3.171904e+002, 1.412468e+002
3.176725e+002, 1.401472e+002
3.181546e+002, 1.384834e+002
3.186367e+002, 1.372199e+002
3.191188e+002, 1.370944e+002
3.196010e+002, 1.379269e+002
3.200831e+002, 1.385744e+002
3.205652e+002, 1.395136e+002
3.210473e+002, 1.398178e+002
3.215294e+002, 1.384741e+002
3.220115e+002, 1.359451e+002
3.224937e+002, 1.338902e+002
3.229758e+002, 1.331937e+002
3.234579e+002, 1.333262e+002
3.239400e+002, 1.329299e+002
3.244221e+002, 1.317701e+002
3.249042e+002, 1.306937e+002
3.253864e+002, 1.302135e+002
3.258685e+002, 1.299902e+002
3.263506e+002, 1.292927e+002
3.268327e+002, 1.278151e+002
3.273148e+002, 1.260829e+002
3.277969e+002, 1.249315e+002
3.282791e+002, 1.244193e+002
3.287612e+002, 1.239713e+002
3.292433e+002, 1.235881e+002
3.297254e+002, 1.231703e+002
3.302075e+002, 1.225964e+002
3.306896e+002, 1.218457e+002
3.311718e+002, 1.209839e+002
3.316539e+002, 1.200513e+002
3.321360e+002, 1.190418e+002
3.326181e+002, 1.180360e+002
3.331002e+002, 1.169433e+002
3.335823e+002, 1.159317e+002
3.340645e+002, 1.151869e+002
3.345466e+002, 1.146811e+002
3.350287e+002, 1.141010e+002
3.355108e+002, 1.131076e+002
3.359929e+002, 1.118669e+002
3.364750e+002, 1.114950e+002
3.369572e+002, 1.129024e+002
3.374393e+002, 1.141147e+002
3.379214e+002, 1.141586e+002
3.384035e+002, 1.133690e+002
3.388856e+002, 1.125298e+002
3.393677e+002, 1.119825e+002
3.398499e+002, 1.116547e+002
3.403320e+002, 1.113759e+002
3.408141e+002, 1.111876e+002
3.412962e+002, 1.109661e+002
3.417783e+002, 1.106563e+002
3.422604e+002, 1.103111e+002
3.427426e+002, 1.100162e+002
3.432247e+002, 1.097976e+002
3.437068e+002, 1.095800e+002
3.441889e+002, 1.092535e+002
3.446710e+002, 1.087622e+002
3.451531e+002, 1.083191e+002
3.456353e+002, 1.078260e+002
3.461174e+002, 1.074546e+002
3.465995e+002, 1.074052e+002
3.470816e+002, 1.076569e+002
3.475637e+002, 1.079698e+002
3.480458e+002, 1.081355e+002
3.485280e+002, 1.081467e+002
3.490101e+002, 1.081349e+002
3.494922e+002, 1.084086e+002
3.499743e+002, 1.083632e+002
3.504564e+002, 1.074449e+002
3.509385e+002, 1.059966e+002
3.514207e+002, 1.047660e+002
3.519028e+002, 1.041800e+002
3.523849e+002, 1.041749e+002
3.528670e+002, 1.045042e+002
3.533491e+002, 1.059185e+002
3.538312e+002, 1.067368e+002
3.543134e+002, 1.065494e+002
3.547955e+002, 1.057428e+002
3.552776e+002, 1.045253e+002
3.557597e+002, 1.030080e+002
3.562418e+002, 1.016971e+002
3.567239e+002, 1.015133e+002
3.572061e+002, 1.033988e+002
3.576882e+002, 1.045064e+002
3.581703e+002, 1.044307e+002
3.586524e+002, 1.039615e+002
3.591345e+002, 1.035938e+002
3.596166e+002, 1.033863e+002
3.600987e+002, 1.031335e+002
3.605808e+002, 1.025925e+002
3.610630e+002, 1.016940e+002
3.615451e+002, 1.011859e+002
3.620272e+002, 1.014231e+002
3.625093e+002, 1.016548e+002
3.629914e+002, 1.016022e+002
3.634735e+002, 1.013618e+002
3.639557e+002, 1.011489e+002
3.644378e+002, 1.010937e+002
3.649199e+002, 1.011660e+002
3.654020e+002, 1.012503e+002
3.658841e+002, 1.015499e+002
3.663662e+002, 1.015580e+002
3.668484e+002, 1.008990e+002
3.673305e+002, 1.000983e+002
3.678126e+002, 9.971364e+001
3.682947e+002, 9.990959e+001
3.687768e+002, 1.003574e+002
3.692589e+002, 1.005324e+002
3.697411e+002, 1.002886e+002
3.702232e+002, 1.001693e+002
3.707053e+002, 1.005527e+002
3.711874e+002, 1.007587e+002
3.716695e+002, 1.003358e+002
3.721516e+002, 9.934782e+001
3.726338e+002, 9.818705e+001
3.731159e+002, 9.707218e+001
3.735980e+002, 9.602055e+001
3.740801e+002, 9.564197e+001
3.745622e+002, 9.656423e+001
3.750443e+002, 9.741772e+001
3.755265e+002, 9.776714e+001
3.760086e+002, 9.775393e+001
3.764907e+002, 9.761141e+001
3.769728e+002, 9.745246e+001
3.774549e+002, 9.722840e+001
3.779370e+002, 9.680396e+001
3.784192e+002, 9.610278e+001
3.789013e+002, 9.541680e+001
3.793834e+002, 9.494302e+001
3.798655e+002, 9.444530e+001
3.803476e+002, 9.363818e+001
3.808297e+002, 9.247298e+001
3.813119e+002, 9.138229e+001
3.817940e+002, 9.070671e+001
3.822761e+002, 9.044641e+001
3.827582e+002, 9.084464e+001
3.832403e+002, 9.269850e+001
3.837224e+002, 9.429057e+001
3.842046e+002, 9.434569e+001
3.846867e+002, 9.317042e+001
3.851688e+002, 9.190307e+001
3.856509e+002, 9.096365e+001
3.861330e+002, 9.039310e+001
3.866151e+002, 9.043358e+001
3.870973e+002, 9.129003e+001
3.875794e+002, 9.201704e+001
3.880615e+002, 9.200088e+001
3.885436e+002, 9.152917e+001
3.890257e+002, 9.088699e+001
3.895078e+002, 8.985928e+001
3.899900e+002, 8.916078e+001
3.904721e+002, 8.988863e+001
3.909542e+002, 9.178962e+001
3.914363e+002, 9.274522e+001
3.919184e+002, 9.166492e+001
3.924005e+002, 8.982329e+001
3.928827e+002, 8.907142e+001
3.933648e+002, 8.947926e+001
3.938469e+002, 8.978309e+001
3.943290e+002, 8.928023e+001
3.948111e+002, 8.843650e+001
3.952932e+002, 8.804227e+001
3.957754e+002, 8.823720e+001
3.962575e+002, 8.854549e+001
3.967396e+002, 8.850045e+001
3.972217e+002, 8.815579e+001
3.977038e+002, 8.811642e+001
3.981859e+002, 8.879854e+001
3.986681e+002, 8.945146e+001
3.991501e+002, 8.957664e+001
3.996323e+002, 8.924899e+001
4.001144e+002, 8.878703e+001
4.005965e+002, 8.835912e+001
4.010786e+002, 8.788490e+001
4.015607e+002, 8.710592e+001
4.020428e+002, 8.584130e+001
4.025250e+002, 8.464001e+001
4.030071e+002, 8.318911e+001
4.034892e+002, 8.203427e+001
4.039713e+002, 8.198975e+001
4.044534e+002, 8.318916e+001
4.049355e+002, 8.488543e+001
4.054177e+002, 8.629714e+001
4.058998e+002, 8.748366e+001
4.063819e+002, 8.789294e+001
4.068640e+002, 8.708507e+001
4.073461e+002, 8.602843e+001
4.078282e+002, 8.490760e+001
4.083104e+002, 8.392210e+001
4.087925e+002, 8.344164e+001
4.092746e+002, 8.372906e+001
4.097567e+002, 8.461661e+001
4.102388e+002, 8.533739e+001
4.107209e+002, 8.595583e+001
4.112031e+002, 8.628861e+001
4.116852e+002, 8.636345e+001
4.121673e+002, 8.613283e+001
4.126494e+002, 8.532022e+001
4.131315e+002, 8.395184e+001
4.136136e+002, 8.267054e+001
4.140958e+002, 8.241631e+001
4.145779e+002, 8.348934e+001
4.150600e+002, 8.438559e+001
4.155421e+002, 8.508198e+001
4.160242e+002, 8.561119e+001
4.165063e+002, 8.589760e+001
4.169885e+002, 8.602041e+001
4.174706e+002, 8.614491e+001
4.179527e+002, 8.638342e+001
4.184348e+002, 8.669691e+001
4.189169e+002, 8.699184e+001
4.193990e+002, 8.737863e+001
4.198812e+002, 8.748656e+001
4.203633e+002, 8.674686e+001
4.208454e+002, 8.593565e+001
4.213275e+002, 8.599299e+001
4.218096e+002, 8.717551e+001
4.222917e+002, 8.829561e+001
4.227739e+002, 8.778753e+001
4.232560e+002, 8.576470e+001
4.237381e+002, 8.466992e+001
4.242202e+002, 8.537228e+001
4.247023e+002, 8.639584e+001
4.251844e+002, 8.656895e+001
4.256666e+002, 8.608501e+001
4.261487e+002, 8.564083e+001
4.266308e+002, 8.549873e+001
4.271129e+002, 8.557641e+001
4.275950e+002, 8.582497e+001
4.280771e+002, 8.625996e+001
4.285593e+002, 8.661457e+001
4.290414e+002, 8.679579e+001
4.295235e+002, 8.676358e+001
4.300056e+002, 8.646488e+001
4.304877e+002, 8.575549e+001
4.309698e+002, 8.510844e+001
4.314520e+002, 8.462004e+001
4.319341e+002, 8.438091e+001
4.324162e+002, 8.477024e+001
4.328983e+002, 8.597416e+001
4.333804e+002, 8.713402e+001
4.338625e+002, 8.715485e+001
4.343447e+002, 8.584370e+001
4.348268e+002, 8.484327e+001
4.353089e+002, 8.438061e+001
4.357910e+002, 8.409473e+001
4.362731e+002, 8.379277e+001
4.367552e+002, 8.346716e+001
4.372374e+002, 8.318571e+001
4.377195e+002, 8.301299e+001
4.382016e+002, 8.286469e+001
4.386837e+002, 8.241833e+001
4.391658e+002, 8.073746e+001
4.396479e+002, 7.997097e+001
4.401301e+002, 8.090880e+001
4.406122e+002, 8.245856e+001
4.410943e+002, 8.370316e+001
4.415764e+002, 8.440481e+001
4.420585e+002, 8.475335e+001
4.425406e+002, 8.498454e+001
4.430227e+002, 8.515659e+001
4.435049e+002, 8.478816e+001
4.439870e+002, 8.302642e+001
4.444691e+002, 8.160764e+001
4.449512e+002, 8.134761e+001
4.454333e+002, 8.174403e+001
4.459154e+002, 8.187429e+001
4.463976e+002, 8.122867e+001
4.468797e+002, 8.026756e+001
4.473618e+002, 8.012852e+001
4.478439e+002, 8.122942e+001
4.483260e+002, 8.190346e+001
4.488081e+002, 8.152592e+001
4.492903e+002, 8.085497e+001
4.497724e+002, 8.022810e+001
4.502545e+002, 7.972065e+001
4.507366e+002, 7.942567e+001
4.512187e+002, 7.952996e+001
4.517008e+002, 7.992857e+001
4.521830e+002, 8.011792e+001
4.526651e+002, 7.994200e+001
4.531472e+002, 7.992294e+001
4.536293e+002, 8.073061e+001
4.541114e+002, 8.180322e+001
4.545935e+002, 8.229855e+001
4.550757e+002, 8.190487e+001
4.555578e+002, 8.115960e+001
4.560399e+002, 8.031078e+001
4.565220e+002, 7.943669e+001
4.570041e+002, 7.891042e+001
4.574862e+002, 7.892287e+001
4.579684e+002, 7.913593e+001
4.584505e+002, 7.904102e+001
4.589326e+002, 7.862947e+001
4.594147e+002, 7.852007e+001
4.598968e+002, 7.912724e+001
4.603789e+002, 7.986320e+001
4.608611e+002, 8.041113e+001
4.613432e+002, 8.067152e+001
4.618253e+002, 8.024094e+001
4.623074e+002, 7.868359e+001
4.627895e+002, 7.643177e+001
4.632716e+002, 7.527348e+001
4.637538e+002, 7.611314e+001
4.642359e+002, 7.677949e+001
4.647180e+002, 7.665309e+001
4.652001e+002, 7.644560e+001
4.656822e+002, 7.719709e+001
4.661643e+002, 7.895020e+001
4.666465e+002, 8.047044e+001
4.671286e+002, 8.027739e+001
4.676107e+002, 7.810664e+001
4.680928e+002, 7.675809e+001
4.685749e+002, 7.655692e+001
4.690570e+002, 7.685751e+001
4.695392e+002, 7.800217e+001
4.700213e+002, 7.941129e+001
4.705034e+002, 8.020131e+001
4.709855e+002, 7.996556e+001
4.714676e+002, 7.925903e+001
4.719497e+002, 7.910976e+001
4.724319e+002, 7.969692e+001
4.729140e+002, 8.005661e+001
4.733961e+002, 8.001855e+001
4.738782e+002, 7.972662e+001
4.743603e+002, 7.902885e+001
4.748424e+002, 7.808640e+001
4.753246e+002, 7.746953e+001
4.758067e+002, 7.777444e+001
4.762888e+002, 7.854607e+001
4.767709e+002, 7.875414e+001
4.772530e+002, 7.832129e+001
4.777351e+002, 7.780552e+001
4.782173e+002, 7.743559e+001
4.786994e+002, 7.714962e+001
4.791815e+002, 7.680710e+001
4.796636e+002, 7.633376e+001
4.801457e+002, 7.605859e+001
4.806278e+002, 7.640940e+001
4.811100e+002, 7.700391e+001
4.815920e+002, 7.704819e+001
4.820742e+002, 7.638170e+001
4.825563e+002, 7.564912e+001
4.830384e+002, 7.541335e+001
4.835205e+002, 7.568297e+001
4.840026e+002, 7.597433e+001
4.844847e+002, 7.646907e+001
4.849669e+002, 7.678846e+001
4.854490e+002, 7.659985e+001
4.859311e+002, 7.616911e+001
4.864132e+002, 7.600756e+001
4.868953e+002, 7.630259e+001
4.873774e+002, 7.674905e+001
4.878596e+002, 7.682031e+001
4.883417e+002, 7.628139e+001
4.888238e+002, 7.601424e+001
4.893059e+002, 7.630856e+001
4.897880e+002, 7.655238e+001
4.902701e+002, 7.635685e+001
4.907523e+002, 7.587235e+001
4.912344e+002, 7.545799e+001
4.917165e+002, 7.531474e+001
4.921986e+002, 7.542997e+001
4.926807e+002, 7.591048e+001
4.931628e+002, 7.714076e+001
4.936450e+002, 7.766829e+001
4.941271e+002, 7.622771e+001
4.946092e+002, 7.467306e+001
4.950913e+002, 7.435271e+001
4.955734e+002, 7.526766e+001
4.960555e+002, 7.633979e+001
4.965377e+002, 7.698396e+001
4.970198e+002, 7.720498e+001
4.975019e+002, 7.685562e+001
4.979840e+002, 7.577674e+001
4.984661e+002, 7.486921e+001
4.989482e+002, 7.467276e+001
4.994304e+002, 7.495737e+001
4.999125e+002, 7.529393e+001
5.003946e+002, 7.576030e+001
5.008767e+002, 7.603694e+001
5.013588e+002, 7.580216e+001
5.018409e+002, 7.531580e+001
5.023231e+002, 7.509668e+001
5.028052e+002, 7.525506e+001
5.032873e+002, 7.539946e+001
5.037694e+002, 7.514859e+001
5.042515e+002, 7.448256e+001
5.047336e+002, 7.384590e+001
5.052158e+002, 7.288938e+001
5.056979e+002, 7.234324e+001
5.061800e+002, 7.289143e+001
5.066621e+002, 7.388979e+001
5.071442e+002, 7.430379e+001
5.076263e+002, 7.377724e+001
5.081085e+002, 7.285203e+001
5.085906e+002, 7.237834e+001
5.090727e+002, 7.252634e+001
5.095548e+002, 7.250788e+001
5.100369e+002, 7.169643e+001
5.105190e+002, 7.134722e+001
5.110012e+002, 7.228093e+001
5.114833e+002, 7.398650e+001
5.119654e+002, 7.554837e+001
5.124475e+002, 7.657593e+001
5.129296e+002, 7.703242e+001
5.134117e+002, 7.663757e+001
5.138939e+002, 7.522789e+001
5.143760e+002, 7.422184e+001
5.148581e+002, 7.406388e+001
5.153402e+002, 7.428774e+001
5.158223e+002, 7.462441e+001
5.163044e+002, 7.502410e+001
5.167866e+002, 7.520607e+001
5.172687e+002, 7.485398e+001
5.177508e+002, 7.433508e+001
5.182329e+002, 7.413896e+001
5.187150e+002, 7.425204e+001
5.191971e+002, 7.439405e+001
5.196793e+002, 7.445116e+001
5.201614e+002, 7.443689e+001
5.206435e+002, 7.435852e+001
5.211256e+002, 7.416567e+001
5.216077e+002, 7.406359e+001
5.220898e+002, 7.412813e+001
5.225720e+002, 7.426804e+001
5.230541e+002, 7.444523e+001
5.235362e+002, 7.463046e+001
5.240183e+002, 7.475256e+001
5.245004e+002, 7.475478e+001
5.249825e+002, 7.465773e+001
5.254647e+002, 7.456863e+001
5.259468e+002, 7.455703e+001
5.264289e+002, 7.444896e+001
5.269110e+002, 7.416293e+001
5.273931e+002, 7.382626e+001
5.278752e+002, 7.341090e+001
5.283574e+002, 7.299683e+001
5.288395e+002, 7.291446e+001
5.293216e+002, 7.368445e+001
5.298037e+002, 7.507572e+001
5.302858e+002, 7.560824e+001
5.307679e+002, 7.497386e+001
5.312501e+002, 7.418851e+001
5.317322e+002, 7.348573e+001
5.322143e+002, 7.295219e+001
5.326964e+002, 7.273622e+001
5.331785e+002, 7.289699e+001
5.336606e+002, 7.312146e+001
5.341428e+002, 7.326433e+001
5.346249e+002, 7.331368e+001
5.351070e+002, 7.315629e+001
5.355891e+002, 7.275052e+001
5.360712e+002, 7.254825e+001
5.365533e+002, 7.310820e+001
5.370355e+002, 7.417627e+001
5.375176e+002, 7.423042e+001
5.379997e+002, 7.168212e+001
5.384818e+002, 7.015011e+001
5.389639e+002, 7.171966e+001
5.394460e+002, 7.437582e+001
5.399282e+002, 7.549270e+001
5.404103e+002, 7.459825e+001
5.408924e+002, 7.311823e+001
5.413745e+002, 7.252213e+001
5.418566e+002, 7.283508e+001
5.423387e+002, 7.316043e+001
5.428209e+002, 7.355617e+001
5.433029e+002, 7.388989e+001
5.437850e+002, 7.436541e+001
5.442672e+002, 7.465398e+001
5.447493e+002, 7.425849e+001
5.452314e+002, 7.308194e+001
5.457135e+002, 7.175155e+001
5.461956e+002, 7.081100e+001
5.466777e+002, 7.027356e+001
5.471599e+002, 7.047586e+001
5.476420e+002, 7.183976e+001
5.481241e+002, 7.308154e+001
5.486062e+002, 7.334458e+001
5.490883e+002, 7.296500e+001
5.495704e+002, 7.232565e+001
5.500526e+002, 7.117783e+001
5.505347e+002, 7.044816e+001
5.510168e+002, 7.129151e+001
5.514989e+002, 7.286916e+001
5.519810e+002, 7.316945e+001
5.524631e+002, 7.174160e+001
5.529453e+002, 7.028654e+001
5.534274e+002, 7.056483e+001
5.539095e+002, 7.258685e+001
5.543916e+002, 7.335142e+001
5.548737e+002, 7.151277e+001
5.553558e+002, 7.022224e+001
5.558380e+002, 7.077342e+001
5.563201e+002, 7.215244e+001
5.568022e+002, 7.321022e+001
5.572843e+002, 7.360297e+001
5.577664e+002, 7.348521e+001
5.582485e+002, 7.289822e+001
5.587307e+002, 7.181023e+001
5.592128e+002, 7.124959e+001
5.596949e+002, 7.154383e+001
5.601770e+002, 7.192318e+001
5.606591e+002, 7.201872e+001
5.611412e+002, 7.208941e+001
5.616234e+002, 7.265028e+001
5.621055e+002, 7.391018e+001
5.625876e+002, 7.475614e+001
5.630697e+002, 7.350059e+001
5.635518e+002, 7.100139e+001
5.640339e+002, 7.042411e+001
5.645161e+002, 7.245847e+001
5.649982e+002, 7.474284e+001
5.654803e+002, 7.562273e+001
5.659624e+002, 7.534042e+001
5.664445e+002, 7.520003e+001
5.669266e+002, 7.518034e+001
5.674088e+002, 7.532919e+001
5.678909e+002, 7.571218e+001
5.683730e+002, 7.624929e+001
5.688551e+002, 7.691061e+001
5.693372e+002, 7.765382e+001
5.698193e+002, 7.831922e+001
5.703015e+002, 7.873509e+001
5.707836e+002, 7.891835e+001
5.712657e+002, 7.916650e+001
5.717478e+002, 7.948731e+001
5.722299e+002, 7.987061e+001
5.727120e+002, 8.026627e+001
5.731942e+002, 8.075123e+001
5.736763e+002, 8.150524e+001
5.741584e+002, 8.250328e+001
5.746405e+002, 8.336621e+001
5.751226e+002, 8.360690e+001
5.756047e+002, 8.341857e+001
5.760869e+002, 8.372629e+001
5.765690e+002, 8.471990e+001
5.770511e+002, 8.540124e+001
5.775332e+002, 8.514682e+001
5.780153e+002, 8.436878e+001
5.784974e+002, 8.366668e+001
5.789796e+002, 8.296862e+001
5.794617e+002, 8.271935e+001
5.799438e+002, 8.364919e+001
5.804259e+002, 8.478249e+001
5.809080e+002, 8.491829e+001
5.813901e+002, 8.406752e+001
5.818723e+002, 8.305120e+001
5.823544e+002, 8.241179e+001
5.828365e+002, 8.193720e+001
5.833186e+002, 8.086872e+001
5.838007e+002, 7.809290e+001
5.842828e+002, 7.644868e+001
5.847650e+002, 7.674937e+001
5.852471e+002, 7.747272e+001
5.857292e+002, 7.789404e+001
5.862113e+002, 7.784350e+001
5.866934e+002, 7.719701e+001
5.871755e+002, 7.575389e+001
5.876577e+002, 7.390172e+001
5.881398e+002, 7.237730e+001
5.886219e+002, 7.109653e+001
5.891040e+002, 7.082821e+001
5.895861e+002, 7.263264e+001
5.900682e+002, 7.454759e+001
5.905504e+002, 7.439469e+001
5.910325e+002, 7.254070e+001
5.915146e+002, 7.138100e+001
5.919967e+002, 7.245470e+001
5.924788e+002, 7.382388e+001
5.929609e+002, 7.363520e+001
5.934431e+002, 7.235921e+001
5.939252e+002, 7.146218e+001
5.944073e+002, 7.148483e+001
5.948894e+002, 7.196655e+001
5.953715e+002, 7.228221e+001
5.958536e+002, 7.238947e+001
5.963358e+002, 7.252062e+001
5.968179e+002, 7.278678e+001
5.973000e+002, 7.295102e+001
5.977821e+002, 7.295024e+001
5.982642e+002, 7.278830e+001
5.987463e+002, 7.247808e+001
5.992285e+002, 7.202345e+001
5.997106e+002, 7.142911e+001
6.001927e+002, 7.058971e+001
6.006748e+002, 6.952161e+001
6.011569e+002, 6.874285e+001
6.016390e+002, 6.819631e+001
6.021212e+002, 6.811552e+001
6.026033e+002, 6.915163e+001
6.030854e+002, 7.058873e+001
6.035675e+002, 7.126070e+001
6.040496e+002, 7.081461e+001
6.045317e+002, 7.025825e+001
6.050139e+002, 7.001290e+001
6.054960e+002, 7.000787e+001
6.059781e+002, 7.027527e+001
6.064602e+002, 7.076127e+001
6.069423e+002, 7.103963e+001
6.074244e+002, 7.076842e+001
6.079066e+002, 7.008128e+001
6.083887e+002, 6.957549e+001
6.088708e+002, 6.930380e+001
6.093529e+002, 6.915913e+001
6.098350e+002, 6.951456e+001
6.103171e+002, 6.968673e+001
6.107993e+002, 6.890616e+001
6.112814e+002, 6.745106e+001
6.117635e+002, 6.637009e+001
6.122456e+002, 6.641341e+001
6.127277e+002, 6.708794e+001
6.132098e+002, 6.727609e+001
6.136920e+002, 6.690541e+001
6.141741e+002, 6.699612e+001
6.146562e+002, 6.819839e+001
6.151383e+002, 6.941086e+001
6.156204e+002, 6.934268e+001
6.161025e+002, 6.821744e+001
6.165847e+002, 6.733526e+001
6.170668e+002, 6.697820e+001
6.175489e+002, 6.692208e+001
6.180310e+002, 6.711522e+001
6.185131e+002, 6.749039e+001
6.189952e+002, 6.800590e+001
6.194774e+002, 6.863426e+001
6.199595e+002, 6.912779e+001
6.204416e+002, 6.918871e+001
6.209237e+002, 6.879881e+001
6.214058e+002, 6.824359e+001
6.218879e+002, 6.693111e+001
6.223701e+002, 6.620589e+001
6.228522e+002, 6.688835e+001
6.233343e+002, 6.797630e+001
6.238164e+002, 6.839603e+001
6.242985e+002, 6.796494e+001
6.247806e+002, 6.736288e+001
6.252628e+002, 6.708935e+001
6.257448e+002, 6.707198e+001
6.262269e+002, 6.718549e+001
6.267090e+002, 6.744891e+001
6.271912e+002, 6.757230e+001
6.276733e+002, 6.739958e+001
6.281554e+002, 6.703403e+001
6.286375e+002, 6.656776e+001
6.291196e+002, 6.586854e+001
6.296017e+002, 6.565473e+001
6.300839e+002, 6.624979e+001
6.305660e+002, 6.716603e+001
6.310481e+002, 6.854372e+001
6.315302e+002, 6.992903e+001
6.320123e+002, 7.017322e+001
6.324944e+002, 6.874512e+001
6.329766e+002, 6.678496e+001
6.334587e+002, 6.641747e+001
6.339408e+002, 6.811807e+001
6.344229e+002, 6.892879e+001
6.349050e+002, 6.816262e+001
6.353871e+002, 6.733048e+001
6.358693e+002, 6.701988e+001
6.363514e+002, 6.709428e+001
6.368335e+002, 6.738744e+001
6.373156e+002, 6.790340e+001
6.377977e+002, 6.843397e+001
6.382798e+002, 6.901991e+001
6.387620e+002, 6.945862e+001
6.392441e+002, 6.913521e+001
6.397262e+002, 6.802633e+001
6.402083e+002, 6.722122e+001
6.406904e+002, 6.748841e+001
6.411725e+002, 6.851238e+001
6.416547e+002, 6.925056e+001
6.421368e+002, 6.992062e+001
6.426189e+002, 6.992239e+001
6.431010e+002, 6.841631e+001
6.435831e+002, 6.699120e+001
6.440652e+002, 6.675909e+001
6.445474e+002, 6.745788e+001
6.450295e+002, 6.824475e+001
6.455116e+002, 6.870470e+001
6.459937e+002, 6.891567e+001
6.464758e+002, 6.891203e+001
6.469579e+002, 6.869695e+001
6.474401e+002, 6.872588e+001
6.479222e+002, 6.927244e+001
6.484043e+002, 6.962577e+001
6.488864e+002, 6.891027e+001
6.493685e+002, 6.756068e+001
6.498506e+002, 6.699043e+001
6.503328e+002, 6.789869e+001
6.508149e+002, 6.867857e+001
6.512970e+002, 6.859569e+001
6.517791e+002, 6.810294e+001
6.522612e+002, 6.760479e+001
6.527433e+002, 6.722719e+001
6.532255e+002, 6.714607e+001
6.537076e+002, 6.752987e+001
6.541897e+002, 6.822738e+001
6.546718e+002, 6.874281e+001
6.551539e+002, 6.927293e+001
6.556360e+002, 6.913428e+001
6.561182e+002, 6.730680e+001
6.566003e+002, 6.557360e+001
6.570824e+002, 6.503327e+001
6.575645e+002, 6.541949e+001
6.580466e+002, 6.576559e+001
6.585287e+002, 6.552389e+001
6.590109e+002, 6.540150e+001
6.594930e+002, 6.647321e+001
6.599751e+002, 6.818680e+001
6.604572e+002, 6.886153e+001
6.609393e+002, 6.811148e+001
6.614214e+002, 6.702529e+001
6.619036e+002, 6.647202e+001
6.623857e+002, 6.644216e+001
6.628678e+002, 6.683046e+001
6.633499e+002, 6.834387e+001
6.638320e+002, 6.933704e+001
6.643141e+002, 6.941496e+001
6.647963e+002, 6.912123e+001
6.652784e+002, 6.869323e+001
6.657605e+002, 6.828195e+001
6.662426e+002, 6.819973e+001
6.667247e+002, 6.879099e+001
6.672068e+002, 6.956379e+001
6.676890e+002, 6.951958e+001
6.681711e+002, 6.868588e+001
6.686532e+002, 6.798363e+001
6.691353e+002, 6.755533e+001
6.696174e+002, 6.746520e+001
6.700995e+002, 6.791879e+001
6.705817e+002, 6.885004e+001
6.710638e+002, 6.951408e+001
6.715459e+002, 6.989930e+001
6.720280e+002, 7.001585e+001
6.725101e+002, 6.944841e+001
6.729922e+002, 6.885744e+001
6.734744e+002, 6.918047e+001
6.739565e+002, 7.034550e+001
6.744386e+002, 7.135050e+001
6.749207e+002, 7.141518e+001
6.754028e+002, 7.078743e+001
6.758849e+002, 7.025313e+001
6.763671e+002, 6.982756e+001
6.768492e+002, 6.941267e+001
6.773313e+002, 6.882993e+001
6.778134e+002, 6.843961e+001
6.782955e+002, 6.869881e+001
6.787776e+002, 6.940053e+001
6.792598e+002, 6.978809e+001
6.797419e+002, 6.942200e+001
6.802240e+002, 6.904530e+001
6.807061e+002, 6.907383e+001
6.811882e+002, 6.938219e+001
6.816703e+002, 6.990175e+001
6.821525e+002, 7.055541e+001
6.826346e+002, 7.096964e+001
6.831167e+002, 7.078035e+001
6.835988e+002, 7.016705e+001
6.840809e+002, 7.007148e+001
6.845630e+002, 7.091273e+001
6.850452e+002, 7.135446e+001
6.855273e+002, 7.084908e+001
6.860094e+002, 7.021913e+001
6.864915e+002, 6.981590e+001
6.869736e+002, 6.967727e+001
6.874557e+002, 6.985783e+001
6.879379e+002, 7.057539e+001
6.884200e+002, 7.126722e+001
6.889021e+002, 7.150307e+001
6.893842e+002, 7.132029e+001
6.898663e+002, 7.052824e+001
6.903484e+002, 6.912456e+001
6.908306e+002, 6.826664e+001
6.913127e+002, 6.901944e+001
6.917948e+002, 7.094698e+001
6.922769e+002, 7.184405e+001
6.927590e+002, 7.093820e+001
6.932411e+002, 7.020905e+001
6.937233e+002, 6.970974e+001
6.942054e+002, 6.944222e+001
6.946875e+002, 6.952019e+001
6.951696e+002, 6.982344e+001
6.956517e+002, 7.008725e+001
6.961339e+002, 7.021091e+001
6.966160e+002, 7.021004e+001
6.970981e+002, 7.001503e+001
6.975802e+002, 6.970396e+001
6.980623e+002, 6.959707e+001
6.985444e+002, 6.975921e+001
6.990266e+002, 6.985339e+001
6.995087e+002, 6.956538e+001
6.999908e+002, 6.907417e+001
7.004729e+002, 6.907447e+001
7.009550e+002, 7.012798e+001
7.014371e+002, 7.081433e+001
7.019193e+002, 7.092782e+001
7.024014e+002, 7.084345e+001
7.028835e+002, 7.050581e+001
7.033656e+002, 7.019693e+001
7.038477e+002, 7.055350e+001
7.043298e+002, 7.191385e+001
7.048120e+002, 7.339127e+001
7.052941e+002, 7.371374e+001
7.057762e+002, 7.314878e+001
7.062583e+002, 7.307364e+001
7.067404e+002, 7.368680e+001
7.072225e+002, 7.431916e+001
7.077046e+002, 7.469787e+001
7.081867e+002, 7.475069e+001
7.086688e+002, 7.420600e+001
7.091509e+002, 7.266354e+001
7.096331e+002, 7.157771e+001
7.101152e+002, 7.110452e+001
7.105973e+002, 7.104777e+001
7.110794e+002, 7.157122e+001
7.115615e+002, 7.235060e+001
7.120436e+002, 7.288574e+001
7.125258e+002, 7.299476e+001
7.130079e+002, 7.280857e+001
7.134900e+002, 7.233715e+001
7.139721e+002, 7.166933e+001
7.144542e+002, 7.136612e+001
7.149363e+002, 7.152309e+001
7.154185e+002, 7.151254e+001
7.159006e+002, 7.088805e+001
7.163827e+002, 7.010681e+001
7.168648e+002, 6.999371e+001
7.173469e+002, 7.064946e+001
7.178290e+002, 7.127223e+001
7.183112e+002, 7.196176e+001
7.187933e+002, 7.242623e+001
7.192754e+002, 7.211150e+001
7.197575e+002, 7.165004e+001
7.202396e+002, 7.223637e+001
7.207217e+002, 7.401798e+001
7.212039e+002, 7.557226e+001
7.216860e+002, 7.545655e+001
7.221681e+002, 7.399937e+001
7.226502e+002, 7.212728e+001
7.231323e+002, 6.961362e+001
7.236144e+002, 6.865298e+001
7.240966e+002, 7.068263e+001
7.245787e+002, 7.342899e+001
7.250608e+002, 7.395127e+001
7.255429e+002, 7.231622e+001
7.260250e+002, 7.180373e+001
7.265071e+002, 7.381723e+001
7.269893e+002, 7.550357e+001
7.274714e+002, 7.557261e+001
7.279535e+002, 7.493144e+001
7.284356e+002, 7.435725e+001
7.289177e+002, 7.412273e+001
7.293998e+002, 7.459035e+001
7.298820e+002, 7.630666e+001
7.303641e+002, 7.838213e+001
7.308462e+002, 7.847456e+001
7.313283e+002, 7.649566e+001
7.318104e+002, 7.507269e+001
7.322925e+002, 7.481245e+001
7.327747e+002, 7.495699e+001
7.332568e+002, 7.486262e+001
7.337389e+002, 7.465228e+001
7.342210e+002, 7.494765e+001
7.347031e+002, 7.644504e+001
7.351852e+002, 7.736528e+001
7.356674e+002, 7.684750e+001
7.361495e+002, 7.601962e+001
7.366316e+002, 7.592121e+001
7.371137e+002, 7.634519e+001
7.375958e+002, 7.634427e+001
7.380779e+002, 7.539502e+001
7.385601e+002, 7.434954e+001
7.390422e+002, 7.471580e+001
7.395243e+002, 7.629773e+001
7.400064e+002, 7.713773e+001
7.404885e+002, 7.695541e+001
7.409706e+002, 7.657300e+001
7.414528e+002, 7.627880e+001
7.419349e+002, 7.619343e+001
7.424170e+002, 7.675459e+001
7.428991e+002, 7.840871e+001
7.433812e+002, 7.913721e+001
7.438633e+002, 7.786144e+001
7.443455e+002, 7.657748e+001
7.448276e+002, 7.643222e+001
7.453097e+002, 7.693687e+001
7.457918e+002, 7.721083e+001
7.462739e+002, 7.702699e+001
7.467560e+002, 7.690669e+001
7.472382e+002, 7.754128e+001
7.477203e+002, 7.859928e+001
7.482024e+002, 7.902915e+001
7.486845e+002, 7.881988e+001
7.491666e+002, 7.837479e+001
7.496487e+002, 7.770877e+001
7.501309e+002, 7.714964e+001
7.506130e+002, 7.710806e+001
7.510951e+002, 7.761487e+001
7.515772e+002, 7.813023e+001
7.520593e+002, 7.873785e+001
7.525414e+002, 7.924210e+001
7.530236e+002, 7.972440e+001
7.535057e+002, 7.999572e+001
7.539878e+002, 7.963988e+001
7.544699e+002, 7.886119e+001
7.549520e+002, 7.847785e+001
7.554341e+002, 7.903079e+001
7.559163e+002, 8.003004e+001
7.563984e+002, 8.099245e+001
7.568805e+002, 8.183737e+001
7.573626e+002, 8.211536e+001
7.578447e+002, 8.172935e+001
7.583268e+002, 8.118314e+001
7.588090e+002, 8.081776e+001
7.592911e+002, 8.057383e+001
7.597732e+002, 8.024281e+001
7.602553e+002, 7.968072e+001
7.607374e+002, 7.929910e+001
7.612195e+002, 7.915404e+001
7.617017e+002, 7.912034e+001
7.621838e+002, 7.918535e+001
7.626659e+002, 7.930717e+001
7.631480e+002, 7.941064e+001
7.636301e+002, 7.947141e+001
7.641122e+002, 7.961271e+001
7.645944e+002, 7.999698e+001
7.650765e+002, 8.048228e+001
7.655586e+002, 8.085559e+001
7.660407e+002, 8.111818e+001
7.665228e+002, 8.127834e+001
7.670049e+002, 8.132533e+001
7.674871e+002, 8.146565e+001
7.679692e+002, 8.201765e+001
7.684513e+002, 8.301344e+001
7.689334e+002, 8.368610e+001
7.694155e+002, 8.408561e+001
7.698976e+002, 8.406717e+001
7.703798e+002, 8.320529e+001
7.708619e+002, 8.224192e+001
7.713440e+002, 8.158696e+001
7.718261e+002, 8.132787e+001
7.723082e+002, 8.169045e+001
7.727903e+002, 8.323272e+001
7.732725e+002, 8.477463e+001
7.737546e+002, 8.551150e+001
7.742367e+002, 8.570506e+001
7.747188e+002, 8.570975e+001
7.752009e+002, 8.559708e+001
7.756830e+002, 8.526143e+001
7.761652e+002, 8.456970e+001
7.766473e+002, 8.391317e+001
7.771294e+002, 8.451743e+001
7.776115e+002, 8.677481e+001
7.780936e+002, 8.753451e+001
7.785757e+002, 8.573091e+001
7.790579e+002, 8.401820e+001
7.795400e+002, 8.400941e+001
7.800221e+002, 8.492115e+001
7.805042e+002, 8.543497e+001
7.809863e+002, 8.541479e+001
7.814684e+002, 8.551112e+001
7.819506e+002, 8.623788e+001
7.824327e+002, 8.677219e+001
7.829148e+002, 8.631623e+001
7.833969e+002, 8.539873e+001
7.838790e+002, 8.491435e+001
7.843611e+002, 8.508994e+001
7.848433e+002, 8.555460e+001
7.853254e+002, 8.605003e+001
7.858075e+002, 8.652276e+001
7.862896e+002, 8.670632e+001
7.867717e+002, 8.659150e+001
7.872538e+002, 8.685789e+001
7.877360e+002, 8.782349e+001
7.882181e+002, 8.875330e+001
7.887002e+002, 8.891712e+001
7.891823e+002, 8.841618e+001
7.896644e+002, 8.810488e+001
7.901465e+002, 8.806796e+001
7.906286e+002, 8.808822e+001
7.911107e+002, 8.772952e+001
7.915928e+002, 8.781337e+001
7.920750e+002, 8.916992e+001
7.925571e+002, 9.132613e+001
7.930392e+002, 9.339602e+001
7.935213e+002, 9.511723e+001
7.940034e+002, 9.616374e+001
7.944855e+002, 9.598392e+001
7.949677e+002, 9.504440e+001
7.954498e+002, 9.396570e+001
7.959319e+002, 9.288773e+001
7.964140e+002, 9.245064e+001
7.968961e+002, 9.294712e+001
7.973782e+002, 9.386803e+001
7.978604e+002, 9.453945e+001
7.983425e+002, 9.495739e+001
7.988246e+002, 9.523910e+001
7.993067e+002, 9.507244e+001
7.997888e+002, 9.533496e+001
8.002709e+002, 9.681020e+001
8.007531e+002, 9.834595e+001
8.012352e+002, 9.892026e+001
8.017173e+002, 9.872834e+001
8.021994e+002, 9.884156e+001
8.026815e+002, 9.981071e+001
8.031636e+002, 1.007442e+002
8.036458e+002, 1.007330e+002
8.041279e+002, 1.007096e+002
8.046100e+002, 1.020829e+002
8.050921e+002, 1.045708e+002
8.055742e+002, 1.067041e+002
8.060563e+002, 1.076564e+002
8.065385e+002, 1.081485e+002
8.070206e+002, 1.093304e+002
8.075027e+002, 1.111519e+002
8.079848e+002, 1.129468e+002
8.084669e+002, 1.147472e+002
8.089490e+002, 1.161810e+002
8.094312e+002, 1.167960e+002
8.099133e+002, 1.173409e+002
8.103954e+002, 1.189962e+002
8.108775e+002, 1.219596e+002
8.113596e+002, 1.248095e+002
8.118417e+002, 1.266308e+002
8.123239e+002, 1.294832e+002
8.128060e+002, 1.347551e+002
8.132881e+002, 1.407044e+002
8.137702e+002, 1.453416e+002
8.142523e+002, 1.489196e+002
8.147344e+002, 1.533987e+002
8.152166e+002, 1.600200e+002
8.156987e+002, 1.673239e+002
8.161808e+002, 1.734290e+002
8.166629e+002, 1.790911e+002
8.171450e+002, 1.859936e+002
8.176271e+002, 1.942940e+002
8.181093e+002, 2.033898e+002
8.185914e+002, 2.129842e+002
8.190735e+002, 2.228884e+002
8.195556e+002, 2.326078e+002
8.200377e+002, 2.419446e+002
8.205198e+002, 2.526039e+002
8.210020e+002, 2.658655e+002
8.214841e+002, 2.782028e+002
8.219662e+002, 2.885378e+002
8.224483e+002, 2.970582e+002
8.229304e+002, 3.043111e+002
8.234125e+002, 3.102523e+002
8.238947e+002, 3.130899e+002
8.243768e+002, 3.114671e+002
8.248589e+002, 3.078610e+002
8.253410e+002, 3.028335e+002
8.258231e+002, 2.967164e+002
8.263052e+002, 2.898027e+002
8.267874e+002, 2.821534e+002
8.272695e+002, 2.736647e+002
8.277516e+002, 2.641350e+002
8.282337e+002, 2.542268e+002
8.287158e+002, 2.446317e+002
8.291979e+002, 2.354252e+002
8.296801e+002, 2.269372e+002
8.301622e+002, 2.192403e+002
8.306443e+002, 2.120603e+002
8.311264e+002, 2.052639e+002
8.316085e+002, 1.990185e+002
8.320906e+002, 1.935857e+002
8.325728e+002, 1.890800e+002
8.330549e+002, 1.847194e+002
8.335370e+002, 1.801351e+002
8.340191e+002, 1.762942e+002
8.345012e+002, 1.739095e+002
8.349833e+002, 1.719345e+002
8.354655e+002, 1.691070e+002
8.359476e+002, 1.657782e+002
8.364297e+002, 1.638602e+002
8.369118e+002, 1.651419e+002
8.373939e+002, 1.660135e+002
8.378760e+002, 1.638774e+002
8.383582e+002, 1.606938e+002
8.388403e+002, 1.584778e+002
8.393224e+002, 1.573927e+002
8.398045e+002, 1.570541e+002
8.402866e+002, 1.572842e+002
8.407687e+002, 1.578657e+002
8.412509e+002, 1.587001e+002
8.417330e+002, 1.596691e+002
8.422151e+002, 1.596536e+002
8.426972e+002, 1.584891e+002
8.431793e+002, 1.590005e+002
8.436614e+002, 1.626579e+002
8.441436e+002, 1.670395e+002
8.446257e+002, 1.691642e+002
8.451078e+002, 1.691133e+002
8.455899e+002, 1.703341e+002
8.460720e+002, 1.735448e+002
8.465541e+002, 1.769987e+002
8.470363e+002, 1.806021e+002
8.475184e+002, 1.843443e+002
8.480005e+002, 1.881338e+002
8.484826e+002, 1.920888e+002
8.489647e+002, 1.965771e+002
8.494468e+002, 2.018519e+002
8.499290e+002, 2.069302e+002
8.504111e+002, 2.110717e+002
8.508932e+002, 2.149527e+002
8.513753e+002, 2.195732e+002
8.518574e+002, 2.244850e+002
8.523395e+002, 2.288490e+002
8.528217e+002, 2.322788e+002
8.533038e+002, 2.342157e+002
8.537859e+002, 2.336841e+002
8.542680e+002, 2.315577e+002
8.547501e+002, 2.310395e+002
8.552322e+002, 2.321275e+002
8.557144e+002, 2.310850e+002
8.561965e+002, 2.269180e+002
8.566786e+002, 2.216186e+002
8.571607e+002, 2.165372e+002
8.576428e+002, 2.115791e+002
8.581249e+002, 2.064426e+002
8.586071e+002, 2.015877e+002
8.590892e+002, 1.955582e+002
8.595713e+002, 1.870942e+002
8.600534e+002, 1.789616e+002
8.605355e+002, 1.715593e+002
8.610176e+002, 1.653094e+002
8.614998e+002, 1.612803e+002
8.619819e+002, 1.593811e+002
8.624640e+002, 1.565887e+002
8.629461e+002, 1.510014e+002
8.634282e+002, 1.448144e+002
8.639103e+002, 1.388616e+002
8.643925e+002, 1.336067e+002
8.648746e+002, 1.300581e+002
8.653567e+002, 1.279675e+002
8.658388e+002, 1.259663e+002
8.663209e+002, 1.232284e+002
8.668030e+002, 1.204042e+002
8.672852e+002, 1.186592e+002
8.677673e+002, 1.177702e+002
8.682494e+002, 1.165288e+002
8.687315e+002, 1.148612e+002
8.692136e+002, 1.130221e+002
8.696957e+002, 1.110322e+002
8.701779e+002, 1.092110e+002
8.706600e+002, 1.081280e+002
8.711421e+002, 1.077953e+002
8.716242e+002, 1.065042e+002
8.721063e+002, 1.031799e+002
8.725884e+002, 1.007910e+002
8.730705e+002, 1.004901e+002
8.735526e+002, 1.006638e+002
8.740347e+002, 1.005554e+002
8.745168e+002, 1.001608e+002
8.749990e+002, 9.945953e+001
8.754811e+002, 9.823348e+001
8.759632e+002, 9.737557e+001
8.764453e+002, 9.797246e+001
8.769274e+002, 9.830791e+001
8.774095e+002, 9.638120e+001
8.778917e+002, 9.357001e+001
8.783738e+002, 9.250695e+001
8.788559e+002, 9.362050e+001
8.793380e+002, 9.486011e+001
8.798201e+002, 9.453291e+001
8.803022e+002, 9.353235e+001
8.807844e+002, 9.349252e+001
8.812665e+002, 9.405998e+001
8.817486e+002, 9.370979e+001
8.822307e+002, 9.227103e+001
8.827128e+002, 9.125650e+001
8.831949e+002, 9.170058e+001
8.836771e+002, 9.282268e+001
8.841592e+002, 9.291541e+001
8.846413e+002, 9.178149e+001
8.851234e+002, 9.115186e+001
8.856055e+002, 9.129548e+001
8.860876e+002, 9.127911e+001
8.865698e+002, 9.077052e+001
8.870519e+002, 8.996903e+001
8.875340e+002, 8.893317e+001
8.880161e+002, 8.770561e+001
8.884982e+002, 8.690182e+001
8.889803e+002, 8.685815e+001
8.894625e+002, 8.678867e+001
8.899446e+002, 8.657389e+001
8.904267e+002, 8.627638e+001
8.909088e+002, 8.590416e+001
8.913909e+002, 8.549364e+001
8.918730e+002, 8.513577e+001
8.923552e+002, 8.486008e+001
8.928373e+002, 8.447444e+001
8.933194e+002, 8.354204e+001
8.938015e+002, 8.270187e+001
8.942836e+002, 8.263067e+001
8.947657e+002, 8.318568e+001
8.952479e+002, 8.441380e+001
8.957300e+002, 8.607542e+001
8.962121e+002, 8.686242e+001
8.966942e+002, 8.565126e+001
8.971763e+002, 8.348457e+001
8.976584e+002, 8.247690e+001
8.981406e+002, 8.251820e+001
8.986227e+002, 8.246346e+001
8.991048e+002, 8.219723e+001
8.995869e+002, 8.201347e+001
9.000690e+002, 8.206493e+001
9.005511e+002, 8.222334e+001
9.010333e+002, 8.228037e+001
9.015154e+002, 8.222220e+001
9.019975e+002, 8.241426e+001
9.024796e+002, 8.329693e+001
9.029617e+002, 8.360164e+001
9.034438e+002, 8.241568e+001
9.039260e+002, 8.124555e+001
9.044081e+002, 8.121564e+001
9.048902e+002, 8.197444e+001
9.053723e+002, 8.266172e+001
9.058544e+002, 8.328810e+001
9.063365e+002, 8.354906e+001
9.068187e+002, 8.313375e+001
9.073008e+002, 8.258073e+001
9.077829e+002, 8.177719e+001
9.082650e+002, 8.126571e+001
9.087471e+002, 8.206534e+001
9.092292e+002, 8.408492e+001
9.097114e+002, 8.573839e+001
9.101935e+002, 8.573898e+001
9.106756e+002, 8.553422e+001
9.111577e+002, 8.703934e+001
9.116398e+002, 8.921622e+001
9.121219e+002, 9.000005e+001
9.126041e+002, 8.942718e+001
9.130862e+002, 8.880476e+001
9.135683e+002, 8.875062e+001
9.140504e+002, 8.900204e+001
9.145325e+002, 8.923451e+001
9.150146e+002, 8.946306e+001
9.154968e+002, 8.985374e+001
9.159789e+002, 9.042275e+001
9.164610e+002, 9.067856e+001
9.169431e+002, 9.046390e+001
9.174252e+002, 9.006718e+001
9.179073e+002, 8.969931e+001
9.183895e+002, 8.935936e+001
9.188716e+002, 8.907375e+001
9.193537e+002, 8.902895e+001
9.198358e+002, 8.857066e+001
9.203179e+002, 8.790808e+001
9.208000e+002, 8.651894e+001
9.212822e+002, 8.287835e+001
9.217643e+002, 7.925928e+001
9.222464e+002, 7.867504e+001
9.227285e+002, 8.099525e+001
9.232106e+002, 8.229200e+001
9.236927e+002, 8.146654e+001
9.241749e+002, 8.031380e+001
9.246570e+002, 7.941530e+001
9.251391e+002, 7.829955e+001
9.256212e+002, 7.604420e+001
9.261033e+002, 7.342339e+001
9.265854e+002, 7.220354e+001
9.270676e+002, 7.293589e+001
9.275497e+002, 7.378231e+001
9.280318e+002, 7.357968e+001
9.285139e+002, 7.286967e+001
9.289960e+002, 7.167416e+001
9.294781e+002, 7.056979e+001
9.299603e+002, 7.104753e+001
9.304424e+002, 7.296650e+001
9.309245e+002, 7.419136e+001
9.314066e+002, 7.325972e+001
9.318887e+002, 7.155128e+001
9.323708e+002, 7.126440e+001
9.328530e+002, 7.208259e+001
9.333351e+002, 7.288552e+001
9.338172e+002, 7.357384e+001
9.342993e+002, 7.353355e+001
9.347814e+002, 7.248037e+001
9.352635e+002, 7.115237e+001
9.357457e+002, 7.023520e+001
9.362278e+002, 6.982185e+001
9.367099e+002, 7.075087e+001
9.371920e+002, 7.363420e+001
9.376741e+002, 7.511539e+001
9.381563e+002, 7.443652e+001
9.386384e+002, 7.311628e+001
9.391205e+002, 7.153323e+001
9.396026e+002, 7.018059e+001
9.400847e+002, 7.009921e+001
9.405668e+002, 7.162746e+001
9.410490e+002, 7.242410e+001
9.415311e+002, 7.171715e+001
9.420132e+002, 7.136690e+001
9.424953e+002, 7.193913e+001
9.429774e+002, 7.278891e+001
9.434595e+002, 7.375576e+001
9.439417e+002, 7.457650e+001
9.444238e+002, 7.448017e+001
9.449059e+002, 7.287820e+001
9.453880e+002, 7.205917e+001
9.458701e+002, 7.350681e+001
9.463522e+002, 7.528159e+001
9.468344e+002, 7.626165e+001
9.473165e+002, 7.667750e+001
9.477986e+002, 7.697865e+001
9.482807e+002, 7.717113e+001
9.487628e+002, 7.674818e+001
9.492449e+002, 7.498660e+001
9.497271e+002, 7.369701e+001
9.502092e+002, 7.545422e+001
9.506913e+002, 7.830981e+001
9.511734e+002, 7.912366e+001
9.516555e+002, 7.820642e+001
9.521376e+002, 7.719527e+001
9.526198e+002, 7.672791e+001
9.531019e+002, 7.703988e+001
9.535840e+002, 7.853519e+001
9.540661e+002, 8.075141e+001
9.545482e+002, 8.284450e+001
9.550303e+002, 8.470634e+001
9.555124e+002, 8.556682e+001
9.559945e+002, 8.532041e+001
9.564766e+002, 8.423792e+001
9.569587e+002, 8.229949e+001
9.574409e+002, 8.053981e+001
9.579230e+002, 8.088934e+001
9.584051e+002, 8.328664e+001
9.588872e+002, 8.390530e+001
9.593693e+002, 8.225462e+001
9.598514e+002, 8.096811e+001
9.603336e+002, 8.077771e+001
9.608157e+002, 8.068741e+001
9.612978e+002, 7.993496e+001
9.617799e+002, 7.875011e+001
9.622620e+002, 7.776125e+001
9.627441e+002, 7.695811e+001
9.632263e+002, 7.639537e+001
9.637084e+002, 7.659299e+001
9.641905e+002, 7.632251e+001
9.646726e+002, 7.460463e+001
9.651547e+002, 7.283351e+001
9.656368e+002, 7.241109e+001
9.661190e+002, 7.303503e+001
9.666011e+002, 7.320376e+001
9.670832e+002, 7.257336e+001
9.675653e+002, 7.180703e+001
9.680474e+002, 7.080835e+001
9.685295e+002, 6.996540e+001
9.690117e+002, 6.963245e+001
9.694938e+002, 6.951771e+001
9.699759e+002, 6.927348e+001
9.704580e+002, 6.884131e+001
9.709401e+002, 6.825371e+001
9.714222e+002, 6.721633e+001
9.719044e+002, 6.653206e+001
9.723865e+002, 6.730846e+001
9.728686e+002, 6.822315e+001
9.733507e+002, 6.762066e+001
9.738328e+002, 6.601546e+001
9.743149e+002, 6.475581e+001
9.747971e+002, 6.426199e+001
9.752792e+002, 6.417091e+001
9.757613e+002, 6.442433e+001
9.762434e+002, 6.467635e+001
9.767255e+002, 6.443617e+001
9.772076e+002, 6.384985e+001
9.776898e+002, 6.297668e+001
9.781719e+002, 6.201530e+001
9.786540e+002, 6.194402e+001
9.791361e+002, 6.321960e+001
9.796182e+002, 6.447738e+001
9.801003e+002, 6.378360e+001
9.805825e+002, 6.179140e+001
9.810646e+002, 6.058356e+001
9.815467e+002, 6.013044e+001
9.820288e+002, 6.033295e+001
9.825109e+002, 6.116865e+001
9.829930e+002, 6.199604e+001
9.834752e+002, 6.241457e+001
9.839573e+002, 6.248088e+001
9.844394e+002, 6.215379e+001
9.849215e+002, 6.142588e+001
9.854036e+002, 6.159015e+001
9.858857e+002, 6.289274e+001
9.863679e+002, 6.355901e+001
9.868500e+002, 6.297374e+001
9.873321e+002, 6.213725e+001
9.878142e+002, 6.187335e+001
9.882963e+002, 6.196747e+001
9.887784e+002, 6.172816e+001
9.892606e+002, 6.102943e+001
9.897427e+002, 6.043014e+001
9.902248e+002, 5.984292e+001
9.907069e+002, 5.952869e+001
9.911890e+002, 5.963990e+001
9.916711e+002, 5.998199e+001
9.921533e+002, 6.049213e+001
9.926354e+002, 6.109936e+001
9.931175e+002, 6.137739e+001
9.935996e+002, 6.137807e+001
9.940817e+002, 6.095898e+001
9.945638e+002, 5.933430e+001
9.950460e+002, 5.822521e+001
9.955281e+002, 5.872344e+001
9.960102e+002, 5.977052e+001
9.964923e+002, 6.031301e+001
9.969744e+002, 6.032385e+001
9.974565e+002, 6.010610e+001
9.979387e+002, 5.942397e+001
9.984208e+002, 5.900439e+001
9.989029e+002, 5.912555e+001
9.993850e+002, 5.946498e+001
9.998671e+002, 6.024844e+001
1.000349e+003, 6.089600e+001
1.000831e+003, 6.035120e+001
1.001313e+003, 5.865514e+001
1.001796e+003, 5.739552e+001
1.002278e+003, 5.728764e+001
1.002760e+003, 5.767709e+001
1.003242e+003, 5.834827e+001
1.003724e+003, 5.923028e+001
1.004206e+003, 6.067486e+001
1.004688e+003, 6.214253e+001
1.005170e+003, 6.252859e+001
1.005653e+003, 6.165421e+001
1.006135e+003, 6.063635e+001
1.006617e+003, 6.013389e+001
1.007099e+003, 5.983544e+001
1.007581e+003, 5.935598e+001
1.008063e+003, 5.895573e+001
1.008545e+003, 5.924054e+001
1.009027e+003, 5.992962e+001
1.009509e+003, 6.005403e+001
1.009992e+003, 5.931805e+001
1.010474e+003, 5.851976e+001
1.010956e+003, 5.832854e+001
1.011438e+003, 5.851854e+001
1.011920e+003, 5.889747e+001
1.012402e+003, 5.934986e+001
1.012884e+003, 5.967654e+001
1.013366e+003, 5.981157e+001
1.013849e+003, 5.948219e+001
1.014331e+003, 5.858912e+001
1.014813e+003, 5.788473e+001
1.015295e+003, 5.839495e+001
1.015777e+003, 5.957322e+001
1.016259e+003, 6.004095e+001
1.016741e+003, 5.992705e+001
1.017223e+003, 5.979980e+001
1.017705e+003, 5.974719e+001
1.018188e+003, 5.966880e+001
1.018670e+003, 5.950953e+001
1.019152e+003, 5.937781e+001
1.019634e+003, 5.953019e+001
1.020116e+003, 5.980848e+001
1.020598e+003, 5.920859e+001
1.021080e+003, 5.778799e+001
1.021562e+003, 5.720398e+001
1.022044e+003, 5.779442e+001
1.022527e+003, 5.818244e+001
1.023009e+003, 5.751738e+001
1.023491e+003, 5.649751e+001
1.023973e+003, 5.625035e+001
1.024455e+003, 5.673384e+001
1.024937e+003, 5.727510e+001
1.025419e+003, 5.788676e+001
1.025901e+003, 5.843751e+001
1.026384e+003, 5.890918e+001
1.026866e+003, 5.933714e+001
1.027348e+003, 5.982278e+001
1.027830e+003, 6.008903e+001
1.028312e+003, 5.949164e+001
1.028794e+003, 5.795710e+001
1.029276e+003, 5.736395e+001
1.029758e+003, 5.795241e+001
1.030240e+003, 5.871255e+001
1.030723e+003, 5.972557e+001
1.031205e+003, 6.022614e+001
1.031687e+003, 5.959134e+001
1.032169e+003, 5.823595e+001
1.032651e+003, 5.689955e+001
1.033133e+003, 5.549460e+001
1.033615e+003, 5.486683e+001
1.034097e+003, 5.520595e+001
1.034579e+003, 5.593997e+001
1.035062e+003, 5.720423e+001
1.035544e+003, 5.848264e+001
1.036026e+003, 5.949994e+001
1.036508e+003, 6.025312e+001
1.036990e+003, 6.075289e+001
1.037472e+003, 6.103615e+001
1.037954e+003, 6.083705e+001
1.038436e+003, 5.957828e+001
1.038919e+003, 5.876703e+001
1.039401e+003, 5.876009e+001
1.039883e+003, 5.916907e+001
1.040365e+003, 6.019312e+001
1.040847e+003, 6.132335e+001
1.041329e+003, 6.132894e+001
1.041811e+003, 5.987965e+001
1.042293e+003, 5.906825e+001
1.042776e+003, 5.924707e+001
1.043258e+003, 5.962320e+001
1.043740e+003, 6.062016e+001
1.044222e+003, 6.120546e+001
1.044704e+003, 6.017828e+001
1.045186e+003, 5.844534e+001
1.045668e+003, 5.792762e+001
1.046150e+003, 5.899156e+001
1.046632e+003, 5.950288e+001
1.047115e+003, 5.850850e+001
1.047597e+003, 5.794149e+001
1.048079e+003, 5.882660e+001
1.048561e+003, 5.974953e+001
1.049043e+003, 5.957876e+001
1.049525e+003, 5.880378e+001
1.050007e+003, 5.842372e+001
1.050489e+003, 5.858568e+001
1.050971e+003, 5.870337e+001
1.051454e+003, 5.868001e+001
1.051936e+003, 5.857666e+001
1.052418e+003, 5.857960e+001
1.052900e+003, 5.834480e+001
1.053382e+003, 5.722174e+001
1.053864e+003, 5.583887e+001
1.054346e+003, 5.546503e+001
1.054828e+003, 5.630401e+001
1.055311e+003, 5.690091e+001
1.055793e+003, 5.661897e+001
1.056275e+003, 5.637885e+001
1.056757e+003, 5.644301e+001
1.057239e+003, 5.671338e+001
1.057721e+003, 5.736707e+001
1.058203e+003, 5.806383e+001
1.058685e+003, 5.827811e+001
1.059167e+003, 5.792696e+001
1.059650e+003, 5.720963e+001
1.060132e+003, 5.533320e+001
1.060614e+003, 5.425905e+001
1.061096e+003, 5.566155e+001
1.061578e+003, 5.723151e+001
1.062060e+003, 5.700422e+001
1.062542e+003, 5.580488e+001
1.063024e+003, 5.510053e+001
1.063506e+003, 5.512987e+001
1.063989e+003, 5.543484e+001
1.064471e+003, 5.611445e+001
1.064953e+003, 5.666351e+001
1.065435e+003, 5.700994e+001
1.065917e+003, 5.701362e+001
1.066399e+003, 5.633502e+001
1.066881e+003, 5.535838e+001
1.067363e+003, 5.459199e+001
1.067846e+003, 5.414109e+001
1.068328e+003, 5.401622e+001
1.068810e+003, 5.453861e+001
1.069292e+003, 5.483291e+001
1.069774e+003, 5.414904e+001
1.070256e+003, 5.345537e+001
1.070738e+003, 5.369645e+001
1.071220e+003, 5.427139e+001
1.071703e+003, 5.409266e+001
1.072185e+003, 5.321151e+001
1.072667e+003, 5.288933e+001
1.073149e+003, 5.391784e+001
1.073631e+003, 5.480450e+001
1.074113e+003, 5.461127e+001
1.074595e+003, 5.428141e+001
1.075077e+003, 5.449533e+001
1.075559e+003, 5.499279e+001
1.076042e+003, 5.543428e+001
1.076524e+003, 5.576514e+001
1.077006e+003, 5.604727e+001
1.077488e+003, 5.635256e+001
1.077970e+003, 5.645140e+001
1.078452e+003, 5.617406e+001
1.078934e+003, 5.572338e+001
1.079416e+003, 5.516133e+001
1.079898e+003, 5.455628e+001
1.080380e+003, 5.396410e+001
1.080863e+003, 5.339332e+001
1.081345e+003, 5.279455e+001
1.081827e+003, 5.209168e+001
1.082309e+003, 5.168074e+001
1.082791e+003, 5.184613e+001
1.083273e+003, 5.223067e+001
1.083755e+003, 5.314920e+001
1.084237e+003, 5.376056e+001
1.084720e+003, 5.270401e+001
1.085202e+003, 5.064433e+001
1.085684e+003, 4.947825e+001
1.086166e+003, 4.974213e+001
1.086648e+003, 5.050154e+001
1.087130e+003, 5.176934e+001
1.087612e+003, 5.292624e+001
1.088094e+003, 5.388113e+001
1.088577e+003, 5.438999e+001
1.089059e+003, 5.373951e+001
1.089541e+003, 5.262635e+001
1.090023e+003, 5.273555e+001
1.090505e+003, 5.441864e+001
1.090987e+003, 5.536024e+001
1.091469e+003, 5.415283e+001
1.091951e+003, 5.275591e+001
1.092433e+003, 5.148676e+001
1.092916e+003, 5.085515e+001
1.093398e+003, 5.195784e+001
1.093880e+003, 5.366171e+001
1.094362e+003, 5.383455e+001
1.094844e+003, 5.232063e+001
1.095326e+003, 5.145313e+001
1.095808e+003, 5.249195e+001
1.096290e+003, 5.350569e+001
1.096772e+003, 5.418222e+001
1.097255e+003, 5.429549e+001
1.097737e+003, 5.324075e+001
1.098219e+003, 5.182169e+001
1.098701e+003, 5.099825e+001
1.099183e+003, 5.085883e+001
1.099665e+003, 5.118470e+001
1.100147e+003, 5.243017e+001
1.100629e+003, 5.307768e+001
1.101112e+003, 5.199412e+001
1.101594e+003, 5.110282e+001
1.102076e+003, 5.169282e+001
1.102558e+003, 5.268941e+001
1.103040e+003, 5.300640e+001
1.103522e+003, 5.267810e+001
1.104004e+003, 5.208052e+001
1.104486e+003, 5.096518e+001
1.104969e+003, 5.055281e+001
1.105451e+003, 5.198757e+001
1.105933e+003, 5.294996e+001
1.106415e+003, 5.191899e+001
1.106897e+003, 5.075889e+001
1.107379e+003, 5.153277e+001
1.107861e+003, 5.323605e+001
1.108343e+003, 5.296855e+001
1.108825e+003, 4.986615e+001
1.109307e+003, 4.860123e+001
1.109790e+003, 5.143623e+001
1.110272e+003, 5.349432e+001
1.110754e+003, 5.333527e+001
1.111236e+003, 5.262545e+001
1.111718e+003, 5.201613e+001
1.112200e+003, 5.166819e+001
1.112682e+003, 5.205172e+001
1.113164e+003, 5.324311e+001
1.113647e+003, 5.355468e+001
1.114129e+003, 5.208765e+001
1.114611e+003, 5.124063e+001
1.115093e+003, 5.156269e+001
1.115575e+003, 5.199840e+001
1.116057e+003, 5.214461e+001
1.116539e+003, 5.214454e+001
1.117021e+003, 5.213261e+001
1.117504e+003, 5.211702e+001
1.117986e+003, 5.216738e+001
1.118468e+003, 5.236980e+001
1.118950e+003, 5.240528e+001
1.119432e+003, 5.203373e+001
1.119914e+003, 5.202391e+001
1.120396e+003, 5.297789e+001
1.120878e+003, 5.375702e+001
1.121360e+003, 5.321862e+001
1.121843e+003, 5.187885e+001
1.122325e+003, 5.130244e+001
1.122807e+003, 5.166767e+001
1.123289e+003, 5.160863e+001
1.123771e+003, 5.075531e+001
1.124253e+003, 5.092091e+001
1.124735e+003, 5.298946e+001
1.125217e+003, 5.458397e+001
1.125699e+003, 5.406909e+001
1.126182e+003, 5.245037e+001
1.126664e+003, 5.139736e+001
1.127146e+003, 5.088879e+001
1.127628e+003, 5.050512e+001
1.128110e+003, 5.021534e+001
1.128592e+003, 5.049680e+001
1.129074e+003, 5.154956e+001
1.129556e+003, 5.193405e+001
1.130039e+003, 5.082444e+001
1.130521e+003, 4.988750e+001
1.131003e+003, 5.127892e+001
1.131485e+003, 5.398608e+001
1.131967e+003, 5.413676e+001
1.132449e+003, 5.191219e+001
1.132931e+003, 5.050720e+001
1.133413e+003, 5.009577e+001
1.133896e+003, 5.025808e+001
1.134378e+003, 5.086226e+001
1.134860e+003, 5.123026e+001
1.135342e+003, 5.077954e+001
1.135824e+003, 5.007759e+001
1.136306e+003, 5.036354e+001
1.136788e+003, 5.125568e+001
1.137270e+003, 5.108527e+001
1.137752e+003, 5.010322e+001
1.138234e+003, 4.950883e+001
1.138717e+003, 4.956389e+001
1.139199e+003, 5.047087e+001
1.139681e+003, 5.234245e+001
1.140163e+003, 5.397352e+001
1.140645e+003, 5.391131e+001
1.141127e+003, 5.282411e+001
1.141609e+003, 5.160566e+001
1.142091e+003, 5.045929e+001
1.142574e+003, 4.991674e+001
1.143056e+003, 4.988997e+001
1.143538e+003, 4.979155e+001
1.144020e+003, 4.950618e+001
1.144502e+003, 4.980180e+001
1.144984e+003, 5.158794e+001
1.145466e+003, 5.329800e+001
1.145948e+003, 5.310303e+001
1.146431e+003, 5.203921e+001
1.146913e+003, 5.104804e+001
1.147395e+003, 5.036102e+001
1.147877e+003, 5.043934e+001
1.148359e+003, 5.110427e+001
1.148841e+003, 5.135928e+001
1.149323e+003, 5.071195e+001
1.149805e+003, 5.007022e+001
1.150287e+003, 5.001942e+001
1.150770e+003, 5.016364e+001
1.151252e+003, 5.023498e+001
1.151734e+003, 5.033378e+001
1.152216e+003, 5.066383e+001
1.152698e+003, 5.109692e+001
1.153180e+003, 5.136631e+001
1.153662e+003, 5.141487e+001
1.154144e+003, 5.120119e+001
1.154626e+003, 5.023095e+001
1.155109e+003, 4.967991e+001
1.155591e+003, 5.037471e+001
1.156073e+003, 5.112281e+001
1.156555e+003, 5.099481e+001
1.157037e+003, 5.060567e+001
1.157519e+003, 5.093952e+001
1.158001e+003, 5.188611e+001
1.158483e+003, 5.231383e+001
1.158966e+003, 5.210028e+001
1.159448e+003, 5.140849e+001
1.159930e+003, 4.896162e+001
1.160412e+003, 4.783202e+001
1.160894e+003, 5.011687e+001
1.161376e+003, 5.252877e+001
1.161858e+003, 5.245342e+001
1.162340e+003, 5.090676e+001
1.162822e+003, 5.010243e+001
1.163305e+003, 5.012932e+001
1.163787e+003, 4.991319e+001
1.164269e+003, 4.935711e+001
1.164751e+003, 4.880522e+001
1.165233e+003, 4.819501e+001
1.165715e+003, 4.794252e+001
1.166197e+003, 4.833408e+001
1.166679e+003, 4.893388e+001
1.167161e+003, 4.921528e+001
1.167644e+003, 4.928583e+001
1.168126e+003, 4.959942e+001
1.168608e+003, 5.016263e+001
1.169090e+003, 5.080868e+001
1.169572e+003, 5.153485e+001
1.170054e+003, 5.216082e+001
1.170536e+003, 5.264245e+001
1.171018e+003, 5.263819e+001
1.171500e+003, 5.185866e+001
1.171983e+003, 5.084277e+001
1.172465e+003, 5.056882e+001
1.172947e+003, 5.072281e+001
1.173429e+003, 4.998856e+001
1.173911e+003, 4.875005e+001
1.174393e+003, 4.851195e+001
1.174875e+003, 4.933529e+001
1.175357e+003, 5.053868e+001
1.175840e+003, 5.182288e+001
1.176322e+003, 5.291369e+001
1.176804e+003, 5.370314e+001
1.177286e+003, 5.393997e+001
1.177768e+003, 5.306734e+001
1.178250e+003, 5.162292e+001
1.178732e+003, 4.969910e+001
1.179214e+003, 4.811970e+001
1.179697e+003, 4.886743e+001
1.180179e+003, 5.158130e+001
1.180661e+003, 5.356940e+001
1.181143e+003, 5.369585e+001
1.181625e+003, 5.321438e+001
1.182107e+003, 5.237693e+001
1.182589e+003, 5.179219e+001
1.183071e+003, 5.197153e+001
1.183553e+003, 5.249561e+001
1.184036e+003, 5.338257e+001
1.184518e+003, 5.412073e+001
1.185000e+003, 5.352771e+001
1.185482e+003, 5.156566e+001
1.185964e+003, 5.056163e+001
1.186446e+003, 5.202188e+001
1.186928e+003, 5.288176e+001
1.187410e+003, 5.212238e+001
1.187892e+003, 5.130376e+001
1.188375e+003, 5.081728e+001
1.188857e+003, 5.080630e+001
1.189339e+003, 5.175834e+001
1.189821e+003, 5.317321e+001
1.190303e+003, 5.351465e+001
1.190785e+003, 5.253821e+001
1.191267e+003, 5.189077e+001
1.191749e+003, 5.144313e+001
1.192232e+003, 5.187613e+001
1.192714e+003, 5.389196e+001
1.193196e+003, 5.494731e+001
1.193678e+003, 5.353234e+001
1.194160e+003, 5.120631e+001
1.194642e+003, 4.974480e+001
1.195124e+003, 4.912569e+001
1.195606e+003, 4.946905e+001
1.196089e+003, 5.072602e+001
1.196571e+003, 5.161398e+001
1.197053e+003, 5.207841e+001
1.197535e+003, 5.232660e+001
1.198017e+003, 5.242252e+001
1.198499e+003, 5.260261e+001
1.198981e+003, 5.303430e+001
1.199463e+003, 5.330877e+001
1.199945e+003, 5.264476e+001
1.200427e+003, 5.162737e+001
1.200910e+003, 5.149129e+001
1.201392e+003, 5.189153e+001
1.201874e+003, 5.225214e+001
1.202356e+003, 5.239301e+001
1.202838e+003, 5.181511e+001
1.203320e+003, 5.057508e+001
1.203802e+003, 5.005288e+001
1.204284e+003, 5.141636e+001
1.204767e+003, 5.261209e+001
1.205249e+003, 5.157711e+001
1.205731e+003, 5.027425e+001
1.206213e+003, 5.062774e+001
1.206695e+003, 5.144942e+001
1.207177e+003, 5.084451e+001
1.207659e+003, 4.946456e+001
1.208141e+003, 4.962231e+001
1.208624e+003, 5.189597e+001
1.209106e+003, 5.338671e+001
1.209588e+003, 5.295235e+001
1.210070e+003, 5.233952e+001
1.210552e+003, 5.158207e+001
1.211034e+003, 5.111843e+001
1.211516e+003, 5.133317e+001
1.211998e+003, 5.180557e+001
1.212480e+003, 5.219874e+001
1.212963e+003, 5.248587e+001
1.213445e+003, 5.251803e+001
1.213927e+003, 5.216806e+001
1.214409e+003, 5.227295e+001
1.214891e+003, 5.304936e+001
1.215373e+003, 5.340978e+001
1.215855e+003, 5.312679e+001
1.216337e+003, 5.243456e+001
1.216819e+003, 5.135254e+001
1.217302e+003, 5.049384e+001
1.217784e+003, 5.067077e+001
1.218266e+003, 5.156717e+001
1.218748e+003, 5.235899e+001
1.219230e+003, 5.298669e+001
1.219712e+003, 5.311882e+001
1.220194e+003, 5.278294e+001
1.220676e+003, 5.196150e+001
1.221159e+003, 5.082943e+001
1.221641e+003, 5.053191e+001
1.222123e+003, 5.172326e+001
1.222605e+003, 5.296073e+001
1.223087e+003, 5.271650e+001
1.223569e+003, 5.182851e+001
1.224051e+003, 5.083702e+001
1.224533e+003, 5.010620e+001
1.225016e+003, 5.030048e+001
1.225498e+003, 5.106220e+001
1.225980e+003, 5.178262e+001
1.226462e+003, 5.227338e+001
1.226944e+003, 5.230787e+001
1.227426e+003, 5.155867e+001
1.227908e+003, 5.107885e+001
1.228390e+003, 5.164583e+001
1.228872e+003, 5.200736e+001
1.229354e+003, 5.132062e+001
1.229837e+003, 5.053628e+001
1.230319e+003, 5.050997e+001
1.230801e+003, 5.084680e+001
1.231283e+003, 5.072662e+001
1.231765e+003, 5.017716e+001
1.232247e+003, 5.018372e+001
1.232729e+003, 5.096187e+001
1.233211e+003, 5.169409e+001
1.233694e+003, 5.248491e+001
1.234176e+003, 5.261786e+001
1.234658e+003, 5.167110e+001
1.235140e+003, 5.100224e+001
1.235622e+003, 5.167210e+001
1.236104e+003, 5.286705e+001
1.236586e+003, 5.321664e+001
1.237068e+003, 5.288436e+001
1.237551e+003, 5.242991e+001
1.238033e+003, 5.192376e+001
1.238515e+003, 5.169112e+001
1.238997e+003, 5.172624e+001
1.239479e+003, 5.184704e+001
1.239961e+003, 5.198624e+001
1.240443e+003, 5.214280e+001
1.240925e+003, 5.234989e+001
1.241407e+003, 5.239268e+001
1.241890e+003, 5.167776e+001
1.242372e+003, 5.110383e+001
1.242854e+003, 5.181580e+001
1.243336e+003, 5.298355e+001
1.243818e+003, 5.378784e+001
1.244300e+003, 5.410730e+001
1.244782e+003, 5.371859e+001
1.245264e+003, 5.269172e+001
1.245746e+003, 5.224844e+001
1.246229e+003, 5.320365e+001
1.246711e+003, 5.383943e+001
1.247193e+003, 5.384351e+001
1.247675e+003, 5.350279e+001
1.248157e+003, 5.236843e+001
1.248639e+003, 5.161550e+001
1.249121e+003, 5.242704e+001
1.249603e+003, 5.377997e+001
1.250085e+003, 5.364104e+001
1.250568e+003, 5.216706e+001
1.251050e+003, 5.238977e+001
1.251532e+003, 5.459402e+001
1.252014e+003, 5.525038e+001
1.252496e+003, 5.404701e+001
1.252978e+003, 5.249629e+001
1.253460e+003, 5.105674e+001
1.253942e+003, 5.009440e+001
1.254425e+003, 4.988766e+001
1.254907e+003, 5.004604e+001
1.255389e+003, 5.005941e+001
1.255871e+003, 5.004781e+001
1.256353e+003, 5.009787e+001
1.256835e+003, 5.036840e+001
1.257317e+003, 5.143479e+001
1.257799e+003, 5.290050e+001
1.258281e+003, 5.377483e+001
1.258764e+003, 5.389730e+001
1.259246e+003, 5.379962e+001
1.259728e+003, 5.366293e+001
1.260210e+003, 5.349485e+001
1.260692e+003, 5.337257e+001
1.261174e+003, 5.312360e+001
1.261656e+003, 5.233020e+001
1.262138e+003, 5.171889e+001
1.262620e+003, 5.202101e+001
1.263103e+003, 5.276957e+001
1.263585e+003, 5.317367e+001
1.264067e+003, 5.328735e+001
1.264549e+003, 5.366199e+001
1.265031e+003, 5.465213e+001
1.265513e+003, 5.456921e+001
1.265995e+003, 5.307301e+001
1.266477e+003, 5.198223e+001
1.266960e+003, 5.170604e+001
1.267442e+003, 5.188784e+001
1.267924e+003, 5.235923e+001
1.268406e+003, 5.293087e+001
1.268888e+003, 5.341258e+001
1.269370e+003, 5.377475e+001
1.269852e+003, 5.391858e+001
1.270334e+003, 5.390712e+001
1.270817e+003, 5.386076e+001
1.271299e+003, 5.381129e+001
1.271781e+003, 5.398391e+001
1.272263e+003, 5.422523e+001
1.272745e+003, 5.368060e+001
1.273227e+003, 5.202118e+001
1.273709e+003, 5.088419e+001
1.274191e+003, 5.152024e+001
1.274673e+003, 5.253413e+001
1.275156e+003, 5.373054e+001
1.275638e+003, 5.450380e+001
1.276120e+003, 5.409530e+001
1.276602e+003, 5.333273e+001
1.277084e+003, 5.293064e+001
1.277566e+003, 5.302627e+001
1.278048e+003, 5.408873e+001
1.278530e+003, 5.638835e+001
1.279012e+003, 5.704255e+001
1.279495e+003, 5.553162e+001
1.279977e+003, 5.414953e+001
1.280459e+003, 5.302767e+001
1.280941e+003, 5.274314e+001
1.281423e+003, 5.358709e+001
1.281905e+003, 5.459586e+001
1.282387e+003, 5.502723e+001
1.282869e+003, 5.508941e+001
1.283352e+003, 5.508449e+001
1.283834e+003, 5.500007e+001
1.284316e+003, 5.480512e+001
1.284798e+003, 5.450208e+001
##END=



