##NAMES=Lileyite
##RRUFFID=R140773
##IDEAL CHEMISTRY=Ba_2_Ti^4+^_2_Na_2_Fe^2+^Mg(Si_2_O_7_)_2_O_2_F_2_
##LOCALITY=Graulay, Hillesheim, Eifel, Rhineland-Palatinate, Germany
##OWNER=RRUFF
##SOURCE=Ch. and H. Sch√§fer
##DESCRIPTION=Reddish brown prismatic crystals with fine striations, associated with pyroxene, schorlomite and leucite.
##STATUS=The identification of this mineral has been confirmed by single-crystal X-ray diffraction.
##URL=rruff.info/R140773
8.806445e+001, 2.327553e+003
8.854657e+001, 2.268074e+003
8.902869e+001, 2.247516e+003
8.951080e+001, 2.285145e+003
8.999292e+001, 2.352960e+003
9.047504e+001, 2.425381e+003
9.095715e+001, 2.497301e+003
9.143927e+001, 2.567907e+003
9.192139e+001, 2.637317e+003
9.240350e+001, 2.705738e+003
9.288562e+001, 2.770532e+003
9.336774e+001, 2.812528e+003
9.384985e+001, 2.813532e+003
9.433197e+001, 2.773507e+003
9.481409e+001, 2.729579e+003
9.529620e+001, 2.676483e+003
9.577832e+001, 2.625691e+003
9.626044e+001, 2.579009e+003
9.674255e+001, 2.535802e+003
9.722467e+001, 2.494349e+003
9.770679e+001, 2.453024e+003
9.818890e+001, 2.416089e+003
9.867102e+001, 2.383341e+003
9.915314e+001, 2.353875e+003
9.963525e+001, 2.326967e+003
1.001174e+002, 2.302158e+003
1.005995e+002, 2.279065e+003
1.010816e+002, 2.256524e+003
1.015637e+002, 2.231882e+003
1.020458e+002, 2.210176e+003
1.025280e+002, 2.191910e+003
1.030101e+002, 2.176336e+003
1.034922e+002, 2.162321e+003
1.039743e+002, 2.149171e+003
1.044564e+002, 2.136757e+003
1.049385e+002, 2.125873e+003
1.054207e+002, 2.116929e+003
1.059028e+002, 2.108409e+003
1.063849e+002, 2.099777e+003
1.068670e+002, 2.090877e+003
1.073491e+002, 2.081247e+003
1.078312e+002, 2.070067e+003
1.083134e+002, 2.057404e+003
1.087955e+002, 2.045570e+003
1.092776e+002, 2.035012e+003
1.097597e+002, 2.025361e+003
1.102418e+002, 2.015914e+003
1.107239e+002, 2.006238e+003
1.112061e+002, 1.997589e+003
1.116882e+002, 1.991425e+003
1.121703e+002, 1.987240e+003
1.126524e+002, 1.983401e+003
1.131345e+002, 1.978836e+003
1.136166e+002, 1.973594e+003
1.140988e+002, 1.968771e+003
1.145809e+002, 1.964799e+003
1.150630e+002, 1.961035e+003
1.155451e+002, 1.957265e+003
1.160272e+002, 1.953413e+003
1.165093e+002, 1.949425e+003
1.169915e+002, 1.944941e+003
1.174736e+002, 1.939117e+003
1.179557e+002, 1.935082e+003
1.184378e+002, 1.933858e+003
1.189199e+002, 1.933588e+003
1.194020e+002, 1.933036e+003
1.198842e+002, 1.931770e+003
1.203663e+002, 1.930143e+003
1.208484e+002, 1.928971e+003
1.213305e+002, 1.927862e+003
1.218126e+002, 1.927766e+003
1.222947e+002, 1.929067e+003
1.227769e+002, 1.931290e+003
1.232590e+002, 1.933888e+003
1.237411e+002, 1.936624e+003
1.242232e+002, 1.939484e+003
1.247053e+002, 1.942516e+003
1.251874e+002, 1.945207e+003
1.256696e+002, 1.948523e+003
1.261517e+002, 1.952777e+003
1.266338e+002, 1.957945e+003
1.271159e+002, 1.964145e+003
1.275980e+002, 1.971937e+003
1.280801e+002, 1.980727e+003
1.285623e+002, 1.988447e+003
1.290444e+002, 1.993990e+003
1.295265e+002, 1.999168e+003
1.300086e+002, 2.005943e+003
1.304907e+002, 2.014566e+003
1.309728e+002, 2.023488e+003
1.314550e+002, 2.033238e+003
1.319371e+002, 2.042499e+003
1.324192e+002, 2.049056e+003
1.329013e+002, 2.052266e+003
1.333834e+002, 2.052119e+003
1.338655e+002, 2.048544e+003
1.343477e+002, 2.041314e+003
1.348298e+002, 2.030292e+003
1.353119e+002, 2.015368e+003
1.357940e+002, 1.997307e+003
1.362761e+002, 1.977357e+003
1.367582e+002, 1.955854e+003
1.372404e+002, 1.932849e+003
1.377225e+002, 1.911313e+003
1.382046e+002, 1.892246e+003
1.386867e+002, 1.874052e+003
1.391688e+002, 1.856156e+003
1.396509e+002, 1.838690e+003
1.401331e+002, 1.822161e+003
1.406152e+002, 1.806875e+003
1.410973e+002, 1.792953e+003
1.415794e+002, 1.780557e+003
1.420615e+002, 1.769472e+003
1.425436e+002, 1.759670e+003
1.430258e+002, 1.751304e+003
1.435079e+002, 1.744336e+003
1.439900e+002, 1.738258e+003
1.444721e+002, 1.732464e+003
1.449542e+002, 1.727096e+003
1.454363e+002, 1.721628e+003
1.459185e+002, 1.715505e+003
1.464006e+002, 1.709432e+003
1.468827e+002, 1.704299e+003
1.473648e+002, 1.700417e+003
1.478469e+002, 1.697201e+003
1.483290e+002, 1.693621e+003
1.488112e+002, 1.689539e+003
1.492933e+002, 1.685942e+003
1.497754e+002, 1.683138e+003
1.502575e+002, 1.681084e+003
1.507396e+002, 1.679859e+003
1.512217e+002, 1.680309e+003
1.517039e+002, 1.680586e+003
1.521860e+002, 1.678292e+003
1.526681e+002, 1.673119e+003
1.531502e+002, 1.667794e+003
1.536323e+002, 1.664264e+003
1.541144e+002, 1.662580e+003
1.545966e+002, 1.661764e+003
1.550787e+002, 1.662678e+003
1.555608e+002, 1.663723e+003
1.560429e+002, 1.663496e+003
1.565250e+002, 1.661671e+003
1.570071e+002, 1.659668e+003
1.574893e+002, 1.659642e+003
1.579714e+002, 1.662429e+003
1.584535e+002, 1.664990e+003
1.589356e+002, 1.666579e+003
1.594177e+002, 1.667866e+003
1.598998e+002, 1.669333e+003
1.603820e+002, 1.671153e+003
1.608641e+002, 1.673209e+003
1.613462e+002, 1.675227e+003
1.618283e+002, 1.677234e+003
1.623104e+002, 1.679136e+003
1.627925e+002, 1.681219e+003
1.632747e+002, 1.683101e+003
1.637568e+002, 1.684231e+003
1.642389e+002, 1.684306e+003
1.647210e+002, 1.683704e+003
1.652031e+002, 1.684003e+003
1.656852e+002, 1.687885e+003
1.661674e+002, 1.689671e+003
1.666495e+002, 1.687552e+003
1.671316e+002, 1.682784e+003
1.676137e+002, 1.677467e+003
1.680958e+002, 1.672705e+003
1.685779e+002, 1.668442e+003
1.690601e+002, 1.664207e+003
1.695422e+002, 1.660446e+003
1.700243e+002, 1.656291e+003
1.705064e+002, 1.650599e+003
1.709885e+002, 1.643919e+003
1.714706e+002, 1.638401e+003
1.719528e+002, 1.635583e+003
1.724349e+002, 1.635121e+003
1.729170e+002, 1.634511e+003
1.733991e+002, 1.633950e+003
1.738812e+002, 1.633078e+003
1.743633e+002, 1.631474e+003
1.748455e+002, 1.629115e+003
1.753276e+002, 1.626664e+003
1.758097e+002, 1.624304e+003
1.762918e+002, 1.622178e+003
1.767739e+002, 1.620615e+003
1.772560e+002, 1.620151e+003
1.777382e+002, 1.619961e+003
1.782203e+002, 1.618710e+003
1.787024e+002, 1.616021e+003
1.791845e+002, 1.613559e+003
1.796666e+002, 1.612432e+003
1.801487e+002, 1.612008e+003
1.806309e+002, 1.611561e+003
1.811130e+002, 1.610857e+003
1.815951e+002, 1.609888e+003
1.820772e+002, 1.608494e+003
1.825593e+002, 1.606081e+003
1.830414e+002, 1.604282e+003
1.835236e+002, 1.603642e+003
1.840057e+002, 1.603851e+003
1.844878e+002, 1.604611e+003
1.849699e+002, 1.605971e+003
1.854520e+002, 1.607674e+003
1.859341e+002, 1.608051e+003
1.864163e+002, 1.605567e+003
1.868984e+002, 1.603362e+003
1.873805e+002, 1.602271e+003
1.878626e+002, 1.601947e+003
1.883447e+002, 1.601689e+003
1.888268e+002, 1.600947e+003
1.893090e+002, 1.599761e+003
1.897911e+002, 1.599433e+003
1.902732e+002, 1.601594e+003
1.907553e+002, 1.602977e+003
1.912374e+002, 1.601906e+003
1.917195e+002, 1.599273e+003
1.922017e+002, 1.597219e+003
1.926838e+002, 1.597498e+003
1.931659e+002, 1.600260e+003
1.936480e+002, 1.601776e+003
1.941301e+002, 1.601195e+003
1.946122e+002, 1.600500e+003
1.950944e+002, 1.600284e+003
1.955765e+002, 1.600644e+003
1.960586e+002, 1.601619e+003
1.965407e+002, 1.603291e+003
1.970228e+002, 1.605708e+003
1.975049e+002, 1.608250e+003
1.979871e+002, 1.611391e+003
1.984692e+002, 1.614255e+003
1.989513e+002, 1.616006e+003
1.994334e+002, 1.616721e+003
1.999155e+002, 1.617493e+003
2.003976e+002, 1.619246e+003
2.008798e+002, 1.621948e+003
2.013619e+002, 1.624455e+003
2.018440e+002, 1.626479e+003
2.023261e+002, 1.628451e+003
2.028082e+002, 1.630803e+003
2.032903e+002, 1.633563e+003
2.037725e+002, 1.636398e+003
2.042546e+002, 1.639335e+003
2.047367e+002, 1.642137e+003
2.052188e+002, 1.644043e+003
2.057009e+002, 1.643919e+003
2.061830e+002, 1.643259e+003
2.066652e+002, 1.644297e+003
2.071473e+002, 1.647477e+003
2.076294e+002, 1.650726e+003
2.081115e+002, 1.652114e+003
2.085936e+002, 1.652673e+003
2.090757e+002, 1.654078e+003
2.095579e+002, 1.657499e+003
2.100400e+002, 1.661905e+003
2.105221e+002, 1.665172e+003
2.110042e+002, 1.666866e+003
2.114863e+002, 1.668354e+003
2.119685e+002, 1.670559e+003
2.124506e+002, 1.672982e+003
2.129327e+002, 1.674870e+003
2.134148e+002, 1.675835e+003
2.138969e+002, 1.676042e+003
2.143790e+002, 1.675921e+003
2.148612e+002, 1.675157e+003
2.153433e+002, 1.674593e+003
2.158254e+002, 1.674603e+003
2.163075e+002, 1.674947e+003
2.167896e+002, 1.675326e+003
2.172717e+002, 1.675615e+003
2.177539e+002, 1.675786e+003
2.182360e+002, 1.675671e+003
2.187181e+002, 1.674930e+003
2.192002e+002, 1.674354e+003
2.196823e+002, 1.674583e+003
2.201644e+002, 1.674999e+003
2.206466e+002, 1.674666e+003
2.211287e+002, 1.672957e+003
2.216108e+002, 1.670158e+003
2.220929e+002, 1.667918e+003
2.225750e+002, 1.666896e+003
2.230571e+002, 1.665747e+003
2.235393e+002, 1.664234e+003
2.240214e+002, 1.662470e+003
2.245035e+002, 1.660618e+003
2.249856e+002, 1.658781e+003
2.254677e+002, 1.656960e+003
2.259498e+002, 1.655197e+003
2.264320e+002, 1.653545e+003
2.269141e+002, 1.651898e+003
2.273962e+002, 1.650057e+003
2.278783e+002, 1.648240e+003
2.283604e+002, 1.646853e+003
2.288425e+002, 1.646184e+003
2.293247e+002, 1.646021e+003
2.298068e+002, 1.645107e+003
2.302889e+002, 1.642361e+003
2.307710e+002, 1.640143e+003
2.312531e+002, 1.639310e+003
2.317352e+002, 1.639299e+003
2.322174e+002, 1.639091e+003
2.326995e+002, 1.638123e+003
2.331816e+002, 1.636581e+003
2.336637e+002, 1.635304e+003
2.341458e+002, 1.634299e+003
2.346279e+002, 1.633471e+003
2.351101e+002, 1.632879e+003
2.355922e+002, 1.632443e+003
2.360743e+002, 1.631924e+003
2.365564e+002, 1.631129e+003
2.370385e+002, 1.630319e+003
2.375206e+002, 1.630492e+003
2.380028e+002, 1.632588e+003
2.384849e+002, 1.634022e+003
2.389670e+002, 1.633355e+003
2.394491e+002, 1.631379e+003
2.399312e+002, 1.629897e+003
2.404133e+002, 1.629755e+003
2.408955e+002, 1.630439e+003
2.413776e+002, 1.630824e+003
2.418597e+002, 1.630920e+003
2.423418e+002, 1.630797e+003
2.428239e+002, 1.629977e+003
2.433060e+002, 1.628900e+003
2.437882e+002, 1.628983e+003
2.442703e+002, 1.631199e+003
2.447524e+002, 1.634116e+003
2.452345e+002, 1.635318e+003
2.457166e+002, 1.634573e+003
2.461987e+002, 1.633610e+003
2.466809e+002, 1.633222e+003
2.471630e+002, 1.633276e+003
2.476451e+002, 1.633348e+003
2.481272e+002, 1.633323e+003
2.486093e+002, 1.633272e+003
2.490914e+002, 1.633347e+003
2.495736e+002, 1.633558e+003
2.500557e+002, 1.633594e+003
2.505378e+002, 1.633083e+003
2.510199e+002, 1.632198e+003
2.515020e+002, 1.631631e+003
2.519841e+002, 1.631470e+003
2.524663e+002, 1.631764e+003
2.529484e+002, 1.632567e+003
2.534305e+002, 1.633835e+003
2.539126e+002, 1.635245e+003
2.543947e+002, 1.636973e+003
2.548768e+002, 1.638803e+003
2.553590e+002, 1.639531e+003
2.558411e+002, 1.638262e+003
2.563232e+002, 1.636924e+003
2.568053e+002, 1.637082e+003
2.572874e+002, 1.638368e+003
2.577695e+002, 1.639457e+003
2.582516e+002, 1.639095e+003
2.587338e+002, 1.637688e+003
2.592159e+002, 1.637622e+003
2.596980e+002, 1.640181e+003
2.601801e+002, 1.642293e+003
2.606622e+002, 1.641994e+003
2.611443e+002, 1.640073e+003
2.616265e+002, 1.638230e+003
2.621086e+002, 1.637106e+003
2.625907e+002, 1.636849e+003
2.630728e+002, 1.638420e+003
2.635549e+002, 1.643377e+003
2.640370e+002, 1.647788e+003
2.645192e+002, 1.649574e+003
2.650013e+002, 1.649889e+003
2.654834e+002, 1.650637e+003
2.659655e+002, 1.652968e+003
2.664476e+002, 1.656407e+003
2.669297e+002, 1.659379e+003
2.674119e+002, 1.662070e+003
2.678940e+002, 1.663865e+003
2.683761e+002, 1.664217e+003
2.688582e+002, 1.663857e+003
2.693403e+002, 1.663615e+003
2.698224e+002, 1.663856e+003
2.703046e+002, 1.664563e+003
2.707867e+002, 1.665649e+003
2.712688e+002, 1.666913e+003
2.717509e+002, 1.669028e+003
2.722330e+002, 1.672836e+003
2.727151e+002, 1.677091e+003
2.731973e+002, 1.680395e+003
2.736794e+002, 1.682160e+003
2.741615e+002, 1.683290e+003
2.746436e+002, 1.685877e+003
2.751257e+002, 1.691184e+003
2.756078e+002, 1.695444e+003
2.760900e+002, 1.697260e+003
2.765721e+002, 1.698539e+003
2.770542e+002, 1.700927e+003
2.775363e+002, 1.704877e+003
2.780184e+002, 1.709506e+003
2.785005e+002, 1.713449e+003
2.789827e+002, 1.716921e+003
2.794648e+002, 1.719082e+003
2.799469e+002, 1.718755e+003
2.804290e+002, 1.718147e+003
2.809111e+002, 1.718930e+003
2.813932e+002, 1.721292e+003
2.818754e+002, 1.724031e+003
2.823575e+002, 1.725472e+003
2.828396e+002, 1.724908e+003
2.833217e+002, 1.725103e+003
2.838038e+002, 1.726285e+003
2.842859e+002, 1.727930e+003
2.847681e+002, 1.730331e+003
2.852502e+002, 1.733138e+003
2.857323e+002, 1.735223e+003
2.862144e+002, 1.735242e+003
2.866965e+002, 1.732698e+003
2.871786e+002, 1.730934e+003
2.876608e+002, 1.730493e+003
2.881429e+002, 1.730238e+003
2.886250e+002, 1.729887e+003
2.891071e+002, 1.729350e+003
2.895892e+002, 1.728519e+003
2.900714e+002, 1.727224e+003
2.905535e+002, 1.725457e+003
2.910356e+002, 1.724361e+003
2.915177e+002, 1.724407e+003
2.919998e+002, 1.724641e+003
2.924819e+002, 1.725021e+003
2.929641e+002, 1.725393e+003
2.934462e+002, 1.725466e+003
2.939283e+002, 1.725002e+003
2.944104e+002, 1.724152e+003
2.948925e+002, 1.723947e+003
2.953746e+002, 1.725446e+003
2.958568e+002, 1.726421e+003
2.963389e+002, 1.725993e+003
2.968210e+002, 1.724999e+003
2.973031e+002, 1.724621e+003
2.977852e+002, 1.725433e+003
2.982673e+002, 1.727063e+003
2.987495e+002, 1.728402e+003
2.992316e+002, 1.728977e+003
2.997137e+002, 1.729840e+003
3.001958e+002, 1.731203e+003
3.006779e+002, 1.732782e+003
3.011600e+002, 1.734197e+003
3.016422e+002, 1.735347e+003
3.021243e+002, 1.736570e+003
3.026064e+002, 1.738568e+003
3.030885e+002, 1.742626e+003
3.035706e+002, 1.745075e+003
3.040527e+002, 1.744376e+003
3.045349e+002, 1.743231e+003
3.050170e+002, 1.743952e+003
3.054991e+002, 1.746784e+003
3.059812e+002, 1.750052e+003
3.064633e+002, 1.751640e+003
3.069454e+002, 1.750860e+003
3.074276e+002, 1.750769e+003
3.079097e+002, 1.751593e+003
3.083918e+002, 1.752794e+003
3.088739e+002, 1.754495e+003
3.093560e+002, 1.756429e+003
3.098381e+002, 1.757810e+003
3.103203e+002, 1.757866e+003
3.108024e+002, 1.756483e+003
3.112845e+002, 1.755675e+003
3.117666e+002, 1.755794e+003
3.122487e+002, 1.756043e+003
3.127308e+002, 1.756267e+003
3.132130e+002, 1.756402e+003
3.136951e+002, 1.756343e+003
3.141772e+002, 1.755995e+003
3.146593e+002, 1.755426e+003
3.151414e+002, 1.755147e+003
3.156235e+002, 1.756303e+003
3.161057e+002, 1.756395e+003
3.165878e+002, 1.754264e+003
3.170699e+002, 1.751023e+003
3.175520e+002, 1.748108e+003
3.180341e+002, 1.746169e+003
3.185162e+002, 1.744960e+003
3.189984e+002, 1.743892e+003
3.194805e+002, 1.743125e+003
3.199626e+002, 1.742305e+003
3.204447e+002, 1.741635e+003
3.209268e+002, 1.740808e+003
3.214089e+002, 1.739414e+003
3.218911e+002, 1.737393e+003
3.223732e+002, 1.735191e+003
3.228553e+002, 1.733415e+003
3.233374e+002, 1.732077e+003
3.238195e+002, 1.731277e+003
3.243016e+002, 1.731528e+003
3.247838e+002, 1.731848e+003
3.252659e+002, 1.731603e+003
3.257480e+002, 1.730776e+003
3.262301e+002, 1.729712e+003
3.267122e+002, 1.728676e+003
3.271943e+002, 1.727590e+003
3.276765e+002, 1.727191e+003
3.281586e+002, 1.727949e+003
3.286407e+002, 1.728797e+003
3.291228e+002, 1.729415e+003
3.296049e+002, 1.729793e+003
3.300870e+002, 1.729939e+003
3.305692e+002, 1.729798e+003
3.310513e+002, 1.729485e+003
3.315334e+002, 1.729886e+003
3.320155e+002, 1.731212e+003
3.324976e+002, 1.733096e+003
3.329797e+002, 1.736552e+003
3.334619e+002, 1.740221e+003
3.339440e+002, 1.742200e+003
3.344261e+002, 1.741640e+003
3.349082e+002, 1.739597e+003
3.353904e+002, 1.738574e+003
3.358725e+002, 1.739401e+003
3.363546e+002, 1.740065e+003
3.368367e+002, 1.740443e+003
3.373188e+002, 1.740696e+003
3.378009e+002, 1.740905e+003
3.382831e+002, 1.741114e+003
3.387652e+002, 1.741414e+003
3.392473e+002, 1.742026e+003
3.397294e+002, 1.743350e+003
3.402115e+002, 1.743691e+003
3.406936e+002, 1.742016e+003
3.411758e+002, 1.740394e+003
3.416579e+002, 1.739883e+003
3.421400e+002, 1.740379e+003
3.426221e+002, 1.741177e+003
3.431042e+002, 1.741693e+003
3.435863e+002, 1.741919e+003
3.440685e+002, 1.742201e+003
3.445506e+002, 1.742581e+003
3.450327e+002, 1.742954e+003
3.455148e+002, 1.743464e+003
3.459969e+002, 1.743914e+003
3.464790e+002, 1.743914e+003
3.469612e+002, 1.743198e+003
3.474433e+002, 1.742109e+003
3.479254e+002, 1.741755e+003
3.484075e+002, 1.742565e+003
3.488896e+002, 1.743473e+003
3.493717e+002, 1.744616e+003
3.498539e+002, 1.745610e+003
3.503360e+002, 1.746064e+003
3.508181e+002, 1.745877e+003
3.513002e+002, 1.745362e+003
3.517823e+002, 1.744745e+003
3.522644e+002, 1.743575e+003
3.527466e+002, 1.743842e+003
3.532287e+002, 1.747456e+003
3.537108e+002, 1.751043e+003
3.541929e+002, 1.752622e+003
3.546750e+002, 1.752364e+003
3.551571e+002, 1.751867e+003
3.556393e+002, 1.752505e+003
3.561214e+002, 1.754279e+003
3.566035e+002, 1.756207e+003
3.570856e+002, 1.758554e+003
3.575677e+002, 1.760731e+003
3.580498e+002, 1.762319e+003
3.585320e+002, 1.763632e+003
3.590141e+002, 1.765175e+003
3.594962e+002, 1.767154e+003
3.599783e+002, 1.769608e+003
3.604604e+002, 1.772796e+003
3.609425e+002, 1.777296e+003
3.614247e+002, 1.781167e+003
3.619068e+002, 1.782700e+003
3.623889e+002, 1.783971e+003
3.628710e+002, 1.787174e+003
3.633531e+002, 1.792956e+003
3.638352e+002, 1.799292e+003
3.643174e+002, 1.803379e+003
3.647995e+002, 1.804874e+003
3.652816e+002, 1.807759e+003
3.657637e+002, 1.814446e+003
3.662458e+002, 1.821188e+003
3.667279e+002, 1.825426e+003
3.672101e+002, 1.827326e+003
3.676922e+002, 1.828725e+003
3.681743e+002, 1.831265e+003
3.686564e+002, 1.834469e+003
3.691385e+002, 1.836031e+003
3.696206e+002, 1.835414e+003
3.701028e+002, 1.834006e+003
3.705849e+002, 1.832686e+003
3.710670e+002, 1.831223e+003
3.715491e+002, 1.829162e+003
3.720312e+002, 1.826184e+003
3.725133e+002, 1.822667e+003
3.729955e+002, 1.819446e+003
3.734776e+002, 1.816702e+003
3.739597e+002, 1.812492e+003
3.744418e+002, 1.805155e+003
3.749239e+002, 1.796283e+003
3.754060e+002, 1.787769e+003
3.758882e+002, 1.779668e+003
3.763703e+002, 1.772319e+003
3.768524e+002, 1.766193e+003
3.773345e+002, 1.761063e+003
3.778166e+002, 1.755926e+003
3.782987e+002, 1.750509e+003
3.787809e+002, 1.745120e+003
3.792630e+002, 1.739998e+003
3.797451e+002, 1.735113e+003
3.802272e+002, 1.730713e+003
3.807093e+002, 1.726736e+003
3.811914e+002, 1.723371e+003
3.816736e+002, 1.720923e+003
3.821557e+002, 1.719440e+003
3.826378e+002, 1.718646e+003
3.831199e+002, 1.718614e+003
3.836020e+002, 1.719170e+003
3.840841e+002, 1.719416e+003
3.845663e+002, 1.718695e+003
3.850484e+002, 1.718301e+003
3.855305e+002, 1.719034e+003
3.860126e+002, 1.720713e+003
3.864947e+002, 1.722672e+003
3.869768e+002, 1.724506e+003
3.874590e+002, 1.726721e+003
3.879411e+002, 1.730683e+003
3.884232e+002, 1.736949e+003
3.889053e+002, 1.742867e+003
3.893874e+002, 1.747501e+003
3.898695e+002, 1.751710e+003
3.903517e+002, 1.756624e+003
3.908338e+002, 1.762448e+003
3.913159e+002, 1.768290e+003
3.917980e+002, 1.773390e+003
3.922801e+002, 1.777711e+003
3.927622e+002, 1.780940e+003
3.932444e+002, 1.782980e+003
3.937265e+002, 1.784141e+003
3.942086e+002, 1.784329e+003
3.946907e+002, 1.783755e+003
3.951728e+002, 1.782988e+003
3.956549e+002, 1.782439e+003
3.961371e+002, 1.781767e+003
3.966192e+002, 1.779604e+003
3.971013e+002, 1.774136e+003
3.975834e+002, 1.769397e+003
3.980655e+002, 1.766165e+003
3.985476e+002, 1.763557e+003
3.990298e+002, 1.760642e+003
3.995119e+002, 1.757203e+003
3.999940e+002, 1.753697e+003
4.004761e+002, 1.750699e+003
4.009582e+002, 1.748176e+003
4.014403e+002, 1.746352e+003
4.019225e+002, 1.745356e+003
4.024046e+002, 1.744835e+003
4.028867e+002, 1.745148e+003
4.033688e+002, 1.745829e+003
4.038509e+002, 1.745776e+003
4.043330e+002, 1.744064e+003
4.048152e+002, 1.741132e+003
4.052973e+002, 1.739538e+003
4.057794e+002, 1.740130e+003
4.062615e+002, 1.740855e+003
4.067436e+002, 1.741775e+003
4.072257e+002, 1.742399e+003
4.077079e+002, 1.742077e+003
4.081900e+002, 1.740636e+003
4.086721e+002, 1.738792e+003
4.091542e+002, 1.737537e+003
4.096363e+002, 1.736972e+003
4.101184e+002, 1.736366e+003
4.106006e+002, 1.735440e+003
4.110827e+002, 1.734662e+003
4.115648e+002, 1.734778e+003
4.120469e+002, 1.735369e+003
4.125290e+002, 1.735034e+003
4.130111e+002, 1.732492e+003
4.134933e+002, 1.728411e+003
4.139754e+002, 1.724915e+003
4.144575e+002, 1.722150e+003
4.149396e+002, 1.719618e+003
4.154217e+002, 1.717075e+003
4.159038e+002, 1.714646e+003
4.163860e+002, 1.712550e+003
4.168681e+002, 1.710908e+003
4.173502e+002, 1.709351e+003
4.178323e+002, 1.707654e+003
4.183144e+002, 1.705787e+003
4.187965e+002, 1.703606e+003
4.192787e+002, 1.701094e+003
4.197608e+002, 1.698178e+003
4.202429e+002, 1.694439e+003
4.207250e+002, 1.689976e+003
4.212071e+002, 1.686231e+003
4.216892e+002, 1.683862e+003
4.221714e+002, 1.682389e+003
4.226535e+002, 1.681484e+003
4.231356e+002, 1.681122e+003
4.236177e+002, 1.680401e+003
4.240998e+002, 1.678662e+003
4.245819e+002, 1.676052e+003
4.250641e+002, 1.673432e+003
4.255462e+002, 1.670246e+003
4.260283e+002, 1.667746e+003
4.265104e+002, 1.667123e+003
4.269925e+002, 1.667488e+003
4.274746e+002, 1.667007e+003
4.279568e+002, 1.665012e+003
4.284389e+002, 1.662441e+003
4.289210e+002, 1.660701e+003
4.294031e+002, 1.660196e+003
4.298852e+002, 1.659461e+003
4.303673e+002, 1.658138e+003
4.308495e+002, 1.656868e+003
4.313316e+002, 1.656451e+003
4.318137e+002, 1.656611e+003
4.322958e+002, 1.655968e+003
4.327779e+002, 1.653271e+003
4.332600e+002, 1.649031e+003
4.337422e+002, 1.647495e+003
4.342243e+002, 1.651801e+003
4.347064e+002, 1.655140e+003
4.351885e+002, 1.655957e+003
4.356706e+002, 1.655730e+003
4.361527e+002, 1.656003e+003
4.366349e+002, 1.657259e+003
4.371170e+002, 1.659057e+003
4.375991e+002, 1.660761e+003
4.380812e+002, 1.662217e+003
4.385633e+002, 1.664115e+003
4.390454e+002, 1.667293e+003
4.395276e+002, 1.670102e+003
4.400097e+002, 1.671838e+003
4.404918e+002, 1.672667e+003
4.409739e+002, 1.673029e+003
4.414560e+002, 1.673036e+003
4.419381e+002, 1.672955e+003
4.424203e+002, 1.673568e+003
4.429024e+002, 1.674985e+003
4.433845e+002, 1.676832e+003
4.438666e+002, 1.679233e+003
4.443487e+002, 1.681889e+003
4.448308e+002, 1.684776e+003
4.453130e+002, 1.687882e+003
4.457951e+002, 1.690607e+003
4.462772e+002, 1.692101e+003
4.467593e+002, 1.692670e+003
4.472414e+002, 1.693960e+003
4.477235e+002, 1.696412e+003
4.482057e+002, 1.699051e+003
4.486878e+002, 1.701321e+003
4.491699e+002, 1.703228e+003
4.496520e+002, 1.704658e+003
4.501341e+002, 1.705764e+003
4.506162e+002, 1.706218e+003
4.510984e+002, 1.705167e+003
4.515805e+002, 1.702918e+003
4.520626e+002, 1.701562e+003
4.525447e+002, 1.702259e+003
4.530268e+002, 1.703829e+003
4.535089e+002, 1.703924e+003
4.539911e+002, 1.702313e+003
4.544732e+002, 1.700798e+003
4.549553e+002, 1.699768e+003
4.554374e+002, 1.699026e+003
4.559195e+002, 1.698523e+003
4.564016e+002, 1.698184e+003
4.568838e+002, 1.697598e+003
4.573659e+002, 1.696366e+003
4.578480e+002, 1.694539e+003
4.583301e+002, 1.693099e+003
4.588122e+002, 1.692444e+003
4.592943e+002, 1.691631e+003
4.597765e+002, 1.690522e+003
4.602586e+002, 1.689088e+003
4.607407e+002, 1.687130e+003
4.612228e+002, 1.684639e+003
4.617049e+002, 1.682116e+003
4.621870e+002, 1.680271e+003
4.626692e+002, 1.679166e+003
4.631513e+002, 1.678635e+003
4.636334e+002, 1.678589e+003
4.641155e+002, 1.679181e+003
4.645976e+002, 1.681134e+003
4.650797e+002, 1.683776e+003
4.655619e+002, 1.685729e+003
4.660440e+002, 1.686114e+003
4.665261e+002, 1.685371e+003
4.670082e+002, 1.684508e+003
4.674903e+002, 1.683138e+003
4.679724e+002, 1.682701e+003
4.684546e+002, 1.684649e+003
4.689367e+002, 1.686918e+003
4.694188e+002, 1.687883e+003
4.699009e+002, 1.687433e+003
4.703830e+002, 1.686829e+003
4.708651e+002, 1.687052e+003
4.713473e+002, 1.687889e+003
4.718294e+002, 1.688539e+003
4.723115e+002, 1.688838e+003
4.727936e+002, 1.689284e+003
4.732757e+002, 1.690574e+003
4.737578e+002, 1.692145e+003
4.742400e+002, 1.692856e+003
4.747221e+002, 1.692032e+003
4.752042e+002, 1.691136e+003
4.756863e+002, 1.691307e+003
4.761684e+002, 1.692210e+003
4.766505e+002, 1.692723e+003
4.771327e+002, 1.692389e+003
4.776148e+002, 1.692212e+003
4.780969e+002, 1.693816e+003
4.785790e+002, 1.697634e+003
4.790611e+002, 1.699865e+003
4.795432e+002, 1.698911e+003
4.800254e+002, 1.697568e+003
4.805075e+002, 1.697612e+003
4.809896e+002, 1.698814e+003
4.814717e+002, 1.700170e+003
4.819538e+002, 1.701152e+003
4.824359e+002, 1.701860e+003
4.829181e+002, 1.702548e+003
4.834002e+002, 1.702636e+003
4.838823e+002, 1.703625e+003
4.843644e+002, 1.706621e+003
4.848465e+002, 1.709657e+003
4.853286e+002, 1.711124e+003
4.858108e+002, 1.711090e+003
4.862929e+002, 1.710758e+003
4.867750e+002, 1.711073e+003
4.872571e+002, 1.712004e+003
4.877392e+002, 1.713434e+003
4.882213e+002, 1.716160e+003
4.887035e+002, 1.718011e+003
4.891856e+002, 1.718076e+003
4.896677e+002, 1.717274e+003
4.901498e+002, 1.716428e+003
4.906319e+002, 1.715734e+003
4.911140e+002, 1.715231e+003
4.915962e+002, 1.714829e+003
4.920783e+002, 1.714587e+003
4.925604e+002, 1.715115e+003
4.930425e+002, 1.716814e+003
4.935246e+002, 1.718623e+003
4.940067e+002, 1.720164e+003
4.944889e+002, 1.721245e+003
4.949710e+002, 1.721221e+003
4.954531e+002, 1.719197e+003
4.959352e+002, 1.716908e+003
4.964173e+002, 1.715913e+003
4.968994e+002, 1.715864e+003
4.973816e+002, 1.715363e+003
4.978637e+002, 1.713841e+003
4.983458e+002, 1.712067e+003
4.988279e+002, 1.711222e+003
4.993100e+002, 1.711563e+003
4.997921e+002, 1.711564e+003
5.002743e+002, 1.710248e+003
5.007564e+002, 1.709330e+003
5.012385e+002, 1.710565e+003
5.017206e+002, 1.713252e+003
5.022027e+002, 1.715189e+003
5.026848e+002, 1.715099e+003
5.031670e+002, 1.713577e+003
5.036491e+002, 1.712314e+003
5.041312e+002, 1.710841e+003
5.046133e+002, 1.710471e+003
5.050954e+002, 1.712375e+003
5.055775e+002, 1.714385e+003
5.060597e+002, 1.714702e+003
5.065418e+002, 1.713575e+003
5.070239e+002, 1.712744e+003
5.075060e+002, 1.713749e+003
5.079881e+002, 1.716095e+003
5.084702e+002, 1.717385e+003
5.089524e+002, 1.717307e+003
5.094345e+002, 1.716877e+003
5.099166e+002, 1.715419e+003
5.103987e+002, 1.714353e+003
5.108808e+002, 1.715563e+003
5.113629e+002, 1.719356e+003
5.118451e+002, 1.722740e+003
5.123271e+002, 1.722987e+003
5.128093e+002, 1.721123e+003
5.132914e+002, 1.719972e+003
5.137735e+002, 1.719820e+003
5.142556e+002, 1.720245e+003
5.147377e+002, 1.721150e+003
5.152198e+002, 1.722413e+003
5.157020e+002, 1.723581e+003
5.161841e+002, 1.724656e+003
5.166662e+002, 1.725600e+003
5.171483e+002, 1.726296e+003
5.176304e+002, 1.726868e+003
5.181125e+002, 1.727548e+003
5.185947e+002, 1.728388e+003
5.190768e+002, 1.729243e+003
5.195589e+002, 1.730044e+003
5.200410e+002, 1.730874e+003
5.205231e+002, 1.730792e+003
5.210052e+002, 1.727866e+003
5.214874e+002, 1.726338e+003
5.219695e+002, 1.728560e+003
5.224516e+002, 1.732666e+003
5.229337e+002, 1.736075e+003
5.234158e+002, 1.737833e+003
5.238979e+002, 1.738540e+003
5.243801e+002, 1.738935e+003
5.248622e+002, 1.738901e+003
5.253443e+002, 1.739208e+003
5.258264e+002, 1.740109e+003
5.263085e+002, 1.741133e+003
5.267906e+002, 1.742096e+003
5.272728e+002, 1.743026e+003
5.277549e+002, 1.744043e+003
5.282370e+002, 1.745307e+003
5.287191e+002, 1.746425e+003
5.292012e+002, 1.746545e+003
5.296833e+002, 1.745780e+003
5.301655e+002, 1.746037e+003
5.306476e+002, 1.748287e+003
5.311297e+002, 1.750866e+003
5.316118e+002, 1.751834e+003
5.320939e+002, 1.751409e+003
5.325760e+002, 1.750810e+003
5.330582e+002, 1.749531e+003
5.335403e+002, 1.748799e+003
5.340224e+002, 1.750326e+003
5.345045e+002, 1.753277e+003
5.349866e+002, 1.754946e+003
5.354688e+002, 1.754063e+003
5.359509e+002, 1.751881e+003
5.364330e+002, 1.750685e+003
5.369151e+002, 1.750797e+003
5.373972e+002, 1.751268e+003
5.378793e+002, 1.752899e+003
5.383615e+002, 1.754131e+003
5.388436e+002, 1.753512e+003
5.393257e+002, 1.751816e+003
5.398078e+002, 1.750962e+003
5.402899e+002, 1.752082e+003
5.407720e+002, 1.754308e+003
5.412542e+002, 1.755580e+003
5.417363e+002, 1.755497e+003
5.422184e+002, 1.755751e+003
5.427005e+002, 1.756456e+003
5.431826e+002, 1.757701e+003
5.436647e+002, 1.759946e+003
5.441469e+002, 1.762873e+003
5.446290e+002, 1.765387e+003
5.451111e+002, 1.767100e+003
5.455932e+002, 1.767965e+003
5.460753e+002, 1.767339e+003
5.465574e+002, 1.765307e+003
5.470396e+002, 1.764359e+003
5.475217e+002, 1.765667e+003
5.480038e+002, 1.768174e+003
5.484859e+002, 1.770547e+003
5.489680e+002, 1.772903e+003
5.494501e+002, 1.774392e+003
5.499323e+002, 1.773927e+003
5.504144e+002, 1.773303e+003
5.508965e+002, 1.774112e+003
5.513786e+002, 1.776069e+003
5.518607e+002, 1.777889e+003
5.523428e+002, 1.778869e+003
5.528250e+002, 1.779365e+003
5.533071e+002, 1.780270e+003
5.537892e+002, 1.781904e+003
5.542713e+002, 1.783394e+003
5.547534e+002, 1.784450e+003
5.552355e+002, 1.785654e+003
5.557177e+002, 1.787339e+003
5.561998e+002, 1.789462e+003
5.566819e+002, 1.791864e+003
5.571640e+002, 1.794496e+003
5.576461e+002, 1.797230e+003
5.581282e+002, 1.799663e+003
5.586104e+002, 1.801700e+003
5.590925e+002, 1.804095e+003
5.595746e+002, 1.807266e+003
5.600567e+002, 1.810630e+003
5.605388e+002, 1.813750e+003
5.610209e+002, 1.816609e+003
5.615031e+002, 1.819183e+003
5.619852e+002, 1.820523e+003
5.624673e+002, 1.822221e+003
5.629494e+002, 1.826615e+003
5.634315e+002, 1.833095e+003
5.639136e+002, 1.838536e+003
5.643958e+002, 1.841525e+003
5.648779e+002, 1.843322e+003
5.653600e+002, 1.846048e+003
5.658421e+002, 1.849943e+003
5.663242e+002, 1.854152e+003
5.668063e+002, 1.858586e+003
5.672885e+002, 1.863428e+003
5.677706e+002, 1.869054e+003
5.682527e+002, 1.875130e+003
5.687348e+002, 1.880934e+003
5.692169e+002, 1.886131e+003
5.696990e+002, 1.890927e+003
5.701812e+002, 1.895509e+003
5.706633e+002, 1.899514e+003
5.711454e+002, 1.904780e+003
5.716275e+002, 1.912900e+003
5.721096e+002, 1.920860e+003
5.725917e+002, 1.927283e+003
5.730739e+002, 1.932373e+003
5.735560e+002, 1.936682e+003
5.740381e+002, 1.940336e+003
5.745202e+002, 1.943493e+003
5.750023e+002, 1.946208e+003
5.754844e+002, 1.948540e+003
5.759666e+002, 1.950839e+003
5.764487e+002, 1.953290e+003
5.769308e+002, 1.955427e+003
5.774129e+002, 1.956728e+003
5.778950e+002, 1.957151e+003
5.783771e+002, 1.957338e+003
5.788593e+002, 1.958070e+003
5.793414e+002, 1.957738e+003
5.798235e+002, 1.954839e+003
5.803056e+002, 1.950621e+003
5.807877e+002, 1.947041e+003
5.812698e+002, 1.944692e+003
5.817520e+002, 1.943039e+003
5.822341e+002, 1.941677e+003
5.827162e+002, 1.940825e+003
5.831984e+002, 1.937905e+003
5.836805e+002, 1.930307e+003
5.841626e+002, 1.923887e+003
5.846447e+002, 1.921034e+003
5.851268e+002, 1.919839e+003
5.856089e+002, 1.918055e+003
5.860911e+002, 1.915080e+003
5.865732e+002, 1.911647e+003
5.870553e+002, 1.908082e+003
5.875374e+002, 1.904568e+003
5.880195e+002, 1.901961e+003
5.885016e+002, 1.900417e+003
5.889838e+002, 1.899380e+003
5.894659e+002, 1.898986e+003
5.899480e+002, 1.898698e+003
5.904301e+002, 1.896926e+003
5.909122e+002, 1.892713e+003
5.913943e+002, 1.888963e+003
5.918765e+002, 1.886745e+003
5.923586e+002, 1.885311e+003
5.928407e+002, 1.883614e+003
5.933228e+002, 1.881737e+003
5.938049e+002, 1.880993e+003
5.942870e+002, 1.882601e+003
5.947692e+002, 1.885740e+003
5.952513e+002, 1.886462e+003
5.957334e+002, 1.883108e+003
5.962155e+002, 1.880219e+003
5.966976e+002, 1.877998e+003
5.971797e+002, 1.876550e+003
5.976619e+002, 1.876292e+003
5.981440e+002, 1.876952e+003
5.986261e+002, 1.877548e+003
5.991082e+002, 1.877589e+003
5.995903e+002, 1.877100e+003
6.000724e+002, 1.875775e+003
6.005546e+002, 1.873596e+003
6.010367e+002, 1.872308e+003
6.015188e+002, 1.872799e+003
6.020009e+002, 1.873865e+003
6.024830e+002, 1.873902e+003
6.029651e+002, 1.872940e+003
6.034473e+002, 1.872229e+003
6.039294e+002, 1.871994e+003
6.044115e+002, 1.872001e+003
6.048936e+002, 1.871951e+003
6.053757e+002, 1.872067e+003
6.058578e+002, 1.873041e+003
6.063400e+002, 1.875097e+003
6.068221e+002, 1.877287e+003
6.073042e+002, 1.878257e+003
6.077863e+002, 1.877880e+003
6.082684e+002, 1.877200e+003
6.087505e+002, 1.875719e+003
6.092327e+002, 1.874575e+003
6.097148e+002, 1.874169e+003
6.101969e+002, 1.874270e+003
6.106790e+002, 1.874655e+003
6.111611e+002, 1.875283e+003
6.116432e+002, 1.875907e+003
6.121254e+002, 1.876101e+003
6.126075e+002, 1.876122e+003
6.130896e+002, 1.877047e+003
6.135717e+002, 1.879137e+003
6.140538e+002, 1.880563e+003
6.145359e+002, 1.879672e+003
6.150181e+002, 1.877578e+003
6.155002e+002, 1.877724e+003
6.159823e+002, 1.881370e+003
6.164644e+002, 1.884091e+003
6.169465e+002, 1.883808e+003
6.174286e+002, 1.883107e+003
6.179108e+002, 1.884408e+003
6.183929e+002, 1.887447e+003
6.188750e+002, 1.890504e+003
6.193571e+002, 1.892509e+003
6.198392e+002, 1.893787e+003
6.203214e+002, 1.895223e+003
6.208035e+002, 1.897017e+003
6.212856e+002, 1.898376e+003
6.217677e+002, 1.898826e+003
6.222498e+002, 1.899211e+003
6.227319e+002, 1.899899e+003
6.232141e+002, 1.900882e+003
6.236962e+002, 1.902093e+003
6.241783e+002, 1.903550e+003
6.246604e+002, 1.905165e+003
6.251425e+002, 1.906861e+003
6.256246e+002, 1.908659e+003
6.261068e+002, 1.910597e+003
6.265889e+002, 1.912684e+003
6.270710e+002, 1.914953e+003
6.275531e+002, 1.917449e+003
6.280352e+002, 1.920150e+003
6.285173e+002, 1.922893e+003
6.289995e+002, 1.925743e+003
6.294816e+002, 1.928512e+003
6.299637e+002, 1.931014e+003
6.304458e+002, 1.933493e+003
6.309279e+002, 1.936276e+003
6.314100e+002, 1.939335e+003
6.318922e+002, 1.942294e+003
6.323743e+002, 1.944766e+003
6.328564e+002, 1.946946e+003
6.333385e+002, 1.949470e+003
6.338206e+002, 1.952210e+003
6.343027e+002, 1.955839e+003
6.347849e+002, 1.961330e+003
6.352670e+002, 1.967049e+003
6.357491e+002, 1.970932e+003
6.362312e+002, 1.973278e+003
6.367133e+002, 1.976983e+003
6.371954e+002, 1.984749e+003
6.376776e+002, 1.992631e+003
6.381597e+002, 1.997687e+003
6.386418e+002, 2.000358e+003
6.391239e+002, 2.001874e+003
6.396060e+002, 2.002639e+003
6.400881e+002, 2.002096e+003
6.405703e+002, 1.999261e+003
6.410524e+002, 1.993838e+003
6.415345e+002, 1.989815e+003
6.420166e+002, 1.988418e+003
6.424987e+002, 1.987082e+003
6.429808e+002, 1.984663e+003
6.434630e+002, 1.982449e+003
6.439451e+002, 1.981727e+003
6.444272e+002, 1.982740e+003
6.449093e+002, 1.984902e+003
6.453914e+002, 1.988718e+003
6.458735e+002, 1.993138e+003
6.463557e+002, 1.995160e+003
6.468378e+002, 1.994671e+003
6.473199e+002, 1.994367e+003
6.478020e+002, 1.994980e+003
6.482841e+002, 1.996880e+003
6.487662e+002, 2.001224e+003
6.492484e+002, 2.008706e+003
6.497305e+002, 2.014607e+003
6.502126e+002, 2.017349e+003
6.506947e+002, 2.019603e+003
6.511768e+002, 2.022742e+003
6.516589e+002, 2.026459e+003
6.521411e+002, 2.030001e+003
6.526232e+002, 2.033109e+003
6.531053e+002, 2.036091e+003
6.535874e+002, 2.039254e+003
6.540695e+002, 2.042587e+003
6.545516e+002, 2.046547e+003
6.550338e+002, 2.051549e+003
6.555159e+002, 2.056287e+003
6.559980e+002, 2.060093e+003
6.564801e+002, 2.063369e+003
6.569622e+002, 2.066299e+003
6.574443e+002, 2.068811e+003
6.579265e+002, 2.071918e+003
6.584086e+002, 2.076672e+003
6.588907e+002, 2.081815e+003
6.593728e+002, 2.085784e+003
6.598549e+002, 2.088806e+003
6.603370e+002, 2.092218e+003
6.608192e+002, 2.096673e+003
6.613013e+002, 2.101390e+003
6.617834e+002, 2.104844e+003
6.622655e+002, 2.106451e+003
6.627476e+002, 2.109041e+003
6.632297e+002, 2.113898e+003
6.637119e+002, 2.118362e+003
6.641940e+002, 2.121177e+003
6.646761e+002, 2.123325e+003
6.651582e+002, 2.126317e+003
6.656403e+002, 2.130565e+003
6.661224e+002, 2.134517e+003
6.666046e+002, 2.136608e+003
6.670867e+002, 2.137533e+003
6.675688e+002, 2.138932e+003
6.680509e+002, 2.140898e+003
6.685330e+002, 2.142966e+003
6.690151e+002, 2.144938e+003
6.694973e+002, 2.146832e+003
6.699794e+002, 2.148620e+003
6.704615e+002, 2.150039e+003
6.709436e+002, 2.152114e+003
6.714257e+002, 2.155747e+003
6.719078e+002, 2.159119e+003
6.723900e+002, 2.160550e+003
6.728721e+002, 2.161266e+003
6.733542e+002, 2.163577e+003
6.738363e+002, 2.168257e+003
6.743184e+002, 2.173678e+003
6.748005e+002, 2.177927e+003
6.752827e+002, 2.181128e+003
6.757648e+002, 2.184618e+003
6.762469e+002, 2.188657e+003
6.767290e+002, 2.192080e+003
6.772111e+002, 2.194210e+003
6.776932e+002, 2.195445e+003
6.781754e+002, 2.196548e+003
6.786575e+002, 2.197554e+003
6.791396e+002, 2.198300e+003
6.796217e+002, 2.198727e+003
6.801038e+002, 2.198933e+003
6.805859e+002, 2.199278e+003
6.810681e+002, 2.199442e+003
6.815502e+002, 2.198516e+003
6.820323e+002, 2.196188e+003
6.825144e+002, 2.193387e+003
6.829965e+002, 2.191559e+003
6.834786e+002, 2.190806e+003
6.839608e+002, 2.189385e+003
6.844429e+002, 2.186982e+003
6.849250e+002, 2.184467e+003
6.854071e+002, 2.181964e+003
6.858892e+002, 2.179642e+003
6.863713e+002, 2.177931e+003
6.868535e+002, 2.176923e+003
6.873356e+002, 2.175260e+003
6.878177e+002, 2.171452e+003
6.882998e+002, 2.167377e+003
6.887819e+002, 2.165125e+003
6.892640e+002, 2.164309e+003
6.897462e+002, 2.163504e+003
6.902283e+002, 2.162148e+003
6.907104e+002, 2.160427e+003
6.911925e+002, 2.158516e+003
6.916746e+002, 2.156311e+003
6.921567e+002, 2.154890e+003
6.926389e+002, 2.155265e+003
6.931210e+002, 2.155043e+003
6.936031e+002, 2.152401e+003
6.940852e+002, 2.149649e+003
6.945673e+002, 2.149591e+003
6.950494e+002, 2.152393e+003
6.955316e+002, 2.154954e+003
6.960137e+002, 2.155035e+003
6.964958e+002, 2.154123e+003
6.969779e+002, 2.154409e+003
6.974600e+002, 2.155559e+003
6.979421e+002, 2.155819e+003
6.984243e+002, 2.154536e+003
6.989064e+002, 2.152516e+003
6.993885e+002, 2.150656e+003
6.998706e+002, 2.148922e+003
7.003527e+002, 2.147809e+003
7.008348e+002, 2.147060e+003
7.013170e+002, 2.147305e+003
7.017991e+002, 2.149256e+003
7.022812e+002, 2.151858e+003
7.027633e+002, 2.154263e+003
7.032454e+002, 2.156338e+003
7.037275e+002, 2.158254e+003
7.042097e+002, 2.160262e+003
7.046918e+002, 2.162066e+003
7.051739e+002, 2.163037e+003
7.056560e+002, 2.163313e+003
7.061381e+002, 2.163612e+003
7.066202e+002, 2.164019e+003
7.071024e+002, 2.165152e+003
7.075845e+002, 2.167971e+003
7.080666e+002, 2.172428e+003
7.085487e+002, 2.175062e+003
7.090308e+002, 2.174481e+003
7.095129e+002, 2.173991e+003
7.099951e+002, 2.173980e+003
7.104772e+002, 2.174303e+003
7.109593e+002, 2.174762e+003
7.114414e+002, 2.175411e+003
7.119235e+002, 2.176574e+003
7.124056e+002, 2.178661e+003
7.128878e+002, 2.180945e+003
7.133699e+002, 2.182154e+003
7.138520e+002, 2.182458e+003
7.143341e+002, 2.183060e+003
7.148162e+002, 2.184251e+003
7.152983e+002, 2.185477e+003
7.157805e+002, 2.186311e+003
7.162626e+002, 2.186813e+003
7.167447e+002, 2.187299e+003
7.172268e+002, 2.188358e+003
7.177089e+002, 2.188597e+003
7.181910e+002, 2.186280e+003
7.186732e+002, 2.184523e+003
7.191553e+002, 2.186404e+003
7.196374e+002, 2.190669e+003
7.201195e+002, 2.193742e+003
7.206016e+002, 2.193771e+003
7.210837e+002, 2.192868e+003
7.215659e+002, 2.194054e+003
7.220480e+002, 2.196870e+003
7.225301e+002, 2.198746e+003
7.230122e+002, 2.199364e+003
7.234943e+002, 2.199364e+003
7.239764e+002, 2.198870e+003
7.244586e+002, 2.198198e+003
7.249407e+002, 2.198190e+003
7.254228e+002, 2.199024e+003
7.259049e+002, 2.200034e+003
7.263870e+002, 2.200932e+003
7.268691e+002, 2.202245e+003
7.273513e+002, 2.204198e+003
7.278334e+002, 2.206790e+003
7.283155e+002, 2.210446e+003
7.287976e+002, 2.215203e+003
7.292797e+002, 2.219228e+003
7.297618e+002, 2.219817e+003
7.302440e+002, 2.218070e+003
7.307261e+002, 2.218214e+003
7.312082e+002, 2.220481e+003
7.316903e+002, 2.222474e+003
7.321724e+002, 2.222866e+003
7.326545e+002, 2.223142e+003
7.331367e+002, 2.225902e+003
7.336188e+002, 2.232021e+003
7.341009e+002, 2.235436e+003
7.345830e+002, 2.232640e+003
7.350651e+002, 2.231363e+003
7.355472e+002, 2.236471e+003
7.360294e+002, 2.243233e+003
7.365115e+002, 2.245551e+003
7.369936e+002, 2.243038e+003
7.374757e+002, 2.240529e+003
7.379578e+002, 2.241858e+003
7.384399e+002, 2.245287e+003
7.389221e+002, 2.247414e+003
7.394042e+002, 2.248297e+003
7.398863e+002, 2.248829e+003
7.403684e+002, 2.249033e+003
7.408505e+002, 2.249719e+003
7.413326e+002, 2.251959e+003
7.418148e+002, 2.255516e+003
7.422969e+002, 2.257622e+003
7.427790e+002, 2.256740e+003
7.432611e+002, 2.256657e+003
7.437432e+002, 2.257907e+003
7.442253e+002, 2.260026e+003
7.447075e+002, 2.263186e+003
7.451896e+002, 2.266899e+003
7.456717e+002, 2.270092e+003
7.461538e+002, 2.272243e+003
7.466359e+002, 2.273793e+003
7.471180e+002, 2.275078e+003
7.476002e+002, 2.276208e+003
7.480823e+002, 2.277494e+003
7.485644e+002, 2.278962e+003
7.490465e+002, 2.281155e+003
7.495286e+002, 2.284785e+003
7.500107e+002, 2.288785e+003
7.504929e+002, 2.290486e+003
7.509750e+002, 2.288278e+003
7.514571e+002, 2.287773e+003
7.519392e+002, 2.290255e+003
7.524213e+002, 2.292862e+003
7.529034e+002, 2.294309e+003
7.533856e+002, 2.295268e+003
7.538677e+002, 2.296800e+003
7.543498e+002, 2.299125e+003
7.548319e+002, 2.301454e+003
7.553140e+002, 2.303211e+003
7.557961e+002, 2.304597e+003
7.562783e+002, 2.305461e+003
7.567604e+002, 2.306090e+003
7.572425e+002, 2.308457e+003
7.577246e+002, 2.313358e+003
7.582067e+002, 2.318533e+003
7.586888e+002, 2.321127e+003
7.591710e+002, 2.321169e+003
7.596531e+002, 2.322549e+003
7.601352e+002, 2.326317e+003
7.606173e+002, 2.329813e+003
7.610994e+002, 2.333225e+003
7.615815e+002, 2.335760e+003
7.620637e+002, 2.336081e+003
7.625458e+002, 2.334915e+003
7.630279e+002, 2.334917e+003
7.635100e+002, 2.337786e+003
7.639921e+002, 2.340891e+003
7.644742e+002, 2.341865e+003
7.649564e+002, 2.341647e+003
7.654385e+002, 2.341970e+003
7.659206e+002, 2.343002e+003
7.664027e+002, 2.343823e+003
7.668848e+002, 2.343754e+003
7.673669e+002, 2.343535e+003
7.678491e+002, 2.345126e+003
7.683312e+002, 2.349278e+003
7.688133e+002, 2.352472e+003
7.692954e+002, 2.354505e+003
7.697775e+002, 2.355739e+003
7.702596e+002, 2.355735e+003
7.707418e+002, 2.355344e+003
7.712239e+002, 2.355725e+003
7.717060e+002, 2.357059e+003
7.721881e+002, 2.358448e+003
7.726702e+002, 2.359534e+003
7.731523e+002, 2.360551e+003
7.736345e+002, 2.362012e+003
7.741166e+002, 2.363461e+003
7.745987e+002, 2.363396e+003
7.750808e+002, 2.361680e+003
7.755629e+002, 2.360904e+003
7.760450e+002, 2.364066e+003
7.765272e+002, 2.370132e+003
7.770093e+002, 2.374075e+003
7.774914e+002, 2.375562e+003
7.779735e+002, 2.376809e+003
7.784556e+002, 2.378514e+003
7.789377e+002, 2.379848e+003
7.794199e+002, 2.379730e+003
7.799020e+002, 2.378526e+003
7.803841e+002, 2.378031e+003
7.808662e+002, 2.377746e+003
7.813483e+002, 2.379009e+003
7.818304e+002, 2.383492e+003
7.823126e+002, 2.388521e+003
7.827947e+002, 2.391865e+003
7.832768e+002, 2.393832e+003
7.837589e+002, 2.395559e+003
7.842410e+002, 2.397519e+003
7.847231e+002, 2.400082e+003
7.852053e+002, 2.404185e+003
7.856874e+002, 2.409297e+003
7.861695e+002, 2.413134e+003
7.866516e+002, 2.415510e+003
7.871337e+002, 2.418240e+003
7.876158e+002, 2.422220e+003
7.880980e+002, 2.426706e+003
7.885801e+002, 2.430660e+003
7.890622e+002, 2.434066e+003
7.895443e+002, 2.436964e+003
7.900264e+002, 2.438812e+003
7.905085e+002, 2.440882e+003
7.909907e+002, 2.443690e+003
7.914728e+002, 2.446676e+003
7.919549e+002, 2.448734e+003
7.924370e+002, 2.450277e+003
7.929191e+002, 2.453601e+003
7.934012e+002, 2.461094e+003
7.938834e+002, 2.468777e+003
7.943655e+002, 2.471828e+003
7.948476e+002, 2.472384e+003
7.953297e+002, 2.475517e+003
7.958118e+002, 2.481626e+003
7.962939e+002, 2.486818e+003
7.967761e+002, 2.488425e+003
7.972582e+002, 2.488067e+003
7.977403e+002, 2.489760e+003
7.982224e+002, 2.494167e+003
7.987045e+002, 2.497731e+003
7.991866e+002, 2.499385e+003
7.996688e+002, 2.501779e+003
8.001509e+002, 2.506848e+003
8.006330e+002, 2.513008e+003
8.011151e+002, 2.518229e+003
8.015972e+002, 2.522272e+003
8.020793e+002, 2.527157e+003
8.025615e+002, 2.534365e+003
8.030436e+002, 2.541640e+003
8.035257e+002, 2.547645e+003
8.040078e+002, 2.552787e+003
8.044899e+002, 2.557636e+003
8.049720e+002, 2.562323e+003
8.054542e+002, 2.566698e+003
8.059363e+002, 2.570496e+003
8.064184e+002, 2.574091e+003
8.069005e+002, 2.578385e+003
8.073826e+002, 2.583333e+003
8.078647e+002, 2.588473e+003
8.083469e+002, 2.594001e+003
8.088290e+002, 2.598237e+003
8.093111e+002, 2.599405e+003
8.097932e+002, 2.598803e+003
8.102753e+002, 2.600473e+003
8.107574e+002, 2.606097e+003
8.112396e+002, 2.610617e+003
8.117217e+002, 2.612516e+003
8.122038e+002, 2.615057e+003
8.126859e+002, 2.620674e+003
8.131680e+002, 2.627310e+003
8.136501e+002, 2.631884e+003
8.141323e+002, 2.633929e+003
8.146144e+002, 2.635989e+003
8.150965e+002, 2.639958e+003
8.155786e+002, 2.644521e+003
8.160607e+002, 2.647945e+003
8.165428e+002, 2.650713e+003
8.170250e+002, 2.654233e+003
8.175071e+002, 2.658776e+003
8.179892e+002, 2.663413e+003
8.184713e+002, 2.667353e+003
8.189534e+002, 2.670829e+003
8.194355e+002, 2.674851e+003
8.199177e+002, 2.679715e+003
8.203998e+002, 2.683606e+003
8.208819e+002, 2.685623e+003
8.213640e+002, 2.687816e+003
8.218461e+002, 2.691682e+003
8.223282e+002, 2.696487e+003
8.228104e+002, 2.700799e+003
8.232925e+002, 2.704491e+003
8.237746e+002, 2.708166e+003
8.242567e+002, 2.712267e+003
8.247388e+002, 2.716117e+003
8.252209e+002, 2.719299e+003
8.257031e+002, 2.722034e+003
8.261852e+002, 2.724407e+003
8.266673e+002, 2.726576e+003
8.271494e+002, 2.729223e+003
8.276315e+002, 2.733133e+003
8.281136e+002, 2.737504e+003
8.285958e+002, 2.740998e+003
8.290779e+002, 2.743749e+003
8.295600e+002, 2.746435e+003
8.300421e+002, 2.749177e+003
8.305242e+002, 2.751749e+003
8.310063e+002, 2.753707e+003
8.314885e+002, 2.755822e+003
8.319706e+002, 2.760704e+003
8.324527e+002, 2.769842e+003
8.329348e+002, 2.777781e+003
8.334169e+002, 2.784169e+003
8.338990e+002, 2.789681e+003
8.343812e+002, 2.793665e+003
8.348633e+002, 2.797483e+003
8.353454e+002, 2.803299e+003
8.358275e+002, 2.811354e+003
8.363096e+002, 2.818405e+003
8.367917e+002, 2.822855e+003
8.372739e+002, 2.826530e+003
8.377560e+002, 2.830257e+003
8.382381e+002, 2.834102e+003
8.387202e+002, 2.838317e+003
8.392023e+002, 2.842766e+003
8.396844e+002, 2.846680e+003
8.401666e+002, 2.849385e+003
8.406487e+002, 2.851744e+003
8.411308e+002, 2.855464e+003
8.416129e+002, 2.860291e+003
8.420950e+002, 2.864417e+003
8.425771e+002, 2.867643e+003
8.430593e+002, 2.870198e+003
8.435414e+002, 2.871857e+003
8.440235e+002, 2.873696e+003
8.445056e+002, 2.878081e+003
8.449877e+002, 2.886063e+003
8.454698e+002, 2.891218e+003
8.459520e+002, 2.891483e+003
8.464341e+002, 2.891623e+003
8.469162e+002, 2.891792e+003
8.473983e+002, 2.892994e+003
8.478804e+002, 2.896318e+003
8.483625e+002, 2.901578e+003
8.488447e+002, 2.907592e+003
8.493268e+002, 2.915288e+003
8.498089e+002, 2.921617e+003
8.502910e+002, 2.923557e+003
8.507731e+002, 2.924098e+003
8.512552e+002, 2.926852e+003
8.517374e+002, 2.931547e+003
8.522195e+002, 2.936032e+003
8.527016e+002, 2.939306e+003
8.531837e+002, 2.942123e+003
8.536658e+002, 2.945176e+003
8.541479e+002, 2.948569e+003
8.546301e+002, 2.953315e+003
8.551122e+002, 2.959447e+003
8.555943e+002, 2.964558e+003
8.560764e+002, 2.967768e+003
8.565585e+002, 2.969715e+003
8.570406e+002, 2.970564e+003
8.575228e+002, 2.970621e+003
8.580049e+002, 2.973742e+003
8.584870e+002, 2.982431e+003
8.589691e+002, 2.989953e+003
8.594512e+002, 2.994790e+003
8.599333e+002, 2.999382e+003
8.604155e+002, 3.005812e+003
8.608976e+002, 3.012708e+003
8.613797e+002, 3.017190e+003
8.618618e+002, 3.018310e+003
8.623439e+002, 3.019773e+003
8.628260e+002, 3.023009e+003
8.633082e+002, 3.027292e+003
8.637903e+002, 3.033119e+003
8.642724e+002, 3.039167e+003
8.647545e+002, 3.042846e+003
8.652366e+002, 3.043968e+003
8.657188e+002, 3.045321e+003
8.662009e+002, 3.049360e+003
8.666830e+002, 3.054434e+003
8.671651e+002, 3.057319e+003
8.676472e+002, 3.058281e+003
8.681293e+002, 3.058807e+003
8.686115e+002, 3.059059e+003
8.690936e+002, 3.059677e+003
8.695757e+002, 3.061057e+003
8.700578e+002, 3.063008e+003
8.705399e+002, 3.065406e+003
8.710220e+002, 3.068775e+003
8.715042e+002, 3.069819e+003
8.719863e+002, 3.067526e+003
8.724684e+002, 3.064555e+003
8.729505e+002, 3.060832e+003
8.734326e+002, 3.057454e+003
8.739147e+002, 3.055995e+003
8.743969e+002, 3.056048e+003
8.748790e+002, 3.054810e+003
8.753611e+002, 3.050367e+003
8.758432e+002, 3.046586e+003
8.763253e+002, 3.045089e+003
8.768074e+002, 3.044615e+003
8.772896e+002, 3.044237e+003
8.777717e+002, 3.043913e+003
8.782538e+002, 3.043607e+003
8.787359e+002, 3.043315e+003
8.792180e+002, 3.044034e+003
8.797001e+002, 3.047479e+003
8.801823e+002, 3.052145e+003
8.806644e+002, 3.055414e+003
8.811465e+002, 3.057367e+003
8.816286e+002, 3.058297e+003
8.821107e+002, 3.058317e+003
8.825928e+002, 3.058781e+003
8.830750e+002, 3.061088e+003
8.835571e+002, 3.064287e+003
8.840392e+002, 3.064699e+003
8.845213e+002, 3.061517e+003
8.850034e+002, 3.060229e+003
8.854855e+002, 3.061695e+003
8.859677e+002, 3.064218e+003
8.864498e+002, 3.067407e+003
8.869319e+002, 3.070813e+003
8.874140e+002, 3.073652e+003
8.878961e+002, 3.075866e+003
8.883782e+002, 3.077987e+003
8.888604e+002, 3.078326e+003
8.893425e+002, 3.080814e+003
8.898246e+002, 3.088219e+003
8.903067e+002, 3.096926e+003
8.907888e+002, 3.104441e+003
8.912709e+002, 3.110420e+003
8.917531e+002, 3.114666e+003
8.922352e+002, 3.116465e+003
8.927173e+002, 3.118790e+003
8.931994e+002, 3.124066e+003
8.936815e+002, 3.130651e+003
8.941636e+002, 3.136082e+003
8.946458e+002, 3.141207e+003
8.951279e+002, 3.149009e+003
8.956100e+002, 3.160206e+003
8.960921e+002, 3.171484e+003
8.965742e+002, 3.179586e+003
8.970563e+002, 3.185557e+003
8.975385e+002, 3.191941e+003
8.980206e+002, 3.198776e+003
8.985027e+002, 3.207218e+003
8.989848e+002, 3.217781e+003
8.994669e+002, 3.226030e+003
8.999490e+002, 3.228425e+003
9.004312e+002, 3.228086e+003
9.009133e+002, 3.232479e+003
9.013954e+002, 3.243010e+003
9.018775e+002, 3.251726e+003
9.023596e+002, 3.257504e+003
9.028417e+002, 3.263466e+003
9.033239e+002, 3.271344e+003
9.038060e+002, 3.279226e+003
9.042881e+002, 3.285386e+003
9.047702e+002, 3.289950e+003
9.052523e+002, 3.293765e+003
9.057344e+002, 3.297206e+003
9.062166e+002, 3.299523e+003
9.066987e+002, 3.299360e+003
9.071808e+002, 3.299156e+003
9.076629e+002, 3.300712e+003
9.081450e+002, 3.303522e+003
9.086271e+002, 3.307049e+003
9.091093e+002, 3.311004e+003
9.095914e+002, 3.313063e+003
9.100735e+002, 3.310142e+003
9.105556e+002, 3.305733e+003
9.110377e+002, 3.303719e+003
9.115198e+002, 3.303156e+003
9.120020e+002, 3.302249e+003
9.124841e+002, 3.300616e+003
9.129662e+002, 3.298303e+003
9.134483e+002, 3.295237e+003
9.139304e+002, 3.292203e+003
9.144125e+002, 3.290915e+003
9.148947e+002, 3.291042e+003
9.153768e+002, 3.290050e+003
9.158589e+002, 3.287874e+003
9.163410e+002, 3.283819e+003
9.168231e+002, 3.277257e+003
9.173052e+002, 3.270425e+003
9.177874e+002, 3.266344e+003
9.182695e+002, 3.264369e+003
9.187516e+002, 3.257841e+003
9.192337e+002, 3.243285e+003
9.197158e+002, 3.232586e+003
9.201979e+002, 3.229179e+003
9.206801e+002, 3.226787e+003
9.211622e+002, 3.221369e+003
9.216443e+002, 3.215000e+003
9.221264e+002, 3.211207e+003
9.226085e+002, 3.210440e+003
9.230906e+002, 3.209582e+003
9.235728e+002, 3.207667e+003
9.240549e+002, 3.206212e+003
9.245370e+002, 3.206632e+003
9.250191e+002, 3.207093e+003
9.255012e+002, 3.205078e+003
9.259833e+002, 3.201498e+003
9.264655e+002, 3.199644e+003
9.269476e+002, 3.200911e+003
9.274297e+002, 3.203325e+003
9.279118e+002, 3.206568e+003
9.283939e+002, 3.209394e+003
9.288760e+002, 3.210072e+003
9.293582e+002, 3.209252e+003
9.298403e+002, 3.208351e+003
9.303224e+002, 3.207843e+003
9.308045e+002, 3.207828e+003
9.312866e+002, 3.208492e+003
9.317687e+002, 3.209518e+003
9.322509e+002, 3.210282e+003
9.327330e+002, 3.210891e+003
9.332151e+002, 3.211710e+003
9.336972e+002, 3.212809e+003
9.341793e+002, 3.214488e+003
9.346614e+002, 3.217003e+003
9.351436e+002, 3.219454e+003
9.356257e+002, 3.220353e+003
9.361078e+002, 3.219827e+003
9.365899e+002, 3.220202e+003
9.370720e+002, 3.221621e+003
9.375541e+002, 3.223280e+003
9.380363e+002, 3.224759e+003
9.385184e+002, 3.226972e+003
9.390005e+002, 3.231163e+003
9.394826e+002, 3.236277e+003
9.399647e+002, 3.239381e+003
9.404468e+002, 3.239836e+003
9.409290e+002, 3.239897e+003
9.414111e+002, 3.238186e+003
9.418932e+002, 3.237794e+003
9.423753e+002, 3.240177e+003
9.428574e+002, 3.243808e+003
9.433395e+002, 3.247638e+003
9.438217e+002, 3.251479e+003
9.443038e+002, 3.254878e+003
9.447859e+002, 3.257543e+003
9.452680e+002, 3.260161e+003
9.457501e+002, 3.263833e+003
9.462322e+002, 3.266763e+003
9.467144e+002, 3.266389e+003
9.471965e+002, 3.264823e+003
9.476786e+002, 3.266334e+003
9.481607e+002, 3.271362e+003
9.486428e+002, 3.275025e+003
9.491249e+002, 3.272852e+003
9.496071e+002, 3.269722e+003
9.500892e+002, 3.270560e+003
9.505713e+002, 3.273866e+003
9.510534e+002, 3.277961e+003
9.515355e+002, 3.282086e+003
9.520176e+002, 3.284769e+003
9.524998e+002, 3.285361e+003
9.529819e+002, 3.284742e+003
9.534640e+002, 3.283440e+003
9.539461e+002, 3.281914e+003
9.544282e+002, 3.281268e+003
9.549103e+002, 3.281604e+003
9.553925e+002, 3.284371e+003
9.558746e+002, 3.289894e+003
9.563567e+002, 3.294775e+003
9.568388e+002, 3.296754e+003
9.573209e+002, 3.296210e+003
9.578030e+002, 3.293276e+003
9.582852e+002, 3.287496e+003
9.587673e+002, 3.285098e+003
9.592494e+002, 3.287310e+003
9.597315e+002, 3.287966e+003
9.602136e+002, 3.284802e+003
9.606957e+002, 3.280153e+003
9.611779e+002, 3.275679e+003
9.616600e+002, 3.271707e+003
9.621421e+002, 3.270166e+003
9.626242e+002, 3.273344e+003
9.631063e+002, 3.274406e+003
9.635884e+002, 3.270439e+003
9.640706e+002, 3.267990e+003
9.645527e+002, 3.271980e+003
9.650348e+002, 3.277023e+003
9.655169e+002, 3.276318e+003
9.659990e+002, 3.270193e+003
9.664811e+002, 3.265946e+003
9.669633e+002, 3.265626e+003
9.674454e+002, 3.265776e+003
9.679275e+002, 3.266422e+003
9.684096e+002, 3.266482e+003
9.688917e+002, 3.264336e+003
9.693738e+002, 3.261465e+003
9.698560e+002, 3.260370e+003
9.703381e+002, 3.261513e+003
9.708202e+002, 3.263297e+003
9.713023e+002, 3.265619e+003
9.717844e+002, 3.267593e+003
9.722665e+002, 3.268233e+003
9.727487e+002, 3.268475e+003
9.732308e+002, 3.269452e+003
9.737129e+002, 3.271069e+003
9.741950e+002, 3.272607e+003
9.746771e+002, 3.273786e+003
9.751592e+002, 3.275157e+003
9.756414e+002, 3.276857e+003
9.761235e+002, 3.279285e+003
9.766056e+002, 3.283972e+003
9.770877e+002, 3.289627e+003
9.775698e+002, 3.292889e+003
9.780519e+002, 3.293536e+003
9.785341e+002, 3.293926e+003
9.790162e+002, 3.295413e+003
9.794983e+002, 3.297693e+003
9.799804e+002, 3.300589e+003
9.804625e+002, 3.303902e+003
9.809446e+002, 3.307122e+003
9.814268e+002, 3.310145e+003
9.819089e+002, 3.311860e+003
9.823910e+002, 3.311966e+003
9.828731e+002, 3.312048e+003
9.833552e+002, 3.313389e+003
9.838373e+002, 3.315554e+003
9.843195e+002, 3.317325e+003
9.848016e+002, 3.318639e+003
9.852837e+002, 3.321030e+003
9.857658e+002, 3.324729e+003
9.862479e+002, 3.328539e+003
9.867300e+002, 3.332289e+003
9.872122e+002, 3.335230e+003
9.876943e+002, 3.336371e+003
9.881764e+002, 3.336157e+003
9.886585e+002, 3.337014e+003
9.891406e+002, 3.339097e+003
9.896227e+002, 3.341810e+003
9.901049e+002, 3.345310e+003
9.905870e+002, 3.349140e+003
9.910691e+002, 3.353453e+003
9.915512e+002, 3.357667e+003
9.920333e+002, 3.360833e+003
9.925154e+002, 3.363010e+003
9.929976e+002, 3.366326e+003
9.934797e+002, 3.373163e+003
9.939618e+002, 3.377518e+003
9.944439e+002, 3.376737e+003
9.949260e+002, 3.376075e+003
9.954081e+002, 3.378156e+003
9.958903e+002, 3.381771e+003
9.963724e+002, 3.385391e+003
9.968545e+002, 3.388888e+003
9.973366e+002, 3.392240e+003
9.978187e+002, 3.395632e+003
9.983008e+002, 3.398589e+003
9.987830e+002, 3.400515e+003
9.992651e+002, 3.402401e+003
9.997472e+002, 3.405519e+003
1.000229e+003, 3.408876e+003
1.000711e+003, 3.409976e+003
1.001194e+003, 3.408457e+003
1.001676e+003, 3.409224e+003
1.002158e+003, 3.417332e+003
1.002640e+003, 3.424827e+003
1.003122e+003, 3.426120e+003
1.003604e+003, 3.425304e+003
1.004086e+003, 3.426485e+003
1.004568e+003, 3.429339e+003
1.005050e+003, 3.431709e+003
1.005533e+003, 3.432952e+003
1.006015e+003, 3.434941e+003
1.006497e+003, 3.440280e+003
1.006979e+003, 3.445712e+003
1.007461e+003, 3.447725e+003
1.007943e+003, 3.447895e+003
1.008425e+003, 3.447636e+003
1.008907e+003, 3.447962e+003
1.009390e+003, 3.451207e+003
1.009872e+003, 3.458349e+003
1.010354e+003, 3.466418e+003
1.010836e+003, 3.473193e+003
1.011318e+003, 3.478616e+003
1.011800e+003, 3.481857e+003
1.012282e+003, 3.483804e+003
1.012764e+003, 3.486806e+003
1.013246e+003, 3.491021e+003
1.013729e+003, 3.495246e+003
1.014211e+003, 3.498891e+003
1.014693e+003, 3.501427e+003
1.015175e+003, 3.501137e+003
1.015657e+003, 3.499480e+003
1.016139e+003, 3.501045e+003
1.016621e+003, 3.505282e+003
1.017103e+003, 3.509684e+003
1.017586e+003, 3.513668e+003
1.018068e+003, 3.516605e+003
1.018550e+003, 3.518038e+003
1.019032e+003, 3.518796e+003
1.019514e+003, 3.520065e+003
1.019996e+003, 3.521864e+003
1.020478e+003, 3.524052e+003
1.020960e+003, 3.526661e+003
1.021442e+003, 3.530815e+003
1.021925e+003, 3.536855e+003
1.022407e+003, 3.543008e+003
1.022889e+003, 3.548210e+003
1.023371e+003, 3.552006e+003
1.023853e+003, 3.552792e+003
1.024335e+003, 3.550499e+003
1.024817e+003, 3.551758e+003
1.025299e+003, 3.557125e+003
1.025781e+003, 3.561255e+003
1.026264e+003, 3.562302e+003
1.026746e+003, 3.564344e+003
1.027228e+003, 3.570805e+003
1.027710e+003, 3.579602e+003
1.028192e+003, 3.585896e+003
1.028674e+003, 3.589455e+003
1.029156e+003, 3.591640e+003
1.029638e+003, 3.591630e+003
1.030120e+003, 3.593129e+003
1.030603e+003, 3.597734e+003
1.031085e+003, 3.602542e+003
1.031567e+003, 3.604975e+003
1.032049e+003, 3.606235e+003
1.032531e+003, 3.609733e+003
1.033013e+003, 3.616355e+003
1.033495e+003, 3.621336e+003
1.033977e+003, 3.624516e+003
1.034460e+003, 3.626332e+003
1.034942e+003, 3.625778e+003
1.035424e+003, 3.625491e+003
1.035906e+003, 3.627311e+003
1.036388e+003, 3.631077e+003
1.036870e+003, 3.636723e+003
1.037352e+003, 3.645760e+003
1.037834e+003, 3.651323e+003
1.038317e+003, 3.651469e+003
1.038799e+003, 3.651078e+003
1.039281e+003, 3.650027e+003
1.039763e+003, 3.650067e+003
1.040245e+003, 3.653366e+003
1.040727e+003, 3.658692e+003
1.041209e+003, 3.662532e+003
1.041691e+003, 3.664253e+003
1.042173e+003, 3.666433e+003
1.042656e+003, 3.669805e+003
1.043138e+003, 3.672705e+003
1.043620e+003, 3.673075e+003
1.044102e+003, 3.674325e+003
1.044584e+003, 3.680448e+003
1.045066e+003, 3.689211e+003
1.045548e+003, 3.694525e+003
1.046030e+003, 3.694913e+003
1.046512e+003, 3.696176e+003
1.046995e+003, 3.699529e+003
1.047477e+003, 3.703047e+003
1.047959e+003, 3.706235e+003
1.048441e+003, 3.709330e+003
1.048923e+003, 3.712540e+003
1.049405e+003, 3.715810e+003
1.049887e+003, 3.718794e+003
1.050369e+003, 3.721210e+003
1.050852e+003, 3.724718e+003
1.051334e+003, 3.731508e+003
1.051816e+003, 3.737021e+003
1.052298e+003, 3.738512e+003
1.052780e+003, 3.739212e+003
1.053262e+003, 3.741393e+003
1.053744e+003, 3.744974e+003
1.054226e+003, 3.749660e+003
1.054708e+003, 3.755666e+003
1.055191e+003, 3.760618e+003
1.055673e+003, 3.762653e+003
1.056155e+003, 3.765110e+003
1.056637e+003, 3.768984e+003
1.057119e+003, 3.774066e+003
1.057601e+003, 3.781874e+003
1.058083e+003, 3.790191e+003
1.058565e+003, 3.794155e+003
1.059047e+003, 3.792590e+003
1.059530e+003, 3.791567e+003
1.060012e+003, 3.792390e+003
1.060494e+003, 3.795039e+003
1.060976e+003, 3.800779e+003
1.061458e+003, 3.807152e+003
1.061940e+003, 3.812961e+003
1.062422e+003, 3.817624e+003
1.062904e+003, 3.819658e+003
1.063387e+003, 3.818842e+003
1.063869e+003, 3.820156e+003
1.064351e+003, 3.828731e+003
1.064833e+003, 3.835579e+003
1.065315e+003, 3.833574e+003
1.065797e+003, 3.831117e+003
1.066279e+003, 3.836616e+003
1.066761e+003, 3.846272e+003
1.067244e+003, 3.852385e+003
1.067726e+003, 3.853727e+003
1.068208e+003, 3.855088e+003
1.068690e+003, 3.858734e+003
1.069172e+003, 3.862350e+003
1.069654e+003, 3.864339e+003
1.070136e+003, 3.866374e+003
1.070618e+003, 3.869667e+003
1.071100e+003, 3.873999e+003
1.071583e+003, 3.878929e+003
1.072065e+003, 3.884310e+003
1.072547e+003, 3.889978e+003
1.073029e+003, 3.896777e+003
1.073511e+003, 3.902219e+003
1.073993e+003, 3.903570e+003
1.074475e+003, 3.904625e+003
1.074957e+003, 3.908328e+003
1.075439e+003, 3.913652e+003
1.075922e+003, 3.919199e+003
1.076404e+003, 3.924583e+003
1.076886e+003, 3.929406e+003
1.077368e+003, 3.933347e+003
1.077850e+003, 3.937108e+003
1.078332e+003, 3.939932e+003
1.078814e+003, 3.943890e+003
1.079297e+003, 3.952940e+003
1.079779e+003, 3.962484e+003
1.080261e+003, 3.964775e+003
1.080743e+003, 3.961212e+003
1.081225e+003, 3.961403e+003
1.081707e+003, 3.969681e+003
1.082189e+003, 3.978139e+003
1.082671e+003, 3.982907e+003
1.083153e+003, 3.986965e+003
1.083635e+003, 3.992648e+003
1.084118e+003, 3.998369e+003
1.084600e+003, 4.001421e+003
1.085082e+003, 4.002764e+003
1.085564e+003, 4.006483e+003
1.086046e+003, 4.014543e+003
1.086528e+003, 4.020558e+003
1.087010e+003, 4.019570e+003
1.087492e+003, 4.018528e+003
1.087975e+003, 4.021754e+003
1.088457e+003, 4.026503e+003
1.088939e+003, 4.030019e+003
1.089421e+003, 4.032569e+003
1.089903e+003, 4.035903e+003
1.090385e+003, 4.040585e+003
1.090867e+003, 4.043779e+003
1.091349e+003, 4.042760e+003
1.091832e+003, 4.042118e+003
1.092314e+003, 4.044699e+003
1.092796e+003, 4.047853e+003
1.093278e+003, 4.048626e+003
1.093760e+003, 4.048487e+003
1.094242e+003, 4.051125e+003
1.094724e+003, 4.057062e+003
1.095206e+003, 4.061050e+003
1.095688e+003, 4.058763e+003
1.096171e+003, 4.057889e+003
1.096653e+003, 4.063395e+003
1.097135e+003, 4.068828e+003
1.097617e+003, 4.068208e+003
1.098099e+003, 4.065442e+003
1.098581e+003, 4.067604e+003
1.099063e+003, 4.074717e+003
1.099545e+003, 4.078629e+003
1.100027e+003, 4.074795e+003
1.100510e+003, 4.071995e+003
1.100992e+003, 4.074215e+003
1.101474e+003, 4.076002e+003
1.101956e+003, 4.073231e+003
1.102438e+003, 4.069243e+003
1.102920e+003, 4.067543e+003
1.103402e+003, 4.068320e+003
1.103884e+003, 4.070958e+003
1.104367e+003, 4.076384e+003
1.104849e+003, 4.081084e+003
1.105331e+003, 4.085178e+003
1.105813e+003, 4.087508e+003
1.106295e+003, 4.085517e+003
1.106777e+003, 4.083375e+003
1.107259e+003, 4.085925e+003
1.107741e+003, 4.091257e+003
1.108224e+003, 4.093065e+003
1.108706e+003, 4.089278e+003
1.109188e+003, 4.088351e+003
1.109670e+003, 4.093569e+003
1.110152e+003, 4.098174e+003
1.110634e+003, 4.100111e+003
1.111116e+003, 4.101498e+003
1.111598e+003, 4.103737e+003
1.112080e+003, 4.106422e+003
1.112563e+003, 4.108642e+003
1.113045e+003, 4.110276e+003
1.113527e+003, 4.112534e+003
1.114009e+003, 4.116671e+003
1.114491e+003, 4.119432e+003
1.114973e+003, 4.120120e+003
1.115455e+003, 4.119898e+003
1.115937e+003, 4.118187e+003
1.116419e+003, 4.116876e+003
1.116902e+003, 4.118821e+003
1.117384e+003, 4.123697e+003
1.117866e+003, 4.127449e+003
1.118348e+003, 4.129147e+003
1.118830e+003, 4.131993e+003
1.119312e+003, 4.137001e+003
1.119794e+003, 4.141302e+003
1.120276e+003, 4.143661e+003
1.120759e+003, 4.145204e+003
1.121241e+003, 4.146857e+003
1.121723e+003, 4.148601e+003
1.122205e+003, 4.150329e+003
1.122687e+003, 4.151767e+003
1.123169e+003, 4.154461e+003
1.123651e+003, 4.158854e+003
1.124133e+003, 4.162869e+003
1.124615e+003, 4.165701e+003
1.125098e+003, 4.168919e+003
1.125580e+003, 4.173661e+003
1.126062e+003, 4.179434e+003
1.126544e+003, 4.185576e+003
1.127026e+003, 4.192025e+003
1.127508e+003, 4.195811e+003
1.127990e+003, 4.196582e+003
1.128472e+003, 4.197676e+003
1.128954e+003, 4.199526e+003
1.129437e+003, 4.202389e+003
1.129919e+003, 4.206495e+003
1.130401e+003, 4.211246e+003
1.130883e+003, 4.216136e+003
1.131365e+003, 4.220869e+003
1.131847e+003, 4.224003e+003
1.132329e+003, 4.225660e+003
1.132811e+003, 4.228299e+003
1.133294e+003, 4.232087e+003
1.133776e+003, 4.236034e+003
1.134258e+003, 4.239807e+003
1.134740e+003, 4.244292e+003
1.135222e+003, 4.250451e+003
1.135704e+003, 4.256865e+003
1.136186e+003, 4.260303e+003
1.136668e+003, 4.261615e+003
1.137151e+003, 4.264294e+003
1.137633e+003, 4.268072e+003
1.138115e+003, 4.270854e+003
1.138597e+003, 4.272383e+003
1.139079e+003, 4.274294e+003
1.139561e+003, 4.277490e+003
1.140043e+003, 4.281303e+003
1.140525e+003, 4.285013e+003
1.141007e+003, 4.288717e+003
1.141490e+003, 4.292449e+003
1.141972e+003, 4.296321e+003
1.142454e+003, 4.300210e+003
1.142936e+003, 4.304506e+003
1.143418e+003, 4.311387e+003
1.143900e+003, 4.321067e+003
1.144382e+003, 4.328416e+003
1.144864e+003, 4.328443e+003
1.145346e+003, 4.326542e+003
1.145829e+003, 4.328486e+003
1.146311e+003, 4.331888e+003
1.146793e+003, 4.333343e+003
1.147275e+003, 4.334022e+003
1.147757e+003, 4.336623e+003
1.148239e+003, 4.341408e+003
1.148721e+003, 4.347079e+003
1.149203e+003, 4.353492e+003
1.149686e+003, 4.358823e+003
1.150168e+003, 4.360952e+003
1.150650e+003, 4.362683e+003
1.151132e+003, 4.366071e+003
1.151614e+003, 4.370266e+003
1.152096e+003, 4.374411e+003
1.152578e+003, 4.378381e+003
1.153060e+003, 4.382325e+003
1.153542e+003, 4.386269e+003
1.154025e+003, 4.389597e+003
1.154507e+003, 4.389973e+003
1.154989e+003, 4.392592e+003
1.155471e+003, 4.401607e+003
1.155953e+003, 4.410854e+003
1.156435e+003, 4.415973e+003
1.156917e+003, 4.419074e+003
1.157399e+003, 4.423566e+003
1.157881e+003, 4.429331e+003
1.158364e+003, 4.433427e+003
1.158846e+003, 4.433872e+003
1.159328e+003, 4.435854e+003
1.159810e+003, 4.440776e+003
1.160292e+003, 4.445849e+003
1.160774e+003, 4.450940e+003
1.161256e+003, 4.455168e+003
1.161738e+003, 4.457306e+003
1.162221e+003, 4.458357e+003
1.162703e+003, 4.460860e+003
1.163185e+003, 4.465131e+003
1.163667e+003, 4.468109e+003
1.164149e+003, 4.468368e+003
1.164631e+003, 4.471959e+003
1.165113e+003, 4.481244e+003
1.165595e+003, 4.489641e+003
1.166078e+003, 4.493640e+003
1.166560e+003, 4.495886e+003
1.167042e+003, 4.499854e+003
1.167524e+003, 4.504830e+003
1.168006e+003, 4.506580e+003
1.168488e+003, 4.504851e+003
1.168970e+003, 4.508084e+003
1.169452e+003, 4.516877e+003
1.169934e+003, 4.525314e+003
1.170417e+003, 4.531738e+003
1.170899e+003, 4.536085e+003
1.171381e+003, 4.538076e+003
1.171863e+003, 4.539350e+003
1.172345e+003, 4.542916e+003
1.172827e+003, 4.548008e+003
1.173309e+003, 4.551874e+003
1.173791e+003, 4.554789e+003
1.174273e+003, 4.557682e+003
1.174756e+003, 4.560764e+003
1.175238e+003, 4.563994e+003
1.175720e+003, 4.567455e+003
1.176202e+003, 4.572478e+003
1.176684e+003, 4.581195e+003
1.177166e+003, 4.590092e+003
1.177648e+003, 4.595120e+003
1.178130e+003, 4.597326e+003
1.178613e+003, 4.596483e+003
1.179095e+003, 4.594859e+003
1.179577e+003, 4.596460e+003
1.180059e+003, 4.601759e+003
1.180541e+003, 4.609512e+003
1.181023e+003, 4.619835e+003
1.181505e+003, 4.628330e+003
1.181987e+003, 4.631778e+003
1.182469e+003, 4.633214e+003
1.182952e+003, 4.632250e+003
1.183434e+003, 4.632390e+003
1.183916e+003, 4.638397e+003
1.184398e+003, 4.647541e+003
1.184880e+003, 4.654008e+003
1.185362e+003, 4.657003e+003
1.185844e+003, 4.660076e+003
1.186326e+003, 4.664586e+003
1.186808e+003, 4.668335e+003
1.187291e+003, 4.669213e+003
1.187773e+003, 4.671360e+003
1.188255e+003, 4.678489e+003
1.188737e+003, 4.686057e+003
1.189219e+003, 4.689348e+003
1.189701e+003, 4.689760e+003
1.190183e+003, 4.691800e+003
1.190665e+003, 4.696132e+003
1.191148e+003, 4.698486e+003
1.191630e+003, 4.697627e+003
1.192112e+003, 4.698390e+003
1.192594e+003, 4.701972e+003
1.193076e+003, 4.706238e+003
1.193558e+003, 4.710315e+003
1.194040e+003, 4.713838e+003
1.194522e+003, 4.716177e+003
1.195005e+003, 4.717708e+003
1.195487e+003, 4.720021e+003
1.195969e+003, 4.723077e+003
1.196451e+003, 4.726064e+003
1.196933e+003, 4.728955e+003
1.197415e+003, 4.731962e+003
1.197897e+003, 4.735190e+003
1.198379e+003, 4.739837e+003
1.198861e+003, 4.746890e+003
1.199344e+003, 4.753384e+003
1.199826e+003, 4.754425e+003
1.200308e+003, 4.752710e+003
1.200790e+003, 4.752945e+003
1.201272e+003, 4.755193e+003
1.201754e+003, 4.760476e+003
1.202236e+003, 4.767798e+003
1.202718e+003, 4.774566e+003
1.203200e+003, 4.779923e+003
1.203683e+003, 4.783664e+003
1.204165e+003, 4.785025e+003
1.204647e+003, 4.786560e+003
1.205129e+003, 4.789462e+003
1.205611e+003, 4.794133e+003
1.206093e+003, 4.803494e+003
1.206575e+003, 4.812876e+003
1.207057e+003, 4.815322e+003
1.207540e+003, 4.813035e+003
1.208022e+003, 4.813511e+003
1.208504e+003, 4.818427e+003
1.208986e+003, 4.823478e+003
1.209468e+003, 4.827741e+003
1.209950e+003, 4.831891e+003
1.210432e+003, 4.837256e+003
1.210914e+003, 4.841134e+003
1.211396e+003, 4.839563e+003
1.211879e+003, 4.838055e+003
1.212361e+003, 4.843094e+003
1.212843e+003, 4.852898e+003
1.213325e+003, 4.860237e+003
1.213807e+003, 4.864611e+003
1.214289e+003, 4.868938e+003
1.214771e+003, 4.873521e+003
1.215253e+003, 4.876384e+003
1.215735e+003, 4.876354e+003
1.216218e+003, 4.878894e+003
1.216700e+003, 4.887606e+003
1.217182e+003, 4.896848e+003
1.217664e+003, 4.899190e+003
1.218146e+003, 4.897245e+003
1.218628e+003, 4.899588e+003
1.219110e+003, 4.905242e+003
1.219592e+003, 4.908575e+003
1.220075e+003, 4.910125e+003
1.220557e+003, 4.915000e+003
1.221039e+003, 4.923829e+003
1.221521e+003, 4.932364e+003
1.222003e+003, 4.938235e+003
1.222485e+003, 4.943116e+003
1.222967e+003, 4.949038e+003
1.223449e+003, 4.954526e+003
1.223932e+003, 4.957646e+003
1.224414e+003, 4.959491e+003
1.224896e+003, 4.960817e+003
1.225378e+003, 4.962334e+003
1.225860e+003, 4.965644e+003
1.226342e+003, 4.970508e+003
1.226824e+003, 4.973513e+003
1.227306e+003, 4.971923e+003
1.227788e+003, 4.972930e+003
1.228271e+003, 4.981852e+003
1.228753e+003, 4.990080e+003
1.229235e+003, 4.992852e+003
1.229717e+003, 4.994509e+003
1.230199e+003, 4.998226e+003
1.230681e+003, 5.003335e+003
1.231163e+003, 5.008599e+003
1.231645e+003, 5.013985e+003
1.232127e+003, 5.019192e+003
1.232610e+003, 5.024896e+003
1.233092e+003, 5.028005e+003
1.233574e+003, 5.027454e+003
1.234056e+003, 5.027585e+003
1.234538e+003, 5.029667e+003
1.235020e+003, 5.033256e+003
1.235502e+003, 5.038359e+003
1.235984e+003, 5.043342e+003
1.236467e+003, 5.044868e+003
1.236949e+003, 5.044002e+003
1.237431e+003, 5.044617e+003
1.237913e+003, 5.046888e+003
1.238395e+003, 5.052370e+003
1.238877e+003, 5.060413e+003
1.239359e+003, 5.068049e+003
1.239841e+003, 5.074133e+003
1.240323e+003, 5.077711e+003
1.240806e+003, 5.077471e+003
1.241288e+003, 5.077971e+003
1.241770e+003, 5.084588e+003
1.242252e+003, 5.092929e+003
1.242734e+003, 5.099520e+003
1.243216e+003, 5.104604e+003
1.243698e+003, 5.108048e+003
1.244180e+003, 5.110624e+003
1.244662e+003, 5.114015e+003
1.245145e+003, 5.118361e+003
1.245627e+003, 5.121347e+003
1.246109e+003, 5.120625e+003
1.246591e+003, 5.121787e+003
1.247073e+003, 5.126891e+003
1.247555e+003, 5.132632e+003
1.248037e+003, 5.139145e+003
1.248519e+003, 5.144375e+003
1.249002e+003, 5.146129e+003
1.249484e+003, 5.146434e+003
1.249966e+003, 5.149079e+003
1.250448e+003, 5.153903e+003
1.250930e+003, 5.157766e+003
1.251412e+003, 5.160354e+003
1.251894e+003, 5.165781e+003
1.252376e+003, 5.174489e+003
1.252859e+003, 5.182221e+003
1.253341e+003, 5.187656e+003
1.253823e+003, 5.192086e+003
1.254305e+003, 5.196380e+003
1.254787e+003, 5.200056e+003
1.255269e+003, 5.201477e+003
1.255751e+003, 5.202555e+003
1.256233e+003, 5.207109e+003
1.256715e+003, 5.213872e+003
1.257198e+003, 5.221452e+003
1.257680e+003, 5.228901e+003
1.258162e+003, 5.234489e+003
1.258644e+003, 5.238143e+003
1.259126e+003, 5.241586e+003
1.259608e+003, 5.245470e+003
1.260090e+003, 5.249538e+003
1.260572e+003, 5.254087e+003
1.261054e+003, 5.258289e+003
1.261537e+003, 5.261408e+003
1.262019e+003, 5.264401e+003
1.262501e+003, 5.268399e+003
1.262983e+003, 5.272555e+003
1.263465e+003, 5.274521e+003
1.263947e+003, 5.275032e+003
1.264429e+003, 5.280729e+003
1.264911e+003, 5.295435e+003
1.265394e+003, 5.301067e+003
1.265876e+003, 5.294756e+003
1.266358e+003, 5.292384e+003
1.266840e+003, 5.298098e+003
1.267322e+003, 5.302944e+003
1.267804e+003, 5.301655e+003
1.268286e+003, 5.300347e+003
1.268768e+003, 5.306997e+003
1.269250e+003, 5.317712e+003
1.269733e+003, 5.323767e+003
1.270215e+003, 5.326850e+003
1.270697e+003, 5.331125e+003
1.271179e+003, 5.336231e+003
1.271661e+003, 5.340534e+003
1.272143e+003, 5.343882e+003
1.272625e+003, 5.346786e+003
1.273107e+003, 5.349456e+003
1.273589e+003, 5.353142e+003
1.274072e+003, 5.359849e+003
1.274554e+003, 5.365995e+003
1.275036e+003, 5.369827e+003
1.275518e+003, 5.372453e+003
1.276000e+003, 5.373843e+003
1.276482e+003, 5.374884e+003
1.276964e+003, 5.376294e+003
1.277446e+003, 5.378915e+003
1.277929e+003, 5.383349e+003
1.278411e+003, 5.390001e+003
1.278893e+003, 5.394411e+003
1.279375e+003, 5.395852e+003
1.279857e+003, 5.398074e+003
1.280339e+003, 5.401411e+003
1.280821e+003, 5.406199e+003
1.281303e+003, 5.412952e+003
1.281786e+003, 5.422269e+003
1.282268e+003, 5.434031e+003
##END=



