##NAMES=Lillianite
##RRUFFID=R110141
##IDEAL CHEMISTRY=Pb^2+^_3-2x_Ag^1+^_x_Bi^3+^_2+x_S^2-^_6_
##LOCALITY=Pedro claim, King County, Washington, USA
##OWNER=RRUFF
##SOURCE=Rob Lavinsky
##DESCRIPTION=Elongated prismatic silver gray metallic crystal, with severe exterior corrosion associated with aikinite, galena, neyite, and gustavite
##STATUS=The identification of this mineral is confirmed by single-crystal X-ray diffraction and chemical analysis.
##URL=rruff.info/R110141
##MEASURED CHEMISTRY=Pb_1.82_Ag_0.62_Cu_0.04_(Bi_2.66_Sb_0.01_)_âˆ‘=2.67_S_6_
144.6364, 63.79350
145.1185, 63.46388
145.6006, 63.50125
146.0827, 63.63716
146.5648, 63.82377
147.0469, 64.00880
147.5291, 64.10821
148.0112, 64.02802
148.4933, 63.91292
148.9754, 64.15526
149.4575, 65.12251
149.9396, 65.80031
150.4218, 65.75809
150.9039, 65.31165
151.3860, 64.85921
151.8681, 64.62148
152.3502, 64.58347
152.8323, 64.62584
153.3145, 65.13461
153.7966, 65.32989
154.2787, 64.79740
154.7608, 63.81829
155.2429, 62.93923
155.7250, 62.59454
156.2072, 62.82389
156.6893, 63.03425
157.1714, 63.16948
157.6535, 63.33979
158.1356, 63.72653
158.6177, 64.24674
159.0999, 64.56464
159.5820, 64.32136
160.0641, 63.39186
160.5462, 62.74367
161.0283, 62.41867
161.5104, 62.32744
161.9926, 62.43168
162.4747, 62.72326
162.9568, 63.17205
163.4389, 63.92631
163.9210, 64.95296
164.4031, 65.41943
164.8853, 64.85070
165.3674, 63.73436
165.8495, 62.69525
166.3316, 61.73297
166.8137, 61.09964
167.2958, 61.20309
167.7780, 61.87182
168.2601, 62.51471
168.7422, 62.83424
169.2243, 62.89627
169.7064, 62.98481
170.1885, 63.28106
170.6707, 63.38612
171.1528, 62.80230
171.6349, 61.72632
172.1170, 60.95927
172.5991, 61.43223
173.0812, 63.23616
173.5634, 64.32339
174.0455, 64.09004
174.5276, 63.45379
175.0097, 62.41887
175.4918, 61.18573
175.9739, 60.30303
176.4561, 60.54417
176.9382, 62.43341
177.4203, 63.66658
177.9024, 63.85516
178.3845, 63.77363
178.8666, 63.78815
179.3488, 63.95994
179.8309, 64.15036
180.3130, 64.17368
180.7951, 63.98999
181.2772, 63.69588
181.7593, 62.92681
182.2415, 62.28935
182.7236, 62.47330
183.2057, 63.56248
183.6878, 64.78874
184.1699, 64.94223
184.6520, 63.15601
185.1342, 61.96769
185.6163, 61.68520
186.0984, 61.90816
186.5805, 62.28269
187.0626, 62.71608
187.5447, 63.15980
188.0269, 63.58095
188.5090, 64.07771
188.9911, 64.22497
189.4732, 63.53994
189.9553, 62.49961
190.4374, 61.99563
190.9196, 62.38898
191.4017, 63.16000
191.8838, 63.56305
192.3659, 63.59089
192.8480, 63.56917
193.3301, 63.69378
193.8123, 63.90009
194.2944, 63.94230
194.7765, 63.70861
195.2586, 63.33677
195.7407, 62.93534
196.2228, 62.50270
196.7050, 62.18945
197.1871, 62.11294
197.6692, 62.26800
198.1513, 62.57369
198.6334, 63.47690
199.1155, 64.10075
199.5977, 63.57264
200.0798, 61.92263
200.5619, 60.32875
201.0440, 60.12010
201.5261, 61.56353
202.0082, 62.60558
202.4904, 62.58974
202.9725, 62.39060
203.4546, 62.48388
203.9367, 62.90123
204.4188, 63.30631
204.9009, 63.16790
205.3831, 62.12779
205.8652, 61.66611
206.3473, 62.42170
206.8294, 63.27587
207.3115, 63.54854
207.7936, 63.15329
208.2758, 62.48974
208.7579, 62.12366
209.2400, 62.25679
209.7221, 62.25389
210.2042, 62.03447
210.6863, 61.76137
211.1685, 61.46569
211.6506, 61.18777
212.1327, 61.05847
212.6148, 61.30674
213.0969, 62.32171
213.5790, 62.86591
214.0612, 62.71849
214.5433, 62.27857
215.0254, 61.74557
215.5075, 61.19957
215.9896, 60.79298
216.4717, 60.79079
216.9539, 61.52809
217.4360, 61.84251
217.9181, 61.48198
218.4002, 60.80779
218.8823, 60.08167
219.3644, 59.36640
219.8466, 58.78350
220.3287, 58.54842
220.8108, 58.72372
221.2929, 58.87172
221.7750, 58.94899
222.2571, 58.96377
222.7393, 58.92248
223.2214, 58.82517
223.7035, 58.68190
224.1856, 58.51176
224.6677, 58.31977
225.1498, 58.04417
225.6320, 57.50547
226.1141, 56.91267
226.5962, 56.66090
227.0783, 56.89485
227.5604, 57.23321
228.0425, 57.26223
228.5247, 57.05460
229.0068, 56.89283
229.4889, 56.89605
229.9710, 57.01998
230.4531, 57.24285
230.9352, 57.72352
231.4174, 57.94277
231.8995, 57.12806
232.3816, 55.68829
232.8637, 54.78376
233.3458, 55.43181
233.8279, 57.09196
234.3101, 57.97840
234.7922, 57.75306
235.2743, 57.19844
235.7564, 56.61423
236.2385, 56.07396
236.7206, 55.73737
237.2028, 55.76466
237.6849, 56.07434
238.1670, 56.34025
238.6491, 56.65020
239.1312, 56.75951
239.6133, 56.45807
240.0955, 55.93495
240.5776, 55.51124
241.0597, 55.40935
241.5418, 55.54952
242.0239, 55.52615
242.5060, 55.08463
242.9882, 54.84001
243.4703, 55.14705
243.9524, 55.70916
244.4345, 56.06955
244.9166, 55.92710
245.3987, 55.42665
245.8809, 55.27279
246.3630, 55.86892
246.8451, 56.30132
247.3272, 56.33267
247.8093, 56.11640
248.2914, 55.83753
248.7736, 55.59030
249.2557, 55.37621
249.7378, 55.20265
250.2199, 55.05530
250.7020, 54.97564
251.1841, 55.01323
251.6663, 55.10508
252.1484, 55.19496
252.6305, 55.25765
253.1126, 55.27433
253.5947, 55.18165
254.0768, 54.79394
254.5590, 54.52100
255.0411, 54.46472
255.5232, 54.50432
256.0053, 54.48446
256.4874, 54.34074
256.9695, 54.15887
257.4517, 54.14668
257.9338, 54.65785
258.4159, 54.91119
258.8980, 54.58022
259.3801, 54.12774
259.8622, 54.17975
260.3444, 54.93570
260.8265, 55.86584
261.3086, 55.94636
261.7907, 54.19985
262.2728, 53.12952
262.7549, 53.29983
263.2371, 53.89620
263.7192, 54.12899
264.2013, 53.78567
264.6834, 53.13745
265.1655, 52.54947
265.6476, 51.95491
266.1298, 51.64890
266.6119, 51.85622
267.0940, 52.23254
267.5761, 52.51337
268.0582, 52.63885
268.5403, 52.58495
269.0225, 52.27854
269.5046, 51.62787
269.9867, 51.15820
270.4688, 51.06737
270.9509, 51.04779
271.4330, 50.77155
271.9152, 50.21657
272.3973, 49.71679
272.8794, 49.66363
273.3615, 50.09314
273.8436, 50.15934
274.3257, 49.46583
274.8079, 48.67439
275.2900, 48.30089
275.7721, 48.36433
276.2542, 48.63185
276.7363, 49.02236
277.2184, 49.48312
277.7006, 49.69524
278.1827, 49.55263
278.6648, 49.24218
279.1469, 48.76781
279.6290, 48.17363
280.1111, 47.79272
280.5933, 47.95972
281.0754, 48.44946
281.5575, 48.49533
282.0396, 47.94750
282.5217, 47.15064
283.0038, 46.10129
283.4860, 44.89391
283.9681, 44.05648
284.4502, 43.98461
284.9323, 44.30647
285.4144, 44.21694
285.8965, 43.60062
286.3787, 42.88395
286.8608, 42.29501
287.3429, 41.79795
287.8250, 41.24256
288.3071, 40.54974
288.7892, 39.82058
289.2714, 39.21849
289.7535, 38.76323
290.2356, 38.27241
290.7177, 37.59026
291.1998, 36.80506
291.6819, 36.19049
292.1641, 35.90718
292.6462, 35.60284
293.1283, 34.74324
293.6104, 33.40910
294.0925, 32.31783
294.5746, 31.93318
295.0568, 31.95650
295.5389, 31.74488
296.0210, 31.12920
296.5031, 30.56574
296.9852, 30.61434
297.4673, 31.05725
297.9495, 31.29813
298.4316, 31.11897
298.9137, 30.63808
299.3958, 29.95259
299.8779, 29.01108
300.3600, 28.12983
300.8422, 27.56786
301.3243, 27.20653
301.8064, 26.86620
302.2885, 26.47949
302.7706, 26.12100
303.2527, 25.92876
303.7349, 25.92044
304.2170, 25.81112
304.6991, 25.40920
305.1812, 24.84906
305.6633, 24.29540
306.1454, 23.74151
306.6276, 23.26464
307.1097, 22.97511
307.5918, 22.86169
308.0739, 22.69621
308.5560, 22.26549
309.0381, 21.89186
309.5203, 22.04465
310.0024, 22.80364
310.4845, 23.37487
310.9666, 23.04375
311.4487, 22.00167
311.9308, 21.20165
312.4130, 20.90096
312.8951, 20.79525
313.3772, 20.63555
313.8593, 20.42316
314.3414, 20.15871
314.8235, 19.67629
315.3057, 19.14720
315.7878, 19.10374
316.2699, 19.79977
316.7520, 20.47489
317.2341, 20.45980
317.7162, 20.00246
318.1984, 19.61645
318.6805, 19.52644
319.1626, 19.59453
319.6447, 19.65857
320.1268, 19.75136
320.6089, 19.67596
321.0911, 19.22741
321.5732, 18.55717
322.0553, 17.81873
322.5374, 16.91264
323.0195, 16.15420
323.5016, 15.90227
323.9838, 16.15706
324.4659, 16.63040
324.9480, 17.47795
325.4301, 18.29407
325.9122, 18.52851
326.3943, 18.05538
326.8765, 17.52739
327.3586, 17.49685
327.8407, 17.85663
328.3228, 18.02118
328.8049, 17.86869
329.2870, 17.44680
329.7692, 16.65022
330.2513, 15.53015
330.7334, 14.73870
331.2155, 14.84007
331.6976, 15.47565
332.1797, 15.78736
332.6619, 15.60953
333.1440, 15.32405
333.6261, 15.21155
334.1082, 15.22837
334.5903, 15.29514
335.0724, 15.49511
335.5546, 15.67939
336.0367, 15.65345
336.5188, 15.40921
337.0009, 15.01753
337.4830, 14.28966
337.9651, 13.51875
338.4473, 13.28396
338.9294, 13.91120
339.4115, 14.66791
339.8936, 15.01483
340.3757, 14.98193
340.8578, 14.74183
341.3400, 14.20412
341.8221, 13.64926
342.3042, 13.53761
342.7863, 13.95105
343.2684, 14.31555
343.7505, 14.31958
344.2327, 14.06859
344.7148, 13.76799
345.1969, 13.40465
345.6790, 13.15152
346.1611, 13.29700
346.6432, 13.77573
347.1254, 14.24536
347.6075, 14.70104
348.0896, 15.05940
348.5717, 15.16636
349.0538, 15.00233
349.5359, 14.79960
350.0181, 14.81283
350.5002, 14.92651
350.9823, 14.67046
351.4644, 13.52065
351.9465, 12.42293
352.4286, 12.04559
352.9108, 12.29322
353.3929, 12.74096
353.8750, 13.27468
354.3571, 13.79126
354.8392, 14.03585
355.3214, 13.95301
355.8035, 13.78062
356.2856, 13.43565
356.7677, 13.08779
357.2498, 13.13400
357.7319, 13.74234
358.2141, 14.46053
358.6962, 14.64575
359.1783, 14.22112
359.6604, 13.76865
360.1425, 13.15756
360.6246, 12.66522
361.1068, 12.71461
361.5889, 13.28951
362.0710, 13.75119
362.5531, 13.50479
363.0352, 12.56131
363.5173, 11.98829
363.9995, 11.94847
364.4816, 12.07385
364.9637, 12.26435
365.4458, 12.48565
365.9279, 12.67725
366.4100, 12.80730
366.8922, 12.88749
367.3743, 12.95369
367.8564, 13.10125
368.3385, 13.10391
368.8206, 12.82921
369.3027, 12.43817
369.7849, 12.07763
370.2670, 11.79754
370.7491, 11.63679
371.2312, 11.65909
371.7133, 11.92320
372.1954, 12.21558
372.6776, 12.70118
373.1597, 13.07691
373.6418, 13.02230
374.1239, 12.63994
374.6060, 12.39531
375.0881, 12.71339
375.5703, 13.56171
376.0524, 13.84219
376.5345, 12.95560
377.0166, 12.20324
377.4987, 11.83842
377.9808, 11.79791
378.4630, 12.04194
378.9451, 12.55540
379.4272, 13.14945
379.9093, 13.35218
380.3914, 12.80047
380.8735, 12.45582
381.3557, 12.57579
381.8378, 12.73703
382.3199, 12.55634
382.8020, 12.02295
383.2841, 11.47681
383.7662, 11.34008
384.2484, 11.70315
384.7305, 11.83639
385.2126, 11.38632
385.6947, 11.04165
386.1768, 11.04085
386.6589, 11.31339
387.1411, 11.71579
387.6232, 12.20109
388.1053, 12.69528
388.5874, 12.91830
389.0695, 12.76573
389.5516, 12.52337
390.0338, 12.28097
390.5159, 11.98119
390.9980, 11.45298
391.4801, 10.65800
391.9622, 10.01427
392.4443, 10.20331
392.9265, 11.35208
393.4086, 12.09945
393.8907, 12.11360
394.3728, 11.80769
394.8549, 11.15545
395.3370, 10.32911
395.8192, 9.896604
396.3013, 10.54943
396.7834, 11.86678
397.2655, 12.33777
397.7476, 11.60190
398.2297, 10.95509
398.7119, 11.44039
399.1940, 12.31321
399.6761, 12.51887
400.1582, 11.52883
400.6403, 10.39757
401.1224, 10.34322
401.6046, 11.29344
402.0867, 12.02644
402.5688, 12.17380
403.0509, 11.93777
403.5330, 11.50708
404.0151, 10.87374
404.4973, 10.37050
404.9794, 10.15281
405.4615, 10.15649
405.9436, 10.30969
406.4257, 10.61859
406.9078, 10.95166
407.3900, 11.20018
407.8721, 11.37831
408.3542, 11.57436
408.8363, 11.98600
409.3184, 12.24415
409.8005, 11.88124
410.2827, 11.11268
410.7648, 10.76533
411.2469, 11.31007
411.7290, 12.26734
412.2111, 12.49810
412.6932, 11.72992
413.1754, 11.04952
413.6575, 10.55947
414.1396, 10.28941
414.6217, 10.40722
415.1038, 10.89278
415.5859, 11.30544
416.0681, 11.14747
416.5502, 10.32590
417.0323, 9.999715
417.5144, 10.53042
417.9965, 11.09218
418.4786, 11.43054
418.9608, 11.54561
419.4429, 11.45816
419.9250, 11.16978
420.4071, 10.76293
420.8892, 10.45479
421.3713, 10.14475
421.8535, 10.11882
422.3356, 10.60527
422.8177, 11.20238
423.2998, 11.66932
423.7819, 11.93785
424.2640, 11.98572
424.7462, 11.74541
425.2283, 11.18778
425.7104, 10.75873
426.1925, 10.40473
426.6746, 10.26005
427.1567, 10.55059
427.6389, 11.03076
428.1210, 11.32364
428.6031, 11.23940
429.0852, 10.92074
429.5673, 10.63391
430.0494, 10.37278
430.5316, 10.16315
431.0137, 10.04265
431.4958, 9.958579
431.9779, 9.787322
432.4600, 9.557124
432.9421, 9.576517
433.4243, 10.40889
433.9064, 11.75628
434.3885, 12.22750
434.8706, 11.45091
435.3527, 10.51659
435.8348, 10.14138
436.3170, 10.07897
436.7991, 9.907491
437.2812, 9.372752
437.7633, 8.913988
438.2454, 9.031794
438.7275, 9.647412
439.2097, 10.22326
439.6918, 10.59482
440.1739, 10.81464
440.6560, 10.93207
441.1381, 10.94394
441.6202, 10.95462
442.1024, 11.07433
442.5845, 11.16328
443.0666, 10.91297
443.5487, 10.34129
444.0308, 10.05373
444.5129, 10.63296
444.9951, 11.93173
445.4772, 12.55307
445.9593, 12.02839
446.4414, 11.47829
446.9235, 11.24552
447.4056, 11.19806
447.8878, 11.12406
448.3699, 10.95172
448.8520, 10.76164
449.3341, 10.68962
449.8162, 10.83117
450.2983, 10.81267
450.7805, 10.35196
451.2626, 10.01394
451.7447, 10.26711
452.2268, 10.90579
452.7089, 11.35564
453.1910, 11.21876
453.6732, 10.62354
454.1553, 10.05750
454.6374, 9.212407
455.1195, 8.968349
455.6016, 10.04667
456.0837, 11.32364
456.5659, 11.78210
457.0480, 11.27254
457.5301, 10.47809
458.0122, 10.01239
458.4943, 9.872735
458.9764, 10.06136
459.4586, 10.91968
459.9407, 11.58580
460.4228, 11.55847
460.9049, 11.06677
461.3870, 10.47057
461.8691, 9.778318
462.3513, 9.225837
462.8334, 9.208072
463.3155, 9.702366
463.7976, 10.08697
464.2797, 10.04109
464.7618, 9.964661
465.2440, 10.55302
465.7261, 11.83672
466.2082, 12.58263
466.6903, 11.86802
467.1724, 10.66940
467.6545, 10.27097
468.1367, 10.72991
468.6188, 11.17951
469.1009, 11.05374
469.5830, 10.44415
470.0651, 9.816082
470.5472, 8.957865
471.0294, 8.350937
471.5115, 8.174408
471.9936, 8.292118
472.4757, 8.638249
472.9578, 9.164129
473.4399, 9.610064
473.9221, 9.617370
474.4042, 9.045618
474.8863, 8.858885
475.3684, 9.492316
475.8505, 10.00168
476.3326, 9.898920
476.8148, 9.460630
477.2969, 9.187490
477.7790, 9.326129
478.2611, 9.700441
478.7432, 9.990559
479.2253, 10.29081
479.7075, 10.22807
480.1896, 9.167508
480.6717, 8.225411
481.1538, 8.183832
481.6359, 8.892671
482.1180, 9.533378
482.6002, 9.450268
483.0823, 8.930994
483.5644, 8.833232
484.0465, 9.276060
484.5286, 9.709720
485.0107, 9.941053
485.4929, 10.00277
485.9750, 9.893851
486.4571, 9.577890
486.9392, 9.277961
487.4213, 9.176222
487.9034, 9.180973
488.3856, 9.044163
488.8677, 8.699506
489.3498, 8.430449
489.8319, 8.539997
490.3140, 8.991192
490.7961, 9.220098
491.2783, 8.990737
491.7604, 8.792968
492.2425, 8.923976
492.7246, 9.229773
493.2067, 9.427546
493.6888, 9.417924
494.1710, 9.263788
494.6531, 9.032273
495.1352, 8.610070
495.6173, 8.490510
496.0994, 8.950629
496.5815, 9.398921
497.0637, 9.512167
497.5458, 9.389602
498.0279, 9.290412
498.5100, 9.361997
498.9921, 9.537716
499.4742, 9.644526
499.9564, 9.639497
500.4385, 9.674307
500.9206, 9.741577
501.4027, 9.877801
501.8848, 10.23778
502.3669, 10.74097
502.8491, 11.00578
503.3312, 10.60230
503.8133, 9.810057
504.2954, 9.466440
504.7775, 9.699450
505.2596, 9.768600
505.7418, 9.135641
506.2239, 8.251340
506.7060, 7.752113
507.1881, 7.716372
507.6702, 7.875989
508.1523, 8.254953
508.6345, 8.691666
509.1166, 8.893994
509.5987, 8.818879
510.0808, 8.648469
510.5629, 8.511676
511.0450, 8.409404
511.5272, 8.336294
512.0093, 8.293222
512.4914, 8.273290
512.9735, 8.224595
513.4556, 8.217655
513.9377, 8.444263
514.4199, 8.917484
514.9020, 9.291388
515.3841, 9.051627
515.8662, 8.033584
516.3483, 7.538809
516.8304, 8.191644
517.3126, 8.717591
517.7947, 8.632910
518.2768, 8.237113
518.7589, 8.044056
519.2410, 8.271875
519.7231, 8.533593
520.2053, 8.089059
520.6874, 6.849494
521.1695, 6.290757
521.6516, 7.151021
522.1337, 8.035671
522.6158, 7.857218
523.0980, 6.941353
523.5801, 6.215883
524.0622, 6.018113
524.5443, 6.140001
525.0264, 6.499716
525.5085, 7.042368
525.9907, 7.412303
526.4728, 7.461488
526.9549, 7.343076
527.4370, 7.252100
527.9191, 7.174309
528.4012, 7.204280
528.8834, 7.485620
529.3655, 7.762842
529.8476, 7.908045
530.3297, 7.900259
530.8118, 7.672731
531.2939, 7.168878
531.7761, 6.557340
532.2582, 6.284842
532.7403, 6.615958
533.2224, 6.805427
533.7045, 6.776864
534.1866, 6.678697
534.6688, 6.530066
535.1509, 6.384586
535.6330, 6.358644
536.1151, 6.551079
536.5972, 6.884257
537.0793, 7.166059
537.5615, 7.398985
538.0436, 7.568252
538.5257, 7.721273
539.0078, 7.757018
539.4899, 7.479399
539.9720, 6.913731
540.4542, 6.545084
540.9363, 6.775685
541.4184, 7.260415
541.9005, 7.564428
542.3826, 7.666523
542.8647, 7.520457
543.3469, 7.002286
543.8290, 6.320932
544.3111, 6.037245
544.7932, 6.279344
545.2753, 6.547021
545.7574, 6.844162
546.2396, 7.088526
546.7217, 7.176909
547.2038, 7.133047
547.6859, 7.076674
548.1680, 7.091270
548.6501, 7.162070
549.1323, 7.241129
549.6144, 7.477595
550.0965, 7.447312
550.5786, 6.742363
551.0607, 6.066621
551.5428, 6.015369
552.0250, 6.550894
552.5071, 7.145966
552.9892, 7.469910
553.4713, 7.553369
553.9534, 7.440840
554.4355, 7.085674
554.9177, 6.760738
555.3998, 6.492076
555.8819, 6.378940
556.3640, 6.619363
556.8461, 7.284080
557.3282, 7.738321
557.8104, 7.519717
558.2925, 7.089095
558.7746, 7.041966
559.2567, 7.368278
559.7388, 7.666267
560.2209, 7.716271
560.7031, 7.533299
561.1852, 7.162784
561.6673, 6.098187
562.1494, 5.573102
562.6315, 6.072061
563.1136, 6.748948
563.5958, 6.968263
564.0779, 6.768897
564.5600, 6.581512
565.0421, 6.744164
565.5242, 7.084424
566.0063, 6.962782
566.4885, 6.164910
566.9706, 5.533075
567.4527, 5.295198
567.9348, 5.278368
568.4169, 5.467880
568.8990, 5.816779
569.3812, 6.085440
569.8633, 6.080785
570.3454, 5.956645
570.8275, 5.960717
571.3096, 6.081038
571.7917, 6.103046
572.2739, 5.895990
572.7560, 5.607266
573.2381, 5.504373
573.7202, 5.620116
574.2023, 5.773402
574.6844, 6.086312
575.1666, 6.312157
575.6487, 6.159370
576.1308, 5.777028
576.6129, 5.575585
577.0950, 5.774766
577.5771, 6.200945
578.0593, 6.515015
578.5414, 6.813352
579.0235, 6.732193
579.5056, 5.881917
579.9877, 4.988106
580.4698, 4.153937
580.9520, 3.545561
581.4341, 3.512075
581.9162, 4.361035
582.3983, 5.534502
582.8804, 6.444712
583.3625, 7.072148
583.8447, 7.079299
584.3268, 6.198050
584.8089, 5.108689
585.2910, 4.450953
585.7731, 4.206401
586.2552, 4.212094
586.7374, 4.618744
587.2195, 5.100705
587.7016, 5.659402
588.1837, 6.133501
588.6658, 6.124620
589.1479, 5.546817
589.6301, 4.954369
590.1122, 5.113208
590.5943, 6.167350
591.0764, 6.576029
591.5585, 5.567389
592.0406, 4.802498
592.5228, 4.814041
593.0049, 5.210328
593.4870, 5.587881
593.9691, 5.833862
594.4512, 5.899251
594.9333, 5.641982
595.4155, 5.147996
595.8976, 4.786595
596.3797, 4.580411
596.8618, 4.506851
597.3439, 4.653612
597.8260, 4.887125
598.3082, 4.867103
598.7903, 4.453863
599.2724, 4.141170
599.7545, 4.133792
600.2366, 4.276441
600.7188, 4.423682
601.2009, 4.556687
601.6830, 4.711569
602.1651, 4.922714
602.6472, 5.152381
603.1293, 5.261298
603.6115, 5.229489
604.0936, 5.105617
604.5757, 4.792883
605.0578, 4.488044
605.5399, 4.253912
606.0220, 4.130486
606.5042, 4.209261
606.9863, 4.625211
607.4684, 5.142900
607.9505, 5.278854
608.4326, 5.050001
608.9147, 5.200701
609.3969, 6.154593
609.8790, 7.121509
610.3611, 7.087221
610.8432, 6.149790
611.3253, 5.507512
611.8074, 5.455083
612.2896, 5.548883
612.7717, 5.587918
613.2538, 5.605906
613.7359, 5.708887
614.2180, 5.916852
614.7001, 6.080788
615.1823, 6.009539
615.6644, 5.689041
616.1465, 5.428146
616.6286, 5.305593
617.1107, 5.134525
617.5928, 4.730429
618.0750, 4.335943
618.5571, 4.254734
619.0392, 4.531354
619.5213, 4.827463
620.0034, 4.854539
620.4855, 4.726492
620.9677, 4.719925
621.4498, 4.851240
621.9319, 4.933966
622.4140, 4.867931
622.8961, 4.706605
623.3782, 4.536519
623.8604, 4.299348
624.3425, 4.233493
624.8246, 4.508145
625.3067, 4.836297
625.7888, 5.076181
626.2709, 5.205043
626.7531, 5.201741
627.2352, 5.052941
627.7173, 4.840407
628.1994, 4.729739
628.6815, 4.754777
629.1636, 4.672895
629.6458, 4.238859
630.1279, 4.008039
630.6100, 4.476286
631.0921, 5.259103
631.5742, 5.630553
632.0563, 5.286409
632.5385, 4.887845
633.0206, 5.109085
633.5027, 5.563672
633.9848, 5.290882
634.4669, 4.177104
634.9490, 3.278422
635.4312, 3.399615
635.9133, 4.332922
636.3954, 5.101005
636.8775, 5.877504
637.3596, 6.221585
637.8417, 5.785204
638.3239, 5.182306
638.8060, 4.738396
639.2881, 4.521928
639.7702, 4.590595
640.2523, 5.051766
640.7344, 5.625906
641.2166, 5.669959
641.6987, 5.149259
642.1808, 4.953039
642.6629, 5.479975
643.1450, 6.005026
643.6271, 5.657002
644.1093, 4.715619
644.5914, 4.229176
645.0735, 4.754481
645.5556, 5.288991
646.0377, 5.458682
646.5198, 5.314194
647.0020, 4.794230
647.4841, 3.956996
647.9662, 3.178772
648.4483, 2.795362
648.9304, 2.768845
649.4125, 2.833017
649.8947, 3.053919
650.3768, 3.240775
650.8589, 3.263621
651.3410, 3.319231
651.8231, 3.568138
652.3052, 3.989892
652.7874, 4.443058
653.2695, 5.008049
653.7516, 5.425217
654.2337, 5.210349
654.7158, 4.515864
655.1979, 4.037728
655.6801, 3.973905
656.1622, 4.186210
656.6443, 4.579274
657.1264, 5.171190
657.6085, 5.569402
658.0906, 5.812772
658.5728, 5.845512
659.0549, 5.444802
659.5370, 4.954066
660.0191, 4.779492
660.5012, 4.937642
660.9833, 5.072185
661.4655, 4.859966
661.9476, 4.419907
662.4297, 4.090909
662.9118, 3.861961
663.3939, 3.860954
663.8760, 4.281921
664.3582, 4.762786
664.8403, 4.793241
665.3224, 4.416902
665.8045, 4.208555
666.2866, 4.499063
666.7687, 4.728555
667.2509, 4.461209
667.7330, 3.965043
668.2151, 3.702431
668.6972, 3.784508
669.1793, 3.969713
669.6614, 3.990066
670.1436, 3.869842
670.6257, 3.974837
671.1078, 4.442490
671.5899, 4.851552
672.0720, 5.221360
672.5541, 5.391257
673.0363, 5.111351
673.5184, 4.424953
674.0005, 3.836159
674.4826, 3.515146
674.9647, 3.420016
675.4468, 3.626422
675.9290, 4.026490
676.4111, 4.339250
676.8932, 4.480176
677.3753, 4.376641
677.8574, 3.847661
678.3395, 2.850325
678.8217, 2.547296
679.3038, 3.670849
679.7859, 4.570102
680.2680, 4.954503
680.7501, 5.006060
681.2322, 4.789188
681.7144, 4.374038
682.1965, 3.998043
682.6786, 3.838214
683.1607, 3.799061
683.6428, 3.665700
684.1249, 3.472747
684.6071, 3.581114
685.0892, 4.170592
685.5713, 4.833407
686.0534, 5.092330
686.5355, 4.916951
687.0176, 4.836910
687.4998, 4.984630
687.9819, 5.052866
688.4640, 4.862059
688.9461, 4.619311
689.4282, 4.545084
689.9103, 4.654937
690.3925, 4.809036
690.8746, 4.918205
691.3567, 4.981684
691.8388, 4.993661
692.3209, 4.953522
692.8030, 4.875374
693.2852, 4.751643
693.7673, 4.608877
694.2494, 4.417925
694.7315, 4.198215
695.2136, 4.210550
695.6957, 4.822443
696.1779, 5.233994
696.6600, 5.061690
697.1421, 4.611910
697.6242, 4.173706
698.1063, 3.817238
698.5884, 3.518756
699.0706, 3.248961
699.5527, 3.043763
700.0348, 3.031612
700.5169, 3.244072
700.9990, 3.453040
701.4811, 3.630507
701.9633, 3.771042
702.4454, 3.917802
702.9275, 4.032296
703.4096, 3.956032
703.8917, 3.415921
704.3738, 3.029393
704.8560, 3.120105
705.3381, 3.463640
705.8202, 3.881380
706.3023, 4.294242
706.7844, 4.576509
707.2665, 4.643321
707.7487, 4.516218
708.2308, 4.180447
708.7129, 3.527343
709.1950, 3.207282
709.6771, 3.610821
710.1592, 3.943569
710.6414, 3.437494
711.1235, 2.535485
711.6056, 2.225996
712.0877, 2.894169
712.5698, 3.637336
713.0519, 4.182654
713.5341, 4.462977
714.0162, 4.187858
714.4983, 3.512891
714.9804, 3.122851
715.4625, 3.427176
715.9446, 4.098990
716.4268, 4.420857
716.9089, 4.282361
717.3910, 4.313051
717.8731, 4.770470
718.3552, 5.064450
718.8373, 4.690847
719.3195, 4.086318
719.8016, 3.934054
720.2837, 4.414264
720.7658, 4.847563
721.2479, 5.064392
721.7300, 4.962702
722.2122, 4.076363
722.6943, 2.730865
723.1764, 2.058525
723.6585, 2.558827
724.1406, 3.631967
724.6227, 4.422910
725.1049, 4.943015
725.5870, 5.102934
726.0691, 4.757056
726.5512, 4.280395
727.0333, 3.505506
727.5154, 2.845681
727.9976, 2.891933
728.4797, 3.665821
728.9618, 4.199664
729.4439, 3.877132
729.9260, 3.320914
730.4081, 2.975136
730.8903, 2.858905
731.3724, 3.087389
731.8545, 3.663620
732.3366, 4.161288
732.8187, 4.102925
733.3008, 3.539469
733.7830, 3.062338
734.2651, 2.585075
734.7472, 2.383676
735.2293, 2.839009
735.7114, 3.331137
736.1935, 3.317528
736.6757, 2.922275
737.1578, 2.771904
737.6399, 3.325473
738.1220, 3.827084
738.6041, 3.661431
739.0862, 3.159156
739.5684, 2.769730
740.0505, 2.596058
740.5326, 2.708474
741.0147, 3.206742
741.4968, 3.890800
741.9789, 4.079417
742.4611, 3.540585
742.9432, 3.384528
743.4253, 4.057851
743.9074, 4.697238
744.3895, 4.767227
744.8716, 4.481812
745.3538, 4.217446
745.8359, 4.023741
746.3180, 3.879620
746.8001, 3.785213
747.2822, 3.729728
747.7643, 3.758145
748.2465, 3.818095
748.7286, 3.689937
749.2107, 3.273543
749.6928, 2.901033
750.1749, 3.192820
750.6570, 4.205077
751.1392, 4.658374
751.6213, 4.341905
752.1034, 3.954620
752.5855, 3.817189
753.0676, 3.352821
753.5497, 3.310679
754.0319, 2.595013
754.5140, 2.091522
754.9961, 1.817247
755.4782, 1.902834
755.9603, 2.888403
756.4424, 4.099681
756.9246, 4.388885
757.4067, 3.611986
757.8888, 2.653473
758.3709, 2.210716
758.8530, 2.234825
759.3351, 2.679536
759.8173, 3.626663
760.2994, 4.282023
760.7815, 4.445920
761.2636, 4.328407
761.7457, 4.026938
762.2278, 3.575938
762.7100, 3.143055
763.1921, 2.542590
763.6742, 2.256393
764.1563, 2.635868
764.6384, 3.177216
765.1205, 3.433700
765.6027, 3.491452
766.0848, 3.776717
766.5669, 4.512712
767.0490, 5.153106
767.5311, 4.774696
768.0132, 3.605397
768.4954, 2.944533
768.9775, 2.910262
769.4596, 3.045580
769.9417, 3.184658
770.4238, 3.293055
770.9059, 3.315910
771.3881, 3.254666
771.8702, 3.085456
772.3523, 2.429156
772.8344, 2.116229
773.3165, 2.753228
773.7986, 3.694694
774.2808, 4.189901
774.7629, 4.163267
775.2450, 4.115333
775.7271, 4.523110
776.2092, 4.956873
776.6913, 4.664656
777.1735, 3.816558
777.6556, 3.039438
778.1377, 2.463982
778.6198, 2.266343
779.1019, 2.670394
779.5840, 3.526259
780.0662, 4.055955
780.5483, 4.068295
781.0304, 4.115174
781.5125, 4.457193
781.9946, 4.609634
782.4767, 4.167240
782.9589, 3.406933
783.4410, 2.849760
783.9231, 2.628211
784.4052, 2.575296
784.8873, 2.775453
785.3694, 2.965768
785.8516, 2.627928
786.3337, 1.966857
786.8158, 1.802333
787.2979, 2.455483
787.7800, 3.337341
788.2621, 3.676418
788.7443, 3.487616
789.2264, 3.312517
789.7085, 3.156442
790.1906, 2.993264
790.6727, 2.743564
791.1548, 2.552862
791.6370, 2.645341
792.1191, 2.964325
792.6012, 3.099671
793.0833, 2.912030
793.5654, 2.630971
794.0475, 2.180836
794.5297, 1.791673
795.0118, 1.673170
795.4939, 1.843756
795.9760, 2.325927
796.4581, 3.186916
796.9402, 4.001616
797.4224, 3.917934
797.9045, 3.127108
798.3866, 3.065723
798.8687, 3.956835
799.3508, 4.555377
799.8329, 4.085222
800.3151, 3.176709
800.7972, 3.050387
801.2793, 4.031181
801.7614, 4.507873
802.2435, 4.083335
802.7256, 3.693691
803.2078, 3.689184
803.6899, 3.801384
804.1720, 3.766651
804.6541, 3.551138
805.1362, 3.219034
805.6183, 2.607852
806.1005, 2.127616
806.5826, 2.385911
807.0647, 3.065620
807.5468, 3.456620
808.0289, 3.445579
808.5110, 3.252469
808.9932, 3.001437
809.4753, 2.780655
809.9574, 2.859799
810.4395, 3.330886
810.9216, 3.707172
811.4037, 4.053362
811.8859, 4.151256
812.3680, 3.568532
812.8501, 2.820833
813.3322, 2.795824
813.8143, 3.692596
814.2964, 4.102045
814.7786, 3.190148
815.2607, 2.249503
815.7428, 1.952126
816.2249, 2.137509
816.7070, 2.752012
817.1891, 3.632566
817.6713, 4.146874
818.1534, 3.634999
818.6355, 2.728959
819.1176, 2.861801
819.5997, 3.848038
820.0818, 4.084228
820.5640, 3.200471
821.0461, 2.362659
821.5282, 2.412394
822.0103, 3.087626
822.4924, 3.610477
822.9745, 4.050653
823.4567, 4.186378
823.9388, 3.728677
824.4209, 3.300436
824.9030, 3.104881
825.3851, 3.071552
825.8672, 3.122681
826.3494, 3.243914
826.8315, 3.389157
827.3136, 3.636702
827.7957, 3.805334
828.2778, 3.707956
828.7599, 3.431430
829.2421, 3.057858
829.7242, 2.651862
830.2063, 2.421846
830.6884, 2.539823
831.1705, 2.903244
831.6526, 3.354780
832.1348, 3.907691
832.6169, 4.008802
833.0990, 3.435137
833.5811, 2.919788
834.0632, 2.902312
834.5453, 3.220576
835.0275, 3.558703
835.5096, 4.007586
835.9917, 4.181212
836.4738, 3.894732
836.9559, 3.549397
837.4380, 3.196137
837.9202, 2.920443
838.4023, 2.829448
838.8844, 2.917296
839.3665, 3.049992
839.8486, 3.176007
840.3307, 3.290694
840.8129, 3.438372
841.2950, 3.556157
841.7771, 3.421754
842.2592, 3.067152
842.7413, 2.908390
843.2234, 3.227192
843.7056, 3.773841
844.1877, 4.011509
844.6698, 3.902456
845.1519, 3.978407
845.6340, 4.372722
846.1161, 4.606675
846.5983, 4.427505
847.0804, 4.034149
847.5625, 3.671192
848.0446, 3.335106
848.5267, 3.070955
849.0089, 2.694580
849.4910, 2.629898
849.9731, 3.425341
850.4552, 4.250081
850.9373, 4.274652
851.4194, 3.636512
851.9016, 2.996872
852.3837, 2.601785
852.8658, 2.424254
853.3479, 2.564889
853.8300, 2.845418
854.3121, 2.940740
854.7943, 2.860268
855.2764, 2.792874
855.7585, 2.820592
856.2406, 2.821915
856.7227, 2.595096
857.2048, 2.175212
857.6870, 2.048941
858.1691, 2.307038
858.6512, 2.484971
859.1333, 2.367688
859.6154, 2.308804
860.0975, 2.836756
860.5797, 3.736393
861.0618, 3.803919
861.5439, 2.239188
862.0260, 1.201105
862.5081, 1.048064
862.9902, 1.344724
863.4724, 2.178914
863.9545, 3.150047
864.4366, 3.637155
864.9187, 3.499431
865.4008, 3.231332
865.8829, 3.142945
866.3651, 3.110496
866.8472, 2.940487
867.3293, 2.719806
867.8114, 2.695794
868.2935, 2.898737
868.7756, 3.119501
869.2578, 3.212288
869.7399, 3.169524
870.2220, 2.868300
870.7041, 2.279203
871.1862, 2.145140
871.6683, 2.650428
872.1505, 3.182145
872.6326, 3.505646
873.1147, 3.577367
873.5968, 3.214459
874.0789, 2.213629
874.5610, 1.891731
875.0432, 2.988574
875.5253, 3.759490
876.0074, 3.529897
876.4895, 3.044552
876.9716, 2.921098
877.4537, 3.125004
877.9359, 3.319888
878.4180, 3.426387
878.9001, 3.423717
879.3822, 3.142522
879.8643, 2.859177
880.3464, 3.042934
880.8286, 3.490158
881.3107, 3.551467
881.7928, 3.012428
882.2749, 2.331432
882.7570, 1.923697
883.2391, 1.798331
883.7213, 2.140702
884.2034, 2.906532
884.6855, 3.277835
885.1676, 3.020836
885.6497, 2.667470
886.1318, 2.639855
886.6140, 2.828071
887.0961, 2.840208
887.5782, 2.527251
888.0603, 2.438569
888.5424, 2.904446
889.0245, 3.141333
889.5067, 2.484742
889.9888, 1.646855
890.4709, 1.526982
890.9530, 2.152217
891.4351, 2.647246
891.9172, 2.832878
892.3994, 2.856771
892.8815, 2.595927
893.3636, 2.339908
893.8457, 2.419175
894.3278, 2.759479
894.8099, 3.060955
895.2921, 3.192901
895.7742, 3.287562
896.2563, 3.568625
896.7384, 3.843795
897.2205, 3.676951
897.7026, 3.178169
898.1848, 2.839124
898.6669, 2.809764
899.1490, 2.892180
899.6311, 2.896143
900.1132, 2.853168
900.5953, 2.889179
901.0775, 3.011394
901.5596, 3.141227
902.0417, 3.291858
902.5238, 3.366555
903.0059, 3.289321
903.4880, 3.119582
903.9702, 2.992573
904.4523, 2.963638
904.9344, 2.753125
905.4165, 1.827309
905.8986, 1.413019
906.3807, 2.474606
906.8629, 3.606149
907.3450, 3.258691
907.8271, 1.824033
908.3092, 1.200217
908.7913, 2.341166
909.2734, 3.369995
909.7556, 3.320940
910.2377, 2.913163
910.7198, 2.629871
911.2019, 2.539744
911.6840, 2.735870
912.1661, 3.206759
912.6483, 3.598863
913.1304, 3.568688
913.6125, 3.324761
914.0946, 3.189215
914.5767, 3.128582
915.0588, 3.044431
915.5410, 2.917777
916.0231, 2.723426
916.5052, 2.423504
916.9873, 2.170789
917.4694, 2.350923
917.9515, 2.992158
918.4337, 3.262581
918.9158, 3.108927
919.3979, 2.780959
919.8800, 2.258312
920.3621, 1.802692
920.8442, 1.705057
921.3264, 1.938380
921.8085, 2.218170
922.2906, 2.520763
922.7727, 2.912485
923.2548, 3.713195
923.7369, 4.256150
924.2191, 4.040387
924.7012, 3.451807
925.1833, 3.052200
925.6654, 2.908919
926.1475, 2.859870
926.6296, 2.884082
927.1118, 2.960670
927.5939, 3.074454
928.0760, 3.238256
928.5581, 3.574251
929.0402, 3.976112
929.5223, 4.134748
930.0045, 3.915847
930.4866, 3.417886
930.9687, 2.410876
931.4508, 1.371641
931.9329, 1.155683
932.4150, 1.575003
932.8972, 1.944337
933.3793, 2.075511
933.8614, 2.229704
934.3435, 2.659245
934.8256, 2.799198
935.3077, 3.439873
935.7899, 3.385389
936.2720, 3.550950
936.7541, 4.031456
937.2362, 4.173290
937.7183, 3.566449
938.2004, 2.734542
938.6826, 2.484219
939.1647, 2.830983
939.6468, 3.032919
940.1289, 3.037503
940.6110, 3.030894
941.0931, 3.121029
941.5753, 3.109227
942.0574, 2.715634
942.5395, 2.139559
943.0216, 1.942861
943.5037, 2.289987
943.9858, 2.515935
944.4680, 2.524794
944.9501, 2.457309
945.4322, 2.263774
945.9143, 2.092664
946.3964, 2.122713
946.8785, 2.325046
947.3607, 2.509824
947.8428, 2.647964
948.3249, 2.687235
948.8070, 2.455922
949.2891, 2.235747
949.7712, 2.348739
950.2534, 2.665814
950.7355, 2.876925
951.2176, 2.915833
951.6997, 3.019727
952.1818, 3.531238
952.6639, 3.990115
953.1461, 3.494121
953.6282, 2.526409
954.1103, 2.408594
954.5924, 3.109317
955.0745, 3.371674
955.5566, 2.562219
956.0388, 1.588652
956.5209, 1.874836
957.0030, 3.059377
957.4851, 3.118546
957.9672, 2.061778
958.4493, 1.435597
958.9315, 1.603834
959.4136, 2.176177
959.8957, 2.992439
960.3778, 3.759260
960.8599, 3.593492
961.3420, 2.179296
961.8242, 1.494763
962.3063, 1.822496
962.7884, 2.191295
963.2705, 2.265964
963.7526, 2.294304
964.2347, 2.607112
964.7169, 3.124495
965.1990, 3.258020
965.6811, 2.687305
966.1632, 2.219475
966.6453, 1.789257
967.1274, 1.538567
967.6096, 1.511715
968.0917, 1.705978
968.5738, 2.213799
969.0559, 3.009875
969.5380, 3.629160
970.0201, 4.182425
970.5023, 4.251963
970.9844, 3.241001
971.4665, 2.098073
971.9486, 1.453700
972.4307, 1.315301
972.9128, 1.699092
973.3950, 2.585940
973.8771, 3.200413
974.3592, 2.752202
974.8413, 2.172829
975.3234, 2.342703
975.8055, 2.874658
976.2877, 3.316974
976.7698, 3.537810
977.2519, 3.344492
977.7340, 2.631178
978.2161, 1.922990
978.6982, 1.803738
979.1804, 2.070750
979.6625, 2.530201
980.1446, 3.033919
980.6267, 3.035372
981.1088, 2.470567
981.5909, 1.842327
982.0731, 1.476792
982.5552, 1.355606
983.0373, 1.499949
983.5194, 1.874464
984.0015, 2.296243
984.4836, 2.757356
984.9658, 2.858573
985.4479, 2.437838
985.9300, 1.956352
986.4121, 1.834816
986.8942, 1.996439
987.3763, 2.203068
987.8585, 2.486371
988.3406, 2.571697
988.8227, 2.358215
989.3048, 2.257267
989.7869, 2.482918
990.2690, 2.805815
990.7512, 2.924587
991.2333, 2.871207
991.7154, 3.081205
992.1975, 3.935220
992.6796, 4.225157
993.1617, 3.459023
993.6439, 2.689160
994.1260, 2.408597
994.6081, 2.408253
995.0902, 2.362353
995.5723, 2.260718
996.0544, 2.403081
996.5366, 3.251409
997.0187, 3.698658
997.5008, 3.203784
997.9829, 2.629653
998.4650, 2.489681
998.9471, 2.634808
999.4293, 2.793367
999.9114, 2.930035
1000.393, 3.069283
1000.876, 3.288053
1001.358, 3.420467
1001.840, 3.392583
1002.322, 3.250813
1002.804, 2.876223
1003.286, 2.460443
1003.768, 2.496076
1004.250, 3.152084
1004.733, 3.601448
1005.215, 3.187478
1005.697, 2.631972
1006.179, 2.355653
1006.661, 2.337084
1007.143, 2.720361
1007.625, 3.310570
1008.107, 3.515103
1008.589, 3.059037
1009.072, 2.548044
1009.554, 2.607507
1010.036, 2.794519
1010.518, 2.445147
1011.000, 1.862203
1011.482, 1.686581
1011.964, 1.969427
1012.446, 2.403797
1012.929, 2.856505
1013.411, 3.087842
1013.893, 2.625616
1014.375, 1.828804
1014.857, 1.410566
1015.339, 1.316738
1015.821, 1.252904
1016.303, 1.168635
1016.785, 1.293642
1017.268, 1.819513
1017.750, 2.416916
1018.232, 2.429149
1018.714, 2.050644
1019.196, 2.177924
1019.678, 2.764496
1020.160, 3.144096
1020.642, 3.134483
1021.125, 2.987030
1021.607, 2.895850
1022.089, 2.830853
1022.571, 2.673026
1023.053, 2.438390
1023.535, 2.544030
1024.017, 3.026528
1024.499, 3.241513
1024.981, 2.950557
1025.464, 2.622020
1025.946, 2.709105
1026.428, 3.034443
1026.910, 3.036216
1027.392, 2.688945
1027.874, 2.180838
1028.356, 1.402132
1028.838, 1.092746
1029.321, 1.660660
1029.803, 2.323487
1030.285, 2.255010
1030.767, 1.681059
1031.249, 1.636813
1031.731, 2.269008
1032.213, 2.959054
1032.695, 4.018538
1033.177, 4.172930
1033.660, 2.346905
1034.142, 0.4531878
1034.624, 0.6799051
1035.106, 2.602073
1035.588, 3.539563
1036.070, 2.980601
1036.552, 2.668140
1037.034, 2.756023
1037.516, 2.888517
1037.999, 3.037147
1038.481, 3.058166
1038.963, 2.672933
1039.445, 1.975930
1039.927, 1.702408
1040.409, 2.009297
1040.891, 2.469096
1041.373, 3.454232
1041.855, 4.110158
1042.338, 3.934851
1042.820, 3.414168
1043.302, 2.943241
1043.784, 2.543951
1044.266, 2.357342
1044.748, 2.659120
1045.230, 2.716794
1045.712, 2.120863
1046.195, 1.722664
1046.677, 2.244381
1047.159, 2.858033
1047.641, 2.365689
1048.123, 1.003011
1048.605, 0.5779620
1049.087, 1.992887
1049.569, 3.055521
1050.052, 3.389876
1050.534, 3.384521
1051.016, 3.080560
1051.498, 2.622823
1051.980, 1.981713
1052.462, 1.279178
1052.944, 1.126687
1053.426, 1.943294
1053.908, 2.677550
1054.391, 3.280227
1054.873, 3.528770
1055.355, 2.983654
1055.837, 2.252661
1056.319, 2.033691
1056.801, 2.298831
1057.283, 2.597343
1057.765, 2.963023
1058.248, 3.023148
1058.730, 2.288201
1059.212, 1.652758
1059.694, 1.639147
1060.176, 1.978955
1060.658, 2.492792
1061.140, 3.053517
1061.622, 3.329615
1062.104, 3.203835
1062.587, 2.865997
1063.069, 2.026929
1063.551, 1.401665
1064.033, 1.606031
1064.515, 2.112877
1064.997, 2.280794
1065.479, 2.155291
1065.961, 2.208843
1066.443, 2.664990
1066.926, 2.984648
1067.408, 2.854846
1067.890, 2.631793
1068.372, 2.549793
1068.854, 2.474234
1069.336, 2.171336
1069.818, 1.724934
1070.300, 1.416501
1070.782, 1.289218
1071.265, 1.488586
1071.747, 2.616504
1072.229, 3.467431
1072.711, 2.996753
1073.193, 2.108809
1073.675, 1.785267
1074.157, 1.953043
1074.639, 2.023955
1075.122, 1.785443
1075.604, 1.840734
1076.086, 2.897201
1076.568, 3.814621
1077.050, 3.946463
1077.532, 3.586308
1078.014, 2.658764
1078.496, 1.598187
1078.979, 1.446956
1079.461, 2.522654
1079.943, 3.446006
1080.425, 3.601947
1080.907, 3.414331
1081.389, 2.798733
1081.871, 2.219516
1082.353, 2.247701
1082.835, 2.620529
1083.318, 2.671065
1083.800, 2.254514
1084.282, 1.965410
1084.764, 2.267714
1085.246, 2.492768
1085.728, 2.239964
1086.210, 1.828876
1086.692, 1.373053
1087.175, 1.035587
1087.657, 1.144778
1088.139, 1.717455
1088.621, 2.162225
1089.103, 2.170443
1089.585, 2.108084
1090.067, 2.116034
1090.549, 2.129738
1091.031, 2.026942
1091.514, 1.935162
1091.996, 2.172578
1092.478, 2.692259
1092.960, 2.826358
1093.442, 1.948662
1093.924, 1.410034
1094.406, 1.982285
1094.888, 2.762520
1095.370, 3.428706
1095.853, 3.779012
1096.335, 3.392278
1096.817, 2.442400
1097.299, 1.897371
1097.781, 2.201091
1098.263, 2.435191
1098.745, 2.095525
1099.227, 1.866138
1099.709, 2.266801
1100.192, 2.838135
1100.674, 3.136621
1101.156, 3.155260
1101.638, 2.996745
1102.120, 2.606490
1102.602, 2.323791
1103.084, 2.182307
1103.566, 2.224425
1104.049, 2.711559
1104.531, 3.170326
1105.013, 3.145217
1105.495, 2.788863
1105.977, 2.492928
1106.459, 2.301240
1106.941, 2.185742
1107.423, 2.185887
1107.906, 2.200274
1108.388, 2.211663
1108.870, 2.219499
1109.352, 2.257838
1109.834, 2.277706
1110.316, 2.126352
1110.798, 1.775643
1111.280, 1.729811
1111.762, 2.580739
1112.245, 2.903905
1112.727, 2.063760
1113.209, 1.190896
1113.691, 0.5808238
1114.173, 0.4014105
1114.655, 1.182888
1115.137, 2.795392
1115.619, 3.482251
1116.102, 2.291035
1116.584, 1.877725
1117.066, 3.055605
1117.548, 3.841149
1118.030, 3.195413
1118.512, 2.266477
1118.994, 2.203329
1119.476, 2.759583
1119.958, 2.923525
1120.441, 2.514054
1120.923, 2.292670
1121.405, 2.323740
1121.887, 2.415308
1122.369, 2.585208
1122.851, 2.668741
1123.333, 2.471369
1123.815, 2.182750
1124.297, 2.275120
1124.780, 2.809785
1125.262, 2.897586
1125.744, 2.392436
1126.226, 1.967795
1126.708, 1.722665
1127.190, 1.632860
1127.672, 1.718966
1128.154, 1.858398
1128.636, 1.826549
1129.119, 1.688030
1129.601, 2.112276
1130.083, 3.206680
1130.565, 3.625339
1131.047, 3.164427
1131.529, 2.649577
1132.011, 2.396071
1132.493, 2.334823
1132.976, 2.436600
1133.458, 2.593481
1133.940, 2.429279
1134.422, 1.984474
1134.904, 1.772870
1135.386, 1.813482
1135.868, 2.039306
1136.350, 2.426213
1136.833, 2.744523
1137.315, 2.828354
1137.797, 2.780761
1138.279, 2.799224
1138.761, 2.826144
1139.243, 2.564783
1139.725, 2.567080
1140.207, 2.503134
1140.689, 2.281054
1141.172, 2.387741
1141.654, 2.098383
1142.136, 1.932873
1142.618, 2.641322
1143.100, 3.604678
1143.582, 3.685530
1144.064, 3.261433
1144.546, 3.140849
1145.029, 3.269636
1145.511, 3.177756
1145.993, 2.748283
1146.475, 2.247124
1146.957, 1.749745
1147.439, 1.523459
1147.921, 2.210059
1148.403, 3.001282
1148.885, 2.661037
1149.368, 1.816772
1149.850, 1.730726
1150.332, 2.403636
1150.814, 2.906284
1151.296, 2.850043
1151.778, 2.627247
1152.260, 2.276057
1152.742, 2.066353
1153.224, 2.319649
1153.707, 2.696091
1154.189, 2.989698
1154.671, 3.056714
1155.153, 2.504847
1155.635, 1.243190
1156.117, 0.4988993
1156.599, 1.037510
1157.081, 1.607718
1157.563, 1.899770
1158.046, 2.021255
1158.528, 1.976009
1159.010, 1.840463
1159.492, 1.586978
1159.974, 1.282211
1160.456, 1.431535
1160.938, 2.636127
1161.420, 3.204230
1161.903, 2.652755
1162.385, 2.050621
1162.867, 1.578501
1163.349, 1.281044
1163.831, 1.222931
1164.313, 1.351174
1164.795, 1.582919
1165.277, 1.974965
1165.760, 1.916312
1166.242, 1.076843
1166.724, 0.9526407
1167.206, 2.095681
1167.688, 2.880268
1168.170, 2.347988
1168.652, 1.395667
1169.134, 1.156121
1169.616, 1.508759
1170.099, 1.970343
1170.581, 2.545552
1171.063, 2.864531
1171.545, 2.905011
1172.027, 2.715064
1172.509, 2.303888
1172.991, 1.964245
1173.473, 1.918917
1173.956, 2.069561
1174.438, 2.316915
1174.920, 2.603198
1175.402, 2.770527
1175.884, 2.803292
1176.366, 2.527460
1176.848, 2.029898
1177.330, 1.906729
1177.813, 2.390659
1178.295, 2.816243
1178.777, 2.446962
1179.259, 1.928156
1179.741, 2.147677
1180.223, 2.671388
1180.705, 3.002239
1181.187, 3.076802
1181.669, 2.703387
1182.151, 2.009285
1182.634, 1.757687
1183.116, 2.460428
1183.598, 3.023718
1184.080, 2.688224
1184.562, 2.135492
1185.044, 1.521822
1185.526, 1.172634
1186.008, 1.573563
1186.490, 2.447966
1186.973, 3.211266
1187.455, 3.787227
1187.937, 3.846222
1188.419, 2.632276
1188.901, 1.929518
1189.383, 2.611305
1189.865, 3.259907
1190.347, 3.187794
1190.830, 2.692139
1191.312, 1.873123
1191.794, 0.8977773
1192.276, 0.6225215
1192.758, 1.304392
1193.240, 1.817547
1193.722, 2.138082
1194.204, 2.348522
1194.687, 2.447549
1195.169, 2.530706
1195.651, 2.711964
1196.133, 2.741892
1196.615, 2.114504
1197.097, 1.019887
1197.579, 0.6715333
1198.061, 1.030566
1198.543, 1.374276
1199.026, 1.637545
1199.508, 1.994902
1199.990, 2.492117
1200.472, 2.858406
1200.954, 2.860943
1201.436, 2.687547
1201.918, 2.615484
1202.400, 2.576425
1202.883, 2.389279
1203.365, 2.138353
1203.847, 1.981856
1204.329, 1.967363
1204.811, 2.196519
1205.293, 2.692252
1205.775, 3.102759
1206.257, 3.297008
1206.740, 3.168080
1207.222, 2.235130
1207.704, 1.335706
1208.186, 1.450925
1208.668, 1.979574
1209.150, 1.867136
1209.632, 1.191486
1210.114, 0.9362745
1210.596, 1.406186
1211.078, 2.010901
1211.561, 3.079463
1212.043, 3.658643
1212.525, 3.189254
1213.007, 2.423156
1213.489, 1.621420
1213.971, 0.9931668
1214.453, 0.9705442
1214.935, 0.6457310
1215.417, 0.5735993
1215.900, 0.9124384
1216.382, 0.8373262
1216.864, 1.554956
1217.346, 2.261214
1217.828, 2.746722
1218.310, 2.882450
1218.792, 2.492987
1219.274, 2.010990
1219.757, 2.365454
1220.239, 3.305176
1220.721, 3.610406
1221.203, 3.381806
1221.685, 3.042236
1222.167, 2.683862
1222.649, 2.407277
1223.131, 2.252418
1223.614, 2.237028
1224.096, 2.377859
1224.578, 2.652153
1225.060, 3.391256
1225.542, 3.931975
1226.024, 3.117159
1226.506, 1.767217
1226.988, 1.069760
1227.470, 1.096415
1227.953, 1.642346
1228.435, 2.683582
1228.917, 3.241477
1229.399, 2.501395
1229.881, 1.848277
1230.363, 1.675985
1230.845, 1.784040
1231.327, 2.281821
1231.810, 2.825027
1232.292, 3.087192
1232.774, 3.050742
1233.256, 2.567201
1233.738, 1.357778
1234.220, 0.9472606
1234.702, 1.583443
1235.184, 2.266774
1235.667, 2.905644
1236.149, 3.203233
1236.631, 2.972221
1237.113, 2.459646
1237.595, 1.891237
1238.077, 1.392206
1238.559, 1.407305
1239.041, 1.829987
1239.523, 2.173889
1240.005, 2.398282
1240.488, 2.355621
1240.970, 2.088188
1241.452, 1.998461
1241.934, 2.286102
1242.416, 2.704413
1242.898, 3.276844
1243.380, 3.583172
1243.862, 2.915287
1244.344, 1.998378
1244.827, 1.528352
1245.309, 1.481854
1245.791, 1.888823
1246.273, 2.583180
1246.755, 2.864596
1247.237, 2.392392
1247.719, 2.072702
1248.201, 2.321003
1248.684, 2.449635
1249.166, 1.952462
1249.648, 1.648033
1250.130, 2.214038
1250.612, 3.012023
1251.094, 3.175593
1251.576, 2.799295
1252.058, 2.431532
1252.541, 2.008813
1253.023, 2.199687
1253.505, 3.113378
1253.987, 3.440846
1254.469, 2.866676
1254.951, 2.243614
1255.433, 2.054695
1255.915, 2.184681
1256.397, 2.632413
1256.880, 3.110670
1257.362, 3.065305
1257.844, 2.624862
1258.326, 1.811345
1258.808, 0.9002866
1259.290, 0.4925205
1259.772, 0.6190533
1260.254, 0.8463429
1260.737, 1.004952
1261.219, 1.208952
1261.701, 1.625002
1262.183, 1.957836
1262.665, 2.067777
1263.147, 2.040476
1263.629, 1.736982
1264.111, 1.465395
1264.594, 1.840668
1265.076, 1.572322
1265.558, 1.606411
1266.040, 1.886755
1266.522, 1.703716
1267.004, 2.597095
1267.486, 3.067691
1267.968, 2.758883
1268.450, 2.338281
1268.932, 2.133276
1269.415, 2.042943
1269.897, 1.954633
1270.379, 1.892281
1270.861, 1.926003
1271.343, 2.028648
1271.825, 2.187394
1272.307, 2.326513
1272.789, 2.100274
1273.271, 1.614835
1273.754, 1.591007
1274.236, 2.275703
1274.718, 2.720178
1275.200, 1.902741
1275.682, 1.274402
1276.164, 2.084487
1276.646, 2.958396
1277.128, 2.777231
1277.611, 2.211797
1278.093, 2.105885
1278.575, 2.324775
1279.057, 2.207834
1279.539, 1.645261
1280.021, 1.505519
1280.503, 1.918348
1280.985, 2.458652
1281.468, 3.260299
1281.950, 3.408128
1282.432, 2.424789
1282.914, 1.515456
1283.396, 1.722038
1283.878, 2.443263
1284.360, 2.595734
1284.842, 2.351531
1285.324, 2.196631
##END=



