##NAMES=Liottite
##RRUFFID=R120045
##IDEAL CHEMISTRY=Na_16_Ca_8_Si_18_Al_18_O_72_(S^6+^O_4_)_5_Cl_4_
##LOCALITY=Case Collina (Toscopomici quarry), Pitigliano, Grosseto Province, Tuscany, Italy
##OWNER=RRUFF
##SOURCE=R. Van Dommelen
##DESCRIPTION=Pseudhexagonal colorless crystals, associated with grossular
##STATUS=The identification of this mineral has been confirmed only by single crystal X-ray diffraction.
##URL=rruff.info/R120045
9.112140e+001, 0.000000e+000
9.160352e+001, 7.749327e+001
9.208563e+001, 7.654276e+001
9.256775e+001, 7.639817e+001
9.304987e+001, 7.729513e+001
9.353198e+001, 7.878390e+001
9.401410e+001, 7.999106e+001
9.449622e+001, 8.064924e+001
9.497833e+001, 8.072316e+001
9.546045e+001, 8.022242e+001
9.594257e+001, 7.914771e+001
9.642468e+001, 7.811889e+001
9.690680e+001, 7.724878e+001
9.738892e+001, 7.640059e+001
9.787103e+001, 7.554776e+001
9.835315e+001, 7.459489e+001
9.883527e+001, 7.349321e+001
9.931738e+001, 7.238988e+001
9.979950e+001, 7.127413e+001
1.002816e+002, 7.028845e+001
1.007637e+002, 6.940410e+001
1.012458e+002, 6.861287e+001
1.017280e+002, 6.792400e+001
1.022101e+002, 6.733040e+001
1.026922e+002, 6.680647e+001
1.031743e+002, 6.633389e+001
1.036564e+002, 6.591726e+001
1.041385e+002, 6.544921e+001
1.046207e+002, 6.475846e+001
1.051028e+002, 6.394921e+001
1.055849e+002, 6.340346e+001
1.060670e+002, 6.337751e+001
1.065491e+002, 6.352303e+001
1.070313e+002, 6.345947e+001
1.075134e+002, 6.315316e+001
1.079955e+002, 6.272740e+001
1.084776e+002, 6.228058e+001
1.089597e+002, 6.179638e+001
1.094418e+002, 6.135182e+001
1.099240e+002, 6.091991e+001
1.104061e+002, 6.055402e+001
1.108882e+002, 6.033092e+001
1.113703e+002, 6.028741e+001
1.118524e+002, 6.034560e+001
1.123345e+002, 6.029673e+001
1.128167e+002, 6.006617e+001
1.132988e+002, 5.981380e+001
1.137809e+002, 5.953389e+001
1.142630e+002, 5.925476e+001
1.147451e+002, 5.898826e+001
1.152272e+002, 5.873476e+001
1.157094e+002, 5.850168e+001
1.161915e+002, 5.849443e+001
1.166736e+002, 5.905642e+001
1.171557e+002, 5.947190e+001
1.176378e+002, 5.940200e+001
1.181199e+002, 5.893519e+001
1.186021e+002, 5.841970e+001
1.190842e+002, 5.814441e+001
1.195663e+002, 5.813594e+001
1.200484e+002, 5.809403e+001
1.205305e+002, 5.784983e+001
1.210126e+002, 5.766956e+001
1.214948e+002, 5.788646e+001
1.219769e+002, 5.858323e+001
1.224590e+002, 5.929529e+001
1.229411e+002, 5.944242e+001
1.234232e+002, 5.917577e+001
1.239053e+002, 5.894927e+001
1.243875e+002, 5.892125e+001
1.248696e+002, 5.904707e+001
1.253517e+002, 5.921828e+001
1.258338e+002, 5.947692e+001
1.263159e+002, 5.970050e+001
1.267980e+002, 5.977461e+001
1.272802e+002, 5.972897e+001
1.277623e+002, 5.970147e+001
1.282444e+002, 5.982140e+001
1.287265e+002, 6.010524e+001
1.292086e+002, 6.035760e+001
1.296907e+002, 6.057361e+001
1.301729e+002, 6.074551e+001
1.306550e+002, 6.086980e+001
1.311371e+002, 6.094427e+001
1.316192e+002, 6.096397e+001
1.321013e+002, 6.089637e+001
1.325834e+002, 6.060256e+001
1.330656e+002, 6.051163e+001
1.335477e+002, 6.063847e+001
1.340298e+002, 6.092241e+001
1.345119e+002, 6.139701e+001
1.349940e+002, 6.205427e+001
1.354761e+002, 6.275338e+001
1.359583e+002, 6.316308e+001
1.364404e+002, 6.298536e+001
1.369225e+002, 6.286874e+001
1.374046e+002, 6.280121e+001
1.378867e+002, 6.282212e+001
1.383688e+002, 6.302110e+001
1.388510e+002, 6.346664e+001
1.393331e+002, 6.406103e+001
1.398152e+002, 6.448715e+001
1.402973e+002, 6.476268e+001
1.407794e+002, 6.490342e+001
1.412615e+002, 6.476759e+001
1.417437e+002, 6.444051e+001
1.422258e+002, 6.432764e+001
1.427079e+002, 6.475418e+001
1.431900e+002, 6.548759e+001
1.436721e+002, 6.600886e+001
1.441542e+002, 6.624685e+001
1.446364e+002, 6.632628e+001
1.451185e+002, 6.633293e+001
1.456006e+002, 6.625192e+001
1.460827e+002, 6.618846e+001
1.465648e+002, 6.617805e+001
1.470469e+002, 6.622034e+001
1.475291e+002, 6.633981e+001
1.480112e+002, 6.658038e+001
1.484933e+002, 6.686660e+001
1.489754e+002, 6.702305e+001
1.494575e+002, 6.699398e+001
1.499396e+002, 6.691985e+001
1.504218e+002, 6.684410e+001
1.509039e+002, 6.676189e+001
1.513860e+002, 6.665311e+001
1.518681e+002, 6.648752e+001
1.523502e+002, 6.628648e+001
1.528323e+002, 6.624389e+001
1.533145e+002, 6.661124e+001
1.537966e+002, 6.690162e+001
1.542787e+002, 6.703171e+001
1.547608e+002, 6.700893e+001
1.552429e+002, 6.686047e+001
1.557250e+002, 6.659088e+001
1.562072e+002, 6.618577e+001
1.566893e+002, 6.588331e+001
1.571714e+002, 6.574594e+001
1.576535e+002, 6.562932e+001
1.581356e+002, 6.541672e+001
1.586177e+002, 6.514356e+001
1.590999e+002, 6.498394e+001
1.595820e+002, 6.514054e+001
1.600641e+002, 6.569168e+001
1.605462e+002, 6.593678e+001
1.610283e+002, 6.543237e+001
1.615104e+002, 6.493388e+001
1.619926e+002, 6.517469e+001
1.624747e+002, 6.623818e+001
1.629568e+002, 6.736384e+001
1.634389e+002, 6.771375e+001
1.639210e+002, 6.732413e+001
1.644031e+002, 6.681499e+001
1.648853e+002, 6.613750e+001
1.653674e+002, 6.544112e+001
1.658495e+002, 6.495059e+001
1.663316e+002, 6.470261e+001
1.668137e+002, 6.465205e+001
1.672958e+002, 6.484345e+001
1.677780e+002, 6.521610e+001
1.682601e+002, 6.554372e+001
1.687422e+002, 6.569352e+001
1.692243e+002, 6.570454e+001
1.697064e+002, 6.573972e+001
1.701885e+002, 6.587398e+001
1.706707e+002, 6.595259e+001
1.711528e+002, 6.584721e+001
1.716349e+002, 6.559348e+001
1.721170e+002, 6.534212e+001
1.725991e+002, 6.521465e+001
1.730812e+002, 6.521638e+001
1.735634e+002, 6.522911e+001
1.740455e+002, 6.530537e+001
1.745276e+002, 6.534279e+001
1.750097e+002, 6.525401e+001
1.754918e+002, 6.506306e+001
1.759739e+002, 6.488566e+001
1.764561e+002, 6.489848e+001
1.769382e+002, 6.524156e+001
1.774203e+002, 6.528458e+001
1.779024e+002, 6.475459e+001
1.783845e+002, 6.417231e+001
1.788666e+002, 6.382595e+001
1.793488e+002, 6.374377e+001
1.798309e+002, 6.375342e+001
1.803130e+002, 6.361028e+001
1.807951e+002, 6.315841e+001
1.812772e+002, 6.291945e+001
1.817593e+002, 6.302503e+001
1.822415e+002, 6.322852e+001
1.827236e+002, 6.339204e+001
1.832057e+002, 6.346991e+001
1.836878e+002, 6.343866e+001
1.841699e+002, 6.324611e+001
1.846520e+002, 6.272740e+001
1.851342e+002, 6.238217e+001
1.856163e+002, 6.231609e+001
1.860984e+002, 6.238782e+001
1.865805e+002, 6.249669e+001
1.870626e+002, 6.262249e+001
1.875447e+002, 6.267412e+001
1.880269e+002, 6.243076e+001
1.885090e+002, 6.179467e+001
1.889911e+002, 6.130754e+001
1.894732e+002, 6.123586e+001
1.899553e+002, 6.136901e+001
1.904374e+002, 6.130484e+001
1.909196e+002, 6.086113e+001
1.914017e+002, 6.033168e+001
1.918838e+002, 6.020061e+001
1.923659e+002, 6.049664e+001
1.928480e+002, 6.069822e+001
1.933301e+002, 6.044206e+001
1.938123e+002, 5.986631e+001
1.942944e+002, 5.949097e+001
1.947765e+002, 5.951190e+001
1.952586e+002, 5.971117e+001
1.957407e+002, 5.986205e+001
1.962228e+002, 5.996417e+001
1.967050e+002, 6.001212e+001
1.971871e+002, 6.000478e+001
1.976692e+002, 5.994191e+001
1.981513e+002, 5.981018e+001
1.986334e+002, 5.953041e+001
1.991155e+002, 5.924430e+001
1.995977e+002, 5.904292e+001
2.000798e+002, 5.893207e+001
2.005619e+002, 5.887237e+001
2.010440e+002, 5.885331e+001
2.015261e+002, 5.889267e+001
2.020082e+002, 5.885293e+001
2.024904e+002, 5.867916e+001
2.029725e+002, 5.844489e+001
2.034546e+002, 5.814098e+001
2.039367e+002, 5.778452e+001
2.044188e+002, 5.745267e+001
2.049009e+002, 5.727862e+001
2.053831e+002, 5.736902e+001
2.058652e+002, 5.728386e+001
2.063473e+002, 5.688279e+001
2.068294e+002, 5.641365e+001
2.073115e+002, 5.600387e+001
2.077936e+002, 5.568078e+001
2.082758e+002, 5.540320e+001
2.087579e+002, 5.512232e+001
2.092400e+002, 5.485490e+001
2.097221e+002, 5.454280e+001
2.102042e+002, 5.410704e+001
2.106863e+002, 5.368934e+001
2.111685e+002, 5.338678e+001
2.116506e+002, 5.321704e+001
2.121327e+002, 5.313243e+001
2.126148e+002, 5.307680e+001
2.130969e+002, 5.314101e+001
2.135790e+002, 5.301810e+001
2.140612e+002, 5.244772e+001
2.145433e+002, 5.186334e+001
2.150254e+002, 5.171986e+001
2.155075e+002, 5.209233e+001
2.159896e+002, 5.253819e+001
2.164717e+002, 5.240715e+001
2.169539e+002, 5.135189e+001
2.174360e+002, 5.050035e+001
2.179181e+002, 4.999598e+001
2.184002e+002, 4.963935e+001
2.188823e+002, 4.921029e+001
2.193644e+002, 4.865617e+001
2.198466e+002, 4.812306e+001
2.203287e+002, 4.785381e+001
2.208108e+002, 4.791630e+001
2.212929e+002, 4.784029e+001
2.217750e+002, 4.749932e+001
2.222571e+002, 4.701104e+001
2.227393e+002, 4.647266e+001
2.232214e+002, 4.588449e+001
2.237035e+002, 4.536979e+001
2.241856e+002, 4.516095e+001
2.246677e+002, 4.523222e+001
2.251498e+002, 4.524395e+001
2.256320e+002, 4.510209e+001
2.261141e+002, 4.484926e+001
2.265962e+002, 4.454644e+001
2.270783e+002, 4.419518e+001
2.275604e+002, 4.381537e+001
2.280425e+002, 4.336886e+001
2.285247e+002, 4.288530e+001
2.290068e+002, 4.251350e+001
2.294889e+002, 4.233087e+001
2.299710e+002, 4.230132e+001
2.304531e+002, 4.237798e+001
2.309352e+002, 4.262585e+001
2.314174e+002, 4.283117e+001
2.318995e+002, 4.280270e+001
2.323816e+002, 4.260313e+001
2.328637e+002, 4.239242e+001
2.333458e+002, 4.227738e+001
2.338279e+002, 4.221383e+001
2.343101e+002, 4.205137e+001
2.347922e+002, 4.176003e+001
2.352743e+002, 4.140854e+001
2.357564e+002, 4.098940e+001
2.362385e+002, 4.054758e+001
2.367206e+002, 4.017263e+001
2.372028e+002, 3.991682e+001
2.376849e+002, 3.977043e+001
2.381670e+002, 3.970760e+001
2.386491e+002, 3.984116e+001
2.391312e+002, 3.988329e+001
2.396133e+002, 3.966072e+001
2.400955e+002, 3.928765e+001
2.405776e+002, 3.895906e+001
2.410597e+002, 3.881038e+001
2.415418e+002, 3.879305e+001
2.420239e+002, 3.866190e+001
2.425060e+002, 3.825963e+001
2.429882e+002, 3.796249e+001
2.434703e+002, 3.795497e+001
2.439524e+002, 3.809609e+001
2.444345e+002, 3.817552e+001
2.449166e+002, 3.806348e+001
2.453987e+002, 3.780728e+001
2.458809e+002, 3.763913e+001
2.463630e+002, 3.769134e+001
2.468451e+002, 3.765913e+001
2.473272e+002, 3.744258e+001
2.478093e+002, 3.712118e+001
2.482914e+002, 3.678742e+001
2.487736e+002, 3.648716e+001
2.492557e+002, 3.622612e+001
2.497378e+002, 3.603109e+001
2.502199e+002, 3.594114e+001
2.507020e+002, 3.587640e+001
2.511841e+002, 3.583971e+001
2.516663e+002, 3.581777e+001
2.521484e+002, 3.583819e+001
2.526305e+002, 3.591845e+001
2.531126e+002, 3.597373e+001
2.535947e+002, 3.572342e+001
2.540768e+002, 3.456763e+001
2.545590e+002, 3.383809e+001
2.550411e+002, 3.393588e+001
2.555232e+002, 3.437135e+001
2.560053e+002, 3.460211e+001
2.564874e+002, 3.439846e+001
2.569695e+002, 3.391931e+001
2.574517e+002, 3.354898e+001
2.579338e+002, 3.332055e+001
2.584159e+002, 3.317946e+001
2.588980e+002, 3.314444e+001
2.593801e+002, 3.318764e+001
2.598622e+002, 3.332597e+001
2.603444e+002, 3.356001e+001
2.608265e+002, 3.378448e+001
2.613086e+002, 3.379761e+001
2.617907e+002, 3.344086e+001
2.622728e+002, 3.309931e+001
2.627549e+002, 3.268560e+001
2.632371e+002, 3.233213e+001
2.637192e+002, 3.225402e+001
2.642013e+002, 3.249561e+001
2.646834e+002, 3.278045e+001
2.651655e+002, 3.267457e+001
2.656476e+002, 3.192443e+001
2.661298e+002, 3.138507e+001
2.666119e+002, 3.118447e+001
2.670940e+002, 3.113797e+001
2.675761e+002, 3.110311e+001
2.680582e+002, 3.104702e+001
2.685403e+002, 3.096737e+001
2.690225e+002, 3.085953e+001
2.695046e+002, 3.071770e+001
2.699867e+002, 3.056482e+001
2.704688e+002, 3.038307e+001
2.709509e+002, 3.020243e+001
2.714330e+002, 3.003076e+001
2.719152e+002, 2.987316e+001
2.723973e+002, 2.977402e+001
2.728794e+002, 2.980176e+001
2.733615e+002, 2.996724e+001
2.738436e+002, 3.004095e+001
2.743257e+002, 2.996015e+001
2.748079e+002, 2.982814e+001
2.752900e+002, 2.969469e+001
2.757721e+002, 2.956970e+001
2.762542e+002, 2.951380e+001
2.767363e+002, 2.960568e+001
2.772184e+002, 2.982089e+001
2.777006e+002, 2.993159e+001
2.781827e+002, 2.985747e+001
2.786648e+002, 2.974087e+001
2.791469e+002, 2.968393e+001
2.796290e+002, 2.968026e+001
2.801111e+002, 2.965804e+001
2.805933e+002, 2.955149e+001
2.810754e+002, 2.940348e+001
2.815575e+002, 2.935044e+001
2.820396e+002, 2.942147e+001
2.825217e+002, 2.954988e+001
2.830038e+002, 2.973387e+001
2.834860e+002, 2.995666e+001
2.839681e+002, 3.013091e+001
2.844502e+002, 3.021225e+001
2.849323e+002, 3.022048e+001
2.854144e+002, 3.019880e+001
2.858965e+002, 3.011715e+001
2.863787e+002, 3.007724e+001
2.868608e+002, 3.014980e+001
2.873429e+002, 3.031359e+001
2.878250e+002, 3.052445e+001
2.883071e+002, 3.084960e+001
2.887892e+002, 3.109462e+001
2.892714e+002, 3.092339e+001
2.897535e+002, 3.028150e+001
2.902356e+002, 2.972543e+001
2.907177e+002, 2.953070e+001
2.911998e+002, 2.961844e+001
2.916819e+002, 2.979453e+001
2.921641e+002, 3.004642e+001
2.926462e+002, 3.032270e+001
2.931283e+002, 3.059097e+001
2.936104e+002, 3.084909e+001
2.940925e+002, 3.103971e+001
2.945746e+002, 3.109482e+001
2.950568e+002, 3.107359e+001
2.955389e+002, 3.111373e+001
2.960210e+002, 3.126362e+001
2.965031e+002, 3.137701e+001
2.969852e+002, 3.121742e+001
2.974673e+002, 3.089894e+001
2.979495e+002, 3.075705e+001
2.984316e+002, 3.107047e+001
2.989137e+002, 3.155759e+001
2.993958e+002, 3.177899e+001
2.998779e+002, 3.168289e+001
3.003600e+002, 3.152257e+001
3.008422e+002, 3.139322e+001
3.013243e+002, 3.132447e+001
3.018064e+002, 3.140552e+001
3.022885e+002, 3.183808e+001
3.027706e+002, 3.225313e+001
3.032527e+002, 3.211036e+001
3.037349e+002, 3.135972e+001
3.042170e+002, 3.075878e+001
3.046991e+002, 3.077391e+001
3.051812e+002, 3.110361e+001
3.056633e+002, 3.135891e+001
3.061454e+002, 3.151055e+001
3.066276e+002, 3.154101e+001
3.071097e+002, 3.137237e+001
3.075918e+002, 3.101892e+001
3.080739e+002, 3.072711e+001
3.085560e+002, 3.059804e+001
3.090381e+002, 3.055555e+001
3.095203e+002, 3.054397e+001
3.100024e+002, 3.057423e+001
3.104845e+002, 3.050356e+001
3.109666e+002, 3.012940e+001
3.114487e+002, 2.953378e+001
3.119308e+002, 2.913675e+001
3.124130e+002, 2.907589e+001
3.128951e+002, 2.916518e+001
3.133772e+002, 2.926234e+001
3.138593e+002, 2.936128e+001
3.143414e+002, 2.941087e+001
3.148235e+002, 2.932335e+001
3.153057e+002, 2.916992e+001
3.157878e+002, 2.916818e+001
3.162699e+002, 2.941345e+001
3.167520e+002, 2.962262e+001
3.172341e+002, 2.949736e+001
3.177162e+002, 2.917723e+001
3.181984e+002, 2.896655e+001
3.186805e+002, 2.902587e+001
3.191626e+002, 2.923423e+001
3.196447e+002, 2.937626e+001
3.201268e+002, 2.941768e+001
3.206089e+002, 2.956780e+001
3.210911e+002, 3.013279e+001
3.215732e+002, 3.083130e+001
3.220553e+002, 3.124277e+001
3.225374e+002, 3.117502e+001
3.230195e+002, 3.097896e+001
3.235016e+002, 3.103799e+001
3.239838e+002, 3.135493e+001
3.244659e+002, 3.161954e+001
3.249480e+002, 3.166305e+001
3.254301e+002, 3.162904e+001
3.259122e+002, 3.168495e+001
3.263943e+002, 3.184420e+001
3.268765e+002, 3.207241e+001
3.273586e+002, 3.240282e+001
3.278407e+002, 3.280529e+001
3.283228e+002, 3.310387e+001
3.288049e+002, 3.325080e+001
3.292870e+002, 3.328355e+001
3.297692e+002, 3.324186e+001
3.302513e+002, 3.313015e+001
3.307334e+002, 3.297463e+001
3.312155e+002, 3.280602e+001
3.316976e+002, 3.260122e+001
3.321797e+002, 3.226491e+001
3.326619e+002, 3.172159e+001
3.331440e+002, 3.123153e+001
3.336261e+002, 3.105074e+001
3.341082e+002, 3.108875e+001
3.345903e+002, 3.116046e+001
3.350724e+002, 3.122129e+001
3.355546e+002, 3.128148e+001
3.360367e+002, 3.138687e+001
3.365188e+002, 3.154988e+001
3.370009e+002, 3.162038e+001
3.374830e+002, 3.147590e+001
3.379651e+002, 3.118507e+001
3.384473e+002, 3.087233e+001
3.389294e+002, 3.050778e+001
3.394115e+002, 3.019160e+001
3.398936e+002, 3.006724e+001
3.403757e+002, 3.010032e+001
3.408578e+002, 3.002593e+001
3.413400e+002, 2.970232e+001
3.418221e+002, 2.926322e+001
3.423042e+002, 2.890746e+001
3.427863e+002, 2.863462e+001
3.432684e+002, 2.842342e+001
3.437505e+002, 2.824497e+001
3.442327e+002, 2.812070e+001
3.447148e+002, 2.816044e+001
3.451969e+002, 2.846595e+001
3.456790e+002, 2.872718e+001
3.461611e+002, 2.846341e+001
3.466432e+002, 2.776471e+001
3.471254e+002, 2.718808e+001
3.476075e+002, 2.687613e+001
3.480896e+002, 2.676493e+001
3.485717e+002, 2.686062e+001
3.490538e+002, 2.717402e+001
3.495359e+002, 2.742818e+001
3.500181e+002, 2.739905e+001
3.505002e+002, 2.712865e+001
3.509823e+002, 2.686533e+001
3.514644e+002, 2.656588e+001
3.519465e+002, 2.632638e+001
3.524286e+002, 2.622705e+001
3.529108e+002, 2.625075e+001
3.533929e+002, 2.628012e+001
3.538750e+002, 2.618271e+001
3.543571e+002, 2.614138e+001
3.548392e+002, 2.672753e+001
3.553214e+002, 2.852164e+001
3.558035e+002, 2.959581e+001
3.562856e+002, 2.859567e+001
3.567677e+002, 2.652726e+001
3.572498e+002, 2.524299e+001
3.577319e+002, 2.532151e+001
3.582141e+002, 2.599499e+001
3.586962e+002, 2.625296e+001
3.591783e+002, 2.603488e+001
3.596604e+002, 2.579595e+001
3.601425e+002, 2.556313e+001
3.606246e+002, 2.534507e+001
3.611068e+002, 2.511798e+001
3.615889e+002, 2.488887e+001
3.620710e+002, 2.476651e+001
3.625531e+002, 2.487456e+001
3.630352e+002, 2.520813e+001
3.635173e+002, 2.539386e+001
3.639995e+002, 2.535028e+001
3.644816e+002, 2.525620e+001
3.649637e+002, 2.516830e+001
3.654458e+002, 2.509588e+001
3.659279e+002, 2.505275e+001
3.664100e+002, 2.504784e+001
3.668922e+002, 2.507296e+001
3.673743e+002, 2.510386e+001
3.678564e+002, 2.518502e+001
3.683385e+002, 2.520950e+001
3.688206e+002, 2.508300e+001
3.693027e+002, 2.492664e+001
3.697849e+002, 2.490158e+001
3.702670e+002, 2.504802e+001
3.707491e+002, 2.525501e+001
3.712312e+002, 2.537644e+001
3.717133e+002, 2.540553e+001
3.721954e+002, 2.534328e+001
3.726776e+002, 2.504150e+001
3.731597e+002, 2.477845e+001
3.736418e+002, 2.474125e+001
3.741239e+002, 2.491289e+001
3.746060e+002, 2.516366e+001
3.750881e+002, 2.540614e+001
3.755703e+002, 2.563691e+001
3.760524e+002, 2.577204e+001
3.765345e+002, 2.573677e+001
3.770166e+002, 2.569506e+001
3.774987e+002, 2.564657e+001
3.779808e+002, 2.562403e+001
3.784630e+002, 2.568588e+001
3.789451e+002, 2.585980e+001
3.794272e+002, 2.608852e+001
3.799093e+002, 2.622921e+001
3.803914e+002, 2.618038e+001
3.808735e+002, 2.621515e+001
3.813557e+002, 2.638189e+001
3.818378e+002, 2.659832e+001
3.823199e+002, 2.680086e+001
3.828020e+002, 2.698352e+001
3.832841e+002, 2.718560e+001
3.837662e+002, 2.745659e+001
3.842484e+002, 2.781024e+001
3.847305e+002, 2.814334e+001
3.852126e+002, 2.854471e+001
3.856947e+002, 2.883569e+001
3.861768e+002, 2.884491e+001
3.866589e+002, 2.870403e+001
3.871411e+002, 2.868060e+001
3.876232e+002, 2.895475e+001
3.881053e+002, 2.943405e+001
3.885874e+002, 2.978079e+001
3.890695e+002, 2.992699e+001
3.895516e+002, 3.006267e+001
3.900338e+002, 3.019709e+001
3.905159e+002, 3.036197e+001
3.909980e+002, 3.061524e+001
3.914801e+002, 3.097120e+001
3.919622e+002, 3.132061e+001
3.924443e+002, 3.152881e+001
3.929265e+002, 3.158593e+001
3.934086e+002, 3.159112e+001
3.938907e+002, 3.146176e+001
3.943728e+002, 3.137469e+001
3.948549e+002, 3.149165e+001
3.953370e+002, 3.175712e+001
3.958192e+002, 3.195102e+001
3.963013e+002, 3.187230e+001
3.967834e+002, 3.161573e+001
3.972655e+002, 3.152267e+001
3.977476e+002, 3.167706e+001
3.982297e+002, 3.177712e+001
3.987119e+002, 3.153394e+001
3.991940e+002, 3.118021e+001
3.996761e+002, 3.104603e+001
4.001582e+002, 3.129285e+001
4.006403e+002, 3.160382e+001
4.011224e+002, 3.161442e+001
4.016046e+002, 3.134568e+001
4.020867e+002, 3.116218e+001
4.025688e+002, 3.119381e+001
4.030509e+002, 3.133751e+001
4.035330e+002, 3.147440e+001
4.040151e+002, 3.160488e+001
4.044973e+002, 3.172127e+001
4.049794e+002, 3.182271e+001
4.054615e+002, 3.190718e+001
4.059436e+002, 3.193787e+001
4.064257e+002, 3.189441e+001
4.069078e+002, 3.192465e+001
4.073900e+002, 3.215836e+001
4.078721e+002, 3.257984e+001
4.083542e+002, 3.306710e+001
4.088363e+002, 3.382586e+001
4.093184e+002, 3.445586e+001
4.098005e+002, 3.449420e+001
4.102827e+002, 3.413863e+001
4.107648e+002, 3.412288e+001
4.112469e+002, 3.484066e+001
4.117290e+002, 3.593869e+001
4.122111e+002, 3.658157e+001
4.126932e+002, 3.655025e+001
4.131754e+002, 3.668333e+001
4.136575e+002, 3.724408e+001
4.141396e+002, 3.797274e+001
4.146217e+002, 3.858680e+001
4.151038e+002, 3.904322e+001
4.155859e+002, 3.950702e+001
4.160681e+002, 4.015674e+001
4.165502e+002, 4.101959e+001
4.170323e+002, 4.176139e+001
4.175144e+002, 4.226516e+001
4.179965e+002, 4.278937e+001
4.184786e+002, 4.339927e+001
4.189608e+002, 4.410960e+001
4.194429e+002, 4.497303e+001
4.199250e+002, 4.602557e+001
4.204071e+002, 4.716529e+001
4.208892e+002, 4.810267e+001
4.213713e+002, 4.861196e+001
4.218535e+002, 4.925029e+001
4.223356e+002, 5.008554e+001
4.228177e+002, 5.101305e+001
4.232998e+002, 5.198684e+001
4.237819e+002, 5.298182e+001
4.242640e+002, 5.394017e+001
4.247462e+002, 5.479763e+001
4.252283e+002, 5.555148e+001
4.257104e+002, 5.629280e+001
4.261925e+002, 5.700471e+001
4.266746e+002, 5.772174e+001
4.271567e+002, 5.848249e+001
4.276389e+002, 5.924881e+001
4.281210e+002, 5.993206e+001
4.286031e+002, 6.047144e+001
4.290852e+002, 6.098602e+001
4.295673e+002, 6.177711e+001
4.300494e+002, 6.298832e+001
4.305316e+002, 6.396402e+001
4.310137e+002, 6.413559e+001
4.314958e+002, 6.429942e+001
4.319779e+002, 6.506048e+001
4.324600e+002, 6.641851e+001
4.329421e+002, 6.778014e+001
4.334243e+002, 6.866157e+001
4.339064e+002, 6.916451e+001
4.343885e+002, 6.969303e+001
4.348706e+002, 7.018436e+001
4.353527e+002, 7.090004e+001
4.358348e+002, 7.228885e+001
4.363170e+002, 7.397313e+001
4.367991e+002, 7.530584e+001
4.372812e+002, 7.596446e+001
4.377633e+002, 7.644705e+001
4.382454e+002, 7.719390e+001
4.387275e+002, 7.818005e+001
4.392097e+002, 7.921241e+001
4.396918e+002, 8.021564e+001
4.401739e+002, 8.124365e+001
4.406560e+002, 8.236916e+001
4.411381e+002, 8.358764e+001
4.416202e+002, 8.489565e+001
4.421024e+002, 8.626613e+001
4.425845e+002, 8.773753e+001
4.430666e+002, 8.932887e+001
4.435487e+002, 9.104874e+001
4.440308e+002, 9.291366e+001
4.445129e+002, 9.491728e+001
4.449951e+002, 9.707458e+001
4.454772e+002, 9.956859e+001
4.459593e+002, 1.028010e+002
4.464414e+002, 1.058370e+002
4.469235e+002, 1.083175e+002
4.474056e+002, 1.104452e+002
4.478878e+002, 1.125042e+002
4.483699e+002, 1.145951e+002
4.488520e+002, 1.167164e+002
4.493341e+002, 1.189092e+002
4.498162e+002, 1.213219e+002
4.502983e+002, 1.233348e+002
4.507805e+002, 1.249269e+002
4.512626e+002, 1.262030e+002
4.517447e+002, 1.270875e+002
4.522268e+002, 1.276987e+002
4.527089e+002, 1.283547e+002
4.531910e+002, 1.293163e+002
4.536732e+002, 1.303828e+002
4.541553e+002, 1.306586e+002
4.546374e+002, 1.296926e+002
4.551195e+002, 1.286618e+002
4.556016e+002, 1.276331e+002
4.560837e+002, 1.267089e+002
4.565659e+002, 1.261550e+002
4.570480e+002, 1.259438e+002
4.575301e+002, 1.255190e+002
4.580122e+002, 1.242012e+002
4.584943e+002, 1.220026e+002
4.589764e+002, 1.198890e+002
4.594586e+002, 1.179940e+002
4.599407e+002, 1.160262e+002
4.604228e+002, 1.139000e+002
4.609049e+002, 1.116043e+002
4.613870e+002, 1.090845e+002
4.618691e+002, 1.062332e+002
4.623513e+002, 1.032994e+002
4.628334e+002, 1.006571e+002
4.633155e+002, 9.829124e+001
4.637976e+002, 9.578606e+001
4.642797e+002, 9.293047e+001
4.647618e+002, 8.998036e+001
4.652440e+002, 8.722153e+001
4.657261e+002, 8.464161e+001
4.662082e+002, 8.224312e+001
4.666903e+002, 8.013496e+001
4.671724e+002, 7.814030e+001
4.676545e+002, 7.603690e+001
4.681367e+002, 7.381988e+001
4.686188e+002, 7.155952e+001
4.691009e+002, 6.923381e+001
4.695830e+002, 6.694334e+001
4.700651e+002, 6.513120e+001
4.705472e+002, 6.422837e+001
4.710294e+002, 6.320406e+001
4.715115e+002, 6.168904e+001
4.719936e+002, 5.995640e+001
4.724757e+002, 5.834668e+001
4.729578e+002, 5.694853e+001
4.734399e+002, 5.560752e+001
4.739221e+002, 5.412796e+001
4.744042e+002, 5.246439e+001
4.748863e+002, 5.093139e+001
4.753684e+002, 4.955372e+001
4.758505e+002, 4.824962e+001
4.763326e+002, 4.695223e+001
4.768148e+002, 4.571909e+001
4.772969e+002, 4.467486e+001
4.777790e+002, 4.389125e+001
4.782611e+002, 4.325089e+001
4.787432e+002, 4.252964e+001
4.792253e+002, 4.173507e+001
4.797075e+002, 4.084380e+001
4.801896e+002, 3.962514e+001
4.806717e+002, 3.850212e+001
4.811538e+002, 3.778281e+001
4.816359e+002, 3.740516e+001
4.821180e+002, 3.702961e+001
4.826002e+002, 3.635607e+001
4.830823e+002, 3.554217e+001
4.835644e+002, 3.507849e+001
4.840465e+002, 3.507472e+001
4.845286e+002, 3.502826e+001
4.850107e+002, 3.467357e+001
4.854929e+002, 3.417789e+001
4.859750e+002, 3.376318e+001
4.864571e+002, 3.349029e+001
4.869392e+002, 3.310672e+001
4.874213e+002, 3.231370e+001
4.879034e+002, 3.131906e+001
4.883856e+002, 3.059158e+001
4.888677e+002, 3.020931e+001
4.893498e+002, 3.003141e+001
4.898319e+002, 3.002556e+001
4.903140e+002, 3.015655e+001
4.907961e+002, 3.004711e+001
4.912783e+002, 2.937574e+001
4.917604e+002, 2.880445e+001
4.922425e+002, 2.881833e+001
4.927246e+002, 2.910970e+001
4.932067e+002, 2.903027e+001
4.936888e+002, 2.835244e+001
4.941710e+002, 2.749342e+001
4.946531e+002, 2.711119e+001
4.951352e+002, 2.737439e+001
4.956173e+002, 2.760991e+001
4.960994e+002, 2.803628e+001
4.965815e+002, 2.823089e+001
4.970637e+002, 2.777135e+001
4.975458e+002, 2.693227e+001
4.980279e+002, 2.633700e+001
4.985100e+002, 2.636049e+001
4.989921e+002, 2.671505e+001
4.994742e+002, 2.661605e+001
4.999564e+002, 2.577838e+001
5.004385e+002, 2.521203e+001
5.009206e+002, 2.529640e+001
5.014027e+002, 2.550290e+001
5.018848e+002, 2.554152e+001
5.023669e+002, 2.539925e+001
5.028491e+002, 2.519015e+001
5.033312e+002, 2.489562e+001
5.038133e+002, 2.461251e+001
5.042954e+002, 2.470672e+001
5.047775e+002, 2.530084e+001
5.052596e+002, 2.568106e+001
5.057418e+002, 2.533685e+001
5.062239e+002, 2.468054e+001
5.067060e+002, 2.432563e+001
5.071881e+002, 2.437253e+001
5.076702e+002, 2.442901e+001
5.081523e+002, 2.423125e+001
5.086345e+002, 2.393768e+001
5.091166e+002, 2.384036e+001
5.095987e+002, 2.398290e+001
5.100808e+002, 2.416450e+001
5.105629e+002, 2.423868e+001
5.110450e+002, 2.420548e+001
5.115272e+002, 2.409774e+001
5.120093e+002, 2.381254e+001
5.124914e+002, 2.358407e+001
5.129735e+002, 2.353145e+001
5.134556e+002, 2.355342e+001
5.139377e+002, 2.352706e+001
5.144199e+002, 2.341585e+001
5.149020e+002, 2.323602e+001
5.153841e+002, 2.299197e+001
5.158662e+002, 2.265873e+001
5.163483e+002, 2.243574e+001
5.168304e+002, 2.245872e+001
5.173126e+002, 2.245117e+001
5.177947e+002, 2.227313e+001
5.182768e+002, 2.203558e+001
5.187589e+002, 2.192682e+001
5.192410e+002, 2.202778e+001
5.197231e+002, 2.218139e+001
5.202053e+002, 2.212638e+001
5.206874e+002, 2.184055e+001
5.211695e+002, 2.168186e+001
5.216516e+002, 2.178905e+001
5.221337e+002, 2.191652e+001
5.226158e+002, 2.185337e+001
5.230980e+002, 2.167198e+001
5.235801e+002, 2.158810e+001
5.240622e+002, 2.178480e+001
5.245443e+002, 2.200593e+001
5.250264e+002, 2.193973e+001
5.255085e+002, 2.163437e+001
5.259907e+002, 2.138400e+001
5.264728e+002, 2.130284e+001
5.269549e+002, 2.129036e+001
5.274370e+002, 2.117449e+001
5.279191e+002, 2.091531e+001
5.284012e+002, 2.080551e+001
5.288834e+002, 2.098774e+001
5.293655e+002, 2.123124e+001
5.298476e+002, 2.141707e+001
5.303297e+002, 2.152931e+001
5.308118e+002, 2.155288e+001
5.312939e+002, 2.147540e+001
5.317761e+002, 2.133219e+001
5.322582e+002, 2.122001e+001
5.327403e+002, 2.122151e+001
5.332224e+002, 2.109536e+001
5.337045e+002, 2.067258e+001
5.341866e+002, 2.028192e+001
5.346688e+002, 2.013484e+001
5.351509e+002, 2.019733e+001
5.356330e+002, 2.031680e+001
5.361151e+002, 2.041183e+001
5.365972e+002, 2.047260e+001
5.370793e+002, 2.046490e+001
5.375615e+002, 2.037363e+001
5.380436e+002, 2.027588e+001
5.385257e+002, 2.018273e+001
5.390078e+002, 2.010181e+001
5.394899e+002, 2.002618e+001
5.399720e+002, 1.995884e+001
5.404542e+002, 1.994619e+001
5.409363e+002, 2.008716e+001
5.414184e+002, 2.025871e+001
5.419005e+002, 2.022367e+001
5.423826e+002, 1.999115e+001
5.428647e+002, 1.989043e+001
5.433469e+002, 2.014878e+001
5.438290e+002, 2.059207e+001
5.443111e+002, 2.075199e+001
5.447932e+002, 2.050166e+001
5.452753e+002, 2.031162e+001
5.457574e+002, 2.029374e+001
5.462396e+002, 2.032823e+001
5.467217e+002, 2.031623e+001
5.472038e+002, 2.025469e+001
5.476859e+002, 2.019081e+001
5.481680e+002, 2.015881e+001
5.486501e+002, 2.014856e+001
5.491323e+002, 2.011718e+001
5.496144e+002, 2.007729e+001
5.500965e+002, 1.999099e+001
5.505786e+002, 1.980250e+001
5.510607e+002, 1.961184e+001
5.515428e+002, 1.948673e+001
5.520250e+002, 1.943264e+001
5.525071e+002, 1.942237e+001
5.529892e+002, 1.944574e+001
5.534713e+002, 1.949499e+001
5.539534e+002, 1.954369e+001
5.544355e+002, 1.958642e+001
5.549177e+002, 1.966275e+001
5.553998e+002, 1.985150e+001
5.558819e+002, 2.003369e+001
5.563640e+002, 2.002811e+001
5.568461e+002, 1.980389e+001
5.573282e+002, 1.962522e+001
5.578104e+002, 1.960374e+001
5.582925e+002, 1.967587e+001
5.587746e+002, 1.980914e+001
5.592567e+002, 1.998272e+001
5.597388e+002, 2.008168e+001
5.602209e+002, 2.002143e+001
5.607031e+002, 1.986306e+001
5.611852e+002, 1.980267e+001
5.616673e+002, 1.999943e+001
5.621494e+002, 2.006789e+001
5.626315e+002, 1.994095e+001
5.631136e+002, 1.973260e+001
5.635958e+002, 1.947638e+001
5.640779e+002, 1.920914e+001
5.645600e+002, 1.900518e+001
5.650421e+002, 1.891603e+001
5.655242e+002, 1.892844e+001
5.660063e+002, 1.901674e+001
5.664885e+002, 1.922334e+001
5.669706e+002, 1.938009e+001
5.674527e+002, 1.936416e+001
5.679348e+002, 1.934702e+001
5.684169e+002, 1.949423e+001
5.688990e+002, 1.977968e+001
5.693812e+002, 1.998170e+001
5.698633e+002, 1.990034e+001
5.703454e+002, 1.971059e+001
5.708275e+002, 1.967313e+001
5.713096e+002, 1.978063e+001
5.717917e+002, 1.990180e+001
5.722739e+002, 2.000111e+001
5.727560e+002, 2.005377e+001
5.732381e+002, 1.997616e+001
5.737202e+002, 1.968196e+001
5.742023e+002, 1.960043e+001
5.746844e+002, 2.000006e+001
5.751666e+002, 2.042646e+001
5.756487e+002, 2.055685e+001
5.761308e+002, 2.044993e+001
5.766129e+002, 2.031105e+001
5.770950e+002, 2.024516e+001
5.775771e+002, 2.022758e+001
5.780593e+002, 2.019581e+001
5.785414e+002, 2.011539e+001
5.790235e+002, 2.011540e+001
5.795056e+002, 2.027240e+001
5.799877e+002, 2.044704e+001
5.804698e+002, 2.060271e+001
5.809520e+002, 2.072545e+001
5.814341e+002, 2.079207e+001
5.819162e+002, 2.077699e+001
5.823983e+002, 2.073298e+001
5.828804e+002, 2.073593e+001
5.833625e+002, 2.078019e+001
5.838447e+002, 2.080102e+001
5.843268e+002, 2.077448e+001
5.848089e+002, 2.074116e+001
5.852910e+002, 2.074516e+001
5.857731e+002, 2.078304e+001
5.862552e+002, 2.081821e+001
5.867374e+002, 2.077869e+001
5.872195e+002, 2.080790e+001
5.877016e+002, 2.108963e+001
5.881837e+002, 2.146253e+001
5.886658e+002, 2.162184e+001
5.891479e+002, 2.148299e+001
5.896301e+002, 2.123425e+001
5.901122e+002, 2.109469e+001
5.905943e+002, 2.106717e+001
5.910764e+002, 2.112827e+001
5.915585e+002, 2.131676e+001
5.920406e+002, 2.155553e+001
5.925228e+002, 2.191873e+001
5.930049e+002, 2.227876e+001
5.934870e+002, 2.244987e+001
5.939691e+002, 2.239139e+001
5.944512e+002, 2.231910e+001
5.949333e+002, 2.247291e+001
5.954155e+002, 2.279308e+001
5.958976e+002, 2.300067e+001
5.963797e+002, 2.305339e+001
5.968618e+002, 2.311280e+001
5.973439e+002, 2.326589e+001
5.978260e+002, 2.349473e+001
5.983082e+002, 2.374365e+001
5.987903e+002, 2.401723e+001
5.992724e+002, 2.429918e+001
5.997545e+002, 2.455301e+001
6.002366e+002, 2.483215e+001
6.007188e+002, 2.514500e+001
6.012009e+002, 2.552381e+001
6.016830e+002, 2.610723e+001
6.021651e+002, 2.701924e+001
6.026472e+002, 2.814063e+001
6.031293e+002, 2.901764e+001
6.036115e+002, 2.946784e+001
6.040936e+002, 3.000676e+001
6.045757e+002, 3.059041e+001
6.050578e+002, 3.132671e+001
6.055399e+002, 3.237905e+001
6.060220e+002, 3.365192e+001
6.065042e+002, 3.486769e+001
6.069863e+002, 3.585488e+001
6.074684e+002, 3.671674e+001
6.079505e+002, 3.763676e+001
6.084326e+002, 3.861317e+001
6.089147e+002, 3.949804e+001
6.093969e+002, 4.022448e+001
6.098790e+002, 4.090288e+001
6.103611e+002, 4.172978e+001
6.108432e+002, 4.267950e+001
6.113253e+002, 4.330658e+001
6.118074e+002, 4.329332e+001
6.122896e+002, 4.322912e+001
6.127717e+002, 4.337813e+001
6.132538e+002, 4.369942e+001
6.137359e+002, 4.415807e+001
6.142180e+002, 4.472896e+001
6.147001e+002, 4.528035e+001
6.151823e+002, 4.566765e+001
6.156644e+002, 4.588930e+001
6.161465e+002, 4.596487e+001
6.166286e+002, 4.574123e+001
6.171107e+002, 4.558053e+001
6.175928e+002, 4.559755e+001
6.180750e+002, 4.570505e+001
6.185571e+002, 4.586669e+001
6.190392e+002, 4.606360e+001
6.195213e+002, 4.613270e+001
6.200034e+002, 4.595327e+001
6.204855e+002, 4.555834e+001
6.209677e+002, 4.500963e+001
6.214498e+002, 4.430991e+001
6.219319e+002, 4.345286e+001
6.224140e+002, 4.236584e+001
6.228961e+002, 4.119497e+001
6.233782e+002, 4.026849e+001
6.238604e+002, 3.967520e+001
6.243425e+002, 3.901432e+001
6.248246e+002, 3.797800e+001
6.253067e+002, 3.709759e+001
6.257888e+002, 3.695100e+001
6.262709e+002, 3.724581e+001
6.267531e+002, 3.720533e+001
6.272352e+002, 3.644214e+001
6.277173e+002, 3.534028e+001
6.281994e+002, 3.462157e+001
6.286815e+002, 3.437123e+001
6.291636e+002, 3.402418e+001
6.296458e+002, 3.353099e+001
6.301279e+002, 3.296121e+001
6.306100e+002, 3.221068e+001
6.310921e+002, 3.144606e+001
6.315742e+002, 3.099760e+001
6.320563e+002, 3.102675e+001
6.325385e+002, 3.113952e+001
6.330206e+002, 3.111638e+001
6.335027e+002, 3.095980e+001
6.339848e+002, 3.056777e+001
6.344669e+002, 2.993918e+001
6.349490e+002, 2.951380e+001
6.354312e+002, 2.966414e+001
6.359133e+002, 3.024335e+001
6.363954e+002, 3.055424e+001
6.368775e+002, 3.025623e+001
6.373596e+002, 3.013994e+001
6.378417e+002, 3.027338e+001
6.383239e+002, 3.056049e+001
6.388060e+002, 3.111194e+001
6.392881e+002, 3.176983e+001
6.397702e+002, 3.208006e+001
6.402523e+002, 3.169093e+001
6.407344e+002, 3.101175e+001
6.412166e+002, 3.090505e+001
6.416987e+002, 3.140389e+001
6.421808e+002, 3.170880e+001
6.426629e+002, 3.162643e+001
6.431450e+002, 3.137458e+001
6.436271e+002, 3.114432e+001
6.441093e+002, 3.090755e+001
6.445914e+002, 3.054370e+001
6.450735e+002, 2.985962e+001
6.455556e+002, 2.924960e+001
6.460377e+002, 2.902756e+001
6.465198e+002, 2.893841e+001
6.470020e+002, 2.859201e+001
6.474841e+002, 2.793372e+001
6.479662e+002, 2.719000e+001
6.484483e+002, 2.654600e+001
6.489304e+002, 2.600556e+001
6.494125e+002, 2.557533e+001
6.498947e+002, 2.529610e+001
6.503768e+002, 2.505929e+001
6.508589e+002, 2.493621e+001
6.513410e+002, 2.477661e+001
6.518231e+002, 2.442602e+001
6.523052e+002, 2.392177e+001
6.527874e+002, 2.347771e+001
6.532695e+002, 2.325958e+001
6.537516e+002, 2.309832e+001
6.542337e+002, 2.271438e+001
6.547158e+002, 2.218357e+001
6.551979e+002, 2.189801e+001
6.556801e+002, 2.199987e+001
6.561622e+002, 2.219095e+001
6.566443e+002, 2.212132e+001
6.571264e+002, 2.176709e+001
6.576085e+002, 2.161814e+001
6.580906e+002, 2.174224e+001
6.585728e+002, 2.195515e+001
6.590549e+002, 2.241769e+001
6.595370e+002, 2.282619e+001
6.600191e+002, 2.277975e+001
6.605012e+002, 2.228716e+001
6.609833e+002, 2.179214e+001
6.614655e+002, 2.165292e+001
6.619476e+002, 2.178962e+001
6.624297e+002, 2.200749e+001
6.629118e+002, 2.233213e+001
6.633939e+002, 2.252775e+001
6.638760e+002, 2.247851e+001
6.643582e+002, 2.232031e+001
6.648403e+002, 2.222680e+001
6.653224e+002, 2.218979e+001
6.658045e+002, 2.205942e+001
6.662866e+002, 2.170258e+001
6.667687e+002, 2.136081e+001
6.672509e+002, 2.121582e+001
6.677330e+002, 2.116158e+001
6.682151e+002, 2.101175e+001
6.686972e+002, 2.072202e+001
6.691793e+002, 2.039068e+001
6.696614e+002, 2.010184e+001
6.701436e+002, 1.986035e+001
6.706257e+002, 1.976077e+001
6.711078e+002, 1.996252e+001
6.715899e+002, 1.997592e+001
6.720720e+002, 1.946638e+001
6.725541e+002, 1.885181e+001
6.730363e+002, 1.840903e+001
6.735184e+002, 1.816263e+001
6.740005e+002, 1.809529e+001
6.744826e+002, 1.839664e+001
6.749647e+002, 1.871478e+001
6.754468e+002, 1.866388e+001
6.759290e+002, 1.833521e+001
6.764111e+002, 1.798701e+001
6.768932e+002, 1.769804e+001
6.773753e+002, 1.748438e+001
6.778574e+002, 1.737272e+001
6.783395e+002, 1.736633e+001
6.788217e+002, 1.738077e+001
6.793038e+002, 1.748990e+001
6.797859e+002, 1.752291e+001
6.802680e+002, 1.741822e+001
6.807501e+002, 1.724836e+001
6.812322e+002, 1.706003e+001
6.817144e+002, 1.686912e+001
6.821965e+002, 1.669584e+001
6.826786e+002, 1.653899e+001
6.831607e+002, 1.642005e+001
6.836428e+002, 1.643442e+001
6.841249e+002, 1.655362e+001
6.846071e+002, 1.649962e+001
6.850892e+002, 1.614844e+001
6.855713e+002, 1.574100e+001
6.860534e+002, 1.553899e+001
6.865355e+002, 1.555211e+001
6.870176e+002, 1.564980e+001
6.874998e+002, 1.607051e+001
6.879819e+002, 1.627008e+001
6.884640e+002, 1.593664e+001
6.889461e+002, 1.542661e+001
6.894282e+002, 1.505572e+001
6.899103e+002, 1.488892e+001
6.903925e+002, 1.487769e+001
6.908746e+002, 1.504478e+001
6.913567e+002, 1.528494e+001
6.918388e+002, 1.530762e+001
6.923209e+002, 1.510145e+001
6.928030e+002, 1.498790e+001
6.932852e+002, 1.510705e+001
6.937673e+002, 1.524092e+001
6.942494e+002, 1.515147e+001
6.947315e+002, 1.485064e+001
6.952136e+002, 1.457054e+001
6.956957e+002, 1.424326e+001
6.961779e+002, 1.402897e+001
6.966600e+002, 1.405107e+001
6.971421e+002, 1.417416e+001
6.976242e+002, 1.423859e+001
6.981063e+002, 1.423445e+001
6.985884e+002, 1.428973e+001
6.990706e+002, 1.454647e+001
6.995527e+002, 1.485525e+001
7.000348e+002, 1.469729e+001
7.005169e+002, 1.396094e+001
7.009990e+002, 1.349073e+001
7.014811e+002, 1.356490e+001
7.019633e+002, 1.378605e+001
7.024454e+002, 1.381777e+001
7.029275e+002, 1.371789e+001
7.034096e+002, 1.367953e+001
7.038917e+002, 1.376136e+001
7.043738e+002, 1.386256e+001
7.048560e+002, 1.404686e+001
7.053381e+002, 1.416802e+001
7.058202e+002, 1.393809e+001
7.063023e+002, 1.341963e+001
7.067844e+002, 1.305201e+001
7.072665e+002, 1.315558e+001
7.077487e+002, 1.354960e+001
7.082308e+002, 1.374977e+001
7.087129e+002, 1.373162e+001
7.091950e+002, 1.361754e+001
7.096771e+002, 1.329460e+001
7.101592e+002, 1.304785e+001
7.106414e+002, 1.316841e+001
7.111235e+002, 1.347768e+001
7.116056e+002, 1.357875e+001
7.120877e+002, 1.331911e+001
7.125698e+002, 1.305337e+001
7.130519e+002, 1.301200e+001
7.135341e+002, 1.302357e+001
7.140162e+002, 1.280052e+001
7.144983e+002, 1.240464e+001
7.149804e+002, 1.219897e+001
7.154625e+002, 1.239970e+001
7.159446e+002, 1.284636e+001
7.164268e+002, 1.323218e+001
7.169089e+002, 1.358799e+001
7.173910e+002, 1.373999e+001
7.178731e+002, 1.355869e+001
7.183552e+002, 1.334221e+001
7.188373e+002, 1.322659e+001
7.193195e+002, 1.316516e+001
7.198016e+002, 1.306860e+001
7.202837e+002, 1.289849e+001
7.207658e+002, 1.284438e+001
7.212479e+002, 1.318278e+001
7.217300e+002, 1.355102e+001
7.222122e+002, 1.344939e+001
7.226943e+002, 1.300440e+001
7.231764e+002, 1.275463e+001
7.236585e+002, 1.293748e+001
7.241406e+002, 1.328240e+001
7.246227e+002, 1.335674e+001
7.251049e+002, 1.311614e+001
7.255870e+002, 1.304410e+001
7.260691e+002, 1.329966e+001
7.265512e+002, 1.346582e+001
7.270333e+002, 1.330334e+001
7.275154e+002, 1.304596e+001
7.279976e+002, 1.292373e+001
7.284797e+002, 1.295597e+001
7.289618e+002, 1.302279e+001
7.294439e+002, 1.311952e+001
7.299260e+002, 1.319042e+001
7.304081e+002, 1.316600e+001
7.308903e+002, 1.307743e+001
7.313724e+002, 1.298149e+001
7.318545e+002, 1.289949e+001
7.323366e+002, 1.288451e+001
7.328187e+002, 1.302177e+001
7.333008e+002, 1.328345e+001
7.337830e+002, 1.330941e+001
7.342651e+002, 1.293388e+001
7.347472e+002, 1.268093e+001
7.352293e+002, 1.277009e+001
7.357114e+002, 1.293755e+001
7.361935e+002, 1.303547e+001
7.366757e+002, 1.305502e+001
7.371578e+002, 1.299202e+001
7.376399e+002, 1.276913e+001
7.381220e+002, 1.256230e+001
7.386041e+002, 1.247938e+001
7.390862e+002, 1.249348e+001
7.395684e+002, 1.261520e+001
7.400505e+002, 1.281416e+001
7.405326e+002, 1.291440e+001
7.410147e+002, 1.276459e+001
7.414968e+002, 1.249166e+001
7.419789e+002, 1.253343e+001
7.424611e+002, 1.304679e+001
7.429432e+002, 1.328743e+001
7.434253e+002, 1.302759e+001
7.439074e+002, 1.267808e+001
7.443895e+002, 1.243252e+001
7.448716e+002, 1.227307e+001
7.453538e+002, 1.216406e+001
7.458359e+002, 1.208865e+001
7.463180e+002, 1.210148e+001
7.468001e+002, 1.235240e+001
7.472822e+002, 1.261279e+001
7.477643e+002, 1.262683e+001
7.482465e+002, 1.243166e+001
7.487286e+002, 1.216428e+001
7.492107e+002, 1.188735e+001
7.496928e+002, 1.171009e+001
7.501749e+002, 1.184236e+001
7.506570e+002, 1.230517e+001
7.511392e+002, 1.264699e+001
7.516213e+002, 1.285242e+001
7.521034e+002, 1.297315e+001
7.525855e+002, 1.299667e+001
7.530676e+002, 1.296557e+001
7.535497e+002, 1.294905e+001
7.540319e+002, 1.295037e+001
7.545140e+002, 1.286190e+001
7.549961e+002, 1.241013e+001
7.554782e+002, 1.211958e+001
7.559603e+002, 1.248490e+001
7.564424e+002, 1.314797e+001
7.569246e+002, 1.353349e+001
7.574067e+002, 1.353986e+001
7.578888e+002, 1.349084e+001
7.583709e+002, 1.368614e+001
7.588530e+002, 1.401902e+001
7.593351e+002, 1.408930e+001
7.598173e+002, 1.385506e+001
7.602994e+002, 1.371860e+001
7.607815e+002, 1.378909e+001
7.612636e+002, 1.393417e+001
7.617457e+002, 1.406281e+001
7.622278e+002, 1.417438e+001
7.627100e+002, 1.427087e+001
7.631921e+002, 1.437176e+001
7.636742e+002, 1.442686e+001
7.641563e+002, 1.445587e+001
7.646384e+002, 1.440894e+001
7.651205e+002, 1.417922e+001
7.656027e+002, 1.384079e+001
7.660848e+002, 1.358278e+001
7.665669e+002, 1.349294e+001
7.670490e+002, 1.349722e+001
7.675311e+002, 1.354909e+001
7.680132e+002, 1.362187e+001
7.684954e+002, 1.354879e+001
7.689775e+002, 1.330586e+001
7.694596e+002, 1.302946e+001
7.699417e+002, 1.276812e+001
7.704238e+002, 1.253353e+001
7.709059e+002, 1.235659e+001
7.713881e+002, 1.226789e+001
7.718702e+002, 1.211277e+001
7.723523e+002, 1.173774e+001
7.728344e+002, 1.147938e+001
7.733165e+002, 1.153984e+001
7.737986e+002, 1.172785e+001
7.742808e+002, 1.181466e+001
7.747629e+002, 1.177952e+001
7.752450e+002, 1.178656e+001
7.757271e+002, 1.202048e+001
7.762092e+002, 1.228530e+001
7.766913e+002, 1.224611e+001
7.771735e+002, 1.197340e+001
7.776556e+002, 1.175100e+001
7.781377e+002, 1.164291e+001
7.786198e+002, 1.159890e+001
7.791019e+002, 1.158400e+001
7.795840e+002, 1.159153e+001
7.800662e+002, 1.158915e+001
7.805483e+002, 1.158844e+001
7.810304e+002, 1.155505e+001
7.815125e+002, 1.140463e+001
7.819946e+002, 1.130494e+001
7.824767e+002, 1.140494e+001
7.829589e+002, 1.159763e+001
7.834410e+002, 1.166675e+001
7.839231e+002, 1.153836e+001
7.844052e+002, 1.139572e+001
7.848873e+002, 1.133012e+001
7.853694e+002, 1.132312e+001
7.858516e+002, 1.137933e+001
7.863337e+002, 1.147598e+001
7.868158e+002, 1.155058e+001
7.872979e+002, 1.157794e+001
7.877800e+002, 1.156285e+001
7.882621e+002, 1.148604e+001
7.887443e+002, 1.135452e+001
7.892264e+002, 1.141374e+001
7.897085e+002, 1.179006e+001
7.901906e+002, 1.199705e+001
7.906727e+002, 1.176701e+001
7.911548e+002, 1.143268e+001
7.916370e+002, 1.132022e+001
7.921191e+002, 1.140492e+001
7.926012e+002, 1.152658e+001
7.930833e+002, 1.179801e+001
7.935654e+002, 1.193352e+001
7.940475e+002, 1.171678e+001
7.945297e+002, 1.138627e+001
7.950118e+002, 1.117085e+001
7.954939e+002, 1.108080e+001
7.959760e+002, 1.101616e+001
7.964581e+002, 1.091652e+001
7.969402e+002, 1.085040e+001
7.974224e+002, 1.093154e+001
7.979045e+002, 1.114443e+001
7.983866e+002, 1.142417e+001
7.988687e+002, 1.178651e+001
7.993508e+002, 1.201416e+001
7.998329e+002, 1.198746e+001
8.003151e+002, 1.176994e+001
8.007972e+002, 1.144445e+001
8.012793e+002, 1.091729e+001
8.017614e+002, 1.065445e+001
8.022435e+002, 1.075658e+001
8.027256e+002, 1.097187e+001
8.032078e+002, 1.140087e+001
8.036899e+002, 1.179530e+001
8.041720e+002, 1.188671e+001
8.046541e+002, 1.166986e+001
8.051362e+002, 1.134874e+001
8.056183e+002, 1.088930e+001
8.061005e+002, 1.054295e+001
8.065826e+002, 1.069225e+001
8.070647e+002, 1.113158e+001
8.075468e+002, 1.140502e+001
8.080289e+002, 1.143754e+001
8.085110e+002, 1.136276e+001
8.089932e+002, 1.126363e+001
8.094753e+002, 1.116168e+001
8.099574e+002, 1.112085e+001
8.104395e+002, 1.116026e+001
8.109216e+002, 1.117273e+001
8.114037e+002, 1.113886e+001
8.118859e+002, 1.110067e+001
8.123680e+002, 1.104033e+001
8.128501e+002, 1.100710e+001
8.133322e+002, 1.109719e+001
8.138143e+002, 1.133904e+001
8.142964e+002, 1.152197e+001
8.147786e+002, 1.151296e+001
8.152607e+002, 1.152297e+001
8.157428e+002, 1.179621e+001
8.162249e+002, 1.210773e+001
8.167070e+002, 1.206200e+001
8.171891e+002, 1.164666e+001
8.176713e+002, 1.125851e+001
8.181534e+002, 1.119544e+001
8.186355e+002, 1.135478e+001
8.191176e+002, 1.162653e+001
8.195997e+002, 1.197456e+001
8.200818e+002, 1.206340e+001
8.205640e+002, 1.180404e+001
8.210461e+002, 1.156065e+001
8.215282e+002, 1.161223e+001
8.220103e+002, 1.184269e+001
8.224924e+002, 1.189368e+001
8.229745e+002, 1.165857e+001
8.234567e+002, 1.148133e+001
8.239388e+002, 1.143199e+001
8.244209e+002, 1.135925e+001
8.249030e+002, 1.113825e+001
8.253851e+002, 1.089955e+001
8.258672e+002, 1.081822e+001
8.263494e+002, 1.091757e+001
8.268315e+002, 1.106994e+001
8.273136e+002, 1.130929e+001
8.277957e+002, 1.148910e+001
8.282778e+002, 1.137276e+001
8.287599e+002, 1.114418e+001
8.292421e+002, 1.122899e+001
8.297242e+002, 1.164465e+001
8.302063e+002, 1.191059e+001
8.306884e+002, 1.161908e+001
8.311705e+002, 1.104477e+001
8.316526e+002, 1.091242e+001
8.321348e+002, 1.124034e+001
8.326169e+002, 1.142393e+001
8.330990e+002, 1.131766e+001
8.335811e+002, 1.133212e+001
8.340632e+002, 1.183293e+001
8.345453e+002, 1.252204e+001
8.350275e+002, 1.271606e+001
8.355096e+002, 1.218222e+001
8.359917e+002, 1.183492e+001
8.364738e+002, 1.181002e+001
8.369559e+002, 1.181689e+001
8.374380e+002, 1.173103e+001
8.379202e+002, 1.163104e+001
8.384023e+002, 1.165545e+001
8.388844e+002, 1.178816e+001
8.393665e+002, 1.181059e+001
8.398486e+002, 1.150967e+001
8.403307e+002, 1.116629e+001
8.408129e+002, 1.104021e+001
8.412950e+002, 1.108910e+001
8.417771e+002, 1.133064e+001
8.422592e+002, 1.170547e+001
8.427413e+002, 1.184601e+001
8.432234e+002, 1.149085e+001
8.437056e+002, 1.094976e+001
8.441877e+002, 1.090076e+001
8.446698e+002, 1.139526e+001
8.451519e+002, 1.173963e+001
8.456340e+002, 1.188026e+001
8.461161e+002, 1.197360e+001
8.465983e+002, 1.214529e+001
8.470804e+002, 1.224636e+001
8.475625e+002, 1.199103e+001
8.480446e+002, 1.134529e+001
8.485267e+002, 1.092241e+001
8.490089e+002, 1.080792e+001
8.494910e+002, 1.084075e+001
8.499731e+002, 1.106468e+001
8.504552e+002, 1.134847e+001
8.509373e+002, 1.164027e+001
8.514194e+002, 1.188646e+001
8.519016e+002, 1.196817e+001
8.523837e+002, 1.180742e+001
8.528658e+002, 1.156638e+001
8.533479e+002, 1.128996e+001
8.538300e+002, 1.108023e+001
8.543121e+002, 1.117860e+001
8.547943e+002, 1.153861e+001
8.552764e+002, 1.190872e+001
8.557585e+002, 1.218032e+001
8.562406e+002, 1.231182e+001
8.567227e+002, 1.221852e+001
8.572048e+002, 1.192252e+001
8.576870e+002, 1.169644e+001
8.581691e+002, 1.153183e+001
8.586512e+002, 1.148932e+001
8.591333e+002, 1.164644e+001
8.596154e+002, 1.183146e+001
8.600975e+002, 1.189328e+001
8.605797e+002, 1.185100e+001
8.610618e+002, 1.181852e+001
8.615439e+002, 1.174654e+001
8.620260e+002, 1.176574e+001
8.625081e+002, 1.196320e+001
8.629902e+002, 1.218188e+001
8.634724e+002, 1.239221e+001
8.639545e+002, 1.253518e+001
8.644366e+002, 1.250304e+001
8.649187e+002, 1.227442e+001
8.654008e+002, 1.203357e+001
8.658829e+002, 1.186222e+001
8.663651e+002, 1.177383e+001
8.668472e+002, 1.187682e+001
8.673293e+002, 1.205715e+001
8.678114e+002, 1.196182e+001
8.682935e+002, 1.156353e+001
8.687756e+002, 1.131083e+001
8.692578e+002, 1.158279e+001
8.697399e+002, 1.211205e+001
8.702220e+002, 1.217862e+001
8.707041e+002, 1.175217e+001
8.711862e+002, 1.150369e+001
8.716683e+002, 1.151069e+001
8.721505e+002, 1.162895e+001
8.726326e+002, 1.183623e+001
8.731147e+002, 1.205453e+001
8.735968e+002, 1.214264e+001
8.740789e+002, 1.206708e+001
8.745610e+002, 1.204035e+001
8.750432e+002, 1.208294e+001
8.755253e+002, 1.214484e+001
8.760074e+002, 1.226917e+001
8.764895e+002, 1.236499e+001
8.769716e+002, 1.230902e+001
8.774537e+002, 1.215121e+001
8.779359e+002, 1.209567e+001
8.784180e+002, 1.226095e+001
8.789001e+002, 1.241538e+001
8.793822e+002, 1.236226e+001
8.798643e+002, 1.226250e+001
8.803464e+002, 1.232157e+001
8.808286e+002, 1.249562e+001
8.813107e+002, 1.264566e+001
8.817928e+002, 1.271542e+001
8.822749e+002, 1.268675e+001
8.827570e+002, 1.250287e+001
8.832391e+002, 1.222142e+001
8.837213e+002, 1.198147e+001
8.842034e+002, 1.179108e+001
8.846855e+002, 1.184526e+001
8.851676e+002, 1.222152e+001
8.856497e+002, 1.263194e+001
8.861318e+002, 1.288081e+001
8.866140e+002, 1.295938e+001
8.870961e+002, 1.279824e+001
8.875782e+002, 1.216897e+001
8.880603e+002, 1.190087e+001
8.885424e+002, 1.230276e+001
8.890245e+002, 1.264655e+001
8.895067e+002, 1.253477e+001
8.899888e+002, 1.227532e+001
8.904709e+002, 1.222775e+001
8.909530e+002, 1.240541e+001
8.914351e+002, 1.257661e+001
8.919172e+002, 1.271473e+001
8.923994e+002, 1.281215e+001
8.928815e+002, 1.280453e+001
8.933636e+002, 1.280103e+001
8.938457e+002, 1.295239e+001
8.943278e+002, 1.320400e+001
8.948099e+002, 1.339310e+001
8.952921e+002, 1.345975e+001
8.957742e+002, 1.336882e+001
8.962563e+002, 1.289357e+001
8.967384e+002, 1.233890e+001
8.972205e+002, 1.232444e+001
8.977026e+002, 1.273918e+001
8.981848e+002, 1.305525e+001
8.986669e+002, 1.310940e+001
8.991490e+002, 1.308991e+001
8.996311e+002, 1.318947e+001
9.001132e+002, 1.335170e+001
9.005953e+002, 1.335327e+001
9.010775e+002, 1.318284e+001
9.015596e+002, 1.295688e+001
9.020417e+002, 1.264163e+001
9.025238e+002, 1.245306e+001
9.030059e+002, 1.260131e+001
9.034880e+002, 1.287283e+001
9.039702e+002, 1.278811e+001
9.044523e+002, 1.217727e+001
9.049344e+002, 1.189566e+001
9.054165e+002, 1.220506e+001
9.058986e+002, 1.250498e+001
9.063807e+002, 1.270441e+001
9.068629e+002, 1.280970e+001
9.073450e+002, 1.273247e+001
9.078271e+002, 1.255465e+001
9.083092e+002, 1.260683e+001
9.087913e+002, 1.315040e+001
9.092734e+002, 1.356834e+001
9.097556e+002, 1.344907e+001
9.102377e+002, 1.320533e+001
9.107198e+002, 1.307756e+001
9.112019e+002, 1.315221e+001
9.116840e+002, 1.371532e+001
9.121661e+002, 1.476365e+001
9.126483e+002, 1.546917e+001
9.131304e+002, 1.490034e+001
9.136125e+002, 1.378371e+001
9.140946e+002, 1.323247e+001
9.145767e+002, 1.314436e+001
9.150588e+002, 1.328690e+001
9.155410e+002, 1.358296e+001
9.160231e+002, 1.375111e+001
9.165052e+002, 1.359925e+001
9.169873e+002, 1.330048e+001
9.174694e+002, 1.320974e+001
9.179515e+002, 1.333821e+001
9.184337e+002, 1.334278e+001
9.189158e+002, 1.318396e+001
9.193979e+002, 1.307982e+001
9.198800e+002, 1.312256e+001
9.203621e+002, 1.321045e+001
9.208442e+002, 1.322539e+001
9.213264e+002, 1.318134e+001
9.218085e+002, 1.322820e+001
9.222906e+002, 1.348317e+001
9.227727e+002, 1.363741e+001
9.232548e+002, 1.357492e+001
9.237369e+002, 1.352518e+001
9.242191e+002, 1.359192e+001
9.247012e+002, 1.374114e+001
9.251833e+002, 1.396437e+001
9.256654e+002, 1.426959e+001
9.261475e+002, 1.440485e+001
9.266296e+002, 1.411207e+001
9.271118e+002, 1.384586e+001
9.275939e+002, 1.386106e+001
9.280760e+002, 1.400509e+001
9.285581e+002, 1.413332e+001
9.290402e+002, 1.422406e+001
9.295223e+002, 1.429358e+001
9.300045e+002, 1.434757e+001
9.304866e+002, 1.439500e+001
9.309687e+002, 1.442249e+001
9.314508e+002, 1.446197e+001
9.319329e+002, 1.459835e+001
9.324150e+002, 1.479018e+001
9.328972e+002, 1.488149e+001
9.333793e+002, 1.484072e+001
9.338614e+002, 1.482975e+001
9.343435e+002, 1.502194e+001
9.348256e+002, 1.526691e+001
9.353077e+002, 1.510244e+001
9.357899e+002, 1.457228e+001
9.362720e+002, 1.433516e+001
9.367541e+002, 1.447722e+001
9.372362e+002, 1.476420e+001
9.377183e+002, 1.512106e+001
9.382004e+002, 1.543702e+001
9.386826e+002, 1.552904e+001
9.391647e+002, 1.539093e+001
9.396468e+002, 1.531187e+001
9.401289e+002, 1.530152e+001
9.406110e+002, 1.532744e+001
9.410931e+002, 1.539084e+001
9.415753e+002, 1.548031e+001
9.420574e+002, 1.561212e+001
9.425395e+002, 1.575991e+001
9.430216e+002, 1.584544e+001
9.435037e+002, 1.582780e+001
9.439858e+002, 1.587233e+001
9.444680e+002, 1.614866e+001
9.449501e+002, 1.629904e+001
9.454322e+002, 1.604892e+001
9.459143e+002, 1.570876e+001
9.463964e+002, 1.549568e+001
9.468785e+002, 1.548465e+001
9.473607e+002, 1.586584e+001
9.478428e+002, 1.696264e+001
9.483249e+002, 1.790145e+001
9.488070e+002, 1.817447e+001
9.492891e+002, 1.810404e+001
9.497712e+002, 1.783697e+001
9.502534e+002, 1.751176e+001
9.507355e+002, 1.731388e+001
9.512176e+002, 1.729951e+001
9.516997e+002, 1.745529e+001
9.521818e+002, 1.785429e+001
9.526639e+002, 1.831040e+001
9.531461e+002, 1.854598e+001
9.536282e+002, 1.864499e+001
9.541103e+002, 1.876872e+001
9.545924e+002, 1.895259e+001
9.550745e+002, 1.926542e+001
9.555566e+002, 1.974662e+001
9.560388e+002, 2.022607e+001
9.565209e+002, 2.044583e+001
9.570030e+002, 2.046700e+001
9.574851e+002, 2.062281e+001
9.579672e+002, 2.091288e+001
9.584493e+002, 2.109466e+001
9.589315e+002, 2.109272e+001
9.594136e+002, 2.114094e+001
9.598957e+002, 2.140074e+001
9.603778e+002, 2.185565e+001
9.608599e+002, 2.252598e+001
9.613420e+002, 2.353008e+001
9.618242e+002, 2.406617e+001
9.623063e+002, 2.381310e+001
9.627884e+002, 2.390238e+001
9.632705e+002, 2.492068e+001
9.637526e+002, 2.613053e+001
9.642347e+002, 2.671331e+001
9.647169e+002, 2.679187e+001
9.651990e+002, 2.728510e+001
9.656811e+002, 2.854144e+001
9.661632e+002, 2.968187e+001
9.666453e+002, 3.059083e+001
9.671274e+002, 3.151313e+001
9.676096e+002, 3.230033e+001
9.680917e+002, 3.331255e+001
9.685738e+002, 3.511574e+001
9.690559e+002, 3.770507e+001
9.695380e+002, 4.020058e+001
9.700201e+002, 4.243002e+001
9.705023e+002, 4.450853e+001
9.709844e+002, 4.623415e+001
9.714665e+002, 4.805288e+001
9.719486e+002, 5.017028e+001
9.724307e+002, 5.273246e+001
9.729128e+002, 5.600621e+001
9.733950e+002, 6.005233e+001
9.738771e+002, 6.442942e+001
9.743592e+002, 6.901299e+001
9.748413e+002, 7.373447e+001
9.753234e+002, 7.827144e+001
9.758055e+002, 8.306788e+001
9.762877e+002, 8.890858e+001
9.767698e+002, 9.568283e+001
9.772519e+002, 1.026468e+002
9.777340e+002, 1.094506e+002
9.782161e+002, 1.164567e+002
9.786982e+002, 1.240411e+002
9.791804e+002, 1.320684e+002
9.796625e+002, 1.402619e+002
9.801446e+002, 1.485761e+002
9.806267e+002, 1.571361e+002
9.811088e+002, 1.658667e+002
9.815909e+002, 1.742112e+002
9.820731e+002, 1.817323e+002
9.825552e+002, 1.889790e+002
9.830373e+002, 1.970984e+002
9.835194e+002, 2.059493e+002
9.840015e+002, 2.145155e+002
9.844836e+002, 2.227992e+002
9.849658e+002, 2.315442e+002
9.854479e+002, 2.410744e+002
9.859300e+002, 2.503566e+002
9.864121e+002, 2.584235e+002
9.868942e+002, 2.655024e+002
9.873763e+002, 2.724457e+002
9.878585e+002, 2.794823e+002
9.883406e+002, 2.848304e+002
9.888227e+002, 2.881496e+002
9.893048e+002, 2.907932e+002
9.897869e+002, 2.937238e+002
9.902690e+002, 2.953853e+002
9.907512e+002, 2.937245e+002
9.912333e+002, 2.889601e+002
9.917154e+002, 2.838880e+002
9.921975e+002, 2.789230e+002
9.926796e+002, 2.727154e+002
9.931617e+002, 2.646369e+002
9.936439e+002, 2.560761e+002
9.941260e+002, 2.476578e+002
9.946081e+002, 2.390721e+002
9.950902e+002, 2.295725e+002
9.955723e+002, 2.191029e+002
9.960544e+002, 2.095281e+002
9.965366e+002, 2.015448e+002
9.970187e+002, 1.935000e+002
9.975008e+002, 1.846287e+002
9.979829e+002, 1.761308e+002
9.984650e+002, 1.685321e+002
9.989471e+002, 1.618313e+002
9.994293e+002, 1.563125e+002
9.999114e+002, 1.520580e+002
1.000393e+003, 1.475043e+002
1.000876e+003, 1.416582e+002
1.001358e+003, 1.361747e+002
1.001840e+003, 1.321544e+002
1.002322e+003, 1.285066e+002
1.002804e+003, 1.242810e+002
1.003286e+003, 1.195965e+002
1.003768e+003, 1.148248e+002
1.004250e+003, 1.100687e+002
1.004733e+003, 1.055908e+002
1.005215e+003, 1.018827e+002
1.005697e+003, 9.815842e+001
1.006179e+003, 9.385731e+001
1.006661e+003, 8.919432e+001
1.007143e+003, 8.432791e+001
1.007625e+003, 7.940773e+001
1.008107e+003, 7.456374e+001
1.008589e+003, 6.984783e+001
1.009072e+003, 6.551511e+001
1.009554e+003, 6.207677e+001
1.010036e+003, 5.892742e+001
1.010518e+003, 5.507698e+001
1.011000e+003, 5.104600e+001
1.011482e+003, 4.784079e+001
1.011964e+003, 4.557863e+001
1.012446e+003, 4.381929e+001
1.012929e+003, 4.232380e+001
1.013411e+003, 4.106091e+001
1.013893e+003, 4.008699e+001
1.014375e+003, 3.926583e+001
1.014857e+003, 3.826529e+001
1.015339e+003, 3.716418e+001
1.015821e+003, 3.624899e+001
1.016303e+003, 3.557989e+001
1.016785e+003, 3.502740e+001
1.017268e+003, 3.450166e+001
1.017750e+003, 3.405294e+001
1.018232e+003, 3.379303e+001
1.018714e+003, 3.367647e+001
1.019196e+003, 3.353009e+001
1.019678e+003, 3.334544e+001
1.020160e+003, 3.307763e+001
1.020642e+003, 3.271437e+001
1.021125e+003, 3.239685e+001
1.021607e+003, 3.224562e+001
1.022089e+003, 3.218040e+001
1.022571e+003, 3.197339e+001
1.023053e+003, 3.164134e+001
1.023535e+003, 3.161841e+001
1.024017e+003, 3.194070e+001
1.024499e+003, 3.198663e+001
1.024981e+003, 3.151873e+001
1.025464e+003, 3.105299e+001
1.025946e+003, 3.109847e+001
1.026428e+003, 3.143439e+001
1.026910e+003, 3.124492e+001
1.027392e+003, 3.040381e+001
1.027874e+003, 3.036086e+001
1.028356e+003, 3.136349e+001
1.028838e+003, 3.220443e+001
1.029321e+003, 3.247293e+001
1.029803e+003, 3.240906e+001
1.030285e+003, 3.219723e+001
1.030767e+003, 3.188417e+001
1.031249e+003, 3.169911e+001
1.031731e+003, 3.171189e+001
1.032213e+003, 3.156610e+001
1.032695e+003, 3.117493e+001
1.033177e+003, 3.079854e+001
1.033660e+003, 3.042387e+001
1.034142e+003, 3.029155e+001
1.034624e+003, 3.074096e+001
1.035106e+003, 3.165645e+001
1.035588e+003, 3.230785e+001
1.036070e+003, 3.269802e+001
1.036552e+003, 3.279710e+001
1.037034e+003, 3.239897e+001
1.037516e+003, 3.205680e+001
1.037999e+003, 3.190144e+001
1.038481e+003, 3.197884e+001
1.038963e+003, 3.245913e+001
1.039445e+003, 3.325980e+001
1.039927e+003, 3.373321e+001
1.040409e+003, 3.360427e+001
1.040891e+003, 3.363427e+001
1.041373e+003, 3.391133e+001
1.041855e+003, 3.423915e+001
1.042338e+003, 3.454249e+001
1.042820e+003, 3.486318e+001
1.043302e+003, 3.529848e+001
1.043784e+003, 3.581439e+001
1.044266e+003, 3.615844e+001
1.044748e+003, 3.615793e+001
1.045230e+003, 3.626250e+001
1.045712e+003, 3.648989e+001
1.046195e+003, 3.683126e+001
1.046677e+003, 3.731211e+001
1.047159e+003, 3.788634e+001
1.047641e+003, 3.851730e+001
1.048123e+003, 3.919831e+001
1.048605e+003, 3.991925e+001
1.049087e+003, 4.075778e+001
1.049569e+003, 4.149913e+001
1.050052e+003, 4.218745e+001
1.050534e+003, 4.268048e+001
1.051016e+003, 4.266859e+001
1.051498e+003, 4.259710e+001
1.051980e+003, 4.310009e+001
1.052462e+003, 4.406019e+001
1.052944e+003, 4.459604e+001
1.053426e+003, 4.425246e+001
1.053908e+003, 4.409155e+001
1.054391e+003, 4.456804e+001
1.054873e+003, 4.503165e+001
1.055355e+003, 4.513330e+001
1.055837e+003, 4.505974e+001
1.056319e+003, 4.498756e+001
1.056801e+003, 4.495390e+001
1.057283e+003, 4.502112e+001
1.057765e+003, 4.526649e+001
1.058248e+003, 4.546363e+001
1.058730e+003, 4.551154e+001
1.059212e+003, 4.553504e+001
1.059694e+003, 4.565027e+001
1.060176e+003, 4.574691e+001
1.060658e+003, 4.575130e+001
1.061140e+003, 4.561997e+001
1.061622e+003, 4.522142e+001
1.062104e+003, 4.442498e+001
1.062587e+003, 4.363647e+001
1.063069e+003, 4.286413e+001
1.063551e+003, 4.230131e+001
1.064033e+003, 4.236876e+001
1.064515e+003, 4.249171e+001
1.064997e+003, 4.187545e+001
1.065479e+003, 4.068282e+001
1.065961e+003, 3.976916e+001
1.066443e+003, 3.943756e+001
1.066926e+003, 3.919702e+001
1.067408e+003, 3.890054e+001
1.067890e+003, 3.857705e+001
1.068372e+003, 3.825124e+001
1.068854e+003, 3.790051e+001
1.069336e+003, 3.746559e+001
1.069818e+003, 3.698232e+001
1.070300e+003, 3.655006e+001
1.070782e+003, 3.617902e+001
1.071265e+003, 3.594274e+001
1.071747e+003, 3.609805e+001
1.072229e+003, 3.613534e+001
1.072711e+003, 3.559810e+001
1.073193e+003, 3.489394e+001
1.073675e+003, 3.448477e+001
1.074157e+003, 3.431945e+001
1.074639e+003, 3.408831e+001
1.075122e+003, 3.368516e+001
1.075604e+003, 3.337213e+001
1.076086e+003, 3.322655e+001
1.076568e+003, 3.325584e+001
1.077050e+003, 3.367343e+001
1.077532e+003, 3.410171e+001
1.078014e+003, 3.411138e+001
1.078496e+003, 3.380537e+001
1.078979e+003, 3.349911e+001
1.079461e+003, 3.326746e+001
1.079943e+003, 3.315644e+001
1.080425e+003, 3.328904e+001
1.080907e+003, 3.342525e+001
1.081389e+003, 3.347509e+001
1.081871e+003, 3.343002e+001
1.082353e+003, 3.323868e+001
1.082835e+003, 3.296183e+001
1.083318e+003, 3.270224e+001
1.083800e+003, 3.248500e+001
1.084282e+003, 3.234932e+001
1.084764e+003, 3.229289e+001
1.085246e+003, 3.234762e+001
1.085728e+003, 3.256460e+001
1.086210e+003, 3.286720e+001
1.086692e+003, 3.328451e+001
1.087175e+003, 3.369869e+001
1.087657e+003, 3.386676e+001
1.088139e+003, 3.376854e+001
1.088621e+003, 3.375833e+001
1.089103e+003, 3.406973e+001
1.089585e+003, 3.436631e+001
1.090067e+003, 3.454496e+001
1.090549e+003, 3.461189e+001
1.091031e+003, 3.449041e+001
1.091514e+003, 3.430261e+001
1.091996e+003, 3.421765e+001
1.092478e+003, 3.425559e+001
1.092960e+003, 3.434687e+001
1.093442e+003, 3.449264e+001
1.093924e+003, 3.464239e+001
1.094406e+003, 3.472721e+001
1.094888e+003, 3.486598e+001
1.095370e+003, 3.520265e+001
1.095853e+003, 3.559699e+001
1.096335e+003, 3.589375e+001
1.096817e+003, 3.607424e+001
1.097299e+003, 3.613327e+001
1.097781e+003, 3.595290e+001
1.098263e+003, 3.595387e+001
1.098745e+003, 3.647301e+001
1.099227e+003, 3.696725e+001
1.099709e+003, 3.714123e+001
1.100192e+003, 3.715344e+001
1.100674e+003, 3.706821e+001
1.101156e+003, 3.698618e+001
1.101638e+003, 3.720854e+001
1.102120e+003, 3.791809e+001
1.102602e+003, 3.844842e+001
1.103084e+003, 3.861005e+001
1.103566e+003, 3.859968e+001
1.104049e+003, 3.825166e+001
1.104531e+003, 3.798090e+001
1.105013e+003, 3.824377e+001
1.105495e+003, 3.883284e+001
1.105977e+003, 3.922380e+001
1.106459e+003, 3.933134e+001
1.106941e+003, 3.940395e+001
1.107423e+003, 3.954003e+001
1.107906e+003, 3.956591e+001
1.108388e+003, 3.932456e+001
1.108870e+003, 3.907269e+001
1.109352e+003, 3.894172e+001
1.109834e+003, 3.893197e+001
1.110316e+003, 3.905613e+001
1.110798e+003, 3.932152e+001
1.111280e+003, 3.957244e+001
1.111762e+003, 3.977660e+001
1.112245e+003, 3.999815e+001
1.112727e+003, 4.028891e+001
1.113209e+003, 4.055021e+001
1.113691e+003, 4.080110e+001
1.114173e+003, 4.095290e+001
1.114655e+003, 4.082449e+001
1.115137e+003, 4.044632e+001
1.115619e+003, 4.023107e+001
1.116102e+003, 4.022509e+001
1.116584e+003, 4.030474e+001
1.117066e+003, 4.055580e+001
1.117548e+003, 4.075653e+001
1.118030e+003, 4.071644e+001
1.118512e+003, 4.072585e+001
1.118994e+003, 4.118082e+001
1.119476e+003, 4.190040e+001
1.119958e+003, 4.211524e+001
1.120441e+003, 4.155090e+001
1.120923e+003, 4.135685e+001
1.121405e+003, 4.159896e+001
1.121887e+003, 4.210986e+001
1.122369e+003, 4.307990e+001
1.122851e+003, 4.387130e+001
1.123333e+003, 4.396000e+001
1.123815e+003, 4.358969e+001
1.124297e+003, 4.324105e+001
1.124780e+003, 4.287982e+001
1.125262e+003, 4.304786e+001
1.125744e+003, 4.395621e+001
1.126226e+003, 4.457883e+001
1.126708e+003, 4.465014e+001
1.127190e+003, 4.472921e+001
1.127672e+003, 4.513942e+001
1.128154e+003, 4.567619e+001
1.128636e+003, 4.601350e+001
1.129119e+003, 4.620433e+001
1.129601e+003, 4.678659e+001
1.130083e+003, 4.784393e+001
1.130565e+003, 4.833223e+001
1.131047e+003, 4.808577e+001
1.131529e+003, 4.781426e+001
1.132011e+003, 4.779008e+001
1.132493e+003, 4.792226e+001
1.132976e+003, 4.812502e+001
1.133458e+003, 4.840313e+001
1.133940e+003, 4.878364e+001
1.134422e+003, 4.926059e+001
1.134904e+003, 4.976804e+001
1.135386e+003, 5.029873e+001
1.135868e+003, 5.079816e+001
1.136350e+003, 5.125059e+001
1.136833e+003, 5.161246e+001
1.137315e+003, 5.184332e+001
1.137797e+003, 5.204309e+001
1.138279e+003, 5.245823e+001
1.138761e+003, 5.296594e+001
1.139243e+003, 5.296141e+001
1.139725e+003, 5.264410e+001
1.140207e+003, 5.295027e+001
1.140689e+003, 5.394856e+001
1.141172e+003, 5.499725e+001
1.141654e+003, 5.579112e+001
1.142136e+003, 5.641166e+001
1.142618e+003, 5.687819e+001
1.143100e+003, 5.729607e+001
1.143582e+003, 5.787437e+001
1.144064e+003, 5.852464e+001
1.144546e+003, 5.911951e+001
1.145029e+003, 5.960683e+001
1.145511e+003, 5.978612e+001
1.145993e+003, 5.967051e+001
1.146475e+003, 5.980184e+001
1.146957e+003, 6.063245e+001
1.147439e+003, 6.163782e+001
1.147921e+003, 6.242530e+001
1.148403e+003, 6.299282e+001
1.148885e+003, 6.309272e+001
1.149368e+003, 6.308118e+001
1.149850e+003, 6.354463e+001
1.150332e+003, 6.452927e+001
1.150814e+003, 6.587546e+001
1.151296e+003, 6.764285e+001
1.151778e+003, 6.894947e+001
1.152260e+003, 6.877336e+001
1.152742e+003, 6.851791e+001
1.153224e+003, 6.926192e+001
1.153707e+003, 7.032657e+001
1.154189e+003, 7.088809e+001
1.154671e+003, 7.116322e+001
1.155153e+003, 7.187749e+001
1.155635e+003, 7.318597e+001
1.156117e+003, 7.427502e+001
1.156599e+003, 7.449264e+001
1.157081e+003, 7.501891e+001
1.157563e+003, 7.668379e+001
1.158046e+003, 7.826060e+001
1.158528e+003, 7.879854e+001
1.159010e+003, 7.890775e+001
1.159492e+003, 7.934201e+001
1.159974e+003, 8.014171e+001
1.160456e+003, 8.122671e+001
1.160938e+003, 8.283247e+001
1.161420e+003, 8.425574e+001
1.161903e+003, 8.534481e+001
1.162385e+003, 8.641709e+001
1.162867e+003, 8.745879e+001
1.163349e+003, 8.864014e+001
1.163831e+003, 9.023623e+001
1.164313e+003, 9.198653e+001
1.164795e+003, 9.316434e+001
1.165277e+003, 9.363891e+001
1.165760e+003, 9.471841e+001
1.166242e+003, 9.662416e+001
1.166724e+003, 9.844890e+001
1.167206e+003, 1.000751e+002
1.167688e+003, 1.014982e+002
1.168170e+003, 1.026659e+002
1.168652e+003, 1.037498e+002
1.169134e+003, 1.049728e+002
1.169616e+003, 1.062905e+002
1.170099e+003, 1.074149e+002
1.170581e+003, 1.083418e+002
1.171063e+003, 1.096965e+002
1.171545e+003, 1.115251e+002
1.172027e+003, 1.132797e+002
1.172509e+003, 1.148055e+002
1.172991e+003, 1.163337e+002
1.173473e+003, 1.180434e+002
1.173956e+003, 1.198676e+002
1.174438e+003, 1.217758e+002
1.174920e+003, 1.236837e+002
1.175402e+003, 1.252651e+002
1.175884e+003, 1.265800e+002
1.176366e+003, 1.276596e+002
1.176848e+003, 1.286693e+002
1.177330e+003, 1.304070e+002
1.177813e+003, 1.331799e+002
1.178295e+003, 1.359158e+002
1.178777e+003, 1.375728e+002
1.179259e+003, 1.388744e+002
1.179741e+003, 1.407780e+002
1.180223e+003, 1.428594e+002
1.180705e+003, 1.443144e+002
1.181187e+003, 1.455069e+002
1.181669e+003, 1.473238e+002
1.182151e+003, 1.498263e+002
1.182634e+003, 1.523657e+002
1.183116e+003, 1.547172e+002
1.183598e+003, 1.567584e+002
1.184080e+003, 1.582026e+002
1.184562e+003, 1.595451e+002
1.185044e+003, 1.611621e+002
1.185526e+003, 1.628062e+002
1.186008e+003, 1.641167e+002
1.186490e+003, 1.652624e+002
1.186973e+003, 1.667907e+002
1.187455e+003, 1.688268e+002
1.187937e+003, 1.704360e+002
1.188419e+003, 1.710058e+002
1.188901e+003, 1.717856e+002
1.189383e+003, 1.730771e+002
1.189865e+003, 1.745688e+002
1.190347e+003, 1.763666e+002
1.190830e+003, 1.780617e+002
1.191312e+003, 1.789316e+002
1.191794e+003, 1.793021e+002
1.192276e+003, 1.809338e+002
1.192758e+003, 1.846916e+002
1.193240e+003, 1.866667e+002
1.193722e+003, 1.861843e+002
1.194204e+003, 1.859503e+002
1.194687e+003, 1.867097e+002
1.195169e+003, 1.874070e+002
1.195651e+003, 1.873349e+002
1.196133e+003, 1.869281e+002
1.196615e+003, 1.868372e+002
1.197097e+003, 1.870573e+002
1.197579e+003, 1.876187e+002
1.198061e+003, 1.885056e+002
1.198543e+003, 1.894482e+002
1.199026e+003, 1.903879e+002
1.199508e+003, 1.908379e+002
1.199990e+003, 1.906431e+002
1.200472e+003, 1.900770e+002
1.200954e+003, 1.892892e+002
1.201436e+003, 1.885831e+002
1.201918e+003, 1.885414e+002
1.202400e+003, 1.888375e+002
1.202883e+003, 1.888306e+002
1.203365e+003, 1.886144e+002
1.203847e+003, 1.883991e+002
1.204329e+003, 1.882457e+002
1.204811e+003, 1.883886e+002
1.205293e+003, 1.888710e+002
1.205775e+003, 1.886455e+002
1.206257e+003, 1.863701e+002
1.206740e+003, 1.840042e+002
1.207222e+003, 1.830573e+002
1.207704e+003, 1.825742e+002
1.208186e+003, 1.817570e+002
1.208668e+003, 1.807789e+002
1.209150e+003, 1.799620e+002
1.209632e+003, 1.793324e+002
1.210114e+003, 1.787704e+002
1.210596e+003, 1.782285e+002
1.211078e+003, 1.778322e+002
1.211561e+003, 1.779799e+002
1.212043e+003, 1.777534e+002
1.212525e+003, 1.764838e+002
1.213007e+003, 1.751760e+002
1.213489e+003, 1.746088e+002
1.213971e+003, 1.742945e+002
1.214453e+003, 1.734377e+002
1.214935e+003, 1.720789e+002
1.215417e+003, 1.710505e+002
1.215900e+003, 1.706106e+002
1.216382e+003, 1.693602e+002
1.216864e+003, 1.668807e+002
1.217346e+003, 1.652262e+002
1.217828e+003, 1.651553e+002
1.218310e+003, 1.654831e+002
1.218792e+003, 1.653504e+002
1.219274e+003, 1.648753e+002
1.219757e+003, 1.641637e+002
1.220239e+003, 1.633242e+002
1.220721e+003, 1.629506e+002
1.221203e+003, 1.629296e+002
1.221685e+003, 1.627059e+002
1.222167e+003, 1.622301e+002
1.222649e+003, 1.616305e+002
1.223131e+003, 1.609730e+002
1.223614e+003, 1.604192e+002
1.224096e+003, 1.600825e+002
1.224578e+003, 1.599248e+002
1.225060e+003, 1.600266e+002
1.225542e+003, 1.601737e+002
1.226024e+003, 1.601668e+002
1.226506e+003, 1.599895e+002
1.226988e+003, 1.594912e+002
1.227470e+003, 1.588411e+002
1.227953e+003, 1.585130e+002
1.228435e+003, 1.586456e+002
1.228917e+003, 1.589079e+002
1.229399e+003, 1.592125e+002
1.229881e+003, 1.595673e+002
1.230363e+003, 1.601245e+002
1.230845e+003, 1.605650e+002
1.231327e+003, 1.604687e+002
1.231810e+003, 1.603261e+002
1.232292e+003, 1.607996e+002
1.232774e+003, 1.617346e+002
1.233256e+003, 1.625171e+002
1.233738e+003, 1.631528e+002
1.234220e+003, 1.635871e+002
1.234702e+003, 1.637294e+002
1.235184e+003, 1.639494e+002
1.235667e+003, 1.643022e+002
1.236149e+003, 1.648162e+002
1.236631e+003, 1.655494e+002
1.237113e+003, 1.662390e+002
1.237595e+003, 1.665467e+002
1.238077e+003, 1.666130e+002
1.238559e+003, 1.669771e+002
1.239041e+003, 1.674945e+002
1.239523e+003, 1.673173e+002
1.240005e+003, 1.665563e+002
1.240488e+003, 1.658272e+002
1.240970e+003, 1.653181e+002
1.241452e+003, 1.652764e+002
1.241934e+003, 1.658298e+002
1.242416e+003, 1.662760e+002
1.242898e+003, 1.657712e+002
1.243380e+003, 1.650739e+002
1.243862e+003, 1.651423e+002
1.244344e+003, 1.652618e+002
1.244827e+003, 1.643448e+002
1.245309e+003, 1.630248e+002
1.245791e+003, 1.625736e+002
1.246273e+003, 1.629467e+002
1.246755e+003, 1.630058e+002
1.247237e+003, 1.624666e+002
1.247719e+003, 1.615869e+002
1.248201e+003, 1.600114e+002
1.248684e+003, 1.586802e+002
1.249166e+003, 1.581774e+002
1.249648e+003, 1.576357e+002
1.250130e+003, 1.564131e+002
1.250612e+003, 1.550500e+002
1.251094e+003, 1.543569e+002
1.251576e+003, 1.541679e+002
1.252058e+003, 1.533588e+002
1.252541e+003, 1.518145e+002
1.253023e+003, 1.505362e+002
1.253505e+003, 1.495823e+002
1.253987e+003, 1.483386e+002
1.254469e+003, 1.466473e+002
1.254951e+003, 1.452589e+002
1.255433e+003, 1.446266e+002
1.255915e+003, 1.441068e+002
1.256397e+003, 1.428980e+002
1.256880e+003, 1.412980e+002
1.257362e+003, 1.398322e+002
1.257844e+003, 1.384538e+002
1.258326e+003, 1.370392e+002
1.258808e+003, 1.356502e+002
1.259290e+003, 1.344974e+002
1.259772e+003, 1.335464e+002
1.260254e+003, 1.324561e+002
1.260737e+003, 1.310778e+002
1.261219e+003, 1.296714e+002
1.261701e+003, 1.281537e+002
1.262183e+003, 1.269399e+002
1.262665e+003, 1.264252e+002
1.263147e+003, 1.260756e+002
1.263629e+003, 1.255629e+002
1.264111e+003, 1.249335e+002
1.264594e+003, 1.244866e+002
1.265076e+003, 1.240502e+002
1.265558e+003, 1.225296e+002
1.266040e+003, 1.192904e+002
1.266522e+003, 1.173389e+002
1.267004e+003, 1.170575e+002
1.267486e+003, 1.167071e+002
1.267968e+003, 1.159445e+002
1.268450e+003, 1.151465e+002
1.268932e+003, 1.145037e+002
1.269415e+003, 1.139240e+002
1.269897e+003, 1.133225e+002
1.270379e+003, 1.126444e+002
1.270861e+003, 1.116762e+002
1.271343e+003, 1.105426e+002
1.271825e+003, 1.095960e+002
1.272307e+003, 1.088290e+002
1.272789e+003, 1.082033e+002
1.273271e+003, 1.076845e+002
1.273754e+003, 1.071978e+002
1.274236e+003, 1.067109e+002
1.274718e+003, 1.062566e+002
1.275200e+003, 1.058757e+002
1.275682e+003, 1.055112e+002
1.276164e+003, 1.052774e+002
1.276646e+003, 1.048824e+002
1.277128e+003, 1.039081e+002
1.277611e+003, 1.028208e+002
1.278093e+003, 1.021482e+002
1.278575e+003, 1.018317e+002
1.279057e+003, 1.016117e+002
1.279539e+003, 1.014876e+002
1.280021e+003, 1.014042e+002
1.280503e+003, 1.013609e+002
1.280985e+003, 1.013268e+002
1.281468e+003, 1.013891e+002
1.281950e+003, 1.011984e+002
1.282432e+003, 1.005742e+002
1.282914e+003, 9.991617e+001
1.283396e+003, 9.953490e+001
1.283878e+003, 9.942091e+001
1.284360e+003, 9.969105e+001
1.284842e+003, 1.001104e+002
1.285324e+003, 1.000346e+002
##END=



