##NAMES=Liottite
##RRUFFID=R120045
##IDEAL CHEMISTRY=Na_16_Ca_8_Si_18_Al_18_O_72_(S^6+^O_4_)_5_Cl_4_
##LOCALITY=Case Collina (Toscopomici quarry), Pitigliano, Grosseto Province, Tuscany, Italy
##OWNER=RRUFF
##SOURCE=R. Van Dommelen
##DESCRIPTION=Pseudhexagonal colorless crystals, associated with grossular
##STATUS=The identification of this mineral has been confirmed only by single crystal X-ray diffraction.
##URL=rruff.info/R120045
9.001007e+001, 0.000000e+000
9.049219e+001, 1.381259e+001
9.097430e+001, 1.386414e+001
9.145642e+001, 1.385085e+001
9.193854e+001, 1.377833e+001
9.242065e+001, 1.369319e+001
9.290277e+001, 1.365501e+001
9.338489e+001, 1.363411e+001
9.386700e+001, 1.356118e+001
9.434912e+001, 1.341110e+001
9.483124e+001, 1.319491e+001
9.531335e+001, 1.288493e+001
9.579547e+001, 1.245939e+001
9.627759e+001, 1.209152e+001
9.675970e+001, 1.204002e+001
9.724182e+001, 1.228205e+001
9.772394e+001, 1.249396e+001
9.820605e+001, 1.252671e+001
9.868817e+001, 1.239298e+001
9.917029e+001, 1.224786e+001
9.965240e+001, 1.208782e+001
1.001345e+002, 1.192385e+001
1.006166e+002, 1.177913e+001
1.010988e+002, 1.165391e+001
1.015809e+002, 1.154098e+001
1.020630e+002, 1.144111e+001
1.025451e+002, 1.135811e+001
1.030272e+002, 1.126769e+001
1.035093e+002, 1.117733e+001
1.039915e+002, 1.107757e+001
1.044736e+002, 1.091023e+001
1.049557e+002, 1.062276e+001
1.054378e+002, 1.034565e+001
1.059199e+002, 1.017825e+001
1.064020e+002, 1.019972e+001
1.068842e+002, 1.017753e+001
1.073663e+002, 1.003642e+001
1.078484e+002, 9.773839e+000
1.083305e+002, 9.678475e+000
1.088126e+002, 9.921128e+000
1.092947e+002, 1.023496e+001
1.097769e+002, 1.037481e+001
1.102590e+002, 1.016836e+001
1.107411e+002, 9.962016e+000
1.112232e+002, 9.820389e+000
1.117053e+002, 9.763478e+000
1.121874e+002, 9.687672e+000
1.126696e+002, 9.570528e+000
1.131517e+002, 9.435517e+000
1.136338e+002, 9.313063e+000
1.141159e+002, 9.224723e+000
1.145980e+002, 9.136163e+000
1.150801e+002, 9.022653e+000
1.155623e+002, 8.847819e+000
1.160444e+002, 8.732586e+000
1.165265e+002, 8.795156e+000
1.170086e+002, 8.941849e+000
1.174907e+002, 8.976459e+000
1.179728e+002, 8.695865e+000
1.184550e+002, 8.363800e+000
1.189371e+002, 8.145028e+000
1.194192e+002, 8.094274e+000
1.199013e+002, 8.130717e+000
1.203834e+002, 8.282742e+000
1.208655e+002, 8.512899e+000
1.213477e+002, 8.675264e+000
1.218298e+002, 8.673771e+000
1.223119e+002, 8.566947e+000
1.227940e+002, 8.408615e+000
1.232761e+002, 8.128811e+000
1.237582e+002, 7.880878e+000
1.242404e+002, 7.841990e+000
1.247225e+002, 7.995734e+000
1.252046e+002, 8.139880e+000
1.256867e+002, 8.114941e+000
1.261688e+002, 7.971782e+000
1.266509e+002, 7.801957e+000
1.271331e+002, 7.588924e+000
1.276152e+002, 7.387568e+000
1.280973e+002, 7.284360e+000
1.285794e+002, 7.282463e+000
1.290615e+002, 7.340396e+000
1.295436e+002, 7.474359e+000
1.300258e+002, 7.654404e+000
1.305079e+002, 7.747768e+000
1.309900e+002, 7.654517e+000
1.314721e+002, 7.424998e+000
1.319542e+002, 7.178728e+000
1.324363e+002, 6.894018e+000
1.329185e+002, 6.674086e+000
1.334006e+002, 6.756175e+000
1.338827e+002, 7.140182e+000
1.343648e+002, 7.448863e+000
1.348469e+002, 7.409095e+000
1.353290e+002, 7.052367e+000
1.358112e+002, 6.850535e+000
1.362933e+002, 6.872698e+000
1.367754e+002, 7.025423e+000
1.372575e+002, 7.093794e+000
1.377396e+002, 7.060961e+000
1.382217e+002, 7.020918e+000
1.387039e+002, 7.078023e+000
1.391860e+002, 7.271050e+000
1.396681e+002, 7.248534e+000
1.401502e+002, 6.851207e+000
1.406323e+002, 6.228460e+000
1.411144e+002, 6.095445e+000
1.415966e+002, 6.685696e+000
1.420787e+002, 7.320158e+000
1.425608e+002, 7.436798e+000
1.430429e+002, 6.824131e+000
1.435250e+002, 6.287466e+000
1.440071e+002, 5.924950e+000
1.444893e+002, 5.738139e+000
1.449714e+002, 5.723669e+000
1.454535e+002, 6.018482e+000
1.459356e+002, 6.352481e+000
1.464177e+002, 6.450544e+000
1.468998e+002, 6.109752e+000
1.473820e+002, 5.855692e+000
1.478641e+002, 5.798043e+000
1.483462e+002, 5.964951e+000
1.488283e+002, 6.138855e+000
1.493104e+002, 6.363319e+000
1.497925e+002, 6.575251e+000
1.502747e+002, 6.702981e+000
1.507568e+002, 6.630181e+000
1.512389e+002, 6.590135e+000
1.517210e+002, 6.659698e+000
1.522031e+002, 6.909350e+000
1.526852e+002, 7.043412e+000
1.531674e+002, 6.973703e+000
1.536495e+002, 6.805063e+000
1.541316e+002, 6.689250e+000
1.546137e+002, 6.627779e+000
1.550958e+002, 6.629037e+000
1.555779e+002, 6.708788e+000
1.560601e+002, 6.911433e+000
1.565422e+002, 7.089742e+000
1.570243e+002, 7.181979e+000
1.575064e+002, 7.236982e+000
1.579885e+002, 7.349306e+000
1.584706e+002, 7.549456e+000
1.589528e+002, 7.804029e+000
1.594349e+002, 8.095192e+000
1.599170e+002, 8.404214e+000
1.603991e+002, 8.778218e+000
1.608812e+002, 9.173713e+000
1.613633e+002, 9.636324e+000
1.618455e+002, 1.028581e+001
1.623276e+002, 1.128233e+001
1.628097e+002, 1.240160e+001
1.632918e+002, 1.352606e+001
1.637739e+002, 1.462373e+001
1.642560e+002, 1.571570e+001
1.647382e+002, 1.669891e+001
1.652203e+002, 1.764641e+001
1.657024e+002, 1.883767e+001
1.661845e+002, 2.053421e+001
1.666666e+002, 2.248477e+001
1.671487e+002, 2.444586e+001
1.676309e+002, 2.635500e+001
1.681130e+002, 2.828194e+001
1.685951e+002, 3.024567e+001
1.690772e+002, 3.225185e+001
1.695593e+002, 3.428496e+001
1.700414e+002, 3.634349e+001
1.705236e+002, 3.843047e+001
1.710057e+002, 4.052655e+001
1.714878e+002, 4.279945e+001
1.719699e+002, 4.497570e+001
1.724520e+002, 4.669079e+001
1.729341e+002, 4.798854e+001
1.734163e+002, 4.932409e+001
1.738984e+002, 5.107229e+001
1.743805e+002, 5.308949e+001
1.748626e+002, 5.507921e+001
1.753447e+002, 5.697561e+001
1.758268e+002, 5.880429e+001
1.763090e+002, 6.056255e+001
1.767911e+002, 6.223429e+001
1.772732e+002, 6.394470e+001
1.777553e+002, 6.556589e+001
1.782374e+002, 6.699795e+001
1.787195e+002, 6.832175e+001
1.792017e+002, 6.947419e+001
1.796838e+002, 7.059888e+001
1.801659e+002, 7.189746e+001
1.806480e+002, 7.338828e+001
1.811301e+002, 7.496446e+001
1.816122e+002, 7.657177e+001
1.820944e+002, 7.821091e+001
1.825765e+002, 7.984163e+001
1.830586e+002, 8.144415e+001
1.835407e+002, 8.303012e+001
1.840228e+002, 8.473000e+001
1.845049e+002, 8.654890e+001
1.849871e+002, 8.837943e+001
1.854692e+002, 9.002042e+001
1.859513e+002, 9.152211e+001
1.864334e+002, 9.306516e+001
1.869155e+002, 9.485653e+001
1.873976e+002, 9.677831e+001
1.878798e+002, 9.843144e+001
1.883619e+002, 9.976075e+001
1.888440e+002, 1.009669e+002
1.893261e+002, 1.023476e+002
1.898082e+002, 1.038926e+002
1.902903e+002, 1.053037e+002
1.907725e+002, 1.062900e+002
1.912546e+002, 1.069679e+002
1.917367e+002, 1.079477e+002
1.922188e+002, 1.092953e+002
1.927009e+002, 1.108499e+002
1.931830e+002, 1.124288e+002
1.936652e+002, 1.140298e+002
1.941473e+002, 1.154165e+002
1.946294e+002, 1.163309e+002
1.951115e+002, 1.168187e+002
1.955936e+002, 1.175015e+002
1.960757e+002, 1.184857e+002
1.965579e+002, 1.195551e+002
1.970400e+002, 1.202507e+002
1.975221e+002, 1.205418e+002
1.980042e+002, 1.208019e+002
1.984863e+002, 1.212657e+002
1.989684e+002, 1.219345e+002
1.994506e+002, 1.225363e+002
1.999327e+002, 1.230395e+002
2.004148e+002, 1.234779e+002
2.008969e+002, 1.239425e+002
2.013790e+002, 1.244624e+002
2.018611e+002, 1.248854e+002
2.023433e+002, 1.250757e+002
2.028254e+002, 1.250073e+002
2.033075e+002, 1.250357e+002
2.037896e+002, 1.252061e+002
2.042717e+002, 1.254688e+002
2.047538e+002, 1.256990e+002
2.052360e+002, 1.258873e+002
2.057181e+002, 1.260689e+002
2.062002e+002, 1.262607e+002
2.066823e+002, 1.264606e+002
2.071644e+002, 1.266471e+002
2.076465e+002, 1.267533e+002
2.081287e+002, 1.268756e+002
2.086108e+002, 1.273702e+002
2.090929e+002, 1.283581e+002
2.095750e+002, 1.293817e+002
2.100571e+002, 1.301537e+002
2.105392e+002, 1.306426e+002
2.110214e+002, 1.310528e+002
2.115035e+002, 1.313940e+002
2.119856e+002, 1.316728e+002
2.124677e+002, 1.319347e+002
2.129498e+002, 1.322214e+002
2.134319e+002, 1.324093e+002
2.139140e+002, 1.323980e+002
2.143962e+002, 1.321220e+002
2.148783e+002, 1.318699e+002
2.153604e+002, 1.315878e+002
2.158425e+002, 1.313590e+002
2.163246e+002, 1.316260e+002
2.168067e+002, 1.326948e+002
2.172889e+002, 1.336729e+002
2.177710e+002, 1.339594e+002
2.182531e+002, 1.332851e+002
2.187352e+002, 1.327155e+002
2.192173e+002, 1.323703e+002
2.196994e+002, 1.321895e+002
2.201816e+002, 1.318492e+002
2.206637e+002, 1.311013e+002
2.211458e+002, 1.306001e+002
2.216279e+002, 1.308869e+002
2.221100e+002, 1.324631e+002
2.225921e+002, 1.334772e+002
2.230743e+002, 1.336122e+002
2.235564e+002, 1.330681e+002
2.240385e+002, 1.327607e+002
2.245206e+002, 1.326989e+002
2.250027e+002, 1.328688e+002
2.254848e+002, 1.333796e+002
2.259670e+002, 1.346375e+002
2.264491e+002, 1.352055e+002
2.269312e+002, 1.346602e+002
2.274133e+002, 1.333161e+002
2.278954e+002, 1.327049e+002
2.283775e+002, 1.331723e+002
2.288597e+002, 1.338828e+002
2.293418e+002, 1.343207e+002
2.298239e+002, 1.343163e+002
2.303060e+002, 1.344406e+002
2.307881e+002, 1.348175e+002
2.312702e+002, 1.353624e+002
2.317524e+002, 1.356345e+002
2.322345e+002, 1.354361e+002
2.327166e+002, 1.352333e+002
2.331987e+002, 1.353385e+002
2.336808e+002, 1.360124e+002
2.341629e+002, 1.363975e+002
2.346451e+002, 1.363397e+002
2.351272e+002, 1.359440e+002
2.356093e+002, 1.356596e+002
2.360914e+002, 1.354527e+002
2.365735e+002, 1.354019e+002
2.370556e+002, 1.356013e+002
2.375378e+002, 1.363030e+002
2.380199e+002, 1.366999e+002
2.385020e+002, 1.366516e+002
2.389841e+002, 1.362698e+002
2.394662e+002, 1.359888e+002
2.399483e+002, 1.358009e+002
2.404305e+002, 1.357312e+002
2.409126e+002, 1.358284e+002
2.413947e+002, 1.362681e+002
2.418768e+002, 1.364852e+002
2.423589e+002, 1.363646e+002
2.428410e+002, 1.360123e+002
2.433232e+002, 1.358086e+002
2.438053e+002, 1.358624e+002
2.442874e+002, 1.359147e+002
2.447695e+002, 1.357593e+002
2.452516e+002, 1.350016e+002
2.457337e+002, 1.349579e+002
2.462159e+002, 1.360637e+002
2.466980e+002, 1.378573e+002
2.471801e+002, 1.388315e+002
2.476622e+002, 1.387224e+002
2.481443e+002, 1.382045e+002
2.486264e+002, 1.375019e+002
2.491086e+002, 1.362901e+002
2.495907e+002, 1.356886e+002
2.500728e+002, 1.359495e+002
2.505549e+002, 1.367654e+002
2.510370e+002, 1.373308e+002
2.515191e+002, 1.376016e+002
2.520013e+002, 1.376988e+002
2.524834e+002, 1.376562e+002
2.529655e+002, 1.374109e+002
2.534476e+002, 1.371856e+002
2.539297e+002, 1.369226e+002
2.544118e+002, 1.367079e+002
2.548940e+002, 1.367531e+002
2.553761e+002, 1.371827e+002
2.558582e+002, 1.376536e+002
2.563403e+002, 1.380698e+002
2.568224e+002, 1.385203e+002
2.573046e+002, 1.385675e+002
2.577867e+002, 1.379818e+002
2.582688e+002, 1.371346e+002
2.587509e+002, 1.367873e+002
2.592330e+002, 1.371556e+002
2.597151e+002, 1.375843e+002
2.601973e+002, 1.378402e+002
2.606794e+002, 1.378980e+002
2.611615e+002, 1.378469e+002
2.616436e+002, 1.375804e+002
2.621257e+002, 1.372986e+002
2.626078e+002, 1.374001e+002
2.630900e+002, 1.380863e+002
2.635721e+002, 1.386797e+002
2.640542e+002, 1.389245e+002
2.645363e+002, 1.387724e+002
2.650184e+002, 1.386164e+002
2.655005e+002, 1.384268e+002
2.659827e+002, 1.382696e+002
2.664648e+002, 1.382710e+002
2.669469e+002, 1.385160e+002
2.674290e+002, 1.386736e+002
2.679111e+002, 1.386188e+002
2.683932e+002, 1.383354e+002
2.688754e+002, 1.380626e+002
2.693575e+002, 1.377481e+002
2.698396e+002, 1.375180e+002
2.703217e+002, 1.376248e+002
2.708038e+002, 1.382122e+002
2.712859e+002, 1.385473e+002
2.717681e+002, 1.382865e+002
2.722502e+002, 1.374632e+002
2.727323e+002, 1.371605e+002
2.732144e+002, 1.375130e+002
2.736965e+002, 1.381216e+002
2.741786e+002, 1.386088e+002
2.746608e+002, 1.389871e+002
2.751429e+002, 1.391852e+002
2.756250e+002, 1.391114e+002
2.761071e+002, 1.388225e+002
2.765892e+002, 1.387849e+002
2.770714e+002, 1.390699e+002
2.775535e+002, 1.394053e+002
2.780356e+002, 1.395042e+002
2.785177e+002, 1.393365e+002
2.789998e+002, 1.392608e+002
2.794819e+002, 1.394312e+002
2.799641e+002, 1.397329e+002
2.804462e+002, 1.395535e+002
2.809283e+002, 1.387702e+002
2.814104e+002, 1.380282e+002
2.818925e+002, 1.379580e+002
2.823746e+002, 1.385719e+002
2.828568e+002, 1.389869e+002
2.833389e+002, 1.390259e+002
2.838210e+002, 1.388073e+002
2.843031e+002, 1.386192e+002
2.847852e+002, 1.384590e+002
2.852673e+002, 1.383784e+002
2.857495e+002, 1.384725e+002
2.862316e+002, 1.387240e+002
2.867137e+002, 1.388771e+002
2.871958e+002, 1.389025e+002
2.876779e+002, 1.388145e+002
2.881600e+002, 1.384864e+002
2.886422e+002, 1.379084e+002
2.891243e+002, 1.376370e+002
2.896064e+002, 1.383288e+002
2.900885e+002, 1.397399e+002
2.905706e+002, 1.405428e+002
2.910527e+002, 1.405374e+002
2.915349e+002, 1.400764e+002
2.920170e+002, 1.395296e+002
2.924991e+002, 1.389295e+002
2.929812e+002, 1.386089e+002
2.934633e+002, 1.389621e+002
2.939454e+002, 1.397579e+002
2.944276e+002, 1.402484e+002
2.949097e+002, 1.403604e+002
2.953918e+002, 1.402969e+002
2.958739e+002, 1.402664e+002
2.963560e+002, 1.402671e+002
2.968381e+002, 1.402861e+002
2.973203e+002, 1.403714e+002
2.978024e+002, 1.404624e+002
2.982845e+002, 1.404035e+002
2.987666e+002, 1.401788e+002
2.992487e+002, 1.399360e+002
2.997308e+002, 1.397615e+002
3.002130e+002, 1.396777e+002
3.006951e+002, 1.397522e+002
3.011772e+002, 1.401165e+002
3.016593e+002, 1.406008e+002
3.021414e+002, 1.409814e+002
3.026235e+002, 1.412556e+002
3.031057e+002, 1.414610e+002
3.035878e+002, 1.416197e+002
3.040699e+002, 1.417302e+002
3.045520e+002, 1.417791e+002
3.050341e+002, 1.416840e+002
3.055162e+002, 1.415987e+002
3.059984e+002, 1.418068e+002
3.064805e+002, 1.422447e+002
3.069626e+002, 1.424886e+002
3.074447e+002, 1.419642e+002
3.079268e+002, 1.411588e+002
3.084089e+002, 1.407287e+002
3.088911e+002, 1.409760e+002
3.093732e+002, 1.414344e+002
3.098553e+002, 1.417832e+002
3.103374e+002, 1.420429e+002
3.108195e+002, 1.422887e+002
3.113016e+002, 1.427103e+002
3.117838e+002, 1.430567e+002
3.122659e+002, 1.430371e+002
3.127480e+002, 1.424057e+002
3.132301e+002, 1.418572e+002
3.137122e+002, 1.419514e+002
3.141943e+002, 1.424270e+002
3.146765e+002, 1.427328e+002
3.151586e+002, 1.422696e+002
3.156407e+002, 1.418053e+002
3.161228e+002, 1.419438e+002
3.166049e+002, 1.429508e+002
3.170870e+002, 1.437414e+002
3.175692e+002, 1.436260e+002
3.180513e+002, 1.430475e+002
3.185334e+002, 1.426239e+002
3.190155e+002, 1.424323e+002
3.194976e+002, 1.425422e+002
3.199797e+002, 1.431954e+002
3.204619e+002, 1.444795e+002
3.209440e+002, 1.453449e+002
3.214261e+002, 1.449343e+002
3.219082e+002, 1.441866e+002
3.223903e+002, 1.439924e+002
3.228724e+002, 1.452910e+002
3.233546e+002, 1.464018e+002
3.238367e+002, 1.467639e+002
3.243188e+002, 1.463993e+002
3.248009e+002, 1.461948e+002
3.252830e+002, 1.465105e+002
3.257651e+002, 1.468990e+002
3.262473e+002, 1.470710e+002
3.267294e+002, 1.467231e+002
3.272115e+002, 1.464839e+002
3.276936e+002, 1.464216e+002
3.281757e+002, 1.465227e+002
3.286578e+002, 1.467065e+002
3.291400e+002, 1.472739e+002
3.296221e+002, 1.476773e+002
3.301042e+002, 1.476578e+002
3.305863e+002, 1.467245e+002
3.310684e+002, 1.461854e+002
3.315505e+002, 1.462080e+002
3.320327e+002, 1.465930e+002
3.325148e+002, 1.468958e+002
3.329969e+002, 1.469775e+002
3.334790e+002, 1.471598e+002
3.339611e+002, 1.476340e+002
3.344432e+002, 1.485866e+002
3.349254e+002, 1.490225e+002
3.354075e+002, 1.486805e+002
3.358896e+002, 1.480298e+002
3.363717e+002, 1.477230e+002
3.368538e+002, 1.478753e+002
3.373359e+002, 1.480983e+002
3.378180e+002, 1.483101e+002
3.383001e+002, 1.485101e+002
3.387823e+002, 1.487092e+002
3.392644e+002, 1.489896e+002
3.397465e+002, 1.491123e+002
3.402286e+002, 1.487627e+002
3.407107e+002, 1.478524e+002
3.411928e+002, 1.470009e+002
3.416750e+002, 1.462407e+002
3.421571e+002, 1.456630e+002
3.426392e+002, 1.458492e+002
3.431213e+002, 1.469590e+002
3.436034e+002, 1.479986e+002
3.440855e+002, 1.481181e+002
3.445677e+002, 1.473617e+002
3.450498e+002, 1.468533e+002
3.455319e+002, 1.467777e+002
3.460140e+002, 1.469285e+002
3.464961e+002, 1.469583e+002
3.469782e+002, 1.468681e+002
3.474604e+002, 1.466661e+002
3.479425e+002, 1.461615e+002
3.484246e+002, 1.455180e+002
3.489067e+002, 1.454102e+002
3.493888e+002, 1.459301e+002
3.498709e+002, 1.467023e+002
3.503531e+002, 1.474520e+002
3.508352e+002, 1.481176e+002
3.513173e+002, 1.484695e+002
3.517994e+002, 1.481433e+002
3.522815e+002, 1.475309e+002
3.527636e+002, 1.472879e+002
3.532458e+002, 1.474130e+002
3.537279e+002, 1.476842e+002
3.542100e+002, 1.479887e+002
3.546921e+002, 1.482983e+002
3.551742e+002, 1.485636e+002
3.556563e+002, 1.487612e+002
3.561385e+002, 1.489183e+002
3.566206e+002, 1.491018e+002
3.571027e+002, 1.492861e+002
3.575848e+002, 1.493443e+002
3.580669e+002, 1.491152e+002
3.585490e+002, 1.487687e+002
3.590312e+002, 1.484430e+002
3.595133e+002, 1.481112e+002
3.599954e+002, 1.479253e+002
3.604775e+002, 1.480912e+002
3.609596e+002, 1.484691e+002
3.614417e+002, 1.487582e+002
3.619239e+002, 1.487185e+002
3.624060e+002, 1.486531e+002
3.628881e+002, 1.487698e+002
3.633702e+002, 1.491452e+002
3.638523e+002, 1.494080e+002
3.643344e+002, 1.493908e+002
3.648166e+002, 1.492144e+002
3.652987e+002, 1.490145e+002
3.657808e+002, 1.486029e+002
3.662629e+002, 1.483967e+002
3.667450e+002, 1.486374e+002
3.672271e+002, 1.493211e+002
3.677093e+002, 1.497918e+002
3.681914e+002, 1.497608e+002
3.686735e+002, 1.496248e+002
3.691556e+002, 1.496419e+002
3.696377e+002, 1.500418e+002
3.701198e+002, 1.503139e+002
3.706020e+002, 1.503649e+002
3.710841e+002, 1.502616e+002
3.715662e+002, 1.502472e+002
3.720483e+002, 1.503361e+002
3.725304e+002, 1.504933e+002
3.730125e+002, 1.507293e+002
3.734947e+002, 1.511208e+002
3.739768e+002, 1.513528e+002
3.744589e+002, 1.513621e+002
3.749410e+002, 1.512648e+002
3.754231e+002, 1.512590e+002
3.759052e+002, 1.513971e+002
3.763874e+002, 1.514866e+002
3.768695e+002, 1.514631e+002
3.773516e+002, 1.513311e+002
3.778337e+002, 1.512002e+002
3.783158e+002, 1.510638e+002
3.787979e+002, 1.509516e+002
3.792801e+002, 1.508579e+002
3.797622e+002, 1.507763e+002
3.802443e+002, 1.508809e+002
3.807264e+002, 1.512466e+002
3.812085e+002, 1.517877e+002
3.816906e+002, 1.523245e+002
3.821728e+002, 1.528559e+002
3.826549e+002, 1.532884e+002
3.831370e+002, 1.534682e+002
3.836191e+002, 1.534718e+002
3.841012e+002, 1.536328e+002
3.845833e+002, 1.540249e+002
3.850655e+002, 1.544346e+002
3.855476e+002, 1.545440e+002
3.860297e+002, 1.544175e+002
3.865118e+002, 1.542886e+002
3.869939e+002, 1.542158e+002
3.874760e+002, 1.542294e+002
3.879582e+002, 1.543959e+002
3.884403e+002, 1.547198e+002
3.889224e+002, 1.550992e+002
3.894045e+002, 1.555518e+002
3.898866e+002, 1.559822e+002
3.903687e+002, 1.562350e+002
3.908509e+002, 1.559588e+002
3.913330e+002, 1.558154e+002
3.918151e+002, 1.566006e+002
3.922972e+002, 1.580308e+002
3.927793e+002, 1.589624e+002
3.932614e+002, 1.581607e+002
3.937436e+002, 1.570718e+002
3.942257e+002, 1.567975e+002
3.947078e+002, 1.579081e+002
3.951899e+002, 1.589129e+002
3.956720e+002, 1.592463e+002
3.961541e+002, 1.591447e+002
3.966363e+002, 1.589888e+002
3.971184e+002, 1.588926e+002
3.976005e+002, 1.587345e+002
3.980826e+002, 1.583716e+002
3.985647e+002, 1.577352e+002
3.990468e+002, 1.574455e+002
3.995290e+002, 1.580110e+002
4.000111e+002, 1.586947e+002
4.004932e+002, 1.588933e+002
4.009753e+002, 1.579158e+002
4.014574e+002, 1.573885e+002
4.019395e+002, 1.576462e+002
4.024217e+002, 1.585057e+002
4.029038e+002, 1.590921e+002
4.033859e+002, 1.592645e+002
4.038680e+002, 1.593726e+002
4.043501e+002, 1.596046e+002
4.048322e+002, 1.600384e+002
4.053144e+002, 1.602853e+002
4.057965e+002, 1.602374e+002
4.062786e+002, 1.601269e+002
4.067607e+002, 1.603273e+002
4.072428e+002, 1.608692e+002
4.077249e+002, 1.615799e+002
4.082071e+002, 1.625579e+002
4.086892e+002, 1.636877e+002
4.091713e+002, 1.640588e+002
4.096534e+002, 1.635580e+002
4.101355e+002, 1.629561e+002
4.106176e+002, 1.630727e+002
4.110998e+002, 1.637656e+002
4.115819e+002, 1.641503e+002
4.120640e+002, 1.639104e+002
4.125461e+002, 1.635313e+002
4.130282e+002, 1.639000e+002
4.135103e+002, 1.649056e+002
4.139925e+002, 1.658970e+002
4.144746e+002, 1.664978e+002
4.149567e+002, 1.668502e+002
4.154388e+002, 1.671138e+002
4.159209e+002, 1.672858e+002
4.164030e+002, 1.675351e+002
4.168852e+002, 1.681368e+002
4.173673e+002, 1.688923e+002
4.178494e+002, 1.694802e+002
4.183315e+002, 1.695337e+002
4.188136e+002, 1.695884e+002
4.192957e+002, 1.699801e+002
4.197779e+002, 1.706838e+002
4.202600e+002, 1.715377e+002
4.207421e+002, 1.727346e+002
4.212242e+002, 1.738940e+002
4.217063e+002, 1.746636e+002
4.221884e+002, 1.746706e+002
4.226706e+002, 1.749103e+002
4.231527e+002, 1.759044e+002
4.236348e+002, 1.772657e+002
4.241169e+002, 1.782680e+002
4.245990e+002, 1.784809e+002
4.250811e+002, 1.786413e+002
4.255633e+002, 1.789685e+002
4.260454e+002, 1.794900e+002
4.265275e+002, 1.799862e+002
4.270096e+002, 1.804639e+002
4.274917e+002, 1.809101e+002
4.279738e+002, 1.813088e+002
4.284560e+002, 1.816207e+002
4.289381e+002, 1.819570e+002
4.294202e+002, 1.823254e+002
4.299023e+002, 1.827203e+002
4.303844e+002, 1.832073e+002
4.308665e+002, 1.838953e+002
4.313487e+002, 1.843540e+002
4.318308e+002, 1.841951e+002
4.323129e+002, 1.833651e+002
4.327950e+002, 1.831292e+002
4.332771e+002, 1.836371e+002
4.337592e+002, 1.843818e+002
4.342414e+002, 1.846645e+002
4.347235e+002, 1.845310e+002
4.352056e+002, 1.845259e+002
4.356877e+002, 1.848845e+002
4.361698e+002, 1.854370e+002
4.366519e+002, 1.858248e+002
4.371341e+002, 1.860563e+002
4.376162e+002, 1.862681e+002
4.380983e+002, 1.865564e+002
4.385804e+002, 1.868983e+002
4.390625e+002, 1.872238e+002
4.395446e+002, 1.874800e+002
4.400268e+002, 1.878615e+002
4.405089e+002, 1.886039e+002
4.409910e+002, 1.896008e+002
4.414731e+002, 1.906198e+002
4.419552e+002, 1.915139e+002
4.424373e+002, 1.924374e+002
4.429195e+002, 1.935545e+002
4.434016e+002, 1.948595e+002
4.438837e+002, 1.960646e+002
4.443658e+002, 1.968156e+002
4.448479e+002, 1.975500e+002
4.453300e+002, 1.986088e+002
4.458122e+002, 2.004131e+002
4.462943e+002, 2.020883e+002
4.467764e+002, 2.033584e+002
4.472585e+002, 2.043945e+002
4.477406e+002, 2.056355e+002
4.482227e+002, 2.071701e+002
4.487049e+002, 2.088638e+002
4.491870e+002, 2.108416e+002
4.496691e+002, 2.132468e+002
4.501512e+002, 2.149599e+002
4.506333e+002, 2.157153e+002
4.511154e+002, 2.160544e+002
4.515976e+002, 2.164189e+002
4.520797e+002, 2.167380e+002
4.525618e+002, 2.173799e+002
4.530439e+002, 2.186359e+002
4.535260e+002, 2.201313e+002
4.540081e+002, 2.206550e+002
4.544903e+002, 2.200834e+002
4.549724e+002, 2.193562e+002
4.554545e+002, 2.189800e+002
4.559366e+002, 2.189091e+002
4.564187e+002, 2.188164e+002
4.569008e+002, 2.186962e+002
4.573830e+002, 2.185217e+002
4.578651e+002, 2.183670e+002
4.583472e+002, 2.181496e+002
4.588293e+002, 2.175988e+002
4.593114e+002, 2.165063e+002
4.597935e+002, 2.151505e+002
4.602757e+002, 2.138185e+002
4.607578e+002, 2.125064e+002
4.612399e+002, 2.111766e+002
4.617220e+002, 2.096677e+002
4.622041e+002, 2.082028e+002
4.626862e+002, 2.071231e+002
4.631684e+002, 2.066209e+002
4.636505e+002, 2.058715e+002
4.641326e+002, 2.042100e+002
4.646147e+002, 2.021426e+002
4.650968e+002, 2.002933e+002
4.655789e+002, 1.991911e+002
4.660611e+002, 1.980416e+002
4.665432e+002, 1.965233e+002
4.670253e+002, 1.946821e+002
4.675074e+002, 1.930001e+002
4.679895e+002, 1.915938e+002
4.684716e+002, 1.903118e+002
4.689538e+002, 1.890822e+002
4.694359e+002, 1.878525e+002
4.699180e+002, 1.868232e+002
4.704001e+002, 1.860433e+002
4.708822e+002, 1.854159e+002
4.713643e+002, 1.848276e+002
4.718465e+002, 1.843462e+002
4.723286e+002, 1.836802e+002
4.728107e+002, 1.826533e+002
4.732928e+002, 1.813764e+002
4.737749e+002, 1.805016e+002
4.742570e+002, 1.801149e+002
4.747392e+002, 1.796952e+002
4.752213e+002, 1.787381e+002
4.757034e+002, 1.773459e+002
4.761855e+002, 1.762032e+002
4.766676e+002, 1.753766e+002
4.771497e+002, 1.748288e+002
4.776319e+002, 1.747155e+002
4.781140e+002, 1.748862e+002
4.785961e+002, 1.748471e+002
4.790782e+002, 1.742488e+002
4.795603e+002, 1.734135e+002
4.800424e+002, 1.726531e+002
4.805246e+002, 1.719680e+002
4.810067e+002, 1.713861e+002
4.814888e+002, 1.710763e+002
4.819709e+002, 1.707915e+002
4.824530e+002, 1.702630e+002
4.829352e+002, 1.692715e+002
4.834173e+002, 1.684531e+002
4.838994e+002, 1.681945e+002
4.843815e+002, 1.682333e+002
4.848636e+002, 1.681728e+002
4.853457e+002, 1.676761e+002
4.858279e+002, 1.673225e+002
4.863100e+002, 1.674131e+002
4.867921e+002, 1.679479e+002
4.872742e+002, 1.680705e+002
4.877563e+002, 1.673904e+002
4.882384e+002, 1.667005e+002
4.887206e+002, 1.664908e+002
4.892027e+002, 1.670544e+002
4.896848e+002, 1.672994e+002
4.901669e+002, 1.671173e+002
4.906490e+002, 1.667203e+002
4.911311e+002, 1.664522e+002
4.916133e+002, 1.663444e+002
4.920954e+002, 1.661523e+002
4.925775e+002, 1.657183e+002
4.930596e+002, 1.651628e+002
4.935417e+002, 1.649781e+002
4.940238e+002, 1.651674e+002
4.945060e+002, 1.654182e+002
4.949881e+002, 1.654953e+002
4.954702e+002, 1.654523e+002
4.959523e+002, 1.654300e+002
4.964344e+002, 1.654488e+002
4.969165e+002, 1.654659e+002
4.973987e+002, 1.654434e+002
4.978808e+002, 1.653879e+002
4.983629e+002, 1.653129e+002
4.988450e+002, 1.652993e+002
4.993271e+002, 1.652065e+002
4.998092e+002, 1.648808e+002
5.002914e+002, 1.643660e+002
5.007735e+002, 1.639227e+002
5.012556e+002, 1.634919e+002
5.017377e+002, 1.632758e+002
5.022198e+002, 1.634831e+002
5.027019e+002, 1.644519e+002
5.031841e+002, 1.650265e+002
5.036662e+002, 1.647403e+002
5.041483e+002, 1.641232e+002
5.046304e+002, 1.637874e+002
5.051125e+002, 1.638567e+002
5.055946e+002, 1.640224e+002
5.060768e+002, 1.643197e+002
5.065589e+002, 1.646843e+002
5.070410e+002, 1.647580e+002
5.075231e+002, 1.644301e+002
5.080052e+002, 1.641182e+002
5.084873e+002, 1.640739e+002
5.089695e+002, 1.642996e+002
5.094516e+002, 1.644531e+002
5.099337e+002, 1.645480e+002
5.104158e+002, 1.644990e+002
5.108979e+002, 1.640265e+002
5.113800e+002, 1.632652e+002
5.118622e+002, 1.628704e+002
5.123443e+002, 1.631294e+002
5.128264e+002, 1.636655e+002
5.133085e+002, 1.640703e+002
5.137906e+002, 1.643447e+002
5.142728e+002, 1.644898e+002
5.147549e+002, 1.645011e+002
5.152370e+002, 1.643895e+002
5.157191e+002, 1.640958e+002
5.162012e+002, 1.636031e+002
5.166833e+002, 1.632278e+002
5.171655e+002, 1.632436e+002
5.176476e+002, 1.633724e+002
5.181297e+002, 1.633748e+002
5.186118e+002, 1.630338e+002
5.190939e+002, 1.627746e+002
5.195760e+002, 1.626591e+002
5.200582e+002, 1.626724e+002
5.205403e+002, 1.627702e+002
5.210224e+002, 1.630014e+002
5.215045e+002, 1.632424e+002
5.219866e+002, 1.634262e+002
5.224688e+002, 1.635533e+002
5.229509e+002, 1.639270e+002
5.234330e+002, 1.647014e+002
5.239151e+002, 1.653658e+002
5.243972e+002, 1.654222e+002
5.248793e+002, 1.648521e+002
5.253615e+002, 1.644977e+002
5.258436e+002, 1.644590e+002
5.263257e+002, 1.645728e+002
5.268078e+002, 1.646796e+002
5.272899e+002, 1.647531e+002
5.277720e+002, 1.646565e+002
5.282542e+002, 1.642200e+002
5.287363e+002, 1.636760e+002
5.292184e+002, 1.632722e+002
5.297005e+002, 1.630187e+002
5.301826e+002, 1.629489e+002
5.306647e+002, 1.632053e+002
5.311469e+002, 1.635836e+002
5.316290e+002, 1.639518e+002
5.321111e+002, 1.643210e+002
5.325932e+002, 1.645297e+002
5.330753e+002, 1.644416e+002
5.335574e+002, 1.641968e+002
5.340396e+002, 1.639422e+002
5.345217e+002, 1.634821e+002
5.350038e+002, 1.632774e+002
5.354859e+002, 1.635676e+002
5.359680e+002, 1.641694e+002
5.364501e+002, 1.644986e+002
5.369323e+002, 1.644310e+002
5.374144e+002, 1.642997e+002
5.378965e+002, 1.642005e+002
5.383786e+002, 1.641317e+002
5.388607e+002, 1.641659e+002
5.393428e+002, 1.643391e+002
5.398250e+002, 1.644969e+002
5.403071e+002, 1.644084e+002
5.407892e+002, 1.641182e+002
5.412713e+002, 1.641043e+002
5.417534e+002, 1.645089e+002
5.422355e+002, 1.650139e+002
5.427177e+002, 1.651965e+002
5.431998e+002, 1.651128e+002
5.436819e+002, 1.649360e+002
5.441640e+002, 1.647070e+002
5.446461e+002, 1.644526e+002
5.451282e+002, 1.641520e+002
5.456104e+002, 1.638272e+002
5.460925e+002, 1.636015e+002
5.465746e+002, 1.634342e+002
5.470567e+002, 1.634618e+002
5.475388e+002, 1.638797e+002
5.480209e+002, 1.649284e+002
5.485031e+002, 1.656308e+002
5.489852e+002, 1.656021e+002
5.494673e+002, 1.652191e+002
5.499494e+002, 1.648742e+002
5.504315e+002, 1.645549e+002
5.509136e+002, 1.642976e+002
5.513958e+002, 1.640587e+002
5.518779e+002, 1.638935e+002
5.523600e+002, 1.640328e+002
5.528421e+002, 1.645967e+002
5.533242e+002, 1.650374e+002
5.538063e+002, 1.650324e+002
5.542885e+002, 1.646665e+002
5.547706e+002, 1.646584e+002
5.552527e+002, 1.650350e+002
5.557348e+002, 1.654893e+002
5.562169e+002, 1.657898e+002
5.566990e+002, 1.659596e+002
5.571812e+002, 1.660971e+002
5.576633e+002, 1.662569e+002
5.581454e+002, 1.662379e+002
5.586275e+002, 1.655427e+002
5.591096e+002, 1.645789e+002
5.595917e+002, 1.640495e+002
5.600739e+002, 1.646579e+002
5.605560e+002, 1.653800e+002
5.610381e+002, 1.657260e+002
5.615202e+002, 1.657531e+002
5.620023e+002, 1.657509e+002
5.624844e+002, 1.658103e+002
5.629666e+002, 1.658377e+002
5.634487e+002, 1.657649e+002
5.639308e+002, 1.655508e+002
5.644129e+002, 1.654459e+002
5.648950e+002, 1.655428e+002
5.653771e+002, 1.656449e+002
5.658593e+002, 1.655594e+002
5.663414e+002, 1.652115e+002
5.668235e+002, 1.649965e+002
5.673056e+002, 1.649745e+002
5.677877e+002, 1.650636e+002
5.682698e+002, 1.651161e+002
5.687520e+002, 1.651366e+002
5.692341e+002, 1.651891e+002
5.697162e+002, 1.653210e+002
5.701983e+002, 1.654884e+002
5.706804e+002, 1.656103e+002
5.711625e+002, 1.656938e+002
5.716447e+002, 1.657796e+002
5.721268e+002, 1.659271e+002
5.726089e+002, 1.660742e+002
5.730910e+002, 1.661157e+002
5.735731e+002, 1.660133e+002
5.740552e+002, 1.660356e+002
5.745374e+002, 1.665913e+002
5.750195e+002, 1.671872e+002
5.755016e+002, 1.673645e+002
5.759837e+002, 1.663342e+002
5.764658e+002, 1.657474e+002
5.769479e+002, 1.659630e+002
5.774301e+002, 1.666559e+002
5.779122e+002, 1.672212e+002
5.783943e+002, 1.676902e+002
5.788764e+002, 1.679620e+002
5.793585e+002, 1.679783e+002
5.798406e+002, 1.677640e+002
5.803228e+002, 1.674346e+002
5.808049e+002, 1.669469e+002
5.812870e+002, 1.666215e+002
5.817691e+002, 1.668188e+002
5.822512e+002, 1.673833e+002
5.827333e+002, 1.676670e+002
5.832155e+002, 1.676214e+002
5.836975e+002, 1.674456e+002
5.841796e+002, 1.671936e+002
5.846617e+002, 1.669731e+002
5.851439e+002, 1.669697e+002
5.856260e+002, 1.673025e+002
5.861081e+002, 1.677453e+002
5.865902e+002, 1.683703e+002
5.870723e+002, 1.689886e+002
5.875544e+002, 1.692278e+002
5.880366e+002, 1.682873e+002
5.885187e+002, 1.676588e+002
5.890008e+002, 1.680975e+002
5.894829e+002, 1.695253e+002
5.899650e+002, 1.702614e+002
5.904471e+002, 1.698466e+002
5.909293e+002, 1.693231e+002
5.914114e+002, 1.691690e+002
5.918935e+002, 1.694217e+002
5.923756e+002, 1.698103e+002
5.928577e+002, 1.704257e+002
5.933398e+002, 1.709298e+002
5.938220e+002, 1.708604e+002
5.943041e+002, 1.703016e+002
5.947862e+002, 1.699224e+002
5.952683e+002, 1.698835e+002
5.957504e+002, 1.699641e+002
5.962325e+002, 1.698303e+002
5.967147e+002, 1.695824e+002
5.971968e+002, 1.694800e+002
5.976789e+002, 1.697049e+002
5.981610e+002, 1.700617e+002
5.986431e+002, 1.704589e+002
5.991252e+002, 1.708817e+002
5.996074e+002, 1.712705e+002
6.000895e+002, 1.716996e+002
6.005716e+002, 1.720127e+002
6.010537e+002, 1.720881e+002
6.015358e+002, 1.718416e+002
6.020179e+002, 1.717097e+002
6.025001e+002, 1.716355e+002
6.029822e+002, 1.717390e+002
6.034643e+002, 1.721626e+002
6.039464e+002, 1.730390e+002
6.044285e+002, 1.736867e+002
6.049106e+002, 1.739693e+002
6.053928e+002, 1.741979e+002
6.058749e+002, 1.749628e+002
6.063570e+002, 1.762158e+002
6.068391e+002, 1.772653e+002
6.073212e+002, 1.778113e+002
6.078033e+002, 1.781567e+002
6.082855e+002, 1.788557e+002
6.087676e+002, 1.797814e+002
6.092497e+002, 1.804958e+002
6.097318e+002, 1.806366e+002
6.102139e+002, 1.805464e+002
6.106960e+002, 1.803228e+002
6.111782e+002, 1.799957e+002
6.116603e+002, 1.800766e+002
6.121424e+002, 1.812106e+002
6.126245e+002, 1.824714e+002
6.131066e+002, 1.832976e+002
6.135887e+002, 1.835746e+002
6.140709e+002, 1.835733e+002
6.145530e+002, 1.830777e+002
6.150351e+002, 1.825028e+002
6.155172e+002, 1.822749e+002
6.159993e+002, 1.824389e+002
6.164814e+002, 1.827734e+002
6.169636e+002, 1.833040e+002
6.174457e+002, 1.839026e+002
6.179278e+002, 1.843620e+002
6.184099e+002, 1.846789e+002
6.188920e+002, 1.848397e+002
6.193741e+002, 1.847611e+002
6.198563e+002, 1.845788e+002
6.203384e+002, 1.845091e+002
6.208205e+002, 1.845234e+002
6.213026e+002, 1.844858e+002
6.217847e+002, 1.843522e+002
6.222668e+002, 1.841098e+002
6.227490e+002, 1.837300e+002
6.232311e+002, 1.832005e+002
6.237132e+002, 1.826548e+002
6.241953e+002, 1.820947e+002
6.246774e+002, 1.815592e+002
6.251595e+002, 1.810760e+002
6.256417e+002, 1.806614e+002
6.261238e+002, 1.802938e+002
6.266059e+002, 1.800611e+002
6.270880e+002, 1.797922e+002
6.275701e+002, 1.791521e+002
6.280522e+002, 1.780685e+002
6.285344e+002, 1.773421e+002
6.290165e+002, 1.771939e+002
6.294986e+002, 1.774118e+002
6.299807e+002, 1.776857e+002
6.304628e+002, 1.779914e+002
6.309449e+002, 1.781971e+002
6.314271e+002, 1.781376e+002
6.319092e+002, 1.780078e+002
6.323913e+002, 1.780383e+002
6.328734e+002, 1.782022e+002
6.333555e+002, 1.783327e+002
6.338376e+002, 1.781908e+002
6.343198e+002, 1.781082e+002
6.348019e+002, 1.783623e+002
6.352840e+002, 1.790920e+002
6.357661e+002, 1.795501e+002
6.362482e+002, 1.794496e+002
6.367303e+002, 1.792357e+002
6.372125e+002, 1.791879e+002
6.376946e+002, 1.792970e+002
6.381767e+002, 1.796659e+002
6.386588e+002, 1.804343e+002
6.391409e+002, 1.812314e+002
6.396230e+002, 1.813619e+002
6.401052e+002, 1.808893e+002
6.405873e+002, 1.808366e+002
6.410694e+002, 1.816926e+002
6.415515e+002, 1.826944e+002
6.420336e+002, 1.825046e+002
6.425157e+002, 1.814735e+002
6.429979e+002, 1.806174e+002
6.434800e+002, 1.805839e+002
6.439621e+002, 1.807873e+002
6.444442e+002, 1.808900e+002
6.449263e+002, 1.808884e+002
6.454084e+002, 1.808144e+002
6.458906e+002, 1.807176e+002
6.463727e+002, 1.805164e+002
6.468548e+002, 1.801458e+002
6.473369e+002, 1.795890e+002
6.478190e+002, 1.790273e+002
6.483011e+002, 1.784161e+002
6.487833e+002, 1.778747e+002
6.492654e+002, 1.775209e+002
6.497475e+002, 1.773670e+002
6.502296e+002, 1.772083e+002
6.507117e+002, 1.770378e+002
6.511938e+002, 1.768420e+002
6.516760e+002, 1.765549e+002
6.521581e+002, 1.762242e+002
6.526402e+002, 1.760194e+002
6.531223e+002, 1.760263e+002
6.536044e+002, 1.760796e+002
6.540865e+002, 1.760222e+002
6.545687e+002, 1.759022e+002
6.550508e+002, 1.758132e+002
6.555329e+002, 1.758061e+002
6.560150e+002, 1.758179e+002
6.564971e+002, 1.758746e+002
6.569792e+002, 1.759463e+002
6.574614e+002, 1.758721e+002
6.579435e+002, 1.754406e+002
6.584256e+002, 1.751601e+002
6.589077e+002, 1.752916e+002
6.593898e+002, 1.758040e+002
6.598719e+002, 1.758440e+002
6.603541e+002, 1.753004e+002
6.608362e+002, 1.748042e+002
6.613183e+002, 1.749248e+002
6.618004e+002, 1.754774e+002
6.622825e+002, 1.757092e+002
6.627646e+002, 1.755677e+002
6.632468e+002, 1.753120e+002
6.637289e+002, 1.751019e+002
6.642110e+002, 1.749435e+002
6.646931e+002, 1.748583e+002
6.651752e+002, 1.748889e+002
6.656573e+002, 1.748956e+002
6.661395e+002, 1.747179e+002
6.666216e+002, 1.745220e+002
6.671037e+002, 1.745119e+002
6.675858e+002, 1.750637e+002
6.680679e+002, 1.753458e+002
6.685500e+002, 1.751537e+002
6.690322e+002, 1.747171e+002
6.695143e+002, 1.745658e+002
6.699964e+002, 1.747643e+002
6.704785e+002, 1.749239e+002
6.709606e+002, 1.749253e+002
6.714427e+002, 1.748063e+002
6.719249e+002, 1.745477e+002
6.724070e+002, 1.741939e+002
6.728891e+002, 1.741275e+002
6.733712e+002, 1.750735e+002
6.738533e+002, 1.761335e+002
6.743354e+002, 1.760594e+002
6.748176e+002, 1.749380e+002
6.752997e+002, 1.739639e+002
6.757818e+002, 1.738217e+002
6.762639e+002, 1.739601e+002
6.767460e+002, 1.740864e+002
6.772281e+002, 1.741971e+002
6.777103e+002, 1.741601e+002
6.781924e+002, 1.738034e+002
6.786745e+002, 1.734715e+002
6.791566e+002, 1.734769e+002
6.796387e+002, 1.739520e+002
6.801208e+002, 1.740567e+002
6.806030e+002, 1.736214e+002
6.810851e+002, 1.731456e+002
6.815672e+002, 1.733803e+002
6.820493e+002, 1.741480e+002
6.825314e+002, 1.746937e+002
6.830135e+002, 1.747968e+002
6.834957e+002, 1.746951e+002
6.839778e+002, 1.745475e+002
6.844599e+002, 1.743828e+002
6.849420e+002, 1.742608e+002
6.854241e+002, 1.742773e+002
6.859063e+002, 1.742607e+002
6.863884e+002, 1.741631e+002
6.868705e+002, 1.739843e+002
6.873526e+002, 1.737023e+002
6.878347e+002, 1.729535e+002
6.883168e+002, 1.726470e+002
6.887990e+002, 1.731970e+002
6.892811e+002, 1.744331e+002
6.897632e+002, 1.751823e+002
6.902453e+002, 1.754153e+002
6.907274e+002, 1.753678e+002
6.912095e+002, 1.750561e+002
6.916917e+002, 1.745759e+002
6.921738e+002, 1.741269e+002
6.926559e+002, 1.737257e+002
6.931380e+002, 1.735713e+002
6.936201e+002, 1.741154e+002
6.941022e+002, 1.747919e+002
6.945844e+002, 1.749448e+002
6.950665e+002, 1.743732e+002
6.955486e+002, 1.740683e+002
6.960307e+002, 1.746539e+002
6.965128e+002, 1.754553e+002
6.969949e+002, 1.759581e+002
6.974771e+002, 1.761515e+002
6.979592e+002, 1.760030e+002
6.984413e+002, 1.752991e+002
6.989234e+002, 1.745340e+002
6.994055e+002, 1.744547e+002
6.998876e+002, 1.750832e+002
7.003698e+002, 1.752287e+002
7.008519e+002, 1.745522e+002
7.013340e+002, 1.736972e+002
7.018161e+002, 1.736701e+002
7.022982e+002, 1.741863e+002
7.027803e+002, 1.745184e+002
7.032625e+002, 1.741975e+002
7.037446e+002, 1.738512e+002
7.042267e+002, 1.739470e+002
7.047088e+002, 1.743240e+002
7.051909e+002, 1.746299e+002
7.056730e+002, 1.747686e+002
7.061552e+002, 1.748144e+002
7.066373e+002, 1.746690e+002
7.071194e+002, 1.744249e+002
7.076015e+002, 1.745873e+002
7.080836e+002, 1.753313e+002
7.085657e+002, 1.759255e+002
7.090479e+002, 1.759783e+002
7.095300e+002, 1.756501e+002
7.100121e+002, 1.756904e+002
7.104942e+002, 1.760818e+002
7.109763e+002, 1.764192e+002
7.114584e+002, 1.764925e+002
7.119406e+002, 1.763236e+002
7.124227e+002, 1.757781e+002
7.129048e+002, 1.748752e+002
7.133869e+002, 1.742730e+002
7.138690e+002, 1.746697e+002
7.143511e+002, 1.752027e+002
7.148333e+002, 1.752450e+002
7.153154e+002, 1.744631e+002
7.157975e+002, 1.741025e+002
7.162796e+002, 1.743788e+002
7.167617e+002, 1.748241e+002
7.172438e+002, 1.750832e+002
7.177260e+002, 1.751394e+002
7.182081e+002, 1.752130e+002
7.186902e+002, 1.753366e+002
7.191723e+002, 1.754011e+002
7.196544e+002, 1.751472e+002
7.201365e+002, 1.747388e+002
7.206187e+002, 1.746031e+002
7.211008e+002, 1.748766e+002
7.215829e+002, 1.753013e+002
7.220650e+002, 1.759172e+002
7.225471e+002, 1.764848e+002
7.230292e+002, 1.766946e+002
7.235114e+002, 1.759024e+002
7.239935e+002, 1.754168e+002
7.244756e+002, 1.756586e+002
7.249577e+002, 1.762376e+002
7.254398e+002, 1.764872e+002
7.259219e+002, 1.762699e+002
7.264041e+002, 1.761401e+002
7.268862e+002, 1.762517e+002
7.273683e+002, 1.764824e+002
7.278504e+002, 1.764727e+002
7.283325e+002, 1.762720e+002
7.288146e+002, 1.762269e+002
7.292968e+002, 1.766133e+002
7.297789e+002, 1.771326e+002
7.302610e+002, 1.775313e+002
7.307431e+002, 1.777908e+002
7.312252e+002, 1.778499e+002
7.317073e+002, 1.773133e+002
7.321895e+002, 1.769274e+002
7.326716e+002, 1.772310e+002
7.331537e+002, 1.781474e+002
7.336358e+002, 1.784229e+002
7.341179e+002, 1.776677e+002
7.346000e+002, 1.769391e+002
7.350822e+002, 1.766855e+002
7.355643e+002, 1.768630e+002
7.360464e+002, 1.771389e+002
7.365285e+002, 1.775300e+002
7.370106e+002, 1.777083e+002
7.374927e+002, 1.772045e+002
7.379749e+002, 1.764220e+002
7.384570e+002, 1.760172e+002
7.389391e+002, 1.760267e+002
7.394212e+002, 1.763004e+002
7.399033e+002, 1.767582e+002
7.403854e+002, 1.774409e+002
7.408676e+002, 1.786014e+002
7.413497e+002, 1.806700e+002
7.418318e+002, 1.814738e+002
7.423139e+002, 1.801138e+002
7.427960e+002, 1.783772e+002
7.432781e+002, 1.774590e+002
7.437603e+002, 1.774742e+002
7.442424e+002, 1.775245e+002
7.447245e+002, 1.776054e+002
7.452066e+002, 1.776546e+002
7.456887e+002, 1.775160e+002
7.461708e+002, 1.773027e+002
7.466530e+002, 1.773784e+002
7.471351e+002, 1.778784e+002
7.476172e+002, 1.782828e+002
7.480993e+002, 1.780524e+002
7.485814e+002, 1.775863e+002
7.490635e+002, 1.773237e+002
7.495457e+002, 1.773084e+002
7.500278e+002, 1.775996e+002
7.505099e+002, 1.784764e+002
7.509920e+002, 1.794707e+002
7.514741e+002, 1.800334e+002
7.519562e+002, 1.800836e+002
7.524384e+002, 1.799717e+002
7.529205e+002, 1.796847e+002
7.534026e+002, 1.793684e+002
7.538847e+002, 1.793308e+002
7.543668e+002, 1.794831e+002
7.548489e+002, 1.794463e+002
7.553311e+002, 1.789733e+002
7.558132e+002, 1.785197e+002
7.562953e+002, 1.785379e+002
7.567774e+002, 1.788498e+002
7.572595e+002, 1.791422e+002
7.577416e+002, 1.792785e+002
7.582238e+002, 1.794380e+002
7.587059e+002, 1.797019e+002
7.591880e+002, 1.800146e+002
7.596701e+002, 1.802766e+002
7.601522e+002, 1.805215e+002
7.606343e+002, 1.806101e+002
7.611165e+002, 1.804556e+002
7.615986e+002, 1.801815e+002
7.620807e+002, 1.800505e+002
7.625628e+002, 1.800624e+002
7.630449e+002, 1.802194e+002
7.635270e+002, 1.807269e+002
7.640092e+002, 1.811961e+002
7.644913e+002, 1.811477e+002
7.649734e+002, 1.807429e+002
7.654555e+002, 1.804859e+002
7.659376e+002, 1.808630e+002
7.664197e+002, 1.810943e+002
7.669019e+002, 1.807008e+002
7.673840e+002, 1.798855e+002
7.678661e+002, 1.796689e+002
7.683482e+002, 1.802759e+002
7.688303e+002, 1.808222e+002
7.693124e+002, 1.809568e+002
7.697946e+002, 1.807601e+002
7.702767e+002, 1.803965e+002
7.707588e+002, 1.799021e+002
7.712409e+002, 1.796171e+002
7.717230e+002, 1.799790e+002
7.722051e+002, 1.804890e+002
7.726873e+002, 1.806143e+002
7.731694e+002, 1.803974e+002
7.736515e+002, 1.802464e+002
7.741336e+002, 1.802725e+002
7.746157e+002, 1.804331e+002
7.750978e+002, 1.808034e+002
7.755800e+002, 1.813661e+002
7.760621e+002, 1.815770e+002
7.765442e+002, 1.812900e+002
7.770263e+002, 1.810709e+002
7.775084e+002, 1.813481e+002
7.779905e+002, 1.819637e+002
7.784727e+002, 1.821423e+002
7.789548e+002, 1.818994e+002
7.794369e+002, 1.815317e+002
7.799190e+002, 1.809836e+002
7.804011e+002, 1.805864e+002
7.808832e+002, 1.808082e+002
7.813654e+002, 1.816619e+002
7.818475e+002, 1.823136e+002
7.823296e+002, 1.825208e+002
7.828117e+002, 1.824191e+002
7.832938e+002, 1.819710e+002
7.837759e+002, 1.811031e+002
7.842581e+002, 1.808347e+002
7.847402e+002, 1.813595e+002
7.852223e+002, 1.818920e+002
7.857044e+002, 1.818278e+002
7.861865e+002, 1.813202e+002
7.866686e+002, 1.809514e+002
7.871508e+002, 1.807388e+002
7.876329e+002, 1.805895e+002
7.881150e+002, 1.804311e+002
7.885971e+002, 1.803008e+002
7.890792e+002, 1.802424e+002
7.895613e+002, 1.802633e+002
7.900435e+002, 1.803040e+002
7.905256e+002, 1.802811e+002
7.910077e+002, 1.803328e+002
7.914898e+002, 1.805642e+002
7.919719e+002, 1.810160e+002
7.924540e+002, 1.812930e+002
7.929362e+002, 1.813452e+002
7.934183e+002, 1.813961e+002
7.939004e+002, 1.817274e+002
7.943825e+002, 1.821945e+002
7.948646e+002, 1.823030e+002
7.953467e+002, 1.820138e+002
7.958289e+002, 1.818096e+002
7.963110e+002, 1.822665e+002
7.967931e+002, 1.828164e+002
7.972752e+002, 1.829297e+002
7.977573e+002, 1.824126e+002
7.982394e+002, 1.820585e+002
7.987216e+002, 1.820397e+002
7.992037e+002, 1.821197e+002
7.996858e+002, 1.821891e+002
8.001679e+002, 1.822685e+002
8.006500e+002, 1.820985e+002
8.011321e+002, 1.816106e+002
8.016143e+002, 1.812914e+002
8.020964e+002, 1.818064e+002
8.025785e+002, 1.827383e+002
8.030606e+002, 1.832720e+002
8.035427e+002, 1.832952e+002
8.040248e+002, 1.832146e+002
8.045070e+002, 1.832412e+002
8.049891e+002, 1.832801e+002
8.054712e+002, 1.832448e+002
8.059533e+002, 1.830737e+002
8.064354e+002, 1.829984e+002
8.069175e+002, 1.830679e+002
8.073997e+002, 1.831601e+002
8.078818e+002, 1.832002e+002
8.083639e+002, 1.831870e+002
8.088460e+002, 1.830663e+002
8.093281e+002, 1.828250e+002
8.098102e+002, 1.826160e+002
8.102924e+002, 1.825185e+002
8.107745e+002, 1.825660e+002
8.112566e+002, 1.828855e+002
8.117387e+002, 1.835316e+002
8.122208e+002, 1.840311e+002
8.127029e+002, 1.841087e+002
8.131851e+002, 1.840314e+002
8.136672e+002, 1.839751e+002
8.141493e+002, 1.839495e+002
8.146314e+002, 1.839328e+002
8.151135e+002, 1.839274e+002
8.155956e+002, 1.839247e+002
8.160778e+002, 1.839405e+002
8.165599e+002, 1.839561e+002
8.170420e+002, 1.838089e+002
8.175241e+002, 1.834822e+002
8.180062e+002, 1.833237e+002
8.184883e+002, 1.837314e+002
8.189705e+002, 1.843568e+002
8.194526e+002, 1.849055e+002
8.199347e+002, 1.853497e+002
8.204168e+002, 1.856051e+002
8.208989e+002, 1.855643e+002
8.213810e+002, 1.854033e+002
8.218632e+002, 1.851660e+002
8.223453e+002, 1.848279e+002
8.228274e+002, 1.846784e+002
8.233095e+002, 1.847340e+002
8.237916e+002, 1.849106e+002
8.242737e+002, 1.852987e+002
8.247559e+002, 1.857185e+002
8.252380e+002, 1.857212e+002
8.257201e+002, 1.852962e+002
8.262022e+002, 1.848997e+002
8.266843e+002, 1.848224e+002
8.271664e+002, 1.848604e+002
8.276486e+002, 1.848703e+002
8.281307e+002, 1.848245e+002
8.286128e+002, 1.849052e+002
8.290949e+002, 1.852666e+002
8.295770e+002, 1.854806e+002
8.300591e+002, 1.851619e+002
8.305413e+002, 1.843987e+002
8.310234e+002, 1.842498e+002
8.315055e+002, 1.847077e+002
8.319876e+002, 1.852940e+002
8.324697e+002, 1.859219e+002
8.329518e+002, 1.863379e+002
8.334340e+002, 1.860656e+002
8.339161e+002, 1.851512e+002
8.343982e+002, 1.845632e+002
8.348803e+002, 1.849872e+002
8.353624e+002, 1.854732e+002
8.358445e+002, 1.855929e+002
8.363267e+002, 1.853647e+002
8.368088e+002, 1.851945e+002
8.372909e+002, 1.850759e+002
8.377730e+002, 1.850590e+002
8.382551e+002, 1.852765e+002
8.387372e+002, 1.855858e+002
8.392194e+002, 1.853570e+002
8.397015e+002, 1.847608e+002
8.401836e+002, 1.847843e+002
8.406657e+002, 1.870607e+002
8.411478e+002, 1.891818e+002
8.416299e+002, 1.893553e+002
8.421121e+002, 1.877703e+002
8.425942e+002, 1.866977e+002
8.430763e+002, 1.864718e+002
8.435584e+002, 1.864089e+002
8.440405e+002, 1.863356e+002
8.445226e+002, 1.862477e+002
8.450048e+002, 1.861024e+002
8.454869e+002, 1.859063e+002
8.459690e+002, 1.857771e+002
8.464511e+002, 1.857512e+002
8.469332e+002, 1.858420e+002
8.474153e+002, 1.861838e+002
8.478975e+002, 1.866648e+002
8.483796e+002, 1.869669e+002
8.488617e+002, 1.866825e+002
8.493438e+002, 1.865571e+002
8.498259e+002, 1.869198e+002
8.503080e+002, 1.875564e+002
8.507902e+002, 1.879089e+002
8.512723e+002, 1.879409e+002
8.517544e+002, 1.878995e+002
8.522365e+002, 1.878533e+002
8.527186e+002, 1.877730e+002
8.532007e+002, 1.874846e+002
8.536829e+002, 1.871145e+002
8.541650e+002, 1.870189e+002
8.546471e+002, 1.877170e+002
8.551292e+002, 1.882269e+002
8.556113e+002, 1.878220e+002
8.560934e+002, 1.869705e+002
8.565756e+002, 1.865471e+002
8.570577e+002, 1.868243e+002
8.575398e+002, 1.870286e+002
8.580219e+002, 1.870480e+002
8.585040e+002, 1.870036e+002
8.589861e+002, 1.871062e+002
8.594683e+002, 1.873261e+002
8.599504e+002, 1.875053e+002
8.604325e+002, 1.876017e+002
8.609146e+002, 1.876571e+002
8.613967e+002, 1.876548e+002
8.618788e+002, 1.876553e+002
8.623610e+002, 1.877398e+002
8.628431e+002, 1.880024e+002
8.633252e+002, 1.882128e+002
8.638073e+002, 1.883227e+002
8.642894e+002, 1.884068e+002
8.647715e+002, 1.886229e+002
8.652537e+002, 1.890012e+002
8.657358e+002, 1.887862e+002
8.662179e+002, 1.878131e+002
8.667000e+002, 1.869985e+002
8.671821e+002, 1.876298e+002
8.676642e+002, 1.888628e+002
8.681464e+002, 1.893948e+002
8.686285e+002, 1.889326e+002
8.691106e+002, 1.885196e+002
8.695927e+002, 1.886698e+002
8.700748e+002, 1.889112e+002
8.705569e+002, 1.888608e+002
8.710391e+002, 1.884004e+002
8.715212e+002, 1.885274e+002
8.720033e+002, 1.893859e+002
8.724854e+002, 1.902307e+002
8.729675e+002, 1.904723e+002
8.734496e+002, 1.902764e+002
8.739318e+002, 1.899081e+002
8.744139e+002, 1.894060e+002
8.748960e+002, 1.890927e+002
8.753781e+002, 1.894341e+002
8.758602e+002, 1.897846e+002
8.763423e+002, 1.896556e+002
8.768245e+002, 1.890363e+002
8.773066e+002, 1.887448e+002
8.777887e+002, 1.889218e+002
8.782708e+002, 1.891342e+002
8.787529e+002, 1.892454e+002
8.792350e+002, 1.892566e+002
8.797172e+002, 1.890382e+002
8.801993e+002, 1.886596e+002
8.806814e+002, 1.885226e+002
8.811635e+002, 1.891983e+002
8.816456e+002, 1.898831e+002
8.821277e+002, 1.897854e+002
8.826099e+002, 1.891967e+002
8.830920e+002, 1.890040e+002
8.835741e+002, 1.898033e+002
8.840562e+002, 1.903843e+002
8.845383e+002, 1.904679e+002
8.850204e+002, 1.902937e+002
8.855026e+002, 1.903761e+002
8.859847e+002, 1.907002e+002
8.864668e+002, 1.911428e+002
8.869489e+002, 1.917824e+002
8.874310e+002, 1.922557e+002
8.879131e+002, 1.918925e+002
8.883953e+002, 1.911813e+002
8.888774e+002, 1.908774e+002
8.893595e+002, 1.918320e+002
8.898416e+002, 1.922109e+002
8.903237e+002, 1.912120e+002
8.908058e+002, 1.900147e+002
8.912880e+002, 1.900258e+002
8.917701e+002, 1.913952e+002
8.922522e+002, 1.919568e+002
8.927343e+002, 1.914348e+002
8.932164e+002, 1.907081e+002
8.936985e+002, 1.907014e+002
8.941807e+002, 1.910724e+002
8.946628e+002, 1.913726e+002
8.951449e+002, 1.915461e+002
8.956270e+002, 1.915215e+002
8.961091e+002, 1.910441e+002
8.965912e+002, 1.905571e+002
8.970734e+002, 1.902888e+002
8.975555e+002, 1.902385e+002
8.980376e+002, 1.905759e+002
8.985197e+002, 1.914019e+002
8.990018e+002, 1.920073e+002
8.994839e+002, 1.915739e+002
8.999661e+002, 1.907097e+002
9.004482e+002, 1.906733e+002
9.009303e+002, 1.913528e+002
9.014124e+002, 1.918744e+002
9.018945e+002, 1.917225e+002
9.023766e+002, 1.914005e+002
9.028588e+002, 1.909646e+002
9.033409e+002, 1.905266e+002
9.038230e+002, 1.906861e+002
9.043051e+002, 1.916863e+002
9.047872e+002, 1.922663e+002
9.052693e+002, 1.917880e+002
9.057515e+002, 1.909185e+002
9.062336e+002, 1.912586e+002
9.067157e+002, 1.923645e+002
9.071978e+002, 1.929379e+002
9.076799e+002, 1.918581e+002
9.081620e+002, 1.908696e+002
9.086442e+002, 1.909037e+002
9.091263e+002, 1.914874e+002
9.096084e+002, 1.918210e+002
9.100905e+002, 1.918152e+002
9.105726e+002, 1.917296e+002
9.110547e+002, 1.915295e+002
9.115369e+002, 1.914016e+002
9.120190e+002, 1.917116e+002
9.125011e+002, 1.922887e+002
9.129832e+002, 1.926397e+002
9.134653e+002, 1.926653e+002
9.139474e+002, 1.925647e+002
9.144296e+002, 1.922838e+002
9.149117e+002, 1.920506e+002
9.153938e+002, 1.920481e+002
9.158759e+002, 1.922768e+002
9.163580e+002, 1.928498e+002
9.168401e+002, 1.939848e+002
9.173223e+002, 1.949170e+002
9.178044e+002, 1.950195e+002
9.182865e+002, 1.944866e+002
9.187686e+002, 1.939233e+002
9.192507e+002, 1.933648e+002
9.197328e+002, 1.930434e+002
9.202150e+002, 1.933725e+002
9.206971e+002, 1.937462e+002
9.211792e+002, 1.937145e+002
9.216613e+002, 1.933394e+002
9.221434e+002, 1.932171e+002
9.226255e+002, 1.934970e+002
9.231077e+002, 1.937140e+002
9.235898e+002, 1.937274e+002
9.240719e+002, 1.936038e+002
9.245540e+002, 1.934092e+002
9.250361e+002, 1.931947e+002
9.255182e+002, 1.931944e+002
9.260004e+002, 1.936522e+002
9.264825e+002, 1.940786e+002
9.269646e+002, 1.939824e+002
9.274467e+002, 1.937218e+002
9.279288e+002, 1.938870e+002
9.284109e+002, 1.950205e+002
9.288931e+002, 1.954655e+002
9.293752e+002, 1.949452e+002
9.298573e+002, 1.941280e+002
9.303394e+002, 1.937332e+002
9.308215e+002, 1.936784e+002
9.313036e+002, 1.936481e+002
9.317858e+002, 1.936046e+002
9.322679e+002, 1.936491e+002
9.327500e+002, 1.940184e+002
9.332321e+002, 1.943859e+002
9.337142e+002, 1.944569e+002
9.341964e+002, 1.941526e+002
9.346785e+002, 1.940802e+002
9.351606e+002, 1.943894e+002
9.356427e+002, 1.945637e+002
9.361248e+002, 1.942146e+002
9.366069e+002, 1.935549e+002
9.370891e+002, 1.933322e+002
9.375712e+002, 1.934842e+002
9.380533e+002, 1.937217e+002
9.385354e+002, 1.939078e+002
9.390175e+002, 1.941071e+002
9.394996e+002, 1.943195e+002
9.399818e+002, 1.945713e+002
9.404639e+002, 1.949707e+002
9.409460e+002, 1.957053e+002
9.414281e+002, 1.960483e+002
9.419102e+002, 1.957872e+002
9.423923e+002, 1.952299e+002
9.428745e+002, 1.947460e+002
9.433566e+002, 1.943779e+002
9.438387e+002, 1.942829e+002
9.443208e+002, 1.945398e+002
9.448029e+002, 1.949243e+002
9.452850e+002, 1.955172e+002
9.457672e+002, 1.960521e+002
9.462493e+002, 1.962337e+002
9.467314e+002, 1.959319e+002
9.472135e+002, 1.958422e+002
9.476956e+002, 1.960125e+002
9.481777e+002, 1.962396e+002
9.486599e+002, 1.963640e+002
9.491420e+002, 1.964264e+002
9.496241e+002, 1.965544e+002
9.501062e+002, 1.967314e+002
9.505883e+002, 1.968094e+002
9.510704e+002, 1.965317e+002
9.515526e+002, 1.963051e+002
9.520347e+002, 1.963562e+002
9.525168e+002, 1.966327e+002
9.529989e+002, 1.969971e+002
9.534810e+002, 1.975058e+002
9.539631e+002, 1.978070e+002
9.544453e+002, 1.977266e+002
9.549274e+002, 1.975215e+002
9.554095e+002, 1.976192e+002
9.558916e+002, 1.979196e+002
9.563737e+002, 1.982232e+002
9.568558e+002, 1.985506e+002
9.573380e+002, 1.987180e+002
9.578201e+002, 1.984192e+002
9.583022e+002, 1.981034e+002
9.587843e+002, 1.982380e+002
9.592664e+002, 1.989482e+002
9.597485e+002, 1.993529e+002
9.602307e+002, 1.993754e+002
9.607128e+002, 1.994630e+002
9.611949e+002, 2.001847e+002
9.616770e+002, 2.011311e+002
9.621591e+002, 2.016814e+002
9.626412e+002, 2.018185e+002
9.631234e+002, 2.019535e+002
9.636055e+002, 2.020904e+002
9.640876e+002, 2.024198e+002
9.645697e+002, 2.030920e+002
9.650518e+002, 2.039905e+002
9.655339e+002, 2.045875e+002
9.660161e+002, 2.048831e+002
9.664982e+002, 2.052145e+002
9.669803e+002, 2.056027e+002
9.674624e+002, 2.062563e+002
9.679445e+002, 2.077102e+002
9.684266e+002, 2.095102e+002
9.689088e+002, 2.108765e+002
9.693909e+002, 2.111734e+002
9.698730e+002, 2.116150e+002
9.703551e+002, 2.121183e+002
9.708372e+002, 2.130015e+002
9.713193e+002, 2.148674e+002
9.718015e+002, 2.175610e+002
9.722836e+002, 2.195956e+002
9.727657e+002, 2.208289e+002
9.732478e+002, 2.221943e+002
9.737299e+002, 2.246108e+002
9.742120e+002, 2.273537e+002
9.746942e+002, 2.297465e+002
9.751763e+002, 2.317417e+002
9.756584e+002, 2.341378e+002
9.761405e+002, 2.368346e+002
9.766226e+002, 2.402862e+002
9.771047e+002, 2.448797e+002
9.775869e+002, 2.501637e+002
9.780690e+002, 2.548449e+002
9.785511e+002, 2.590018e+002
9.790332e+002, 2.630645e+002
9.795153e+002, 2.671353e+002
9.799974e+002, 2.713150e+002
9.804796e+002, 2.757845e+002
9.809617e+002, 2.803449e+002
9.814438e+002, 2.846840e+002
9.819259e+002, 2.887045e+002
9.824080e+002, 2.929701e+002
9.828901e+002, 2.975789e+002
9.833723e+002, 3.022587e+002
9.838544e+002, 3.066158e+002
9.843365e+002, 3.108961e+002
9.848186e+002, 3.157870e+002
9.853007e+002, 3.213297e+002
9.857828e+002, 3.262873e+002
9.862650e+002, 3.299347e+002
9.867471e+002, 3.330978e+002
9.872292e+002, 3.360658e+002
9.877113e+002, 3.388867e+002
9.881934e+002, 3.420059e+002
9.886755e+002, 3.454645e+002
9.891577e+002, 3.482106e+002
9.896398e+002, 3.499000e+002
9.901219e+002, 3.505356e+002
9.906040e+002, 3.498849e+002
9.910861e+002, 3.482269e+002
9.915682e+002, 3.460341e+002
9.920504e+002, 3.433641e+002
9.925325e+002, 3.402477e+002
9.930146e+002, 3.367717e+002
9.934967e+002, 3.327912e+002
9.939788e+002, 3.278486e+002
9.944609e+002, 3.220890e+002
9.949431e+002, 3.168608e+002
9.954252e+002, 3.122137e+002
9.959073e+002, 3.074903e+002
9.963894e+002, 3.015970e+002
9.968715e+002, 2.958907e+002
9.973536e+002, 2.915019e+002
9.978358e+002, 2.884177e+002
9.983179e+002, 2.849998e+002
9.988000e+002, 2.810287e+002
9.992821e+002, 2.771640e+002
9.997642e+002, 2.734937e+002
1.000246e+003, 2.701116e+002
1.000728e+003, 2.674393e+002
1.001211e+003, 2.652583e+002
1.001693e+003, 2.631471e+002
1.002175e+003, 2.610826e+002
1.002657e+003, 2.587823e+002
1.003139e+003, 2.559492e+002
1.003621e+003, 2.529577e+002
1.004103e+003, 2.501792e+002
1.004585e+003, 2.476470e+002
1.005068e+003, 2.451199e+002
1.005550e+003, 2.425644e+002
1.006032e+003, 2.401238e+002
1.006514e+003, 2.379617e+002
1.006996e+003, 2.359050e+002
1.007478e+003, 2.336956e+002
1.007960e+003, 2.313454e+002
1.008442e+003, 2.290170e+002
1.008924e+003, 2.264885e+002
1.009407e+003, 2.243045e+002
1.009889e+003, 2.226706e+002
1.010371e+003, 2.213252e+002
1.010853e+003, 2.196282e+002
1.011335e+003, 2.176548e+002
1.011817e+003, 2.160845e+002
1.012299e+003, 2.151426e+002
1.012781e+003, 2.142934e+002
1.013263e+003, 2.129740e+002
1.013746e+003, 2.116490e+002
1.014228e+003, 2.108346e+002
1.014710e+003, 2.106970e+002
1.015192e+003, 2.103371e+002
1.015674e+003, 2.097002e+002
1.016156e+003, 2.090289e+002
1.016638e+003, 2.084145e+002
1.017120e+003, 2.078857e+002
1.017603e+003, 2.074634e+002
1.018085e+003, 2.071698e+002
1.018567e+003, 2.071037e+002
1.019049e+003, 2.074562e+002
1.019531e+003, 2.078584e+002
1.020013e+003, 2.082776e+002
1.020495e+003, 2.086237e+002
1.020977e+003, 2.087508e+002
1.021459e+003, 2.086518e+002
1.021942e+003, 2.084826e+002
1.022424e+003, 2.082623e+002
1.022906e+003, 2.079580e+002
1.023388e+003, 2.073571e+002
1.023870e+003, 2.067779e+002
1.024352e+003, 2.065804e+002
1.024834e+003, 2.068335e+002
1.025316e+003, 2.070928e+002
1.025799e+003, 2.073775e+002
1.026281e+003, 2.075543e+002
1.026763e+003, 2.074739e+002
1.027245e+003, 2.073376e+002
1.027727e+003, 2.079232e+002
1.028209e+003, 2.089370e+002
1.028691e+003, 2.093515e+002
1.029173e+003, 2.082426e+002
1.029656e+003, 2.072891e+002
1.030138e+003, 2.074713e+002
1.030620e+003, 2.080777e+002
1.031102e+003, 2.083392e+002
1.031584e+003, 2.081745e+002
1.032066e+003, 2.080659e+002
1.032548e+003, 2.080067e+002
1.033030e+003, 2.081284e+002
1.033512e+003, 2.086614e+002
1.033995e+003, 2.093531e+002
1.034477e+003, 2.100831e+002
1.034959e+003, 2.107513e+002
1.035441e+003, 2.108306e+002
1.035923e+003, 2.094950e+002
1.036405e+003, 2.086296e+002
1.036887e+003, 2.086866e+002
1.037369e+003, 2.093105e+002
1.037851e+003, 2.100208e+002
1.038334e+003, 2.107121e+002
1.038816e+003, 2.109569e+002
1.039298e+003, 2.105648e+002
1.039780e+003, 2.101610e+002
1.040262e+003, 2.100601e+002
1.040744e+003, 2.101647e+002
1.041226e+003, 2.104385e+002
1.041708e+003, 2.108936e+002
1.042191e+003, 2.111901e+002
1.042673e+003, 2.113007e+002
1.043155e+003, 2.115334e+002
1.043637e+003, 2.122687e+002
1.044119e+003, 2.130403e+002
1.044601e+003, 2.129579e+002
1.045083e+003, 2.124297e+002
1.045565e+003, 2.123919e+002
1.046047e+003, 2.138258e+002
1.046530e+003, 2.147178e+002
1.047012e+003, 2.147109e+002
1.047494e+003, 2.143918e+002
1.047976e+003, 2.143064e+002
1.048458e+003, 2.144670e+002
1.048940e+003, 2.150733e+002
1.049422e+003, 2.161218e+002
1.049904e+003, 2.169649e+002
1.050386e+003, 2.169380e+002
1.050869e+003, 2.168285e+002
1.051351e+003, 2.171496e+002
1.051833e+003, 2.178027e+002
1.052315e+003, 2.183649e+002
1.052797e+003, 2.188198e+002
1.053279e+003, 2.193696e+002
1.053761e+003, 2.202031e+002
1.054243e+003, 2.208150e+002
1.054726e+003, 2.202391e+002
1.055208e+003, 2.191790e+002
1.055690e+003, 2.186539e+002
1.056172e+003, 2.190729e+002
1.056654e+003, 2.193695e+002
1.057136e+003, 2.193066e+002
1.057618e+003, 2.193719e+002
1.058100e+003, 2.200332e+002
1.058583e+003, 2.210281e+002
1.059065e+003, 2.212215e+002
1.059547e+003, 2.207607e+002
1.060029e+003, 2.203241e+002
1.060511e+003, 2.204343e+002
1.060993e+003, 2.204525e+002
1.061475e+003, 2.199605e+002
1.061957e+003, 2.192993e+002
1.062439e+003, 2.189486e+002
1.062922e+003, 2.189483e+002
1.063404e+003, 2.189127e+002
1.063886e+003, 2.188109e+002
1.064368e+003, 2.186937e+002
1.064850e+003, 2.187283e+002
1.065332e+003, 2.186821e+002
1.065814e+003, 2.182221e+002
1.066296e+003, 2.173749e+002
1.066778e+003, 2.167264e+002
1.067261e+003, 2.163782e+002
1.067743e+003, 2.161099e+002
1.068225e+003, 2.159122e+002
1.068707e+003, 2.156805e+002
1.069189e+003, 2.150326e+002
1.069671e+003, 2.142292e+002
1.070153e+003, 2.140263e+002
1.070635e+003, 2.148925e+002
1.071118e+003, 2.152776e+002
1.071600e+003, 2.140289e+002
1.072082e+003, 2.126053e+002
1.072564e+003, 2.118524e+002
1.073046e+003, 2.117160e+002
1.073528e+003, 2.113453e+002
1.074010e+003, 2.107790e+002
1.074492e+003, 2.105019e+002
1.074974e+003, 2.110628e+002
1.075457e+003, 2.116863e+002
1.075939e+003, 2.118364e+002
1.076421e+003, 2.116458e+002
1.076903e+003, 2.113138e+002
1.077385e+003, 2.107685e+002
1.077867e+003, 2.103713e+002
1.078349e+003, 2.101537e+002
1.078831e+003, 2.100141e+002
1.079313e+003, 2.099235e+002
1.079796e+003, 2.098112e+002
1.080278e+003, 2.094673e+002
1.080760e+003, 2.089450e+002
1.081242e+003, 2.086829e+002
1.081724e+003, 2.089301e+002
1.082206e+003, 2.093593e+002
1.082688e+003, 2.100703e+002
1.083170e+003, 2.107256e+002
1.083652e+003, 2.105499e+002
1.084135e+003, 2.097617e+002
1.084617e+003, 2.091642e+002
1.085099e+003, 2.089069e+002
1.085581e+003, 2.088691e+002
1.086063e+003, 2.091268e+002
1.086545e+003, 2.094546e+002
1.087027e+003, 2.097085e+002
1.087509e+003, 2.098985e+002
1.087992e+003, 2.102304e+002
1.088474e+003, 2.107100e+002
1.088956e+003, 2.108425e+002
1.089438e+003, 2.102114e+002
1.089920e+003, 2.095283e+002
1.090402e+003, 2.094907e+002
1.090884e+003, 2.098322e+002
1.091366e+003, 2.102155e+002
1.091849e+003, 2.106827e+002
1.092331e+003, 2.109443e+002
1.092813e+003, 2.109793e+002
1.093295e+003, 2.108791e+002
1.093777e+003, 2.105177e+002
1.094259e+003, 2.101594e+002
1.094741e+003, 2.104156e+002
1.095223e+003, 2.111264e+002
1.095705e+003, 2.117204e+002
1.096188e+003, 2.119641e+002
1.096670e+003, 2.120698e+002
1.097152e+003, 2.120203e+002
1.097634e+003, 2.119215e+002
1.098116e+003, 2.119606e+002
1.098598e+003, 2.120778e+002
1.099080e+003, 2.119404e+002
1.099562e+003, 2.115227e+002
1.100044e+003, 2.111764e+002
1.100527e+003, 2.110214e+002
1.101009e+003, 2.111086e+002
1.101491e+003, 2.116674e+002
1.101973e+003, 2.124551e+002
1.102455e+003, 2.126066e+002
1.102937e+003, 2.121179e+002
1.103419e+003, 2.118133e+002
1.103901e+003, 2.119099e+002
1.104384e+003, 2.122040e+002
1.104866e+003, 2.126052e+002
1.105348e+003, 2.130351e+002
1.105830e+003, 2.135091e+002
1.106312e+003, 2.140782e+002
1.106794e+003, 2.139831e+002
1.107276e+003, 2.130289e+002
1.107758e+003, 2.121654e+002
1.108240e+003, 2.117891e+002
1.108723e+003, 2.117844e+002
1.109205e+003, 2.121718e+002
1.109687e+003, 2.127315e+002
1.110169e+003, 2.130330e+002
1.110651e+003, 2.127363e+002
1.111133e+003, 2.125755e+002
1.111615e+003, 2.126005e+002
1.112097e+003, 2.127648e+002
1.112579e+003, 2.131962e+002
1.113062e+003, 2.137211e+002
1.113544e+003, 2.135224e+002
1.114026e+003, 2.127791e+002
1.114508e+003, 2.123890e+002
1.114990e+003, 2.133578e+002
1.115472e+003, 2.140314e+002
1.115954e+003, 2.136851e+002
1.116436e+003, 2.129536e+002
1.116919e+003, 2.126010e+002
1.117401e+003, 2.126103e+002
1.117883e+003, 2.128576e+002
1.118365e+003, 2.133350e+002
1.118847e+003, 2.135815e+002
1.119329e+003, 2.128292e+002
1.119811e+003, 2.121470e+002
1.120293e+003, 2.124867e+002
1.120776e+003, 2.134861e+002
1.121258e+003, 2.137992e+002
1.121740e+003, 2.133280e+002
1.122222e+003, 2.132099e+002
1.122704e+003, 2.138095e+002
1.123186e+003, 2.142436e+002
1.123668e+003, 2.130539e+002
1.124150e+003, 2.115700e+002
1.124632e+003, 2.114006e+002
1.125115e+003, 2.128975e+002
1.125597e+003, 2.135347e+002
1.126079e+003, 2.130289e+002
1.126561e+003, 2.125139e+002
1.127043e+003, 2.124263e+002
1.127525e+003, 2.125501e+002
1.128007e+003, 2.125739e+002
1.128489e+003, 2.125410e+002
1.128971e+003, 2.125431e+002
1.129454e+003, 2.127003e+002
1.129936e+003, 2.125903e+002
1.130418e+003, 2.119334e+002
1.130900e+003, 2.115000e+002
1.131382e+003, 2.119956e+002
1.131864e+003, 2.129729e+002
1.132346e+003, 2.129801e+002
1.132828e+003, 2.122626e+002
1.133311e+003, 2.116310e+002
1.133793e+003, 2.112825e+002
1.134275e+003, 2.112789e+002
1.134757e+003, 2.117868e+002
1.135239e+003, 2.124385e+002
1.135721e+003, 2.129624e+002
1.136203e+003, 2.133368e+002
1.136685e+003, 2.133295e+002
1.137167e+003, 2.129770e+002
1.137650e+003, 2.127569e+002
1.138132e+003, 2.130246e+002
1.138614e+003, 2.134181e+002
1.139096e+003, 2.140129e+002
1.139578e+003, 2.145041e+002
1.140060e+003, 2.142225e+002
1.140542e+003, 2.131422e+002
1.141024e+003, 2.127245e+002
1.141506e+003, 2.131565e+002
1.141989e+003, 2.136586e+002
1.142471e+003, 2.133781e+002
1.142953e+003, 2.131388e+002
1.143435e+003, 2.138984e+002
1.143917e+003, 2.153192e+002
1.144399e+003, 2.155648e+002
1.144881e+003, 2.143899e+002
1.145363e+003, 2.137482e+002
1.145846e+003, 2.141619e+002
1.146328e+003, 2.148306e+002
1.146810e+003, 2.149121e+002
1.147292e+003, 2.147533e+002
1.147774e+003, 2.147516e+002
1.148256e+003, 2.149688e+002
1.148738e+003, 2.148882e+002
1.149220e+003, 2.143319e+002
1.149703e+003, 2.141214e+002
1.150185e+003, 2.146713e+002
1.150667e+003, 2.154485e+002
1.151149e+003, 2.157963e+002
1.151631e+003, 2.157825e+002
1.152113e+003, 2.154329e+002
1.152595e+003, 2.145300e+002
1.153077e+003, 2.141570e+002
1.153559e+003, 2.145558e+002
1.154042e+003, 2.150574e+002
1.154524e+003, 2.153740e+002
1.155006e+003, 2.155077e+002
1.155488e+003, 2.153902e+002
1.155970e+003, 2.150991e+002
1.156452e+003, 2.148179e+002
1.156934e+003, 2.144978e+002
1.157416e+003, 2.144144e+002
1.157898e+003, 2.146826e+002
1.158381e+003, 2.150281e+002
1.158863e+003, 2.152938e+002
1.159345e+003, 2.154650e+002
1.159827e+003, 2.154731e+002
1.160309e+003, 2.153276e+002
1.160791e+003, 2.150664e+002
1.161273e+003, 2.142974e+002
1.161755e+003, 2.139770e+002
1.162238e+003, 2.145573e+002
1.162720e+003, 2.154121e+002
1.163202e+003, 2.159632e+002
1.163684e+003, 2.162110e+002
1.164166e+003, 2.161138e+002
1.164648e+003, 2.157024e+002
1.165130e+003, 2.152785e+002
1.165612e+003, 2.148639e+002
1.166094e+003, 2.146555e+002
1.166577e+003, 2.149215e+002
1.167059e+003, 2.153193e+002
1.167541e+003, 2.151709e+002
1.168023e+003, 2.145587e+002
1.168505e+003, 2.147223e+002
1.168987e+003, 2.157980e+002
1.169469e+003, 2.165367e+002
1.169951e+003, 2.155201e+002
1.170433e+003, 2.144470e+002
1.170916e+003, 2.145445e+002
1.171398e+003, 2.153112e+002
1.171880e+003, 2.154566e+002
1.172362e+003, 2.149908e+002
1.172844e+003, 2.146835e+002
1.173326e+003, 2.146898e+002
1.173808e+003, 2.147772e+002
1.174290e+003, 2.146999e+002
1.174773e+003, 2.146685e+002
1.175255e+003, 2.149001e+002
1.175737e+003, 2.153376e+002
1.176219e+003, 2.157559e+002
1.176701e+003, 2.161734e+002
1.177183e+003, 2.162186e+002
1.177665e+003, 2.157304e+002
1.178147e+003, 2.150660e+002
1.178630e+003, 2.143702e+002
1.179112e+003, 2.138083e+002
1.179594e+003, 2.135567e+002
1.180076e+003, 2.136193e+002
1.180558e+003, 2.139278e+002
1.181040e+003, 2.145290e+002
1.181522e+003, 2.149241e+002
1.182004e+003, 2.147883e+002
1.182486e+003, 2.146624e+002
1.182969e+003, 2.155529e+002
1.183451e+003, 2.165558e+002
1.183933e+003, 2.163512e+002
1.184415e+003, 2.144921e+002
1.184897e+003, 2.137335e+002
1.185379e+003, 2.142246e+002
1.185861e+003, 2.148297e+002
1.186343e+003, 2.150070e+002
1.186825e+003, 2.149466e+002
1.187308e+003, 2.148138e+002
1.187790e+003, 2.146161e+002
1.188272e+003, 2.143851e+002
1.188754e+003, 2.142250e+002
1.189236e+003, 2.136035e+002
1.189718e+003, 2.123749e+002
1.190200e+003, 2.114733e+002
1.190682e+003, 2.118760e+002
1.191165e+003, 2.126428e+002
1.191647e+003, 2.124357e+002
1.192129e+003, 2.116987e+002
1.192611e+003, 2.113440e+002
1.193093e+003, 2.118109e+002
1.193575e+003, 2.120232e+002
1.194057e+003, 2.119209e+002
1.194539e+003, 2.117546e+002
1.195021e+003, 2.117217e+002
1.195504e+003, 2.117400e+002
1.195986e+003, 2.116629e+002
1.196468e+003, 2.115405e+002
1.196950e+003, 2.115400e+002
1.197432e+003, 2.118323e+002
1.197914e+003, 2.118867e+002
1.198396e+003, 2.116114e+002
1.198878e+003, 2.113051e+002
1.199360e+003, 2.113335e+002
1.199843e+003, 2.114585e+002
1.200325e+003, 2.113187e+002
1.200807e+003, 2.109620e+002
1.201289e+003, 2.106214e+002
1.201771e+003, 2.102254e+002
1.202253e+003, 2.101495e+002
1.202735e+003, 2.105160e+002
1.203217e+003, 2.109633e+002
1.203700e+003, 2.110733e+002
1.204182e+003, 2.110194e+002
1.204664e+003, 2.110184e+002
1.205146e+003, 2.110860e+002
1.205628e+003, 2.112302e+002
1.206110e+003, 2.115283e+002
1.206592e+003, 2.117088e+002
1.207074e+003, 2.117156e+002
1.207557e+003, 2.116150e+002
1.208039e+003, 2.113407e+002
1.208521e+003, 2.110920e+002
1.209003e+003, 2.112292e+002
1.209485e+003, 2.117518e+002
1.209967e+003, 2.121754e+002
1.210449e+003, 2.125454e+002
1.210931e+003, 2.125126e+002
1.211413e+003, 2.118587e+002
1.211896e+003, 2.111747e+002
1.212378e+003, 2.114817e+002
1.212860e+003, 2.121479e+002
1.213342e+003, 2.121618e+002
1.213824e+003, 2.114142e+002
1.214306e+003, 2.109730e+002
1.214788e+003, 2.111720e+002
1.215270e+003, 2.110171e+002
1.215752e+003, 2.100840e+002
1.216235e+003, 2.091098e+002
1.216717e+003, 2.093656e+002
1.217199e+003, 2.101550e+002
1.217681e+003, 2.104328e+002
1.218163e+003, 2.100157e+002
1.218645e+003, 2.097202e+002
1.219127e+003, 2.096310e+002
1.219609e+003, 2.096029e+002
1.220092e+003, 2.096012e+002
1.220574e+003, 2.096109e+002
1.221056e+003, 2.095514e+002
1.221538e+003, 2.095154e+002
1.222020e+003, 2.096792e+002
1.222502e+003, 2.101086e+002
1.222984e+003, 2.103611e+002
1.223466e+003, 2.103794e+002
1.223948e+003, 2.103410e+002
1.224431e+003, 2.103026e+002
1.224913e+003, 2.102485e+002
1.225395e+003, 2.102614e+002
1.225877e+003, 2.101920e+002
1.226359e+003, 2.097179e+002
1.226841e+003, 2.085987e+002
1.227323e+003, 2.082419e+002
1.227805e+003, 2.088416e+002
1.228287e+003, 2.094470e+002
1.228770e+003, 2.096672e+002
1.229252e+003, 2.096880e+002
1.229734e+003, 2.097703e+002
1.230216e+003, 2.098083e+002
1.230698e+003, 2.095850e+002
1.231180e+003, 2.089464e+002
1.231662e+003, 2.088131e+002
1.232144e+003, 2.092832e+002
1.232627e+003, 2.097047e+002
1.233109e+003, 2.098096e+002
1.233591e+003, 2.096797e+002
1.234073e+003, 2.093290e+002
1.234555e+003, 2.088529e+002
1.235037e+003, 2.083598e+002
1.235519e+003, 2.078526e+002
1.236001e+003, 2.073279e+002
1.236484e+003, 2.067390e+002
1.236966e+003, 2.066447e+002
1.237448e+003, 2.076373e+002
1.237930e+003, 2.087691e+002
1.238412e+003, 2.090240e+002
1.238894e+003, 2.088632e+002
1.239376e+003, 2.089545e+002
1.239858e+003, 2.094229e+002
1.240340e+003, 2.092634e+002
1.240823e+003, 2.084247e+002
1.241305e+003, 2.080891e+002
1.241787e+003, 2.092508e+002
1.242269e+003, 2.106395e+002
1.242751e+003, 2.113148e+002
1.243233e+003, 2.114795e+002
1.243715e+003, 2.113683e+002
1.244197e+003, 2.109783e+002
1.244679e+003, 2.104458e+002
1.245162e+003, 2.097767e+002
1.245644e+003, 2.094057e+002
1.246126e+003, 2.097668e+002
1.246608e+003, 2.102389e+002
1.247090e+003, 2.105685e+002
1.247572e+003, 2.106680e+002
1.248054e+003, 2.103954e+002
1.248536e+003, 2.097260e+002
1.249019e+003, 2.095198e+002
1.249501e+003, 2.097384e+002
1.249983e+003, 2.099251e+002
1.250465e+003, 2.096870e+002
1.250947e+003, 2.095325e+002
1.251429e+003, 2.098543e+002
1.251911e+003, 2.102784e+002
1.252393e+003, 2.104614e+002
1.252875e+003, 2.104101e+002
1.253358e+003, 2.102484e+002
1.253840e+003, 2.100096e+002
1.254322e+003, 2.099340e+002
1.254804e+003, 2.102825e+002
1.255286e+003, 2.106381e+002
1.255768e+003, 2.110236e+002
1.256250e+003, 2.111824e+002
1.256732e+003, 2.106424e+002
1.257214e+003, 2.096251e+002
1.257697e+003, 2.095968e+002
1.258179e+003, 2.103947e+002
1.258661e+003, 2.112270e+002
1.259143e+003, 2.119699e+002
1.259625e+003, 2.123808e+002
1.260107e+003, 2.124480e+002
1.260589e+003, 2.121922e+002
1.261071e+003, 2.113982e+002
1.261554e+003, 2.103406e+002
1.262036e+003, 2.098883e+002
1.262518e+003, 2.099551e+002
1.263000e+003, 2.102097e+002
1.263482e+003, 2.108982e+002
1.263964e+003, 2.111309e+002
1.264446e+003, 2.106467e+002
1.264928e+003, 2.101436e+002
1.265411e+003, 2.103040e+002
1.265893e+003, 2.107946e+002
1.266375e+003, 2.110742e+002
1.266857e+003, 2.111389e+002
1.267339e+003, 2.109884e+002
1.267821e+003, 2.103343e+002
1.268303e+003, 2.100369e+002
1.268785e+003, 2.101908e+002
1.269267e+003, 2.104269e+002
1.269750e+003, 2.104981e+002
1.270232e+003, 2.104510e+002
1.270714e+003, 2.101815e+002
1.271196e+003, 2.098701e+002
1.271678e+003, 2.099788e+002
1.272160e+003, 2.107105e+002
1.272642e+003, 2.112850e+002
1.273124e+003, 2.116800e+002
1.273606e+003, 2.119027e+002
1.274089e+003, 2.118511e+002
1.274571e+003, 2.117262e+002
1.275053e+003, 2.117095e+002
1.275535e+003, 2.117404e+002
1.276017e+003, 2.117056e+002
1.276499e+003, 2.115887e+002
1.276981e+003, 2.114644e+002
1.277463e+003, 2.113375e+002
1.277946e+003, 2.113491e+002
1.278428e+003, 2.117810e+002
1.278910e+003, 2.121768e+002
1.279392e+003, 2.123364e+002
1.279874e+003, 2.122381e+002
1.280356e+003, 2.117684e+002
1.280838e+003, 2.109511e+002
1.281320e+003, 2.104121e+002
1.281802e+003, 2.101660e+002
1.282285e+003, 2.102050e+002
1.282767e+003, 2.107545e+002
1.283249e+003, 2.112974e+002
1.283731e+003, 2.117679e+002
1.284213e+003, 2.120210e+002
1.284695e+003, 2.117160e+002
1.285177e+003, 2.110606e+002
1.285659e+003, 2.112160e+002
1.286141e+003, 2.119820e+002
1.286624e+003, 2.125082e+002
1.287106e+003, 2.123263e+002
1.287588e+003, 2.119680e+002
1.288070e+003, 2.113531e+002
1.288552e+003, 2.109274e+002
1.289034e+003, 2.112369e+002
1.289516e+003, 2.119292e+002
1.289998e+003, 2.122452e+002
1.290481e+003, 2.122730e+002
1.290963e+003, 2.122475e+002
1.291445e+003, 2.122670e+002
1.291927e+003, 2.121437e+002
1.292409e+003, 2.118303e+002
1.292891e+003, 2.115583e+002
1.293373e+003, 2.115163e+002
1.293855e+003, 2.115931e+002
1.294338e+003, 2.117472e+002
1.294820e+003, 2.118846e+002
1.295302e+003, 2.117829e+002
1.295784e+003, 2.113118e+002
1.296266e+003, 2.110711e+002
1.296748e+003, 2.110552e+002
1.297230e+003, 2.113738e+002
1.297712e+003, 2.125737e+002
1.298194e+003, 2.135698e+002
1.298677e+003, 2.131884e+002
1.299159e+003, 2.122896e+002
1.299641e+003, 2.119483e+002
1.300123e+003, 2.121766e+002
1.300605e+003, 2.123017e+002
1.301087e+003, 2.123290e+002
1.301569e+003, 2.123289e+002
1.302051e+003, 2.125033e+002
1.302533e+003, 2.123420e+002
1.303016e+003, 2.116430e+002
##END=



