##NAMES=Litidionite
##RRUFFID=R130088
##IDEAL CHEMISTRY=KNaCu^2+^Si_4_O_10_
##LOCALITY=Mt Vesuvius, Napoli, Italy
##OWNER=RRUFF
##SOURCE=Rock Currier
##DESCRIPTION=Blue to green glassy, massive. The two larger fragments are from the 1880 eruption. The smaller fragment is from 1873.
##STATUS=The identification of this mineral has been confirmed by single-crystal X-ray diffraction.
##URL=rruff.info/R130088
8.975323e+001, 0.000000e+000
9.023535e+001, 2.212786e+002
9.071747e+001, 2.237643e+002
9.119958e+001, 2.238066e+002
9.168170e+001, 2.235088e+002
9.216382e+001, 2.211703e+002
9.264594e+001, 2.175311e+002
9.312805e+001, 2.135939e+002
9.361017e+001, 2.095120e+002
9.409229e+001, 2.041729e+002
9.457440e+001, 1.962452e+002
9.505651e+001, 1.893620e+002
9.553863e+001, 1.836844e+002
9.602074e+001, 1.789470e+002
9.650286e+001, 1.751536e+002
9.698498e+001, 1.722059e+002
9.746709e+001, 1.693719e+002
9.794921e+001, 1.656117e+002
9.843133e+001, 1.598608e+002
9.891344e+001, 1.546632e+002
9.939556e+001, 1.505426e+002
9.987768e+001, 1.473652e+002
1.003598e+002, 1.449576e+002
1.008419e+002, 1.433974e+002
1.013240e+002, 1.425154e+002
1.018061e+002, 1.414189e+002
1.022883e+002, 1.398712e+002
1.027704e+002, 1.382388e+002
1.032525e+002, 1.368233e+002
1.037346e+002, 1.356044e+002
1.042167e+002, 1.346184e+002
1.046988e+002, 1.343179e+002
1.051810e+002, 1.341998e+002
1.056631e+002, 1.334216e+002
1.061452e+002, 1.312424e+002
1.066273e+002, 1.280461e+002
1.071094e+002, 1.254213e+002
1.075915e+002, 1.236368e+002
1.080737e+002, 1.221535e+002
1.085558e+002, 1.207701e+002
1.090379e+002, 1.194704e+002
1.095200e+002, 1.182676e+002
1.100021e+002, 1.171613e+002
1.104842e+002, 1.161449e+002
1.109664e+002, 1.152915e+002
1.114485e+002, 1.147125e+002
1.119306e+002, 1.141888e+002
1.124127e+002, 1.135708e+002
1.128948e+002, 1.128649e+002
1.133769e+002, 1.122208e+002
1.138591e+002, 1.118855e+002
1.143412e+002, 1.122625e+002
1.148233e+002, 1.121909e+002
1.153054e+002, 1.115095e+002
1.157875e+002, 1.104805e+002
1.162696e+002, 1.092729e+002
1.167517e+002, 1.079271e+002
1.172339e+002, 1.065714e+002
1.177160e+002, 1.055321e+002
1.181981e+002, 1.047647e+002
1.186802e+002, 1.042693e+002
1.191623e+002, 1.042141e+002
1.196444e+002, 1.044599e+002
1.201266e+002, 1.046576e+002
1.206087e+002, 1.047509e+002
1.210908e+002, 1.045823e+002
1.215729e+002, 1.039541e+002
1.220550e+002, 1.026982e+002
1.225371e+002, 1.012724e+002
1.230193e+002, 1.000561e+002
1.235014e+002, 9.906065e+001
1.239835e+002, 9.815080e+001
1.244656e+002, 9.730172e+001
1.249477e+002, 9.650010e+001
1.254298e+002, 9.572828e+001
1.259120e+002, 9.497086e+001
1.263941e+002, 9.426351e+001
1.268762e+002, 9.373222e+001
1.273583e+002, 9.357399e+001
1.278404e+002, 9.324988e+001
1.283225e+002, 9.253091e+001
1.288047e+002, 9.159102e+001
1.292868e+002, 9.065249e+001
1.297689e+002, 8.984547e+001
1.302510e+002, 8.916641e+001
1.307331e+002, 8.856707e+001
1.312152e+002, 8.813565e+001
1.316974e+002, 8.770018e+001
1.321795e+002, 8.718416e+001
1.326616e+002, 8.662347e+001
1.331437e+002, 8.612508e+001
1.336258e+002, 8.579902e+001
1.341079e+002, 8.569784e+001
1.345901e+002, 8.539000e+001
1.350722e+002, 8.462892e+001
1.355543e+002, 8.389672e+001
1.360364e+002, 8.350925e+001
1.365185e+002, 8.347985e+001
1.370006e+002, 8.358243e+001
1.374828e+002, 8.361414e+001
1.379649e+002, 8.359670e+001
1.384470e+002, 8.326498e+001
1.389291e+002, 8.242049e+001
1.394112e+002, 8.132523e+001
1.398933e+002, 8.017937e+001
1.403755e+002, 7.896381e+001
1.408576e+002, 7.796575e+001
1.413397e+002, 7.774449e+001
1.418218e+002, 7.822482e+001
1.423039e+002, 7.862801e+001
1.427860e+002, 7.856348e+001
1.432681e+002, 7.814880e+001
1.437503e+002, 7.782333e+001
1.442324e+002, 7.776553e+001
1.447145e+002, 7.772444e+001
1.451966e+002, 7.750199e+001
1.456787e+002, 7.709457e+001
1.461608e+002, 7.655798e+001
1.466430e+002, 7.584577e+001
1.471251e+002, 7.491612e+001
1.476072e+002, 7.421156e+001
1.480893e+002, 7.404826e+001
1.485714e+002, 7.399291e+001
1.490535e+002, 7.378203e+001
1.495357e+002, 7.336983e+001
1.500178e+002, 7.294612e+001
1.504999e+002, 7.285349e+001
1.509820e+002, 7.339050e+001
1.514641e+002, 7.359121e+001
1.519462e+002, 7.327229e+001
1.524284e+002, 7.270952e+001
1.529105e+002, 7.206284e+001
1.533926e+002, 7.140397e+001
1.538747e+002, 7.076954e+001
1.543568e+002, 7.025340e+001
1.548389e+002, 6.989133e+001
1.553211e+002, 6.963216e+001
1.558032e+002, 6.961889e+001
1.562853e+002, 6.966286e+001
1.567674e+002, 6.948546e+001
1.572495e+002, 6.892918e+001
1.577316e+002, 6.814204e+001
1.582138e+002, 6.777488e+001
1.586959e+002, 6.822384e+001
1.591780e+002, 6.858249e+001
1.596601e+002, 6.860062e+001
1.601422e+002, 6.836320e+001
1.606243e+002, 6.808556e+001
1.611065e+002, 6.791428e+001
1.615886e+002, 6.777481e+001
1.620707e+002, 6.737818e+001
1.625528e+002, 6.635558e+001
1.630349e+002, 6.544424e+001
1.635170e+002, 6.523393e+001
1.639991e+002, 6.564868e+001
1.644813e+002, 6.592651e+001
1.649634e+002, 6.545477e+001
1.654455e+002, 6.454425e+001
1.659276e+002, 6.393482e+001
1.664097e+002, 6.380078e+001
1.668918e+002, 6.391856e+001
1.673740e+002, 6.410961e+001
1.678561e+002, 6.441377e+001
1.683382e+002, 6.459925e+001
1.688203e+002, 6.444338e+001
1.693024e+002, 6.410836e+001
1.697845e+002, 6.377771e+001
1.702667e+002, 6.354722e+001
1.707488e+002, 6.334791e+001
1.712309e+002, 6.297158e+001
1.717130e+002, 6.220852e+001
1.721951e+002, 6.167231e+001
1.726772e+002, 6.169353e+001
1.731594e+002, 6.202892e+001
1.736415e+002, 6.234782e+001
1.741236e+002, 6.247266e+001
1.746057e+002, 6.242077e+001
1.750878e+002, 6.228669e+001
1.755699e+002, 6.199231e+001
1.760521e+002, 6.169659e+001
1.765342e+002, 6.147247e+001
1.770163e+002, 6.127702e+001
1.774984e+002, 6.101125e+001
1.779805e+002, 6.056750e+001
1.784626e+002, 5.994144e+001
1.789448e+002, 5.965713e+001
1.794269e+002, 6.018196e+001
1.799090e+002, 6.058760e+001
1.803911e+002, 6.057110e+001
1.808732e+002, 6.019118e+001
1.813553e+002, 5.964285e+001
1.818375e+002, 5.905944e+001
1.823196e+002, 5.841053e+001
1.828017e+002, 5.807272e+001
1.832838e+002, 5.836681e+001
1.837659e+002, 5.861571e+001
1.842480e+002, 5.841912e+001
1.847301e+002, 5.781599e+001
1.852123e+002, 5.715211e+001
1.856944e+002, 5.673935e+001
1.861765e+002, 5.661887e+001
1.866586e+002, 5.653508e+001
1.871407e+002, 5.649505e+001
1.876228e+002, 5.648490e+001
1.881050e+002, 5.649020e+001
1.885871e+002, 5.651020e+001
1.890692e+002, 5.656950e+001
1.895513e+002, 5.674216e+001
1.900334e+002, 5.701646e+001
1.905155e+002, 5.711357e+001
1.909977e+002, 5.684347e+001
1.914798e+002, 5.645483e+001
1.919619e+002, 5.623466e+001
1.924440e+002, 5.623303e+001
1.929261e+002, 5.630586e+001
1.934082e+002, 5.634913e+001
1.938904e+002, 5.636470e+001
1.943725e+002, 5.633745e+001
1.948546e+002, 5.628145e+001
1.953367e+002, 5.617658e+001
1.958188e+002, 5.596671e+001
1.963009e+002, 5.560993e+001
1.967831e+002, 5.522795e+001
1.972652e+002, 5.485990e+001
1.977473e+002, 5.452631e+001
1.982294e+002, 5.430584e+001
1.987115e+002, 5.429286e+001
1.991936e+002, 5.443919e+001
1.996758e+002, 5.453711e+001
2.001579e+002, 5.455952e+001
2.006400e+002, 5.456096e+001
2.011221e+002, 5.455534e+001
2.016042e+002, 5.455219e+001
2.020863e+002, 5.457564e+001
2.025685e+002, 5.467284e+001
2.030506e+002, 5.483446e+001
2.035327e+002, 5.489087e+001
2.040148e+002, 5.472952e+001
2.044969e+002, 5.457233e+001
2.049790e+002, 5.453511e+001
2.054612e+002, 5.457530e+001
2.059433e+002, 5.457949e+001
2.064254e+002, 5.443948e+001
2.069075e+002, 5.414467e+001
2.073896e+002, 5.391123e+001
2.078717e+002, 5.377691e+001
2.083539e+002, 5.367369e+001
2.088360e+002, 5.357259e+001
2.093181e+002, 5.348413e+001
2.098002e+002, 5.344096e+001
2.102823e+002, 5.347601e+001
2.107644e+002, 5.359682e+001
2.112466e+002, 5.372960e+001
2.117287e+002, 5.410209e+001
2.122108e+002, 5.428034e+001
2.126929e+002, 5.389433e+001
2.131750e+002, 5.310221e+001
2.136571e+002, 5.242552e+001
2.141393e+002, 5.239024e+001
2.146214e+002, 5.315419e+001
2.151035e+002, 5.342959e+001
2.155856e+002, 5.273737e+001
2.160677e+002, 5.209478e+001
2.165498e+002, 5.214254e+001
2.170320e+002, 5.278606e+001
2.175141e+002, 5.339239e+001
2.179962e+002, 5.333091e+001
2.184783e+002, 5.247861e+001
2.189604e+002, 5.213932e+001
2.194425e+002, 5.289494e+001
2.199247e+002, 5.362823e+001
2.204068e+002, 5.349516e+001
2.208889e+002, 5.255132e+001
2.213710e+002, 5.162175e+001
2.218531e+002, 5.145547e+001
2.223352e+002, 5.211787e+001
2.228174e+002, 5.249708e+001
2.232995e+002, 5.239004e+001
2.237816e+002, 5.215389e+001
2.242637e+002, 5.205413e+001
2.247458e+002, 5.210259e+001
2.252279e+002, 5.215742e+001
2.257100e+002, 5.210727e+001
2.261922e+002, 5.195662e+001
2.266743e+002, 5.178936e+001
2.271564e+002, 5.150254e+001
2.276385e+002, 5.126849e+001
2.281206e+002, 5.130272e+001
2.286027e+002, 5.162280e+001
2.290849e+002, 5.195190e+001
2.295670e+002, 5.207698e+001
2.300491e+002, 5.205294e+001
2.305312e+002, 5.203517e+001
2.310133e+002, 5.197497e+001
2.314954e+002, 5.197248e+001
2.319776e+002, 5.217929e+001
2.324597e+002, 5.262330e+001
2.329418e+002, 5.308295e+001
2.334239e+002, 5.351464e+001
2.339060e+002, 5.385155e+001
2.343881e+002, 5.394683e+001
2.348703e+002, 5.361359e+001
2.353524e+002, 5.314906e+001
2.358345e+002, 5.293211e+001
2.363166e+002, 5.297493e+001
2.367987e+002, 5.321658e+001
2.372808e+002, 5.392829e+001
2.377630e+002, 5.472985e+001
2.382451e+002, 5.517541e+001
2.387272e+002, 5.506832e+001
2.392093e+002, 5.463297e+001
2.396914e+002, 5.416974e+001
2.401735e+002, 5.362583e+001
2.406557e+002, 5.322367e+001
2.411378e+002, 5.312018e+001
2.416199e+002, 5.316280e+001
2.421020e+002, 5.322322e+001
2.425841e+002, 5.325846e+001
2.430662e+002, 5.329362e+001
2.435484e+002, 5.340277e+001
2.440305e+002, 5.366383e+001
2.445126e+002, 5.377861e+001
2.449947e+002, 5.370064e+001
2.454768e+002, 5.344096e+001
2.459589e+002, 5.291626e+001
2.464410e+002, 5.207936e+001
2.469232e+002, 5.118672e+001
2.474053e+002, 5.072465e+001
2.478874e+002, 5.094713e+001
2.483695e+002, 5.099651e+001
2.488516e+002, 5.056893e+001
2.493337e+002, 5.002259e+001
2.498159e+002, 4.964132e+001
2.502980e+002, 4.950881e+001
2.507801e+002, 4.948764e+001
2.512622e+002, 4.934610e+001
2.517443e+002, 4.903365e+001
2.522264e+002, 4.871037e+001
2.527086e+002, 4.838091e+001
2.531907e+002, 4.805454e+001
2.536728e+002, 4.770995e+001
2.541549e+002, 4.735252e+001
2.546370e+002, 4.704086e+001
2.551191e+002, 4.686779e+001
2.556013e+002, 4.687958e+001
2.560834e+002, 4.694474e+001
2.565655e+002, 4.701817e+001
2.570476e+002, 4.715979e+001
2.575297e+002, 4.751660e+001
2.580118e+002, 4.806133e+001
2.584940e+002, 4.852930e+001
2.589761e+002, 4.851652e+001
2.594582e+002, 4.770392e+001
2.599403e+002, 4.721870e+001
2.604224e+002, 4.724062e+001
2.609045e+002, 4.737352e+001
2.613867e+002, 4.734635e+001
2.618688e+002, 4.714881e+001
2.623509e+002, 4.698758e+001
2.628330e+002, 4.713847e+001
2.633151e+002, 4.779352e+001
2.637972e+002, 4.803581e+001
2.642794e+002, 4.763789e+001
2.647615e+002, 4.710605e+001
2.652436e+002, 4.666219e+001
2.657257e+002, 4.634535e+001
2.662078e+002, 4.612343e+001
2.666899e+002, 4.597529e+001
2.671721e+002, 4.591717e+001
2.676542e+002, 4.583306e+001
2.681363e+002, 4.561490e+001
2.686184e+002, 4.547149e+001
2.691005e+002, 4.556030e+001
2.695826e+002, 4.583498e+001
2.700648e+002, 4.612455e+001
2.705469e+002, 4.630298e+001
2.710290e+002, 4.636963e+001
2.715111e+002, 4.627308e+001
2.719932e+002, 4.582847e+001
2.724753e+002, 4.543800e+001
2.729575e+002, 4.532472e+001
2.734396e+002, 4.541629e+001
2.739217e+002, 4.548322e+001
2.744038e+002, 4.535614e+001
2.748859e+002, 4.506241e+001
2.753680e+002, 4.495087e+001
2.758501e+002, 4.520268e+001
2.763322e+002, 4.539532e+001
2.768144e+002, 4.539768e+001
2.772965e+002, 4.523409e+001
2.777786e+002, 4.491778e+001
2.782607e+002, 4.440721e+001
2.787428e+002, 4.381872e+001
2.792249e+002, 4.368742e+001
2.797071e+002, 4.438623e+001
2.801892e+002, 4.500379e+001
2.806713e+002, 4.539346e+001
2.811534e+002, 4.554123e+001
2.816355e+002, 4.533214e+001
2.821176e+002, 4.465851e+001
2.825998e+002, 4.378815e+001
2.830819e+002, 4.347608e+001
2.835640e+002, 4.410144e+001
2.840461e+002, 4.447771e+001
2.845282e+002, 4.411699e+001
2.850103e+002, 4.342799e+001
2.854925e+002, 4.305348e+001
2.859746e+002, 4.322841e+001
2.864567e+002, 4.361723e+001
2.869388e+002, 4.361129e+001
2.874209e+002, 4.304012e+001
2.879030e+002, 4.268875e+001
2.883852e+002, 4.281187e+001
2.888673e+002, 4.316698e+001
2.893494e+002, 4.351660e+001
2.898315e+002, 4.381322e+001
2.903136e+002, 4.397842e+001
2.907957e+002, 4.384183e+001
2.912779e+002, 4.333911e+001
2.917600e+002, 4.306113e+001
2.922421e+002, 4.333150e+001
2.927242e+002, 4.370207e+001
2.932063e+002, 4.363369e+001
2.936884e+002, 4.306744e+001
2.941706e+002, 4.255186e+001
2.946527e+002, 4.267960e+001
2.951348e+002, 4.345686e+001
2.956169e+002, 4.386756e+001
2.960990e+002, 4.354707e+001
2.965811e+002, 4.308708e+001
2.970633e+002, 4.301027e+001
2.975454e+002, 4.330143e+001
2.980275e+002, 4.350775e+001
2.985096e+002, 4.326033e+001
2.989917e+002, 4.264228e+001
2.994738e+002, 4.226156e+001
2.999560e+002, 4.220659e+001
3.004381e+002, 4.230318e+001
3.009202e+002, 4.256195e+001
3.014023e+002, 4.292627e+001
3.018844e+002, 4.312526e+001
3.023665e+002, 4.294900e+001
3.028487e+002, 4.255997e+001
3.033308e+002, 4.246120e+001
3.038129e+002, 4.283972e+001
3.042950e+002, 4.317360e+001
3.047771e+002, 4.320127e+001
3.052592e+002, 4.300495e+001
3.057414e+002, 4.279118e+001
3.062235e+002, 4.263214e+001
3.067056e+002, 4.250115e+001
3.071877e+002, 4.231362e+001
3.076698e+002, 4.200194e+001
3.081519e+002, 4.186899e+001
3.086341e+002, 4.223938e+001
3.091162e+002, 4.280663e+001
3.095983e+002, 4.297118e+001
3.100804e+002, 4.252084e+001
3.105625e+002, 4.190672e+001
3.110446e+002, 4.176571e+001
3.115268e+002, 4.210417e+001
3.120089e+002, 4.239398e+001
3.124910e+002, 4.252279e+001
3.129731e+002, 4.255407e+001
3.134552e+002, 4.256271e+001
3.139373e+002, 4.255957e+001
3.144195e+002, 4.251554e+001
3.149016e+002, 4.238211e+001
3.153837e+002, 4.216610e+001
3.158658e+002, 4.199189e+001
3.163479e+002, 4.180787e+001
3.168300e+002, 4.171284e+001
3.173121e+002, 4.186681e+001
3.177943e+002, 4.224913e+001
3.182764e+002, 4.257923e+001
3.187585e+002, 4.270707e+001
3.192406e+002, 4.260837e+001
3.197227e+002, 4.230307e+001
3.202048e+002, 4.135454e+001
3.206870e+002, 4.063396e+001
3.211691e+002, 4.085488e+001
3.216512e+002, 4.176228e+001
3.221333e+002, 4.243569e+001
3.226154e+002, 4.239587e+001
3.230975e+002, 4.191730e+001
3.235797e+002, 4.171233e+001
3.240618e+002, 4.189657e+001
3.245439e+002, 4.204758e+001
3.250260e+002, 4.196425e+001
3.255081e+002, 4.175364e+001
3.259902e+002, 4.164045e+001
3.264724e+002, 4.171577e+001
3.269545e+002, 4.182874e+001
3.274366e+002, 4.170839e+001
3.279187e+002, 4.130750e+001
3.284008e+002, 4.099625e+001
3.288829e+002, 4.089273e+001
3.293651e+002, 4.089132e+001
3.298472e+002, 4.087917e+001
3.303293e+002, 4.083672e+001
3.308114e+002, 4.078301e+001
3.312935e+002, 4.073848e+001
3.317756e+002, 4.070382e+001
3.322578e+002, 4.064870e+001
3.327399e+002, 4.051754e+001
3.332220e+002, 4.040713e+001
3.337041e+002, 4.042234e+001
3.341862e+002, 4.054678e+001
3.346683e+002, 4.063533e+001
3.351505e+002, 4.056366e+001
3.356326e+002, 4.036931e+001
3.361147e+002, 4.032538e+001
3.365968e+002, 4.057391e+001
3.370789e+002, 4.080480e+001
3.375610e+002, 4.089507e+001
3.380432e+002, 4.086919e+001
3.385253e+002, 4.077388e+001
3.390074e+002, 4.061884e+001
3.394895e+002, 4.043609e+001
3.399716e+002, 4.031433e+001
3.404537e+002, 4.025874e+001
3.409359e+002, 4.024209e+001
3.414180e+002, 4.029827e+001
3.419001e+002, 4.037687e+001
3.423822e+002, 4.040757e+001
3.428643e+002, 4.037017e+001
3.433464e+002, 4.030325e+001
3.438286e+002, 4.025843e+001
3.443107e+002, 4.024330e+001
3.447928e+002, 4.023296e+001
3.452749e+002, 4.030457e+001
3.457570e+002, 4.032738e+001
3.462391e+002, 4.015090e+001
3.467213e+002, 3.979161e+001
3.472034e+002, 3.942199e+001
3.476855e+002, 3.918616e+001
3.481676e+002, 3.908799e+001
3.486497e+002, 3.913007e+001
3.491318e+002, 3.946590e+001
3.496140e+002, 3.976352e+001
3.500961e+002, 3.984725e+001
3.505782e+002, 3.977855e+001
3.510603e+002, 3.972581e+001
3.515424e+002, 3.979503e+001
3.520245e+002, 3.993737e+001
3.525067e+002, 3.993867e+001
3.529888e+002, 3.966816e+001
3.534709e+002, 3.941972e+001
3.539530e+002, 3.918060e+001
3.544351e+002, 3.900048e+001
3.549172e+002, 3.896408e+001
3.553994e+002, 3.909664e+001
3.558815e+002, 3.929995e+001
3.563636e+002, 3.941096e+001
3.568457e+002, 3.940198e+001
3.573278e+002, 3.934185e+001
3.578099e+002, 3.918578e+001
3.582920e+002, 3.901655e+001
3.587741e+002, 3.887337e+001
3.592563e+002, 3.876930e+001
3.597384e+002, 3.872931e+001
3.602205e+002, 3.880428e+001
3.607026e+002, 3.903065e+001
3.611847e+002, 3.900829e+001
3.616668e+002, 3.827230e+001
3.621490e+002, 3.778407e+001
3.626311e+002, 3.809184e+001
3.631132e+002, 3.886891e+001
3.635953e+002, 3.947137e+001
3.640774e+002, 3.950170e+001
3.645595e+002, 3.908323e+001
3.650417e+002, 3.873033e+001
3.655238e+002, 3.837497e+001
3.660059e+002, 3.819985e+001
3.664880e+002, 3.833984e+001
3.669701e+002, 3.860138e+001
3.674522e+002, 3.883876e+001
3.679344e+002, 3.899337e+001
3.684165e+002, 3.902782e+001
3.688986e+002, 3.882404e+001
3.693807e+002, 3.818990e+001
3.698628e+002, 3.785302e+001
3.703449e+002, 3.802964e+001
3.708271e+002, 3.832566e+001
3.713092e+002, 3.863663e+001
3.717913e+002, 3.889681e+001
3.722734e+002, 3.899195e+001
3.727555e+002, 3.874682e+001
3.732376e+002, 3.817943e+001
3.737198e+002, 3.789550e+001
3.742019e+002, 3.820681e+001
3.746840e+002, 3.842430e+001
3.751661e+002, 3.815465e+001
3.756482e+002, 3.768423e+001
3.761303e+002, 3.749318e+001
3.766125e+002, 3.786534e+001
3.770946e+002, 3.852346e+001
3.775767e+002, 3.883856e+001
3.780588e+002, 3.870136e+001
3.785409e+002, 3.852613e+001
3.790230e+002, 3.846480e+001
3.795052e+002, 3.838745e+001
3.799873e+002, 3.815168e+001
3.804694e+002, 3.773223e+001
3.809515e+002, 3.731511e+001
3.814336e+002, 3.705867e+001
3.819157e+002, 3.696201e+001
3.823979e+002, 3.705201e+001
3.828800e+002, 3.749629e+001
3.833621e+002, 3.793585e+001
3.838442e+002, 3.815133e+001
3.843263e+002, 3.816578e+001
3.848084e+002, 3.807645e+001
3.852906e+002, 3.780807e+001
3.857727e+002, 3.749331e+001
3.862548e+002, 3.749641e+001
3.867369e+002, 3.792024e+001
3.872190e+002, 3.829007e+001
3.877011e+002, 3.825705e+001
3.881833e+002, 3.802002e+001
3.886654e+002, 3.785634e+001
3.891475e+002, 3.785605e+001
3.896296e+002, 3.786913e+001
3.901117e+002, 3.773016e+001
3.905938e+002, 3.746392e+001
3.910760e+002, 3.726499e+001
3.915581e+002, 3.718971e+001
3.920402e+002, 3.722316e+001
3.925223e+002, 3.739005e+001
3.930044e+002, 3.771177e+001
3.934865e+002, 3.790893e+001
3.939687e+002, 3.776988e+001
3.944508e+002, 3.747121e+001
3.949329e+002, 3.732598e+001
3.954150e+002, 3.739355e+001
3.958971e+002, 3.742856e+001
3.963792e+002, 3.712332e+001
3.968614e+002, 3.653688e+001
3.973435e+002, 3.630747e+001
3.978256e+002, 3.674485e+001
3.983077e+002, 3.729735e+001
3.987898e+002, 3.764516e+001
3.992719e+002, 3.780696e+001
3.997540e+002, 3.789205e+001
4.002361e+002, 3.795898e+001
4.007183e+002, 3.797770e+001
4.012004e+002, 3.783908e+001
4.016825e+002, 3.741107e+001
4.021646e+002, 3.708175e+001
4.026467e+002, 3.701490e+001
4.031288e+002, 3.703718e+001
4.036110e+002, 3.693049e+001
4.040931e+002, 3.665187e+001
4.045752e+002, 3.633877e+001
4.050573e+002, 3.614659e+001
4.055394e+002, 3.609075e+001
4.060215e+002, 3.610866e+001
4.065037e+002, 3.618628e+001
4.069858e+002, 3.633938e+001
4.074679e+002, 3.670190e+001
4.079500e+002, 3.715217e+001
4.084321e+002, 3.738886e+001
4.089142e+002, 3.720556e+001
4.093964e+002, 3.670846e+001
4.098785e+002, 3.638777e+001
4.103606e+002, 3.641347e+001
4.108427e+002, 3.640664e+001
4.113248e+002, 3.628374e+001
4.118069e+002, 3.614292e+001
4.122891e+002, 3.608076e+001
4.127712e+002, 3.612090e+001
4.132533e+002, 3.621703e+001
4.137354e+002, 3.631796e+001
4.142175e+002, 3.643563e+001
4.146996e+002, 3.651104e+001
4.151818e+002, 3.648856e+001
4.156639e+002, 3.647451e+001
4.161460e+002, 3.655481e+001
4.166281e+002, 3.667890e+001
4.171102e+002, 3.671954e+001
4.175923e+002, 3.657944e+001
4.180745e+002, 3.631234e+001
4.185566e+002, 3.609238e+001
4.190387e+002, 3.591497e+001
4.195208e+002, 3.580080e+001
4.200029e+002, 3.573869e+001
4.204850e+002, 3.574731e+001
4.209672e+002, 3.589769e+001
4.214493e+002, 3.621306e+001
4.219314e+002, 3.649003e+001
4.224135e+002, 3.645014e+001
4.228956e+002, 3.611509e+001
4.233777e+002, 3.594336e+001
4.238599e+002, 3.606964e+001
4.243420e+002, 3.628655e+001
4.248241e+002, 3.647539e+001
4.253062e+002, 3.662550e+001
4.257883e+002, 3.669378e+001
4.262704e+002, 3.663432e+001
4.267526e+002, 3.649535e+001
4.272347e+002, 3.630384e+001
4.277168e+002, 3.604984e+001
4.281989e+002, 3.591265e+001
4.286810e+002, 3.603979e+001
4.291631e+002, 3.632585e+001
4.296453e+002, 3.652267e+001
4.301274e+002, 3.661132e+001
4.306095e+002, 3.665232e+001
4.310916e+002, 3.669505e+001
4.315737e+002, 3.670797e+001
4.320558e+002, 3.660240e+001
4.325380e+002, 3.634428e+001
4.330201e+002, 3.605346e+001
4.335022e+002, 3.586457e+001
4.339843e+002, 3.579103e+001
4.344664e+002, 3.574674e+001
4.349485e+002, 3.578342e+001
4.354307e+002, 3.580195e+001
4.359128e+002, 3.572552e+001
4.363949e+002, 3.557067e+001
4.368770e+002, 3.538646e+001
4.373591e+002, 3.518721e+001
4.378412e+002, 3.500829e+001
4.383234e+002, 3.499055e+001
4.388055e+002, 3.536063e+001
4.392876e+002, 3.560296e+001
4.397697e+002, 3.555925e+001
4.402518e+002, 3.544319e+001
4.407339e+002, 3.549362e+001
4.412160e+002, 3.573749e+001
4.416982e+002, 3.597868e+001
4.421803e+002, 3.597170e+001
4.426624e+002, 3.566412e+001
4.431445e+002, 3.549323e+001
4.436266e+002, 3.557899e+001
4.441087e+002, 3.567993e+001
4.445909e+002, 3.573753e+001
4.450730e+002, 3.575789e+001
4.455551e+002, 3.577233e+001
4.460372e+002, 3.580187e+001
4.465193e+002, 3.580544e+001
4.470014e+002, 3.566450e+001
4.474836e+002, 3.530063e+001
4.479657e+002, 3.502720e+001
4.484478e+002, 3.490718e+001
4.489299e+002, 3.489231e+001
4.494120e+002, 3.496465e+001
4.498941e+002, 3.512023e+001
4.503763e+002, 3.535473e+001
4.508584e+002, 3.583257e+001
4.513405e+002, 3.642005e+001
4.518226e+002, 3.641859e+001
4.523047e+002, 3.553432e+001
4.527868e+002, 3.476735e+001
4.532690e+002, 3.489295e+001
4.537511e+002, 3.546560e+001
4.542332e+002, 3.587383e+001
4.547153e+002, 3.593474e+001
4.551974e+002, 3.591145e+001
4.556795e+002, 3.604660e+001
4.561617e+002, 3.629189e+001
4.566438e+002, 3.643794e+001
4.571259e+002, 3.642061e+001
4.576080e+002, 3.629415e+001
4.580901e+002, 3.609035e+001
4.585722e+002, 3.580887e+001
4.590544e+002, 3.557612e+001
4.595365e+002, 3.533648e+001
4.600186e+002, 3.521233e+001
4.605007e+002, 3.544439e+001
4.609828e+002, 3.595137e+001
4.614649e+002, 3.626487e+001
4.619471e+002, 3.605289e+001
4.624292e+002, 3.547455e+001
4.629113e+002, 3.518997e+001
4.633934e+002, 3.544691e+001
4.638755e+002, 3.565106e+001
4.643576e+002, 3.574282e+001
4.648398e+002, 3.574759e+001
4.653219e+002, 3.562709e+001
4.658040e+002, 3.540575e+001
4.662861e+002, 3.526250e+001
4.667682e+002, 3.543343e+001
4.672503e+002, 3.598356e+001
4.677325e+002, 3.622534e+001
4.682146e+002, 3.581317e+001
4.686967e+002, 3.545691e+001
4.691788e+002, 3.536889e+001
4.696609e+002, 3.545057e+001
4.701430e+002, 3.555974e+001
4.706252e+002, 3.563713e+001
4.711073e+002, 3.566912e+001
4.715894e+002, 3.560633e+001
4.720715e+002, 3.540942e+001
4.725536e+002, 3.529338e+001
4.730357e+002, 3.539051e+001
4.735179e+002, 3.549143e+001
4.740000e+002, 3.549542e+001
4.744821e+002, 3.540019e+001
4.749642e+002, 3.522469e+001
4.754463e+002, 3.483221e+001
4.759284e+002, 3.441977e+001
4.764106e+002, 3.453821e+001
4.768927e+002, 3.530116e+001
4.773748e+002, 3.586652e+001
4.778569e+002, 3.570483e+001
4.783390e+002, 3.517683e+001
4.788211e+002, 3.483412e+001
4.793033e+002, 3.469320e+001
4.797854e+002, 3.475564e+001
4.802675e+002, 3.522197e+001
4.807496e+002, 3.584289e+001
4.812317e+002, 3.612206e+001
4.817138e+002, 3.596204e+001
4.821959e+002, 3.570044e+001
4.826780e+002, 3.562465e+001
4.831602e+002, 3.573684e+001
4.836423e+002, 3.584082e+001
4.841244e+002, 3.604541e+001
4.846065e+002, 3.612581e+001
4.850886e+002, 3.585703e+001
4.855707e+002, 3.542985e+001
4.860529e+002, 3.520542e+001
4.865350e+002, 3.531586e+001
4.870171e+002, 3.555629e+001
4.874992e+002, 3.557163e+001
4.879813e+002, 3.519469e+001
4.884634e+002, 3.505743e+001
4.889456e+002, 3.548115e+001
4.894277e+002, 3.579810e+001
4.899098e+002, 3.553144e+001
4.903919e+002, 3.489906e+001
4.908740e+002, 3.443208e+001
4.913561e+002, 3.446086e+001
4.918383e+002, 3.483683e+001
4.923204e+002, 3.518387e+001
4.928025e+002, 3.553923e+001
4.932846e+002, 3.576019e+001
4.937667e+002, 3.573171e+001
4.942488e+002, 3.561683e+001
4.947310e+002, 3.546699e+001
4.952131e+002, 3.530884e+001
4.956952e+002, 3.524269e+001
4.961773e+002, 3.541154e+001
4.966594e+002, 3.571965e+001
4.971415e+002, 3.591789e+001
4.976237e+002, 3.600286e+001
4.981058e+002, 3.595967e+001
4.985879e+002, 3.564848e+001
4.990700e+002, 3.525300e+001
4.995521e+002, 3.513765e+001
5.000342e+002, 3.542276e+001
5.005164e+002, 3.573597e+001
5.009985e+002, 3.587719e+001
5.014806e+002, 3.592728e+001
5.019627e+002, 3.606768e+001
5.024448e+002, 3.633709e+001
5.029269e+002, 3.654284e+001
5.034091e+002, 3.647701e+001
5.038912e+002, 3.612656e+001
5.043733e+002, 3.589193e+001
5.048554e+002, 3.591452e+001
5.053375e+002, 3.588187e+001
5.058196e+002, 3.558297e+001
5.063018e+002, 3.518713e+001
5.067839e+002, 3.497586e+001
5.072660e+002, 3.504506e+001
5.077481e+002, 3.523708e+001
5.082302e+002, 3.531017e+001
5.087123e+002, 3.522929e+001
5.091945e+002, 3.515619e+001
5.096766e+002, 3.508440e+001
5.101587e+002, 3.502705e+001
5.106408e+002, 3.498686e+001
5.111229e+002, 3.496513e+001
5.116050e+002, 3.495679e+001
5.120872e+002, 3.495270e+001
5.125693e+002, 3.498316e+001
5.130514e+002, 3.517155e+001
5.135335e+002, 3.557141e+001
5.140156e+002, 3.570526e+001
5.144977e+002, 3.527036e+001
5.149799e+002, 3.473085e+001
5.154620e+002, 3.447996e+001
5.159441e+002, 3.448620e+001
5.164262e+002, 3.451022e+001
5.169083e+002, 3.439107e+001
5.173904e+002, 3.426963e+001
5.178726e+002, 3.439067e+001
5.183547e+002, 3.473236e+001
5.188368e+002, 3.496364e+001
5.193189e+002, 3.489931e+001
5.198010e+002, 3.466579e+001
5.202831e+002, 3.455849e+001
5.207653e+002, 3.463641e+001
5.212474e+002, 3.464048e+001
5.217295e+002, 3.441914e+001
5.222116e+002, 3.418215e+001
5.226937e+002, 3.410349e+001
5.231758e+002, 3.419369e+001
5.236580e+002, 3.442267e+001
5.241401e+002, 3.480614e+001
5.246222e+002, 3.525866e+001
5.251043e+002, 3.531861e+001
5.255864e+002, 3.447476e+001
5.260685e+002, 3.396971e+001
5.265507e+002, 3.414505e+001
5.270328e+002, 3.451813e+001
5.275149e+002, 3.472283e+001
5.279970e+002, 3.470547e+001
5.284791e+002, 3.459865e+001
5.289612e+002, 3.447719e+001
5.294434e+002, 3.436074e+001
5.299255e+002, 3.439875e+001
5.304076e+002, 3.468547e+001
5.308897e+002, 3.490726e+001
5.313718e+002, 3.485625e+001
5.318539e+002, 3.470580e+001
5.323361e+002, 3.465483e+001
5.328182e+002, 3.475610e+001
5.333003e+002, 3.478931e+001
5.337824e+002, 3.451677e+001
5.342645e+002, 3.409168e+001
5.347466e+002, 3.384505e+001
5.352288e+002, 3.382470e+001
5.357109e+002, 3.391060e+001
5.361930e+002, 3.404830e+001
5.366751e+002, 3.421870e+001
5.371572e+002, 3.430699e+001
5.376393e+002, 3.422292e+001
5.381215e+002, 3.417490e+001
5.386036e+002, 3.429440e+001
5.390857e+002, 3.444901e+001
5.395678e+002, 3.444115e+001
5.400499e+002, 3.424638e+001
5.405320e+002, 3.403590e+001
5.410142e+002, 3.399955e+001
5.414963e+002, 3.414454e+001
5.419784e+002, 3.421299e+001
5.424604e+002, 3.417025e+001
5.429426e+002, 3.408496e+001
5.434247e+002, 3.391648e+001
5.439068e+002, 3.373871e+001
5.443889e+002, 3.363056e+001
5.448710e+002, 3.361301e+001
5.453531e+002, 3.365742e+001
5.458353e+002, 3.374476e+001
5.463174e+002, 3.387257e+001
5.467995e+002, 3.402672e+001
5.472816e+002, 3.425961e+001
5.477637e+002, 3.440560e+001
5.482458e+002, 3.426441e+001
5.487280e+002, 3.398751e+001
5.492101e+002, 3.381678e+001
5.496922e+002, 3.381760e+001
5.501743e+002, 3.387547e+001
5.506564e+002, 3.396584e+001
5.511385e+002, 3.405346e+001
5.516207e+002, 3.404701e+001
5.521028e+002, 3.392551e+001
5.525849e+002, 3.378261e+001
5.530670e+002, 3.369353e+001
5.535491e+002, 3.365890e+001
5.540313e+002, 3.371461e+001
5.545134e+002, 3.401320e+001
5.549955e+002, 3.420671e+001
5.554776e+002, 3.417808e+001
5.559597e+002, 3.400254e+001
5.564418e+002, 3.370911e+001
5.569240e+002, 3.333479e+001
5.574061e+002, 3.304112e+001
5.578882e+002, 3.303569e+001
5.583703e+002, 3.332921e+001
5.588524e+002, 3.359769e+001
5.593345e+002, 3.383380e+001
5.598167e+002, 3.404965e+001
5.602988e+002, 3.427933e+001
5.607809e+002, 3.448095e+001
5.612630e+002, 3.461809e+001
5.617451e+002, 3.468456e+001
5.622272e+002, 3.464324e+001
5.627094e+002, 3.435433e+001
5.631915e+002, 3.392438e+001
5.636736e+002, 3.375343e+001
5.641557e+002, 3.393315e+001
5.646378e+002, 3.413136e+001
5.651199e+002, 3.408794e+001
5.656021e+002, 3.386667e+001
5.660842e+002, 3.377161e+001
5.665663e+002, 3.395669e+001
5.670484e+002, 3.404887e+001
5.675305e+002, 3.377629e+001
5.680126e+002, 3.340998e+001
5.684948e+002, 3.334211e+001
5.689769e+002, 3.361092e+001
5.694590e+002, 3.390303e+001
5.699411e+002, 3.391158e+001
5.704232e+002, 3.365776e+001
5.709053e+002, 3.354404e+001
5.713875e+002, 3.363012e+001
5.718696e+002, 3.378679e+001
5.723517e+002, 3.419433e+001
5.728338e+002, 3.453672e+001
5.733159e+002, 3.440271e+001
5.737980e+002, 3.379207e+001
5.742802e+002, 3.323683e+001
5.747623e+002, 3.326033e+001
5.752444e+002, 3.373140e+001
5.757265e+002, 3.413489e+001
5.762086e+002, 3.448564e+001
5.766907e+002, 3.470105e+001
5.771729e+002, 3.468205e+001
5.776550e+002, 3.452998e+001
5.781371e+002, 3.439738e+001
5.786192e+002, 3.427272e+001
5.791013e+002, 3.423158e+001
5.795834e+002, 3.433882e+001
5.800656e+002, 3.452308e+001
5.805477e+002, 3.472409e+001
5.810298e+002, 3.492736e+001
5.815119e+002, 3.510556e+001
5.819940e+002, 3.523717e+001
5.824761e+002, 3.533880e+001
5.829583e+002, 3.547422e+001
5.834404e+002, 3.581929e+001
5.839225e+002, 3.591793e+001
5.844046e+002, 3.544380e+001
5.848867e+002, 3.500293e+001
5.853688e+002, 3.505888e+001
5.858510e+002, 3.552074e+001
5.863331e+002, 3.600182e+001
5.868152e+002, 3.628009e+001
5.872973e+002, 3.638859e+001
5.877794e+002, 3.635493e+001
5.882615e+002, 3.614563e+001
5.887437e+002, 3.602654e+001
5.892258e+002, 3.609856e+001
5.897079e+002, 3.624316e+001
5.901900e+002, 3.637376e+001
5.906721e+002, 3.648530e+001
5.911542e+002, 3.653762e+001
5.916364e+002, 3.650630e+001
5.921185e+002, 3.642151e+001
5.926006e+002, 3.628172e+001
5.930827e+002, 3.610847e+001
5.935648e+002, 3.593713e+001
5.940469e+002, 3.577351e+001
5.945291e+002, 3.570482e+001
5.950112e+002, 3.589687e+001
5.954933e+002, 3.648804e+001
5.959754e+002, 3.669994e+001
5.964575e+002, 3.633305e+001
5.969396e+002, 3.587033e+001
5.974218e+002, 3.536355e+001
5.979039e+002, 3.490881e+001
5.983860e+002, 3.465155e+001
5.988681e+002, 3.463437e+001
5.993502e+002, 3.468536e+001
5.998323e+002, 3.457752e+001
6.003145e+002, 3.431836e+001
6.007966e+002, 3.412339e+001
6.012787e+002, 3.397726e+001
6.017608e+002, 3.394893e+001
6.022429e+002, 3.425368e+001
6.027250e+002, 3.464874e+001
6.032072e+002, 3.472097e+001
6.036893e+002, 3.431548e+001
6.041714e+002, 3.390526e+001
6.046535e+002, 3.369115e+001
6.051356e+002, 3.363430e+001
6.056177e+002, 3.377309e+001
6.060999e+002, 3.407138e+001
6.065820e+002, 3.420576e+001
6.070641e+002, 3.389489e+001
6.075462e+002, 3.328517e+001
6.080283e+002, 3.304417e+001
6.085104e+002, 3.356605e+001
6.089926e+002, 3.390481e+001
6.094747e+002, 3.393429e+001
6.099568e+002, 3.384986e+001
6.104389e+002, 3.371050e+001
6.109210e+002, 3.357677e+001
6.114031e+002, 3.357691e+001
6.118853e+002, 3.382850e+001
6.123674e+002, 3.420280e+001
6.128495e+002, 3.444063e+001
6.133316e+002, 3.453762e+001
6.138137e+002, 3.455664e+001
6.142958e+002, 3.448980e+001
6.147780e+002, 3.437966e+001
6.152601e+002, 3.422892e+001
6.157422e+002, 3.405407e+001
6.162243e+002, 3.397820e+001
6.167064e+002, 3.414248e+001
6.171885e+002, 3.429784e+001
6.176707e+002, 3.429179e+001
6.181528e+002, 3.415953e+001
6.186349e+002, 3.394088e+001
6.191170e+002, 3.365422e+001
6.195991e+002, 3.340030e+001
6.200812e+002, 3.330117e+001
6.205634e+002, 3.336447e+001
6.210455e+002, 3.346441e+001
6.215276e+002, 3.374784e+001
6.220097e+002, 3.388079e+001
6.224918e+002, 3.361943e+001
6.229739e+002, 3.327540e+001
6.234561e+002, 3.320563e+001
6.239382e+002, 3.346255e+001
6.244203e+002, 3.375416e+001
6.249023e+002, 3.385056e+001
6.253845e+002, 3.380006e+001
6.258666e+002, 3.371026e+001
6.263487e+002, 3.357795e+001
6.268308e+002, 3.346267e+001
6.273129e+002, 3.335415e+001
6.277950e+002, 3.331331e+001
6.282772e+002, 3.354901e+001
6.287593e+002, 3.419281e+001
6.292414e+002, 3.446505e+001
6.297235e+002, 3.390706e+001
6.302056e+002, 3.325031e+001
6.306877e+002, 3.298458e+001
6.311699e+002, 3.303674e+001
6.316520e+002, 3.315797e+001
6.321341e+002, 3.323412e+001
6.326162e+002, 3.327906e+001
6.330983e+002, 3.331091e+001
6.335804e+002, 3.332497e+001
6.340626e+002, 3.334763e+001
6.345447e+002, 3.334060e+001
6.350268e+002, 3.339670e+001
6.355089e+002, 3.361691e+001
6.359910e+002, 3.389910e+001
6.364731e+002, 3.407904e+001
6.369553e+002, 3.410067e+001
6.374374e+002, 3.409483e+001
6.379195e+002, 3.422411e+001
6.384016e+002, 3.436856e+001
6.388837e+002, 3.422404e+001
6.393658e+002, 3.377187e+001
6.398480e+002, 3.341447e+001
6.403301e+002, 3.343987e+001
6.408122e+002, 3.372290e+001
6.412943e+002, 3.384457e+001
6.417764e+002, 3.365921e+001
6.422585e+002, 3.351900e+001
6.427407e+002, 3.339548e+001
6.432228e+002, 3.334174e+001
6.437049e+002, 3.345956e+001
6.441870e+002, 3.367287e+001
6.446691e+002, 3.378244e+001
6.451512e+002, 3.366642e+001
6.456334e+002, 3.348137e+001
6.461155e+002, 3.351258e+001
6.465976e+002, 3.375770e+001
6.470797e+002, 3.391096e+001
6.475618e+002, 3.391730e+001
6.480439e+002, 3.384297e+001
6.485261e+002, 3.363036e+001
6.490082e+002, 3.337634e+001
6.494903e+002, 3.340560e+001
6.499724e+002, 3.397137e+001
6.504545e+002, 3.446851e+001
6.509366e+002, 3.466816e+001
6.514188e+002, 3.466586e+001
6.519009e+002, 3.450223e+001
6.523830e+002, 3.422820e+001
6.528651e+002, 3.398794e+001
6.533472e+002, 3.387748e+001
6.538293e+002, 3.390627e+001
6.543115e+002, 3.416648e+001
6.547936e+002, 3.488795e+001
6.552757e+002, 3.527913e+001
6.557578e+002, 3.488725e+001
6.562399e+002, 3.442778e+001
6.567220e+002, 3.426635e+001
6.572042e+002, 3.436241e+001
6.576863e+002, 3.454603e+001
6.581684e+002, 3.484066e+001
6.586505e+002, 3.505955e+001
6.591326e+002, 3.495772e+001
6.596147e+002, 3.464106e+001
6.600969e+002, 3.438636e+001
6.605790e+002, 3.425221e+001
6.610611e+002, 3.422907e+001
6.615432e+002, 3.433271e+001
6.620253e+002, 3.454497e+001
6.625074e+002, 3.466679e+001
6.629896e+002, 3.459913e+001
6.634717e+002, 3.457149e+001
6.639538e+002, 3.467908e+001
6.644359e+002, 3.477613e+001
6.649180e+002, 3.470386e+001
6.654001e+002, 3.450128e+001
6.658823e+002, 3.436485e+001
6.663644e+002, 3.444978e+001
6.668465e+002, 3.461133e+001
6.673286e+002, 3.456575e+001
6.678107e+002, 3.431959e+001
6.682928e+002, 3.407450e+001
6.687750e+002, 3.382180e+001
6.692571e+002, 3.371758e+001
6.697392e+002, 3.402971e+001
6.702213e+002, 3.468919e+001
6.707034e+002, 3.499398e+001
6.711855e+002, 3.453960e+001
6.716677e+002, 3.421394e+001
6.721498e+002, 3.442619e+001
6.726319e+002, 3.483235e+001
6.731140e+002, 3.513526e+001
6.735961e+002, 3.524914e+001
6.740782e+002, 3.509790e+001
6.745604e+002, 3.455481e+001
6.750425e+002, 3.381787e+001
6.755246e+002, 3.356524e+001
6.760067e+002, 3.389734e+001
6.764888e+002, 3.428629e+001
6.769709e+002, 3.479243e+001
6.774531e+002, 3.514025e+001
6.779352e+002, 3.501088e+001
6.784173e+002, 3.453902e+001
6.788994e+002, 3.420632e+001
6.793815e+002, 3.417885e+001
6.798636e+002, 3.424351e+001
6.803458e+002, 3.426464e+001
6.808279e+002, 3.430108e+001
6.813100e+002, 3.447935e+001
6.817921e+002, 3.480225e+001
6.822742e+002, 3.512797e+001
6.827563e+002, 3.534721e+001
6.832385e+002, 3.546417e+001
6.837206e+002, 3.550492e+001
6.842027e+002, 3.548470e+001
6.846848e+002, 3.535407e+001
6.851669e+002, 3.499518e+001
6.856490e+002, 3.462157e+001
6.861312e+002, 3.431461e+001
6.866133e+002, 3.409420e+001
6.870954e+002, 3.400088e+001
6.875775e+002, 3.410292e+001
6.880596e+002, 3.424403e+001
6.885417e+002, 3.427691e+001
6.890239e+002, 3.424438e+001
6.895060e+002, 3.424166e+001
6.899881e+002, 3.428656e+001
6.904702e+002, 3.435981e+001
6.909523e+002, 3.444733e+001
6.914344e+002, 3.455034e+001
6.919166e+002, 3.468127e+001
6.923987e+002, 3.493977e+001
6.928808e+002, 3.506199e+001
6.933629e+002, 3.496362e+001
6.938450e+002, 3.480104e+001
6.943271e+002, 3.459381e+001
6.948093e+002, 3.440477e+001
6.952914e+002, 3.437321e+001
6.957735e+002, 3.459264e+001
6.962556e+002, 3.488615e+001
6.967377e+002, 3.511066e+001
6.972198e+002, 3.524865e+001
6.977020e+002, 3.523776e+001
6.981841e+002, 3.506697e+001
6.986662e+002, 3.473598e+001
6.991483e+002, 3.415191e+001
6.996304e+002, 3.346387e+001
7.001125e+002, 3.325513e+001
7.005947e+002, 3.402993e+001
7.010768e+002, 3.451790e+001
7.015589e+002, 3.447834e+001
7.020410e+002, 3.435766e+001
7.025231e+002, 3.445706e+001
7.030052e+002, 3.468687e+001
7.034874e+002, 3.478345e+001
7.039695e+002, 3.461935e+001
7.044516e+002, 3.442244e+001
7.049337e+002, 3.452576e+001
7.054158e+002, 3.485404e+001
7.058979e+002, 3.504387e+001
7.063801e+002, 3.505734e+001
7.068622e+002, 3.495290e+001
7.073442e+002, 3.473568e+001
7.078264e+002, 3.444257e+001
7.083085e+002, 3.414913e+001
7.087906e+002, 3.378221e+001
7.092727e+002, 3.359868e+001
7.097548e+002, 3.375330e+001
7.102369e+002, 3.396022e+001
7.107191e+002, 3.403526e+001
7.112012e+002, 3.404494e+001
7.116833e+002, 3.414974e+001
7.121654e+002, 3.440546e+001
7.126475e+002, 3.466758e+001
7.131296e+002, 3.479237e+001
7.136118e+002, 3.478300e+001
7.140939e+002, 3.461475e+001
7.145760e+002, 3.425118e+001
7.150581e+002, 3.395668e+001
7.155402e+002, 3.383342e+001
7.160223e+002, 3.386716e+001
7.165045e+002, 3.410017e+001
7.169866e+002, 3.459855e+001
7.174687e+002, 3.488143e+001
7.179508e+002, 3.479460e+001
7.184329e+002, 3.460419e+001
7.189150e+002, 3.436825e+001
7.193972e+002, 3.414338e+001
7.198793e+002, 3.395690e+001
7.203614e+002, 3.383451e+001
7.208435e+002, 3.388320e+001
7.213256e+002, 3.433832e+001
7.218077e+002, 3.502133e+001
7.222899e+002, 3.515274e+001
7.227720e+002, 3.466046e+001
7.232541e+002, 3.420432e+001
7.237362e+002, 3.394547e+001
7.242183e+002, 3.387889e+001
7.247004e+002, 3.409729e+001
7.251826e+002, 3.459277e+001
7.256647e+002, 3.485372e+001
7.261468e+002, 3.466253e+001
7.266289e+002, 3.446296e+001
7.271110e+002, 3.439032e+001
7.275931e+002, 3.440811e+001
7.280753e+002, 3.452334e+001
7.285574e+002, 3.469759e+001
7.290395e+002, 3.479528e+001
7.295216e+002, 3.470219e+001
7.300037e+002, 3.449575e+001
7.304858e+002, 3.434693e+001
7.309680e+002, 3.425755e+001
7.314501e+002, 3.417611e+001
7.319322e+002, 3.407569e+001
7.324143e+002, 3.402044e+001
7.328964e+002, 3.406254e+001
7.333785e+002, 3.419771e+001
7.338607e+002, 3.438919e+001
7.343428e+002, 3.482006e+001
7.348249e+002, 3.502310e+001
7.353070e+002, 3.467251e+001
7.357891e+002, 3.424403e+001
7.362712e+002, 3.414807e+001
7.367534e+002, 3.432522e+001
7.372355e+002, 3.450248e+001
7.377176e+002, 3.454742e+001
7.381997e+002, 3.451902e+001
7.386818e+002, 3.449356e+001
7.391639e+002, 3.447124e+001
7.396461e+002, 3.445076e+001
7.401282e+002, 3.442871e+001
7.406103e+002, 3.441827e+001
7.410924e+002, 3.439740e+001
7.415745e+002, 3.441417e+001
7.420566e+002, 3.462033e+001
7.425388e+002, 3.513769e+001
7.430209e+002, 3.541400e+001
7.435030e+002, 3.515299e+001
7.439851e+002, 3.490256e+001
7.444672e+002, 3.506892e+001
7.449493e+002, 3.539177e+001
7.454315e+002, 3.539080e+001
7.459136e+002, 3.495988e+001
7.463957e+002, 3.451844e+001
7.468778e+002, 3.452222e+001
7.473599e+002, 3.482335e+001
7.478420e+002, 3.495206e+001
7.483242e+002, 3.490325e+001
7.488063e+002, 3.489606e+001
7.492884e+002, 3.499698e+001
7.497705e+002, 3.519127e+001
7.502526e+002, 3.554081e+001
7.507347e+002, 3.607043e+001
7.512169e+002, 3.616652e+001
7.516990e+002, 3.543450e+001
7.521811e+002, 3.481984e+001
7.526632e+002, 3.453021e+001
7.531453e+002, 3.444273e+001
7.536274e+002, 3.449154e+001
7.541096e+002, 3.463342e+001
7.545917e+002, 3.479668e+001
7.550738e+002, 3.495965e+001
7.555559e+002, 3.508648e+001
7.560380e+002, 3.508620e+001
7.565201e+002, 3.499851e+001
7.570023e+002, 3.502370e+001
7.574844e+002, 3.520324e+001
7.579665e+002, 3.534568e+001
7.584486e+002, 3.529774e+001
7.589307e+002, 3.512814e+001
7.594128e+002, 3.507152e+001
7.598950e+002, 3.524390e+001
7.603771e+002, 3.531753e+001
7.608592e+002, 3.526451e+001
7.613413e+002, 3.514919e+001
7.618234e+002, 3.491306e+001
7.623055e+002, 3.466659e+001
7.627877e+002, 3.461335e+001
7.632698e+002, 3.481849e+001
7.637519e+002, 3.499654e+001
7.642340e+002, 3.484093e+001
7.647161e+002, 3.457435e+001
7.651982e+002, 3.461518e+001
7.656804e+002, 3.490716e+001
7.661625e+002, 3.502978e+001
7.666446e+002, 3.481006e+001
7.671267e+002, 3.451060e+001
7.676088e+002, 3.447075e+001
7.680909e+002, 3.469747e+001
7.685731e+002, 3.502832e+001
7.690552e+002, 3.570459e+001
7.695373e+002, 3.608672e+001
7.700194e+002, 3.577650e+001
7.705015e+002, 3.533845e+001
7.709836e+002, 3.520543e+001
7.714658e+002, 3.535474e+001
7.719479e+002, 3.553125e+001
7.724300e+002, 3.571725e+001
7.729121e+002, 3.580928e+001
7.733942e+002, 3.564059e+001
7.738763e+002, 3.537211e+001
7.743585e+002, 3.526434e+001
7.748406e+002, 3.533687e+001
7.753227e+002, 3.545655e+001
7.758048e+002, 3.554292e+001
7.762869e+002, 3.558759e+001
7.767690e+002, 3.556634e+001
7.772512e+002, 3.547309e+001
7.777333e+002, 3.534293e+001
7.782154e+002, 3.511354e+001
7.786975e+002, 3.496873e+001
7.791796e+002, 3.509890e+001
7.796617e+002, 3.533837e+001
7.801439e+002, 3.540111e+001
7.806260e+002, 3.524537e+001
7.811081e+002, 3.508367e+001
7.815902e+002, 3.486951e+001
7.820723e+002, 3.476211e+001
7.825544e+002, 3.497159e+001
7.830366e+002, 3.531959e+001
7.835187e+002, 3.547912e+001
7.840008e+002, 3.538481e+001
7.844829e+002, 3.528119e+001
7.849650e+002, 3.541760e+001
7.854471e+002, 3.570150e+001
7.859293e+002, 3.586686e+001
7.864114e+002, 3.591258e+001
7.868935e+002, 3.583094e+001
7.873756e+002, 3.554799e+001
7.878577e+002, 3.536708e+001
7.883398e+002, 3.565087e+001
7.888220e+002, 3.631415e+001
7.893040e+002, 3.662071e+001
7.897861e+002, 3.629446e+001
7.902682e+002, 3.602818e+001
7.907504e+002, 3.587585e+001
7.912325e+002, 3.579541e+001
7.917146e+002, 3.579037e+001
7.921967e+002, 3.582845e+001
7.926788e+002, 3.584923e+001
7.931609e+002, 3.582842e+001
7.936431e+002, 3.581089e+001
7.941252e+002, 3.583492e+001
7.946073e+002, 3.588930e+001
7.950894e+002, 3.597084e+001
7.955715e+002, 3.606965e+001
7.960536e+002, 3.613438e+001
7.965358e+002, 3.614601e+001
7.970179e+002, 3.608542e+001
7.975000e+002, 3.588717e+001
7.979821e+002, 3.553235e+001
7.984642e+002, 3.552239e+001
7.989464e+002, 3.617326e+001
7.994285e+002, 3.659614e+001
7.999106e+002, 3.642776e+001
8.003927e+002, 3.606325e+001
8.008748e+002, 3.566362e+001
8.013569e+002, 3.529404e+001
8.018391e+002, 3.521552e+001
8.023212e+002, 3.578979e+001
8.028033e+002, 3.623907e+001
8.032854e+002, 3.596678e+001
8.037675e+002, 3.546880e+001
8.042496e+002, 3.532452e+001
8.047318e+002, 3.553606e+001
8.052139e+002, 3.584773e+001
8.056960e+002, 3.612769e+001
8.061781e+002, 3.634868e+001
8.066602e+002, 3.647781e+001
8.071423e+002, 3.651327e+001
8.076245e+002, 3.638795e+001
8.081066e+002, 3.605920e+001
8.085887e+002, 3.576749e+001
8.090708e+002, 3.560362e+001
8.095529e+002, 3.555441e+001
8.100350e+002, 3.562913e+001
8.105172e+002, 3.586095e+001
8.109993e+002, 3.599437e+001
8.114814e+002, 3.601021e+001
8.119635e+002, 3.595390e+001
8.124456e+002, 3.572141e+001
8.129277e+002, 3.550549e+001
8.134099e+002, 3.554749e+001
8.138920e+002, 3.579722e+001
8.143741e+002, 3.595543e+001
8.148562e+002, 3.582478e+001
8.153383e+002, 3.564910e+001
8.158204e+002, 3.571372e+001
8.163026e+002, 3.591733e+001
8.167847e+002, 3.602498e+001
8.172668e+002, 3.601907e+001
8.177489e+002, 3.602655e+001
8.182310e+002, 3.612066e+001
8.187131e+002, 3.626432e+001
8.191953e+002, 3.639141e+001
8.196774e+002, 3.650441e+001
8.201595e+002, 3.658538e+001
8.206416e+002, 3.663800e+001
8.211237e+002, 3.665185e+001
8.216058e+002, 3.661192e+001
8.220880e+002, 3.653761e+001
8.225701e+002, 3.644271e+001
8.230522e+002, 3.632852e+001
8.235343e+002, 3.622411e+001
8.240164e+002, 3.610579e+001
8.244985e+002, 3.603429e+001
8.249807e+002, 3.603983e+001
8.254628e+002, 3.610337e+001
8.259449e+002, 3.625065e+001
8.264270e+002, 3.644058e+001
8.269091e+002, 3.653168e+001
8.273912e+002, 3.642553e+001
8.278734e+002, 3.628032e+001
8.283555e+002, 3.638780e+001
8.288376e+002, 3.665687e+001
8.293197e+002, 3.663120e+001
8.298018e+002, 3.626903e+001
8.302839e+002, 3.607662e+001
8.307661e+002, 3.634963e+001
8.312482e+002, 3.679129e+001
8.317303e+002, 3.689571e+001
8.322124e+002, 3.659422e+001
8.326945e+002, 3.645835e+001
8.331766e+002, 3.668323e+001
8.336588e+002, 3.679229e+001
8.341409e+002, 3.653117e+001
8.346230e+002, 3.623772e+001
8.351051e+002, 3.623914e+001
8.355872e+002, 3.647887e+001
8.360693e+002, 3.659906e+001
8.365515e+002, 3.637377e+001
8.370336e+002, 3.619709e+001
8.375157e+002, 3.637253e+001
8.379978e+002, 3.665279e+001
8.384799e+002, 3.677272e+001
8.389620e+002, 3.672231e+001
8.394442e+002, 3.656292e+001
8.399263e+002, 3.632273e+001
8.404084e+002, 3.609159e+001
8.408905e+002, 3.599889e+001
8.413726e+002, 3.602744e+001
8.418547e+002, 3.609896e+001
8.423369e+002, 3.621688e+001
8.428190e+002, 3.630439e+001
8.433011e+002, 3.634838e+001
8.437832e+002, 3.630462e+001
8.442653e+002, 3.609462e+001
8.447474e+002, 3.572408e+001
8.452296e+002, 3.545742e+001
8.457117e+002, 3.521577e+001
8.461938e+002, 3.520405e+001
8.466759e+002, 3.558036e+001
8.471580e+002, 3.605077e+001
8.476401e+002, 3.656149e+001
8.481223e+002, 3.700178e+001
8.486044e+002, 3.712249e+001
8.490865e+002, 3.678611e+001
8.495686e+002, 3.646418e+001
8.500507e+002, 3.645059e+001
8.505328e+002, 3.654333e+001
8.510150e+002, 3.654262e+001
8.514971e+002, 3.647539e+001
8.519792e+002, 3.646246e+001
8.524613e+002, 3.652815e+001
8.529434e+002, 3.653117e+001
8.534255e+002, 3.629969e+001
8.539077e+002, 3.592820e+001
8.543898e+002, 3.569407e+001
8.548719e+002, 3.559655e+001
8.553540e+002, 3.568085e+001
8.558361e+002, 3.600461e+001
8.563182e+002, 3.629016e+001
8.568004e+002, 3.629984e+001
8.572825e+002, 3.613503e+001
8.577646e+002, 3.613240e+001
8.582467e+002, 3.644065e+001
8.587288e+002, 3.658658e+001
8.592109e+002, 3.651179e+001
8.596931e+002, 3.634801e+001
8.601752e+002, 3.602427e+001
8.606573e+002, 3.570248e+001
8.611394e+002, 3.564522e+001
8.616215e+002, 3.585663e+001
8.621036e+002, 3.590606e+001
8.625858e+002, 3.541768e+001
8.630679e+002, 3.492916e+001
8.635500e+002, 3.481081e+001
8.640321e+002, 3.491992e+001
8.645142e+002, 3.511303e+001
8.649963e+002, 3.533204e+001
8.654785e+002, 3.550814e+001
8.659606e+002, 3.560923e+001
8.664427e+002, 3.559155e+001
8.669248e+002, 3.529958e+001
8.674069e+002, 3.480974e+001
8.678890e+002, 3.455996e+001
8.683712e+002, 3.458302e+001
8.688533e+002, 3.457688e+001
8.693354e+002, 3.438908e+001
8.698175e+002, 3.422380e+001
8.702996e+002, 3.440308e+001
8.707817e+002, 3.493309e+001
8.712639e+002, 3.508213e+001
8.717459e+002, 3.447558e+001
8.722280e+002, 3.414796e+001
8.727101e+002, 3.455407e+001
8.731923e+002, 3.502261e+001
8.736744e+002, 3.513905e+001
8.741565e+002, 3.501056e+001
8.746386e+002, 3.491949e+001
8.751207e+002, 3.491543e+001
8.756028e+002, 3.493600e+001
8.760850e+002, 3.505444e+001
8.765671e+002, 3.509879e+001
8.770492e+002, 3.484167e+001
8.775313e+002, 3.445795e+001
8.780134e+002, 3.427356e+001
8.784955e+002, 3.434335e+001
8.789777e+002, 3.442467e+001
8.794598e+002, 3.433273e+001
8.799419e+002, 3.413905e+001
8.804240e+002, 3.391286e+001
8.809061e+002, 3.368418e+001
8.813882e+002, 3.358793e+001
8.818704e+002, 3.363808e+001
8.823525e+002, 3.368510e+001
8.828346e+002, 3.362495e+001
8.833167e+002, 3.354759e+001
8.837988e+002, 3.368883e+001
8.842809e+002, 3.411736e+001
8.847631e+002, 3.421753e+001
8.852452e+002, 3.383385e+001
8.857273e+002, 3.350494e+001
8.862094e+002, 3.343312e+001
8.866915e+002, 3.347887e+001
8.871736e+002, 3.348811e+001
8.876558e+002, 3.346661e+001
8.881379e+002, 3.350505e+001
8.886200e+002, 3.372685e+001
8.891021e+002, 3.383781e+001
8.895842e+002, 3.368154e+001
8.900663e+002, 3.349876e+001
8.905485e+002, 3.351756e+001
8.910306e+002, 3.361843e+001
8.915127e+002, 3.351131e+001
8.919948e+002, 3.310563e+001
8.924769e+002, 3.274880e+001
8.929590e+002, 3.267007e+001
8.934412e+002, 3.274397e+001
8.939233e+002, 3.288527e+001
8.944054e+002, 3.306172e+001
8.948875e+002, 3.323811e+001
8.953696e+002, 3.339399e+001
8.958517e+002, 3.347907e+001
8.963339e+002, 3.345228e+001
8.968160e+002, 3.334256e+001
8.972981e+002, 3.318154e+001
8.977802e+002, 3.297929e+001
8.982623e+002, 3.283620e+001
8.987444e+002, 3.276464e+001
8.992266e+002, 3.270495e+001
8.997087e+002, 3.261456e+001
9.001908e+002, 3.257264e+001
9.006729e+002, 3.275141e+001
9.011550e+002, 3.317968e+001
9.016371e+002, 3.313760e+001
9.021193e+002, 3.221164e+001
9.026014e+002, 3.158389e+001
9.030835e+002, 3.164309e+001
9.035656e+002, 3.190260e+001
9.040477e+002, 3.214032e+001
9.045298e+002, 3.231008e+001
9.050120e+002, 3.226185e+001
9.054941e+002, 3.184997e+001
9.059762e+002, 3.159410e+001
9.064583e+002, 3.168494e+001
9.069404e+002, 3.189920e+001
9.074225e+002, 3.225012e+001
9.079047e+002, 3.256498e+001
9.083868e+002, 3.256379e+001
9.088689e+002, 3.225363e+001
9.093510e+002, 3.198567e+001
9.098331e+002, 3.200047e+001
9.103152e+002, 3.209093e+001
9.107974e+002, 3.200725e+001
9.112795e+002, 3.186396e+001
9.117616e+002, 3.195398e+001
9.122437e+002, 3.222351e+001
9.127258e+002, 3.224657e+001
9.132079e+002, 3.182045e+001
9.136901e+002, 3.134791e+001
9.141722e+002, 3.145790e+001
9.146543e+002, 3.200640e+001
9.151364e+002, 3.207552e+001
9.156185e+002, 3.164122e+001
9.161006e+002, 3.146759e+001
9.165828e+002, 3.180191e+001
9.170649e+002, 3.217646e+001
9.175470e+002, 3.220039e+001
9.180291e+002, 3.196398e+001
9.185112e+002, 3.180008e+001
9.189933e+002, 3.175824e+001
9.194755e+002, 3.165402e+001
9.199576e+002, 3.138662e+001
9.204397e+002, 3.120242e+001
9.209218e+002, 3.129408e+001
9.214039e+002, 3.145589e+001
9.218860e+002, 3.145347e+001
9.223682e+002, 3.129075e+001
9.228503e+002, 3.115336e+001
9.233324e+002, 3.101531e+001
9.238145e+002, 3.097502e+001
9.242966e+002, 3.114564e+001
9.247787e+002, 3.134860e+001
9.252609e+002, 3.144089e+001
9.257430e+002, 3.145452e+001
9.262251e+002, 3.150007e+001
9.267072e+002, 3.161291e+001
9.271893e+002, 3.164335e+001
9.276714e+002, 3.137602e+001
9.281536e+002, 3.108216e+001
9.286357e+002, 3.105487e+001
9.291178e+002, 3.120105e+001
9.295999e+002, 3.136804e+001
9.300820e+002, 3.150572e+001
9.305641e+002, 3.155633e+001
9.310463e+002, 3.147405e+001
9.315284e+002, 3.134052e+001
9.320105e+002, 3.133313e+001
9.324926e+002, 3.138842e+001
9.329747e+002, 3.117442e+001
9.334568e+002, 3.069729e+001
9.339390e+002, 3.035144e+001
9.344211e+002, 3.028591e+001
9.349032e+002, 3.039532e+001
9.353853e+002, 3.058797e+001
9.358674e+002, 3.084190e+001
9.363495e+002, 3.105950e+001
9.368317e+002, 3.129739e+001
9.373138e+002, 3.119127e+001
9.377959e+002, 3.045209e+001
9.382780e+002, 2.992706e+001
9.387601e+002, 3.019167e+001
9.392422e+002, 3.086587e+001
9.397244e+002, 3.131002e+001
9.402065e+002, 3.152360e+001
9.406886e+002, 3.150403e+001
9.411707e+002, 3.099060e+001
9.416528e+002, 3.060848e+001
9.421349e+002, 3.055199e+001
9.426171e+002, 3.059618e+001
9.430992e+002, 3.060038e+001
9.435813e+002, 3.056767e+001
9.440634e+002, 3.051411e+001
9.445455e+002, 3.040580e+001
9.450276e+002, 3.042042e+001
9.455098e+002, 3.082615e+001
9.459919e+002, 3.115846e+001
9.464740e+002, 3.099027e+001
9.469561e+002, 3.062366e+001
9.474382e+002, 3.049910e+001
9.479203e+002, 3.064053e+001
9.484025e+002, 3.075493e+001
9.488846e+002, 3.067929e+001
9.493667e+002, 3.054080e+001
9.498488e+002, 3.045188e+001
9.503309e+002, 3.038365e+001
9.508130e+002, 3.023730e+001
9.512952e+002, 3.006904e+001
9.517773e+002, 3.011333e+001
9.522594e+002, 3.042868e+001
9.527415e+002, 3.073203e+001
9.532236e+002, 3.073556e+001
9.537057e+002, 3.055625e+001
9.541878e+002, 3.044971e+001
9.546699e+002, 3.041656e+001
9.551520e+002, 3.050776e+001
9.556342e+002, 3.072946e+001
9.561163e+002, 3.082776e+001
9.565984e+002, 3.065277e+001
9.570805e+002, 3.035583e+001
9.575626e+002, 3.015618e+001
9.580447e+002, 3.005419e+001
9.585269e+002, 3.017819e+001
9.590090e+002, 3.062457e+001
9.594911e+002, 3.085902e+001
9.599732e+002, 3.066623e+001
9.604553e+002, 3.048044e+001
9.609374e+002, 3.070470e+001
9.614196e+002, 3.112701e+001
9.619017e+002, 3.111900e+001
9.623838e+002, 3.045039e+001
9.628659e+002, 3.006409e+001
9.633480e+002, 3.018776e+001
9.638301e+002, 3.028788e+001
9.643123e+002, 3.012258e+001
9.647944e+002, 2.995700e+001
9.652765e+002, 3.009278e+001
9.657586e+002, 3.044470e+001
9.662407e+002, 3.058862e+001
9.667228e+002, 3.027662e+001
9.672050e+002, 3.015466e+001
9.676871e+002, 3.062581e+001
9.681692e+002, 3.103601e+001
9.686513e+002, 3.094537e+001
9.691334e+002, 3.060384e+001
9.696155e+002, 3.034204e+001
9.700977e+002, 3.020468e+001
9.705798e+002, 3.007599e+001
9.710619e+002, 2.983524e+001
9.715440e+002, 2.970625e+001
9.720261e+002, 2.991579e+001
9.725082e+002, 3.024140e+001
9.729904e+002, 3.055582e+001
9.734725e+002, 3.075850e+001
9.739546e+002, 3.059588e+001
9.744367e+002, 3.003968e+001
9.749188e+002, 2.958613e+001
9.754009e+002, 2.971856e+001
9.758831e+002, 3.006927e+001
9.763652e+002, 3.017103e+001
9.768473e+002, 3.010650e+001
9.773294e+002, 2.997466e+001
9.778115e+002, 2.984388e+001
9.782936e+002, 2.998709e+001
9.787758e+002, 3.053232e+001
9.792579e+002, 3.105861e+001
9.797400e+002, 3.094948e+001
9.802221e+002, 3.043442e+001
9.807042e+002, 3.033614e+001
9.811863e+002, 3.059224e+001
9.816685e+002, 3.066340e+001
9.821506e+002, 3.044390e+001
9.826327e+002, 3.025031e+001
9.831148e+002, 3.029963e+001
9.835969e+002, 3.044501e+001
9.840790e+002, 3.037848e+001
9.845612e+002, 3.009772e+001
9.850433e+002, 3.002226e+001
9.855254e+002, 3.020780e+001
9.860075e+002, 3.022951e+001
9.864896e+002, 2.989543e+001
9.869717e+002, 2.964629e+001
9.874539e+002, 2.990320e+001
9.879360e+002, 3.045984e+001
9.884181e+002, 3.064642e+001
9.889002e+002, 3.031777e+001
9.893823e+002, 3.013248e+001
9.898644e+002, 3.014806e+001
9.903466e+002, 3.019850e+001
9.908287e+002, 3.025925e+001
9.913108e+002, 3.030303e+001
9.917929e+002, 3.025317e+001
9.922750e+002, 3.015044e+001
9.927571e+002, 3.024962e+001
9.932393e+002, 3.083875e+001
9.937214e+002, 3.111054e+001
9.942035e+002, 3.081989e+001
9.946856e+002, 3.049183e+001
9.951677e+002, 3.021950e+001
9.956498e+002, 3.008565e+001
9.961320e+002, 3.028282e+001
9.966141e+002, 3.074426e+001
9.970962e+002, 3.096548e+001
9.975783e+002, 3.055497e+001
9.980604e+002, 3.039287e+001
9.985425e+002, 3.100780e+001
9.990247e+002, 3.161465e+001
9.995068e+002, 3.173826e+001
9.999889e+002, 3.152870e+001
1.000471e+003, 3.116611e+001
1.000953e+003, 3.071188e+001
1.001435e+003, 3.033302e+001
1.001917e+003, 3.004466e+001
1.002399e+003, 2.993143e+001
1.002882e+003, 3.021647e+001
1.003364e+003, 3.054366e+001
1.003846e+003, 3.054417e+001
1.004328e+003, 3.033744e+001
1.004810e+003, 3.021377e+001
1.005292e+003, 3.023842e+001
1.005774e+003, 3.025294e+001
1.006256e+003, 3.011257e+001
1.006739e+003, 2.998128e+001
1.007221e+003, 3.006030e+001
1.007703e+003, 3.021554e+001
1.008185e+003, 3.027253e+001
1.008667e+003, 3.022699e+001
1.009149e+003, 3.009840e+001
1.009631e+003, 2.990704e+001
1.010113e+003, 2.978542e+001
1.010595e+003, 2.992107e+001
1.011078e+003, 3.011605e+001
1.011560e+003, 3.005116e+001
1.012042e+003, 2.981713e+001
1.012524e+003, 2.956538e+001
1.013006e+003, 2.935290e+001
1.013488e+003, 2.932748e+001
1.013970e+003, 2.954958e+001
1.014452e+003, 2.984335e+001
1.014935e+003, 3.002665e+001
1.015417e+003, 3.012369e+001
1.015899e+003, 3.016782e+001
1.016381e+003, 3.017720e+001
1.016863e+003, 3.023728e+001
1.017345e+003, 3.035894e+001
1.017827e+003, 3.057307e+001
1.018309e+003, 3.091148e+001
1.018791e+003, 3.105042e+001
1.019274e+003, 3.037956e+001
1.019756e+003, 2.917153e+001
1.020238e+003, 2.884952e+001
1.020720e+003, 2.937850e+001
1.021202e+003, 2.980164e+001
1.021684e+003, 2.995334e+001
1.022166e+003, 2.999905e+001
1.022648e+003, 3.002410e+001
1.023130e+003, 3.004566e+001
1.023613e+003, 3.009818e+001
1.024095e+003, 3.017711e+001
1.024577e+003, 3.020408e+001
1.025059e+003, 3.017504e+001
1.025541e+003, 3.012455e+001
1.026023e+003, 3.005712e+001
1.026505e+003, 2.998446e+001
1.026987e+003, 2.993479e+001
1.027469e+003, 2.983212e+001
1.027952e+003, 2.949612e+001
1.028434e+003, 2.890309e+001
1.028916e+003, 2.863183e+001
1.029398e+003, 2.876300e+001
1.029880e+003, 2.894368e+001
1.030362e+003, 2.915217e+001
1.030844e+003, 2.929213e+001
1.031326e+003, 2.927985e+001
1.031809e+003, 2.917921e+001
1.032291e+003, 2.910540e+001
1.032773e+003, 2.904690e+001
1.033255e+003, 2.912675e+001
1.033737e+003, 2.945131e+001
1.034219e+003, 2.968112e+001
1.034701e+003, 2.972558e+001
1.035183e+003, 2.970063e+001
1.035666e+003, 2.964660e+001
1.036148e+003, 2.959723e+001
1.036630e+003, 2.965907e+001
1.037112e+003, 2.990164e+001
1.037594e+003, 2.985220e+001
1.038076e+003, 2.911296e+001
1.038558e+003, 2.872392e+001
1.039040e+003, 2.907162e+001
1.039522e+003, 2.959305e+001
1.040005e+003, 3.015464e+001
1.040487e+003, 3.056657e+001
1.040969e+003, 3.028259e+001
1.041451e+003, 2.903962e+001
1.041933e+003, 2.849091e+001
1.042415e+003, 2.937836e+001
1.042897e+003, 2.996051e+001
1.043379e+003, 2.967011e+001
1.043861e+003, 2.922683e+001
1.044344e+003, 2.900503e+001
1.044826e+003, 2.899014e+001
1.045308e+003, 2.918577e+001
1.045790e+003, 2.964342e+001
1.046272e+003, 2.993718e+001
1.046754e+003, 2.999553e+001
1.047236e+003, 2.992268e+001
1.047718e+003, 2.967472e+001
1.048201e+003, 2.937082e+001
1.048683e+003, 2.899722e+001
1.049165e+003, 2.865986e+001
1.049647e+003, 2.859181e+001
1.050129e+003, 2.885303e+001
1.050611e+003, 2.896860e+001
1.051093e+003, 2.868343e+001
1.051575e+003, 2.846341e+001
1.052057e+003, 2.830920e+001
1.052540e+003, 2.840064e+001
1.053022e+003, 2.923476e+001
1.053504e+003, 3.026142e+001
1.053986e+003, 3.036957e+001
1.054468e+003, 2.937833e+001
1.054950e+003, 2.863163e+001
1.055432e+003, 2.859066e+001
1.055914e+003, 2.870436e+001
1.056396e+003, 2.887324e+001
1.056879e+003, 2.904272e+001
1.057361e+003, 2.916103e+001
1.057843e+003, 2.925806e+001
1.058325e+003, 2.946498e+001
1.058807e+003, 2.978925e+001
1.059289e+003, 2.980453e+001
1.059771e+003, 2.901250e+001
1.060253e+003, 2.837394e+001
1.060736e+003, 2.833361e+001
1.061218e+003, 2.850179e+001
1.061700e+003, 2.867606e+001
1.062182e+003, 2.880388e+001
1.062664e+003, 2.881240e+001
1.063146e+003, 2.870483e+001
1.063628e+003, 2.865744e+001
1.064110e+003, 2.882955e+001
1.064593e+003, 2.893749e+001
1.065075e+003, 2.870748e+001
1.065557e+003, 2.852477e+001
1.066039e+003, 2.881599e+001
1.066521e+003, 2.928771e+001
1.067003e+003, 2.941655e+001
1.067485e+003, 2.917059e+001
1.067967e+003, 2.903375e+001
1.068449e+003, 2.933625e+001
1.068932e+003, 2.951611e+001
1.069414e+003, 2.916497e+001
1.069896e+003, 2.875600e+001
1.070378e+003, 2.863935e+001
1.070860e+003, 2.869620e+001
1.071342e+003, 2.874688e+001
1.071824e+003, 2.875959e+001
1.072306e+003, 2.876298e+001
1.072788e+003, 2.879653e+001
1.073271e+003, 2.875520e+001
1.073753e+003, 2.847949e+001
1.074235e+003, 2.822656e+001
1.074717e+003, 2.817745e+001
1.075199e+003, 2.826817e+001
1.075681e+003, 2.845009e+001
1.076163e+003, 2.867965e+001
1.076645e+003, 2.884584e+001
1.077127e+003, 2.891808e+001
1.077610e+003, 2.890258e+001
1.078092e+003, 2.872221e+001
1.078574e+003, 2.854301e+001
1.079056e+003, 2.846403e+001
1.079538e+003, 2.845897e+001
1.080020e+003, 2.852160e+001
1.080502e+003, 2.862041e+001
1.080984e+003, 2.867070e+001
1.081467e+003, 2.863647e+001
1.081949e+003, 2.860328e+001
1.082431e+003, 2.857434e+001
1.082913e+003, 2.859891e+001
1.083395e+003, 2.881099e+001
1.083877e+003, 2.901185e+001
1.084359e+003, 2.894678e+001
1.084841e+003, 2.869106e+001
1.085323e+003, 2.845890e+001
1.085806e+003, 2.828928e+001
1.086288e+003, 2.832228e+001
1.086770e+003, 2.888675e+001
1.087252e+003, 2.933341e+001
1.087734e+003, 2.920816e+001
1.088216e+003, 2.891415e+001
1.088698e+003, 2.883317e+001
1.089180e+003, 2.889094e+001
1.089662e+003, 2.880436e+001
1.090145e+003, 2.851352e+001
1.090627e+003, 2.845261e+001
1.091109e+003, 2.911466e+001
1.091591e+003, 2.959977e+001
1.092073e+003, 2.928872e+001
1.092555e+003, 2.887882e+001
1.093037e+003, 2.896754e+001
1.093519e+003, 2.932758e+001
1.094002e+003, 2.954516e+001
1.094484e+003, 2.955710e+001
1.094966e+003, 2.947250e+001
1.095448e+003, 2.918792e+001
1.095930e+003, 2.901542e+001
1.096412e+003, 2.907916e+001
1.096894e+003, 2.926261e+001
1.097376e+003, 2.961557e+001
1.097859e+003, 2.996741e+001
1.098341e+003, 3.009039e+001
1.098823e+003, 2.998793e+001
1.099305e+003, 2.984661e+001
1.099787e+003, 2.969921e+001
1.100269e+003, 2.953574e+001
1.100751e+003, 2.925603e+001
1.101233e+003, 2.907656e+001
1.101715e+003, 2.918552e+001
1.102198e+003, 2.938515e+001
1.102680e+003, 2.946831e+001
1.103162e+003, 2.945181e+001
1.103644e+003, 2.944590e+001
1.104126e+003, 2.943444e+001
1.104608e+003, 2.953777e+001
1.105090e+003, 2.997554e+001
1.105572e+003, 3.027262e+001
1.106054e+003, 3.013590e+001
1.106537e+003, 2.991311e+001
1.107019e+003, 2.988627e+001
1.107501e+003, 2.999397e+001
1.107983e+003, 3.005979e+001
1.108465e+003, 3.006234e+001
1.108947e+003, 3.007187e+001
1.109429e+003, 3.013822e+001
1.109911e+003, 3.014931e+001
1.110394e+003, 2.993740e+001
1.110876e+003, 2.981703e+001
1.111358e+003, 3.009884e+001
1.111840e+003, 3.053620e+001
1.112322e+003, 3.071597e+001
1.112804e+003, 3.062138e+001
1.113286e+003, 3.051849e+001
1.113768e+003, 3.050573e+001
1.114250e+003, 3.031542e+001
1.114733e+003, 2.969555e+001
1.115215e+003, 2.921720e+001
1.115697e+003, 2.918082e+001
1.116179e+003, 2.935362e+001
1.116661e+003, 2.950367e+001
1.117143e+003, 2.962751e+001
1.117625e+003, 2.970145e+001
1.118107e+003, 2.975115e+001
1.118589e+003, 2.968041e+001
1.119072e+003, 2.940075e+001
1.119554e+003, 2.918538e+001
1.120036e+003, 2.917899e+001
1.120518e+003, 2.915784e+001
1.121000e+003, 2.887323e+001
1.121482e+003, 2.846706e+001
1.121964e+003, 2.838373e+001
1.122446e+003, 2.870139e+001
1.122929e+003, 2.887237e+001
1.123411e+003, 2.889144e+001
1.123893e+003, 2.874830e+001
1.124375e+003, 2.835215e+001
1.124857e+003, 2.808661e+001
1.125339e+003, 2.826363e+001
1.125821e+003, 2.855588e+001
1.126303e+003, 2.832529e+001
1.126786e+003, 2.762966e+001
1.127268e+003, 2.766622e+001
1.127750e+003, 2.857325e+001
1.128232e+003, 2.885489e+001
1.128714e+003, 2.820651e+001
1.129196e+003, 2.782011e+001
1.129678e+003, 2.828218e+001
1.130160e+003, 2.896112e+001
1.130642e+003, 2.916622e+001
1.131125e+003, 2.896366e+001
1.131607e+003, 2.845742e+001
1.132089e+003, 2.768568e+001
1.132571e+003, 2.740686e+001
1.133053e+003, 2.764710e+001
1.133535e+003, 2.775017e+001
1.134017e+003, 2.751585e+001
1.134499e+003, 2.734710e+001
1.134981e+003, 2.757758e+001
1.135464e+003, 2.794832e+001
1.135946e+003, 2.795138e+001
1.136428e+003, 2.769672e+001
1.136910e+003, 2.758713e+001
1.137392e+003, 2.761755e+001
1.137874e+003, 2.777381e+001
1.138356e+003, 2.802432e+001
1.138838e+003, 2.816871e+001
1.139321e+003, 2.810414e+001
1.139803e+003, 2.804066e+001
1.140285e+003, 2.829488e+001
1.140767e+003, 2.863109e+001
1.141249e+003, 2.856172e+001
1.141731e+003, 2.826110e+001
1.142213e+003, 2.814877e+001
1.142695e+003, 2.818052e+001
1.143177e+003, 2.797818e+001
1.143660e+003, 2.746979e+001
1.144142e+003, 2.711724e+001
1.144624e+003, 2.729982e+001
1.145106e+003, 2.764315e+001
1.145588e+003, 2.773823e+001
1.146070e+003, 2.778116e+001
1.146552e+003, 2.814053e+001
1.147034e+003, 2.858227e+001
1.147516e+003, 2.858067e+001
1.147999e+003, 2.816711e+001
1.148481e+003, 2.787824e+001
1.148963e+003, 2.796183e+001
1.149445e+003, 2.805373e+001
1.149927e+003, 2.788154e+001
1.150409e+003, 2.768371e+001
1.150891e+003, 2.756866e+001
1.151373e+003, 2.757033e+001
1.151856e+003, 2.788347e+001
1.152338e+003, 2.829105e+001
1.152820e+003, 2.822294e+001
1.153302e+003, 2.756424e+001
1.153784e+003, 2.717120e+001
1.154266e+003, 2.766881e+001
1.154748e+003, 2.799456e+001
1.155230e+003, 2.740911e+001
1.155713e+003, 2.697318e+001
1.156195e+003, 2.770549e+001
1.156677e+003, 2.874366e+001
1.157159e+003, 2.886475e+001
1.157641e+003, 2.814498e+001
1.158123e+003, 2.763207e+001
1.158605e+003, 2.740733e+001
1.159087e+003, 2.742156e+001
1.159569e+003, 2.787504e+001
1.160052e+003, 2.829136e+001
1.160534e+003, 2.863793e+001
1.161016e+003, 2.880081e+001
1.161498e+003, 2.862104e+001
1.161980e+003, 2.823673e+001
1.162462e+003, 2.792114e+001
1.162944e+003, 2.765916e+001
1.163426e+003, 2.763785e+001
1.163908e+003, 2.795654e+001
1.164391e+003, 2.823612e+001
1.164873e+003, 2.844959e+001
1.165355e+003, 2.855277e+001
1.165837e+003, 2.852216e+001
1.166319e+003, 2.835815e+001
1.166801e+003, 2.799854e+001
1.167283e+003, 2.757041e+001
1.167765e+003, 2.768305e+001
1.168247e+003, 2.836406e+001
1.168730e+003, 2.870701e+001
1.169212e+003, 2.866519e+001
1.169694e+003, 2.855118e+001
1.170176e+003, 2.844686e+001
1.170658e+003, 2.842264e+001
1.171140e+003, 2.853462e+001
1.171622e+003, 2.870331e+001
1.172104e+003, 2.886489e+001
1.172587e+003, 2.895571e+001
1.173069e+003, 2.865366e+001
1.173551e+003, 2.809365e+001
1.174033e+003, 2.775187e+001
1.174515e+003, 2.768993e+001
1.174997e+003, 2.792298e+001
1.175479e+003, 2.842045e+001
1.175961e+003, 2.873598e+001
1.176443e+003, 2.839204e+001
1.176926e+003, 2.793874e+001
1.177408e+003, 2.815453e+001
1.177890e+003, 2.862722e+001
1.178372e+003, 2.872244e+001
1.178854e+003, 2.861286e+001
1.179336e+003, 2.881189e+001
1.179818e+003, 2.927070e+001
1.180300e+003, 2.936034e+001
1.180782e+003, 2.876081e+001
1.181265e+003, 2.827744e+001
1.181747e+003, 2.863824e+001
1.182229e+003, 2.898950e+001
1.182711e+003, 2.859840e+001
1.183193e+003, 2.808941e+001
1.183675e+003, 2.822559e+001
1.184157e+003, 2.863877e+001
1.184639e+003, 2.842183e+001
1.185122e+003, 2.750627e+001
1.185604e+003, 2.708681e+001
1.186086e+003, 2.780435e+001
1.186568e+003, 2.843237e+001
1.187050e+003, 2.887445e+001
1.187532e+003, 2.905554e+001
1.188014e+003, 2.869596e+001
1.188496e+003, 2.827497e+001
1.188979e+003, 2.822007e+001
1.189461e+003, 2.845414e+001
1.189943e+003, 2.881260e+001
1.190425e+003, 2.939444e+001
1.190907e+003, 2.946556e+001
1.191389e+003, 2.873220e+001
1.191871e+003, 2.834363e+001
1.192353e+003, 2.860268e+001
1.192835e+003, 2.886889e+001
1.193318e+003, 2.882810e+001
1.193800e+003, 2.862212e+001
1.194282e+003, 2.840392e+001
1.194764e+003, 2.818900e+001
1.195246e+003, 2.800569e+001
1.195728e+003, 2.786059e+001
1.196210e+003, 2.808755e+001
1.196692e+003, 2.866111e+001
1.197174e+003, 2.868352e+001
1.197657e+003, 2.796532e+001
1.198139e+003, 2.732866e+001
1.198621e+003, 2.728542e+001
1.199103e+003, 2.753893e+001
1.199585e+003, 2.779356e+001
1.200067e+003, 2.799269e+001
1.200549e+003, 2.798662e+001
1.201031e+003, 2.785268e+001
1.201514e+003, 2.770790e+001
1.201996e+003, 2.760606e+001
1.202478e+003, 2.767793e+001
1.202960e+003, 2.792823e+001
1.203442e+003, 2.813273e+001
1.203924e+003, 2.814588e+001
1.204406e+003, 2.812254e+001
1.204888e+003, 2.822098e+001
1.205370e+003, 2.828756e+001
1.205853e+003, 2.813297e+001
1.206335e+003, 2.791817e+001
1.206817e+003, 2.782884e+001
1.207299e+003, 2.785538e+001
1.207781e+003, 2.792584e+001
1.208263e+003, 2.802950e+001
1.208745e+003, 2.811558e+001
1.209227e+003, 2.816368e+001
1.209709e+003, 2.820462e+001
1.210192e+003, 2.816779e+001
1.210674e+003, 2.821744e+001
1.211156e+003, 2.858154e+001
1.211638e+003, 2.894529e+001
1.212120e+003, 2.898392e+001
1.212602e+003, 2.876027e+001
1.213084e+003, 2.849767e+001
1.213566e+003, 2.816521e+001
1.214049e+003, 2.795362e+001
1.214531e+003, 2.788312e+001
1.215013e+003, 2.785047e+001
1.215495e+003, 2.783138e+001
1.215977e+003, 2.787840e+001
1.216459e+003, 2.802444e+001
1.216941e+003, 2.822759e+001
1.217423e+003, 2.845377e+001
1.217906e+003, 2.866729e+001
1.218388e+003, 2.873419e+001
1.218870e+003, 2.868493e+001
1.219352e+003, 2.871191e+001
1.219834e+003, 2.878241e+001
1.220316e+003, 2.861530e+001
1.220798e+003, 2.819947e+001
1.221280e+003, 2.789118e+001
1.221762e+003, 2.788176e+001
1.222245e+003, 2.803628e+001
1.222727e+003, 2.835899e+001
1.223209e+003, 2.863168e+001
1.223691e+003, 2.853390e+001
1.224173e+003, 2.828823e+001
1.224655e+003, 2.823092e+001
1.225137e+003, 2.824240e+001
1.225619e+003, 2.788317e+001
1.226101e+003, 2.722474e+001
1.226584e+003, 2.711598e+001
1.227066e+003, 2.809247e+001
1.227548e+003, 2.891923e+001
1.228030e+003, 2.918231e+001
1.228512e+003, 2.919883e+001
1.228994e+003, 2.900360e+001
1.229476e+003, 2.870826e+001
1.229958e+003, 2.830845e+001
1.230441e+003, 2.790846e+001
1.230923e+003, 2.768383e+001
1.231405e+003, 2.763076e+001
1.231887e+003, 2.763051e+001
1.232369e+003, 2.762592e+001
1.232851e+003, 2.789228e+001
1.233333e+003, 2.857431e+001
1.233815e+003, 2.905371e+001
1.234297e+003, 2.913390e+001
1.234780e+003, 2.899637e+001
1.235262e+003, 2.874412e+001
1.235744e+003, 2.846726e+001
1.236226e+003, 2.830386e+001
1.236708e+003, 2.825686e+001
1.237190e+003, 2.839841e+001
1.237672e+003, 2.866677e+001
1.238154e+003, 2.881831e+001
1.238636e+003, 2.881937e+001
1.239119e+003, 2.857357e+001
1.239601e+003, 2.811724e+001
1.240083e+003, 2.790289e+001
1.240565e+003, 2.826936e+001
1.241047e+003, 2.869576e+001
1.241529e+003, 2.868771e+001
1.242011e+003, 2.849174e+001
1.242493e+003, 2.830508e+001
1.242975e+003, 2.811071e+001
1.243458e+003, 2.777418e+001
1.243940e+003, 2.744211e+001
1.244422e+003, 2.743823e+001
1.244904e+003, 2.779797e+001
1.245386e+003, 2.823815e+001
1.245868e+003, 2.890010e+001
1.246350e+003, 2.923879e+001
1.246832e+003, 2.899073e+001
1.247315e+003, 2.863299e+001
1.247797e+003, 2.811109e+001
1.248279e+003, 2.780475e+001
1.248761e+003, 2.811752e+001
1.249243e+003, 2.868458e+001
1.249725e+003, 2.883993e+001
1.250207e+003, 2.860668e+001
1.250689e+003, 2.841922e+001
1.251172e+003, 2.829482e+001
1.251654e+003, 2.792820e+001
1.252136e+003, 2.727298e+001
1.252618e+003, 2.708734e+001
1.253100e+003, 2.759632e+001
1.253582e+003, 2.822347e+001
1.254064e+003, 2.857957e+001
1.254546e+003, 2.875497e+001
1.255028e+003, 2.884448e+001
1.255510e+003, 2.885568e+001
1.255993e+003, 2.874823e+001
1.256475e+003, 2.860281e+001
1.256957e+003, 2.855917e+001
1.257439e+003, 2.861666e+001
1.257921e+003, 2.877019e+001
1.258403e+003, 2.898721e+001
1.258885e+003, 2.913862e+001
1.259367e+003, 2.917751e+001
1.259850e+003, 2.911330e+001
1.260332e+003, 2.886514e+001
1.260814e+003, 2.862752e+001
1.261296e+003, 2.838725e+001
1.261778e+003, 2.829891e+001
1.262260e+003, 2.866408e+001
1.262742e+003, 2.914931e+001
1.263224e+003, 2.918785e+001
1.263707e+003, 2.883630e+001
1.264189e+003, 2.858394e+001
1.264671e+003, 2.845225e+001
1.265153e+003, 2.833381e+001
1.265635e+003, 2.820332e+001
1.266117e+003, 2.821999e+001
1.266599e+003, 2.844173e+001
1.267081e+003, 2.866654e+001
1.267563e+003, 2.878583e+001
1.268046e+003, 2.881459e+001
1.268528e+003, 2.874225e+001
1.269010e+003, 2.864805e+001
1.269492e+003, 2.871988e+001
1.269974e+003, 2.891367e+001
1.270456e+003, 2.919805e+001
1.270938e+003, 2.948483e+001
1.271420e+003, 2.952880e+001
1.271902e+003, 2.934813e+001
1.272385e+003, 2.918392e+001
1.272867e+003, 2.912832e+001
1.273349e+003, 2.904464e+001
1.273831e+003, 2.866471e+001
1.274313e+003, 2.849486e+001
1.274795e+003, 2.902654e+001
1.275277e+003, 2.958175e+001
1.275759e+003, 2.965648e+001
1.276242e+003, 2.955265e+001
1.276724e+003, 2.966318e+001
1.277206e+003, 2.990130e+001
1.277688e+003, 2.994490e+001
1.278170e+003, 2.978437e+001
1.278652e+003, 2.948740e+001
1.279134e+003, 2.896441e+001
1.279616e+003, 2.863077e+001
1.280099e+003, 2.853677e+001
1.280581e+003, 2.861297e+001
1.281063e+003, 2.884463e+001
1.281545e+003, 2.917106e+001
1.282027e+003, 2.956872e+001
1.282509e+003, 2.990770e+001
1.282991e+003, 2.996812e+001
1.283473e+003, 2.980407e+001
1.283955e+003, 2.953646e+001
##END=



