##NAMES=Lollingite
##RRUFFID=R060668
##IDEAL CHEMISTRY=FeAs_2_
##LOCALITY=Aghbar near Bou-Azzer, Morocco
##OWNER=RRUFF
##SOURCE=Michael Scott
##DESCRIPTION=Gray metallic spears radiating in spherical aggregates, associated with arsenopyrite and skutterudite
##STATUS=The identification of this mineral is confirmed by single-crystal X-ray diffraction and chemical analysis.
##URL=rruff.info/R060668
##MEASURED CHEMISTRY=(Fe_0.80_Co_0.20_)_Σ=1_(As_1.85_S_0.15_)_Σ=2_
9.059570e+001, 9.497444e+002
9.107782e+001, 9.496875e+002
9.155994e+001, 9.497137e+002
9.204205e+001, 9.502192e+002
9.252417e+001, 9.505216e+002
9.300629e+001, 9.503581e+002
9.348840e+001, 9.447770e+002
9.397052e+001, 9.282191e+002
9.445264e+001, 8.995720e+002
9.493475e+001, 8.709483e+002
9.541687e+001, 8.442291e+002
9.589898e+001, 8.202505e+002
9.638110e+001, 7.982324e+002
9.686321e+001, 7.774168e+002
9.734533e+001, 7.568934e+002
9.782745e+001, 7.354793e+002
9.830956e+001, 7.164244e+002
9.879168e+001, 6.991251e+002
9.927380e+001, 6.840323e+002
9.975591e+001, 6.717894e+002
1.002380e+002, 6.616420e+002
1.007201e+002, 6.520490e+002
1.012023e+002, 6.423432e+002
1.016844e+002, 6.322865e+002
1.021665e+002, 6.215472e+002
1.026486e+002, 6.082432e+002
1.031307e+002, 5.952977e+002
1.036128e+002, 5.857623e+002
1.040950e+002, 5.799597e+002
1.045771e+002, 5.752267e+002
1.050592e+002, 5.696214e+002
1.055413e+002, 5.636906e+002
1.060234e+002, 5.583936e+002
1.065055e+002, 5.543356e+002
1.069877e+002, 5.512209e+002
1.074698e+002, 5.479283e+002
1.079519e+002, 5.447099e+002
1.084340e+002, 5.408411e+002
1.089161e+002, 5.365330e+002
1.093982e+002, 5.314663e+002
1.098804e+002, 5.249214e+002
1.103625e+002, 5.154655e+002
1.108446e+002, 5.019161e+002
1.113267e+002, 4.919258e+002
1.118088e+002, 4.876693e+002
1.122909e+002, 4.848015e+002
1.127731e+002, 4.815356e+002
1.132552e+002, 4.775400e+002
1.137373e+002, 4.734066e+002
1.142194e+002, 4.700424e+002
1.147015e+002, 4.679943e+002
1.151836e+002, 4.657511e+002
1.156658e+002, 4.632013e+002
1.161479e+002, 4.605096e+002
1.166300e+002, 4.578737e+002
1.171121e+002, 4.553658e+002
1.175942e+002, 4.528412e+002
1.180763e+002, 4.499600e+002
1.185584e+002, 4.467611e+002
1.190406e+002, 4.432592e+002
1.195227e+002, 4.390514e+002
1.200048e+002, 4.344769e+002
1.204869e+002, 4.304226e+002
1.209690e+002, 4.272714e+002
1.214511e+002, 4.250136e+002
1.219333e+002, 4.233037e+002
1.224154e+002, 4.222691e+002
1.228975e+002, 4.215497e+002
1.233796e+002, 4.210088e+002
1.238617e+002, 4.206986e+002
1.243438e+002, 4.200905e+002
1.248260e+002, 4.192689e+002
1.253081e+002, 4.178841e+002
1.257902e+002, 4.152729e+002
1.262723e+002, 4.108141e+002
1.267544e+002, 4.055137e+002
1.272365e+002, 4.017374e+002
1.277187e+002, 4.002178e+002
1.282008e+002, 3.991226e+002
1.286829e+002, 3.979904e+002
1.291650e+002, 3.968324e+002
1.296471e+002, 3.957157e+002
1.301292e+002, 3.947266e+002
1.306114e+002, 3.938309e+002
1.310935e+002, 3.924933e+002
1.315756e+002, 3.902006e+002
1.320577e+002, 3.879274e+002
1.325398e+002, 3.860149e+002
1.330219e+002, 3.843408e+002
1.335041e+002, 3.825225e+002
1.339862e+002, 3.801374e+002
1.344683e+002, 3.769550e+002
1.349504e+002, 3.748301e+002
1.354325e+002, 3.747276e+002
1.359146e+002, 3.746976e+002
1.363968e+002, 3.734328e+002
1.368789e+002, 3.708902e+002
1.373610e+002, 3.681170e+002
1.378431e+002, 3.663204e+002
1.383252e+002, 3.657025e+002
1.388073e+002, 3.652186e+002
1.392895e+002, 3.650895e+002
1.397716e+002, 3.649577e+002
1.402537e+002, 3.644723e+002
1.407358e+002, 3.635966e+002
1.412179e+002, 3.622083e+002
1.417000e+002, 3.599314e+002
1.421821e+002, 3.568635e+002
1.426643e+002, 3.537570e+002
1.431464e+002, 3.508153e+002
1.436285e+002, 3.480593e+002
1.441106e+002, 3.455425e+002
1.445927e+002, 3.432929e+002
1.450748e+002, 3.413169e+002
1.455570e+002, 3.396623e+002
1.460391e+002, 3.383255e+002
1.465212e+002, 3.369449e+002
1.470033e+002, 3.350497e+002
1.474854e+002, 3.325376e+002
1.479675e+002, 3.304898e+002
1.484497e+002, 3.297254e+002
1.489318e+002, 3.290947e+002
1.494139e+002, 3.280135e+002
1.498960e+002, 3.263567e+002
1.503781e+002, 3.243066e+002
1.508602e+002, 3.220921e+002
1.513424e+002, 3.195237e+002
1.518245e+002, 3.171742e+002
1.523066e+002, 3.150374e+002
1.527887e+002, 3.131138e+002
1.532708e+002, 3.114028e+002
1.537529e+002, 3.099119e+002
1.542351e+002, 3.086130e+002
1.547172e+002, 3.074337e+002
1.551993e+002, 3.060405e+002
1.556814e+002, 3.052496e+002
1.561635e+002, 3.058999e+002
1.566456e+002, 3.069318e+002
1.571278e+002, 3.069961e+002
1.576099e+002, 3.053825e+002
1.580920e+002, 3.025116e+002
1.585741e+002, 3.001490e+002
1.590562e+002, 2.985742e+002
1.595383e+002, 2.971016e+002
1.600205e+002, 2.954649e+002
1.605026e+002, 2.938039e+002
1.609847e+002, 2.924902e+002
1.614668e+002, 2.918277e+002
1.619489e+002, 2.916392e+002
1.624310e+002, 2.911048e+002
1.629131e+002, 2.900736e+002
1.633953e+002, 2.888833e+002
1.638774e+002, 2.876808e+002
1.643595e+002, 2.864679e+002
1.648416e+002, 2.852931e+002
1.653237e+002, 2.842531e+002
1.658058e+002, 2.832514e+002
1.662880e+002, 2.820519e+002
1.667701e+002, 2.803278e+002
1.672522e+002, 2.786283e+002
1.677343e+002, 2.777353e+002
1.682164e+002, 2.778417e+002
1.686985e+002, 2.778449e+002
1.691807e+002, 2.767354e+002
1.696628e+002, 2.752201e+002
1.701449e+002, 2.741949e+002
1.706270e+002, 2.741830e+002
1.711091e+002, 2.747596e+002
1.715912e+002, 2.750187e+002
1.720734e+002, 2.750729e+002
1.725555e+002, 2.745227e+002
1.730376e+002, 2.728914e+002
1.735197e+002, 2.707321e+002
1.740018e+002, 2.688192e+002
1.744839e+002, 2.676364e+002
1.749661e+002, 2.670740e+002
1.754482e+002, 2.664845e+002
1.759303e+002, 2.658119e+002
1.764124e+002, 2.651786e+002
1.768945e+002, 2.646161e+002
1.773766e+002, 2.641160e+002
1.778588e+002, 2.636709e+002
1.783409e+002, 2.632805e+002
1.788230e+002, 2.629447e+002
1.793051e+002, 2.625729e+002
1.797872e+002, 2.621595e+002
1.802693e+002, 2.617149e+002
1.807515e+002, 2.613683e+002
1.812336e+002, 2.610110e+002
1.817157e+002, 2.603611e+002
1.821978e+002, 2.591184e+002
1.826799e+002, 2.571712e+002
1.831620e+002, 2.557567e+002
1.836441e+002, 2.550016e+002
1.841263e+002, 2.545233e+002
1.846084e+002, 2.543047e+002
1.850905e+002, 2.542564e+002
1.855726e+002, 2.541077e+002
1.860547e+002, 2.535936e+002
1.865368e+002, 2.526502e+002
1.870190e+002, 2.517613e+002
1.875011e+002, 2.508896e+002
1.879832e+002, 2.501024e+002
1.884653e+002, 2.494990e+002
1.889474e+002, 2.490838e+002
1.894296e+002, 2.486842e+002
1.899117e+002, 2.480982e+002
1.903938e+002, 2.473383e+002
1.908759e+002, 2.467197e+002
1.913580e+002, 2.462759e+002
1.918401e+002, 2.459934e+002
1.923223e+002, 2.459083e+002
1.928044e+002, 2.460569e+002
1.932865e+002, 2.462325e+002
1.937686e+002, 2.462842e+002
1.942507e+002, 2.462199e+002
1.947328e+002, 2.459832e+002
1.952150e+002, 2.455385e+002
1.956971e+002, 2.449107e+002
1.961792e+002, 2.440697e+002
1.966613e+002, 2.428510e+002
1.971434e+002, 2.417824e+002
1.976255e+002, 2.413440e+002
1.981077e+002, 2.413520e+002
1.985898e+002, 2.413760e+002
1.990719e+002, 2.412538e+002
1.995540e+002, 2.409795e+002
2.000361e+002, 2.405098e+002
2.005182e+002, 2.397167e+002
2.010004e+002, 2.388922e+002
2.014825e+002, 2.380081e+002
2.019646e+002, 2.371941e+002
2.024467e+002, 2.367855e+002
2.029288e+002, 2.372782e+002
2.034109e+002, 2.385863e+002
2.038930e+002, 2.391824e+002
2.043752e+002, 2.383989e+002
2.048573e+002, 2.375391e+002
2.053394e+002, 2.371476e+002
2.058215e+002, 2.370969e+002
2.063036e+002, 2.370047e+002
2.067857e+002, 2.365477e+002
2.072679e+002, 2.357064e+002
2.077500e+002, 2.348847e+002
2.082321e+002, 2.338659e+002
2.087142e+002, 2.330706e+002
2.091963e+002, 2.327340e+002
2.096784e+002, 2.327639e+002
2.101606e+002, 2.329137e+002
2.106427e+002, 2.329917e+002
2.111248e+002, 2.330116e+002
2.116069e+002, 2.328196e+002
2.120890e+002, 2.320811e+002
2.125711e+002, 2.314597e+002
2.130533e+002, 2.313981e+002
2.135354e+002, 2.317450e+002
2.140175e+002, 2.319524e+002
2.144996e+002, 2.314701e+002
2.149817e+002, 2.301340e+002
2.154638e+002, 2.292688e+002
2.159460e+002, 2.291546e+002
2.164281e+002, 2.291460e+002
2.169102e+002, 2.288992e+002
2.173923e+002, 2.284357e+002
2.178744e+002, 2.280061e+002
2.183565e+002, 2.278578e+002
2.188387e+002, 2.280388e+002
2.193208e+002, 2.280754e+002
2.198029e+002, 2.278725e+002
2.202850e+002, 2.276212e+002
2.207671e+002, 2.274918e+002
2.212492e+002, 2.274638e+002
2.217314e+002, 2.273024e+002
2.222135e+002, 2.267155e+002
2.226956e+002, 2.256836e+002
2.231777e+002, 2.251652e+002
2.236598e+002, 2.256976e+002
2.241419e+002, 2.263434e+002
2.246240e+002, 2.262986e+002
2.251062e+002, 2.255506e+002
2.255883e+002, 2.247913e+002
2.260704e+002, 2.245764e+002
2.265525e+002, 2.248777e+002
2.270346e+002, 2.252256e+002
2.275167e+002, 2.257008e+002
2.279989e+002, 2.261455e+002
2.284810e+002, 2.263961e+002
2.289631e+002, 2.264418e+002
2.294452e+002, 2.264069e+002
2.299273e+002, 2.263356e+002
2.304094e+002, 2.262514e+002
2.308916e+002, 2.262183e+002
2.313737e+002, 2.262379e+002
2.318558e+002, 2.263184e+002
2.323379e+002, 2.265068e+002
2.328200e+002, 2.268241e+002
2.333021e+002, 2.270978e+002
2.337843e+002, 2.271054e+002
2.342664e+002, 2.270182e+002
2.347485e+002, 2.271049e+002
2.352306e+002, 2.274533e+002
2.357127e+002, 2.279871e+002
2.361948e+002, 2.286719e+002
2.366770e+002, 2.295748e+002
2.371591e+002, 2.303626e+002
2.376412e+002, 2.308419e+002
2.381233e+002, 2.311194e+002
2.386054e+002, 2.312576e+002
2.390875e+002, 2.312024e+002
2.395697e+002, 2.311227e+002
2.400518e+002, 2.313155e+002
2.405339e+002, 2.318641e+002
2.410160e+002, 2.324248e+002
2.414981e+002, 2.331273e+002
2.419802e+002, 2.336705e+002
2.424624e+002, 2.336802e+002
2.429445e+002, 2.329657e+002
2.434266e+002, 2.318640e+002
2.439087e+002, 2.309952e+002
2.443908e+002, 2.305473e+002
2.448729e+002, 2.298062e+002
2.453550e+002, 2.281487e+002
2.458372e+002, 2.263552e+002
2.463193e+002, 2.251933e+002
2.468014e+002, 2.249489e+002
2.472835e+002, 2.250671e+002
2.477656e+002, 2.246098e+002
2.482477e+002, 2.234751e+002
2.487299e+002, 2.219549e+002
2.492120e+002, 2.195666e+002
2.496941e+002, 2.171803e+002
2.501762e+002, 2.155313e+002
2.506583e+002, 2.148307e+002
2.511404e+002, 2.146553e+002
2.516226e+002, 2.143317e+002
2.521047e+002, 2.138655e+002
2.525868e+002, 2.132229e+002
2.530689e+002, 2.121326e+002
2.535510e+002, 2.110690e+002
2.540331e+002, 2.104297e+002
2.545153e+002, 2.102913e+002
2.549974e+002, 2.103516e+002
2.554795e+002, 2.101400e+002
2.559616e+002, 2.095014e+002
2.564437e+002, 2.089190e+002
2.569258e+002, 2.082904e+002
2.574080e+002, 2.077872e+002
2.578901e+002, 2.076351e+002
2.583722e+002, 2.078182e+002
2.588543e+002, 2.080158e+002
2.593364e+002, 2.077348e+002
2.598185e+002, 2.065715e+002
2.603007e+002, 2.059738e+002
2.607828e+002, 2.063938e+002
2.612649e+002, 2.069025e+002
2.617470e+002, 2.069008e+002
2.622291e+002, 2.063473e+002
2.627112e+002, 2.056172e+002
2.631934e+002, 2.051538e+002
2.636755e+002, 2.050959e+002
2.641576e+002, 2.047862e+002
2.646397e+002, 2.040335e+002
2.651218e+002, 2.032413e+002
2.656039e+002, 2.026464e+002
2.660861e+002, 2.022451e+002
2.665682e+002, 2.018748e+002
2.670503e+002, 2.013651e+002
2.675324e+002, 2.006730e+002
2.680145e+002, 2.001365e+002
2.684966e+002, 1.999224e+002
2.689788e+002, 1.996802e+002
2.694609e+002, 1.991786e+002
2.699430e+002, 1.984734e+002
2.704251e+002, 1.978250e+002
2.709072e+002, 1.974797e+002
2.713893e+002, 1.974613e+002
2.718715e+002, 1.970747e+002
2.723536e+002, 1.959763e+002
2.728357e+002, 1.949308e+002
2.733178e+002, 1.942603e+002
2.737999e+002, 1.939145e+002
2.742820e+002, 1.937157e+002
2.747642e+002, 1.935625e+002
2.752463e+002, 1.934473e+002
2.757284e+002, 1.932759e+002
2.762105e+002, 1.929827e+002
2.766926e+002, 1.927164e+002
2.771747e+002, 1.925381e+002
2.776568e+002, 1.924236e+002
2.781389e+002, 1.923302e+002
2.786211e+002, 1.922457e+002
2.791032e+002, 1.921494e+002
2.795853e+002, 1.919395e+002
2.800674e+002, 1.915412e+002
2.805495e+002, 1.911432e+002
2.810316e+002, 1.907543e+002
2.815138e+002, 1.904022e+002
2.819959e+002, 1.901720e+002
2.824780e+002, 1.901252e+002
2.829601e+002, 1.901436e+002
2.834422e+002, 1.898948e+002
2.839243e+002, 1.891755e+002
2.844065e+002, 1.886130e+002
2.848886e+002, 1.883808e+002
2.853707e+002, 1.883700e+002
2.858528e+002, 1.884644e+002
2.863349e+002, 1.886429e+002
2.868170e+002, 1.888146e+002
2.872992e+002, 1.888130e+002
2.877813e+002, 1.886044e+002
2.882634e+002, 1.883613e+002
2.887455e+002, 1.880625e+002
2.892276e+002, 1.877619e+002
2.897097e+002, 1.875801e+002
2.901919e+002, 1.875527e+002
2.906740e+002, 1.874671e+002
2.911561e+002, 1.869577e+002
2.916382e+002, 1.859245e+002
2.921203e+002, 1.853082e+002
2.926024e+002, 1.855950e+002
2.930846e+002, 1.861175e+002
2.935667e+002, 1.861803e+002
2.940488e+002, 1.856992e+002
2.945309e+002, 1.851241e+002
2.950130e+002, 1.848670e+002
2.954951e+002, 1.849395e+002
2.959773e+002, 1.849641e+002
2.964594e+002, 1.849446e+002
2.969415e+002, 1.848598e+002
2.974236e+002, 1.846436e+002
2.979057e+002, 1.843110e+002
2.983878e+002, 1.840168e+002
2.988700e+002, 1.838717e+002
2.993521e+002, 1.838661e+002
2.998342e+002, 1.838688e+002
3.003163e+002, 1.840172e+002
3.007984e+002, 1.840504e+002
3.012805e+002, 1.837287e+002
3.017627e+002, 1.831243e+002
3.022448e+002, 1.825791e+002
3.027269e+002, 1.823009e+002
3.032090e+002, 1.821793e+002
3.036911e+002, 1.818595e+002
3.041732e+002, 1.811526e+002
3.046554e+002, 1.805688e+002
3.051375e+002, 1.804234e+002
3.056196e+002, 1.805815e+002
3.061017e+002, 1.807150e+002
3.065838e+002, 1.807284e+002
3.070659e+002, 1.806113e+002
3.075481e+002, 1.802960e+002
3.080302e+002, 1.797255e+002
3.085123e+002, 1.792280e+002
3.089944e+002, 1.789405e+002
3.094765e+002, 1.787886e+002
3.099586e+002, 1.786602e+002
3.104408e+002, 1.785325e+002
3.109229e+002, 1.784000e+002
3.114050e+002, 1.782370e+002
3.118871e+002, 1.780356e+002
3.123692e+002, 1.779075e+002
3.128513e+002, 1.779263e+002
3.133335e+002, 1.780049e+002
3.138156e+002, 1.780698e+002
3.142977e+002, 1.781132e+002
3.147798e+002, 1.780611e+002
3.152619e+002, 1.777707e+002
3.157440e+002, 1.772687e+002
3.162262e+002, 1.769717e+002
3.167083e+002, 1.772367e+002
3.171904e+002, 1.774892e+002
3.176725e+002, 1.771030e+002
3.181546e+002, 1.761156e+002
3.186367e+002, 1.752735e+002
3.191188e+002, 1.751303e+002
3.196010e+002, 1.755496e+002
3.200831e+002, 1.757397e+002
3.205652e+002, 1.755159e+002
3.210473e+002, 1.752565e+002
3.215294e+002, 1.751987e+002
3.220115e+002, 1.752864e+002
3.224937e+002, 1.753177e+002
3.229758e+002, 1.751925e+002
3.234579e+002, 1.749609e+002
3.239400e+002, 1.747524e+002
3.244221e+002, 1.745697e+002
3.249042e+002, 1.743985e+002
3.253864e+002, 1.742421e+002
3.258685e+002, 1.740931e+002
3.263506e+002, 1.739188e+002
3.268327e+002, 1.736960e+002
3.273148e+002, 1.734963e+002
3.277969e+002, 1.734793e+002
3.282791e+002, 1.736997e+002
3.287612e+002, 1.737675e+002
3.292433e+002, 1.735646e+002
3.297254e+002, 1.731935e+002
3.302075e+002, 1.726851e+002
3.306896e+002, 1.720447e+002
3.311718e+002, 1.715264e+002
3.316539e+002, 1.714468e+002
3.321360e+002, 1.718492e+002
3.326181e+002, 1.720439e+002
3.331002e+002, 1.719161e+002
3.335823e+002, 1.716444e+002
3.340645e+002, 1.712603e+002
3.345466e+002, 1.708087e+002
3.350287e+002, 1.705053e+002
3.355108e+002, 1.705469e+002
3.359929e+002, 1.708711e+002
3.364750e+002, 1.709968e+002
3.369572e+002, 1.709561e+002
3.374393e+002, 1.707140e+002
3.379214e+002, 1.700728e+002
3.384035e+002, 1.692104e+002
3.388856e+002, 1.685534e+002
3.393677e+002, 1.683057e+002
3.398499e+002, 1.683653e+002
3.403320e+002, 1.684957e+002
3.408141e+002, 1.688032e+002
3.412962e+002, 1.689814e+002
3.417783e+002, 1.688763e+002
3.422604e+002, 1.686440e+002
3.427426e+002, 1.684929e+002
3.432247e+002, 1.684833e+002
3.437068e+002, 1.685271e+002
3.441889e+002, 1.685267e+002
3.446710e+002, 1.685304e+002
3.451531e+002, 1.682829e+002
3.456353e+002, 1.674792e+002
3.461174e+002, 1.666368e+002
3.465995e+002, 1.661821e+002
3.470816e+002, 1.661301e+002
3.475637e+002, 1.661992e+002
3.480458e+002, 1.661465e+002
3.485280e+002, 1.659638e+002
3.490101e+002, 1.658332e+002
3.494922e+002, 1.658170e+002
3.499743e+002, 1.657823e+002
3.504564e+002, 1.657198e+002
3.509385e+002, 1.655967e+002
3.514207e+002, 1.653064e+002
3.519028e+002, 1.647583e+002
3.523849e+002, 1.640618e+002
3.528670e+002, 1.636906e+002
3.533491e+002, 1.641335e+002
3.538312e+002, 1.642964e+002
3.543134e+002, 1.637863e+002
3.547955e+002, 1.630315e+002
3.552776e+002, 1.625150e+002
3.557597e+002, 1.624076e+002
3.562418e+002, 1.625817e+002
3.567239e+002, 1.628467e+002
3.572061e+002, 1.633886e+002
3.576882e+002, 1.636142e+002
3.581703e+002, 1.634470e+002
3.586524e+002, 1.630545e+002
3.591345e+002, 1.624297e+002
3.596166e+002, 1.616452e+002
3.600987e+002, 1.609277e+002
3.605808e+002, 1.604941e+002
3.610630e+002, 1.603609e+002
3.615451e+002, 1.603599e+002
3.620272e+002, 1.606968e+002
3.625093e+002, 1.609436e+002
3.629914e+002, 1.609570e+002
3.634735e+002, 1.607744e+002
3.639557e+002, 1.604586e+002
3.644378e+002, 1.600324e+002
3.649199e+002, 1.595490e+002
3.654020e+002, 1.592358e+002
3.658841e+002, 1.591849e+002
3.663662e+002, 1.591973e+002
3.668484e+002, 1.593147e+002
3.673305e+002, 1.594484e+002
3.678126e+002, 1.595154e+002
3.682947e+002, 1.594890e+002
3.687768e+002, 1.594004e+002
3.692589e+002, 1.593167e+002
3.697411e+002, 1.593066e+002
3.702232e+002, 1.591033e+002
3.707053e+002, 1.584058e+002
3.711874e+002, 1.577684e+002
3.716695e+002, 1.575999e+002
3.721516e+002, 1.578176e+002
3.726338e+002, 1.579500e+002
3.731159e+002, 1.574690e+002
3.735980e+002, 1.564086e+002
3.740801e+002, 1.559347e+002
3.745622e+002, 1.565739e+002
3.750443e+002, 1.571804e+002
3.755265e+002, 1.573456e+002
3.760086e+002, 1.572388e+002
3.764907e+002, 1.571570e+002
3.769728e+002, 1.572734e+002
3.774549e+002, 1.574246e+002
3.779370e+002, 1.571924e+002
3.784192e+002, 1.564034e+002
3.789013e+002, 1.557236e+002
3.793834e+002, 1.553564e+002
3.798655e+002, 1.551549e+002
3.803476e+002, 1.550149e+002
3.808297e+002, 1.549161e+002
3.813119e+002, 1.549135e+002
3.817940e+002, 1.552119e+002
3.822761e+002, 1.557985e+002
3.827582e+002, 1.558950e+002
3.832403e+002, 1.549376e+002
3.837224e+002, 1.540227e+002
3.842046e+002, 1.540376e+002
3.846867e+002, 1.547486e+002
3.851688e+002, 1.552912e+002
3.856509e+002, 1.550928e+002
3.861330e+002, 1.544214e+002
3.866151e+002, 1.538111e+002
3.870973e+002, 1.532076e+002
3.875794e+002, 1.528708e+002
3.880615e+002, 1.532767e+002
3.885436e+002, 1.539573e+002
3.890257e+002, 1.541917e+002
3.895078e+002, 1.536103e+002
3.899900e+002, 1.529830e+002
3.904721e+002, 1.531549e+002
3.909542e+002, 1.539995e+002
3.914363e+002, 1.544898e+002
3.919184e+002, 1.541720e+002
3.924005e+002, 1.534946e+002
3.928827e+002, 1.530828e+002
3.933648e+002, 1.529488e+002
3.938469e+002, 1.528348e+002
3.943290e+002, 1.527251e+002
3.948111e+002, 1.525481e+002
3.952932e+002, 1.520830e+002
3.957754e+002, 1.512560e+002
3.962575e+002, 1.505735e+002
3.967396e+002, 1.505849e+002
3.972217e+002, 1.512255e+002
3.977038e+002, 1.515837e+002
3.981859e+002, 1.514923e+002
3.986681e+002, 1.512245e+002
3.991501e+002, 1.508776e+002
3.996323e+002, 1.504892e+002
4.001144e+002, 1.501630e+002
4.005965e+002, 1.499460e+002
4.010786e+002, 1.498318e+002
4.015607e+002, 1.498213e+002
4.020428e+002, 1.499715e+002
4.025250e+002, 1.501054e+002
4.030071e+002, 1.503415e+002
4.034892e+002, 1.504766e+002
4.039713e+002, 1.501348e+002
4.044534e+002, 1.492710e+002
4.049355e+002, 1.484010e+002
4.054177e+002, 1.481670e+002
4.058998e+002, 1.487556e+002
4.063819e+002, 1.490714e+002
4.068640e+002, 1.488990e+002
4.073461e+002, 1.486956e+002
4.078282e+002, 1.487347e+002
4.083104e+002, 1.489331e+002
4.087925e+002, 1.490299e+002
4.092746e+002, 1.488512e+002
4.097567e+002, 1.484702e+002
4.102388e+002, 1.482253e+002
4.107209e+002, 1.482997e+002
4.112031e+002, 1.482763e+002
4.116852e+002, 1.480262e+002
4.121673e+002, 1.477164e+002
4.126494e+002, 1.475240e+002
4.131315e+002, 1.474869e+002
4.136136e+002, 1.474861e+002
4.140958e+002, 1.473137e+002
4.145779e+002, 1.468454e+002
4.150600e+002, 1.467070e+002
4.155421e+002, 1.475219e+002
4.160242e+002, 1.480904e+002
4.165063e+002, 1.477387e+002
4.169885e+002, 1.467469e+002
4.174706e+002, 1.458242e+002
4.179527e+002, 1.453904e+002
4.184348e+002, 1.453815e+002
4.189169e+002, 1.456295e+002
4.193990e+002, 1.463026e+002
4.198812e+002, 1.468552e+002
4.203633e+002, 1.470957e+002
4.208454e+002, 1.471596e+002
4.213275e+002, 1.471713e+002
4.218096e+002, 1.471626e+002
4.222917e+002, 1.470417e+002
4.227739e+002, 1.465658e+002
4.232560e+002, 1.457691e+002
4.237381e+002, 1.453990e+002
4.242202e+002, 1.458056e+002
4.247023e+002, 1.463386e+002
4.251844e+002, 1.465405e+002
4.256666e+002, 1.464555e+002
4.261487e+002, 1.462333e+002
4.266308e+002, 1.457756e+002
4.271129e+002, 1.452885e+002
4.275950e+002, 1.451063e+002
4.280771e+002, 1.452422e+002
4.285593e+002, 1.454739e+002
4.290414e+002, 1.457978e+002
4.295235e+002, 1.460791e+002
4.300056e+002, 1.460209e+002
4.304877e+002, 1.454230e+002
4.309698e+002, 1.449418e+002
4.314520e+002, 1.450833e+002
4.319341e+002, 1.455447e+002
4.324162e+002, 1.456588e+002
4.328983e+002, 1.452249e+002
4.333804e+002, 1.446908e+002
4.338625e+002, 1.446384e+002
4.343447e+002, 1.451662e+002
4.348268e+002, 1.453122e+002
4.353089e+002, 1.446299e+002
4.357910e+002, 1.439091e+002
4.362731e+002, 1.437795e+002
4.367552e+002, 1.440948e+002
4.372374e+002, 1.442352e+002
4.377195e+002, 1.438013e+002
4.382016e+002, 1.430011e+002
4.386837e+002, 1.426371e+002
4.391658e+002, 1.432371e+002
4.396479e+002, 1.436017e+002
4.401301e+002, 1.434773e+002
4.406122e+002, 1.431827e+002
4.410943e+002, 1.430017e+002
4.415764e+002, 1.429987e+002
4.420585e+002, 1.430892e+002
4.425406e+002, 1.432043e+002
4.430227e+002, 1.433759e+002
4.435049e+002, 1.433431e+002
4.439870e+002, 1.428516e+002
4.444691e+002, 1.424186e+002
4.449512e+002, 1.422044e+002
4.454333e+002, 1.421577e+002
4.459154e+002, 1.421737e+002
4.463976e+002, 1.421991e+002
4.468797e+002, 1.422619e+002
4.473618e+002, 1.424788e+002
4.478439e+002, 1.429887e+002
4.483260e+002, 1.432340e+002
4.488081e+002, 1.428591e+002
4.492903e+002, 1.423700e+002
4.497724e+002, 1.420375e+002
4.502545e+002, 1.418940e+002
4.507366e+002, 1.418796e+002
4.512187e+002, 1.420266e+002
4.517008e+002, 1.422798e+002
4.521830e+002, 1.423765e+002
4.526651e+002, 1.422426e+002
4.531472e+002, 1.421237e+002
4.536293e+002, 1.422942e+002
4.541114e+002, 1.425395e+002
4.545935e+002, 1.425051e+002
4.550757e+002, 1.419713e+002
4.555578e+002, 1.414272e+002
4.560399e+002, 1.413808e+002
4.565220e+002, 1.417014e+002
4.570041e+002, 1.417847e+002
4.574862e+002, 1.413958e+002
4.579684e+002, 1.408479e+002
4.584505e+002, 1.404929e+002
4.589326e+002, 1.403119e+002
4.594147e+002, 1.403777e+002
4.598968e+002, 1.410213e+002
4.603789e+002, 1.416905e+002
4.608611e+002, 1.418469e+002
4.613432e+002, 1.415381e+002
4.618253e+002, 1.411841e+002
4.623074e+002, 1.410356e+002
4.627895e+002, 1.410441e+002
4.632716e+002, 1.410043e+002
4.637538e+002, 1.408321e+002
4.642359e+002, 1.407251e+002
4.647180e+002, 1.408278e+002
4.652001e+002, 1.409389e+002
4.656822e+002, 1.407890e+002
4.661643e+002, 1.403582e+002
4.666465e+002, 1.399218e+002
4.671286e+002, 1.398039e+002
4.676107e+002, 1.400530e+002
4.680928e+002, 1.401343e+002
4.685749e+002, 1.397297e+002
4.690570e+002, 1.394963e+002
4.695392e+002, 1.398460e+002
4.700213e+002, 1.404147e+002
4.705034e+002, 1.406321e+002
4.709855e+002, 1.402392e+002
4.714676e+002, 1.395325e+002
4.719497e+002, 1.389935e+002
4.724319e+002, 1.386193e+002
4.729140e+002, 1.384309e+002
4.733961e+002, 1.385576e+002
4.738782e+002, 1.387778e+002
4.743603e+002, 1.390045e+002
4.748424e+002, 1.392211e+002
4.753246e+002, 1.394082e+002
4.758067e+002, 1.396211e+002
4.762888e+002, 1.397724e+002
4.767709e+002, 1.395735e+002
4.772530e+002, 1.389419e+002
4.777351e+002, 1.385076e+002
4.782173e+002, 1.387999e+002
4.786994e+002, 1.393346e+002
4.791815e+002, 1.392940e+002
4.796636e+002, 1.384736e+002
4.801457e+002, 1.377142e+002
4.806278e+002, 1.374251e+002
4.811100e+002, 1.374833e+002
4.815920e+002, 1.377452e+002
4.820742e+002, 1.381978e+002
4.825563e+002, 1.385908e+002
4.830384e+002, 1.386788e+002
4.835205e+002, 1.384616e+002
4.840026e+002, 1.383181e+002
4.844847e+002, 1.382376e+002
4.849669e+002, 1.382358e+002
4.854490e+002, 1.383954e+002
4.859311e+002, 1.386220e+002
4.864132e+002, 1.387591e+002
4.868953e+002, 1.387487e+002
4.873774e+002, 1.386306e+002
4.878596e+002, 1.384663e+002
4.883417e+002, 1.382401e+002
4.888238e+002, 1.380047e+002
4.893059e+002, 1.376700e+002
4.897880e+002, 1.374138e+002
4.902701e+002, 1.373951e+002
4.907523e+002, 1.375240e+002
4.912344e+002, 1.375924e+002
4.917165e+002, 1.374695e+002
4.921986e+002, 1.372202e+002
4.926807e+002, 1.370128e+002
4.931628e+002, 1.368463e+002
4.936450e+002, 1.367277e+002
4.941271e+002, 1.367002e+002
4.946092e+002, 1.366934e+002
4.950913e+002, 1.366904e+002
4.955734e+002, 1.366771e+002
4.960555e+002, 1.365896e+002
4.965377e+002, 1.363585e+002
4.970198e+002, 1.360220e+002
4.975019e+002, 1.356142e+002
4.979840e+002, 1.350679e+002
4.984661e+002, 1.347904e+002
4.989482e+002, 1.352628e+002
4.994304e+002, 1.360518e+002
4.999125e+002, 1.362937e+002
5.003946e+002, 1.357364e+002
5.008767e+002, 1.351478e+002
5.013588e+002, 1.349509e+002
5.018409e+002, 1.349665e+002
5.023231e+002, 1.348232e+002
5.028052e+002, 1.344430e+002
5.032873e+002, 1.341412e+002
5.037694e+002, 1.342675e+002
5.042515e+002, 1.348432e+002
5.047336e+002, 1.351277e+002
5.052158e+002, 1.349379e+002
5.056979e+002, 1.346983e+002
5.061800e+002, 1.345391e+002
5.066621e+002, 1.344331e+002
5.071442e+002, 1.343366e+002
5.076263e+002, 1.342323e+002
5.081085e+002, 1.341138e+002
5.085906e+002, 1.339588e+002
5.090727e+002, 1.337268e+002
5.095548e+002, 1.336025e+002
5.100369e+002, 1.337150e+002
5.105190e+002, 1.338055e+002
5.110012e+002, 1.337477e+002
5.114833e+002, 1.335989e+002
5.119654e+002, 1.334591e+002
5.124475e+002, 1.333607e+002
5.129296e+002, 1.333537e+002
5.134117e+002, 1.336413e+002
5.138939e+002, 1.343118e+002
5.143760e+002, 1.345788e+002
5.148581e+002, 1.339474e+002
5.153402e+002, 1.331794e+002
5.158223e+002, 1.329566e+002
5.163044e+002, 1.332064e+002
5.167866e+002, 1.334007e+002
5.172687e+002, 1.332410e+002
5.177508e+002, 1.329509e+002
5.182329e+002, 1.328232e+002
5.187150e+002, 1.328512e+002
5.191971e+002, 1.328714e+002
5.196793e+002, 1.327866e+002
5.201614e+002, 1.326720e+002
5.206435e+002, 1.327459e+002
5.211256e+002, 1.331539e+002
5.216077e+002, 1.332972e+002
5.220898e+002, 1.329359e+002
5.225720e+002, 1.323670e+002
5.230541e+002, 1.316535e+002
5.235362e+002, 1.309315e+002
5.240183e+002, 1.306532e+002
5.245004e+002, 1.312188e+002
5.249825e+002, 1.323990e+002
5.254647e+002, 1.330126e+002
5.259468e+002, 1.327277e+002
5.264289e+002, 1.323008e+002
5.269110e+002, 1.316376e+002
5.273931e+002, 1.309787e+002
5.278752e+002, 1.305482e+002
5.283574e+002, 1.303499e+002
5.288395e+002, 1.301919e+002
5.293216e+002, 1.298386e+002
5.298037e+002, 1.293681e+002
5.302858e+002, 1.293341e+002
5.307679e+002, 1.299970e+002
5.312501e+002, 1.304912e+002
5.317322e+002, 1.301824e+002
5.322143e+002, 1.296385e+002
5.326964e+002, 1.294933e+002
5.331785e+002, 1.299008e+002
5.336606e+002, 1.302772e+002
5.341428e+002, 1.300323e+002
5.346249e+002, 1.295236e+002
5.351070e+002, 1.297047e+002
5.355891e+002, 1.307631e+002
5.360712e+002, 1.315925e+002
5.365533e+002, 1.312523e+002
5.370355e+002, 1.299450e+002
5.375176e+002, 1.290394e+002
5.379997e+002, 1.285813e+002
5.384818e+002, 1.284225e+002
5.389639e+002, 1.287428e+002
5.394460e+002, 1.292366e+002
5.399282e+002, 1.295295e+002
5.404103e+002, 1.295439e+002
5.408924e+002, 1.294189e+002
5.413745e+002, 1.292725e+002
5.418566e+002, 1.290990e+002
5.423387e+002, 1.291040e+002
5.428209e+002, 1.296149e+002
5.433029e+002, 1.299104e+002
5.437850e+002, 1.296826e+002
5.442672e+002, 1.292450e+002
5.447493e+002, 1.289859e+002
5.452314e+002, 1.290002e+002
5.457135e+002, 1.290157e+002
5.461956e+002, 1.286110e+002
5.466777e+002, 1.278494e+002
5.471599e+002, 1.275591e+002
5.476420e+002, 1.279846e+002
5.481241e+002, 1.284545e+002
5.486062e+002, 1.285546e+002
5.490883e+002, 1.284218e+002
5.495704e+002, 1.282290e+002
5.500526e+002, 1.279226e+002
5.505347e+002, 1.277367e+002
5.510168e+002, 1.279733e+002
5.514989e+002, 1.284086e+002
5.519810e+002, 1.284941e+002
5.524631e+002, 1.281055e+002
5.529453e+002, 1.277506e+002
5.534274e+002, 1.279665e+002
5.539095e+002, 1.287569e+002
5.543916e+002, 1.291175e+002
5.548737e+002, 1.287850e+002
5.553558e+002, 1.284068e+002
5.558380e+002, 1.280727e+002
5.563201e+002, 1.278292e+002
5.568022e+002, 1.277818e+002
5.572843e+002, 1.279305e+002
5.577664e+002, 1.280852e+002
5.582485e+002, 1.280191e+002
5.587307e+002, 1.277250e+002
5.592128e+002, 1.274154e+002
5.596949e+002, 1.269683e+002
5.601770e+002, 1.266966e+002
5.606591e+002, 1.267700e+002
5.611412e+002, 1.270237e+002
5.616234e+002, 1.273219e+002
5.621055e+002, 1.276508e+002
5.625876e+002, 1.277942e+002
5.630697e+002, 1.274188e+002
5.635518e+002, 1.266966e+002
5.640339e+002, 1.262022e+002
5.645161e+002, 1.260118e+002
5.649982e+002, 1.259955e+002
5.654803e+002, 1.261191e+002
5.659624e+002, 1.263449e+002
5.664445e+002, 1.264995e+002
5.669266e+002, 1.265954e+002
5.674088e+002, 1.266037e+002
5.678909e+002, 1.263702e+002
5.683730e+002, 1.261117e+002
5.688551e+002, 1.262138e+002
5.693372e+002, 1.266829e+002
5.698193e+002, 1.270352e+002
5.703015e+002, 1.267684e+002
5.707836e+002, 1.259304e+002
5.712657e+002, 1.254737e+002
5.717478e+002, 1.257914e+002
5.722299e+002, 1.259706e+002
5.727120e+002, 1.257426e+002
5.731942e+002, 1.253996e+002
5.736763e+002, 1.252406e+002
5.741584e+002, 1.252965e+002
5.746405e+002, 1.253446e+002
5.751226e+002, 1.251119e+002
5.756047e+002, 1.246996e+002
5.760869e+002, 1.245497e+002
5.765690e+002, 1.247066e+002
5.770511e+002, 1.249494e+002
5.775332e+002, 1.252982e+002
5.780153e+002, 1.255943e+002
5.784974e+002, 1.255710e+002
5.789796e+002, 1.251561e+002
5.794617e+002, 1.247310e+002
5.799438e+002, 1.244517e+002
5.804259e+002, 1.242304e+002
5.809080e+002, 1.239285e+002
5.813901e+002, 1.235631e+002
5.818723e+002, 1.232917e+002
5.823544e+002, 1.232149e+002
5.828365e+002, 1.233047e+002
5.833186e+002, 1.234755e+002
5.838007e+002, 1.239888e+002
5.842828e+002, 1.241717e+002
5.847650e+002, 1.236168e+002
5.852471e+002, 1.230834e+002
5.857292e+002, 1.232070e+002
5.862113e+002, 1.238241e+002
5.866934e+002, 1.242969e+002
5.871755e+002, 1.242128e+002
5.876577e+002, 1.237625e+002
5.881398e+002, 1.232940e+002
5.886219e+002, 1.227589e+002
5.891040e+002, 1.225705e+002
5.895861e+002, 1.231171e+002
5.900682e+002, 1.237248e+002
5.905504e+002, 1.236704e+002
5.910325e+002, 1.230657e+002
5.915146e+002, 1.226379e+002
5.919967e+002, 1.226777e+002
5.924788e+002, 1.229217e+002
5.929609e+002, 1.232688e+002
5.934431e+002, 1.236428e+002
5.939252e+002, 1.238171e+002
5.944073e+002, 1.237016e+002
5.948894e+002, 1.234272e+002
5.953715e+002, 1.231476e+002
5.958536e+002, 1.228103e+002
5.963358e+002, 1.227190e+002
5.968179e+002, 1.231592e+002
5.973000e+002, 1.234914e+002
5.977821e+002, 1.233939e+002
5.982642e+002, 1.230828e+002
5.987463e+002, 1.228837e+002
5.992285e+002, 1.229057e+002
5.997106e+002, 1.230020e+002
6.001927e+002, 1.230244e+002
6.006748e+002, 1.229713e+002
6.011569e+002, 1.227790e+002
6.016390e+002, 1.223583e+002
6.021212e+002, 1.219833e+002
6.026033e+002, 1.218856e+002
6.030854e+002, 1.219114e+002
6.035675e+002, 1.218022e+002
6.040496e+002, 1.214389e+002
6.045317e+002, 1.212042e+002
6.050139e+002, 1.213964e+002
6.054960e+002, 1.217891e+002
6.059781e+002, 1.220874e+002
6.064602e+002, 1.222463e+002
6.069423e+002, 1.222781e+002
6.074244e+002, 1.221775e+002
6.079066e+002, 1.219716e+002
6.083887e+002, 1.217748e+002
6.088708e+002, 1.214793e+002
6.093529e+002, 1.213606e+002
6.098350e+002, 1.215593e+002
6.103171e+002, 1.218266e+002
6.107993e+002, 1.220153e+002
6.112814e+002, 1.221116e+002
6.117635e+002, 1.221683e+002
6.122456e+002, 1.222522e+002
6.127277e+002, 1.222600e+002
6.132098e+002, 1.218222e+002
6.136920e+002, 1.208595e+002
6.141741e+002, 1.204138e+002
6.146562e+002, 1.210077e+002
6.151383e+002, 1.218447e+002
6.156204e+002, 1.221446e+002
6.161025e+002, 1.219812e+002
6.165847e+002, 1.217283e+002
6.170668e+002, 1.211698e+002
6.175489e+002, 1.208318e+002
6.180310e+002, 1.213008e+002
6.185131e+002, 1.221903e+002
6.189952e+002, 1.227334e+002
6.194774e+002, 1.227006e+002
6.199595e+002, 1.223186e+002
6.204416e+002, 1.218088e+002
6.209237e+002, 1.211472e+002
6.214058e+002, 1.206978e+002
6.218879e+002, 1.205053e+002
6.223701e+002, 1.204903e+002
6.228522e+002, 1.208521e+002
6.233343e+002, 1.212596e+002
6.238164e+002, 1.213087e+002
6.242985e+002, 1.209497e+002
6.247806e+002, 1.205896e+002
6.252628e+002, 1.206514e+002
6.257448e+002, 1.209513e+002
6.262269e+002, 1.209135e+002
6.267090e+002, 1.204842e+002
6.271912e+002, 1.202613e+002
6.276733e+002, 1.206348e+002
6.281554e+002, 1.212593e+002
6.286375e+002, 1.214321e+002
6.291196e+002, 1.210496e+002
6.296017e+002, 1.208088e+002
6.300839e+002, 1.206440e+002
6.305660e+002, 1.207996e+002
6.310481e+002, 1.219089e+002
6.315302e+002, 1.234411e+002
6.320123e+002, 1.241214e+002
6.324944e+002, 1.233615e+002
6.329766e+002, 1.218696e+002
6.334587e+002, 1.207582e+002
6.339408e+002, 1.200199e+002
6.344229e+002, 1.197100e+002
6.349050e+002, 1.201983e+002
6.353871e+002, 1.206389e+002
6.358693e+002, 1.205838e+002
6.363514e+002, 1.202771e+002
6.368335e+002, 1.200901e+002
6.373156e+002, 1.201239e+002
6.377977e+002, 1.202233e+002
6.382798e+002, 1.203050e+002
6.387620e+002, 1.203685e+002
6.392441e+002, 1.203837e+002
6.397262e+002, 1.203530e+002
6.402083e+002, 1.204188e+002
6.406904e+002, 1.207225e+002
6.411725e+002, 1.211358e+002
6.416547e+002, 1.212272e+002
6.421368e+002, 1.206345e+002
6.426189e+002, 1.202450e+002
6.431010e+002, 1.201660e+002
6.435831e+002, 1.201931e+002
6.440652e+002, 1.202549e+002
6.445474e+002, 1.203094e+002
6.450295e+002, 1.202893e+002
6.455116e+002, 1.201489e+002
6.459937e+002, 1.199671e+002
6.464758e+002, 1.198447e+002
6.469579e+002, 1.197821e+002
6.474401e+002, 1.198957e+002
6.479222e+002, 1.203421e+002
6.484043e+002, 1.206696e+002
6.488864e+002, 1.204037e+002
6.493685e+002, 1.197381e+002
6.498506e+002, 1.192811e+002
6.503328e+002, 1.191027e+002
6.508149e+002, 1.191010e+002
6.512970e+002, 1.194364e+002
6.517791e+002, 1.198198e+002
6.522612e+002, 1.198491e+002
6.527433e+002, 1.195245e+002
6.532255e+002, 1.191632e+002
6.537076e+002, 1.189938e+002
6.541897e+002, 1.189831e+002
6.546718e+002, 1.190226e+002
6.551539e+002, 1.191582e+002
6.556360e+002, 1.192303e+002
6.561182e+002, 1.190556e+002
6.566003e+002, 1.189513e+002
6.570824e+002, 1.191946e+002
6.575645e+002, 1.196633e+002
6.580466e+002, 1.199627e+002
6.585287e+002, 1.198621e+002
6.590109e+002, 1.196700e+002
6.594930e+002, 1.196842e+002
6.599751e+002, 1.198393e+002
6.604572e+002, 1.199829e+002
6.609393e+002, 1.200852e+002
6.614214e+002, 1.200565e+002
6.619036e+002, 1.197683e+002
6.623857e+002, 1.192661e+002
6.628678e+002, 1.190457e+002
6.633499e+002, 1.195064e+002
6.638320e+002, 1.197232e+002
6.643141e+002, 1.194041e+002
6.647963e+002, 1.189776e+002
6.652784e+002, 1.187993e+002
6.657605e+002, 1.188478e+002
6.662426e+002, 1.188640e+002
6.667247e+002, 1.186484e+002
6.672068e+002, 1.183772e+002
6.676890e+002, 1.184272e+002
6.681711e+002, 1.187860e+002
6.686532e+002, 1.190166e+002
6.691353e+002, 1.190132e+002
6.696174e+002, 1.188727e+002
6.700995e+002, 1.185939e+002
6.705817e+002, 1.182178e+002
6.710638e+002, 1.181157e+002
6.715459e+002, 1.186712e+002
6.720280e+002, 1.190342e+002
6.725101e+002, 1.187190e+002
6.729922e+002, 1.182023e+002
6.734744e+002, 1.180241e+002
6.739565e+002, 1.182210e+002
6.744386e+002, 1.184906e+002
6.749207e+002, 1.186310e+002
6.754028e+002, 1.186263e+002
6.758849e+002, 1.183728e+002
6.763671e+002, 1.177822e+002
6.768492e+002, 1.173323e+002
6.773313e+002, 1.171140e+002
6.778134e+002, 1.170699e+002
6.782955e+002, 1.171805e+002
6.787776e+002, 1.174191e+002
6.792598e+002, 1.176981e+002
6.797419e+002, 1.180783e+002
6.802240e+002, 1.183913e+002
6.807061e+002, 1.185102e+002
6.811882e+002, 1.185089e+002
6.816703e+002, 1.185146e+002
6.821525e+002, 1.185429e+002
6.826346e+002, 1.184927e+002
6.831167e+002, 1.182540e+002
6.835988e+002, 1.179013e+002
6.840809e+002, 1.178248e+002
6.845630e+002, 1.182096e+002
6.850452e+002, 1.184662e+002
6.855273e+002, 1.184044e+002
6.860094e+002, 1.182907e+002
6.864915e+002, 1.183279e+002
6.869736e+002, 1.184426e+002
6.874557e+002, 1.183828e+002
6.879379e+002, 1.179533e+002
6.884200e+002, 1.174976e+002
6.889021e+002, 1.172936e+002
6.893842e+002, 1.173001e+002
6.898663e+002, 1.175049e+002
6.903484e+002, 1.178962e+002
6.908306e+002, 1.181624e+002
6.913127e+002, 1.180214e+002
6.917948e+002, 1.175830e+002
6.922769e+002, 1.174180e+002
6.927590e+002, 1.180110e+002
6.932411e+002, 1.180902e+002
6.937233e+002, 1.169980e+002
6.942054e+002, 1.159599e+002
6.946875e+002, 1.158180e+002
6.951696e+002, 1.163416e+002
6.956517e+002, 1.168237e+002
6.961339e+002, 1.169597e+002
6.966160e+002, 1.169356e+002
6.970981e+002, 1.169177e+002
6.975802e+002, 1.169103e+002
6.980623e+002, 1.169528e+002
6.985444e+002, 1.170583e+002
6.990266e+002, 1.170766e+002
6.995087e+002, 1.168327e+002
6.999908e+002, 1.164615e+002
7.004729e+002, 1.164899e+002
7.009550e+002, 1.174798e+002
7.014371e+002, 1.180026e+002
7.019193e+002, 1.177654e+002
7.024014e+002, 1.173105e+002
7.028835e+002, 1.167884e+002
7.033656e+002, 1.163403e+002
7.038477e+002, 1.162219e+002
7.043298e+002, 1.165731e+002
7.048120e+002, 1.170161e+002
7.052941e+002, 1.170207e+002
7.057762e+002, 1.166947e+002
7.062583e+002, 1.166143e+002
7.067404e+002, 1.168792e+002
7.072225e+002, 1.170526e+002
7.077046e+002, 1.168192e+002
7.081867e+002, 1.163697e+002
7.086688e+002, 1.161961e+002
7.091509e+002, 1.163962e+002
7.096331e+002, 1.166031e+002
7.101152e+002, 1.167995e+002
7.105973e+002, 1.169894e+002
7.110794e+002, 1.173036e+002
7.115615e+002, 1.175764e+002
7.120436e+002, 1.174135e+002
7.125258e+002, 1.166865e+002
7.130079e+002, 1.159679e+002
7.134900e+002, 1.160980e+002
7.139721e+002, 1.168662e+002
7.144542e+002, 1.170122e+002
7.149363e+002, 1.163917e+002
7.154185e+002, 1.158395e+002
7.159006e+002, 1.157335e+002
7.163827e+002, 1.159083e+002
7.168648e+002, 1.161194e+002
7.173469e+002, 1.163763e+002
7.178290e+002, 1.166068e+002
7.183112e+002, 1.168236e+002
7.187933e+002, 1.169921e+002
7.192754e+002, 1.170901e+002
7.197575e+002, 1.171307e+002
7.202396e+002, 1.171218e+002
7.207217e+002, 1.170710e+002
7.212039e+002, 1.170126e+002
7.216860e+002, 1.170040e+002
7.221681e+002, 1.170095e+002
7.226502e+002, 1.168408e+002
7.231323e+002, 1.164591e+002
7.236144e+002, 1.162336e+002
7.240966e+002, 1.163442e+002
7.245787e+002, 1.165635e+002
7.250608e+002, 1.166062e+002
7.255429e+002, 1.164785e+002
7.260250e+002, 1.164683e+002
7.265071e+002, 1.167578e+002
7.269893e+002, 1.169686e+002
7.274714e+002, 1.169036e+002
7.279535e+002, 1.167251e+002
7.284356e+002, 1.165933e+002
7.289177e+002, 1.165424e+002
7.293998e+002, 1.165606e+002
7.298820e+002, 1.166634e+002
7.303641e+002, 1.167844e+002
7.308462e+002, 1.167252e+002
7.313283e+002, 1.164746e+002
7.318104e+002, 1.163990e+002
7.322925e+002, 1.166748e+002
7.327747e+002, 1.168821e+002
7.332568e+002, 1.165655e+002
7.337389e+002, 1.158677e+002
7.342210e+002, 1.155513e+002
7.347031e+002, 1.158044e+002
7.351852e+002, 1.161431e+002
7.356674e+002, 1.164887e+002
7.361495e+002, 1.168679e+002
7.366316e+002, 1.174681e+002
7.371137e+002, 1.181192e+002
7.375958e+002, 1.183404e+002
7.380779e+002, 1.178672e+002
7.385601e+002, 1.171377e+002
7.390422e+002, 1.167806e+002
7.395243e+002, 1.167655e+002
7.400064e+002, 1.168530e+002
7.404885e+002, 1.170911e+002
7.409706e+002, 1.170841e+002
7.414528e+002, 1.163701e+002
7.419349e+002, 1.154445e+002
7.424170e+002, 1.155657e+002
7.428991e+002, 1.172323e+002
7.433812e+002, 1.181381e+002
7.438633e+002, 1.173852e+002
7.443455e+002, 1.165724e+002
7.448276e+002, 1.166328e+002
7.453097e+002, 1.171551e+002
7.457918e+002, 1.174643e+002
7.462739e+002, 1.173630e+002
7.467560e+002, 1.170653e+002
7.472382e+002, 1.166622e+002
7.477203e+002, 1.162432e+002
7.482024e+002, 1.161736e+002
7.486845e+002, 1.164662e+002
7.491666e+002, 1.165335e+002
7.496487e+002, 1.160835e+002
7.501309e+002, 1.155754e+002
7.506130e+002, 1.155928e+002
7.510951e+002, 1.161767e+002
7.515772e+002, 1.165112e+002
7.520593e+002, 1.163264e+002
7.525414e+002, 1.162605e+002
7.530236e+002, 1.166604e+002
7.535057e+002, 1.170864e+002
7.539878e+002, 1.170592e+002
7.544699e+002, 1.166439e+002
7.549520e+002, 1.162982e+002
7.554341e+002, 1.162899e+002
7.559163e+002, 1.164501e+002
7.563984e+002, 1.165780e+002
7.568805e+002, 1.166734e+002
7.573626e+002, 1.167729e+002
7.578447e+002, 1.168934e+002
7.583268e+002, 1.168180e+002
7.588090e+002, 1.163100e+002
7.592911e+002, 1.155725e+002
7.597732e+002, 1.152951e+002
7.602553e+002, 1.158519e+002
7.607374e+002, 1.161955e+002
7.612195e+002, 1.162964e+002
7.617017e+002, 1.162356e+002
7.621838e+002, 1.158734e+002
7.626659e+002, 1.154410e+002
7.631480e+002, 1.153161e+002
7.636301e+002, 1.156125e+002
7.641122e+002, 1.159910e+002
7.645944e+002, 1.162540e+002
7.650765e+002, 1.164128e+002
7.655586e+002, 1.164410e+002
7.660407e+002, 1.163667e+002
7.665228e+002, 1.163315e+002
7.670049e+002, 1.163896e+002
7.674871e+002, 1.165027e+002
7.679692e+002, 1.166362e+002
7.684513e+002, 1.167956e+002
7.689334e+002, 1.168254e+002
7.694155e+002, 1.167114e+002
7.698976e+002, 1.164830e+002
7.703798e+002, 1.157954e+002
7.708619e+002, 1.152744e+002
7.713440e+002, 1.156202e+002
7.718261e+002, 1.166587e+002
7.723082e+002, 1.174089e+002
7.727903e+002, 1.174560e+002
7.732725e+002, 1.172155e+002
7.737546e+002, 1.168541e+002
7.742367e+002, 1.164438e+002
7.747188e+002, 1.160036e+002
7.752009e+002, 1.155981e+002
7.756830e+002, 1.155244e+002
7.761652e+002, 1.160122e+002
7.766473e+002, 1.167954e+002
7.771294e+002, 1.172521e+002
7.776115e+002, 1.173532e+002
7.780936e+002, 1.173154e+002
7.785757e+002, 1.170659e+002
7.790579e+002, 1.168379e+002
7.795400e+002, 1.167763e+002
7.800221e+002, 1.168084e+002
7.805042e+002, 1.168018e+002
7.809863e+002, 1.167292e+002
7.814684e+002, 1.167353e+002
7.819506e+002, 1.169952e+002
7.824327e+002, 1.172038e+002
7.829148e+002, 1.171105e+002
7.833969e+002, 1.168498e+002
7.838790e+002, 1.165962e+002
7.843611e+002, 1.164253e+002
7.848433e+002, 1.164551e+002
7.853254e+002, 1.168840e+002
7.858075e+002, 1.175403e+002
7.862896e+002, 1.179311e+002
7.867717e+002, 1.180543e+002
7.872538e+002, 1.178744e+002
7.877360e+002, 1.172391e+002
7.882181e+002, 1.167523e+002
7.887002e+002, 1.171155e+002
7.891823e+002, 1.181737e+002
7.896644e+002, 1.185922e+002
7.901465e+002, 1.177523e+002
7.906286e+002, 1.171963e+002
7.911107e+002, 1.172280e+002
7.915928e+002, 1.174006e+002
7.920750e+002, 1.174004e+002
7.925571e+002, 1.173170e+002
7.930392e+002, 1.174602e+002
7.935213e+002, 1.179838e+002
7.940034e+002, 1.183627e+002
7.944855e+002, 1.179393e+002
7.949677e+002, 1.171386e+002
7.954498e+002, 1.167179e+002
7.959319e+002, 1.167011e+002
7.964140e+002, 1.169574e+002
7.968961e+002, 1.174521e+002
7.973782e+002, 1.179940e+002
7.978604e+002, 1.183273e+002
7.983425e+002, 1.184490e+002
7.988246e+002, 1.184428e+002
7.993067e+002, 1.182661e+002
7.997888e+002, 1.180364e+002
8.002709e+002, 1.176247e+002
8.007531e+002, 1.172955e+002
8.012352e+002, 1.173541e+002
8.017173e+002, 1.177070e+002
8.021994e+002, 1.178801e+002
8.026815e+002, 1.176282e+002
8.031636e+002, 1.173500e+002
8.036458e+002, 1.172279e+002
8.041279e+002, 1.172090e+002
8.046100e+002, 1.172221e+002
8.050921e+002, 1.172751e+002
8.055742e+002, 1.174729e+002
8.060563e+002, 1.178846e+002
8.065385e+002, 1.182867e+002
8.070206e+002, 1.182156e+002
8.075027e+002, 1.177257e+002
8.079848e+002, 1.176376e+002
8.084669e+002, 1.180787e+002
8.089490e+002, 1.184364e+002
8.094312e+002, 1.184344e+002
8.099133e+002, 1.182153e+002
8.103954e+002, 1.179565e+002
8.108775e+002, 1.176359e+002
8.113596e+002, 1.174349e+002
8.118417e+002, 1.173914e+002
8.123239e+002, 1.174174e+002
8.128060e+002, 1.175816e+002
8.132881e+002, 1.177389e+002
8.137702e+002, 1.176762e+002
8.142523e+002, 1.174580e+002
8.147344e+002, 1.174274e+002
8.152166e+002, 1.178669e+002
8.156987e+002, 1.183204e+002
8.161808e+002, 1.182325e+002
8.166629e+002, 1.178168e+002
8.171450e+002, 1.175124e+002
8.176271e+002, 1.173778e+002
8.181093e+002, 1.173653e+002
8.185914e+002, 1.174539e+002
8.190735e+002, 1.176100e+002
8.195556e+002, 1.177730e+002
8.200377e+002, 1.179423e+002
8.205198e+002, 1.181159e+002
8.210020e+002, 1.182909e+002
8.214841e+002, 1.184817e+002
8.219662e+002, 1.189164e+002
8.224483e+002, 1.192058e+002
8.229304e+002, 1.186452e+002
8.234125e+002, 1.172874e+002
8.238947e+002, 1.167278e+002
8.243768e+002, 1.181980e+002
8.248589e+002, 1.194297e+002
8.253410e+002, 1.191399e+002
8.258231e+002, 1.182930e+002
8.263052e+002, 1.179575e+002
8.267874e+002, 1.181670e+002
8.272695e+002, 1.183799e+002
8.277516e+002, 1.182857e+002
8.282337e+002, 1.181017e+002
8.287158e+002, 1.182201e+002
8.291979e+002, 1.185233e+002
8.296801e+002, 1.184071e+002
8.301622e+002, 1.178162e+002
8.306443e+002, 1.174922e+002
8.311264e+002, 1.178806e+002
8.316085e+002, 1.184917e+002
8.320906e+002, 1.184619e+002
8.325728e+002, 1.176340e+002
8.330549e+002, 1.173146e+002
8.335370e+002, 1.178938e+002
8.340191e+002, 1.184270e+002
8.345012e+002, 1.188437e+002
8.349833e+002, 1.190227e+002
8.354655e+002, 1.186637e+002
8.359476e+002, 1.179248e+002
8.364297e+002, 1.175627e+002
8.369118e+002, 1.180399e+002
8.373939e+002, 1.185646e+002
8.378760e+002, 1.187487e+002
8.383582e+002, 1.187218e+002
8.388403e+002, 1.185154e+002
8.393224e+002, 1.182392e+002
8.398045e+002, 1.182106e+002
8.402866e+002, 1.185821e+002
8.407687e+002, 1.189886e+002
8.412509e+002, 1.188756e+002
8.417330e+002, 1.183384e+002
8.422151e+002, 1.179041e+002
8.426972e+002, 1.175818e+002
8.431793e+002, 1.173957e+002
8.436614e+002, 1.173970e+002
8.441436e+002, 1.174136e+002
8.446257e+002, 1.171974e+002
8.451078e+002, 1.167599e+002
8.455899e+002, 1.166621e+002
8.460720e+002, 1.171807e+002
8.465541e+002, 1.176372e+002
8.470363e+002, 1.179024e+002
8.475184e+002, 1.181554e+002
8.480005e+002, 1.186952e+002
8.484826e+002, 1.192778e+002
8.489647e+002, 1.193009e+002
8.494468e+002, 1.184894e+002
8.499290e+002, 1.176658e+002
8.504111e+002, 1.171874e+002
8.508932e+002, 1.169808e+002
8.513753e+002, 1.171576e+002
8.518574e+002, 1.175065e+002
8.523395e+002, 1.174997e+002
8.528217e+002, 1.170176e+002
8.533038e+002, 1.165412e+002
8.537859e+002, 1.165828e+002
8.542680e+002, 1.169622e+002
8.547501e+002, 1.171138e+002
8.552322e+002, 1.170388e+002
8.557144e+002, 1.169588e+002
8.561965e+002, 1.169353e+002
8.566786e+002, 1.168237e+002
8.571607e+002, 1.164732e+002
8.576428e+002, 1.159843e+002
8.581249e+002, 1.156852e+002
8.586071e+002, 1.156860e+002
8.590892e+002, 1.156383e+002
8.595713e+002, 1.153653e+002
8.600534e+002, 1.152492e+002
8.605355e+002, 1.156767e+002
8.610176e+002, 1.161905e+002
8.614998e+002, 1.160943e+002
8.619819e+002, 1.153621e+002
8.624640e+002, 1.149588e+002
8.629461e+002, 1.156593e+002
8.634282e+002, 1.163959e+002
8.639103e+002, 1.163829e+002
8.643925e+002, 1.159812e+002
8.648746e+002, 1.156532e+002
8.653567e+002, 1.154684e+002
8.658388e+002, 1.153542e+002
8.663209e+002, 1.152813e+002
8.668030e+002, 1.151580e+002
8.672852e+002, 1.147672e+002
8.677673e+002, 1.141853e+002
8.682494e+002, 1.138829e+002
8.687315e+002, 1.139000e+002
8.692136e+002, 1.136833e+002
8.696957e+002, 1.128951e+002
8.701779e+002, 1.121702e+002
8.706600e+002, 1.124699e+002
8.711421e+002, 1.138094e+002
8.716242e+002, 1.144005e+002
8.721063e+002, 1.138471e+002
8.725884e+002, 1.132410e+002
8.730705e+002, 1.125743e+002
8.735526e+002, 1.120790e+002
8.740347e+002, 1.120947e+002
8.745168e+002, 1.123671e+002
8.749990e+002, 1.122087e+002
8.754811e+002, 1.112742e+002
8.759632e+002, 1.106385e+002
8.764453e+002, 1.109719e+002
8.769274e+002, 1.114554e+002
8.774095e+002, 1.115199e+002
8.778917e+002, 1.112902e+002
8.783738e+002, 1.109803e+002
8.788559e+002, 1.106783e+002
8.793380e+002, 1.105081e+002
8.798201e+002, 1.106358e+002
8.803022e+002, 1.108689e+002
8.807844e+002, 1.109762e+002
8.812665e+002, 1.109186e+002
8.817486e+002, 1.104084e+002
8.822307e+002, 1.094415e+002
8.827128e+002, 1.087157e+002
8.831949e+002, 1.086952e+002
8.836771e+002, 1.090963e+002
8.841592e+002, 1.093355e+002
8.846413e+002, 1.093842e+002
8.851234e+002, 1.095174e+002
8.856055e+002, 1.098569e+002
8.860876e+002, 1.099625e+002
8.865698e+002, 1.095217e+002
8.870519e+002, 1.089463e+002
8.875340e+002, 1.087351e+002
8.880161e+002, 1.088572e+002
8.884982e+002, 1.088179e+002
8.889803e+002, 1.085672e+002
8.894625e+002, 1.082066e+002
8.899446e+002, 1.075779e+002
8.904267e+002, 1.070087e+002
8.909088e+002, 1.067740e+002
8.913909e+002, 1.067578e+002
8.918730e+002, 1.067025e+002
8.923552e+002, 1.065341e+002
8.928373e+002, 1.064007e+002
8.933194e+002, 1.065121e+002
8.938015e+002, 1.066096e+002
8.942836e+002, 1.063782e+002
8.947657e+002, 1.059289e+002
8.952479e+002, 1.054681e+002
8.957300e+002, 1.050629e+002
8.962121e+002, 1.047435e+002
8.966942e+002, 1.045292e+002
8.971763e+002, 1.044333e+002
8.976584e+002, 1.045589e+002
8.981406e+002, 1.048681e+002
8.986227e+002, 1.049676e+002
8.991048e+002, 1.048094e+002
8.995869e+002, 1.046021e+002
9.000690e+002, 1.044607e+002
9.005511e+002, 1.042563e+002
9.010333e+002, 1.037325e+002
9.015154e+002, 1.028533e+002
9.019975e+002, 1.024809e+002
9.024796e+002, 1.028677e+002
9.029617e+002, 1.032969e+002
9.034438e+002, 1.038155e+002
9.039260e+002, 1.041603e+002
9.044081e+002, 1.041195e+002
9.048902e+002, 1.037760e+002
9.053723e+002, 1.032880e+002
9.058544e+002, 1.025039e+002
9.063365e+002, 1.020638e+002
9.068187e+002, 1.024772e+002
9.073008e+002, 1.029052e+002
9.077829e+002, 1.027523e+002
9.082650e+002, 1.023502e+002
9.087471e+002, 1.022575e+002
9.092292e+002, 1.025013e+002
9.097114e+002, 1.025538e+002
9.101935e+002, 1.019675e+002
9.106756e+002, 1.012778e+002
9.111577e+002, 1.010788e+002
9.116398e+002, 1.011440e+002
9.121219e+002, 1.010533e+002
9.126041e+002, 1.007945e+002
9.130862e+002, 1.005427e+002
9.135683e+002, 1.003806e+002
9.140504e+002, 1.003633e+002
9.145325e+002, 1.006521e+002
9.150146e+002, 1.011578e+002
9.154968e+002, 1.013853e+002
9.159789e+002, 1.013334e+002
9.164610e+002, 1.009676e+002
9.169431e+002, 1.001830e+002
9.174252e+002, 9.952837e+001
9.179073e+002, 9.949310e+001
9.183895e+002, 9.991019e+001
9.188716e+002, 1.001685e+002
9.193537e+002, 1.002032e+002
9.198358e+002, 1.002539e+002
9.203179e+002, 1.004402e+002
9.208000e+002, 1.004684e+002
9.212822e+002, 1.000977e+002
9.217643e+002, 9.958876e+001
9.222464e+002, 9.917915e+001
9.227285e+002, 9.887718e+001
9.232106e+002, 9.873718e+001
9.236927e+002, 9.895227e+001
9.241749e+002, 9.907784e+001
9.246570e+002, 9.885035e+001
9.251391e+002, 9.861172e+001
9.256212e+002, 9.865993e+001
9.261033e+002, 9.890382e+001
9.265854e+002, 9.917951e+001
9.270676e+002, 9.944786e+001
9.275497e+002, 9.944791e+001
9.280318e+002, 9.867197e+001
9.285139e+002, 9.784542e+001
9.289960e+002, 9.780514e+001
9.294781e+002, 9.822963e+001
9.299603e+002, 9.850439e+001
9.304424e+002, 9.852074e+001
9.309245e+002, 9.843370e+001
9.314066e+002, 9.832483e+001
9.318887e+002, 9.826399e+001
9.323708e+002, 9.849699e+001
9.328530e+002, 9.887981e+001
9.333351e+002, 9.871334e+001
9.338172e+002, 9.799770e+001
9.342993e+002, 9.735329e+001
9.347814e+002, 9.700120e+001
9.352635e+002, 9.693779e+001
9.357457e+002, 9.722890e+001
9.362278e+002, 9.776392e+001
9.367099e+002, 9.785821e+001
9.371920e+002, 9.740244e+001
9.376741e+002, 9.696186e+001
9.381563e+002, 9.654579e+001
9.386384e+002, 9.627250e+001
9.391205e+002, 9.624628e+001
9.396026e+002, 9.636822e+001
9.400847e+002, 9.645804e+001
9.405668e+002, 9.649555e+001
9.410490e+002, 9.662029e+001
9.415311e+002, 9.709972e+001
9.420132e+002, 9.729986e+001
9.424953e+002, 9.680239e+001
9.429774e+002, 9.625710e+001
9.434595e+002, 9.617566e+001
9.439417e+002, 9.642627e+001
9.444238e+002, 9.663972e+001
9.449059e+002, 9.678206e+001
9.453880e+002, 9.674346e+001
9.458701e+002, 9.629220e+001
9.463522e+002, 9.585223e+001
9.468344e+002, 9.569626e+001
9.473165e+002, 9.573250e+001
9.477986e+002, 9.586576e+001
9.482807e+002, 9.604887e+001
9.487628e+002, 9.620852e+001
9.492449e+002, 9.632336e+001
9.497271e+002, 9.635465e+001
9.502092e+002, 9.620300e+001
9.506913e+002, 9.598014e+001
9.511734e+002, 9.588765e+001
9.516555e+002, 9.588551e+001
9.521376e+002, 9.576247e+001
9.526198e+002, 9.546223e+001
9.531019e+002, 9.520710e+001
9.535840e+002, 9.522581e+001
9.540661e+002, 9.542037e+001
9.545482e+002, 9.560349e+001
9.550303e+002, 9.575681e+001
9.555124e+002, 9.571533e+001
9.559945e+002, 9.545658e+001
9.564766e+002, 9.525761e+001
9.569587e+002, 9.528255e+001
9.574409e+002, 9.535109e+001
9.579230e+002, 9.513148e+001
9.584051e+002, 9.463271e+001
9.588872e+002, 9.451528e+001
9.593693e+002, 9.490534e+001
9.598514e+002, 9.512205e+001
9.603336e+002, 9.496704e+001
9.608157e+002, 9.472536e+001
9.612978e+002, 9.459607e+001
9.617799e+002, 9.454665e+001
9.622620e+002, 9.449223e+001
9.627441e+002, 9.445472e+001
9.632263e+002, 9.434123e+001
9.637084e+002, 9.393700e+001
9.641905e+002, 9.375233e+001
9.646726e+002, 9.409500e+001
9.651547e+002, 9.456498e+001
9.656368e+002, 9.484422e+001
9.661190e+002, 9.495120e+001
9.666011e+002, 9.501806e+001
9.670832e+002, 9.508329e+001
9.675653e+002, 9.506498e+001
9.680474e+002, 9.499683e+001
9.685295e+002, 9.478468e+001
9.690117e+002, 9.408370e+001
9.694938e+002, 9.337095e+001
9.699759e+002, 9.345025e+001
9.704580e+002, 9.427788e+001
9.709401e+002, 9.478000e+001
9.714222e+002, 9.426527e+001
9.719044e+002, 9.366405e+001
9.723865e+002, 9.357238e+001
9.728686e+002, 9.368289e+001
9.733507e+002, 9.374825e+001
9.738328e+002, 9.372041e+001
9.743149e+002, 9.349647e+001
9.747971e+002, 9.308325e+001
9.752792e+002, 9.284419e+001
9.757613e+002, 9.326830e+001
9.762434e+002, 9.380167e+001
9.767255e+002, 9.349456e+001
9.772076e+002, 9.279880e+001
9.776898e+002, 9.276920e+001
9.781719e+002, 9.340414e+001
9.786540e+002, 9.400504e+001
9.791361e+002, 9.424155e+001
9.796182e+002, 9.423486e+001
9.801003e+002, 9.406997e+001
9.805825e+002, 9.380766e+001
9.810646e+002, 9.370987e+001
9.815467e+002, 9.373840e+001
9.820288e+002, 9.347086e+001
9.825109e+002, 9.282714e+001
9.829930e+002, 9.249920e+001
9.834752e+002, 9.299655e+001
9.839573e+002, 9.380355e+001
9.844394e+002, 9.388471e+001
9.849215e+002, 9.323390e+001
9.854036e+002, 9.282448e+001
9.858857e+002, 9.268088e+001
9.863679e+002, 9.265298e+001
9.868500e+002, 9.272365e+001
9.873321e+002, 9.284013e+001
9.878142e+002, 9.299342e+001
9.882963e+002, 9.312788e+001
9.887784e+002, 9.304829e+001
9.892606e+002, 9.265866e+001
9.897427e+002, 9.238380e+001
9.902248e+002, 9.216729e+001
9.907069e+002, 9.218835e+001
9.911890e+002, 9.268454e+001
9.916711e+002, 9.324399e+001
9.921533e+002, 9.352359e+001
9.926354e+002, 9.353040e+001
9.931175e+002, 9.328325e+001
9.935996e+002, 9.239636e+001
9.940817e+002, 9.195272e+001
9.945638e+002, 9.240945e+001
9.950460e+002, 9.278078e+001
9.955281e+002, 9.239519e+001
9.960102e+002, 9.193838e+001
9.964923e+002, 9.239122e+001
9.969744e+002, 9.359654e+001
9.974565e+002, 9.413046e+001
9.979387e+002, 9.324397e+001
9.984208e+002, 9.247236e+001
9.989029e+002, 9.223018e+001
9.993850e+002, 9.218750e+001
9.998671e+002, 9.218530e+001
1.000349e+003, 9.223076e+001
1.000831e+003, 9.241662e+001
1.001313e+003, 9.271981e+001
1.001796e+003, 9.286995e+001
1.002278e+003, 9.267061e+001
1.002760e+003, 9.242141e+001
1.003242e+003, 9.228422e+001
1.003724e+003, 9.217287e+001
1.004206e+003, 9.191421e+001
1.004688e+003, 9.164809e+001
1.005170e+003, 9.171882e+001
1.005653e+003, 9.216792e+001
1.006135e+003, 9.253885e+001
1.006617e+003, 9.249917e+001
1.007099e+003, 9.232323e+001
1.007581e+003, 9.220155e+001
1.008063e+003, 9.214723e+001
1.008545e+003, 9.228331e+001
1.009027e+003, 9.249526e+001
1.009509e+003, 9.239168e+001
1.009992e+003, 9.186951e+001
1.010474e+003, 9.142100e+001
1.010956e+003, 9.154367e+001
1.011438e+003, 9.192039e+001
1.011920e+003, 9.213135e+001
1.012402e+003, 9.220535e+001
1.012884e+003, 9.212516e+001
1.013366e+003, 9.195938e+001
1.013849e+003, 9.205987e+001
1.014331e+003, 9.256934e+001
1.014813e+003, 9.299843e+001
1.015295e+003, 9.269263e+001
1.015777e+003, 9.198420e+001
1.016259e+003, 9.168723e+001
1.016741e+003, 9.174344e+001
1.017223e+003, 9.196072e+001
1.017705e+003, 9.228120e+001
1.018188e+003, 9.245258e+001
1.018670e+003, 9.233972e+001
1.019152e+003, 9.211095e+001
1.019634e+003, 9.199906e+001
1.020116e+003, 9.197181e+001
1.020598e+003, 9.185711e+001
1.021080e+003, 9.165960e+001
1.021562e+003, 9.148640e+001
1.022044e+003, 9.135403e+001
1.022527e+003, 9.127486e+001
1.023009e+003, 9.124892e+001
1.023491e+003, 9.131931e+001
1.023973e+003, 9.159982e+001
1.024455e+003, 9.206524e+001
1.024937e+003, 9.226680e+001
1.025419e+003, 9.217718e+001
1.025901e+003, 9.201949e+001
1.026384e+003, 9.179057e+001
1.026866e+003, 9.172758e+001
1.027348e+003, 9.205347e+001
1.027830e+003, 9.246481e+001
1.028312e+003, 9.234325e+001
1.028794e+003, 9.165104e+001
1.029276e+003, 9.139701e+001
1.029758e+003, 9.173331e+001
1.030240e+003, 9.197952e+001
1.030723e+003, 9.202410e+001
1.031205e+003, 9.190547e+001
1.031687e+003, 9.156666e+001
1.032169e+003, 9.117030e+001
1.032651e+003, 9.106493e+001
1.033133e+003, 9.129492e+001
1.033615e+003, 9.143375e+001
1.034097e+003, 9.141787e+001
1.034579e+003, 9.144648e+001
1.035062e+003, 9.155263e+001
1.035544e+003, 9.172187e+001
1.036026e+003, 9.201601e+001
1.036508e+003, 9.232187e+001
1.036990e+003, 9.237691e+001
1.037472e+003, 9.211771e+001
1.037954e+003, 9.196537e+001
1.038436e+003, 9.209409e+001
1.038919e+003, 9.204511e+001
1.039401e+003, 9.146813e+001
1.039883e+003, 9.099088e+001
1.040365e+003, 9.121438e+001
1.040847e+003, 9.176038e+001
1.041329e+003, 9.177471e+001
1.041811e+003, 9.110769e+001
1.042293e+003, 9.071143e+001
1.042776e+003, 9.074443e+001
1.043258e+003, 9.085132e+001
1.043740e+003, 9.104666e+001
1.044222e+003, 9.121790e+001
1.044704e+003, 9.125854e+001
1.045186e+003, 9.123559e+001
1.045668e+003, 9.131137e+001
1.046150e+003, 9.153362e+001
1.046632e+003, 9.158003e+001
1.047115e+003, 9.116161e+001
1.047597e+003, 9.091535e+001
1.048079e+003, 9.117712e+001
1.048561e+003, 9.148451e+001
1.049043e+003, 9.159766e+001
1.049525e+003, 9.149869e+001
1.050007e+003, 9.108968e+001
1.050489e+003, 9.031004e+001
1.050971e+003, 8.985574e+001
1.051454e+003, 9.014944e+001
1.051936e+003, 9.039372e+001
1.052418e+003, 9.028667e+001
1.052900e+003, 9.011221e+001
1.053382e+003, 9.007447e+001
1.053864e+003, 9.012230e+001
1.054346e+003, 9.013302e+001
1.054828e+003, 9.008766e+001
1.055311e+003, 9.008173e+001
1.055793e+003, 9.018832e+001
1.056275e+003, 9.027364e+001
1.056757e+003, 9.026541e+001
1.057239e+003, 9.024567e+001
1.057721e+003, 9.025634e+001
1.058203e+003, 9.030816e+001
1.058685e+003, 9.050032e+001
1.059167e+003, 9.083298e+001
1.059650e+003, 9.082560e+001
1.060132e+003, 8.991845e+001
1.060614e+003, 8.918909e+001
1.061096e+003, 8.918723e+001
1.061578e+003, 8.937544e+001
1.062060e+003, 8.933466e+001
1.062542e+003, 8.919687e+001
1.063024e+003, 8.928797e+001
1.063506e+003, 8.962953e+001
1.063989e+003, 8.980041e+001
1.064471e+003, 8.955078e+001
1.064953e+003, 8.924056e+001
1.065435e+003, 8.892536e+001
1.065917e+003, 8.869614e+001
1.066399e+003, 8.876439e+001
1.066881e+003, 8.889404e+001
1.067363e+003, 8.859000e+001
1.067846e+003, 8.787576e+001
1.068328e+003, 8.754350e+001
1.068810e+003, 8.820094e+001
1.069292e+003, 8.874446e+001
1.069774e+003, 8.845439e+001
1.070256e+003, 8.809653e+001
1.070738e+003, 8.838334e+001
1.071220e+003, 8.889530e+001
1.071703e+003, 8.892768e+001
1.072185e+003, 8.847517e+001
1.072667e+003, 8.817017e+001
1.073149e+003, 8.833671e+001
1.073631e+003, 8.846856e+001
1.074113e+003, 8.831313e+001
1.074595e+003, 8.805580e+001
1.075077e+003, 8.768089e+001
1.075559e+003, 8.737997e+001
1.076042e+003, 8.746739e+001
1.076524e+003, 8.788073e+001
1.077006e+003, 8.821143e+001
1.077488e+003, 8.835363e+001
1.077970e+003, 8.829539e+001
1.078452e+003, 8.781014e+001
1.078934e+003, 8.736521e+001
1.079416e+003, 8.737495e+001
1.079898e+003, 8.753544e+001
1.080380e+003, 8.740714e+001
1.080863e+003, 8.706711e+001
1.081345e+003, 8.696113e+001
1.081827e+003, 8.728284e+001
1.082309e+003, 8.755590e+001
1.082791e+003, 8.754274e+001
1.083273e+003, 8.744397e+001
1.083755e+003, 8.739006e+001
1.084237e+003, 8.730685e+001
1.084720e+003, 8.702374e+001
1.085202e+003, 8.665050e+001
1.085684e+003, 8.651978e+001
1.086166e+003, 8.674828e+001
1.086648e+003, 8.691172e+001
1.087130e+003, 8.677845e+001
1.087612e+003, 8.659973e+001
1.088094e+003, 8.648931e+001
1.088577e+003, 8.640678e+001
1.089059e+003, 8.627227e+001
1.089541e+003, 8.614518e+001
1.090023e+003, 8.618656e+001
1.090505e+003, 8.643053e+001
1.090987e+003, 8.660963e+001
1.091469e+003, 8.669081e+001
1.091951e+003, 8.660088e+001
1.092433e+003, 8.616586e+001
1.092916e+003, 8.568785e+001
1.093398e+003, 8.533786e+001
1.093880e+003, 8.514807e+001
1.094362e+003, 8.516297e+001
1.094844e+003, 8.537663e+001
1.095326e+003, 8.564809e+001
1.095808e+003, 8.615720e+001
1.096290e+003, 8.638504e+001
1.096772e+003, 8.581516e+001
1.097255e+003, 8.528429e+001
1.097737e+003, 8.543118e+001
1.098219e+003, 8.587417e+001
1.098701e+003, 8.608725e+001
1.099183e+003, 8.604379e+001
1.099665e+003, 8.601563e+001
1.100147e+003, 8.619151e+001
1.100629e+003, 8.611778e+001
1.101112e+003, 8.535409e+001
1.101594e+003, 8.469825e+001
1.102076e+003, 8.462507e+001
1.102558e+003, 8.479227e+001
1.103040e+003, 8.479888e+001
1.103522e+003, 8.470521e+001
1.104004e+003, 8.488684e+001
1.104486e+003, 8.558924e+001
1.104969e+003, 8.595360e+001
1.105451e+003, 8.559444e+001
1.105933e+003, 8.517725e+001
1.106415e+003, 8.478873e+001
1.106897e+003, 8.456364e+001
1.107379e+003, 8.472880e+001
1.107861e+003, 8.510838e+001
1.108343e+003, 8.524017e+001
1.108825e+003, 8.501350e+001
1.109307e+003, 8.498831e+001
1.109790e+003, 8.541895e+001
1.110272e+003, 8.576160e+001
1.110754e+003, 8.602738e+001
1.111236e+003, 8.604886e+001
1.111718e+003, 8.550768e+001
1.112200e+003, 8.476138e+001
1.112682e+003, 8.440474e+001
1.113164e+003, 8.446213e+001
1.113647e+003, 8.455371e+001
1.114129e+003, 8.487623e+001
1.114611e+003, 8.489619e+001
1.115093e+003, 8.417891e+001
1.115575e+003, 8.370908e+001
1.116057e+003, 8.416665e+001
1.116539e+003, 8.483315e+001
1.117021e+003, 8.481477e+001
1.117504e+003, 8.422940e+001
1.117986e+003, 8.395197e+001
1.118468e+003, 8.407060e+001
1.118950e+003, 8.431060e+001
1.119432e+003, 8.484307e+001
1.119914e+003, 8.513636e+001
1.120396e+003, 8.493761e+001
1.120878e+003, 8.457607e+001
1.121360e+003, 8.426807e+001
1.121843e+003, 8.406060e+001
1.122325e+003, 8.413460e+001
1.122807e+003, 8.458514e+001
1.123289e+003, 8.471457e+001
1.123771e+003, 8.441800e+001
1.124253e+003, 8.415341e+001
1.124735e+003, 8.400807e+001
1.125217e+003, 8.395415e+001
1.125699e+003, 8.400791e+001
1.126182e+003, 8.406556e+001
1.126664e+003, 8.391759e+001
1.127146e+003, 8.358634e+001
1.127628e+003, 8.351738e+001
1.128110e+003, 8.375160e+001
1.128592e+003, 8.386415e+001
1.129074e+003, 8.378117e+001
1.129556e+003, 8.369164e+001
1.130039e+003, 8.365890e+001
1.130521e+003, 8.380746e+001
1.131003e+003, 8.434998e+001
1.131485e+003, 8.508077e+001
1.131967e+003, 8.520821e+001
1.132449e+003, 8.477056e+001
1.132931e+003, 8.444951e+001
1.133413e+003, 8.428112e+001
1.133896e+003, 8.410519e+001
1.134378e+003, 8.387264e+001
1.134860e+003, 8.369866e+001
1.135342e+003, 8.367773e+001
1.135824e+003, 8.374186e+001
1.136306e+003, 8.381568e+001
1.136788e+003, 8.386378e+001
1.137270e+003, 8.369364e+001
1.137752e+003, 8.336089e+001
1.138234e+003, 8.310558e+001
1.138717e+003, 8.298696e+001
1.139199e+003, 8.309512e+001
1.139681e+003, 8.347782e+001
1.140163e+003, 8.383958e+001
1.140645e+003, 8.382150e+001
1.141127e+003, 8.359187e+001
1.141609e+003, 8.341838e+001
1.142091e+003, 8.329208e+001
1.142574e+003, 8.316701e+001
1.143056e+003, 8.307142e+001
1.143538e+003, 8.313316e+001
1.144020e+003, 8.337329e+001
1.144502e+003, 8.361792e+001
1.144984e+003, 8.374877e+001
1.145466e+003, 8.382417e+001
1.145948e+003, 8.390720e+001
1.146431e+003, 8.396883e+001
1.146913e+003, 8.393047e+001
1.147395e+003, 8.386150e+001
1.147877e+003, 8.394209e+001
1.148359e+003, 8.413784e+001
1.148841e+003, 8.418080e+001
1.149323e+003, 8.393987e+001
1.149805e+003, 8.364985e+001
1.150287e+003, 8.337041e+001
1.150770e+003, 8.319469e+001
1.151252e+003, 8.327897e+001
1.151734e+003, 8.342966e+001
1.152216e+003, 8.338085e+001
1.152698e+003, 8.323924e+001
1.153180e+003, 8.335570e+001
1.153662e+003, 8.380069e+001
1.154144e+003, 8.401997e+001
1.154626e+003, 8.354594e+001
1.155109e+003, 8.322007e+001
1.155591e+003, 8.363181e+001
1.156073e+003, 8.393355e+001
1.156555e+003, 8.330049e+001
1.157037e+003, 8.243948e+001
1.157519e+003, 8.235667e+001
1.158001e+003, 8.298678e+001
1.158483e+003, 8.345361e+001
1.158966e+003, 8.371809e+001
1.159448e+003, 8.373072e+001
1.159930e+003, 8.313281e+001
1.160412e+003, 8.277474e+001
1.160894e+003, 8.307980e+001
1.161376e+003, 8.347256e+001
1.161858e+003, 8.350375e+001
1.162340e+003, 8.333996e+001
1.162822e+003, 8.336535e+001
1.163305e+003, 8.361508e+001
1.163787e+003, 8.364906e+001
1.164269e+003, 8.332024e+001
1.164751e+003, 8.325205e+001
1.165233e+003, 8.368983e+001
1.165715e+003, 8.386819e+001
1.166197e+003, 8.330235e+001
1.166679e+003, 8.264973e+001
1.167161e+003, 8.272668e+001
1.167644e+003, 8.332589e+001
1.168126e+003, 8.357881e+001
1.168608e+003, 8.347168e+001
1.169090e+003, 8.344713e+001
1.169572e+003, 8.352634e+001
1.170054e+003, 8.357098e+001
1.170536e+003, 8.354135e+001
1.171018e+003, 8.356334e+001
1.171500e+003, 8.373092e+001
1.171983e+003, 8.394798e+001
1.172465e+003, 8.407663e+001
1.172947e+003, 8.412313e+001
1.173429e+003, 8.410402e+001
1.173911e+003, 8.402164e+001
1.174393e+003, 8.382403e+001
1.174875e+003, 8.355750e+001
1.175357e+003, 8.351438e+001
1.175840e+003, 8.377919e+001
1.176322e+003, 8.395208e+001
1.176804e+003, 8.363907e+001
1.177286e+003, 8.321894e+001
1.177768e+003, 8.322918e+001
1.178250e+003, 8.338329e+001
1.178732e+003, 8.317565e+001
1.179214e+003, 8.281813e+001
1.179697e+003, 8.280968e+001
1.180179e+003, 8.315553e+001
1.180661e+003, 8.351675e+001
1.181143e+003, 8.377689e+001
1.181625e+003, 8.384448e+001
1.182107e+003, 8.352032e+001
1.182589e+003, 8.315657e+001
1.183071e+003, 8.288996e+001
1.183553e+003, 8.277779e+001
1.184036e+003, 8.297390e+001
1.184518e+003, 8.331483e+001
1.185000e+003, 8.349984e+001
1.185482e+003, 8.349231e+001
1.185964e+003, 8.348615e+001
1.186446e+003, 8.352437e+001
1.186928e+003, 8.356961e+001
1.187410e+003, 8.362669e+001
1.187892e+003, 8.367709e+001
1.188375e+003, 8.375077e+001
1.188857e+003, 8.378100e+001
1.189339e+003, 8.367850e+001
1.189821e+003, 8.349319e+001
1.190303e+003, 8.335997e+001
1.190785e+003, 8.326785e+001
1.191267e+003, 8.333000e+001
1.191749e+003, 8.373416e+001
1.192232e+003, 8.369469e+001
1.192714e+003, 8.285151e+001
1.193196e+003, 8.227487e+001
1.193678e+003, 8.256593e+001
1.194160e+003, 8.319047e+001
1.194642e+003, 8.352515e+001
1.195124e+003, 8.361230e+001
1.195606e+003, 8.361128e+001
1.196089e+003, 8.352168e+001
1.196571e+003, 8.327424e+001
1.197053e+003, 8.288303e+001
1.197535e+003, 8.265331e+001
1.198017e+003, 8.266426e+001
1.198499e+003, 8.293177e+001
1.198981e+003, 8.348693e+001
1.199463e+003, 8.399913e+001
1.199945e+003, 8.393938e+001
1.200427e+003, 8.359669e+001
1.200910e+003, 8.354934e+001
1.201392e+003, 8.367368e+001
1.201874e+003, 8.370059e+001
1.202356e+003, 8.363602e+001
1.202838e+003, 8.357938e+001
1.203320e+003, 8.356846e+001
1.203802e+003, 8.365105e+001
1.204284e+003, 8.391908e+001
1.204767e+003, 8.409202e+001
1.205249e+003, 8.389685e+001
1.205731e+003, 8.358350e+001
1.206213e+003, 8.329942e+001
1.206695e+003, 8.306472e+001
1.207177e+003, 8.280601e+001
1.207659e+003, 8.262131e+001
1.208141e+003, 8.285050e+001
1.208624e+003, 8.360107e+001
1.209106e+003, 8.401163e+001
1.209588e+003, 8.355369e+001
1.210070e+003, 8.321916e+001
1.210552e+003, 8.332362e+001
1.211034e+003, 8.346651e+001
1.211516e+003, 8.337187e+001
1.211998e+003, 8.329039e+001
1.212480e+003, 8.358279e+001
1.212963e+003, 8.407748e+001
1.213445e+003, 8.408456e+001
1.213927e+003, 8.346071e+001
1.214409e+003, 8.304367e+001
1.214891e+003, 8.280827e+001
1.215373e+003, 8.297212e+001
1.215855e+003, 8.372279e+001
1.216337e+003, 8.409092e+001
1.216819e+003, 8.347808e+001
1.217302e+003, 8.270454e+001
1.217784e+003, 8.279697e+001
1.218266e+003, 8.348633e+001
1.218748e+003, 8.410821e+001
1.219230e+003, 8.457811e+001
1.219712e+003, 8.415324e+001
1.220194e+003, 8.309240e+001
1.220676e+003, 8.313110e+001
1.221159e+003, 8.442030e+001
1.221641e+003, 8.509325e+001
1.222123e+003, 8.412003e+001
1.222605e+003, 8.285738e+001
1.223087e+003, 8.259598e+001
1.223569e+003, 8.284008e+001
1.224051e+003, 8.333989e+001
1.224533e+003, 8.375413e+001
1.225016e+003, 8.345403e+001
1.225498e+003, 8.278479e+001
1.225980e+003, 8.247420e+001
1.226462e+003, 8.260970e+001
1.226944e+003, 8.278887e+001
1.227426e+003, 8.287691e+001
1.227908e+003, 8.298465e+001
1.228390e+003, 8.318010e+001
1.228872e+003, 8.336073e+001
1.229354e+003, 8.355534e+001
1.229837e+003, 8.364761e+001
1.230319e+003, 8.347184e+001
1.230801e+003, 8.316993e+001
1.231283e+003, 8.298891e+001
1.231765e+003, 8.292639e+001
1.232247e+003, 8.289482e+001
1.232729e+003, 8.287599e+001
1.233211e+003, 8.297098e+001
1.233694e+003, 8.325583e+001
1.234176e+003, 8.338374e+001
1.234658e+003, 8.321793e+001
1.235140e+003, 8.302928e+001
1.235622e+003, 8.302576e+001
1.236104e+003, 8.306102e+001
1.236586e+003, 8.285471e+001
1.237068e+003, 8.248734e+001
1.237551e+003, 8.228268e+001
1.238033e+003, 8.222331e+001
1.238515e+003, 8.221729e+001
1.238997e+003, 8.227113e+001
1.239479e+003, 8.252846e+001
1.239961e+003, 8.298379e+001
1.240443e+003, 8.324874e+001
1.240925e+003, 8.299490e+001
1.241407e+003, 8.291074e+001
1.241890e+003, 8.422694e+001
1.242372e+003, 8.543828e+001
1.242854e+003, 8.472818e+001
1.243336e+003, 8.330948e+001
1.243818e+003, 8.254031e+001
1.244300e+003, 8.238833e+001
1.244782e+003, 8.247712e+001
1.245264e+003, 8.272267e+001
1.245746e+003, 8.304800e+001
1.246229e+003, 8.363124e+001
1.246711e+003, 8.392452e+001
1.247193e+003, 8.362021e+001
1.247675e+003, 8.330250e+001
1.248157e+003, 8.313978e+001
1.248639e+003, 8.306941e+001
1.249121e+003, 8.312090e+001
1.249603e+003, 8.315730e+001
1.250085e+003, 8.286967e+001
1.250568e+003, 8.229861e+001
1.251050e+003, 8.217290e+001
1.251532e+003, 8.252736e+001
1.252014e+003, 8.300686e+001
1.252496e+003, 8.359756e+001
1.252978e+003, 8.398360e+001
1.253460e+003, 8.406999e+001
1.253942e+003, 8.380544e+001
1.254425e+003, 8.311641e+001
1.254907e+003, 8.248247e+001
1.255389e+003, 8.274758e+001
1.255871e+003, 8.340047e+001
1.256353e+003, 8.348176e+001
1.256835e+003, 8.323318e+001
1.257317e+003, 8.298983e+001
1.257799e+003, 8.285134e+001
1.258281e+003, 8.295232e+001
1.258764e+003, 8.328706e+001
1.259246e+003, 8.369807e+001
1.259728e+003, 8.419954e+001
1.260210e+003, 8.445557e+001
1.260692e+003, 8.400194e+001
1.261174e+003, 8.367248e+001
1.261656e+003, 8.411825e+001
1.262138e+003, 8.457881e+001
1.262620e+003, 8.442359e+001
1.263103e+003, 8.391656e+001
1.263585e+003, 8.340150e+001
1.264067e+003, 8.292651e+001
1.264549e+003, 8.291108e+001
1.265031e+003, 8.350802e+001
1.265513e+003, 8.408374e+001
1.265995e+003, 8.469950e+001
1.266477e+003, 8.495545e+001
1.266960e+003, 8.472177e+001
1.267442e+003, 8.436000e+001
1.267924e+003, 8.404880e+001
1.268406e+003, 8.391851e+001
1.268888e+003, 8.418058e+001
1.269370e+003, 8.462785e+001
1.269852e+003, 8.486906e+001
1.270334e+003, 8.487742e+001
1.270817e+003, 8.443642e+001
1.271299e+003, 8.374113e+001
1.271781e+003, 8.326788e+001
1.272263e+003, 8.309590e+001
1.272745e+003, 8.312624e+001
1.273227e+003, 8.332262e+001
1.273709e+003, 8.364351e+001
1.274191e+003, 8.426933e+001
1.274673e+003, 8.473015e+001
1.275156e+003, 8.464439e+001
1.275638e+003, 8.448559e+001
1.276120e+003, 8.470676e+001
1.276602e+003, 8.491856e+001
1.277084e+003, 8.447231e+001
1.277566e+003, 8.365820e+001
1.278048e+003, 8.350729e+001
1.278530e+003, 8.412265e+001
1.279012e+003, 8.439684e+001
1.279495e+003, 8.403030e+001
1.279977e+003, 8.458161e+001
1.280459e+003, 8.653503e+001
1.280941e+003, 8.760806e+001
1.281423e+003, 8.689415e+001
1.281905e+003, 8.580211e+001
1.282387e+003, 8.542046e+001
1.282869e+003, 8.545058e+001
1.283352e+003, 8.546028e+001
1.283834e+003, 8.544939e+001
1.284316e+003, 8.541115e+001
1.284798e+003, 8.534964e+001
##END=



