##NAMES=Lorandite
##RRUFFID=R110055
##IDEAL CHEMISTRY=Tl^1+^As^3+^S^2-^_2_
##LOCALITY=Xingren County, Qianxi'nan Autonomous Prefecture, Guizhou Province, China
##OWNER=RRUFF
##SOURCE=Don Doell
##DESCRIPTION=Red platy crystals and cleavages
##STATUS=The identification of this mineral has been confirmed by single-crystal X-ray diffraction.
##URL=rruff.info/R110055
8.806445e+001, 5.985641e+005
8.854657e+001, 5.670692e+005
8.902869e+001, 5.561526e+005
8.951080e+001, 5.759786e+005
8.999292e+001, 6.117731e+005
9.047504e+001, 6.510219e+005
9.095715e+001, 6.919518e+005
9.143927e+001, 7.304478e+005
9.192139e+001, 7.615344e+005
9.240350e+001, 7.861945e+005
9.288562e+001, 8.038487e+005
9.336774e+001, 8.071039e+005
9.384985e+001, 7.920095e+005
9.433197e+001, 7.649579e+005
9.481409e+001, 7.364281e+005
9.529620e+001, 7.073751e+005
9.577832e+001, 6.816279e+005
9.626044e+001, 6.594881e+005
9.674255e+001, 6.417563e+005
9.722467e+001, 6.291836e+005
9.770679e+001, 6.211626e+005
9.818890e+001, 6.188329e+005
9.867102e+001, 6.212089e+005
9.915314e+001, 6.281684e+005
9.963525e+001, 6.398068e+005
1.001174e+002, 6.561388e+005
1.005995e+002, 6.768756e+005
1.010816e+002, 7.016031e+005
1.015637e+002, 7.316876e+005
1.020458e+002, 7.649839e+005
1.025280e+002, 8.036488e+005
1.030101e+002, 8.449191e+005
1.034922e+002, 8.859668e+005
1.039743e+002, 9.254630e+005
1.044564e+002, 9.633156e+005
1.049385e+002, 9.870423e+005
1.054207e+002, 9.998771e+005
1.059028e+002, 1.000058e+006
1.063849e+002, 9.843474e+005
1.068670e+002, 9.535254e+005
1.073491e+002, 9.137576e+005
1.078312e+002, 8.679156e+005
1.083134e+002, 8.164126e+005
1.087955e+002, 7.683967e+005
1.092776e+002, 7.240253e+005
1.097597e+002, 6.839766e+005
1.102418e+002, 6.495689e+005
1.107239e+002, 6.215527e+005
1.112061e+002, 5.981497e+005
1.116882e+002, 5.785668e+005
1.121703e+002, 5.620016e+005
1.126524e+002, 5.463645e+005
1.131345e+002, 5.304803e+005
1.136166e+002, 5.143353e+005
1.140988e+002, 4.982728e+005
1.145809e+002, 4.809826e+005
1.150630e+002, 4.650381e+005
1.155451e+002, 4.516187e+005
1.160272e+002, 4.408603e+005
1.165093e+002, 4.327776e+005
1.169915e+002, 4.274854e+005
1.174736e+002, 4.253529e+005
1.179557e+002, 4.253844e+005
1.184378e+002, 4.280028e+005
1.189199e+002, 4.319877e+005
1.194020e+002, 4.369974e+005
1.198842e+002, 4.427936e+005
1.203663e+002, 4.487164e+005
1.208484e+002, 4.533139e+005
1.213305e+002, 4.567595e+005
1.218126e+002, 4.582841e+005
1.222947e+002, 4.571498e+005
1.227769e+002, 4.542490e+005
1.232590e+002, 4.503802e+005
1.237411e+002, 4.457490e+005
1.242232e+002, 4.408097e+005
1.247053e+002, 4.376703e+005
1.251874e+002, 4.359253e+005
1.256696e+002, 4.358043e+005
1.261517e+002, 4.373569e+005
1.266338e+002, 4.405844e+005
1.271159e+002, 4.455229e+005
1.275980e+002, 4.522283e+005
1.280801e+002, 4.609305e+005
1.285623e+002, 4.712695e+005
1.290444e+002, 4.834634e+005
1.295265e+002, 4.971324e+005
1.300086e+002, 5.121508e+005
1.304907e+002, 5.285763e+005
1.309728e+002, 5.459150e+005
1.314550e+002, 5.644168e+005
1.319371e+002, 5.835799e+005
1.324192e+002, 6.027073e+005
1.329013e+002, 6.219354e+005
1.333834e+002, 6.408780e+005
1.338655e+002, 6.584678e+005
1.343477e+002, 6.748727e+005
1.348298e+002, 6.893508e+005
1.353119e+002, 7.021233e+005
1.357940e+002, 7.130032e+005
1.362761e+002, 7.216893e+005
1.367582e+002, 7.283005e+005
1.372404e+002, 7.328790e+005
1.377225e+002, 7.330667e+005
1.382046e+002, 7.291093e+005
1.386867e+002, 7.202186e+005
1.391688e+002, 7.052426e+005
1.396509e+002, 6.846631e+005
1.401331e+002, 6.598693e+005
1.406152e+002, 6.315381e+005
1.410973e+002, 5.983849e+005
1.415794e+002, 5.668204e+005
1.420615e+002, 5.356649e+005
1.425436e+002, 5.064644e+005
1.430258e+002, 4.797976e+005
1.435079e+002, 4.559049e+005
1.439900e+002, 4.347620e+005
1.444721e+002, 4.164631e+005
1.449542e+002, 4.016693e+005
1.454363e+002, 3.888473e+005
1.459185e+002, 3.779385e+005
1.464006e+002, 3.689401e+005
1.468827e+002, 3.619234e+005
1.473648e+002, 3.569655e+005
1.478469e+002, 3.537424e+005
1.483290e+002, 3.520619e+005
1.488112e+002, 3.517479e+005
1.492933e+002, 3.524337e+005
1.497754e+002, 3.540612e+005
1.502575e+002, 3.565938e+005
1.507396e+002, 3.600119e+005
1.512217e+002, 3.644740e+005
1.517039e+002, 3.697159e+005
1.521860e+002, 3.751478e+005
1.526681e+002, 3.807683e+005
1.531502e+002, 3.867201e+005
1.536323e+002, 3.931748e+005
1.541144e+002, 4.001134e+005
1.545966e+002, 4.073808e+005
1.550787e+002, 4.147654e+005
1.555608e+002, 4.226002e+005
1.560429e+002, 4.310520e+005
1.565250e+002, 4.401971e+005
1.570071e+002, 4.500016e+005
1.574893e+002, 4.604134e+005
1.579714e+002, 4.713617e+005
1.584535e+002, 4.832008e+005
1.589356e+002, 4.959055e+005
1.594177e+002, 5.094309e+005
1.598998e+002, 5.236477e+005
1.603820e+002, 5.384528e+005
1.608641e+002, 5.541078e+005
1.613462e+002, 5.711768e+005
1.618283e+002, 5.899596e+005
1.623104e+002, 6.100244e+005
1.627925e+002, 6.309430e+005
1.632747e+002, 6.530753e+005
1.637568e+002, 6.769704e+005
1.642389e+002, 7.027636e+005
1.647210e+002, 7.304202e+005
1.652031e+002, 7.597117e+005
1.656852e+002, 7.910762e+005
1.661674e+002, 8.236854e+005
1.666495e+002, 8.581766e+005
1.671316e+002, 8.938645e+005
1.676137e+002, 9.297008e+005
1.680958e+002, 9.656836e+005
1.685779e+002, 1.001075e+006
1.690601e+002, 1.031809e+006
1.695422e+002, 1.060652e+006
1.700243e+002, 1.083407e+006
1.705064e+002, 1.099431e+006
1.709885e+002, 1.108309e+006
1.714706e+002, 1.108719e+006
1.719528e+002, 1.099507e+006
1.724349e+002, 1.079864e+006
1.729170e+002, 1.053516e+006
1.733991e+002, 1.018170e+006
1.738812e+002, 9.779725e+005
1.743633e+002, 9.343972e+005
1.748455e+002, 8.872706e+005
1.753276e+002, 8.403604e+005
1.758097e+002, 7.946824e+005
1.762918e+002, 7.509775e+005
1.767739e+002, 7.106316e+005
1.772560e+002, 6.739811e+005
1.777382e+002, 6.409650e+005
1.782203e+002, 6.118643e+005
1.787024e+002, 5.868944e+005
1.791845e+002, 5.655574e+005
1.796666e+002, 5.480810e+005
1.801487e+002, 5.338523e+005
1.806309e+002, 5.225919e+005
1.811130e+002, 5.142226e+005
1.815951e+002, 5.086683e+005
1.820772e+002, 5.057182e+005
1.825593e+002, 5.058513e+005
1.830414e+002, 5.082300e+005
1.835236e+002, 5.123652e+005
1.840057e+002, 5.181081e+005
1.844878e+002, 5.253212e+005
1.849699e+002, 5.340280e+005
1.854520e+002, 5.441081e+005
1.859341e+002, 5.547888e+005
1.864163e+002, 5.657841e+005
1.868984e+002, 5.778433e+005
1.873805e+002, 5.908435e+005
1.878626e+002, 6.050916e+005
1.883447e+002, 6.211943e+005
1.888268e+002, 6.399237e+005
1.893090e+002, 6.610963e+005
1.897911e+002, 6.809064e+005
1.902732e+002, 7.038540e+005
1.907553e+002, 7.209743e+005
1.912374e+002, 7.308535e+005
1.917195e+002, 7.329501e+005
1.922017e+002, 7.265151e+005
1.926838e+002, 7.105923e+005
1.931659e+002, 6.847223e+005
1.936480e+002, 6.564701e+005
1.941301e+002, 6.231527e+005
1.946122e+002, 5.905419e+005
1.950944e+002, 5.600181e+005
1.955765e+002, 5.321602e+005
1.960586e+002, 5.076402e+005
1.965407e+002, 4.871426e+005
1.970228e+002, 4.710264e+005
1.975049e+002, 4.585961e+005
1.979871e+002, 4.499778e+005
1.984692e+002, 4.443778e+005
1.989513e+002, 4.418451e+005
1.994334e+002, 4.422184e+005
1.999155e+002, 4.444619e+005
2.003976e+002, 4.479459e+005
2.008798e+002, 4.528205e+005
2.013619e+002, 4.587566e+005
2.018440e+002, 4.653147e+005
2.023261e+002, 4.731949e+005
2.028082e+002, 4.827256e+005
2.032903e+002, 4.938497e+005
2.037725e+002, 5.072628e+005
2.042546e+002, 5.233975e+005
2.047367e+002, 5.422975e+005
2.052188e+002, 5.642374e+005
2.057009e+002, 5.900818e+005
2.061830e+002, 6.187939e+005
2.066652e+002, 6.498701e+005
2.071473e+002, 6.842076e+005
2.076294e+002, 7.173142e+005
2.081115e+002, 7.495920e+005
2.085936e+002, 7.783744e+005
2.090757e+002, 7.982479e+005
2.095579e+002, 8.085125e+005
2.100400e+002, 8.080312e+005
2.105221e+002, 7.935363e+005
2.110042e+002, 7.621698e+005
2.114863e+002, 7.223510e+005
2.119685e+002, 6.745439e+005
2.124506e+002, 6.225703e+005
2.129327e+002, 5.718121e+005
2.134148e+002, 5.236587e+005
2.138969e+002, 4.787121e+005
2.143790e+002, 4.392932e+005
2.148612e+002, 4.059500e+005
2.153433e+002, 3.778339e+005
2.158254e+002, 3.545576e+005
2.163075e+002, 3.353805e+005
2.167896e+002, 3.193283e+005
2.172717e+002, 3.061910e+005
2.177539e+002, 2.956505e+005
2.182360e+002, 2.866050e+005
2.187181e+002, 2.796332e+005
2.192002e+002, 2.736252e+005
2.196823e+002, 2.684826e+005
2.201644e+002, 2.640172e+005
2.206466e+002, 2.600819e+005
2.211287e+002, 2.566369e+005
2.216108e+002, 2.536095e+005
2.220929e+002, 2.506313e+005
2.225750e+002, 2.476957e+005
2.230571e+002, 2.448230e+005
2.235393e+002, 2.420155e+005
2.240214e+002, 2.392907e+005
2.245035e+002, 2.366728e+005
2.249856e+002, 2.341892e+005
2.254677e+002, 2.318327e+005
2.259498e+002, 2.295963e+005
2.264320e+002, 2.274784e+005
2.269141e+002, 2.254885e+005
2.273962e+002, 2.236163e+005
2.278783e+002, 2.218745e+005
2.283604e+002, 2.202728e+005
2.288425e+002, 2.188189e+005
2.293247e+002, 2.175049e+005
2.298068e+002, 2.162762e+005
2.302889e+002, 2.151869e+005
2.307710e+002, 2.141142e+005
2.312531e+002, 2.129872e+005
2.317352e+002, 2.118640e+005
2.322174e+002, 2.108372e+005
2.326995e+002, 2.099547e+005
2.331816e+002, 2.092079e+005
2.336637e+002, 2.085768e+005
2.341458e+002, 2.079352e+005
2.346279e+002, 2.075179e+005
2.351101e+002, 2.074512e+005
2.355922e+002, 2.076480e+005
2.360743e+002, 2.079347e+005
2.365564e+002, 2.082199e+005
2.370385e+002, 2.085526e+005
2.375206e+002, 2.090860e+005
2.380028e+002, 2.097660e+005
2.384849e+002, 2.106620e+005
2.389670e+002, 2.118081e+005
2.394491e+002, 2.131808e+005
2.399312e+002, 2.147356e+005
2.404133e+002, 2.164202e+005
2.408955e+002, 2.183154e+005
2.413776e+002, 2.206087e+005
2.418597e+002, 2.232920e+005
2.423418e+002, 2.262442e+005
2.428239e+002, 2.293692e+005
2.433060e+002, 2.327051e+005
2.437882e+002, 2.363830e+005
2.442703e+002, 2.404167e+005
2.447524e+002, 2.448616e+005
2.452345e+002, 2.497097e+005
2.457166e+002, 2.548969e+005
2.461987e+002, 2.605124e+005
2.466809e+002, 2.665972e+005
2.471630e+002, 2.731278e+005
2.476451e+002, 2.800818e+005
2.481272e+002, 2.873106e+005
2.486093e+002, 2.951202e+005
2.490914e+002, 3.037507e+005
2.495736e+002, 3.131171e+005
2.500557e+002, 3.231601e+005
2.505378e+002, 3.337123e+005
2.510199e+002, 3.448455e+005
2.515020e+002, 3.569045e+005
2.519841e+002, 3.700235e+005
2.524663e+002, 3.841559e+005
2.529484e+002, 3.992209e+005
2.534305e+002, 4.151447e+005
2.539126e+002, 4.319830e+005
2.543947e+002, 4.497414e+005
2.548768e+002, 4.684772e+005
2.553590e+002, 4.880976e+005
2.558411e+002, 5.088334e+005
2.563232e+002, 5.303865e+005
2.568053e+002, 5.524918e+005
2.572874e+002, 5.751221e+005
2.577695e+002, 5.982192e+005
2.582516e+002, 6.216928e+005
2.587338e+002, 6.456928e+005
2.592159e+002, 6.700995e+005
2.596980e+002, 6.947673e+005
2.601801e+002, 7.202768e+005
2.606622e+002, 7.464968e+005
2.611443e+002, 7.735965e+005
2.616265e+002, 8.019819e+005
2.621086e+002, 8.315806e+005
2.625907e+002, 8.626219e+005
2.630728e+002, 8.955029e+005
2.635549e+002, 9.303198e+005
2.640370e+002, 9.672868e+005
2.645192e+002, 1.005860e+006
2.650013e+002, 1.046300e+006
2.654834e+002, 1.089059e+006
2.659655e+002, 1.134640e+006
2.664476e+002, 1.182705e+006
2.669297e+002, 1.232806e+006
2.674119e+002, 1.284352e+006
2.678940e+002, 1.339070e+006
2.683761e+002, 1.397085e+006
2.688582e+002, 1.457905e+006
2.693403e+002, 1.521445e+006
2.698224e+002, 1.587554e+006
2.703046e+002, 1.655895e+006
2.707867e+002, 1.725961e+006
2.712688e+002, 1.799886e+006
2.717509e+002, 1.871479e+006
2.722330e+002, 1.943441e+006
2.727151e+002, 2.011345e+006
2.731973e+002, 2.072912e+006
2.736794e+002, 2.127433e+006
2.741615e+002, 2.171779e+006
2.746436e+002, 2.200601e+006
2.751257e+002, 2.216067e+006
2.756078e+002, 2.208763e+006
2.760900e+002, 2.180283e+006
2.765721e+002, 2.132278e+006
2.770542e+002, 2.064175e+006
2.775363e+002, 1.976272e+006
2.780184e+002, 1.873126e+006
2.785005e+002, 1.761408e+006
2.789827e+002, 1.636801e+006
2.794648e+002, 1.512963e+006
2.799469e+002, 1.386636e+006
2.804290e+002, 1.263687e+006
2.809111e+002, 1.147325e+006
2.813932e+002, 1.038692e+006
2.818754e+002, 9.386759e+005
2.823575e+002, 8.485112e+005
2.828396e+002, 7.688406e+005
2.833217e+002, 6.985109e+005
2.838038e+002, 6.379178e+005
2.842859e+002, 5.848269e+005
2.847681e+002, 5.392794e+005
2.852502e+002, 5.006208e+005
2.857323e+002, 4.677144e+005
2.862144e+002, 4.396562e+005
2.866965e+002, 4.167483e+005
2.871786e+002, 3.970776e+005
2.876608e+002, 3.814401e+005
2.881429e+002, 3.678504e+005
2.886250e+002, 3.561430e+005
2.891071e+002, 3.459213e+005
2.895892e+002, 3.365209e+005
2.900714e+002, 3.274247e+005
2.905535e+002, 3.186746e+005
2.910356e+002, 3.097924e+005
2.915177e+002, 3.005076e+005
2.919998e+002, 2.914168e+005
2.924819e+002, 2.822438e+005
2.929641e+002, 2.733910e+005
2.934462e+002, 2.654473e+005
2.939283e+002, 2.587118e+005
2.944104e+002, 2.532353e+005
2.948925e+002, 2.491010e+005
2.953746e+002, 2.465320e+005
2.958568e+002, 2.451968e+005
2.963389e+002, 2.452054e+005
2.968210e+002, 2.463976e+005
2.973031e+002, 2.485822e+005
2.977852e+002, 2.516726e+005
2.982673e+002, 2.556626e+005
2.987495e+002, 2.604742e+005
2.992316e+002, 2.659928e+005
2.997137e+002, 2.727255e+005
3.001958e+002, 2.805604e+005
3.006779e+002, 2.896673e+005
3.011600e+002, 3.000844e+005
3.016422e+002, 3.118743e+005
3.021243e+002, 3.252792e+005
3.026064e+002, 3.406401e+005
3.030885e+002, 3.579346e+005
3.035706e+002, 3.776384e+005
3.040527e+002, 3.999715e+005
3.045349e+002, 4.242436e+005
3.050170e+002, 4.503330e+005
3.054991e+002, 4.779816e+005
3.059812e+002, 5.063676e+005
3.064633e+002, 5.347211e+005
3.069454e+002, 5.636883e+005
3.074276e+002, 5.899189e+005
3.079097e+002, 6.147038e+005
3.083918e+002, 6.360298e+005
3.088739e+002, 6.525978e+005
3.093560e+002, 6.645713e+005
3.098381e+002, 6.726739e+005
3.103203e+002, 6.772530e+005
3.108024e+002, 6.779858e+005
3.112845e+002, 6.798409e+005
3.117666e+002, 6.816864e+005
3.122487e+002, 6.855928e+005
3.127308e+002, 6.926552e+005
3.132130e+002, 7.023884e+005
3.136951e+002, 7.137244e+005
3.141772e+002, 7.260140e+005
3.146593e+002, 7.392750e+005
3.151414e+002, 7.532833e+005
3.156235e+002, 7.660730e+005
3.161057e+002, 7.820173e+005
3.165878e+002, 8.004019e+005
3.170699e+002, 8.227841e+005
3.175520e+002, 8.508154e+005
3.180341e+002, 8.851503e+005
3.185162e+002, 9.261333e+005
3.189984e+002, 9.742956e+005
3.194805e+002, 1.033114e+006
3.199626e+002, 1.095589e+006
3.204447e+002, 1.165914e+006
3.209268e+002, 1.237383e+006
3.214089e+002, 1.307362e+006
3.218911e+002, 1.374050e+006
3.223732e+002, 1.431404e+006
3.228553e+002, 1.472104e+006
3.233374e+002, 1.499162e+006
3.238195e+002, 1.496959e+006
3.243016e+002, 1.463429e+006
3.247838e+002, 1.406977e+006
3.252659e+002, 1.326608e+006
3.257480e+002, 1.226021e+006
3.262301e+002, 1.116564e+006
3.267122e+002, 1.007104e+006
3.271943e+002, 8.968395e+005
3.276765e+002, 7.974662e+005
3.281586e+002, 7.083761e+005
3.286407e+002, 6.294213e+005
3.291228e+002, 5.613164e+005
3.296049e+002, 5.032343e+005
3.300870e+002, 4.535257e+005
3.305692e+002, 4.113255e+005
3.310513e+002, 3.762280e+005
3.315334e+002, 3.458551e+005
3.320155e+002, 3.218309e+005
3.324976e+002, 3.007906e+005
3.329797e+002, 2.829344e+005
3.334619e+002, 2.676225e+005
3.339440e+002, 2.542754e+005
3.344261e+002, 2.426121e+005
3.349082e+002, 2.324877e+005
3.353904e+002, 2.234435e+005
3.358725e+002, 2.158309e+005
3.363546e+002, 2.089838e+005
3.368367e+002, 2.029488e+005
3.373188e+002, 1.975262e+005
3.378009e+002, 1.926276e+005
3.382831e+002, 1.882155e+005
3.387652e+002, 1.842209e+005
3.392473e+002, 1.806104e+005
3.397294e+002, 1.774268e+005
3.402115e+002, 1.744723e+005
3.406936e+002, 1.717649e+005
3.411758e+002, 1.692288e+005
3.416579e+002, 1.668374e+005
3.421400e+002, 1.645791e+005
3.426221e+002, 1.624649e+005
3.431042e+002, 1.604890e+005
3.435863e+002, 1.586510e+005
3.440685e+002, 1.570572e+005
3.445506e+002, 1.558633e+005
3.450327e+002, 1.547886e+005
3.455148e+002, 1.537824e+005
3.459969e+002, 1.528596e+005
3.464790e+002, 1.520543e+005
3.469612e+002, 1.513793e+005
3.474433e+002, 1.508368e+005
3.479254e+002, 1.504172e+005
3.484075e+002, 1.501120e+005
3.488896e+002, 1.499722e+005
3.493717e+002, 1.499795e+005
3.498539e+002, 1.501422e+005
3.503360e+002, 1.504605e+005
3.508181e+002, 1.509364e+005
3.513002e+002, 1.515909e+005
3.517823e+002, 1.524228e+005
3.522644e+002, 1.533656e+005
3.527466e+002, 1.547170e+005
3.532287e+002, 1.564228e+005
3.537108e+002, 1.585979e+005
3.541929e+002, 1.611579e+005
3.546750e+002, 1.642104e+005
3.551571e+002, 1.680780e+005
3.556393e+002, 1.728927e+005
3.561214e+002, 1.786775e+005
3.566035e+002, 1.860760e+005
3.570856e+002, 1.950080e+005
3.575677e+002, 2.058637e+005
3.580498e+002, 2.184145e+005
3.585320e+002, 2.328699e+005
3.590141e+002, 2.496221e+005
3.594962e+002, 2.688456e+005
3.599783e+002, 2.904300e+005
3.604604e+002, 3.141016e+005
3.609425e+002, 3.407610e+005
3.614247e+002, 3.676425e+005
3.619068e+002, 3.955493e+005
3.623889e+002, 4.224294e+005
3.628710e+002, 4.460497e+005
3.633531e+002, 4.657855e+005
3.638352e+002, 4.830657e+005
3.643174e+002, 4.986684e+005
3.647995e+002, 5.122343e+005
3.652816e+002, 5.280667e+005
3.657637e+002, 5.462691e+005
3.662458e+002, 5.678826e+005
3.667279e+002, 5.931073e+005
3.672101e+002, 6.220643e+005
3.676922e+002, 6.551621e+005
3.681743e+002, 6.922927e+005
3.686564e+002, 7.337876e+005
3.691385e+002, 7.802606e+005
3.696206e+002, 8.313299e+005
3.701028e+002, 8.894093e+005
3.705849e+002, 9.535112e+005
3.710670e+002, 1.025135e+006
3.715491e+002, 1.106869e+006
3.720312e+002, 1.198588e+006
3.725133e+002, 1.302887e+006
3.729955e+002, 1.423906e+006
3.734776e+002, 1.561373e+006
3.739597e+002, 1.716222e+006
3.744418e+002, 1.894087e+006
3.749239e+002, 2.089079e+006
3.754060e+002, 2.294927e+006
3.758882e+002, 2.514340e+006
3.763703e+002, 2.730887e+006
3.768524e+002, 2.945357e+006
3.773345e+002, 3.150863e+006
3.778166e+002, 3.327751e+006
3.782987e+002, 3.486091e+006
3.787809e+002, 3.585592e+006
3.792630e+002, 3.582915e+006
3.797451e+002, 3.487962e+006
3.802272e+002, 3.314260e+006
3.807093e+002, 3.028371e+006
3.811914e+002, 2.684231e+006
3.816736e+002, 2.338745e+006
3.821557e+002, 1.997127e+006
3.826378e+002, 1.682764e+006
3.831199e+002, 1.412735e+006
3.836020e+002, 1.189791e+006
3.840841e+002, 1.001815e+006
3.845663e+002, 8.544374e+005
3.850484e+002, 7.351227e+005
3.855305e+002, 6.412148e+005
3.860126e+002, 5.703694e+005
3.864947e+002, 5.155276e+005
3.869768e+002, 4.750936e+005
3.874590e+002, 4.465577e+005
3.879411e+002, 4.264413e+005
3.884232e+002, 4.149433e+005
3.889053e+002, 4.085493e+005
3.893874e+002, 4.068696e+005
3.898695e+002, 4.098032e+005
3.903517e+002, 4.170028e+005
3.908338e+002, 4.285101e+005
3.913159e+002, 4.449142e+005
3.917980e+002, 4.667170e+005
3.922801e+002, 4.942357e+005
3.927622e+002, 5.287040e+005
3.932444e+002, 5.710833e+005
3.937265e+002, 6.187220e+005
3.942086e+002, 6.728606e+005
3.946907e+002, 7.312192e+005
3.951728e+002, 7.910217e+005
3.956549e+002, 8.512265e+005
3.961371e+002, 9.091186e+005
3.966192e+002, 9.515774e+005
3.971013e+002, 9.875560e+005
3.975834e+002, 9.954898e+005
3.980655e+002, 9.673538e+005
3.985476e+002, 9.135569e+005
3.990298e+002, 8.381433e+005
3.995119e+002, 7.447224e+005
3.999940e+002, 6.450471e+005
4.004761e+002, 5.538494e+005
4.009582e+002, 4.703818e+005
4.014403e+002, 3.994427e+005
4.019225e+002, 3.423671e+005
4.024046e+002, 2.947846e+005
4.028867e+002, 2.564474e+005
4.033688e+002, 2.261714e+005
4.038509e+002, 2.019171e+005
4.043330e+002, 1.825927e+005
4.048152e+002, 1.677155e+005
4.052973e+002, 1.545960e+005
4.057794e+002, 1.439430e+005
4.062615e+002, 1.340880e+005
4.067436e+002, 1.245253e+005
4.072257e+002, 1.155831e+005
4.077079e+002, 1.076563e+005
4.081900e+002, 1.008230e+005
4.086721e+002, 9.492123e+004
4.091542e+002, 8.976919e+004
4.096363e+002, 8.535101e+004
4.101184e+002, 8.154324e+004
4.106006e+002, 7.857164e+004
4.110827e+002, 7.605189e+004
4.115648e+002, 7.385421e+004
4.120469e+002, 7.194673e+004
4.125290e+002, 7.031237e+004
4.130111e+002, 6.898011e+004
4.134933e+002, 6.790330e+004
4.139754e+002, 6.695055e+004
4.144575e+002, 6.615294e+004
4.149396e+002, 6.540132e+004
4.154217e+002, 6.463388e+004
4.159038e+002, 6.388837e+004
4.163860e+002, 6.322650e+004
4.168681e+002, 6.267698e+004
4.173502e+002, 6.215766e+004
4.178323e+002, 6.161500e+004
4.183144e+002, 6.104462e+004
4.187965e+002, 6.042551e+004
4.192787e+002, 5.973567e+004
4.197608e+002, 5.901399e+004
4.202429e+002, 5.830130e+004
4.207250e+002, 5.759774e+004
4.212071e+002, 5.688600e+004
4.216892e+002, 5.616062e+004
4.221714e+002, 5.541928e+004
4.226535e+002, 5.464543e+004
4.231356e+002, 5.383763e+004
4.236177e+002, 5.306329e+004
4.240998e+002, 5.237968e+004
4.245819e+002, 5.176582e+004
4.250641e+002, 5.112707e+004
4.255462e+002, 5.043461e+004
4.260283e+002, 4.975487e+004
4.265104e+002, 4.914160e+004
4.269925e+002, 4.855795e+004
4.274746e+002, 4.791507e+004
4.279568e+002, 4.717190e+004
4.284389e+002, 4.642205e+004
4.289210e+002, 4.580934e+004
4.294031e+002, 4.541282e+004
4.298852e+002, 4.493045e+004
4.303673e+002, 4.430916e+004
4.308495e+002, 4.363995e+004
4.313316e+002, 4.295865e+004
4.318137e+002, 4.228067e+004
4.322958e+002, 4.162491e+004
4.327779e+002, 4.100092e+004
4.332600e+002, 4.040897e+004
4.337422e+002, 3.986271e+004
4.342243e+002, 3.942557e+004
4.347064e+002, 3.895864e+004
4.351885e+002, 3.841727e+004
4.356706e+002, 3.785156e+004
4.361527e+002, 3.732241e+004
4.366349e+002, 3.684626e+004
4.371170e+002, 3.639071e+004
4.375991e+002, 3.590054e+004
4.380812e+002, 3.534802e+004
4.385633e+002, 3.486530e+004
4.390454e+002, 3.454027e+004
4.395276e+002, 3.420693e+004
4.400097e+002, 3.378182e+004
4.404918e+002, 3.329759e+004
4.409739e+002, 3.283061e+004
4.414560e+002, 3.243215e+004
4.419381e+002, 3.208200e+004
4.424203e+002, 3.170858e+004
4.429024e+002, 3.128875e+004
4.433845e+002, 3.091304e+004
4.438666e+002, 3.063722e+004
4.443487e+002, 3.040011e+004
4.448308e+002, 3.015620e+004
4.453130e+002, 2.989822e+004
4.457951e+002, 2.963550e+004
4.462772e+002, 2.936860e+004
4.467593e+002, 2.910115e+004
4.472414e+002, 2.885959e+004
4.477235e+002, 2.866138e+004
4.482057e+002, 2.846046e+004
4.486878e+002, 2.821965e+004
4.491699e+002, 2.794842e+004
4.496520e+002, 2.766934e+004
4.501341e+002, 2.738221e+004
4.506162e+002, 2.709332e+004
4.510984e+002, 2.680740e+004
4.515805e+002, 2.652445e+004
4.520626e+002, 2.624642e+004
4.525447e+002, 2.597744e+004
4.530268e+002, 2.570849e+004
4.535089e+002, 2.541501e+004
4.539911e+002, 2.508300e+004
4.544732e+002, 2.478839e+004
4.549553e+002, 2.458724e+004
4.554374e+002, 2.440871e+004
4.559195e+002, 2.416845e+004
4.564016e+002, 2.386223e+004
4.568838e+002, 2.355784e+004
4.573659e+002, 2.331038e+004
4.578480e+002, 2.311611e+004
4.583301e+002, 2.289752e+004
4.588122e+002, 2.260309e+004
4.592943e+002, 2.234785e+004
4.597765e+002, 2.217525e+004
4.602586e+002, 2.205159e+004
4.607407e+002, 2.193287e+004
4.612228e+002, 2.180457e+004
4.617049e+002, 2.167784e+004
4.621870e+002, 2.157034e+004
4.626692e+002, 2.149057e+004
4.631513e+002, 2.140424e+004
4.636334e+002, 2.128819e+004
4.641155e+002, 2.118914e+004
4.645976e+002, 2.112922e+004
4.650797e+002, 2.110248e+004
4.655619e+002, 2.109187e+004
4.660440e+002, 2.108843e+004
4.665261e+002, 2.109234e+004
4.670082e+002, 2.110863e+004
4.674903e+002, 2.114974e+004
4.679724e+002, 2.116919e+004
4.684546e+002, 2.112095e+004
4.689367e+002, 2.106994e+004
4.694188e+002, 2.107215e+004
4.699009e+002, 2.113007e+004
4.703830e+002, 2.118775e+004
4.708651e+002, 2.120508e+004
4.713473e+002, 2.118785e+004
4.718294e+002, 2.115295e+004
4.723115e+002, 2.109497e+004
4.727936e+002, 2.103873e+004
4.732757e+002, 2.102627e+004
4.737578e+002, 2.102166e+004
4.742400e+002, 2.094978e+004
4.747221e+002, 2.076092e+004
4.752042e+002, 2.056586e+004
4.756863e+002, 2.044015e+004
4.761684e+002, 2.036826e+004
4.766505e+002, 2.031174e+004
4.771327e+002, 2.026336e+004
4.776148e+002, 2.021026e+004
4.780969e+002, 2.012938e+004
4.785790e+002, 2.001438e+004
4.790611e+002, 1.992543e+004
4.795432e+002, 1.989292e+004
4.800254e+002, 1.986395e+004
4.805075e+002, 1.979796e+004
4.809896e+002, 1.970561e+004
4.814717e+002, 1.962163e+004
4.819538e+002, 1.956421e+004
4.824359e+002, 1.953092e+004
4.829181e+002, 1.951644e+004
4.834002e+002, 1.956100e+004
4.838823e+002, 1.956378e+004
4.843644e+002, 1.947903e+004
4.848465e+002, 1.938775e+004
4.853286e+002, 1.935872e+004
4.858108e+002, 1.938730e+004
4.862929e+002, 1.941576e+004
4.867750e+002, 1.939477e+004
4.872571e+002, 1.932925e+004
4.877392e+002, 1.925898e+004
4.882213e+002, 1.916348e+004
4.887035e+002, 1.909853e+004
4.891856e+002, 1.909966e+004
4.896677e+002, 1.912314e+004
4.901498e+002, 1.912029e+004
4.906319e+002, 1.907923e+004
4.911140e+002, 1.903578e+004
4.915962e+002, 1.903366e+004
4.920783e+002, 1.906603e+004
4.925604e+002, 1.907421e+004
4.930425e+002, 1.904244e+004
4.935246e+002, 1.900531e+004
4.940067e+002, 1.899681e+004
4.944889e+002, 1.900209e+004
4.949710e+002, 1.898437e+004
4.954531e+002, 1.890661e+004
4.959352e+002, 1.883678e+004
4.964173e+002, 1.884988e+004
4.968994e+002, 1.892102e+004
4.973816e+002, 1.895513e+004
4.978637e+002, 1.891587e+004
4.983458e+002, 1.884276e+004
4.988279e+002, 1.878601e+004
4.993100e+002, 1.874349e+004
4.997921e+002, 1.873248e+004
5.002743e+002, 1.878379e+004
5.007564e+002, 1.884159e+004
5.012385e+002, 1.886727e+004
5.017206e+002, 1.886696e+004
5.022027e+002, 1.886777e+004
5.026848e+002, 1.888607e+004
5.031670e+002, 1.891099e+004
5.036491e+002, 1.890886e+004
5.041312e+002, 1.885119e+004
5.046133e+002, 1.881242e+004
5.050954e+002, 1.881074e+004
5.055775e+002, 1.881413e+004
5.060597e+002, 1.879247e+004
5.065418e+002, 1.875195e+004
5.070239e+002, 1.872783e+004
5.075060e+002, 1.875346e+004
5.079881e+002, 1.881591e+004
5.084702e+002, 1.885437e+004
5.089524e+002, 1.886721e+004
5.094345e+002, 1.885924e+004
5.099166e+002, 1.881368e+004
5.103987e+002, 1.875894e+004
5.108808e+002, 1.872585e+004
5.113629e+002, 1.871943e+004
5.118451e+002, 1.870409e+004
5.123271e+002, 1.863841e+004
5.128093e+002, 1.854406e+004
5.132914e+002, 1.849338e+004
5.137735e+002, 1.850342e+004
5.142556e+002, 1.850150e+004
5.147377e+002, 1.842781e+004
5.152198e+002, 1.830212e+004
5.157020e+002, 1.819829e+004
5.161841e+002, 1.812180e+004
5.166662e+002, 1.806215e+004
5.171483e+002, 1.802334e+004
5.176304e+002, 1.799592e+004
5.181125e+002, 1.796449e+004
5.185947e+002, 1.792517e+004
5.190768e+002, 1.788297e+004
5.195589e+002, 1.784354e+004
5.200410e+002, 1.780753e+004
5.205231e+002, 1.776596e+004
5.210052e+002, 1.770424e+004
5.214874e+002, 1.765408e+004
5.219695e+002, 1.763867e+004
5.224516e+002, 1.763631e+004
5.229337e+002, 1.761899e+004
5.234158e+002, 1.757590e+004
5.238979e+002, 1.751134e+004
5.243801e+002, 1.741495e+004
5.248622e+002, 1.726646e+004
5.253443e+002, 1.719876e+004
5.258264e+002, 1.731871e+004
5.263085e+002, 1.740713e+004
5.267906e+002, 1.733985e+004
5.272728e+002, 1.717910e+004
5.277549e+002, 1.704504e+004
5.282370e+002, 1.698524e+004
5.287191e+002, 1.697209e+004
5.292012e+002, 1.698830e+004
5.296833e+002, 1.703009e+004
5.301655e+002, 1.704026e+004
5.306476e+002, 1.700014e+004
5.311297e+002, 1.693118e+004
5.316118e+002, 1.683056e+004
5.320939e+002, 1.670647e+004
5.325760e+002, 1.664539e+004
5.330582e+002, 1.670531e+004
5.335403e+002, 1.679941e+004
5.340224e+002, 1.687370e+004
5.345045e+002, 1.692744e+004
5.349866e+002, 1.695702e+004
5.354688e+002, 1.695654e+004
5.359509e+002, 1.695702e+004
5.364330e+002, 1.701894e+004
5.369151e+002, 1.717631e+004
5.373972e+002, 1.731642e+004
5.378793e+002, 1.740995e+004
5.383615e+002, 1.751563e+004
5.388436e+002, 1.768184e+004
5.393257e+002, 1.788564e+004
5.398078e+002, 1.806535e+004
5.402899e+002, 1.818304e+004
5.407720e+002, 1.827493e+004
5.412542e+002, 1.843530e+004
5.417363e+002, 1.869381e+004
5.422184e+002, 1.891825e+004
5.427005e+002, 1.902679e+004
5.431826e+002, 1.914892e+004
5.436647e+002, 1.938870e+004
5.441469e+002, 1.971604e+004
5.446290e+002, 2.000627e+004
5.451111e+002, 2.016511e+004
5.455932e+002, 2.027426e+004
5.460753e+002, 2.046378e+004
5.465574e+002, 2.073010e+004
5.470396e+002, 2.098848e+004
5.475217e+002, 2.119937e+004
5.480038e+002, 2.139571e+004
5.484859e+002, 2.164322e+004
5.489680e+002, 2.194807e+004
5.494501e+002, 2.222143e+004
5.499323e+002, 2.243214e+004
5.504144e+002, 2.261774e+004
5.508965e+002, 2.279615e+004
5.513786e+002, 2.297415e+004
5.518607e+002, 2.316882e+004
5.523428e+002, 2.339132e+004
5.528250e+002, 2.362543e+004
5.533071e+002, 2.382998e+004
5.537892e+002, 2.399034e+004
5.542713e+002, 2.414824e+004
5.547534e+002, 2.433486e+004
5.552355e+002, 2.449250e+004
5.557177e+002, 2.455989e+004
5.561998e+002, 2.456936e+004
5.566819e+002, 2.461291e+004
5.571640e+002, 2.475515e+004
5.576461e+002, 2.494205e+004
5.581282e+002, 2.505577e+004
5.586104e+002, 2.508983e+004
5.590925e+002, 2.509250e+004
5.595746e+002, 2.505032e+004
5.600567e+002, 2.500474e+004
5.605388e+002, 2.499580e+004
5.610209e+002, 2.501878e+004
5.615031e+002, 2.503891e+004
5.619852e+002, 2.504169e+004
5.624673e+002, 2.503676e+004
5.629494e+002, 2.502834e+004
5.634315e+002, 2.501935e+004
5.639136e+002, 2.502531e+004
5.643958e+002, 2.505559e+004
5.648779e+002, 2.509362e+004
5.653600e+002, 2.510682e+004
5.658421e+002, 2.507069e+004
5.663242e+002, 2.508428e+004
5.668063e+002, 2.517286e+004
5.672885e+002, 2.528637e+004
5.677706e+002, 2.541346e+004
5.682527e+002, 2.554149e+004
5.687348e+002, 2.564799e+004
5.692169e+002, 2.572200e+004
5.696990e+002, 2.577865e+004
5.701812e+002, 2.584923e+004
5.706633e+002, 2.594002e+004
5.711454e+002, 2.601744e+004
5.716275e+002, 2.604744e+004
5.721096e+002, 2.609768e+004
5.725917e+002, 2.621943e+004
5.730739e+002, 2.638558e+004
5.735560e+002, 2.653522e+004
5.740381e+002, 2.665201e+004
5.745202e+002, 2.673215e+004
5.750023e+002, 2.673997e+004
5.754844e+002, 2.669552e+004
5.759666e+002, 2.672334e+004
5.764487e+002, 2.687292e+004
5.769308e+002, 2.704030e+004
5.774129e+002, 2.711443e+004
5.778950e+002, 2.709168e+004
5.783771e+002, 2.707714e+004
5.788593e+002, 2.710017e+004
5.793414e+002, 2.710251e+004
5.798235e+002, 2.703762e+004
5.803056e+002, 2.694067e+004
5.807877e+002, 2.687689e+004
5.812698e+002, 2.686329e+004
5.817520e+002, 2.685179e+004
5.822341e+002, 2.677996e+004
5.827162e+002, 2.664081e+004
5.831984e+002, 2.650161e+004
5.836805e+002, 2.635935e+004
5.841626e+002, 2.622122e+004
5.846447e+002, 2.608983e+004
5.851268e+002, 2.596259e+004
5.856089e+002, 2.583350e+004
5.860911e+002, 2.570073e+004
5.865732e+002, 2.557999e+004
5.870553e+002, 2.549803e+004
5.875374e+002, 2.544130e+004
5.880195e+002, 2.536199e+004
5.885016e+002, 2.525644e+004
5.889838e+002, 2.512342e+004
5.894659e+002, 2.493697e+004
5.899480e+002, 2.473011e+004
5.904301e+002, 2.459971e+004
5.909122e+002, 2.458317e+004
5.913943e+002, 2.456655e+004
5.918765e+002, 2.451383e+004
5.923586e+002, 2.444449e+004
5.928407e+002, 2.437242e+004
5.933228e+002, 2.430335e+004
5.938049e+002, 2.424868e+004
5.942870e+002, 2.421823e+004
5.947692e+002, 2.420642e+004
5.952513e+002, 2.418595e+004
5.957334e+002, 2.414967e+004
5.962155e+002, 2.411738e+004
5.966976e+002, 2.404862e+004
5.971797e+002, 2.401803e+004
5.976619e+002, 2.409587e+004
5.981440e+002, 2.426500e+004
5.986261e+002, 2.444034e+004
5.991082e+002, 2.456641e+004
5.995903e+002, 2.467106e+004
6.000724e+002, 2.481233e+004
6.005546e+002, 2.499034e+004
6.010367e+002, 2.514538e+004
6.015188e+002, 2.524667e+004
6.020009e+002, 2.533519e+004
6.024830e+002, 2.546212e+004
6.029651e+002, 2.562540e+004
6.034473e+002, 2.580648e+004
6.039294e+002, 2.604229e+004
6.044115e+002, 2.625628e+004
6.048936e+002, 2.638197e+004
6.053757e+002, 2.645311e+004
6.058578e+002, 2.654022e+004
6.063400e+002, 2.666882e+004
6.068221e+002, 2.681183e+004
6.073042e+002, 2.693433e+004
6.077863e+002, 2.703823e+004
6.082684e+002, 2.711041e+004
6.087505e+002, 2.715266e+004
6.092327e+002, 2.715803e+004
6.097148e+002, 2.711975e+004
6.101969e+002, 2.704714e+004
6.106790e+002, 2.694114e+004
6.111611e+002, 2.680089e+004
6.116432e+002, 2.666707e+004
6.121254e+002, 2.660247e+004
6.126075e+002, 2.657205e+004
6.130896e+002, 2.645367e+004
6.135717e+002, 2.622696e+004
6.140538e+002, 2.599462e+004
6.145359e+002, 2.582203e+004
6.150181e+002, 2.568599e+004
6.155002e+002, 2.552106e+004
6.159823e+002, 2.532053e+004
6.164644e+002, 2.510929e+004
6.169465e+002, 2.490540e+004
6.174286e+002, 2.468351e+004
6.179108e+002, 2.439486e+004
6.183929e+002, 2.406310e+004
6.188750e+002, 2.377306e+004
6.193571e+002, 2.358078e+004
6.198392e+002, 2.345475e+004
6.203214e+002, 2.331885e+004
6.208035e+002, 2.318274e+004
6.212856e+002, 2.300620e+004
6.217677e+002, 2.271880e+004
6.222498e+002, 2.245406e+004
6.227319e+002, 2.230472e+004
6.232141e+002, 2.223317e+004
6.236962e+002, 2.213547e+004
6.241783e+002, 2.195409e+004
6.246604e+002, 2.176684e+004
6.251425e+002, 2.166169e+004
6.256246e+002, 2.161419e+004
6.261068e+002, 2.155032e+004
6.265889e+002, 2.145609e+004
6.270710e+002, 2.132035e+004
6.275531e+002, 2.112229e+004
6.280352e+002, 2.086656e+004
6.285173e+002, 2.064424e+004
6.289995e+002, 2.046203e+004
6.294816e+002, 2.030105e+004
6.299637e+002, 2.019243e+004
6.304458e+002, 2.008144e+004
6.309279e+002, 1.989432e+004
6.314100e+002, 1.963750e+004
6.318922e+002, 1.939619e+004
6.323743e+002, 1.924514e+004
6.328564e+002, 1.916024e+004
6.333385e+002, 1.905397e+004
6.338206e+002, 1.892351e+004
6.343027e+002, 1.878272e+004
6.347849e+002, 1.863492e+004
6.352670e+002, 1.847778e+004
6.357491e+002, 1.830174e+004
6.362312e+002, 1.810912e+004
6.367133e+002, 1.793454e+004
6.371954e+002, 1.780802e+004
6.376776e+002, 1.768518e+004
6.381597e+002, 1.752006e+004
6.386418e+002, 1.733100e+004
6.391239e+002, 1.716874e+004
6.396060e+002, 1.705060e+004
6.400881e+002, 1.694409e+004
6.405703e+002, 1.680479e+004
6.410524e+002, 1.662617e+004
6.415345e+002, 1.649503e+004
6.420166e+002, 1.647429e+004
6.424987e+002, 1.642806e+004
6.429808e+002, 1.631006e+004
6.434630e+002, 1.616537e+004
6.439451e+002, 1.603311e+004
6.444272e+002, 1.592370e+004
6.449093e+002, 1.583681e+004
6.453914e+002, 1.577770e+004
6.458735e+002, 1.573977e+004
6.463557e+002, 1.571047e+004
6.468378e+002, 1.568971e+004
6.473199e+002, 1.566873e+004
6.478020e+002, 1.564670e+004
6.482841e+002, 1.561827e+004
6.487662e+002, 1.557196e+004
6.492484e+002, 1.550400e+004
6.497305e+002, 1.543979e+004
6.502126e+002, 1.537084e+004
6.506947e+002, 1.531672e+004
6.511768e+002, 1.529945e+004
6.516589e+002, 1.530146e+004
6.521411e+002, 1.529184e+004
6.526232e+002, 1.525996e+004
6.531053e+002, 1.522071e+004
6.535874e+002, 1.519474e+004
6.540695e+002, 1.518231e+004
6.545516e+002, 1.515952e+004
6.550338e+002, 1.512255e+004
6.555159e+002, 1.508317e+004
6.559980e+002, 1.505638e+004
6.564801e+002, 1.502460e+004
6.569622e+002, 1.496310e+004
6.574443e+002, 1.486673e+004
6.579265e+002, 1.477260e+004
6.584086e+002, 1.469807e+004
6.588907e+002, 1.463390e+004
6.593728e+002, 1.457595e+004
6.598549e+002, 1.452021e+004
6.603370e+002, 1.445300e+004
6.608192e+002, 1.436748e+004
6.613013e+002, 1.427345e+004
6.617834e+002, 1.418964e+004
6.622655e+002, 1.412098e+004
6.627476e+002, 1.404296e+004
6.632297e+002, 1.392804e+004
6.637119e+002, 1.383393e+004
6.641940e+002, 1.379568e+004
6.646761e+002, 1.378126e+004
6.651582e+002, 1.375213e+004
6.656403e+002, 1.369801e+004
6.661224e+002, 1.362270e+004
6.666046e+002, 1.351583e+004
6.670867e+002, 1.339298e+004
6.675688e+002, 1.329042e+004
6.680509e+002, 1.321087e+004
6.685330e+002, 1.314225e+004
6.690151e+002, 1.308250e+004
6.694973e+002, 1.302448e+004
6.699794e+002, 1.295243e+004
6.704615e+002, 1.285755e+004
6.709436e+002, 1.277324e+004
6.714257e+002, 1.271377e+004
6.719078e+002, 1.265133e+004
6.723900e+002, 1.256577e+004
6.728721e+002, 1.246887e+004
6.733542e+002, 1.238043e+004
6.738363e+002, 1.230760e+004
6.743184e+002, 1.224535e+004
6.748005e+002, 1.219169e+004
6.752827e+002, 1.214493e+004
6.757648e+002, 1.208956e+004
6.762469e+002, 1.202508e+004
6.767290e+002, 1.195310e+004
6.772111e+002, 1.187137e+004
6.776932e+002, 1.178393e+004
6.781754e+002, 1.169166e+004
6.786575e+002, 1.158754e+004
6.791396e+002, 1.151562e+004
6.796217e+002, 1.149253e+004
6.801038e+002, 1.149882e+004
6.805859e+002, 1.153731e+004
6.810681e+002, 1.159124e+004
6.815502e+002, 1.162416e+004
6.820323e+002, 1.162225e+004
6.825144e+002, 1.160846e+004
6.829965e+002, 1.161009e+004
6.834786e+002, 1.162597e+004
6.839608e+002, 1.167787e+004
6.844429e+002, 1.177810e+004
6.849250e+002, 1.189198e+004
6.854071e+002, 1.202926e+004
6.858892e+002, 1.215975e+004
6.863713e+002, 1.224446e+004
6.868535e+002, 1.227771e+004
6.873356e+002, 1.230738e+004
6.878177e+002, 1.233045e+004
6.882998e+002, 1.237727e+004
6.887819e+002, 1.249998e+004
6.892640e+002, 1.267575e+004
6.897462e+002, 1.282905e+004
6.902283e+002, 1.293146e+004
6.907104e+002, 1.300214e+004
6.911925e+002, 1.306757e+004
6.916746e+002, 1.312901e+004
6.921567e+002, 1.317508e+004
6.926389e+002, 1.318277e+004
6.931210e+002, 1.320744e+004
6.936031e+002, 1.326265e+004
6.940852e+002, 1.334109e+004
6.945673e+002, 1.345495e+004
6.950494e+002, 1.359924e+004
6.955316e+002, 1.370082e+004
6.960137e+002, 1.368830e+004
6.964958e+002, 1.362676e+004
6.969779e+002, 1.359870e+004
6.974600e+002, 1.359934e+004
6.979421e+002, 1.360935e+004
6.984243e+002, 1.362634e+004
6.989064e+002, 1.361154e+004
6.993885e+002, 1.350682e+004
6.998706e+002, 1.330158e+004
7.003527e+002, 1.314556e+004
7.008348e+002, 1.307630e+004
7.013170e+002, 1.301126e+004
7.017991e+002, 1.296938e+004
7.022812e+002, 1.290375e+004
7.027633e+002, 1.274909e+004
7.032454e+002, 1.251487e+004
7.037275e+002, 1.229954e+004
7.042097e+002, 1.217569e+004
7.046918e+002, 1.209633e+004
7.051739e+002, 1.199466e+004
7.056560e+002, 1.187190e+004
7.061381e+002, 1.173807e+004
7.066202e+002, 1.159347e+004
7.071024e+002, 1.145135e+004
7.075845e+002, 1.132695e+004
7.080666e+002, 1.121894e+004
7.085487e+002, 1.110583e+004
7.090308e+002, 1.097990e+004
7.095129e+002, 1.085903e+004
7.099951e+002, 1.076739e+004
7.104772e+002, 1.066512e+004
7.109593e+002, 1.051398e+004
7.114414e+002, 1.031882e+004
7.119235e+002, 1.011004e+004
7.124056e+002, 9.889396e+003
7.128878e+002, 9.690684e+003
7.133699e+002, 9.586693e+003
7.138520e+002, 9.561870e+003
7.143341e+002, 9.511514e+003
7.148162e+002, 9.417109e+003
7.152983e+002, 9.285369e+003
7.157805e+002, 9.107546e+003
7.162626e+002, 8.897029e+003
7.167447e+002, 8.729629e+003
7.172268e+002, 8.610603e+003
7.177089e+002, 8.523789e+003
7.181910e+002, 8.499294e+003
7.186732e+002, 8.479803e+003
7.191553e+002, 8.436127e+003
7.196374e+002, 8.361854e+003
7.201195e+002, 8.242620e+003
7.206016e+002, 8.064355e+003
7.210837e+002, 7.887714e+003
7.215659e+002, 7.810170e+003
7.220480e+002, 7.811409e+003
7.225301e+002, 7.775492e+003
7.230122e+002, 7.684875e+003
7.234943e+002, 7.592716e+003
7.239764e+002, 7.530242e+003
7.244586e+002, 7.487305e+003
7.249407e+002, 7.439337e+003
7.254228e+002, 7.392580e+003
7.259049e+002, 7.325061e+003
7.263870e+002, 7.196063e+003
7.268691e+002, 7.085938e+003
7.273513e+002, 7.055859e+003
7.278334e+002, 7.070271e+003
7.283155e+002, 7.072907e+003
7.287976e+002, 7.044138e+003
7.292797e+002, 6.987013e+003
7.297618e+002, 6.890919e+003
7.302440e+002, 6.769193e+003
7.307261e+002, 6.665112e+003
7.312082e+002, 6.579137e+003
7.316903e+002, 6.525519e+003
7.321724e+002, 6.520956e+003
7.326545e+002, 6.533198e+003
7.331367e+002, 6.514511e+003
7.336188e+002, 6.457727e+003
7.341009e+002, 6.408343e+003
7.345830e+002, 6.360960e+003
7.350651e+002, 6.326972e+003
7.355472e+002, 6.329007e+003
7.360294e+002, 6.335775e+003
7.365115e+002, 6.302731e+003
7.369936e+002, 6.230330e+003
7.374757e+002, 6.166735e+003
7.379578e+002, 6.152790e+003
7.384399e+002, 6.166220e+003
7.389221e+002, 6.161849e+003
7.394042e+002, 6.140893e+003
7.398863e+002, 6.123101e+003
7.403684e+002, 6.114440e+003
7.408505e+002, 6.105228e+003
7.413326e+002, 6.083991e+003
7.418148e+002, 6.052800e+003
7.422969e+002, 6.035988e+003
7.427790e+002, 6.032521e+003
7.432611e+002, 6.043632e+003
7.437432e+002, 6.093635e+003
7.442253e+002, 6.138104e+003
7.447075e+002, 6.127653e+003
7.451896e+002, 6.083409e+003
7.456717e+002, 6.074290e+003
7.461538e+002, 6.141678e+003
7.466359e+002, 6.216439e+003
7.471180e+002, 6.197178e+003
7.476002e+002, 6.114808e+003
7.480823e+002, 6.090497e+003
7.485644e+002, 6.140274e+003
7.490465e+002, 6.181544e+003
7.495286e+002, 6.158323e+003
7.500107e+002, 6.106232e+003
7.504929e+002, 6.111108e+003
7.509750e+002, 6.201680e+003
7.514571e+002, 6.279519e+003
7.519392e+002, 6.356830e+003
7.524213e+002, 6.408907e+003
7.529034e+002, 6.387141e+003
7.533856e+002, 6.352099e+003
7.538677e+002, 6.405061e+003
7.543498e+002, 6.563318e+003
7.548319e+002, 6.700783e+003
7.553140e+002, 6.694391e+003
7.557961e+002, 6.623238e+003
7.562783e+002, 6.615369e+003
7.567604e+002, 6.665010e+003
7.572425e+002, 6.730768e+003
7.577246e+002, 6.800701e+003
7.582067e+002, 6.861524e+003
7.586888e+002, 6.896168e+003
7.591710e+002, 6.904860e+003
7.596531e+002, 6.907434e+003
7.601352e+002, 6.889226e+003
7.606173e+002, 6.887628e+003
7.610994e+002, 6.940924e+003
7.615815e+002, 6.984182e+003
7.620637e+002, 6.951165e+003
7.625458e+002, 6.863256e+003
7.630279e+002, 6.806005e+003
7.635100e+002, 6.825289e+003
7.639921e+002, 6.862125e+003
7.644742e+002, 6.883052e+003
7.649564e+002, 6.882529e+003
7.654385e+002, 6.842578e+003
7.659206e+002, 6.765594e+003
7.664027e+002, 6.682926e+003
7.668848e+002, 6.614471e+003
7.673669e+002, 6.554368e+003
7.678491e+002, 6.488830e+003
7.683312e+002, 6.415794e+003
7.688133e+002, 6.345465e+003
7.692954e+002, 6.283895e+003
7.697775e+002, 6.217120e+003
7.702596e+002, 6.112303e+003
7.707418e+002, 6.011021e+003
7.712239e+002, 5.979377e+003
7.717060e+002, 6.031263e+003
7.721881e+002, 6.072181e+003
7.726702e+002, 6.042285e+003
7.731523e+002, 6.009276e+003
7.736345e+002, 6.045200e+003
7.741166e+002, 6.116188e+003
7.745987e+002, 6.146127e+003
7.750808e+002, 6.116157e+003
7.755629e+002, 6.070531e+003
7.760450e+002, 6.051822e+003
7.765272e+002, 6.055477e+003
7.770093e+002, 6.061640e+003
7.774914e+002, 6.071644e+003
7.779735e+002, 6.074518e+003
7.784556e+002, 6.054970e+003
7.789377e+002, 6.047630e+003
7.794199e+002, 6.101250e+003
7.799020e+002, 6.197623e+003
7.803841e+002, 6.246610e+003
7.808662e+002, 6.209831e+003
7.813483e+002, 6.177678e+003
7.818304e+002, 6.171393e+003
7.823126e+002, 6.177960e+003
7.827947e+002, 6.198340e+003
7.832768e+002, 6.221083e+003
7.837589e+002, 6.215091e+003
7.842410e+002, 6.164600e+003
7.847231e+002, 6.118119e+003
7.852053e+002, 6.145620e+003
7.856874e+002, 6.227794e+003
7.861695e+002, 6.290354e+003
7.866516e+002, 6.329055e+003
7.871337e+002, 6.354795e+003
7.876158e+002, 6.370740e+003
7.880980e+002, 6.379604e+003
7.885801e+002, 6.385883e+003
7.890622e+002, 6.390607e+003
7.895443e+002, 6.385734e+003
7.900264e+002, 6.350295e+003
7.905085e+002, 6.332510e+003
7.909907e+002, 6.366917e+003
7.914728e+002, 6.406163e+003
7.919549e+002, 6.403864e+003
7.924370e+002, 6.362351e+003
7.929191e+002, 6.315536e+003
7.934012e+002, 6.272936e+003
7.938834e+002, 6.242837e+003
7.943655e+002, 6.246129e+003
7.948476e+002, 6.264610e+003
7.953297e+002, 6.260640e+003
7.958118e+002, 6.228897e+003
7.962939e+002, 6.177915e+003
7.967761e+002, 6.110889e+003
7.972582e+002, 6.037577e+003
7.977403e+002, 5.981874e+003
7.982224e+002, 5.945713e+003
7.987045e+002, 5.918308e+003
7.991866e+002, 5.906292e+003
7.996688e+002, 5.892390e+003
8.001509e+002, 5.870678e+003
8.006330e+002, 5.841684e+003
8.011151e+002, 5.799745e+003
8.015972e+002, 5.742586e+003
8.020793e+002, 5.704403e+003
8.025615e+002, 5.709031e+003
8.030436e+002, 5.720656e+003
8.035257e+002, 5.721590e+003
8.040078e+002, 5.713289e+003
8.044899e+002, 5.698629e+003
8.049720e+002, 5.678616e+003
8.054542e+002, 5.652729e+003
8.059363e+002, 5.618307e+003
8.064184e+002, 5.582010e+003
8.069005e+002, 5.559039e+003
8.073826e+002, 5.548999e+003
8.078647e+002, 5.548077e+003
8.083469e+002, 5.560887e+003
8.088290e+002, 5.557069e+003
8.093111e+002, 5.508836e+003
8.097932e+002, 5.432645e+003
8.102753e+002, 5.380097e+003
8.107574e+002, 5.368752e+003
8.112396e+002, 5.344705e+003
8.117217e+002, 5.293772e+003
8.122038e+002, 5.246255e+003
8.126859e+002, 5.213346e+003
8.131680e+002, 5.192264e+003
8.136501e+002, 5.182644e+003
8.141323e+002, 5.183110e+003
8.146144e+002, 5.178168e+003
8.150965e+002, 5.149551e+003
8.155786e+002, 5.117366e+003
8.160607e+002, 5.111117e+003
8.165428e+002, 5.119778e+003
8.170250e+002, 5.112699e+003
8.175071e+002, 5.083468e+003
8.179892e+002, 5.046167e+003
8.184713e+002, 5.009304e+003
8.189534e+002, 4.979506e+003
8.194355e+002, 4.990584e+003
8.199177e+002, 5.061833e+003
8.203998e+002, 5.079800e+003
8.208819e+002, 4.998251e+003
8.213640e+002, 4.919151e+003
8.218461e+002, 4.907709e+003
8.223282e+002, 4.939508e+003
8.228104e+002, 4.970066e+003
8.232925e+002, 5.003949e+003
8.237746e+002, 5.015403e+003
8.242567e+002, 4.973843e+003
8.247388e+002, 4.935753e+003
8.252209e+002, 4.949302e+003
8.257031e+002, 4.979691e+003
8.261852e+002, 4.965269e+003
8.266673e+002, 4.900963e+003
8.271494e+002, 4.849332e+003
8.276315e+002, 4.868553e+003
8.281136e+002, 4.917515e+003
8.285958e+002, 4.923803e+003
8.290779e+002, 4.896097e+003
8.295600e+002, 4.875818e+003
8.300421e+002, 4.870973e+003
8.305242e+002, 4.874389e+003
8.310063e+002, 4.880985e+003
8.314885e+002, 4.891689e+003
8.319706e+002, 4.913116e+003
8.324527e+002, 4.964768e+003
8.329348e+002, 4.973808e+003
8.334169e+002, 4.891116e+003
8.338990e+002, 4.827680e+003
8.343812e+002, 4.841789e+003
8.348633e+002, 4.889979e+003
8.353454e+002, 4.925294e+003
8.358275e+002, 4.943340e+003
8.363096e+002, 4.935632e+003
8.367917e+002, 4.857661e+003
8.372739e+002, 4.797828e+003
8.377560e+002, 4.835591e+003
8.382381e+002, 4.913597e+003
8.387202e+002, 4.954510e+003
8.392023e+002, 4.946396e+003
8.396844e+002, 4.911289e+003
8.401666e+002, 4.858363e+003
8.406487e+002, 4.806091e+003
8.411308e+002, 4.794180e+003
8.416129e+002, 4.815770e+003
8.420950e+002, 4.819741e+003
8.425771e+002, 4.798933e+003
8.430593e+002, 4.782978e+003
8.435414e+002, 4.786624e+003
8.440235e+002, 4.807924e+003
8.445056e+002, 4.849255e+003
8.449877e+002, 4.924034e+003
8.454698e+002, 4.949730e+003
8.459520e+002, 4.876464e+003
8.464341e+002, 4.819595e+003
8.469162e+002, 4.813532e+003
8.473983e+002, 4.827826e+003
8.478804e+002, 4.845290e+003
8.483625e+002, 4.860205e+003
8.488447e+002, 4.854674e+003
8.493268e+002, 4.804240e+003
8.498089e+002, 4.761643e+003
8.502910e+002, 4.762417e+003
8.507731e+002, 4.782787e+003
8.512552e+002, 4.805672e+003
8.517374e+002, 4.821691e+003
8.522195e+002, 4.809654e+003
8.527016e+002, 4.759754e+003
8.531837e+002, 4.704115e+003
8.536658e+002, 4.674281e+003
8.541479e+002, 4.673617e+003
8.546301e+002, 4.739896e+003
8.551122e+002, 4.875601e+003
8.555943e+002, 4.954676e+003
8.560764e+002, 4.926568e+003
8.565585e+002, 4.854241e+003
8.570406e+002, 4.797642e+003
8.575228e+002, 4.757618e+003
8.580049e+002, 4.745222e+003
8.584870e+002, 4.793146e+003
8.589691e+002, 4.813076e+003
8.594512e+002, 4.746121e+003
8.599333e+002, 4.702700e+003
8.604155e+002, 4.775171e+003
8.608976e+002, 4.902313e+003
8.613797e+002, 4.963641e+003
8.618618e+002, 4.928683e+003
8.623439e+002, 4.885146e+003
8.628260e+002, 4.871938e+003
8.633082e+002, 4.861850e+003
8.637903e+002, 4.834461e+003
8.642724e+002, 4.794377e+003
8.647545e+002, 4.739905e+003
8.652366e+002, 4.678000e+003
8.657188e+002, 4.646099e+003
8.662009e+002, 4.682338e+003
8.666830e+002, 4.749494e+003
8.671651e+002, 4.777286e+003
8.676472e+002, 4.770265e+003
8.681293e+002, 4.750607e+003
8.686115e+002, 4.720425e+003
8.690936e+002, 4.703199e+003
8.695757e+002, 4.714871e+003
8.700578e+002, 4.743298e+003
8.705399e+002, 4.763330e+003
8.710220e+002, 4.771711e+003
8.715042e+002, 4.789254e+003
8.719863e+002, 4.833597e+003
8.724684e+002, 4.858629e+003
8.729505e+002, 4.837222e+003
8.734326e+002, 4.799980e+003
8.739147e+002, 4.764616e+003
8.743969e+002, 4.734600e+003
8.748790e+002, 4.727158e+003
8.753611e+002, 4.777514e+003
8.758432e+002, 4.805581e+003
8.763253e+002, 4.757793e+003
8.768074e+002, 4.697656e+003
8.772896e+002, 4.682351e+003
8.777717e+002, 4.701145e+003
8.782538e+002, 4.721510e+003
8.787359e+002, 4.731268e+003
8.792180e+002, 4.724753e+003
8.797001e+002, 4.676579e+003
8.801823e+002, 4.618585e+003
8.806644e+002, 4.612701e+003
8.811465e+002, 4.651517e+003
8.816286e+002, 4.708549e+003
8.821107e+002, 4.775274e+003
8.825928e+002, 4.820993e+003
8.830750e+002, 4.815221e+003
8.835571e+002, 4.773844e+003
8.840392e+002, 4.753183e+003
8.845213e+002, 4.759428e+003
8.850034e+002, 4.748187e+003
8.854855e+002, 4.703834e+003
8.859677e+002, 4.669921e+003
8.864498e+002, 4.674001e+003
8.869319e+002, 4.697852e+003
8.874140e+002, 4.710077e+003
8.878961e+002, 4.707706e+003
8.883782e+002, 4.713581e+003
8.888604e+002, 4.737403e+003
8.893425e+002, 4.757795e+003
8.898246e+002, 4.770718e+003
8.903067e+002, 4.776534e+003
8.907888e+002, 4.769871e+003
8.912709e+002, 4.756583e+003
8.917531e+002, 4.755463e+003
8.922352e+002, 4.778464e+003
8.927173e+002, 4.797059e+003
8.931994e+002, 4.790483e+003
8.936815e+002, 4.769962e+003
8.941636e+002, 4.739933e+003
8.946458e+002, 4.708346e+003
8.951279e+002, 4.691255e+003
8.956100e+002, 4.693950e+003
8.960921e+002, 4.714412e+003
8.965742e+002, 4.757951e+003
8.970563e+002, 4.810387e+003
8.975385e+002, 4.829747e+003
8.980206e+002, 4.818897e+003
8.985027e+002, 4.817727e+003
8.989848e+002, 4.834573e+003
8.994669e+002, 4.845190e+003
8.999490e+002, 4.832571e+003
9.004312e+002, 4.805856e+003
9.009133e+002, 4.785888e+003
9.013954e+002, 4.774319e+003
9.018775e+002, 4.761986e+003
9.023596e+002, 4.748735e+003
9.028417e+002, 4.734586e+003
9.033239e+002, 4.706367e+003
9.038060e+002, 4.688152e+003
9.042881e+002, 4.714333e+003
9.047702e+002, 4.775436e+003
9.052523e+002, 4.810289e+003
9.057344e+002, 4.800753e+003
9.062166e+002, 4.780455e+003
9.066987e+002, 4.729905e+003
9.071808e+002, 4.697361e+003
9.076629e+002, 4.738536e+003
9.081450e+002, 4.816378e+003
9.086271e+002, 4.861676e+003
9.091093e+002, 4.856527e+003
9.095914e+002, 4.834829e+003
9.100735e+002, 4.815087e+003
9.105556e+002, 4.794367e+003
9.110377e+002, 4.754158e+003
9.115198e+002, 4.715068e+003
9.120020e+002, 4.740773e+003
9.124841e+002, 4.824966e+003
9.129662e+002, 4.868015e+003
9.134483e+002, 4.802114e+003
9.139304e+002, 4.697466e+003
9.144125e+002, 4.678713e+003
9.148947e+002, 4.734133e+003
9.153768e+002, 4.773806e+003
9.158589e+002, 4.794562e+003
9.163410e+002, 4.784740e+003
9.168231e+002, 4.735164e+003
9.173052e+002, 4.670929e+003
9.177874e+002, 4.613251e+003
9.182695e+002, 4.566334e+003
9.187516e+002, 4.580295e+003
9.192337e+002, 4.705731e+003
9.197158e+002, 4.768776e+003
9.201979e+002, 4.710461e+003
9.206801e+002, 4.642048e+003
9.211622e+002, 4.628290e+003
9.216443e+002, 4.641801e+003
9.221264e+002, 4.637163e+003
9.226085e+002, 4.608317e+003
9.230906e+002, 4.596345e+003
9.235728e+002, 4.626615e+003
9.240549e+002, 4.650042e+003
9.245370e+002, 4.642910e+003
9.250191e+002, 4.624797e+003
9.255012e+002, 4.610926e+003
9.259833e+002, 4.603633e+003
9.264655e+002, 4.603316e+003
9.269476e+002, 4.612462e+003
9.274297e+002, 4.618833e+003
9.279118e+002, 4.600437e+003
9.283939e+002, 4.585426e+003
9.288760e+002, 4.619307e+003
9.293582e+002, 4.679580e+003
9.298403e+002, 4.709799e+003
9.303224e+002, 4.698024e+003
9.308045e+002, 4.677833e+003
9.312866e+002, 4.674904e+003
9.317687e+002, 4.682567e+003
9.322509e+002, 4.696106e+003
9.327330e+002, 4.710250e+003
9.332151e+002, 4.689337e+003
9.336972e+002, 4.632360e+003
9.341793e+002, 4.606447e+003
9.346614e+002, 4.648664e+003
9.351436e+002, 4.709563e+003
9.356257e+002, 4.714383e+003
9.361078e+002, 4.666726e+003
9.365899e+002, 4.637274e+003
9.370720e+002, 4.627580e+003
9.375541e+002, 4.633279e+003
9.380363e+002, 4.664039e+003
9.385184e+002, 4.687943e+003
9.390005e+002, 4.678242e+003
9.394826e+002, 4.645981e+003
9.399647e+002, 4.621575e+003
9.404468e+002, 4.605594e+003
9.409290e+002, 4.596159e+003
9.414111e+002, 4.598699e+003
9.418932e+002, 4.600539e+003
9.423753e+002, 4.594727e+003
9.428574e+002, 4.589212e+003
9.433395e+002, 4.592081e+003
9.438217e+002, 4.602345e+003
9.443038e+002, 4.613888e+003
9.447859e+002, 4.631501e+003
9.452680e+002, 4.638237e+003
9.457501e+002, 4.620367e+003
9.462322e+002, 4.596797e+003
9.467144e+002, 4.569319e+003
9.471965e+002, 4.551598e+003
9.476786e+002, 4.573991e+003
9.481607e+002, 4.636460e+003
9.486428e+002, 4.684489e+003
9.491249e+002, 4.675107e+003
9.496071e+002, 4.646704e+003
9.500892e+002, 4.620248e+003
9.505713e+002, 4.610149e+003
9.510534e+002, 4.655558e+003
9.515355e+002, 4.744363e+003
9.520176e+002, 4.820605e+003
9.524998e+002, 4.859077e+003
9.529819e+002, 4.872793e+003
9.534640e+002, 4.869559e+003
9.539461e+002, 4.856380e+003
9.544282e+002, 4.855978e+003
9.549103e+002, 4.866637e+003
9.553925e+002, 4.877770e+003
9.558746e+002, 4.887255e+003
9.563567e+002, 4.883250e+003
9.568388e+002, 4.855489e+003
9.573209e+002, 4.816236e+003
9.578030e+002, 4.795500e+003
9.582852e+002, 4.796813e+003
9.587673e+002, 4.770512e+003
9.592494e+002, 4.705300e+003
9.597315e+002, 4.658995e+003
9.602136e+002, 4.654809e+003
9.606957e+002, 4.664156e+003
9.611779e+002, 4.662194e+003
9.616600e+002, 4.650098e+003
9.621421e+002, 4.633746e+003
9.626242e+002, 4.607764e+003
9.631063e+002, 4.588500e+003
9.635884e+002, 4.588060e+003
9.640706e+002, 4.579281e+003
9.645527e+002, 4.543239e+003
9.650348e+002, 4.499874e+003
9.655169e+002, 4.464543e+003
9.659990e+002, 4.439345e+003
9.664811e+002, 4.442286e+003
9.669633e+002, 4.511719e+003
9.674454e+002, 4.558584e+003
9.679275e+002, 4.551078e+003
9.684096e+002, 4.526684e+003
9.688917e+002, 4.505493e+003
9.693738e+002, 4.487393e+003
9.698560e+002, 4.462075e+003
9.703381e+002, 4.428906e+003
9.708202e+002, 4.420849e+003
9.713023e+002, 4.474354e+003
9.717844e+002, 4.534307e+003
9.722665e+002, 4.563710e+003
9.727487e+002, 4.579452e+003
9.732308e+002, 4.608397e+003
9.737129e+002, 4.642026e+003
9.741950e+002, 4.646536e+003
9.746771e+002, 4.609041e+003
9.751592e+002, 4.563683e+003
9.756414e+002, 4.533464e+003
9.761235e+002, 4.519040e+003
9.766056e+002, 4.528075e+003
9.770877e+002, 4.551805e+003
9.775698e+002, 4.577308e+003
9.780519e+002, 4.597417e+003
9.785341e+002, 4.587999e+003
9.790162e+002, 4.532471e+003
9.794983e+002, 4.467396e+003
9.799804e+002, 4.444660e+003
9.804625e+002, 4.457492e+003
9.809446e+002, 4.491208e+003
9.814268e+002, 4.540856e+003
9.819089e+002, 4.555063e+003
9.823910e+002, 4.519904e+003
9.828731e+002, 4.494002e+003
9.833552e+002, 4.528485e+003
9.838373e+002, 4.592435e+003
9.843195e+002, 4.603060e+003
9.848016e+002, 4.557122e+003
9.852837e+002, 4.531947e+003
9.857658e+002, 4.533450e+003
9.862479e+002, 4.533843e+003
9.867300e+002, 4.519877e+003
9.872122e+002, 4.513721e+003
9.876943e+002, 4.543983e+003
9.881764e+002, 4.599247e+003
9.886585e+002, 4.613257e+003
9.891406e+002, 4.561010e+003
9.896227e+002, 4.542891e+003
9.901049e+002, 4.590335e+003
9.905870e+002, 4.620641e+003
9.910691e+002, 4.584185e+003
9.915512e+002, 4.529443e+003
9.920333e+002, 4.518612e+003
9.925154e+002, 4.549945e+003
9.929976e+002, 4.562905e+003
9.934797e+002, 4.556079e+003
9.939618e+002, 4.533195e+003
9.944439e+002, 4.478202e+003
9.949260e+002, 4.425181e+003
9.954081e+002, 4.372017e+003
9.958903e+002, 4.340427e+003
9.963724e+002, 4.375101e+003
9.968545e+002, 4.476263e+003
9.973366e+002, 4.542007e+003
9.978187e+002, 4.545483e+003
9.983008e+002, 4.521534e+003
9.987830e+002, 4.436560e+003
9.992651e+002, 4.369663e+003
9.997472e+002, 4.398253e+003
1.000229e+003, 4.477444e+003
1.000711e+003, 4.528203e+003
1.001194e+003, 4.534855e+003
1.001676e+003, 4.523415e+003
1.002158e+003, 4.484730e+003
1.002640e+003, 4.455487e+003
1.003122e+003, 4.465803e+003
1.003604e+003, 4.489146e+003
1.004086e+003, 4.494955e+003
1.004568e+003, 4.490427e+003
1.005050e+003, 4.505104e+003
1.005533e+003, 4.547506e+003
1.006015e+003, 4.577397e+003
1.006497e+003, 4.558223e+003
1.006979e+003, 4.522051e+003
1.007461e+003, 4.489289e+003
1.007943e+003, 4.466176e+003
1.008425e+003, 4.467630e+003
1.008907e+003, 4.488081e+003
1.009390e+003, 4.503997e+003
1.009872e+003, 4.505467e+003
1.010354e+003, 4.508675e+003
1.010836e+003, 4.538775e+003
1.011318e+003, 4.574469e+003
1.011800e+003, 4.575268e+003
1.012282e+003, 4.554747e+003
1.012764e+003, 4.541025e+003
1.013246e+003, 4.541621e+003
1.013729e+003, 4.578092e+003
1.014211e+003, 4.664164e+003
1.014693e+003, 4.721398e+003
1.015175e+003, 4.600285e+003
1.015657e+003, 4.381932e+003
1.016139e+003, 4.316634e+003
1.016621e+003, 4.377829e+003
1.017103e+003, 4.438571e+003
1.017586e+003, 4.471671e+003
1.018068e+003, 4.477507e+003
1.018550e+003, 4.454061e+003
1.019032e+003, 4.424333e+003
1.019514e+003, 4.436289e+003
1.019996e+003, 4.479529e+003
1.020478e+003, 4.465606e+003
1.020960e+003, 4.396938e+003
1.021442e+003, 4.371411e+003
1.021925e+003, 4.413009e+003
1.022407e+003, 4.471667e+003
1.022889e+003, 4.515099e+003
1.023371e+003, 4.545137e+003
1.023853e+003, 4.568536e+003
1.024335e+003, 4.585402e+003
1.024817e+003, 4.561524e+003
1.025299e+003, 4.488320e+003
1.025781e+003, 4.441042e+003
1.026264e+003, 4.440604e+003
1.026746e+003, 4.459982e+003
1.027228e+003, 4.484770e+003
1.027710e+003, 4.505021e+003
1.028192e+003, 4.490669e+003
1.028674e+003, 4.432177e+003
1.029156e+003, 4.422217e+003
1.029638e+003, 4.482823e+003
1.030120e+003, 4.517175e+003
1.030603e+003, 4.496959e+003
1.031085e+003, 4.450718e+003
1.031567e+003, 4.388143e+003
1.032049e+003, 4.326526e+003
1.032531e+003, 4.313928e+003
1.033013e+003, 4.361121e+003
1.033495e+003, 4.410976e+003
1.033977e+003, 4.473594e+003
1.034460e+003, 4.517389e+003
1.034942e+003, 4.532493e+003
1.035424e+003, 4.528988e+003
1.035906e+003, 4.507246e+003
1.036388e+003, 4.475447e+003
1.036870e+003, 4.456678e+003
1.037352e+003, 4.452240e+003
1.037834e+003, 4.457476e+003
1.038317e+003, 4.499289e+003
1.038799e+003, 4.508705e+003
1.039281e+003, 4.437167e+003
1.039763e+003, 4.360926e+003
1.040245e+003, 4.335011e+003
1.040727e+003, 4.349371e+003
1.041209e+003, 4.377617e+003
1.041691e+003, 4.427304e+003
1.042173e+003, 4.466430e+003
1.042656e+003, 4.490523e+003
1.043138e+003, 4.509809e+003
1.043620e+003, 4.540089e+003
1.044102e+003, 4.554232e+003
1.044584e+003, 4.519502e+003
1.045066e+003, 4.454727e+003
1.045548e+003, 4.403268e+003
1.046030e+003, 4.359657e+003
1.046512e+003, 4.363080e+003
1.046995e+003, 4.476747e+003
1.047477e+003, 4.559726e+003
1.047959e+003, 4.545086e+003
1.048441e+003, 4.507437e+003
1.048923e+003, 4.508246e+003
1.049405e+003, 4.532155e+003
1.049887e+003, 4.533185e+003
1.050369e+003, 4.499491e+003
1.050852e+003, 4.477145e+003
1.051334e+003, 4.489840e+003
1.051816e+003, 4.495580e+003
1.052298e+003, 4.471592e+003
1.052780e+003, 4.442508e+003
1.053262e+003, 4.429811e+003
1.053744e+003, 4.427552e+003
1.054226e+003, 4.417321e+003
1.054708e+003, 4.393872e+003
1.055191e+003, 4.381793e+003
1.055673e+003, 4.383738e+003
1.056155e+003, 4.403258e+003
1.056637e+003, 4.467749e+003
1.057119e+003, 4.526809e+003
1.057601e+003, 4.526983e+003
1.058083e+003, 4.493160e+003
1.058565e+003, 4.482551e+003
1.059047e+003, 4.506999e+003
1.059530e+003, 4.531354e+003
1.060012e+003, 4.553180e+003
1.060494e+003, 4.560650e+003
1.060976e+003, 4.542581e+003
1.061458e+003, 4.513750e+003
1.061940e+003, 4.472048e+003
1.062422e+003, 4.433894e+003
1.062904e+003, 4.435609e+003
1.063387e+003, 4.483498e+003
1.063869e+003, 4.513111e+003
1.064351e+003, 4.487652e+003
1.064833e+003, 4.455642e+003
1.065315e+003, 4.432177e+003
1.065797e+003, 4.417199e+003
1.066279e+003, 4.416009e+003
1.066761e+003, 4.420825e+003
1.067244e+003, 4.413481e+003
1.067726e+003, 4.392809e+003
1.068208e+003, 4.390961e+003
1.068690e+003, 4.447773e+003
1.069172e+003, 4.490080e+003
1.069654e+003, 4.466584e+003
1.070136e+003, 4.432581e+003
1.070618e+003, 4.438079e+003
1.071100e+003, 4.461983e+003
1.071583e+003, 4.461573e+003
1.072065e+003, 4.433379e+003
1.072547e+003, 4.414843e+003
1.073029e+003, 4.428699e+003
1.073511e+003, 4.441514e+003
1.073993e+003, 4.441529e+003
1.074475e+003, 4.430373e+003
1.074957e+003, 4.392970e+003
1.075439e+003, 4.354298e+003
1.075922e+003, 4.353166e+003
1.076404e+003, 4.389735e+003
1.076886e+003, 4.430612e+003
1.077368e+003, 4.473509e+003
1.077850e+003, 4.495676e+003
1.078332e+003, 4.467928e+003
1.078814e+003, 4.435433e+003
1.079297e+003, 4.431798e+003
1.079779e+003, 4.443050e+003
1.080261e+003, 4.449917e+003
1.080743e+003, 4.450887e+003
1.081225e+003, 4.453428e+003
1.081707e+003, 4.461223e+003
1.082189e+003, 4.466760e+003
1.082671e+003, 4.465353e+003
1.083153e+003, 4.461964e+003
1.083635e+003, 4.458254e+003
1.084118e+003, 4.455457e+003
1.084600e+003, 4.460212e+003
1.085082e+003, 4.466781e+003
1.085564e+003, 4.452865e+003
1.086046e+003, 4.405252e+003
1.086528e+003, 4.375832e+003
1.087010e+003, 4.409980e+003
1.087492e+003, 4.440245e+003
1.087975e+003, 4.425011e+003
1.088457e+003, 4.390658e+003
1.088939e+003, 4.349412e+003
1.089421e+003, 4.316268e+003
1.089903e+003, 4.324476e+003
1.090385e+003, 4.385454e+003
1.090867e+003, 4.435001e+003
1.091349e+003, 4.450375e+003
1.091832e+003, 4.446639e+003
1.092314e+003, 4.407460e+003
1.092796e+003, 4.373242e+003
1.093278e+003, 4.389174e+003
1.093760e+003, 4.431617e+003
1.094242e+003, 4.450097e+003
1.094724e+003, 4.436447e+003
1.095206e+003, 4.429329e+003
1.095688e+003, 4.438873e+003
1.096171e+003, 4.459973e+003
1.096653e+003, 4.506027e+003
1.097135e+003, 4.547336e+003
1.097617e+003, 4.574142e+003
1.098099e+003, 4.577157e+003
1.098581e+003, 4.527404e+003
1.099063e+003, 4.431741e+003
1.099545e+003, 4.380331e+003
1.100027e+003, 4.426506e+003
1.100510e+003, 4.464648e+003
1.100992e+003, 4.461986e+003
1.101474e+003, 4.451461e+003
1.101956e+003, 4.449335e+003
1.102438e+003, 4.450185e+003
1.102920e+003, 4.448560e+003
1.103402e+003, 4.443330e+003
1.103884e+003, 4.430886e+003
1.104367e+003, 4.401971e+003
1.104849e+003, 4.387633e+003
1.105331e+003, 4.402851e+003
1.105813e+003, 4.421474e+003
1.106295e+003, 4.447417e+003
1.106777e+003, 4.460529e+003
1.107259e+003, 4.425008e+003
1.107741e+003, 4.364132e+003
1.108224e+003, 4.348332e+003
1.108706e+003, 4.396720e+003
1.109188e+003, 4.435227e+003
1.109670e+003, 4.469046e+003
1.110152e+003, 4.476264e+003
1.110634e+003, 4.408347e+003
1.111116e+003, 4.356318e+003
1.111598e+003, 4.407304e+003
1.112080e+003, 4.505175e+003
1.112563e+003, 4.542645e+003
1.113045e+003, 4.512863e+003
1.113527e+003, 4.472775e+003
1.114009e+003, 4.391536e+003
1.114491e+003, 4.350469e+003
1.114973e+003, 4.379848e+003
1.115455e+003, 4.420818e+003
1.115937e+003, 4.447909e+003
1.116419e+003, 4.470672e+003
1.116902e+003, 4.513177e+003
1.117384e+003, 4.568794e+003
1.117866e+003, 4.552792e+003
1.118348e+003, 4.404593e+003
1.118830e+003, 4.328576e+003
1.119312e+003, 4.364136e+003
1.119794e+003, 4.407095e+003
1.120276e+003, 4.422584e+003
1.120759e+003, 4.429706e+003
1.121241e+003, 4.449939e+003
1.121723e+003, 4.474326e+003
1.122205e+003, 4.466511e+003
1.122687e+003, 4.410322e+003
1.123169e+003, 4.400046e+003
1.123651e+003, 4.450567e+003
1.124133e+003, 4.501245e+003
1.124615e+003, 4.546358e+003
1.125098e+003, 4.558533e+003
1.125580e+003, 4.509156e+003
1.126062e+003, 4.433795e+003
1.126544e+003, 4.401756e+003
1.127026e+003, 4.412375e+003
1.127508e+003, 4.432578e+003
1.127990e+003, 4.465350e+003
1.128472e+003, 4.478742e+003
1.128954e+003, 4.464531e+003
1.129437e+003, 4.458056e+003
1.129919e+003, 4.478907e+003
1.130401e+003, 4.502047e+003
1.130883e+003, 4.493349e+003
1.131365e+003, 4.464862e+003
1.131847e+003, 4.472043e+003
1.132329e+003, 4.511833e+003
1.132811e+003, 4.522588e+003
1.133294e+003, 4.500218e+003
1.133776e+003, 4.468031e+003
1.134258e+003, 4.433736e+003
1.134740e+003, 4.407095e+003
1.135222e+003, 4.396172e+003
1.135704e+003, 4.398511e+003
1.136186e+003, 4.413189e+003
1.136668e+003, 4.436794e+003
1.137151e+003, 4.459094e+003
1.137633e+003, 4.477705e+003
1.138115e+003, 4.478715e+003
1.138597e+003, 4.462200e+003
1.139079e+003, 4.451488e+003
1.139561e+003, 4.459729e+003
1.140043e+003, 4.471358e+003
1.140525e+003, 4.468859e+003
1.141007e+003, 4.456185e+003
1.141490e+003, 4.434604e+003
1.141972e+003, 4.411186e+003
1.142454e+003, 4.397524e+003
1.142936e+003, 4.397806e+003
1.143418e+003, 4.425837e+003
1.143900e+003, 4.482485e+003
1.144382e+003, 4.531780e+003
1.144864e+003, 4.546424e+003
1.145346e+003, 4.541510e+003
1.145829e+003, 4.524167e+003
1.146311e+003, 4.503878e+003
1.146793e+003, 4.483146e+003
1.147275e+003, 4.473085e+003
1.147757e+003, 4.506871e+003
1.148239e+003, 4.575115e+003
1.148721e+003, 4.613151e+003
1.149203e+003, 4.588293e+003
1.149686e+003, 4.547359e+003
1.150168e+003, 4.503868e+003
1.150650e+003, 4.473938e+003
1.151132e+003, 4.488546e+003
1.151614e+003, 4.508288e+003
1.152096e+003, 4.473741e+003
1.152578e+003, 4.409506e+003
1.153060e+003, 4.385961e+003
1.153542e+003, 4.419749e+003
1.154025e+003, 4.462631e+003
1.154507e+003, 4.510587e+003
1.154989e+003, 4.547289e+003
1.155471e+003, 4.558458e+003
1.155953e+003, 4.565633e+003
1.156435e+003, 4.589322e+003
1.156917e+003, 4.613867e+003
1.157399e+003, 4.614686e+003
1.157881e+003, 4.592801e+003
1.158364e+003, 4.572517e+003
1.158846e+003, 4.558240e+003
1.159328e+003, 4.541634e+003
1.159810e+003, 4.516142e+003
1.160292e+003, 4.496462e+003
1.160774e+003, 4.482842e+003
1.161256e+003, 4.481188e+003
1.161738e+003, 4.502985e+003
1.162221e+003, 4.537005e+003
1.162703e+003, 4.556460e+003
1.163185e+003, 4.560304e+003
1.163667e+003, 4.557349e+003
1.164149e+003, 4.543230e+003
1.164631e+003, 4.537771e+003
1.165113e+003, 4.552842e+003
1.165595e+003, 4.547298e+003
1.166078e+003, 4.490093e+003
1.166560e+003, 4.428797e+003
1.167042e+003, 4.423580e+003
1.167524e+003, 4.463993e+003
1.168006e+003, 4.507793e+003
1.168488e+003, 4.556467e+003
1.168970e+003, 4.569387e+003
1.169452e+003, 4.543676e+003
1.169934e+003, 4.504082e+003
1.170417e+003, 4.456702e+003
1.170899e+003, 4.438453e+003
1.171381e+003, 4.481439e+003
1.171863e+003, 4.536311e+003
1.172345e+003, 4.505167e+003
1.172827e+003, 4.420009e+003
1.173309e+003, 4.400732e+003
1.173791e+003, 4.429826e+003
1.174273e+003, 4.438773e+003
1.174756e+003, 4.422102e+003
1.175238e+003, 4.406875e+003
1.175720e+003, 4.404541e+003
1.176202e+003, 4.416771e+003
1.176684e+003, 4.448665e+003
1.177166e+003, 4.488486e+003
1.177648e+003, 4.532361e+003
1.178130e+003, 4.567276e+003
1.178613e+003, 4.569075e+003
1.179095e+003, 4.549048e+003
1.179577e+003, 4.526759e+003
1.180059e+003, 4.508962e+003
1.180541e+003, 4.505531e+003
1.181023e+003, 4.525590e+003
1.181505e+003, 4.529352e+003
1.181987e+003, 4.462832e+003
1.182469e+003, 4.407369e+003
1.182952e+003, 4.417362e+003
1.183434e+003, 4.464411e+003
1.183916e+003, 4.546019e+003
1.184398e+003, 4.631308e+003
1.184880e+003, 4.662953e+003
1.185362e+003, 4.634202e+003
1.185844e+003, 4.603458e+003
1.186326e+003, 4.564355e+003
1.186808e+003, 4.554993e+003
1.187291e+003, 4.630285e+003
1.187773e+003, 4.677138e+003
1.188255e+003, 4.604681e+003
1.188737e+003, 4.517443e+003
1.189219e+003, 4.530162e+003
1.189701e+003, 4.604563e+003
1.190183e+003, 4.619970e+003
1.190665e+003, 4.562188e+003
1.191148e+003, 4.519295e+003
1.191630e+003, 4.494873e+003
1.192112e+003, 4.475298e+003
1.192594e+003, 4.459189e+003
1.193076e+003, 4.443699e+003
1.193558e+003, 4.424248e+003
1.194040e+003, 4.414611e+003
1.194522e+003, 4.435679e+003
1.195005e+003, 4.477853e+003
1.195487e+003, 4.502735e+003
1.195969e+003, 4.510432e+003
1.196451e+003, 4.502207e+003
1.196933e+003, 4.479042e+003
1.197415e+003, 4.459522e+003
1.197897e+003, 4.448471e+003
1.198379e+003, 4.439578e+003
1.198861e+003, 4.427569e+003
1.199344e+003, 4.430327e+003
1.199826e+003, 4.485991e+003
1.200308e+003, 4.564223e+003
1.200790e+003, 4.609090e+003
1.201272e+003, 4.624955e+003
1.201754e+003, 4.610940e+003
1.202236e+003, 4.578735e+003
1.202718e+003, 4.557775e+003
1.203200e+003, 4.555901e+003
1.203683e+003, 4.562074e+003
1.204165e+003, 4.574946e+003
1.204647e+003, 4.579358e+003
1.205129e+003, 4.553853e+003
1.205611e+003, 4.525662e+003
1.206093e+003, 4.515396e+003
1.206575e+003, 4.518246e+003
1.207057e+003, 4.538475e+003
1.207540e+003, 4.563047e+003
1.208022e+003, 4.558792e+003
1.208504e+003, 4.516760e+003
1.208986e+003, 4.476464e+003
1.209468e+003, 4.416022e+003
1.209950e+003, 4.404508e+003
1.210432e+003, 4.516463e+003
1.210914e+003, 4.610505e+003
1.211396e+003, 4.595900e+003
1.211879e+003, 4.544593e+003
1.212361e+003, 4.529035e+003
1.212843e+003, 4.539619e+003
1.213325e+003, 4.536032e+003
1.213807e+003, 4.510275e+003
1.214289e+003, 4.511432e+003
1.214771e+003, 4.547613e+003
1.215253e+003, 4.579641e+003
1.215735e+003, 4.601496e+003
1.216218e+003, 4.607944e+003
1.216700e+003, 4.594001e+003
1.217182e+003, 4.574243e+003
1.217664e+003, 4.567332e+003
1.218146e+003, 4.567986e+003
1.218628e+003, 4.557453e+003
1.219110e+003, 4.538951e+003
1.219592e+003, 4.522179e+003
1.220075e+003, 4.512576e+003
1.220557e+003, 4.541550e+003
1.221039e+003, 4.608742e+003
1.221521e+003, 4.665318e+003
1.222003e+003, 4.684258e+003
1.222485e+003, 4.682158e+003
1.222967e+003, 4.670871e+003
1.223449e+003, 4.652374e+003
1.223932e+003, 4.631939e+003
1.224414e+003, 4.603387e+003
1.224896e+003, 4.531746e+003
1.225378e+003, 4.456607e+003
1.225860e+003, 4.475147e+003
1.226342e+003, 4.583448e+003
1.226824e+003, 4.650199e+003
1.227306e+003, 4.617236e+003
1.227788e+003, 4.577297e+003
1.228271e+003, 4.554441e+003
1.228753e+003, 4.540480e+003
1.229235e+003, 4.530560e+003
1.229717e+003, 4.529581e+003
1.230199e+003, 4.546794e+003
1.230681e+003, 4.573304e+003
1.231163e+003, 4.594378e+003
1.231645e+003, 4.609937e+003
1.232127e+003, 4.617987e+003
1.232610e+003, 4.612176e+003
1.233092e+003, 4.621905e+003
1.233574e+003, 4.659825e+003
1.234056e+003, 4.671117e+003
1.234538e+003, 4.635604e+003
1.235020e+003, 4.583553e+003
1.235502e+003, 4.533204e+003
1.235984e+003, 4.497763e+003
1.236467e+003, 4.506042e+003
1.236949e+003, 4.546834e+003
1.237431e+003, 4.572074e+003
1.237913e+003, 4.586229e+003
1.238395e+003, 4.616316e+003
1.238877e+003, 4.656889e+003
1.239359e+003, 4.663240e+003
1.239841e+003, 4.628061e+003
1.240323e+003, 4.604309e+003
1.240806e+003, 4.628548e+003
1.241288e+003, 4.661877e+003
1.241770e+003, 4.671160e+003
1.242252e+003, 4.667301e+003
1.242734e+003, 4.653802e+003
1.243216e+003, 4.639188e+003
1.243698e+003, 4.636977e+003
1.244180e+003, 4.640463e+003
1.244662e+003, 4.631560e+003
1.245145e+003, 4.608588e+003
1.245627e+003, 4.593205e+003
1.246109e+003, 4.599904e+003
1.246591e+003, 4.598256e+003
1.247073e+003, 4.575255e+003
1.247555e+003, 4.553660e+003
1.248037e+003, 4.530081e+003
1.248519e+003, 4.525710e+003
1.249002e+003, 4.574853e+003
1.249484e+003, 4.632893e+003
1.249966e+003, 4.605896e+003
1.250448e+003, 4.503243e+003
1.250930e+003, 4.500348e+003
1.251412e+003, 4.611039e+003
1.251894e+003, 4.665213e+003
1.252376e+003, 4.648124e+003
1.252859e+003, 4.637915e+003
1.253341e+003, 4.658001e+003
1.253823e+003, 4.657611e+003
1.254305e+003, 4.598948e+003
1.254787e+003, 4.533777e+003
1.255269e+003, 4.536843e+003
1.255751e+003, 4.579808e+003
1.256233e+003, 4.622878e+003
1.256715e+003, 4.659341e+003
1.257198e+003, 4.682717e+003
1.257680e+003, 4.687091e+003
1.258162e+003, 4.644548e+003
1.258644e+003, 4.565081e+003
1.259126e+003, 4.530865e+003
1.259608e+003, 4.588564e+003
1.260090e+003, 4.648509e+003
1.260572e+003, 4.686379e+003
1.261054e+003, 4.694000e+003
1.261537e+003, 4.646309e+003
1.262019e+003, 4.588193e+003
1.262501e+003, 4.537067e+003
1.262983e+003, 4.507752e+003
1.263465e+003, 4.535330e+003
1.263947e+003, 4.608019e+003
1.264429e+003, 4.631342e+003
1.264911e+003, 4.582342e+003
1.265394e+003, 4.565060e+003
1.265876e+003, 4.588824e+003
1.266358e+003, 4.603182e+003
1.266840e+003, 4.595762e+003
1.267322e+003, 4.584596e+003
1.267804e+003, 4.578868e+003
1.268286e+003, 4.581264e+003
1.268768e+003, 4.598852e+003
1.269250e+003, 4.619173e+003
1.269733e+003, 4.601433e+003
1.270215e+003, 4.569357e+003
1.270697e+003, 4.599061e+003
1.271179e+003, 4.661962e+003
1.271661e+003, 4.663469e+003
1.272143e+003, 4.608090e+003
1.272625e+003, 4.582671e+003
1.273107e+003, 4.619742e+003
1.273589e+003, 4.664030e+003
1.274072e+003, 4.698115e+003
1.274554e+003, 4.709341e+003
1.275036e+003, 4.668360e+003
1.275518e+003, 4.628539e+003
1.276000e+003, 4.635816e+003
1.276482e+003, 4.654828e+003
1.276964e+003, 4.637146e+003
1.277446e+003, 4.598479e+003
1.277929e+003, 4.596635e+003
1.278411e+003, 4.638866e+003
1.278893e+003, 4.638040e+003
1.279375e+003, 4.570233e+003
1.279857e+003, 4.554431e+003
1.280339e+003, 4.613891e+003
1.280821e+003, 4.664833e+003
1.281303e+003, 4.678140e+003
1.281786e+003, 4.674152e+003
1.282268e+003, 4.667344e+003
##END=



