##NAMES=Lorenzenite
##RRUFFID=R130051
##IDEAL CHEMISTRY=Na_2_Ti^4+^_2_O_3_(Si_2_O_6_)
##LOCALITY=Mont Saint-Hilaire, Rouville RCM, Monteregie, Quebec, Canada
##OWNER=RRUFF
##SOURCE=Don Doell
##DESCRIPTION=A jumbled mass of colorless hair-like crystals associated with black arfvedsonite and white microcline
##STATUS=The identification of this mineral has been confirmed by single-crystal X-ray diffraction.
##URL=rruff.info/R130051
8.936163e+001, 0.000000e+000
8.984375e+001, 3.126418e+002
9.032587e+001, 3.148495e+002
9.080798e+001, 3.153138e+002
9.129010e+001, 3.134708e+002
9.177222e+001, 3.105343e+002
9.225433e+001, 3.079710e+002
9.273645e+001, 3.057210e+002
9.321857e+001, 3.032372e+002
9.370068e+001, 3.001248e+002
9.418280e+001, 2.964332e+002
9.466492e+001, 2.923008e+002
9.514703e+001, 2.872114e+002
9.562915e+001, 2.818232e+002
9.611127e+001, 2.780770e+002
9.659338e+001, 2.761992e+002
9.707550e+001, 2.749548e+002
9.755762e+001, 2.729415e+002
9.803973e+001, 2.701387e+002
9.852185e+001, 2.670512e+002
9.900397e+001, 2.634292e+002
9.948608e+001, 2.592210e+002
9.996820e+001, 2.567487e+002
1.004503e+002, 2.567121e+002
1.009324e+002, 2.575805e+002
1.014146e+002, 2.558748e+002
1.018967e+002, 2.507377e+002
1.023788e+002, 2.454328e+002
1.028609e+002, 2.416957e+002
1.033430e+002, 2.400695e+002
1.038251e+002, 2.383987e+002
1.043073e+002, 2.366442e+002
1.047894e+002, 2.347582e+002
1.052715e+002, 2.324479e+002
1.057536e+002, 2.293469e+002
1.062357e+002, 2.262032e+002
1.067178e+002, 2.234854e+002
1.072000e+002, 2.213284e+002
1.076821e+002, 2.194507e+002
1.081642e+002, 2.180923e+002
1.086463e+002, 2.173475e+002
1.091284e+002, 2.158083e+002
1.096105e+002, 2.127249e+002
1.100927e+002, 2.091656e+002
1.105748e+002, 2.061573e+002
1.110569e+002, 2.039541e+002
1.115390e+002, 2.020777e+002
1.120211e+002, 2.005833e+002
1.125032e+002, 1.996698e+002
1.129854e+002, 1.983816e+002
1.134675e+002, 1.964804e+002
1.139496e+002, 1.941590e+002
1.144317e+002, 1.916653e+002
1.149138e+002, 1.881698e+002
1.153959e+002, 1.851921e+002
1.158781e+002, 1.836775e+002
1.163602e+002, 1.847385e+002
1.168423e+002, 1.851816e+002
1.173244e+002, 1.833564e+002
1.178065e+002, 1.799971e+002
1.182886e+002, 1.769719e+002
1.187708e+002, 1.751907e+002
1.192529e+002, 1.739898e+002
1.197350e+002, 1.728893e+002
1.202171e+002, 1.718038e+002
1.206992e+002, 1.707364e+002
1.211813e+002, 1.698195e+002
1.216635e+002, 1.689917e+002
1.221456e+002, 1.679297e+002
1.226277e+002, 1.662736e+002
1.231098e+002, 1.642992e+002
1.235919e+002, 1.623695e+002
1.240740e+002, 1.606172e+002
1.245562e+002, 1.589568e+002
1.250383e+002, 1.572341e+002
1.255204e+002, 1.554424e+002
1.260025e+002, 1.538940e+002
1.264846e+002, 1.530295e+002
1.269667e+002, 1.526406e+002
1.274489e+002, 1.522065e+002
1.279310e+002, 1.517475e+002
1.284131e+002, 1.510520e+002
1.288952e+002, 1.495321e+002
1.293773e+002, 1.470377e+002
1.298594e+002, 1.443415e+002
1.303416e+002, 1.422358e+002
1.308237e+002, 1.407178e+002
1.313058e+002, 1.396252e+002
1.317879e+002, 1.391445e+002
1.322700e+002, 1.391131e+002
1.327521e+002, 1.386905e+002
1.332343e+002, 1.377169e+002
1.337164e+002, 1.364956e+002
1.341985e+002, 1.355585e+002
1.346806e+002, 1.349234e+002
1.351627e+002, 1.343333e+002
1.356448e+002, 1.337255e+002
1.361270e+002, 1.331030e+002
1.366091e+002, 1.320888e+002
1.370912e+002, 1.304418e+002
1.375733e+002, 1.284704e+002
1.380554e+002, 1.272764e+002
1.385375e+002, 1.271449e+002
1.390197e+002, 1.269501e+002
1.395018e+002, 1.255355e+002
1.399839e+002, 1.224486e+002
1.404660e+002, 1.202175e+002
1.409481e+002, 1.194833e+002
1.414302e+002, 1.201216e+002
1.419124e+002, 1.204866e+002
1.423945e+002, 1.206672e+002
1.428766e+002, 1.204575e+002
1.433587e+002, 1.196022e+002
1.438408e+002, 1.178961e+002
1.443229e+002, 1.159548e+002
1.448051e+002, 1.137408e+002
1.452872e+002, 1.110854e+002
1.457693e+002, 1.092816e+002
1.462514e+002, 1.086029e+002
1.467335e+002, 1.085753e+002
1.472156e+002, 1.086220e+002
1.476978e+002, 1.090137e+002
1.481799e+002, 1.091464e+002
1.486620e+002, 1.088844e+002
1.491441e+002, 1.082336e+002
1.496262e+002, 1.071587e+002
1.501083e+002, 1.050199e+002
1.505905e+002, 1.025742e+002
1.510726e+002, 1.011511e+002
1.515547e+002, 1.018484e+002
1.520368e+002, 1.026295e+002
1.525189e+002, 1.029243e+002
1.530010e+002, 1.027124e+002
1.534832e+002, 1.020074e+002
1.539653e+002, 1.002465e+002
1.544474e+002, 9.795923e+001
1.549295e+002, 9.641665e+001
1.554116e+002, 9.650666e+001
1.558937e+002, 9.684509e+001
1.563759e+002, 9.680562e+001
1.568580e+002, 9.601920e+001
1.573401e+002, 9.523150e+001
1.578222e+002, 9.453471e+001
1.583043e+002, 9.393388e+001
1.587864e+002, 9.344767e+001
1.592686e+002, 9.312720e+001
1.597507e+002, 9.289613e+001
1.602328e+002, 9.270801e+001
1.607149e+002, 9.273001e+001
1.611970e+002, 9.261417e+001
1.616791e+002, 9.209785e+001
1.621613e+002, 9.126648e+001
1.626434e+002, 9.063634e+001
1.631255e+002, 9.066576e+001
1.636076e+002, 9.088965e+001
1.640897e+002, 9.089372e+001
1.645718e+002, 9.036536e+001
1.650540e+002, 8.973440e+001
1.655361e+002, 8.915295e+001
1.660182e+002, 8.862527e+001
1.665003e+002, 8.823909e+001
1.669824e+002, 8.837376e+001
1.674645e+002, 8.858530e+001
1.679467e+002, 8.832706e+001
1.684288e+002, 8.659409e+001
1.689109e+002, 8.486173e+001
1.693930e+002, 8.433953e+001
1.698751e+002, 8.510969e+001
1.703572e+002, 8.602406e+001
1.708394e+002, 8.642454e+001
1.713215e+002, 8.642942e+001
1.718036e+002, 8.623669e+001
1.722857e+002, 8.574859e+001
1.727678e+002, 8.520064e+001
1.732499e+002, 8.472154e+001
1.737321e+002, 8.427819e+001
1.742142e+002, 8.421734e+001
1.746963e+002, 8.534258e+001
1.751784e+002, 8.712385e+001
1.756605e+002, 8.830947e+001
1.761426e+002, 8.755157e+001
1.766248e+002, 8.605093e+001
1.771069e+002, 8.547889e+001
1.775890e+002, 8.608041e+001
1.780711e+002, 8.719910e+001
1.785532e+002, 8.826646e+001
1.790353e+002, 8.929864e+001
1.795175e+002, 9.031156e+001
1.799996e+002, 9.126370e+001
1.804817e+002, 9.221487e+001
1.809638e+002, 9.332028e+001
1.814459e+002, 9.463164e+001
1.819280e+002, 9.601730e+001
1.824102e+002, 9.747193e+001
1.828923e+002, 9.892332e+001
1.833744e+002, 1.000872e+002
1.838565e+002, 1.005243e+002
1.843386e+002, 1.004986e+002
1.848207e+002, 1.007836e+002
1.853029e+002, 1.015565e+002
1.857850e+002, 1.025498e+002
1.862671e+002, 1.033752e+002
1.867492e+002, 1.040323e+002
1.872313e+002, 1.045990e+002
1.877134e+002, 1.049437e+002
1.881956e+002, 1.051812e+002
1.886777e+002, 1.059029e+002
1.891598e+002, 1.073672e+002
1.896419e+002, 1.091828e+002
1.901240e+002, 1.104186e+002
1.906061e+002, 1.110603e+002
1.910883e+002, 1.117661e+002
1.915704e+002, 1.130868e+002
1.920525e+002, 1.149831e+002
1.925346e+002, 1.169341e+002
1.930167e+002, 1.188028e+002
1.934988e+002, 1.206145e+002
1.939810e+002, 1.222334e+002
1.944631e+002, 1.235452e+002
1.949452e+002, 1.250373e+002
1.954273e+002, 1.267046e+002
1.959094e+002, 1.285395e+002
1.963915e+002, 1.302316e+002
1.968737e+002, 1.317583e+002
1.973558e+002, 1.330936e+002
1.978379e+002, 1.341119e+002
1.983200e+002, 1.347776e+002
1.988021e+002, 1.353088e+002
1.992842e+002, 1.359210e+002
1.997664e+002, 1.366345e+002
2.002485e+002, 1.371665e+002
2.007306e+002, 1.373973e+002
2.012127e+002, 1.374073e+002
2.016948e+002, 1.376660e+002
2.021769e+002, 1.382277e+002
2.026591e+002, 1.388712e+002
2.031412e+002, 1.393141e+002
2.036233e+002, 1.394980e+002
2.041054e+002, 1.399336e+002
2.045875e+002, 1.407458e+002
2.050696e+002, 1.419082e+002
2.055518e+002, 1.432111e+002
2.060339e+002, 1.446316e+002
2.065160e+002, 1.462298e+002
2.069981e+002, 1.481072e+002
2.074802e+002, 1.502871e+002
2.079623e+002, 1.525315e+002
2.084445e+002, 1.547632e+002
2.089266e+002, 1.569973e+002
2.094087e+002, 1.593741e+002
2.098908e+002, 1.618887e+002
2.103729e+002, 1.645710e+002
2.108550e+002, 1.675869e+002
2.113372e+002, 1.711147e+002
2.118193e+002, 1.742503e+002
2.123014e+002, 1.767370e+002
2.127835e+002, 1.785578e+002
2.132656e+002, 1.804838e+002
2.137477e+002, 1.831784e+002
2.142299e+002, 1.850727e+002
2.147120e+002, 1.841121e+002
2.151941e+002, 1.795452e+002
2.156762e+002, 1.742272e+002
2.161583e+002, 1.685737e+002
2.166404e+002, 1.625769e+002
2.171226e+002, 1.572331e+002
2.176047e+002, 1.525532e+002
2.180868e+002, 1.484931e+002
2.185689e+002, 1.449235e+002
2.190510e+002, 1.417703e+002
2.195331e+002, 1.392462e+002
2.200153e+002, 1.374295e+002
2.204974e+002, 1.363585e+002
2.209795e+002, 1.355106e+002
2.214616e+002, 1.349076e+002
2.219437e+002, 1.344964e+002
2.224258e+002, 1.341948e+002
2.229080e+002, 1.339693e+002
2.233901e+002, 1.339334e+002
2.238722e+002, 1.341333e+002
2.243543e+002, 1.345855e+002
2.248364e+002, 1.351132e+002
2.253185e+002, 1.356660e+002
2.258007e+002, 1.363286e+002
2.262828e+002, 1.372506e+002
2.267649e+002, 1.385676e+002
2.272470e+002, 1.398513e+002
2.277291e+002, 1.409209e+002
2.282112e+002, 1.417353e+002
2.286934e+002, 1.427424e+002
2.291755e+002, 1.439420e+002
2.296576e+002, 1.453291e+002
2.301397e+002, 1.468687e+002
2.306218e+002, 1.485550e+002
2.311039e+002, 1.504525e+002
2.315861e+002, 1.526247e+002
2.320682e+002, 1.551772e+002
2.325503e+002, 1.575459e+002
2.330324e+002, 1.599564e+002
2.335145e+002, 1.620034e+002
2.339966e+002, 1.631038e+002
2.344788e+002, 1.626967e+002
2.349609e+002, 1.623443e+002
2.354430e+002, 1.625067e+002
2.359251e+002, 1.632986e+002
2.364072e+002, 1.637563e+002
2.368893e+002, 1.635549e+002
2.373715e+002, 1.632839e+002
2.378536e+002, 1.636631e+002
2.383357e+002, 1.648058e+002
2.388178e+002, 1.664022e+002
2.392999e+002, 1.683950e+002
2.397820e+002, 1.707646e+002
2.402642e+002, 1.735157e+002
2.407463e+002, 1.767062e+002
2.412284e+002, 1.802205e+002
2.417105e+002, 1.839365e+002
2.421926e+002, 1.878927e+002
2.426747e+002, 1.919531e+002
2.431569e+002, 1.960372e+002
2.436390e+002, 2.001393e+002
2.441211e+002, 2.044619e+002
2.446032e+002, 2.092488e+002
2.450853e+002, 2.140716e+002
2.455674e+002, 2.183552e+002
2.460496e+002, 2.216227e+002
2.465317e+002, 2.252604e+002
2.470138e+002, 2.297221e+002
2.474959e+002, 2.351258e+002
2.479780e+002, 2.402031e+002
2.484601e+002, 2.447659e+002
2.489423e+002, 2.492409e+002
2.494244e+002, 2.540599e+002
2.499065e+002, 2.591652e+002
2.503886e+002, 2.647365e+002
2.508707e+002, 2.708305e+002
2.513528e+002, 2.773937e+002
2.518350e+002, 2.845327e+002
2.523171e+002, 2.922505e+002
2.527992e+002, 3.004414e+002
2.532813e+002, 3.091109e+002
2.537634e+002, 3.185583e+002
2.542455e+002, 3.276848e+002
2.547277e+002, 3.365781e+002
2.552098e+002, 3.452927e+002
2.556919e+002, 3.521614e+002
2.561740e+002, 3.575252e+002
2.566561e+002, 3.606251e+002
2.571382e+002, 3.605416e+002
2.576204e+002, 3.566644e+002
2.581025e+002, 3.510443e+002
2.585846e+002, 3.438146e+002
2.590667e+002, 3.350123e+002
2.595488e+002, 3.256689e+002
2.600309e+002, 3.152781e+002
2.605131e+002, 3.053570e+002
2.609952e+002, 2.975426e+002
2.614773e+002, 2.923712e+002
2.619594e+002, 2.876399e+002
2.624415e+002, 2.830112e+002
2.629236e+002, 2.784982e+002
2.634058e+002, 2.746146e+002
2.638879e+002, 2.712418e+002
2.643700e+002, 2.686341e+002
2.648521e+002, 2.670038e+002
2.653342e+002, 2.665590e+002
2.658163e+002, 2.664327e+002
2.662985e+002, 2.664925e+002
2.667806e+002, 2.667673e+002
2.672627e+002, 2.673960e+002
2.677448e+002, 2.682737e+002
2.682269e+002, 2.697169e+002
2.687090e+002, 2.719989e+002
2.691912e+002, 2.752491e+002
2.696733e+002, 2.789421e+002
2.701554e+002, 2.832506e+002
2.706375e+002, 2.879114e+002
2.711196e+002, 2.916708e+002
2.716017e+002, 2.943607e+002
2.720839e+002, 2.966003e+002
2.725660e+002, 2.989609e+002
2.730481e+002, 3.016791e+002
2.735302e+002, 3.030364e+002
2.740123e+002, 3.027318e+002
2.744944e+002, 3.010678e+002
2.749766e+002, 2.987462e+002
2.754587e+002, 2.956321e+002
2.759408e+002, 2.924209e+002
2.764229e+002, 2.895772e+002
2.769050e+002, 2.871069e+002
2.773871e+002, 2.847142e+002
2.778693e+002, 2.822587e+002
2.783514e+002, 2.800079e+002
2.788335e+002, 2.785373e+002
2.793156e+002, 2.778534e+002
2.797977e+002, 2.778338e+002
2.802798e+002, 2.785555e+002
2.807620e+002, 2.800143e+002
2.812441e+002, 2.814802e+002
2.817262e+002, 2.827792e+002
2.822083e+002, 2.843158e+002
2.826904e+002, 2.868018e+002
2.831725e+002, 2.902540e+002
2.836547e+002, 2.943676e+002
2.841368e+002, 2.992550e+002
2.846189e+002, 3.047998e+002
2.851010e+002, 3.101631e+002
2.855831e+002, 3.153408e+002
2.860652e+002, 3.202932e+002
2.865474e+002, 3.249380e+002
2.870295e+002, 3.292780e+002
2.875116e+002, 3.334365e+002
2.879937e+002, 3.375797e+002
2.884758e+002, 3.416599e+002
2.889579e+002, 3.452285e+002
2.894401e+002, 3.483617e+002
2.899222e+002, 3.508402e+002
2.904043e+002, 3.520452e+002
2.908864e+002, 3.521385e+002
2.913685e+002, 3.524175e+002
2.918506e+002, 3.534092e+002
2.923328e+002, 3.549472e+002
2.928149e+002, 3.566474e+002
2.932970e+002, 3.585461e+002
2.937791e+002, 3.602691e+002
2.942612e+002, 3.611824e+002
2.947433e+002, 3.615092e+002
2.952255e+002, 3.621487e+002
2.957076e+002, 3.636105e+002
2.961897e+002, 3.654446e+002
2.966718e+002, 3.666495e+002
2.971539e+002, 3.672368e+002
2.976360e+002, 3.678159e+002
2.981182e+002, 3.690989e+002
2.986003e+002, 3.707749e+002
2.990824e+002, 3.720995e+002
2.995645e+002, 3.728458e+002
3.000466e+002, 3.731740e+002
3.005287e+002, 3.731405e+002
3.010109e+002, 3.728037e+002
3.014930e+002, 3.725750e+002
3.019751e+002, 3.731280e+002
3.024572e+002, 3.739251e+002
3.029393e+002, 3.741590e+002
3.034214e+002, 3.739171e+002
3.039036e+002, 3.725938e+002
3.043857e+002, 3.691250e+002
3.048678e+002, 3.639087e+002
3.053499e+002, 3.582916e+002
3.058320e+002, 3.530778e+002
3.063141e+002, 3.479708e+002
3.067963e+002, 3.427250e+002
3.072784e+002, 3.372506e+002
3.077605e+002, 3.315992e+002
3.082426e+002, 3.256879e+002
3.087247e+002, 3.196039e+002
3.092068e+002, 3.135595e+002
3.096890e+002, 3.077377e+002
3.101711e+002, 3.019398e+002
3.106532e+002, 2.958472e+002
3.111353e+002, 2.892604e+002
3.116174e+002, 2.833326e+002
3.120995e+002, 2.791797e+002
3.125817e+002, 2.761937e+002
3.130638e+002, 2.733294e+002
3.135459e+002, 2.699844e+002
3.140280e+002, 2.667315e+002
3.145101e+002, 2.638646e+002
3.149922e+002, 2.614146e+002
3.154744e+002, 2.593756e+002
3.159565e+002, 2.579123e+002
3.164386e+002, 2.568295e+002
3.169207e+002, 2.559209e+002
3.174028e+002, 2.550804e+002
3.178849e+002, 2.544338e+002
3.183671e+002, 2.540657e+002
3.188492e+002, 2.539681e+002
3.193313e+002, 2.539958e+002
3.198134e+002, 2.540033e+002
3.202955e+002, 2.541672e+002
3.207776e+002, 2.546249e+002
3.212598e+002, 2.556933e+002
3.217419e+002, 2.567487e+002
3.222240e+002, 2.575172e+002
3.227061e+002, 2.580921e+002
3.231882e+002, 2.589745e+002
3.236703e+002, 2.602631e+002
3.241525e+002, 2.618841e+002
3.246346e+002, 2.637755e+002
3.251167e+002, 2.657959e+002
3.255988e+002, 2.682835e+002
3.260809e+002, 2.716369e+002
3.265630e+002, 2.755154e+002
3.270452e+002, 2.789973e+002
3.275273e+002, 2.820732e+002
3.280094e+002, 2.846685e+002
3.284915e+002, 2.867829e+002
3.289736e+002, 2.884632e+002
3.294557e+002, 2.895285e+002
3.299379e+002, 2.901786e+002
3.304200e+002, 2.901457e+002
3.309021e+002, 2.890067e+002
3.313842e+002, 2.865667e+002
3.318663e+002, 2.832605e+002
3.323484e+002, 2.790246e+002
3.328306e+002, 2.738066e+002
3.333127e+002, 2.685210e+002
3.337948e+002, 2.633223e+002
3.342769e+002, 2.578907e+002
3.347590e+002, 2.518498e+002
3.352411e+002, 2.447407e+002
3.357233e+002, 2.379456e+002
3.362054e+002, 2.318144e+002
3.366875e+002, 2.262766e+002
3.371696e+002, 2.209678e+002
3.376517e+002, 2.158105e+002
3.381339e+002, 2.110538e+002
3.386160e+002, 2.070379e+002
3.390981e+002, 2.038499e+002
3.395802e+002, 2.008320e+002
3.400623e+002, 1.978666e+002
3.405444e+002, 1.950221e+002
3.410266e+002, 1.927054e+002
3.415087e+002, 1.909140e+002
3.419908e+002, 1.894830e+002
3.424729e+002, 1.883047e+002
3.429550e+002, 1.873862e+002
3.434371e+002, 1.867511e+002
3.439193e+002, 1.864678e+002
3.444014e+002, 1.863502e+002
3.448835e+002, 1.860063e+002
3.453656e+002, 1.854391e+002
3.458477e+002, 1.850520e+002
3.463298e+002, 1.854736e+002
3.468120e+002, 1.863450e+002
3.472941e+002, 1.860152e+002
3.477762e+002, 1.843643e+002
3.482583e+002, 1.819589e+002
3.487404e+002, 1.794445e+002
3.492225e+002, 1.767537e+002
3.497047e+002, 1.735848e+002
3.501868e+002, 1.696449e+002
3.506689e+002, 1.652525e+002
3.511510e+002, 1.607801e+002
3.516331e+002, 1.562507e+002
3.521152e+002, 1.519007e+002
3.525974e+002, 1.479100e+002
3.530795e+002, 1.442382e+002
3.535616e+002, 1.408103e+002
3.540437e+002, 1.375935e+002
3.545258e+002, 1.346385e+002
3.550079e+002, 1.319822e+002
3.554901e+002, 1.296197e+002
3.559722e+002, 1.274718e+002
3.564543e+002, 1.256362e+002
3.569364e+002, 1.239276e+002
3.574185e+002, 1.220643e+002
3.579006e+002, 1.198464e+002
3.583828e+002, 1.178936e+002
3.588649e+002, 1.168023e+002
3.593470e+002, 1.162410e+002
3.598291e+002, 1.155268e+002
3.603112e+002, 1.140107e+002
3.607933e+002, 1.125163e+002
3.612755e+002, 1.115746e+002
3.617576e+002, 1.113021e+002
3.622397e+002, 1.110756e+002
3.627218e+002, 1.106998e+002
3.632039e+002, 1.102292e+002
3.636860e+002, 1.097250e+002
3.641682e+002, 1.091934e+002
3.646503e+002, 1.086343e+002
3.651324e+002, 1.080081e+002
3.656145e+002, 1.073176e+002
3.660966e+002, 1.067623e+002
3.665787e+002, 1.064662e+002
3.670609e+002, 1.062587e+002
3.675430e+002, 1.060303e+002
3.680251e+002, 1.057992e+002
3.685072e+002, 1.055130e+002
3.689893e+002, 1.051396e+002
3.694714e+002, 1.047066e+002
3.699536e+002, 1.043201e+002
3.704357e+002, 1.041332e+002
3.709178e+002, 1.038285e+002
3.713999e+002, 1.032414e+002
3.718820e+002, 1.021533e+002
3.723641e+002, 1.013535e+002
3.728463e+002, 1.010044e+002
3.733284e+002, 1.008446e+002
3.738105e+002, 1.004392e+002
3.742926e+002, 9.963793e+001
3.747747e+002, 9.892549e+001
3.752568e+002, 9.844958e+001
3.757390e+002, 9.821061e+001
3.762211e+002, 9.801004e+001
3.767032e+002, 9.790152e+001
3.771853e+002, 9.771198e+001
3.776674e+002, 9.719023e+001
3.781495e+002, 9.627721e+001
3.786317e+002, 9.554992e+001
3.791138e+002, 9.515284e+001
3.795959e+002, 9.498809e+001
3.800780e+002, 9.474770e+001
3.805601e+002, 9.442777e+001
3.810422e+002, 9.409377e+001
3.815244e+002, 9.381522e+001
3.820065e+002, 9.357082e+001
3.824886e+002, 9.324608e+001
3.829707e+002, 9.281624e+001
3.834528e+002, 9.233799e+001
3.839349e+002, 9.178579e+001
3.844171e+002, 9.120692e+001
3.848992e+002, 9.085060e+001
3.853813e+002, 9.106400e+001
3.858634e+002, 9.150286e+001
3.863455e+002, 9.151847e+001
3.868276e+002, 9.107603e+001
3.873098e+002, 9.058248e+001
3.877919e+002, 9.043427e+001
3.882740e+002, 9.046766e+001
3.887561e+002, 9.038360e+001
3.892382e+002, 8.992285e+001
3.897203e+002, 8.945903e+001
3.902025e+002, 8.946329e+001
3.906846e+002, 8.980830e+001
3.911667e+002, 8.989202e+001
3.916488e+002, 8.878331e+001
3.921309e+002, 8.759284e+001
3.926130e+002, 8.735110e+001
3.930952e+002, 8.868497e+001
3.935773e+002, 9.003445e+001
3.940594e+002, 9.083430e+001
3.945415e+002, 9.118495e+001
3.950236e+002, 9.127254e+001
3.955057e+002, 9.076038e+001
3.959879e+002, 9.034246e+001
3.964700e+002, 9.033155e+001
3.969521e+002, 9.080630e+001
3.974342e+002, 9.132149e+001
3.979163e+002, 9.194053e+001
3.983984e+002, 9.250774e+001
3.988806e+002, 9.288088e+001
3.993627e+002, 9.265391e+001
3.998448e+002, 9.269163e+001
4.003269e+002, 9.323608e+001
4.008090e+002, 9.420033e+001
4.012911e+002, 9.488623e+001
4.017733e+002, 9.501547e+001
4.022554e+002, 9.520107e+001
4.027375e+002, 9.581160e+001
4.032196e+002, 9.714413e+001
4.037017e+002, 9.814302e+001
4.041838e+002, 9.868062e+001
4.046660e+002, 9.896225e+001
4.051481e+002, 9.934624e+001
4.056302e+002, 9.984153e+001
4.061123e+002, 1.004083e+002
4.065944e+002, 1.009860e+002
4.070765e+002, 1.015912e+002
4.075587e+002, 1.025881e+002
4.080408e+002, 1.040798e+002
4.085229e+002, 1.055880e+002
4.090050e+002, 1.065387e+002
4.094871e+002, 1.069700e+002
4.099692e+002, 1.074836e+002
4.104514e+002, 1.081580e+002
4.109335e+002, 1.090506e+002
4.114156e+002, 1.104629e+002
4.118977e+002, 1.123301e+002
4.123798e+002, 1.140519e+002
4.128619e+002, 1.150614e+002
4.133441e+002, 1.156550e+002
4.138262e+002, 1.163837e+002
4.143083e+002, 1.173012e+002
4.147904e+002, 1.184099e+002
4.152725e+002, 1.198446e+002
4.157546e+002, 1.214742e+002
4.162368e+002, 1.230633e+002
4.167189e+002, 1.244698e+002
4.172010e+002, 1.257978e+002
4.176831e+002, 1.271082e+002
4.181652e+002, 1.283980e+002
4.186473e+002, 1.297637e+002
4.191295e+002, 1.313255e+002
4.196116e+002, 1.329410e+002
4.200937e+002, 1.344427e+002
4.205758e+002, 1.356141e+002
4.210579e+002, 1.369486e+002
4.215400e+002, 1.387121e+002
4.220222e+002, 1.407688e+002
4.225043e+002, 1.428345e+002
4.229864e+002, 1.447851e+002
4.234685e+002, 1.467606e+002
4.239506e+002, 1.488270e+002
4.244327e+002, 1.509753e+002
4.249149e+002, 1.532288e+002
4.253970e+002, 1.557019e+002
4.258791e+002, 1.582107e+002
4.263612e+002, 1.605761e+002
4.268433e+002, 1.624592e+002
4.273254e+002, 1.647313e+002
4.278076e+002, 1.676698e+002
4.282897e+002, 1.711702e+002
4.287718e+002, 1.742803e+002
4.292539e+002, 1.767794e+002
4.297360e+002, 1.792514e+002
4.302181e+002, 1.820537e+002
4.307003e+002, 1.852561e+002
4.311824e+002, 1.882968e+002
4.316645e+002, 1.911019e+002
4.321466e+002, 1.938141e+002
4.326287e+002, 1.965683e+002
4.331108e+002, 1.993390e+002
4.335930e+002, 2.023380e+002
4.340751e+002, 2.057922e+002
4.345572e+002, 2.095180e+002
4.350393e+002, 2.129332e+002
4.355214e+002, 2.160269e+002
4.360035e+002, 2.188687e+002
4.364857e+002, 2.213958e+002
4.369678e+002, 2.236789e+002
4.374499e+002, 2.259379e+002
4.379320e+002, 2.281995e+002
4.384141e+002, 2.304910e+002
4.388962e+002, 2.329170e+002
4.393784e+002, 2.354089e+002
4.398605e+002, 2.377677e+002
4.403426e+002, 2.399768e+002
4.408247e+002, 2.419414e+002
4.413068e+002, 2.435494e+002
4.417889e+002, 2.447515e+002
4.422711e+002, 2.458917e+002
4.427532e+002, 2.473382e+002
4.432353e+002, 2.487272e+002
4.437174e+002, 2.496814e+002
4.441995e+002, 2.497471e+002
4.446816e+002, 2.497280e+002
4.451638e+002, 2.498549e+002
4.456459e+002, 2.500881e+002
4.461280e+002, 2.502407e+002
4.466101e+002, 2.506430e+002
4.470922e+002, 2.506640e+002
4.475743e+002, 2.499917e+002
4.480565e+002, 2.484432e+002
4.485386e+002, 2.466801e+002
4.490207e+002, 2.445897e+002
4.495028e+002, 2.423658e+002
4.499849e+002, 2.403412e+002
4.504670e+002, 2.387277e+002
4.509492e+002, 2.367903e+002
4.514313e+002, 2.342876e+002
4.519134e+002, 2.313125e+002
4.523955e+002, 2.285752e+002
4.528776e+002, 2.261529e+002
4.533597e+002, 2.238867e+002
4.538419e+002, 2.217593e+002
4.543240e+002, 2.197812e+002
4.548061e+002, 2.175186e+002
4.552882e+002, 2.148491e+002
4.557703e+002, 2.121654e+002
4.562524e+002, 2.100577e+002
4.567346e+002, 2.084807e+002
4.572167e+002, 2.073321e+002
4.576988e+002, 2.068245e+002
4.581809e+002, 2.065732e+002
4.586630e+002, 2.057757e+002
4.591451e+002, 2.044768e+002
4.596273e+002, 2.033141e+002
4.601094e+002, 2.028192e+002
4.605915e+002, 2.027437e+002
4.610736e+002, 2.027561e+002
4.615557e+002, 2.027300e+002
4.620378e+002, 2.028989e+002
4.625200e+002, 2.035215e+002
4.630021e+002, 2.044439e+002
4.634842e+002, 2.053528e+002
4.639663e+002, 2.057525e+002
4.644484e+002, 2.064444e+002
4.649305e+002, 2.079395e+002
4.654127e+002, 2.103082e+002
4.658948e+002, 2.125673e+002
4.663769e+002, 2.139973e+002
4.668590e+002, 2.155465e+002
4.673411e+002, 2.178933e+002
4.678232e+002, 2.216864e+002
4.683054e+002, 2.255383e+002
4.687875e+002, 2.293801e+002
4.692696e+002, 2.332180e+002
4.697517e+002, 2.371424e+002
4.702338e+002, 2.413259e+002
4.707159e+002, 2.452066e+002
4.711981e+002, 2.484129e+002
4.716802e+002, 2.508928e+002
4.721623e+002, 2.541235e+002
4.726444e+002, 2.582210e+002
4.731265e+002, 2.626350e+002
4.736086e+002, 2.668590e+002
4.740908e+002, 2.708907e+002
4.745729e+002, 2.745960e+002
4.750550e+002, 2.778666e+002
4.755371e+002, 2.809253e+002
4.760192e+002, 2.842105e+002
4.765013e+002, 2.877017e+002
4.769835e+002, 2.911226e+002
4.774656e+002, 2.945103e+002
4.779477e+002, 2.976960e+002
4.784298e+002, 3.003638e+002
4.789119e+002, 3.024933e+002
4.793940e+002, 3.043398e+002
4.798762e+002, 3.061539e+002
4.803583e+002, 3.077907e+002
4.808404e+002, 3.090933e+002
4.813225e+002, 3.102713e+002
4.818046e+002, 3.107882e+002
4.822867e+002, 3.105551e+002
4.827689e+002, 3.094712e+002
4.832510e+002, 3.072679e+002
4.837331e+002, 3.030937e+002
4.842152e+002, 2.984319e+002
4.846973e+002, 2.939604e+002
4.851794e+002, 2.898039e+002
4.856616e+002, 2.853420e+002
4.861437e+002, 2.802042e+002
4.866258e+002, 2.749384e+002
4.871079e+002, 2.699203e+002
4.875900e+002, 2.652950e+002
4.880721e+002, 2.606062e+002
4.885543e+002, 2.557454e+002
4.890364e+002, 2.508136e+002
4.895185e+002, 2.460485e+002
4.900006e+002, 2.413384e+002
4.904827e+002, 2.372661e+002
4.909648e+002, 2.343198e+002
4.914470e+002, 2.324232e+002
4.919291e+002, 2.301890e+002
4.924112e+002, 2.275042e+002
4.928933e+002, 2.250898e+002
4.933754e+002, 2.239556e+002
4.938575e+002, 2.238072e+002
4.943397e+002, 2.233425e+002
4.948218e+002, 2.222083e+002
4.953039e+002, 2.207886e+002
4.957860e+002, 2.196012e+002
4.962681e+002, 2.185861e+002
4.967502e+002, 2.175388e+002
4.972324e+002, 2.169497e+002
4.977145e+002, 2.158870e+002
4.981966e+002, 2.133961e+002
4.986787e+002, 2.094030e+002
4.991608e+002, 2.047672e+002
4.996429e+002, 1.996023e+002
5.001251e+002, 1.941530e+002
5.006072e+002, 1.884958e+002
5.010893e+002, 1.826917e+002
5.015714e+002, 1.767135e+002
5.020535e+002, 1.700287e+002
5.025356e+002, 1.631520e+002
5.030178e+002, 1.572235e+002
5.034999e+002, 1.528494e+002
5.039820e+002, 1.487666e+002
5.044641e+002, 1.447092e+002
5.049462e+002, 1.406674e+002
5.054283e+002, 1.368358e+002
5.059105e+002, 1.331269e+002
5.063926e+002, 1.298126e+002
5.068747e+002, 1.271796e+002
5.073568e+002, 1.253292e+002
5.078389e+002, 1.235218e+002
5.083210e+002, 1.217183e+002
5.088032e+002, 1.199458e+002
5.092853e+002, 1.182506e+002
5.097674e+002, 1.166332e+002
5.102495e+002, 1.151311e+002
5.107316e+002, 1.138694e+002
5.112137e+002, 1.126688e+002
5.116959e+002, 1.110082e+002
5.121780e+002, 1.089400e+002
5.126601e+002, 1.069811e+002
5.131422e+002, 1.056394e+002
5.136243e+002, 1.045829e+002
5.141064e+002, 1.033562e+002
5.145886e+002, 1.018128e+002
5.150707e+002, 1.003470e+002
5.155528e+002, 9.915319e+001
5.160349e+002, 9.820975e+001
5.165170e+002, 9.746452e+001
5.169991e+002, 9.691138e+001
5.174813e+002, 9.654808e+001
5.179634e+002, 9.650252e+001
5.184455e+002, 9.671867e+001
5.189276e+002, 9.674369e+001
5.194097e+002, 9.611617e+001
5.198918e+002, 9.565171e+001
5.203740e+002, 9.572383e+001
5.208561e+002, 9.653962e+001
5.213382e+002, 9.718717e+001
5.218203e+002, 9.752481e+001
5.223024e+002, 9.785556e+001
5.227845e+002, 9.855033e+001
5.232667e+002, 9.965409e+001
5.237488e+002, 1.008868e+002
5.242309e+002, 1.022484e+002
5.247130e+002, 1.036378e+002
5.251951e+002, 1.047590e+002
5.256772e+002, 1.056235e+002
5.261594e+002, 1.065450e+002
5.266415e+002, 1.077602e+002
5.271236e+002, 1.091638e+002
5.276057e+002, 1.104696e+002
5.280878e+002, 1.116617e+002
5.285699e+002, 1.129535e+002
5.290521e+002, 1.146642e+002
5.295342e+002, 1.165169e+002
5.300163e+002, 1.181028e+002
5.304984e+002, 1.190890e+002
5.309805e+002, 1.201838e+002
5.314626e+002, 1.218617e+002
5.319448e+002, 1.239074e+002
5.324269e+002, 1.258948e+002
5.329090e+002, 1.276623e+002
5.333911e+002, 1.294048e+002
5.338732e+002, 1.312672e+002
5.343553e+002, 1.332438e+002
5.348375e+002, 1.349855e+002
5.353196e+002, 1.365128e+002
5.358017e+002, 1.377572e+002
5.362838e+002, 1.386626e+002
5.367659e+002, 1.391698e+002
5.372480e+002, 1.395747e+002
5.377302e+002, 1.400507e+002
5.382123e+002, 1.401897e+002
5.386944e+002, 1.392785e+002
5.391765e+002, 1.372505e+002
5.396586e+002, 1.350101e+002
5.401407e+002, 1.328324e+002
5.406229e+002, 1.306011e+002
5.411050e+002, 1.280250e+002
5.415871e+002, 1.251424e+002
5.420692e+002, 1.223282e+002
5.425513e+002, 1.197979e+002
5.430334e+002, 1.174588e+002
5.435156e+002, 1.152380e+002
5.439977e+002, 1.131358e+002
5.444798e+002, 1.109696e+002
5.449619e+002, 1.084375e+002
5.454440e+002, 1.058692e+002
5.459261e+002, 1.036228e+002
5.464083e+002, 1.018324e+002
5.468904e+002, 1.003171e+002
5.473725e+002, 9.924411e+001
5.478546e+002, 9.840485e+001
5.483367e+002, 9.733193e+001
5.488188e+002, 9.540441e+001
5.493010e+002, 9.382970e+001
5.497831e+002, 9.308442e+001
5.502652e+002, 9.315028e+001
5.507473e+002, 9.265782e+001
5.512294e+002, 9.127454e+001
5.517115e+002, 8.989388e+001
5.521937e+002, 8.915239e+001
5.526758e+002, 8.914922e+001
5.531579e+002, 8.881779e+001
5.536400e+002, 8.805104e+001
5.541221e+002, 8.713303e+001
5.546042e+002, 8.639561e+001
5.550864e+002, 8.583226e+001
5.555685e+002, 8.540437e+001
5.560506e+002, 8.512883e+001
5.565327e+002, 8.495235e+001
5.570148e+002, 8.491029e+001
5.574969e+002, 8.493391e+001
5.579791e+002, 8.476523e+001
5.584612e+002, 8.407322e+001
5.589433e+002, 8.325357e+001
5.594254e+002, 8.258504e+001
5.599075e+002, 8.208292e+001
5.603896e+002, 8.179086e+001
5.608718e+002, 8.198971e+001
5.613539e+002, 8.224712e+001
5.618360e+002, 8.223511e+001
5.623181e+002, 8.164147e+001
5.628002e+002, 8.117600e+001
5.632823e+002, 8.081121e+001
5.637645e+002, 8.062218e+001
5.642466e+002, 8.078898e+001
5.647287e+002, 8.158130e+001
5.652108e+002, 8.211328e+001
5.656929e+002, 8.212662e+001
5.661750e+002, 8.173164e+001
5.666572e+002, 8.139986e+001
5.671393e+002, 8.113381e+001
5.676214e+002, 8.092246e+001
5.681035e+002, 8.071225e+001
5.685856e+002, 8.054379e+001
5.690677e+002, 8.059157e+001
5.695499e+002, 8.086710e+001
5.700320e+002, 8.124856e+001
5.705141e+002, 8.177486e+001
5.709962e+002, 8.229020e+001
5.714783e+002, 8.249252e+001
5.719604e+002, 8.212841e+001
5.724426e+002, 8.181697e+001
5.729247e+002, 8.211118e+001
5.734068e+002, 8.271082e+001
5.738889e+002, 8.308492e+001
5.743710e+002, 8.287461e+001
5.748531e+002, 8.259561e+001
5.753353e+002, 8.235288e+001
5.758174e+002, 8.216420e+001
5.762995e+002, 8.216425e+001
5.767816e+002, 8.246520e+001
5.772637e+002, 8.282433e+001
5.777458e+002, 8.315137e+001
5.782280e+002, 8.344777e+001
5.787101e+002, 8.370445e+001
5.791922e+002, 8.394008e+001
5.796743e+002, 8.409464e+001
5.801564e+002, 8.406032e+001
5.806385e+002, 8.384981e+001
5.811207e+002, 8.369915e+001
5.816028e+002, 8.366308e+001
5.820849e+002, 8.367400e+001
5.825670e+002, 8.357632e+001
5.830491e+002, 8.342934e+001
5.835313e+002, 8.342282e+001
5.840134e+002, 8.376637e+001
5.844955e+002, 8.420570e+001
5.849776e+002, 8.454436e+001
5.854597e+002, 8.478258e+001
5.859418e+002, 8.493171e+001
5.864240e+002, 8.479906e+001
5.869061e+002, 8.473014e+001
5.873882e+002, 8.500996e+001
5.878703e+002, 8.583422e+001
5.883524e+002, 8.634212e+001
5.888345e+002, 8.611784e+001
5.893167e+002, 8.574246e+001
5.897988e+002, 8.566495e+001
5.902809e+002, 8.599863e+001
5.907630e+002, 8.637768e+001
5.912451e+002, 8.678647e+001
5.917272e+002, 8.721999e+001
5.922094e+002, 8.770838e+001
5.926915e+002, 8.825908e+001
5.931736e+002, 8.866538e+001
5.936557e+002, 8.873215e+001
5.941378e+002, 8.869228e+001
5.946199e+002, 8.924028e+001
5.951021e+002, 9.029409e+001
5.955842e+002, 9.121871e+001
5.960663e+002, 9.142616e+001
5.965484e+002, 9.136772e+001
5.970305e+002, 9.155140e+001
5.975126e+002, 9.202113e+001
5.979948e+002, 9.263151e+001
5.984769e+002, 9.329410e+001
5.989590e+002, 9.405835e+001
5.994411e+002, 9.500291e+001
5.999232e+002, 9.647008e+001
6.004053e+002, 9.758166e+001
6.008875e+002, 9.786640e+001
6.013696e+002, 9.783591e+001
6.018517e+002, 9.820155e+001
6.023338e+002, 9.913369e+001
6.028159e+002, 1.001242e+002
6.032980e+002, 1.010961e+002
6.037802e+002, 1.020578e+002
6.042623e+002, 1.030210e+002
6.047444e+002, 1.039495e+002
6.052265e+002, 1.051123e+002
6.057086e+002, 1.068433e+002
6.061907e+002, 1.089194e+002
6.066729e+002, 1.105138e+002
6.071550e+002, 1.116289e+002
6.076371e+002, 1.127561e+002
6.081192e+002, 1.142055e+002
6.086013e+002, 1.159223e+002
6.090834e+002, 1.178121e+002
6.095656e+002, 1.198786e+002
6.100477e+002, 1.221173e+002
6.105298e+002, 1.247149e+002
6.110119e+002, 1.274010e+002
6.114940e+002, 1.299048e+002
6.119761e+002, 1.317134e+002
6.124583e+002, 1.338408e+002
6.129404e+002, 1.366062e+002
6.134225e+002, 1.397697e+002
6.139046e+002, 1.429148e+002
6.143867e+002, 1.459998e+002
6.148688e+002, 1.490274e+002
6.153510e+002, 1.519390e+002
6.158331e+002, 1.547962e+002
6.163152e+002, 1.581047e+002
6.167973e+002, 1.618781e+002
6.172794e+002, 1.658160e+002
6.177615e+002, 1.695915e+002
6.182437e+002, 1.733294e+002
6.187258e+002, 1.774963e+002
6.192079e+002, 1.821534e+002
6.196900e+002, 1.870577e+002
6.201721e+002, 1.921542e+002
6.206542e+002, 1.973260e+002
6.211364e+002, 2.024327e+002
6.216185e+002, 2.075847e+002
6.221006e+002, 2.124904e+002
6.225827e+002, 2.166354e+002
6.230648e+002, 2.206279e+002
6.235469e+002, 2.253184e+002
6.240291e+002, 2.315524e+002
6.245112e+002, 2.376786e+002
6.249933e+002, 2.435849e+002
6.254754e+002, 2.492426e+002
6.259575e+002, 2.543318e+002
6.264396e+002, 2.586498e+002
6.269218e+002, 2.630909e+002
6.274039e+002, 2.679990e+002
6.278860e+002, 2.733240e+002
6.283681e+002, 2.790380e+002
6.288502e+002, 2.851803e+002
6.293323e+002, 2.906830e+002
6.298145e+002, 2.945771e+002
6.302966e+002, 2.972962e+002
6.307787e+002, 2.995243e+002
6.312608e+002, 3.012672e+002
6.317429e+002, 3.032761e+002
6.322250e+002, 3.069964e+002
6.327072e+002, 3.108640e+002
6.331893e+002, 3.131917e+002
6.336714e+002, 3.128515e+002
6.341535e+002, 3.121041e+002
6.346356e+002, 3.114797e+002
6.351177e+002, 3.108084e+002
6.355999e+002, 3.098297e+002
6.360820e+002, 3.086856e+002
6.365641e+002, 3.070103e+002
6.370462e+002, 3.047252e+002
6.375283e+002, 3.018691e+002
6.380104e+002, 2.985406e+002
6.384926e+002, 2.947025e+002
6.389747e+002, 2.904680e+002
6.394568e+002, 2.858223e+002
6.399389e+002, 2.807834e+002
6.404210e+002, 2.753777e+002
6.409031e+002, 2.695899e+002
6.413853e+002, 2.638940e+002
6.418674e+002, 2.586667e+002
6.423495e+002, 2.536822e+002
6.428316e+002, 2.488443e+002
6.433137e+002, 2.441247e+002
6.437958e+002, 2.392421e+002
6.442780e+002, 2.334854e+002
6.447601e+002, 2.277427e+002
6.452422e+002, 2.228601e+002
6.457243e+002, 2.197336e+002
6.462064e+002, 2.162930e+002
6.466885e+002, 2.122482e+002
6.471707e+002, 2.079383e+002
6.476528e+002, 2.038821e+002
6.481349e+002, 2.000909e+002
6.486170e+002, 1.963755e+002
6.490991e+002, 1.925656e+002
6.495812e+002, 1.888942e+002
6.500634e+002, 1.859208e+002
6.505455e+002, 1.835768e+002
6.510276e+002, 1.812387e+002
6.515097e+002, 1.785426e+002
6.519918e+002, 1.756921e+002
6.524739e+002, 1.729176e+002
6.529561e+002, 1.702633e+002
6.534382e+002, 1.677500e+002
6.539203e+002, 1.655203e+002
6.544024e+002, 1.633874e+002
6.548845e+002, 1.611619e+002
6.553666e+002, 1.588162e+002
6.558488e+002, 1.566486e+002
6.563309e+002, 1.547626e+002
6.568130e+002, 1.530534e+002
6.572951e+002, 1.514780e+002
6.577772e+002, 1.501324e+002
6.582593e+002, 1.486538e+002
6.587415e+002, 1.469977e+002
6.592236e+002, 1.452813e+002
6.597057e+002, 1.435709e+002
6.601878e+002, 1.418777e+002
6.606699e+002, 1.404753e+002
6.611520e+002, 1.395019e+002
6.616342e+002, 1.386744e+002
6.621163e+002, 1.375757e+002
6.625984e+002, 1.363041e+002
6.630805e+002, 1.351228e+002
6.635626e+002, 1.342565e+002
6.640447e+002, 1.333938e+002
6.645269e+002, 1.322570e+002
6.650090e+002, 1.309452e+002
6.654911e+002, 1.297190e+002
6.659732e+002, 1.285873e+002
6.664553e+002, 1.276272e+002
6.669374e+002, 1.269710e+002
6.674196e+002, 1.265830e+002
6.679017e+002, 1.260049e+002
6.683838e+002, 1.251830e+002
6.688659e+002, 1.242652e+002
6.693480e+002, 1.232588e+002
6.698301e+002, 1.221685e+002
6.703123e+002, 1.213319e+002
6.707944e+002, 1.207695e+002
6.712765e+002, 1.202855e+002
6.717586e+002, 1.196257e+002
6.722407e+002, 1.189175e+002
6.727228e+002, 1.184998e+002
6.732050e+002, 1.184520e+002
6.736871e+002, 1.184377e+002
6.741692e+002, 1.181458e+002
6.746513e+002, 1.177649e+002
6.751334e+002, 1.175305e+002
6.756155e+002, 1.177124e+002
6.760977e+002, 1.177182e+002
6.765798e+002, 1.172429e+002
6.770619e+002, 1.165706e+002
6.775440e+002, 1.161160e+002
6.780261e+002, 1.159054e+002
6.785082e+002, 1.158723e+002
6.789904e+002, 1.160258e+002
6.794725e+002, 1.163389e+002
6.799546e+002, 1.167919e+002
6.804367e+002, 1.173803e+002
6.809188e+002, 1.179248e+002
6.814009e+002, 1.181847e+002
6.818831e+002, 1.184592e+002
6.823652e+002, 1.194259e+002
6.828473e+002, 1.209678e+002
6.833294e+002, 1.224501e+002
6.838115e+002, 1.233866e+002
6.842936e+002, 1.242268e+002
6.847758e+002, 1.253664e+002
6.852579e+002, 1.268177e+002
6.857400e+002, 1.281819e+002
6.862221e+002, 1.287735e+002
6.867042e+002, 1.297419e+002
6.871863e+002, 1.317733e+002
6.876685e+002, 1.351846e+002
6.881506e+002, 1.382727e+002
6.886327e+002, 1.410184e+002
6.891148e+002, 1.435786e+002
6.895969e+002, 1.459624e+002
6.900790e+002, 1.482211e+002
6.905612e+002, 1.508901e+002
6.910433e+002, 1.540442e+002
6.915254e+002, 1.574580e+002
6.920075e+002, 1.607727e+002
6.924896e+002, 1.641045e+002
6.929717e+002, 1.676766e+002
6.934539e+002, 1.716749e+002
6.939360e+002, 1.756561e+002
6.944181e+002, 1.793750e+002
6.949002e+002, 1.828737e+002
6.953823e+002, 1.862317e+002
6.958644e+002, 1.890876e+002
6.963466e+002, 1.922431e+002
6.968287e+002, 1.960637e+002
6.973108e+002, 2.002028e+002
6.977929e+002, 2.036000e+002
6.982750e+002, 2.060760e+002
6.987571e+002, 2.085282e+002
6.992393e+002, 2.113639e+002
6.997214e+002, 2.143262e+002
7.002035e+002, 2.165508e+002
7.006856e+002, 2.180937e+002
7.011677e+002, 2.193333e+002
7.016498e+002, 2.206929e+002
7.021320e+002, 2.217410e+002
7.026141e+002, 2.218355e+002
7.030962e+002, 2.210464e+002
7.035783e+002, 2.201262e+002
7.040604e+002, 2.197876e+002
7.045425e+002, 2.191038e+002
7.050247e+002, 2.175101e+002
7.055068e+002, 2.148209e+002
7.059889e+002, 2.118254e+002
7.064710e+002, 2.081919e+002
7.069531e+002, 2.046800e+002
7.074352e+002, 2.019232e+002
7.079174e+002, 2.000330e+002
7.083995e+002, 1.977120e+002
7.088816e+002, 1.948837e+002
7.093637e+002, 1.919018e+002
7.098458e+002, 1.890927e+002
7.103279e+002, 1.864326e+002
7.108101e+002, 1.837773e+002
7.112922e+002, 1.811117e+002
7.117743e+002, 1.785051e+002
7.122564e+002, 1.760370e+002
7.127385e+002, 1.736277e+002
7.132206e+002, 1.711573e+002
7.137028e+002, 1.682364e+002
7.141849e+002, 1.657855e+002
7.146670e+002, 1.643118e+002
7.151491e+002, 1.632934e+002
7.156312e+002, 1.620379e+002
7.161133e+002, 1.604984e+002
7.165955e+002, 1.588567e+002
7.170776e+002, 1.571013e+002
7.175597e+002, 1.553245e+002
7.180418e+002, 1.537073e+002
7.185239e+002, 1.522482e+002
7.190060e+002, 1.511010e+002
7.194882e+002, 1.505083e+002
7.199703e+002, 1.500530e+002
7.204524e+002, 1.492108e+002
7.209345e+002, 1.480709e+002
7.214166e+002, 1.468744e+002
7.218987e+002, 1.456601e+002
7.223809e+002, 1.444907e+002
7.228630e+002, 1.433739e+002
7.233451e+002, 1.423292e+002
7.238272e+002, 1.415088e+002
7.243093e+002, 1.411364e+002
7.247914e+002, 1.406668e+002
7.252736e+002, 1.398468e+002
7.257557e+002, 1.387221e+002
7.262378e+002, 1.378803e+002
7.267199e+002, 1.373402e+002
7.272020e+002, 1.368550e+002
7.276841e+002, 1.362207e+002
7.281663e+002, 1.355241e+002
7.286484e+002, 1.349810e+002
7.291305e+002, 1.345952e+002
7.296126e+002, 1.342532e+002
7.300947e+002, 1.337877e+002
7.305768e+002, 1.333940e+002
7.310590e+002, 1.333475e+002
7.315411e+002, 1.338287e+002
7.320232e+002, 1.338564e+002
7.325053e+002, 1.326902e+002
7.329874e+002, 1.314733e+002
7.334695e+002, 1.309591e+002
7.339517e+002, 1.314823e+002
7.344338e+002, 1.314717e+002
7.349159e+002, 1.307950e+002
7.353980e+002, 1.299568e+002
7.358801e+002, 1.294816e+002
7.363622e+002, 1.293087e+002
7.368444e+002, 1.292239e+002
7.373265e+002, 1.292258e+002
7.378086e+002, 1.291530e+002
7.382907e+002, 1.287543e+002
7.387728e+002, 1.282314e+002
7.392549e+002, 1.278601e+002
7.397371e+002, 1.278411e+002
7.402192e+002, 1.277641e+002
7.407013e+002, 1.274742e+002
7.411834e+002, 1.270813e+002
7.416655e+002, 1.267452e+002
7.421476e+002, 1.265674e+002
7.426298e+002, 1.262015e+002
7.431119e+002, 1.255726e+002
7.435940e+002, 1.247778e+002
7.440761e+002, 1.239102e+002
7.445582e+002, 1.229975e+002
7.450403e+002, 1.222598e+002
7.455225e+002, 1.217452e+002
7.460046e+002, 1.214616e+002
7.464867e+002, 1.216097e+002
7.469688e+002, 1.219803e+002
7.474509e+002, 1.221218e+002
7.479330e+002, 1.219141e+002
7.484152e+002, 1.213712e+002
7.488973e+002, 1.202073e+002
7.493794e+002, 1.186805e+002
7.498615e+002, 1.176666e+002
7.503436e+002, 1.173611e+002
7.508257e+002, 1.172319e+002
7.513079e+002, 1.172037e+002
7.517900e+002, 1.172415e+002
7.522721e+002, 1.172097e+002
7.527542e+002, 1.171097e+002
7.532363e+002, 1.170229e+002
7.537184e+002, 1.171311e+002
7.542006e+002, 1.171857e+002
7.546827e+002, 1.165818e+002
7.551648e+002, 1.155057e+002
7.556469e+002, 1.147567e+002
7.561290e+002, 1.152612e+002
7.566111e+002, 1.157264e+002
7.570933e+002, 1.153372e+002
7.575754e+002, 1.141216e+002
7.580575e+002, 1.131336e+002
7.585396e+002, 1.124699e+002
7.590217e+002, 1.119905e+002
7.595038e+002, 1.117041e+002
7.599860e+002, 1.115822e+002
7.604681e+002, 1.112204e+002
7.609502e+002, 1.105952e+002
7.614323e+002, 1.100246e+002
7.619144e+002, 1.098301e+002
7.623965e+002, 1.097928e+002
7.628787e+002, 1.094344e+002
7.633608e+002, 1.087791e+002
7.638429e+002, 1.082519e+002
7.643250e+002, 1.083117e+002
7.648071e+002, 1.084362e+002
7.652892e+002, 1.082794e+002
7.657714e+002, 1.077873e+002
7.662535e+002, 1.071720e+002
7.667356e+002, 1.063353e+002
7.672177e+002, 1.055323e+002
7.676998e+002, 1.048835e+002
7.681819e+002, 1.043819e+002
7.686641e+002, 1.041641e+002
7.691462e+002, 1.042828e+002
7.696283e+002, 1.042985e+002
7.701104e+002, 1.037264e+002
7.705925e+002, 1.028222e+002
7.710746e+002, 1.020688e+002
7.715568e+002, 1.015157e+002
7.720389e+002, 1.010164e+002
7.725210e+002, 1.004540e+002
7.730031e+002, 9.992554e+001
7.734852e+002, 9.949146e+001
7.739673e+002, 9.914854e+001
7.744495e+002, 9.895808e+001
7.749316e+002, 9.903474e+001
7.754137e+002, 9.912001e+001
7.758958e+002, 9.902807e+001
7.763779e+002, 9.875098e+001
7.768600e+002, 9.832825e+001
7.773422e+002, 9.772342e+001
7.778243e+002, 9.720029e+001
7.783064e+002, 9.715369e+001
7.787885e+002, 9.734663e+001
7.792706e+002, 9.734956e+001
7.797527e+002, 9.709600e+001
7.802349e+002, 9.664539e+001
7.807170e+002, 9.572311e+001
7.811991e+002, 9.480750e+001
7.816812e+002, 9.435670e+001
7.821633e+002, 9.487138e+001
7.826454e+002, 9.499565e+001
7.831276e+002, 9.451451e+001
7.836097e+002, 9.390024e+001
7.840918e+002, 9.364387e+001
7.845739e+002, 9.375225e+001
7.850560e+002, 9.381796e+001
7.855381e+002, 9.380128e+001
7.860203e+002, 9.373983e+001
7.865024e+002, 9.371642e+001
7.869845e+002, 9.366563e+001
7.874666e+002, 9.343002e+001
7.879487e+002, 9.287946e+001
7.884308e+002, 9.245177e+001
7.889130e+002, 9.240123e+001
7.893951e+002, 9.255144e+001
7.898772e+002, 9.272816e+001
7.903593e+002, 9.295850e+001
7.908414e+002, 9.314329e+001
7.913235e+002, 9.332520e+001
7.918057e+002, 9.339503e+001
7.922878e+002, 9.314116e+001
7.927699e+002, 9.258874e+001
7.932520e+002, 9.218517e+001
7.937341e+002, 9.198815e+001
7.942162e+002, 9.196410e+001
7.946984e+002, 9.234060e+001
7.951805e+002, 9.278187e+001
7.956626e+002, 9.268867e+001
7.961447e+002, 9.157804e+001
7.966268e+002, 9.071394e+001
7.971089e+002, 9.098598e+001
7.975911e+002, 9.150136e+001
7.980732e+002, 9.119131e+001
7.985553e+002, 8.934089e+001
7.990374e+002, 8.842213e+001
7.995195e+002, 8.887222e+001
8.000016e+002, 8.970329e+001
8.004838e+002, 8.956335e+001
8.009659e+002, 8.862608e+001
8.014480e+002, 8.790047e+001
8.019301e+002, 8.760454e+001
8.024122e+002, 8.742871e+001
8.028943e+002, 8.716349e+001
8.033765e+002, 8.680788e+001
8.038586e+002, 8.634338e+001
8.043407e+002, 8.565733e+001
8.048228e+002, 8.506140e+001
8.053049e+002, 8.476147e+001
8.057870e+002, 8.449022e+001
8.062692e+002, 8.390782e+001
8.067513e+002, 8.281929e+001
8.072334e+002, 8.226066e+001
8.077155e+002, 8.245171e+001
8.081976e+002, 8.283151e+001
8.086797e+002, 8.263749e+001
8.091619e+002, 8.203966e+001
8.096440e+002, 8.154942e+001
8.101261e+002, 8.130944e+001
8.106082e+002, 8.105492e+001
8.110903e+002, 8.047829e+001
8.115724e+002, 7.983872e+001
8.120546e+002, 7.943133e+001
8.125367e+002, 7.954961e+001
8.130188e+002, 7.951168e+001
8.135009e+002, 7.919656e+001
8.139830e+002, 7.880811e+001
8.144651e+002, 7.860156e+001
8.149473e+002, 7.859480e+001
8.154294e+002, 7.842934e+001
8.159115e+002, 7.804160e+001
8.163936e+002, 7.762036e+001
8.168757e+002, 7.740543e+001
8.173578e+002, 7.730363e+001
8.178400e+002, 7.710865e+001
8.183221e+002, 7.669655e+001
8.188042e+002, 7.647079e+001
8.192863e+002, 7.688159e+001
8.197684e+002, 7.742030e+001
8.202505e+002, 7.758012e+001
8.207327e+002, 7.714590e+001
8.212148e+002, 7.677400e+001
8.216969e+002, 7.647253e+001
8.221790e+002, 7.621254e+001
8.226611e+002, 7.594557e+001
8.231432e+002, 7.568530e+001
8.236254e+002, 7.556764e+001
8.241075e+002, 7.561713e+001
8.245896e+002, 7.570434e+001
8.250717e+002, 7.579607e+001
8.255538e+002, 7.581666e+001
8.260359e+002, 7.564153e+001
8.265181e+002, 7.516589e+001
8.270002e+002, 7.480062e+001
8.274823e+002, 7.468287e+001
8.279644e+002, 7.467521e+001
8.284465e+002, 7.471176e+001
8.289286e+002, 7.481764e+001
8.294108e+002, 7.485193e+001
8.298929e+002, 7.481038e+001
8.303750e+002, 7.472154e+001
8.308571e+002, 7.452733e+001
8.313392e+002, 7.432575e+001
8.318214e+002, 7.442601e+001
8.323035e+002, 7.487403e+001
8.327856e+002, 7.512795e+001
8.332677e+002, 7.459304e+001
8.337498e+002, 7.390842e+001
8.342319e+002, 7.353230e+001
8.347141e+002, 7.355563e+001
8.351962e+002, 7.378773e+001
8.356783e+002, 7.433645e+001
8.361604e+002, 7.490639e+001
8.366425e+002, 7.532485e+001
8.371246e+002, 7.559219e+001
8.376068e+002, 7.571188e+001
8.380889e+002, 7.568330e+001
8.385710e+002, 7.556272e+001
8.390531e+002, 7.529356e+001
8.395352e+002, 7.501785e+001
8.400173e+002, 7.487843e+001
8.404995e+002, 7.488547e+001
8.409816e+002, 7.500804e+001
8.414637e+002, 7.542863e+001
8.419458e+002, 7.577261e+001
8.424279e+002, 7.585378e+001
8.429100e+002, 7.567734e+001
8.433922e+002, 7.553621e+001
8.438743e+002, 7.542190e+001
8.443564e+002, 7.538558e+001
8.448385e+002, 7.556497e+001
8.453206e+002, 7.581358e+001
8.458027e+002, 7.572820e+001
8.462849e+002, 7.536509e+001
8.467670e+002, 7.504139e+001
8.472491e+002, 7.492820e+001
8.477312e+002, 7.491214e+001
8.482133e+002, 7.497564e+001
8.486954e+002, 7.510099e+001
8.491776e+002, 7.514890e+001
8.496597e+002, 7.509081e+001
8.501418e+002, 7.501401e+001
8.506239e+002, 7.495626e+001
8.511060e+002, 7.489901e+001
8.515881e+002, 7.473153e+001
8.520703e+002, 7.447668e+001
8.525524e+002, 7.432505e+001
8.530345e+002, 7.446739e+001
8.535166e+002, 7.466665e+001
8.539987e+002, 7.471886e+001
8.544808e+002, 7.465562e+001
8.549630e+002, 7.455782e+001
8.554451e+002, 7.442613e+001
8.559272e+002, 7.428055e+001
8.564093e+002, 7.405250e+001
8.568914e+002, 7.384518e+001
8.573735e+002, 7.398282e+001
8.578557e+002, 7.451568e+001
8.583378e+002, 7.473945e+001
8.588199e+002, 7.437035e+001
8.593020e+002, 7.381125e+001
8.597841e+002, 7.367704e+001
8.602662e+002, 7.380515e+001
8.607484e+002, 7.385860e+001
8.612305e+002, 7.362136e+001
8.617126e+002, 7.344212e+001
8.621947e+002, 7.355276e+001
8.626768e+002, 7.375403e+001
8.631589e+002, 7.375002e+001
8.636411e+002, 7.342748e+001
8.641232e+002, 7.322347e+001
8.646053e+002, 7.318628e+001
8.650874e+002, 7.325415e+001
8.655695e+002, 7.340866e+001
8.660516e+002, 7.360268e+001
8.665338e+002, 7.364754e+001
8.670159e+002, 7.346126e+001
8.674980e+002, 7.336874e+001
8.679801e+002, 7.375045e+001
8.684622e+002, 7.425208e+001
8.689443e+002, 7.452573e+001
8.694265e+002, 7.441938e+001
8.699086e+002, 7.431115e+001
8.703907e+002, 7.416125e+001
8.708728e+002, 7.407692e+001
8.713549e+002, 7.422953e+001
8.718370e+002, 7.458055e+001
8.723192e+002, 7.457108e+001
8.728013e+002, 7.417072e+001
8.732834e+002, 7.387858e+001
8.737655e+002, 7.421864e+001
8.742476e+002, 7.479507e+001
8.747297e+002, 7.526209e+001
8.752119e+002, 7.558957e+001
8.756940e+002, 7.574201e+001
8.761761e+002, 7.545956e+001
8.766582e+002, 7.526913e+001
8.771403e+002, 7.546059e+001
8.776224e+002, 7.598292e+001
8.781046e+002, 7.605206e+001
8.785867e+002, 7.564417e+001
8.790688e+002, 7.531010e+001
8.795509e+002, 7.548992e+001
8.800330e+002, 7.588113e+001
8.805151e+002, 7.610045e+001
8.809973e+002, 7.616116e+001
8.814794e+002, 7.611884e+001
8.819615e+002, 7.576246e+001
8.824436e+002, 7.556361e+001
8.829257e+002, 7.586141e+001
8.834078e+002, 7.643064e+001
8.838900e+002, 7.659219e+001
8.843721e+002, 7.624210e+001
8.848542e+002, 7.604300e+001
8.853363e+002, 7.622551e+001
8.858184e+002, 7.659078e+001
8.863005e+002, 7.684203e+001
8.867827e+002, 7.699341e+001
8.872648e+002, 7.706827e+001
8.877469e+002, 7.694801e+001
8.882290e+002, 7.694445e+001
8.887111e+002, 7.732157e+001
8.891932e+002, 7.784748e+001
8.896754e+002, 7.819273e+001
8.901575e+002, 7.833089e+001
8.906396e+002, 7.832809e+001
8.911217e+002, 7.817028e+001
8.916038e+002, 7.791794e+001
8.920859e+002, 7.756360e+001
8.925681e+002, 7.717526e+001
8.930502e+002, 7.699709e+001
8.935323e+002, 7.709786e+001
8.940144e+002, 7.719862e+001
8.944965e+002, 7.697556e+001
8.949786e+002, 7.675479e+001
8.954608e+002, 7.690009e+001
8.959429e+002, 7.767929e+001
8.964250e+002, 7.787640e+001
8.969071e+002, 7.726355e+001
8.973892e+002, 7.652087e+001
8.978713e+002, 7.611633e+001
8.983535e+002, 7.599129e+001
8.988356e+002, 7.581038e+001
8.993177e+002, 7.557963e+001
8.997998e+002, 7.542339e+001
9.002819e+002, 7.551989e+001
9.007640e+002, 7.564403e+001
9.012462e+002, 7.556502e+001
9.017283e+002, 7.531142e+001
9.022104e+002, 7.526920e+001
9.026925e+002, 7.577222e+001
9.031746e+002, 7.597330e+001
9.036567e+002, 7.549621e+001
9.041389e+002, 7.461408e+001
9.046210e+002, 7.421502e+001
9.051031e+002, 7.425498e+001
9.055852e+002, 7.432687e+001
9.060673e+002, 7.431141e+001
9.065494e+002, 7.419334e+001
9.070316e+002, 7.380022e+001
9.075137e+002, 7.332935e+001
9.079958e+002, 7.312523e+001
9.084779e+002, 7.362485e+001
9.089600e+002, 7.391604e+001
9.094421e+002, 7.385386e+001
9.099243e+002, 7.362337e+001
9.104064e+002, 7.345007e+001
9.108885e+002, 7.333400e+001
9.113706e+002, 7.326215e+001
9.118527e+002, 7.323553e+001
9.123348e+002, 7.323630e+001
9.128170e+002, 7.329839e+001
9.132991e+002, 7.335159e+001
9.137812e+002, 7.331715e+001
9.142633e+002, 7.317672e+001
9.147454e+002, 7.296092e+001
9.152275e+002, 7.249001e+001
9.157097e+002, 7.216819e+001
9.161918e+002, 7.229973e+001
9.166739e+002, 7.287509e+001
9.171560e+002, 7.327798e+001
9.176381e+002, 7.350524e+001
9.181202e+002, 7.356368e+001
9.186024e+002, 7.331119e+001
9.190845e+002, 7.299316e+001
9.195666e+002, 7.290791e+001
9.200487e+002, 7.301849e+001
9.205308e+002, 7.306324e+001
9.210129e+002, 7.271055e+001
9.214951e+002, 7.261123e+001
9.219772e+002, 7.304196e+001
9.224593e+002, 7.378699e+001
9.229414e+002, 7.418101e+001
9.234235e+002, 7.422648e+001
9.239056e+002, 7.424834e+001
9.243878e+002, 7.435386e+001
9.248699e+002, 7.447460e+001
9.253520e+002, 7.449499e+001
9.258341e+002, 7.448925e+001
9.263162e+002, 7.457938e+001
9.267983e+002, 7.493251e+001
9.272805e+002, 7.517581e+001
9.277626e+002, 7.517898e+001
9.282447e+002, 7.515565e+001
9.287268e+002, 7.537202e+001
9.292089e+002, 7.583115e+001
9.296910e+002, 7.607783e+001
9.301732e+002, 7.606341e+001
9.306553e+002, 7.602377e+001
9.311374e+002, 7.626266e+001
9.316195e+002, 7.654081e+001
9.321016e+002, 7.650114e+001
9.325837e+002, 7.608425e+001
9.330659e+002, 7.593638e+001
9.335480e+002, 7.643050e+001
9.340301e+002, 7.696069e+001
9.345122e+002, 7.732003e+001
9.349943e+002, 7.751588e+001
9.354764e+002, 7.756493e+001
9.359586e+002, 7.746800e+001
9.364407e+002, 7.731252e+001
9.369228e+002, 7.704088e+001
9.374049e+002, 7.682347e+001
9.378870e+002, 7.686739e+001
9.383691e+002, 7.710032e+001
9.388513e+002, 7.735426e+001
9.393334e+002, 7.764487e+001
9.398155e+002, 7.787193e+001
9.402976e+002, 7.798885e+001
9.407797e+002, 7.807389e+001
9.412618e+002, 7.826751e+001
9.417440e+002, 7.855908e+001
9.422261e+002, 7.874385e+001
9.427082e+002, 7.875175e+001
9.431903e+002, 7.886777e+001
9.436724e+002, 7.942471e+001
9.441545e+002, 8.019326e+001
9.446367e+002, 8.096120e+001
9.451188e+002, 8.170422e+001
9.456009e+002, 8.237766e+001
9.460830e+002, 8.300111e+001
9.465651e+002, 8.351690e+001
9.470472e+002, 8.379553e+001
9.475294e+002, 8.390342e+001
9.480115e+002, 8.436317e+001
9.484936e+002, 8.516535e+001
9.489757e+002, 8.620856e+001
9.494578e+002, 8.773669e+001
9.499399e+002, 8.921082e+001
9.504221e+002, 9.009293e+001
9.509042e+002, 9.054885e+001
9.513863e+002, 9.124024e+001
9.518684e+002, 9.241630e+001
9.523505e+002, 9.349454e+001
9.528326e+002, 9.433544e+001
9.533148e+002, 9.508369e+001
9.537969e+002, 9.606054e+001
9.542790e+002, 9.719688e+001
9.547611e+002, 9.816714e+001
9.552432e+002, 9.883524e+001
9.557253e+002, 9.949629e+001
9.562075e+002, 1.003855e+002
9.566896e+002, 1.013533e+002
9.571717e+002, 1.022871e+002
9.576538e+002, 1.032528e+002
9.581359e+002, 1.039088e+002
9.586180e+002, 1.041969e+002
9.591002e+002, 1.043134e+002
9.595823e+002, 1.044978e+002
9.600644e+002, 1.046140e+002
9.605465e+002, 1.042081e+002
9.610286e+002, 1.033014e+002
9.615107e+002, 1.021600e+002
9.619929e+002, 1.007862e+002
9.624750e+002, 9.935378e+001
9.629571e+002, 9.800501e+001
9.634392e+002, 9.667039e+001
9.639213e+002, 9.497411e+001
9.644034e+002, 9.275033e+001
9.648856e+002, 9.094538e+001
9.653677e+002, 8.992491e+001
9.658498e+002, 8.913712e+001
9.663319e+002, 8.750367e+001
9.668140e+002, 8.545928e+001
9.672961e+002, 8.399284e+001
9.677783e+002, 8.355727e+001
9.682604e+002, 8.316131e+001
9.687425e+002, 8.232729e+001
9.692246e+002, 8.145840e+001
9.697067e+002, 8.087051e+001
9.701888e+002, 8.061525e+001
9.706710e+002, 8.029188e+001
9.711531e+002, 7.987808e+001
9.716352e+002, 7.962878e+001
9.721173e+002, 7.994196e+001
9.725994e+002, 8.041386e+001
9.730815e+002, 8.043578e+001
9.735637e+002, 8.008170e+001
9.740458e+002, 7.989189e+001
9.745279e+002, 8.024318e+001
9.750100e+002, 8.053065e+001
9.754921e+002, 8.051595e+001
9.759742e+002, 8.039613e+001
9.764564e+002, 8.076519e+001
9.769385e+002, 8.158907e+001
9.774206e+002, 8.211172e+001
9.779027e+002, 8.203801e+001
9.783848e+002, 8.190945e+001
9.788669e+002, 8.229793e+001
9.793491e+002, 8.290777e+001
9.798312e+002, 8.339288e+001
9.803133e+002, 8.367580e+001
9.807954e+002, 8.383504e+001
9.812775e+002, 8.376585e+001
9.817596e+002, 8.376951e+001
9.822418e+002, 8.410124e+001
9.827239e+002, 8.469804e+001
9.832060e+002, 8.520071e+001
9.836881e+002, 8.562711e+001
9.841702e+002, 8.616178e+001
9.846523e+002, 8.722453e+001
9.851345e+002, 8.812929e+001
9.856166e+002, 8.827320e+001
9.860987e+002, 8.790443e+001
9.865808e+002, 8.799903e+001
9.870629e+002, 8.873021e+001
9.875450e+002, 8.936808e+001
9.880272e+002, 8.973559e+001
9.885093e+002, 9.004341e+001
9.889914e+002, 9.060938e+001
9.894735e+002, 9.135108e+001
9.899556e+002, 9.210438e+001
9.904377e+002, 9.283939e+001
9.909199e+002, 9.356429e+001
9.914020e+002, 9.419313e+001
9.918841e+002, 9.489713e+001
9.923662e+002, 9.582597e+001
9.928483e+002, 9.697540e+001
9.933304e+002, 9.803465e+001
9.938126e+002, 9.901102e+001
9.942947e+002, 9.977159e+001
9.947768e+002, 1.001685e+002
9.952589e+002, 1.003483e+002
9.957410e+002, 1.004543e+002
9.962231e+002, 1.004923e+002
9.967053e+002, 1.004793e+002
9.971874e+002, 1.006789e+002
9.976695e+002, 1.004460e+002
9.981516e+002, 9.962838e+001
9.986337e+002, 9.842412e+001
9.991158e+002, 9.707896e+001
9.995980e+002, 9.558578e+001
1.000080e+003, 9.394388e+001
1.000562e+003, 9.210136e+001
1.001044e+003, 9.038777e+001
1.001526e+003, 8.911365e+001
1.002009e+003, 8.800708e+001
1.002491e+003, 8.688557e+001
1.002973e+003, 8.572410e+001
1.003455e+003, 8.446355e+001
1.003937e+003, 8.302940e+001
1.004419e+003, 8.174096e+001
1.004901e+003, 8.075713e+001
1.005383e+003, 7.999026e+001
1.005865e+003, 7.917962e+001
1.006348e+003, 7.840652e+001
1.006830e+003, 7.788099e+001
1.007312e+003, 7.816711e+001
1.007794e+003, 7.813864e+001
1.008276e+003, 7.712367e+001
1.008758e+003, 7.581889e+001
1.009240e+003, 7.494656e+001
1.009722e+003, 7.455259e+001
1.010205e+003, 7.418940e+001
1.010687e+003, 7.383297e+001
1.011169e+003, 7.342220e+001
1.011651e+003, 7.284415e+001
1.012133e+003, 7.221789e+001
1.012615e+003, 7.160928e+001
1.013097e+003, 7.103945e+001
1.013579e+003, 7.069416e+001
1.014061e+003, 7.072660e+001
1.014544e+003, 7.077776e+001
1.015026e+003, 7.077367e+001
1.015508e+003, 7.069897e+001
1.015990e+003, 7.047016e+001
1.016472e+003, 7.012778e+001
1.016954e+003, 6.983461e+001
1.017436e+003, 6.963189e+001
1.017918e+003, 6.950419e+001
1.018401e+003, 6.949824e+001
1.018883e+003, 6.952751e+001
1.019365e+003, 6.954661e+001
1.019847e+003, 6.963234e+001
1.020329e+003, 6.918411e+001
1.020811e+003, 6.804324e+001
1.021293e+003, 6.723781e+001
1.021775e+003, 6.794907e+001
1.022257e+003, 6.921423e+001
1.022740e+003, 6.941383e+001
1.023222e+003, 6.879192e+001
1.023704e+003, 6.837137e+001
1.024186e+003, 6.874905e+001
1.024668e+003, 6.906611e+001
1.025150e+003, 6.909885e+001
1.025632e+003, 6.901709e+001
1.026114e+003, 6.912529e+001
1.026596e+003, 6.939599e+001
1.027079e+003, 6.959468e+001
1.027561e+003, 6.967834e+001
1.028043e+003, 6.973298e+001
1.028525e+003, 6.986568e+001
1.029007e+003, 6.997341e+001
1.029489e+003, 6.993907e+001
1.029971e+003, 6.974448e+001
1.030453e+003, 6.961928e+001
1.030936e+003, 6.955443e+001
1.031418e+003, 6.959689e+001
1.031900e+003, 6.979571e+001
1.032382e+003, 7.008228e+001
1.032864e+003, 7.035556e+001
1.033346e+003, 7.060327e+001
1.033828e+003, 7.078954e+001
1.034310e+003, 7.088509e+001
1.034792e+003, 7.094038e+001
1.035275e+003, 7.088559e+001
1.035757e+003, 7.086855e+001
1.036239e+003, 7.109425e+001
1.036721e+003, 7.156141e+001
1.037203e+003, 7.164552e+001
1.037685e+003, 7.132950e+001
1.038167e+003, 7.107924e+001
1.038649e+003, 7.136815e+001
1.039132e+003, 7.175199e+001
1.039614e+003, 7.186549e+001
1.040096e+003, 7.174561e+001
1.040578e+003, 7.167052e+001
1.041060e+003, 7.166527e+001
1.041542e+003, 7.169347e+001
1.042024e+003, 7.178561e+001
1.042506e+003, 7.181892e+001
1.042989e+003, 7.152004e+001
1.043471e+003, 7.104237e+001
1.043953e+003, 7.073702e+001
1.044435e+003, 7.070737e+001
1.044917e+003, 7.059702e+001
1.045399e+003, 7.027376e+001
1.045881e+003, 6.981013e+001
1.046363e+003, 6.915648e+001
1.046845e+003, 6.837708e+001
1.047328e+003, 6.804720e+001
1.047810e+003, 6.814077e+001
1.048292e+003, 6.826170e+001
1.048774e+003, 6.824788e+001
1.049256e+003, 6.816265e+001
1.049738e+003, 6.807455e+001
1.050220e+003, 6.794302e+001
1.050702e+003, 6.767192e+001
1.051184e+003, 6.703366e+001
1.051667e+003, 6.685867e+001
1.052149e+003, 6.730090e+001
1.052631e+003, 6.775404e+001
1.053113e+003, 6.755542e+001
1.053595e+003, 6.704632e+001
1.054077e+003, 6.694881e+001
1.054559e+003, 6.722396e+001
1.055041e+003, 6.739587e+001
1.055523e+003, 6.714381e+001
1.056006e+003, 6.692327e+001
1.056488e+003, 6.692021e+001
1.056970e+003, 6.697621e+001
1.057452e+003, 6.666237e+001
1.057934e+003, 6.604667e+001
1.058416e+003, 6.581216e+001
1.058898e+003, 6.614525e+001
1.059380e+003, 6.650985e+001
1.059863e+003, 6.647340e+001
1.060345e+003, 6.627831e+001
1.060827e+003, 6.608991e+001
1.061309e+003, 6.591844e+001
1.061791e+003, 6.586028e+001
1.062273e+003, 6.594224e+001
1.062755e+003, 6.600656e+001
1.063237e+003, 6.597572e+001
1.063719e+003, 6.589855e+001
1.064202e+003, 6.578302e+001
1.064684e+003, 6.569190e+001
1.065166e+003, 6.576321e+001
1.065648e+003, 6.633267e+001
1.066130e+003, 6.651736e+001
1.066612e+003, 6.609313e+001
1.067094e+003, 6.549574e+001
1.067576e+003, 6.498614e+001
1.068059e+003, 6.459483e+001
1.068541e+003, 6.464329e+001
1.069023e+003, 6.507164e+001
1.069505e+003, 6.537871e+001
1.069987e+003, 6.503345e+001
1.070469e+003, 6.473479e+001
1.070951e+003, 6.500125e+001
1.071433e+003, 6.551347e+001
1.071916e+003, 6.564650e+001
1.072398e+003, 6.534904e+001
1.072880e+003, 6.512997e+001
1.073362e+003, 6.507061e+001
1.073844e+003, 6.501860e+001
1.074326e+003, 6.477072e+001
1.074808e+003, 6.448426e+001
1.075290e+003, 6.431178e+001
1.075772e+003, 6.427155e+001
1.076255e+003, 6.436292e+001
1.076737e+003, 6.471696e+001
1.077219e+003, 6.485366e+001
1.077701e+003, 6.451028e+001
1.078183e+003, 6.402023e+001
1.078665e+003, 6.413528e+001
1.079147e+003, 6.460735e+001
1.079629e+003, 6.484660e+001
1.080111e+003, 6.462456e+001
1.080594e+003, 6.438000e+001
1.081076e+003, 6.418289e+001
1.081558e+003, 6.409235e+001
1.082040e+003, 6.421481e+001
1.082522e+003, 6.450757e+001
1.083004e+003, 6.444748e+001
1.083486e+003, 6.407717e+001
1.083968e+003, 6.381201e+001
1.084450e+003, 6.392930e+001
1.084933e+003, 6.416822e+001
1.085415e+003, 6.454221e+001
1.085897e+003, 6.485252e+001
1.086379e+003, 6.476623e+001
1.086861e+003, 6.413142e+001
1.087343e+003, 6.371276e+001
1.087825e+003, 6.356140e+001
1.088307e+003, 6.351261e+001
1.088790e+003, 6.345207e+001
1.089272e+003, 6.339338e+001
1.089754e+003, 6.338524e+001
1.090236e+003, 6.340511e+001
1.090718e+003, 6.331411e+001
1.091200e+003, 6.292623e+001
1.091682e+003, 6.274171e+001
1.092164e+003, 6.291618e+001
1.092646e+003, 6.319699e+001
1.093129e+003, 6.310855e+001
1.093611e+003, 6.283517e+001
1.094093e+003, 6.286955e+001
1.094575e+003, 6.330555e+001
1.095057e+003, 6.373393e+001
1.095539e+003, 6.409809e+001
1.096021e+003, 6.425231e+001
1.096503e+003, 6.407844e+001
1.096986e+003, 6.367457e+001
1.097468e+003, 6.337826e+001
1.097950e+003, 6.318877e+001
1.098432e+003, 6.311491e+001
1.098914e+003, 6.318568e+001
1.099396e+003, 6.329797e+001
1.099878e+003, 6.347115e+001
1.100360e+003, 6.358446e+001
1.100843e+003, 6.348709e+001
1.101325e+003, 6.314801e+001
1.101807e+003, 6.297789e+001
1.102289e+003, 6.300394e+001
1.102771e+003, 6.289469e+001
1.103253e+003, 6.224731e+001
1.103735e+003, 6.158038e+001
1.104217e+003, 6.158250e+001
1.104699e+003, 6.200396e+001
1.105182e+003, 6.238037e+001
1.105664e+003, 6.268080e+001
1.106146e+003, 6.279645e+001
1.106628e+003, 6.267681e+001
1.107110e+003, 6.249867e+001
1.107592e+003, 6.240207e+001
1.108074e+003, 6.236763e+001
1.108556e+003, 6.233921e+001
1.109038e+003, 6.232627e+001
1.109521e+003, 6.238585e+001
1.110003e+003, 6.274969e+001
1.110485e+003, 6.288547e+001
1.110967e+003, 6.257203e+001
1.111449e+003, 6.212561e+001
1.111931e+003, 6.205285e+001
1.112413e+003, 6.227349e+001
1.112895e+003, 6.243108e+001
1.113377e+003, 6.248424e+001
1.113860e+003, 6.250340e+001
1.114342e+003, 6.253413e+001
1.114824e+003, 6.254037e+001
1.115306e+003, 6.251297e+001
1.115788e+003, 6.244568e+001
1.116270e+003, 6.228819e+001
1.116752e+003, 6.204198e+001
1.117234e+003, 6.182489e+001
1.117717e+003, 6.164087e+001
1.118199e+003, 6.159956e+001
1.118681e+003, 6.193027e+001
1.119163e+003, 6.235773e+001
1.119645e+003, 6.265009e+001
1.120127e+003, 6.279400e+001
1.120609e+003, 6.271463e+001
1.121091e+003, 6.237715e+001
1.121573e+003, 6.201919e+001
1.122056e+003, 6.168650e+001
1.122538e+003, 6.147117e+001
1.123020e+003, 6.159497e+001
1.123502e+003, 6.187241e+001
1.123984e+003, 6.200475e+001
1.124466e+003, 6.181479e+001
1.124948e+003, 6.177020e+001
1.125430e+003, 6.195848e+001
1.125913e+003, 6.208105e+001
1.126395e+003, 6.180618e+001
1.126877e+003, 6.139037e+001
1.127359e+003, 6.146143e+001
1.127841e+003, 6.188238e+001
1.128323e+003, 6.227233e+001
1.128805e+003, 6.265790e+001
1.129287e+003, 6.272902e+001
1.129770e+003, 6.231499e+001
1.130252e+003, 6.180607e+001
1.130734e+003, 6.157630e+001
1.131216e+003, 6.157409e+001
1.131698e+003, 6.165059e+001
1.132180e+003, 6.177253e+001
1.132662e+003, 6.175455e+001
1.133144e+003, 6.120669e+001
1.133626e+003, 6.085618e+001
1.134109e+003, 6.106934e+001
1.134591e+003, 6.153006e+001
1.135073e+003, 6.178241e+001
1.135555e+003, 6.183591e+001
1.136037e+003, 6.182973e+001
1.136519e+003, 6.177937e+001
1.137001e+003, 6.166644e+001
1.137483e+003, 6.133315e+001
1.137965e+003, 6.107252e+001
1.138448e+003, 6.120874e+001
1.138930e+003, 6.155985e+001
1.139412e+003, 6.149138e+001
1.139894e+003, 6.097126e+001
1.140376e+003, 6.072420e+001
1.140858e+003, 6.094005e+001
1.141340e+003, 6.125316e+001
1.141822e+003, 6.142248e+001
1.142304e+003, 6.145769e+001
1.142787e+003, 6.130261e+001
1.143269e+003, 6.096473e+001
1.143751e+003, 6.082671e+001
1.144233e+003, 6.093126e+001
1.144715e+003, 6.099323e+001
1.145197e+003, 6.089347e+001
1.145679e+003, 6.075830e+001
1.146161e+003, 6.072648e+001
1.146644e+003, 6.077070e+001
1.147126e+003, 6.086414e+001
1.147608e+003, 6.101819e+001
1.148090e+003, 6.116542e+001
1.148572e+003, 6.132580e+001
1.149054e+003, 6.141460e+001
1.149536e+003, 6.140183e+001
1.150018e+003, 6.128111e+001
1.150500e+003, 6.079519e+001
1.150983e+003, 6.024688e+001
1.151465e+003, 6.029067e+001
1.151947e+003, 6.172809e+001
1.152429e+003, 6.239797e+001
1.152911e+003, 6.192463e+001
1.153393e+003, 6.119261e+001
1.153875e+003, 6.069889e+001
1.154357e+003, 6.044732e+001
1.154840e+003, 6.061590e+001
1.155322e+003, 6.104993e+001
1.155804e+003, 6.124961e+001
1.156286e+003, 6.063541e+001
1.156768e+003, 6.033475e+001
1.157250e+003, 6.060193e+001
1.157732e+003, 6.105839e+001
1.158214e+003, 6.146891e+001
1.158697e+003, 6.177309e+001
1.159179e+003, 6.153720e+001
1.159661e+003, 6.087146e+001
1.160143e+003, 6.046296e+001
1.160625e+003, 6.098814e+001
1.161107e+003, 6.139388e+001
1.161589e+003, 6.126939e+001
1.162071e+003, 6.096590e+001
1.162553e+003, 6.092832e+001
1.163036e+003, 6.112125e+001
1.163518e+003, 6.135998e+001
1.164000e+003, 6.161666e+001
1.164482e+003, 6.165593e+001
1.164964e+003, 6.103873e+001
1.165446e+003, 6.049994e+001
1.165928e+003, 6.046395e+001
1.166410e+003, 6.069342e+001
1.166892e+003, 6.078780e+001
1.167375e+003, 6.075259e+001
1.167857e+003, 6.057440e+001
1.168339e+003, 6.023566e+001
1.168821e+003, 6.012628e+001
1.169303e+003, 6.095579e+001
1.169785e+003, 6.169783e+001
1.170267e+003, 6.149165e+001
1.170749e+003, 6.070195e+001
1.171231e+003, 6.033331e+001
1.171714e+003, 6.038057e+001
1.172196e+003, 6.058348e+001
1.172678e+003, 6.091908e+001
1.173160e+003, 6.119064e+001
1.173642e+003, 6.117312e+001
1.174124e+003, 6.106674e+001
1.174606e+003, 6.104325e+001
1.175088e+003, 6.108504e+001
1.175571e+003, 6.107240e+001
1.176053e+003, 6.100921e+001
1.176535e+003, 6.075253e+001
1.177017e+003, 6.014602e+001
1.177499e+003, 5.973547e+001
1.177981e+003, 6.030976e+001
1.178463e+003, 6.115073e+001
1.178945e+003, 6.156030e+001
1.179427e+003, 6.150212e+001
1.179910e+003, 6.131568e+001
1.180392e+003, 6.096824e+001
1.180874e+003, 6.084033e+001
1.181356e+003, 6.119473e+001
1.181838e+003, 6.154204e+001
1.182320e+003, 6.119206e+001
1.182802e+003, 6.063666e+001
1.183284e+003, 6.050997e+001
1.183767e+003, 6.094598e+001
1.184249e+003, 6.109214e+001
1.184731e+003, 6.088319e+001
1.185213e+003, 6.087080e+001
1.185695e+003, 6.152324e+001
1.186177e+003, 6.217594e+001
1.186659e+003, 6.188576e+001
1.187141e+003, 6.116898e+001
1.187624e+003, 6.080287e+001
1.188106e+003, 6.104305e+001
1.188588e+003, 6.095073e+001
1.189070e+003, 6.044289e+001
1.189552e+003, 6.009566e+001
1.190034e+003, 6.040560e+001
1.190516e+003, 6.087746e+001
1.190998e+003, 6.081521e+001
1.191480e+003, 6.049800e+001
1.191963e+003, 6.041743e+001
1.192445e+003, 6.077532e+001
1.192927e+003, 6.103957e+001
1.193409e+003, 6.119417e+001
1.193891e+003, 6.132727e+001
1.194373e+003, 6.161609e+001
1.194855e+003, 6.183123e+001
1.195337e+003, 6.156227e+001
1.195819e+003, 6.100193e+001
1.196302e+003, 6.056858e+001
1.196784e+003, 6.021711e+001
1.197266e+003, 6.030717e+001
1.197748e+003, 6.095033e+001
1.198230e+003, 6.158818e+001
1.198712e+003, 6.172517e+001
1.199194e+003, 6.162304e+001
1.199676e+003, 6.164507e+001
1.200158e+003, 6.171947e+001
1.200641e+003, 6.160479e+001
1.201123e+003, 6.102198e+001
1.201605e+003, 6.089185e+001
1.202087e+003, 6.136989e+001
1.202569e+003, 6.187036e+001
1.203051e+003, 6.178314e+001
1.203533e+003, 6.145460e+001
1.204015e+003, 6.131703e+001
1.204498e+003, 6.134249e+001
1.204980e+003, 6.138823e+001
1.205462e+003, 6.153971e+001
1.205944e+003, 6.140070e+001
1.206426e+003, 6.085247e+001
1.206908e+003, 6.034035e+001
1.207390e+003, 6.038084e+001
1.207872e+003, 6.066393e+001
1.208354e+003, 6.078767e+001
1.208837e+003, 6.078109e+001
1.209319e+003, 6.087694e+001
1.209801e+003, 6.116449e+001
1.210283e+003, 6.138581e+001
1.210765e+003, 6.150770e+001
1.211247e+003, 6.157514e+001
1.211729e+003, 6.161271e+001
1.212211e+003, 6.164192e+001
1.212694e+003, 6.167474e+001
1.213176e+003, 6.172054e+001
1.213658e+003, 6.184090e+001
1.214140e+003, 6.212231e+001
1.214622e+003, 6.221002e+001
1.215104e+003, 6.201857e+001
1.215586e+003, 6.177660e+001
1.216068e+003, 6.171520e+001
1.216551e+003, 6.175563e+001
1.217033e+003, 6.184997e+001
1.217515e+003, 6.197136e+001
1.217997e+003, 6.195747e+001
1.218479e+003, 6.175061e+001
1.218961e+003, 6.160102e+001
1.219443e+003, 6.156253e+001
1.219925e+003, 6.153557e+001
1.220407e+003, 6.134617e+001
1.220890e+003, 6.114769e+001
1.221372e+003, 6.117414e+001
1.221854e+003, 6.139859e+001
1.222336e+003, 6.139476e+001
1.222818e+003, 6.103490e+001
1.223300e+003, 6.094521e+001
1.223782e+003, 6.129799e+001
1.224264e+003, 6.171289e+001
1.224746e+003, 6.181855e+001
1.225229e+003, 6.173124e+001
1.225711e+003, 6.152185e+001
1.226193e+003, 6.121473e+001
1.226675e+003, 6.096112e+001
1.227157e+003, 6.073936e+001
1.227639e+003, 6.072559e+001
1.228121e+003, 6.099265e+001
1.228603e+003, 6.130495e+001
1.229085e+003, 6.153872e+001
1.229568e+003, 6.159829e+001
1.230050e+003, 6.124615e+001
1.230532e+003, 6.055632e+001
1.231014e+003, 6.026503e+001
1.231496e+003, 6.039894e+001
1.231978e+003, 6.070649e+001
1.232460e+003, 6.116540e+001
1.232942e+003, 6.160974e+001
1.233425e+003, 6.195474e+001
1.233907e+003, 6.215942e+001
1.234389e+003, 6.215929e+001
1.234871e+003, 6.197834e+001
1.235353e+003, 6.168868e+001
1.235835e+003, 6.127946e+001
1.236317e+003, 6.111342e+001
1.236799e+003, 6.132976e+001
1.237281e+003, 6.152563e+001
1.237764e+003, 6.127804e+001
1.238246e+003, 6.094093e+001
1.238728e+003, 6.080277e+001
1.239210e+003, 6.082500e+001
1.239692e+003, 6.084721e+001
1.240174e+003, 6.086932e+001
1.240656e+003, 6.090938e+001
1.241138e+003, 6.098061e+001
1.241621e+003, 6.101204e+001
1.242103e+003, 6.056086e+001
1.242585e+003, 6.046307e+001
1.243067e+003, 6.162336e+001
1.243549e+003, 6.348109e+001
1.244031e+003, 6.383191e+001
1.244513e+003, 6.286474e+001
1.244995e+003, 6.202563e+001
1.245478e+003, 6.162897e+001
1.245960e+003, 6.149868e+001
1.246442e+003, 6.172268e+001
1.246924e+003, 6.197669e+001
1.247406e+003, 6.208833e+001
1.247888e+003, 6.209179e+001
1.248370e+003, 6.205018e+001
1.248852e+003, 6.198531e+001
1.249334e+003, 6.200555e+001
1.249817e+003, 6.215215e+001
1.250299e+003, 6.226973e+001
1.250781e+003, 6.238661e+001
1.251263e+003, 6.229554e+001
1.251745e+003, 6.174760e+001
1.252227e+003, 6.110883e+001
1.252709e+003, 6.153505e+001
1.253191e+003, 6.260249e+001
1.253673e+003, 6.300029e+001
1.254156e+003, 6.236260e+001
1.254638e+003, 6.189138e+001
1.255120e+003, 6.222811e+001
1.255602e+003, 6.236096e+001
1.256084e+003, 6.182426e+001
1.256566e+003, 6.108500e+001
1.257048e+003, 6.122521e+001
1.257530e+003, 6.182933e+001
1.258012e+003, 6.198352e+001
1.258495e+003, 6.146946e+001
1.258977e+003, 6.119632e+001
1.259459e+003, 6.136657e+001
1.259941e+003, 6.163705e+001
1.260423e+003, 6.196289e+001
1.260905e+003, 6.219798e+001
1.261387e+003, 6.192085e+001
1.261869e+003, 6.149498e+001
1.262352e+003, 6.155229e+001
1.262834e+003, 6.222338e+001
1.263316e+003, 6.247897e+001
1.263798e+003, 6.213421e+001
1.264280e+003, 6.188131e+001
1.264762e+003, 6.193882e+001
1.265244e+003, 6.211994e+001
1.265726e+003, 6.222952e+001
1.266208e+003, 6.231566e+001
1.266691e+003, 6.242702e+001
1.267173e+003, 6.257086e+001
1.267655e+003, 6.279977e+001
1.268137e+003, 6.316647e+001
1.268619e+003, 6.313208e+001
1.269101e+003, 6.246348e+001
1.269583e+003, 6.176735e+001
1.270065e+003, 6.159042e+001
1.270548e+003, 6.166094e+001
1.271030e+003, 6.181163e+001
1.271512e+003, 6.199941e+001
1.271994e+003, 6.206724e+001
1.272476e+003, 6.201958e+001
1.272958e+003, 6.209592e+001
1.273440e+003, 6.237557e+001
1.273922e+003, 6.258702e+001
1.274405e+003, 6.243664e+001
1.274887e+003, 6.225821e+001
1.275369e+003, 6.224822e+001
1.275851e+003, 6.236106e+001
1.276333e+003, 6.253080e+001
1.276815e+003, 6.271713e+001
1.277297e+003, 6.265405e+001
1.277779e+003, 6.227063e+001
1.278261e+003, 6.199110e+001
1.278744e+003, 6.215674e+001
1.279226e+003, 6.232646e+001
1.279708e+003, 6.235268e+001
1.280190e+003, 6.227104e+001
1.280672e+003, 6.208379e+001
1.281154e+003, 6.185860e+001
1.281636e+003, 6.177551e+001
1.282118e+003, 6.185812e+001
1.282600e+003, 6.200107e+001
1.283083e+003, 6.230563e+001
1.283565e+003, 6.240483e+001
1.284047e+003, 6.213164e+001
1.284529e+003, 6.181986e+001
1.285011e+003, 6.197959e+001
1.285493e+003, 6.239845e+001
1.285975e+003, 6.283171e+001
1.286457e+003, 6.323277e+001
1.286939e+003, 6.336366e+001
1.287422e+003, 6.318063e+001
1.287904e+003, 6.282368e+001
1.288386e+003, 6.225086e+001
1.288868e+003, 6.184011e+001
1.289350e+003, 6.219835e+001
1.289832e+003, 6.276831e+001
1.290314e+003, 6.302785e+001
1.290796e+003, 6.296669e+001
1.291279e+003, 6.277507e+001
1.291761e+003, 6.242966e+001
1.292243e+003, 6.216158e+001
1.292725e+003, 6.199653e+001
1.293207e+003, 6.199662e+001
1.293689e+003, 6.239794e+001
1.294171e+003, 6.279313e+001
1.294653e+003, 6.293063e+001
1.295135e+003, 6.285571e+001
1.295618e+003, 6.248806e+001
1.296100e+003, 6.189659e+001
1.296582e+003, 6.192572e+001
1.297064e+003, 6.261125e+001
1.297546e+003, 6.298854e+001
1.298028e+003, 6.202207e+001
1.298510e+003, 6.125091e+001
1.298992e+003, 6.116784e+001
1.299475e+003, 6.147618e+001
1.299957e+003, 6.193258e+001
1.300439e+003, 6.244239e+001
1.300921e+003, 6.267817e+001
1.301403e+003, 6.266740e+001
1.301885e+003, 6.268653e+001
##END=



