##NAMES=Lovozerite
##RRUFFID=R080107
##IDEAL CHEMISTRY=Na_3_CaZr^4+^Si_6_O_15_(OH)_3_
##LOCALITY=Mont Saint-Hilaire, Quebec, Canada
##OWNER=RRUFF
##SOURCE=William W. Pinch
##DESCRIPTION=Small tan blocky crystals associated with sodalite and microcline
##STATUS=The identification of this mineral has been confirmed only by single crystal X-ray diffraction.
##URL=rruff.info/R080107
92.35352, 11.71995
92.83563, 11.21639
93.31775, 11.00215
93.79987, 11.25623
94.28198, 11.82336
94.76410, 12.20918
95.24622, 12.17778
95.72833, 12.05594
96.21045, 12.58828
96.69257, 13.80220
97.17468, 15.25173
97.65680, 16.53932
98.13892, 17.67455
98.62103, 18.85323
99.10315, 20.03124
99.58527, 21.26143
100.0674, 22.89322
100.5495, 24.97724
101.0316, 27.32172
101.5137, 29.61341
101.9958, 31.77176
102.4780, 34.21152
102.9601, 37.03560
103.4422, 40.24776
103.9243, 43.81420
104.4064, 47.81274
104.8885, 52.13378
105.3707, 56.69648
105.8528, 61.53114
106.3349, 66.50959
106.8170, 71.52238
107.2991, 76.37178
107.7813, 81.65038
108.2634, 87.75984
108.7455, 94.38445
109.2276, 100.2443
109.7097, 104.8260
110.1918, 109.0633
110.6740, 113.3493
111.1561, 117.5524
111.6382, 121.9632
112.1203, 126.4652
112.6024, 131.1527
113.0845, 136.3526
113.5667, 142.3229
114.0488, 148.6849
114.5309, 155.2546
115.0130, 161.6788
115.4951, 168.5407
115.9772, 176.1999
116.4594, 184.7028
116.9415, 193.2200
117.4236, 201.6406
117.9057, 209.8640
118.3878, 217.7491
118.8699, 224.9673
119.3521, 232.1258
119.8342, 239.8635
120.3163, 248.3043
120.7984, 256.3481
121.2805, 263.0155
121.7626, 268.8510
122.2448, 274.7861
122.7269, 281.7803
123.2090, 288.8319
123.6911, 294.9251
124.1732, 299.8701
124.6553, 304.2023
125.1375, 308.0070
125.6196, 311.4974
126.1017, 315.3478
126.5838, 320.0051
127.0659, 325.2891
127.5480, 331.0267
128.0302, 337.4452
128.5123, 343.8568
128.9944, 348.9242
129.4765, 352.8135
129.9586, 357.0746
130.4407, 363.2680
130.9229, 370.9021
131.4050, 378.0189
131.8871, 384.0346
132.3692, 389.3249
132.8513, 394.5294
133.3334, 399.0215
133.8156, 401.6317
134.2977, 402.7225
134.7798, 403.7068
135.2619, 404.9841
135.7440, 406.7678
136.2261, 408.9039
136.7083, 410.8769
137.1904, 412.7738
137.6725, 414.3362
138.1546, 415.3007
138.6367, 415.6405
139.1188, 415.6521
139.6010, 415.4017
140.0831, 414.8953
140.5652, 414.1342
141.0473, 413.0335
141.5294, 411.7833
142.0115, 410.5475
142.4937, 409.0698
142.9758, 408.1405
143.4579, 408.1276
143.9400, 409.3022
144.4221, 409.9587
144.9042, 409.7872
145.3864, 409.2605
145.8685, 409.2188
146.3506, 410.0245
146.8327, 410.7985
147.3148, 411.2664
147.7969, 411.3487
148.2791, 411.2958
148.7612, 410.9940
149.2433, 410.5736
149.7254, 410.3274
150.2075, 410.3084
150.6896, 410.4282
151.1718, 410.6820
151.6539, 411.4720
152.1360, 411.8286
152.6181, 411.4964
153.1002, 410.6881
153.5823, 410.0357
154.0645, 409.2212
154.5466, 408.8171
155.0287, 409.1127
155.5108, 411.5122
155.9929, 412.9508
156.4750, 412.4909
156.9572, 410.5472
157.4393, 408.8094
157.9214, 407.4274
158.4035, 406.4617
158.8856, 405.9437
159.3677, 406.6604
159.8499, 407.0437
160.3320, 406.5027
160.8141, 405.1747
161.2962, 403.8458
161.7783, 402.5331
162.2604, 401.4731
162.7426, 400.8608
163.2247, 401.2124
163.7068, 401.6217
164.1889, 401.7391
164.6710, 401.5654
165.1531, 401.1862
165.6353, 400.5056
166.1174, 399.6845
166.5995, 398.8957
167.0816, 398.1019
167.5637, 397.4253
168.0458, 396.8907
168.5280, 396.5015
169.0101, 396.3840
169.4922, 396.9538
169.9743, 397.7807
170.4564, 398.2610
170.9385, 397.9935
171.4207, 397.3679
171.9028, 396.6593
172.3849, 395.8768
172.8670, 395.1201
173.3491, 394.5694
173.8312, 394.0939
174.3134, 393.4386
174.7955, 392.3962
175.2776, 391.1622
175.7597, 389.8874
176.2418, 388.5427
176.7239, 387.4034
177.2061, 386.7897
177.6882, 386.5739
178.1703, 386.4150
178.6524, 386.2813
179.1345, 386.0634
179.6166, 385.4991
180.0988, 384.5108
180.5809, 383.4843
181.0630, 382.8975
181.5451, 382.6597
182.0272, 382.4344
182.5093, 382.0206
182.9915, 381.4862
183.4736, 381.0605
183.9557, 380.8078
184.4378, 380.4640
184.9199, 379.4307
185.4020, 377.8433
185.8842, 376.5417
186.3663, 376.2200
186.8484, 376.6091
187.3305, 376.7428
187.8126, 376.5196
188.2947, 376.1099
188.7769, 375.8395
189.2590, 375.6949
189.7411, 375.3619
190.2232, 374.3815
190.7053, 372.9295
191.1874, 372.1952
191.6696, 372.4263
192.1517, 373.1074
192.6338, 373.3768
193.1159, 373.2339
193.5980, 372.7464
194.0801, 371.7891
194.5623, 370.4102
195.0444, 369.1846
195.5265, 368.0847
196.0086, 367.2799
196.4907, 367.3857
196.9728, 368.5320
197.4550, 369.4809
197.9371, 369.2791
198.4192, 367.9023
198.9013, 366.9844
199.3834, 366.8563
199.8655, 367.0708
200.3477, 366.3881
200.8298, 364.6069
201.3119, 362.8430
201.7940, 361.8181
202.2761, 361.6026
202.7582, 361.2894
203.2404, 360.6536
203.7225, 359.9825
204.2046, 360.3438
204.6867, 362.1413
205.1688, 363.6004
205.6509, 363.3177
206.1331, 360.9265
206.6152, 359.2524
207.0973, 358.6887
207.5794, 358.9133
208.0615, 358.9173
208.5436, 358.5905
209.0258, 358.3326
209.5079, 358.5378
209.9900, 359.4314
210.4721, 359.6659
210.9542, 358.9051
211.4363, 357.4863
211.9185, 356.5533
212.4006, 356.2043
212.8827, 355.3722
213.3648, 356.2635
213.8469, 356.7338
214.3290, 356.8064
214.8112, 355.2461
215.2933, 355.8283
215.7754, 355.5727
216.2575, 355.2968
216.7396, 356.2229
217.2217, 354.9763
217.7038, 355.9131
218.1860, 355.9991
218.6681, 356.4960
219.1502, 356.1499
219.6323, 356.0835
220.1144, 356.8901
220.5965, 357.2364
221.0787, 356.8507
221.5608, 357.4616
222.0429, 356.3331
222.5250, 356.7588
223.0071, 357.8635
223.4892, 357.5949
223.9714, 358.2956
224.4535, 358.6476
224.9356, 357.3624
225.4177, 358.9649
225.8998, 358.9584
226.3819, 359.3603
226.8641, 359.5197
227.3462, 359.7596
227.8283, 360.0351
228.3104, 360.4514
228.7925, 361.0922
229.2746, 362.1423
229.7568, 362.9986
230.2389, 363.5695
230.7210, 363.9474
231.2031, 364.4311
231.6852, 365.1454
232.1673, 365.7752
232.6495, 366.1014
233.1316, 365.7933
233.6137, 365.9517
234.0958, 366.8369
234.5779, 368.1539
235.0600, 369.0322
235.5422, 369.2031
236.0243, 369.3413
236.5064, 369.7770
236.9885, 370.7510
237.4706, 371.4664
237.9527, 371.7286
238.4349, 371.7759
238.9170, 372.2639
239.3991, 373.6252
239.8812, 374.7783
240.3633, 375.2156
240.8454, 374.5736
241.3276, 374.1115
241.8097, 373.8672
242.2918, 373.7949
242.7739, 373.8391
243.2560, 374.2015
243.7381, 374.3696
244.2203, 374.1090
244.7024, 373.2295
245.1845, 372.4486
245.6666, 371.7145
246.1487, 371.1069
246.6308, 370.7857
247.1130, 370.8832
247.5951, 371.0534
248.0772, 371.2220
248.5593, 371.4714
249.0414, 371.3819
249.5235, 370.7131
250.0057, 369.8537
250.4878, 369.4878
250.9699, 369.9637
251.4520, 370.3008
251.9341, 370.0981
252.4162, 369.1637
252.8984, 368.6724
253.3805, 368.8920
253.8626, 369.3472
254.3447, 369.2885
254.8268, 368.4042
255.3089, 367.6488
255.7911, 367.3700
256.2732, 367.6544
256.7553, 367.6696
257.2374, 367.3602
257.7195, 366.8351
258.2017, 366.1627
258.6838, 365.1404
259.1659, 364.4478
259.6480, 364.4457
260.1301, 365.1890
260.6122, 365.0887
261.0944, 363.7209
261.5765, 362.0324
262.0586, 361.0624
262.5407, 361.0685
263.0228, 361.0995
263.5049, 361.0009
263.9871, 360.7713
264.4692, 360.3084
264.9513, 359.4667
265.4334, 358.6218
265.9155, 358.1309
266.3976, 358.0987
266.8798, 358.1089
267.3619, 358.1482
267.8440, 358.1858
268.3261, 357.9233
268.8082, 357.2381
269.2903, 356.5105
269.7725, 356.1502
270.2546, 356.3304
270.7367, 356.0502
271.2188, 354.9751
271.7009, 353.3705
272.1830, 352.3550
272.6652, 352.0320
273.1473, 352.0327
273.6294, 352.2653
274.1115, 352.8475
274.5936, 352.8160
275.0757, 351.8170
275.5579, 349.6340
276.0400, 350.2288
276.5221, 350.3877
277.0042, 350.1342
277.4863, 348.2331
277.9684, 348.4596
278.4506, 347.8334
278.9327, 347.1722
279.4148, 347.6982
279.8969, 346.0367
280.3790, 346.5439
280.8611, 346.1854
281.3433, 346.2230
281.8254, 345.4027
282.3075, 344.8474
282.7896, 345.1504
283.2717, 344.9781
283.7538, 344.0591
284.2360, 343.5597
284.7181, 343.7231
285.2002, 343.8106
285.6823, 343.8311
286.1644, 343.8794
286.6465, 343.9731
287.1287, 344.0231
287.6108, 343.8806
288.0929, 343.5536
288.5750, 343.2260
289.0571, 342.9406
289.5392, 342.7050
290.0214, 342.5838
290.5035, 342.5885
290.9856, 342.6146
291.4677, 342.5880
291.9498, 342.5017
292.4319, 342.2979
292.9141, 341.8635
293.3962, 341.3541
293.8783, 341.1727
294.3604, 341.3268
294.8425, 341.5586
295.3246, 341.7624
295.8068, 341.8890
296.2889, 341.7211
296.7710, 341.0492
297.2531, 340.2504
297.7352, 339.9529
298.2173, 340.1264
298.6995, 340.5150
299.1816, 341.1503
299.6637, 341.8477
300.1458, 342.1650
300.6279, 341.9327
301.1100, 341.4911
301.5922, 341.2539
302.0743, 341.1707
302.5564, 341.0514
303.0385, 340.6463
303.5206, 340.1713
304.0027, 339.9839
304.4849, 340.1903
304.9670, 340.4255
305.4491, 340.2560
305.9312, 339.8389
306.4133, 339.5515
306.8954, 339.7466
307.3776, 340.0832
307.8597, 340.2488
308.3418, 340.2294
308.8239, 340.0387
309.3060, 339.4008
309.7881, 338.6463
310.2703, 338.3130
310.7524, 339.2189
311.2345, 340.1831
311.7166, 340.1729
312.1987, 339.2127
312.6808, 338.4039
313.1630, 338.6548
313.6451, 339.2661
314.1272, 339.4815
314.6093, 338.3856
315.0914, 337.4557
315.5735, 337.6970
316.0557, 338.8666
316.5378, 339.6883
317.0199, 339.2378
317.5020, 338.4525
317.9841, 338.0322
318.4662, 338.4542
318.9484, 338.7914
319.4305, 338.7037
319.9126, 338.2996
320.3947, 337.8617
320.8768, 337.2047
321.3589, 336.7393
321.8411, 336.7303
322.3232, 337.4424
322.8053, 338.0399
323.2874, 338.3727
323.7695, 338.4924
324.2516, 338.4808
324.7338, 338.2003
325.2159, 337.9265
325.6980, 337.7543
326.1801, 337.7157
326.6622, 337.6479
327.1443, 336.7185
327.6265, 337.6646
328.1086, 338.1750
328.5907, 338.2728
329.0728, 336.7230
329.5549, 337.3008
330.0370, 337.0260
330.5192, 336.7162
331.0013, 337.5935
331.4834, 336.2834
331.9655, 337.1418
332.4476, 337.1346
332.9297, 337.5237
333.4119, 337.0547
333.8940, 336.8508
334.3761, 337.5050
334.8582, 337.6841
335.3403, 337.1164
335.8224, 337.5306
336.3046, 337.2648
336.7867, 337.5683
337.2688, 337.0833
337.7509, 336.2393
338.2330, 336.0006
338.7151, 336.6260
339.1973, 336.3178
339.6794, 337.3120
340.1615, 337.8704
340.6436, 338.0163
341.1257, 336.5146
341.6078, 337.1404
342.0899, 336.9136
342.5721, 336.6519
343.0542, 337.5772
343.5363, 336.3151
344.0184, 337.2216
344.5005, 337.2625
344.9826, 337.6995
345.4648, 337.2786
345.9469, 337.1227
346.4290, 337.8250
346.9111, 338.0520
347.3932, 337.5324
347.8753, 337.9946
348.3575, 336.5932
348.8396, 336.5649
349.3217, 336.7267
349.8038, 336.9814
350.2859, 337.3114
350.7680, 337.7160
351.2502, 338.2242
351.7323, 338.6781
352.2144, 338.8868
352.6965, 338.8920
353.1786, 338.8138
353.6607, 338.6164
354.1429, 338.4214
354.6250, 338.4117
355.1071, 338.6046
355.5892, 338.8270
356.0713, 338.9038
356.5534, 338.9399
357.0356, 339.0906
357.5177, 339.6352
357.9998, 340.1335
358.4819, 340.1635
358.9640, 339.8089
359.4461, 339.5318
359.9283, 339.6258
360.4104, 339.8699
360.8925, 340.0698
361.3746, 340.1048
361.8567, 340.2143
362.3388, 340.5773
362.8210, 341.0820
363.3031, 341.4864
363.7852, 341.5634
364.2673, 341.6397
364.7494, 341.8987
365.2315, 342.4344
365.7137, 342.8749
366.1958, 343.0371
366.6779, 343.1007
367.1600, 343.2786
367.6421, 343.7791
368.1242, 344.2061
368.6064, 344.4694
369.0885, 344.5621
369.5706, 344.6200
370.0527, 344.6217
370.5348, 344.6101
371.0169, 344.6134
371.4991, 344.6418
371.9812, 344.6712
372.4633, 344.6696
372.9454, 344.6724
373.4275, 344.8102
373.9096, 345.1528
374.3918, 345.5173
374.8739, 345.8296
375.3560, 346.1048
375.8381, 346.2743
376.3202, 346.3145
376.8023, 346.2750
377.2845, 346.2475
377.7666, 346.2521
378.2487, 346.1185
378.7308, 345.6182
379.2129, 344.8832
379.6950, 345.0356
380.1772, 346.2252
380.6593, 347.5245
381.1414, 348.0469
381.6235, 347.8593
382.1056, 347.5731
382.5877, 347.1860
383.0699, 346.9410
383.5520, 347.5594
384.0341, 348.9452
384.5162, 350.0584
384.9983, 349.9683
385.4804, 349.1732
385.9626, 348.7851
386.4447, 348.9645
386.9268, 349.2737
387.4089, 349.0937
387.8910, 348.6940
388.3731, 348.6871
388.8553, 349.7982
389.3374, 351.1396
389.8195, 351.9297
390.3016, 352.1545
390.7837, 351.9659
391.2658, 350.9240
391.7480, 349.7388
392.2301, 349.1888
392.7122, 349.9579
393.1943, 350.7560
393.6764, 350.8190
394.1585, 350.4143
394.6407, 350.2935
395.1228, 351.0034
395.6049, 351.8384
396.0870, 352.4736
396.5691, 352.8508
397.0512, 353.0860
397.5334, 353.1899
398.0155, 353.1672
398.4976, 353.0229
398.9797, 352.4107
399.4618, 352.0414
399.9439, 352.1297
400.4261, 352.6690
400.9082, 353.1041
401.3903, 353.4158
401.8724, 353.6304
402.3545, 353.7149
402.8366, 353.4132
403.3188, 353.5802
403.8009, 354.5474
404.2830, 355.8869
404.7651, 356.4321
405.2472, 355.9150
405.7293, 355.3580
406.2115, 355.1505
406.6936, 355.3004
407.1757, 355.6759
407.6578, 356.3530
408.1399, 357.0600
408.6220, 357.5643
409.1042, 357.8643
409.5863, 357.7644
410.0684, 356.9691
410.5505, 355.9325
411.0326, 355.7915
411.5147, 356.5255
411.9969, 357.4575
412.4790, 358.3246
412.9611, 359.0249
413.4432, 359.1646
413.9253, 358.5459
414.4074, 357.9542
414.8896, 358.4850
415.3717, 359.7107
415.8538, 360.6213
416.3359, 360.4808
416.8180, 359.9653
417.3001, 359.5204
417.7823, 359.1684
418.2644, 359.2097
418.7465, 360.4139
419.2286, 361.8116
419.7107, 362.3955
420.1928, 361.0389
420.6750, 360.0047
421.1571, 360.4236
421.6392, 361.8348
422.1213, 363.0394
422.6034, 363.9135
423.0855, 364.3476
423.5677, 364.1056
424.0498, 362.8016
424.5319, 362.1772
425.0140, 363.0864
425.4961, 364.4010
425.9782, 364.9622
426.4604, 364.0442
426.9425, 363.4543
427.4246, 363.5521
427.9067, 364.2338
428.3888, 364.7496
428.8709, 365.0299
429.3531, 365.2681
429.8352, 365.6324
430.3173, 366.2075
430.7994, 366.4180
431.2815, 366.1963
431.7636, 365.6805
432.2458, 364.9058
432.7279, 363.8232
433.2100, 363.2576
433.6921, 363.7031
434.1742, 364.8541
434.6563, 365.5942
435.1385, 365.9234
435.6206, 366.0991
436.1027, 366.3545
436.5848, 366.6328
437.0669, 366.7708
437.5490, 366.7224
438.0312, 366.5761
438.5133, 366.3462
438.9954, 366.0930
439.4775, 365.9769
439.9596, 366.3920
440.4417, 366.7929
440.9239, 366.4402
441.4060, 365.2945
441.8881, 364.5965
442.3702, 365.5399
442.8523, 367.0593
443.3344, 368.1328
443.8166, 368.1519
444.2987, 368.0765
444.7808, 368.2316
445.2629, 368.5150
445.7450, 368.6339
446.2271, 368.4640
446.7093, 368.1651
447.1914, 367.7087
447.6735, 366.9124
448.1556, 366.5669
448.6377, 366.8345
449.1198, 367.4433
449.6020, 368.2001
450.0841, 369.4022
450.5662, 370.0791
451.0483, 369.9263
451.5304, 369.1440
452.0125, 368.5656
452.4947, 368.1332
452.9768, 368.0686
453.4589, 368.7191
453.9410, 370.1169
454.4231, 370.7562
454.9052, 370.4172
455.3874, 369.9479
455.8695, 370.6287
456.3516, 372.2902
456.8337, 373.6852
457.3158, 374.4501
457.7979, 374.6977
458.2801, 374.4302
458.7622, 373.7285
459.2443, 373.1432
459.7264, 373.0865
460.2085, 373.3694
460.6906, 373.8420
461.1728, 374.5680
461.6549, 375.0987
462.1370, 374.9988
462.6191, 374.5188
463.1012, 374.0228
463.5833, 373.3267
464.0655, 372.9393
464.5476, 373.2416
465.0297, 374.1512
465.5118, 374.9916
465.9939, 375.7381
466.4760, 376.2304
466.9582, 376.3252
467.4403, 375.5279
467.9224, 375.2054
468.4045, 375.6834
468.8866, 376.5160
469.3687, 377.0778
469.8509, 377.2388
470.3330, 377.3543
470.8151, 377.5185
471.2972, 377.7196
471.7793, 377.7371
472.2614, 377.4420
472.7436, 377.3274
473.2257, 377.8835
473.7078, 379.1298
474.1899, 379.9756
474.6720, 380.2453
475.1541, 380.3669
475.6363, 380.9064
476.1184, 381.8442
476.6005, 383.0921
477.0826, 385.0032
477.5647, 386.9663
478.0468, 387.7542
478.5290, 387.4914
479.0111, 387.3105
479.4932, 388.0746
479.9753, 389.3413
480.4574, 390.5897
480.9395, 391.6941
481.4217, 392.8969
481.9038, 394.3656
482.3859, 396.0020
482.8680, 397.6452
483.3501, 399.3770
483.8322, 400.9702
484.3144, 402.2350
484.7965, 403.1909
485.2786, 404.3351
485.7607, 405.9296
486.2428, 407.5581
486.7249, 409.0095
487.2071, 410.1526
487.6892, 411.3585
488.1713, 412.6260
488.6534, 413.9615
489.1355, 415.3899
489.6176, 416.9198
490.0998, 418.5835
490.5819, 420.4720
491.0640, 422.5341
491.5461, 424.4777
492.0282, 426.3351
492.5103, 427.9759
492.9925, 428.9672
493.4746, 429.5638
493.9567, 431.1180
494.4388, 433.8642
494.9209, 436.9192
495.4030, 439.3328
495.8852, 441.2716
496.3673, 443.2413
496.8494, 445.5485
497.3315, 447.8060
497.8136, 449.5338
498.2957, 450.8549
498.7779, 452.2199
499.2600, 454.0457
499.7421, 455.8935
500.2242, 457.4136
500.7063, 458.4969
501.1884, 459.6480
501.6706, 461.2257
502.1527, 462.8590
502.6348, 464.1456
503.1169, 464.7302
503.5990, 465.3387
504.0811, 465.9547
504.5633, 466.6395
505.0454, 467.7375
505.5275, 469.7591
506.0096, 471.2782
506.4917, 471.5854
506.9738, 470.5631
507.4560, 469.7817
507.9381, 469.3002
508.4202, 468.8935
508.9023, 468.3117
509.3844, 467.5666
509.8665, 466.8824
510.3487, 466.3190
510.8308, 465.8046
511.3129, 465.1903
511.7950, 464.5080
512.2772, 463.8986
512.7593, 463.5773
513.2414, 463.2977
513.7235, 462.7724
514.2056, 461.9955
514.6877, 461.0320
515.1699, 459.4362
515.6520, 457.9212
516.1341, 457.2532
516.6162, 458.2056
517.0983, 458.8075
517.5804, 458.2935
518.0626, 457.0368
518.5447, 455.6519
519.0268, 453.8903
519.5089, 452.3740
519.9910, 451.3933
520.4731, 450.8917
520.9553, 449.9947
521.4374, 448.3484
521.9195, 446.8549
522.4016, 446.1640
522.8837, 446.5504
523.3658, 446.3037
523.8480, 445.2872
524.3301, 443.9105
524.8122, 442.5883
525.2943, 441.3454
525.7764, 440.4989
526.2585, 440.2892
526.7407, 440.3556
527.2228, 439.9987
527.7049, 439.2832
528.1870, 438.5953
528.6691, 438.2474
529.1512, 438.0034
529.6334, 437.5921
530.1155, 436.9845
530.5976, 436.2731
531.0797, 435.3427
531.5618, 434.3961
532.0439, 433.6499
532.5261, 433.2579
533.0082, 432.9003
533.4903, 432.4415
533.9724, 431.9570
534.4545, 431.6036
534.9366, 431.6813
535.4188, 431.5662
535.9009, 431.0647
536.3830, 430.1907
536.8651, 429.4477
537.3472, 428.9917
537.8293, 428.3824
538.3115, 427.2605
538.7936, 425.5903
539.2757, 424.0038
539.7578, 422.4786
540.2399, 421.2319
540.7220, 420.6796
541.2042, 420.7204
541.6863, 420.7680
542.1684, 420.7928
542.6505, 420.5460
543.1326, 419.4020
543.6147, 417.5959
544.0969, 416.0034
544.5790, 415.1614
545.0611, 414.7603
545.5432, 414.6979
546.0253, 414.9861
546.5074, 415.0696
546.9896, 414.7196
547.4717, 414.0629
547.9538, 413.1949
548.4359, 411.8629
548.9180, 410.6914
549.4001, 409.7256
549.8823, 408.9453
550.3644, 408.3501
550.8465, 408.1076
551.3286, 407.7182
551.8107, 406.9797
552.2928, 405.9677
552.7750, 405.3210
553.2571, 405.1192
553.7392, 404.8797
554.2213, 404.1854
554.7034, 403.1434
555.1855, 402.4083
555.6677, 402.0489
556.1498, 401.6933
556.6319, 400.8358
557.1140, 399.7054
557.5961, 398.8138
558.0782, 398.4688
558.5604, 398.1244
559.0425, 397.2591
559.5246, 396.0609
560.0067, 394.9525
560.4888, 394.2786
560.9709, 393.5865
561.4531, 392.5544
561.9352, 391.1735
562.4173, 390.1702
562.8994, 389.9416
563.3815, 389.8799
563.8636, 389.7284
564.3458, 389.6129
564.8279, 389.0052
565.3100, 387.5997
565.7921, 386.0829
566.2742, 385.4673
566.7563, 385.8624
567.2385, 386.0319
567.7206, 385.6152
568.2027, 384.9507
568.6848, 384.9752
569.1669, 385.5648
569.6490, 385.7859
570.1312, 383.3538
570.6133, 384.1683
571.0954, 384.5468
571.5775, 384.5130
572.0596, 382.8316
572.5417, 383.2777
573.0239, 382.8711
573.5060, 382.4297
573.9881, 383.1753
574.4702, 381.7334
574.9523, 382.4602
575.4344, 382.3213
575.9166, 382.5786
576.3987, 381.9779
576.8808, 381.6423
577.3629, 382.1649
577.8450, 382.2122
578.3271, 381.5129
578.8093, 381.7953
579.2914, 382.3080
579.7735, 382.6799
580.2556, 382.3148
580.7377, 382.1967
581.2198, 382.3406
581.7020, 382.5206
582.1841, 382.4674
582.6662, 382.3100
583.1483, 382.4190
583.6304, 382.8904
584.1125, 383.3526
584.5947, 383.5919
585.0768, 383.5870
585.5589, 383.3001
586.0410, 382.4499
586.5231, 381.6357
587.0052, 381.0539
587.4873, 380.7082
587.9694, 380.6053
588.4515, 381.0771
588.9337, 381.4611
589.4158, 381.5357
589.8979, 381.2999
590.3800, 381.1431
590.8621, 381.0831
591.3442, 381.0610
591.8264, 381.0558
592.3085, 381.0667
592.7906, 380.9286
593.2727, 380.5526
593.7548, 380.3544
594.2369, 381.2547
594.7191, 381.7192
595.2012, 381.7712
595.6833, 380.1756
596.1654, 380.7076
596.6475, 380.3870
597.1296, 380.0314
597.6118, 380.8629
598.0939, 379.5069
598.5760, 380.3195
599.0581, 380.2665
599.5402, 380.6096
600.0223, 380.0949
600.5045, 379.8451
600.9866, 378.7472
601.4687, 378.3013
601.9508, 377.5008
602.4329, 377.0303
602.9150, 377.1779
603.3972, 377.2597
603.8793, 376.4572
604.3614, 374.6166
604.8435, 373.5036
605.3256, 373.4249
605.8077, 373.9044
606.2899, 374.4682
606.7720, 375.0172
607.2541, 375.0455
607.7362, 374.0238
608.2183, 372.7415
608.7004, 372.1206
609.1826, 372.0371
609.6647, 372.0832
610.1468, 372.0617
610.6289, 372.1015
611.1110, 372.3838
611.5931, 372.9370
612.0753, 373.2103
612.5574, 372.6793
613.0395, 372.1744
613.5216, 372.2600
614.0037, 373.5223
614.4858, 373.7685
614.9680, 372.5244
615.4501, 370.9000
615.9322, 370.3372
616.4143, 370.9036
616.8964, 371.1552
617.3785, 370.7181
617.8607, 370.0331
618.3428, 369.8758
618.8249, 370.1505
619.3070, 370.4621
619.7891, 370.8300
620.2712, 371.0051
620.7534, 370.4650
621.2355, 369.4111
621.7176, 368.7874
622.1997, 369.5830
622.6818, 370.5175
623.1639, 370.8568
623.6461, 370.4664
624.1282, 370.0135
624.6103, 369.5043
625.0924, 369.0050
625.5745, 368.5064
626.0566, 367.8287
626.5388, 367.7215
627.0209, 368.4170
627.5030, 369.3033
627.9851, 369.4826
628.4672, 368.9850
628.9493, 368.5362
629.4315, 368.3114
629.9136, 368.1948
630.3957, 368.0151
630.8778, 367.7980
631.3599, 367.6245
631.8420, 367.5573
632.3242, 367.5362
632.8063, 367.3737
633.2884, 367.1635
633.7705, 367.3830
634.2526, 369.3169
634.7347, 370.7649
635.2169, 370.3155
635.6990, 367.4330
636.1811, 365.7687
636.6632, 365.9469
637.1453, 366.5511
637.6274, 366.5546
638.1096, 365.8419
638.5917, 365.3168
639.0738, 363.6436
639.5559, 364.5148
640.0380, 364.9502
640.5201, 364.9731
641.0023, 363.3483
641.4844, 363.8512
641.9665, 363.5014
642.4486, 363.1167
642.9307, 363.9190
643.4128, 362.5339
643.8950, 363.3174
644.3771, 363.2352
644.8592, 363.5493
645.3413, 363.0053
645.8234, 363.4377
646.3055, 363.7992
646.7877, 364.1719
647.2698, 364.5046
647.7519, 364.8093
648.2340, 364.6977
648.7161, 364.0153
649.1982, 363.3344
649.6804, 363.0400
650.1625, 363.1151
650.6446, 363.5481
651.1267, 364.3945
651.6088, 365.1066
652.0909, 364.8560
652.5731, 364.1251
653.0552, 363.8186
653.5373, 364.3480
654.0194, 364.8756
654.5015, 364.7057
654.9836, 364.2628
655.4658, 364.1676
655.9479, 364.7195
656.4300, 365.4869
656.9121, 366.9586
657.3942, 368.5734
657.8763, 368.5626
658.3585, 365.9217
658.8406, 364.0231
659.3227, 364.1322
659.8048, 365.8282
660.2869, 367.0033
660.7690, 367.6379
661.2512, 368.0606
661.7333, 368.5817
662.2154, 368.9920
662.6975, 368.7606
663.1796, 367.8848
663.6617, 366.9944
664.1439, 366.3542
664.6260, 365.9991
665.1081, 366.0013
665.5902, 366.4566
666.0723, 366.9998
666.5544, 368.0390
667.0366, 368.8481
667.5187, 368.7176
668.0008, 366.9108
668.4829, 365.7490
668.9650, 365.5468
669.4471, 365.8464
669.9293, 365.9386
670.4114, 365.8225
670.8935, 365.7655
671.3756, 365.8795
671.8577, 366.0214
672.3398, 365.8413
672.8220, 365.4583
673.3041, 365.2890
673.7862, 365.5897
674.2683, 366.1246
674.7504, 367.0031
675.2325, 368.0625
675.7147, 368.5293
676.1968, 367.4073
676.6789, 366.3459
677.1610, 366.2055
677.6431, 367.0427
678.1252, 367.3505
678.6074, 366.8219
679.0895, 366.3356
679.5716, 366.5400
680.0537, 367.4379
680.5358, 368.1201
681.0179, 368.5771
681.5001, 368.7650
681.9822, 368.4750
682.4643, 367.9081
682.9464, 367.4668
683.4285, 367.2181
683.9106, 367.1031
684.3928, 367.1849
684.8749, 367.3320
685.3570, 367.3869
685.8391, 367.4145
686.3212, 367.2216
686.8033, 366.4091
687.2855, 365.4768
687.7676, 365.2532
688.2497, 365.9926
688.7318, 366.8423
689.2139, 367.7248
689.6960, 368.5433
690.1782, 368.9171
690.6603, 368.8731
691.1424, 368.8951
691.6245, 369.3432
692.1066, 369.9048
692.5887, 369.9807
693.0709, 369.6932
693.5530, 369.5772
694.0351, 370.1354
694.5172, 370.7818
694.9993, 371.1633
695.4814, 371.2481
695.9636, 371.2427
696.4457, 370.8166
696.9278, 370.6585
697.4099, 371.2427
697.8920, 372.7905
698.3741, 373.4915
698.8563, 373.1642
699.3384, 372.5463
699.8205, 372.0744
700.3026, 371.8328
700.7847, 372.3883
701.2668, 373.9117
701.7490, 375.3918
702.2311, 375.9493
702.7132, 375.8347
703.1953, 375.3276
703.6774, 374.2446
704.1595, 373.3234
704.6417, 372.7648
705.1238, 372.5535
705.6059, 372.7042
706.0880, 373.5285
706.5701, 374.1542
707.0522, 374.3723
707.5344, 374.4423
708.0165, 375.0762
708.4986, 376.3448
708.9807, 377.0036
709.4628, 376.4941
709.9449, 375.3959
710.4271, 374.6764
710.9092, 374.2973
711.3913, 374.0902
711.8734, 374.2328
712.3555, 374.2975
712.8376, 373.8238
713.3198, 372.9466
713.8019, 372.3566
714.2840, 372.3563
714.7661, 372.5699
715.2482, 372.9170
715.7303, 373.3889
716.2125, 373.7840
716.6946, 374.1680
717.1767, 374.3039
717.6588, 373.8374
718.1409, 372.9056
718.6230, 372.7567
719.1052, 373.4106
719.5873, 373.9694
720.0694, 373.4977
720.5515, 372.6158
721.0336, 372.0768
721.5157, 371.9856
721.9979, 372.1789
722.4800, 373.0375
722.9621, 373.8576
723.4442, 374.0115
723.9263, 372.8903
724.4084, 372.3463
724.8906, 372.7183
725.3727, 373.2594
725.8548, 373.0865
726.3369, 372.1188
726.8190, 371.6860
727.3011, 372.0312
727.7833, 372.6195
728.2654, 372.6819
728.7475, 372.4508
729.2296, 372.5257
729.7117, 373.2697
730.1938, 373.9500
730.6760, 374.1292
731.1581, 373.9016
731.6402, 373.4166
732.1223, 372.1740
732.6044, 371.3534
733.0865, 371.1964
733.5687, 371.5255
734.0508, 372.0820
734.5329, 373.0251
735.0150, 373.5002
735.4971, 373.1166
735.9792, 372.3306
736.4614, 372.2596
736.9435, 372.7650
737.4256, 373.1301
737.9077, 372.9029
738.3898, 372.4467
738.8719, 371.8271
739.3541, 371.2053
739.8362, 371.1651
740.3183, 372.6317
740.8004, 373.9991
741.2825, 374.5929
741.7646, 374.4952
742.2468, 374.3496
742.7289, 374.1414
743.2110, 373.9144
743.6931, 373.6609
744.1752, 373.4014
744.6573, 373.2076
745.1395, 373.0861
745.6216, 373.1919
746.1037, 373.8675
746.5858, 374.7069
747.0679, 375.1313
747.5500, 375.1369
748.0322, 375.2561
748.5143, 376.0695
748.9964, 376.8057
749.4785, 376.9384
749.9606, 376.2952
750.4427, 375.7672
750.9249, 375.2950
751.4070, 375.0190
751.8891, 375.1263
752.3712, 375.6089
752.8533, 375.8429
753.3354, 375.7792
753.8176, 375.8069
754.2997, 376.5015
754.7818, 377.4499
755.2639, 377.9603
755.7460, 377.8524
756.2281, 377.7797
756.7103, 378.1567
757.1924, 378.6823
757.6745, 379.0961
758.1566, 379.3183
758.6387, 379.5277
759.1208, 379.7550
759.6030, 379.9305
760.0851, 379.9288
760.5672, 379.7359
761.0493, 379.6690
761.5314, 379.7308
762.0135, 380.0419
762.4957, 381.1266
762.9778, 382.4832
763.4599, 383.0988
763.9420, 382.4204
764.4241, 381.6887
764.9063, 381.3318
765.3884, 381.4108
765.8705, 382.0182
766.3526, 384.1873
766.8347, 385.3187
767.3168, 384.7234
767.7990, 383.5899
768.2811, 383.9264
768.7632, 385.8327
769.2453, 387.1333
769.7274, 387.2881
770.2095, 386.9101
770.6917, 386.8312
771.1738, 386.8813
771.6559, 386.6634
772.1380, 385.7899
772.6201, 384.9588
773.1022, 384.6526
773.5844, 384.6188
774.0665, 384.4050
774.5486, 383.5308
775.0307, 383.1360
775.5128, 383.6221
775.9949, 384.4977
776.4771, 384.6036
776.9592, 383.9162
777.4413, 383.2470
777.9234, 382.7784
778.4055, 382.5370
778.8876, 382.6750
779.3698, 383.0779
779.8519, 383.4494
780.3340, 383.5680
780.8161, 383.7110
781.2982, 384.1382
781.7803, 384.6875
782.2625, 384.8813
782.7446, 384.1970
783.2267, 383.9939
783.7088, 384.7206
784.1909, 386.0031
784.6730, 386.8134
785.1552, 387.1568
785.6373, 387.2355
786.1194, 386.9678
786.6015, 386.6563
787.0836, 386.8760
787.5657, 387.4303
788.0479, 387.7730
788.5300, 387.4383
789.0121, 387.0449
789.4942, 386.8006
789.9763, 386.7113
790.4584, 386.7538
790.9406, 386.8780
791.4227, 387.2570
791.9048, 388.1159
792.3869, 389.1631
792.8690, 389.2025
793.3511, 388.3234
793.8333, 387.9060
794.3154, 389.1093
794.7975, 390.6860
795.2796, 390.9667
795.7617, 390.3153
796.2438, 389.8746
796.7260, 390.5746
797.2081, 391.0974
797.6902, 390.6793
798.1723, 389.6313
798.6544, 389.1590
799.1365, 389.3559
799.6187, 389.9453
800.1008, 391.0674
800.5829, 392.3734
801.0650, 392.5202
801.5471, 391.7173
802.0292, 391.3395
802.5114, 392.7621
802.9935, 394.4330
803.4756, 394.7408
803.9577, 394.0593
804.4398, 393.6559
804.9219, 394.0987
805.4041, 394.6646
805.8862, 395.1496
806.3683, 395.5809
806.8504, 396.1095
807.3325, 396.7818
807.8146, 397.3310
808.2968, 397.6473
808.7789, 397.7923
809.2610, 397.8624
809.7431, 397.8741
810.2252, 397.8916
810.7073, 397.8286
811.1895, 397.8992
811.6716, 398.3618
812.1537, 399.0956
812.6358, 399.6491
813.1179, 399.9225
813.6000, 400.0391
814.0822, 399.8843
814.5643, 399.6334
815.0464, 400.0346
815.5285, 401.1004
816.0106, 402.0323
816.4927, 402.3831
816.9749, 402.5417
817.4570, 403.1857
817.9391, 404.1338
818.4212, 404.8838
818.9033, 405.2666
819.3854, 405.3278
819.8676, 404.6419
820.3497, 403.6174
820.8318, 403.6307
821.3139, 405.1279
821.7960, 406.6029
822.2781, 407.6853
822.7603, 408.5133
823.2424, 409.6375
823.7245, 410.9494
824.2066, 411.6831
824.6887, 410.9987
825.1708, 410.2855
825.6530, 411.2145
826.1351, 413.0682
826.6172, 414.2182
827.0993, 413.5273
827.5814, 412.9211
828.0635, 412.6904
828.5457, 412.8271
829.0278, 413.4510
829.5099, 414.6904
829.9920, 415.5116
830.4741, 415.5311
830.9562, 415.2758
831.4384, 415.5031
831.9205, 416.1400
832.4026, 417.0058
832.8847, 418.1726
833.3668, 419.3620
833.8489, 420.5213
834.3311, 421.5819
834.8132, 422.4233
835.2953, 423.0969
835.7774, 423.4237
836.2595, 423.2506
836.7416, 422.8817
837.2238, 422.7286
837.7059, 422.8000
838.1880, 423.2657
838.6701, 424.3026
839.1522, 425.3104
839.6343, 425.4517
840.1165, 425.2535
840.5986, 425.4903
841.0807, 426.8075
841.5628, 427.8485
842.0449, 428.0273
842.5270, 428.0260
843.0092, 428.6367
843.4913, 430.0802
843.9734, 430.7894
844.4555, 430.4872
844.9376, 429.9605
845.4197, 430.1035
845.9019, 430.7297
846.3840, 431.5037
846.8661, 432.4140
847.3482, 433.2230
847.8303, 433.7147
848.3124, 434.0968
848.7946, 434.5840
849.2767, 435.3460
849.7588, 435.7710
850.2409, 435.7448
850.7230, 435.5927
851.2051, 435.5114
851.6873, 435.5262
852.1694, 435.8291
852.6515, 436.4333
853.1336, 437.2354
853.6157, 438.4213
854.0978, 439.5911
854.5800, 440.3189
855.0621, 440.5025
855.5442, 440.7019
856.0263, 441.1267
856.5084, 441.4944
856.9905, 441.6923
857.4727, 441.7252
857.9548, 441.4642
858.4369, 440.8754
858.9190, 440.4201
859.4011, 440.4077
859.8832, 440.7455
860.3654, 441.3983
860.8475, 442.3198
861.3296, 443.1660
861.8117, 443.8067
862.2938, 444.3169
862.7759, 444.7043
863.2581, 444.9825
863.7402, 445.2422
864.2223, 445.4777
864.7044, 445.6938
865.1865, 445.8826
865.6686, 446.0544
866.1508, 446.1732
866.6329, 446.2776
867.1150, 446.5406
867.5971, 447.1411
868.0792, 447.8356
868.5613, 448.6020
869.0435, 449.3535
869.5256, 449.7782
870.0077, 449.5764
870.4898, 449.5705
870.9719, 449.9356
871.4540, 450.5595
871.9362, 451.3002
872.4183, 452.1222
872.9004, 452.7040
873.3825, 452.8597
873.8646, 452.9334
874.3467, 453.2779
874.8289, 453.7574
875.3110, 454.1606
875.7931, 454.6728
876.2752, 454.7180
876.7573, 453.8163
877.2394, 452.8504
877.7216, 453.0455
878.2037, 454.4937
878.6858, 455.4164
879.1679, 455.5522
879.6500, 455.4266
880.1321, 455.3447
880.6143, 455.4831
881.0964, 456.2514
881.5785, 457.9390
882.0606, 459.2450
882.5427, 459.3398
883.0248, 459.1846
883.5070, 459.4496
883.9891, 460.2211
884.4712, 460.8980
884.9533, 461.4670
885.4354, 461.9667
885.9175, 462.3351
886.3997, 462.6786
886.8818, 463.2830
887.3639, 464.1280
887.8460, 464.8568
888.3281, 465.0951
888.8102, 465.3102
889.2924, 465.8550
889.7745, 466.6938
890.2566, 467.1892
890.7387, 467.2980
891.2208, 467.1651
891.7029, 466.6922
892.1851, 466.1299
892.6672, 466.2103
893.1493, 466.8141
893.6314, 467.4116
894.1135, 467.7928
894.5956, 468.0423
895.0778, 468.0416
895.5599, 467.9588
896.0420, 468.2466
896.5241, 469.1802
897.0062, 469.9427
897.4883, 470.3806
897.9705, 470.6132
898.4526, 470.7833
898.9347, 470.9194
899.4168, 471.1302
899.8989, 471.4181
900.3810, 471.8755
900.8632, 472.8080
901.3453, 473.8430
901.8274, 474.5556
902.3095, 474.5754
902.7916, 474.7740
903.2737, 475.2712
903.7559, 475.7747
904.2380, 476.0096
904.7201, 475.9975
905.2022, 475.9185
905.6843, 475.7801
906.1664, 475.6697
906.6486, 475.6291
907.1307, 475.6717
907.6128, 475.7036
908.0949, 475.6973
908.5770, 476.3068
909.0591, 478.2813
909.5413, 479.9404
910.0234, 480.4571
910.5055, 480.0670
910.9876, 480.3859
911.4697, 481.3580
911.9518, 481.8881
912.4340, 480.6980
912.9161, 479.2951
913.3982, 479.3300
913.8803, 480.4075
914.3624, 481.4294
914.8445, 482.3359
915.3267, 482.7713
915.8088, 482.2700
916.2909, 481.5670
916.7730, 482.4078
917.2551, 484.7482
917.7372, 486.5250
918.2194, 487.2269
918.7015, 487.3974
919.1836, 487.2368
919.6657, 487.0725
920.1478, 487.4072
920.6299, 488.7309
921.1121, 489.7308
921.5942, 489.9593
922.0763, 490.1232
922.5584, 490.8438
923.0405, 492.1484
923.5226, 493.2268
924.0048, 494.0471
924.4869, 494.7444
924.9690, 495.4518
925.4511, 496.0871
925.9332, 496.5146
926.4153, 496.7346
926.8975, 496.9395
927.3796, 497.2665
927.8617, 497.4633
928.3438, 497.3426
928.8259, 497.0212
929.3080, 497.1778
929.7902, 497.8027
930.2723, 498.4198
930.7544, 498.8167
931.2365, 499.1017
931.7186, 499.4586
932.2007, 499.7889
932.6829, 499.8865
933.1650, 499.6558
933.6471, 499.2125
934.1292, 498.3882
934.6113, 497.5559
935.0934, 497.3214
935.5756, 497.6776
936.0577, 497.9777
936.5398, 498.1508
937.0219, 498.1260
937.5040, 497.5278
937.9861, 496.8504
938.4683, 496.7640
938.9504, 497.5294
939.4325, 498.0432
939.9146, 498.0105
940.3967, 497.8292
940.8788, 497.6877
941.3610, 497.5791
941.8431, 497.3698
942.3252, 497.0648
942.8073, 496.8825
943.2894, 497.2022
943.7715, 497.5138
944.2537, 497.0585
944.7358, 496.1457
945.2179, 495.9334
945.7000, 497.3513
946.1821, 498.5815
946.6642, 499.3791
947.1464, 499.7887
947.6285, 499.7332
948.1106, 499.2997
948.5927, 499.2067
949.0748, 499.7605
949.5569, 500.2849
950.0391, 499.8559
950.5212, 499.2240
951.0033, 499.3242
951.4854, 500.9245
951.9675, 501.7778
952.4496, 501.5826
952.9318, 501.1071
953.4139, 500.8227
953.8960, 500.7469
954.3781, 501.1425
954.8602, 501.9703
955.3423, 502.6447
955.8245, 502.5237
956.3066, 502.3257
956.7887, 502.6508
957.2708, 503.4264
957.7529, 503.8498
958.2350, 503.6564
958.7172, 503.7284
959.1993, 504.4630
959.6814, 505.4025
960.1635, 503.8105
960.6456, 505.4248
961.1277, 506.5204
961.6099, 507.1254
962.0920, 505.7694
962.5741, 506.9454
963.0562, 507.1067
963.5383, 507.2264
964.0204, 508.7587
964.5026, 507.6880
964.9847, 509.1980
965.4668, 509.6777
965.9489, 510.6290
966.4310, 510.5593
966.9131, 511.8603
967.3953, 513.0108
967.8774, 513.8353
968.3595, 513.4218
968.8416, 513.4997
969.3237, 515.4294
969.8058, 518.5961
970.2880, 520.0389
970.7701, 519.5580
971.2522, 519.0878
971.7343, 519.2208
972.2164, 519.7869
972.6985, 520.7037
973.1807, 521.8430
973.6628, 522.9612
974.1449, 524.1564
974.6270, 525.0461
975.1091, 525.2444
975.5912, 525.4130
976.0734, 526.3210
976.5555, 527.9954
977.0376, 528.8392
977.5197, 528.7224
978.0018, 528.7551
978.4839, 530.0071
978.9661, 531.7582
979.4482, 533.5353
979.9303, 535.2575
980.4124, 536.2205
980.8945, 535.6779
981.3766, 535.4646
981.8588, 536.2654
982.3409, 537.6314
982.8230, 538.2023
983.3051, 538.1395
983.7872, 538.3376
984.2693, 539.2944
984.7515, 540.2394
985.2336, 540.3996
985.7157, 540.3251
986.1978, 540.7924
986.6799, 542.3380
987.1620, 543.1860
987.6442, 543.1104
988.1263, 542.9583
988.6084, 543.7252
989.0905, 544.9478
989.5726, 545.3377
990.0547, 544.9217
990.5369, 544.6537
991.0190, 545.3787
991.5011, 546.0200
991.9832, 545.9951
992.4653, 545.4794
992.9474, 544.9634
993.4296, 544.4144
993.9117, 544.3154
994.3938, 545.0234
994.8759, 545.7714
995.3580, 545.5389
995.8401, 544.6370
996.3223, 543.4758
996.8044, 541.6863
997.2865, 540.7435
997.7686, 541.4255
998.2507, 542.2651
998.7328, 542.1204
999.2150, 541.0381
999.6971, 539.9139
1000.179, 538.7899
1000.661, 538.0284
1001.143, 537.9849
1001.626, 538.3256
1002.108, 539.2646
1002.590, 540.4680
1003.072, 540.3326
1003.554, 538.1545
1004.036, 536.2419
1004.518, 535.1179
1005.000, 534.3902
1005.482, 533.3860
1005.965, 532.2532
1006.447, 531.5233
1006.929, 531.5153
1007.411, 531.1022
1007.893, 529.1396
1008.375, 527.0258
1008.857, 525.8065
1009.339, 525.5370
1009.822, 525.3815
1010.304, 525.3730
1010.786, 525.1274
1011.268, 524.3679
1011.750, 523.2698
1012.232, 521.8596
1012.714, 520.2823
1013.196, 518.9354
1013.678, 518.3428
1014.161, 517.4096
1014.643, 515.8624
1015.125, 514.0771
1015.607, 512.5175
1016.089, 511.2010
1016.571, 510.2783
1017.053, 509.8131
1017.535, 509.3651
1018.018, 508.6727
1018.500, 507.8133
1018.982, 506.7815
1019.464, 505.5805
1019.946, 504.5799
1020.428, 503.8930
1020.910, 502.9907
1021.392, 501.5274
1021.874, 499.8360
1022.357, 498.5254
1022.839, 497.5151
1023.321, 496.6351
1023.803, 495.8185
1024.285, 495.1244
1024.767, 494.6966
1025.249, 494.2715
1025.731, 493.6317
1026.214, 492.7738
1026.696, 491.6031
1027.178, 490.0989
1027.660, 488.7382
1028.142, 487.9234
1028.624, 487.3806
1029.106, 487.0226
1029.588, 486.7782
1030.070, 486.1454
1030.553, 484.7986
1031.035, 483.7989
1031.517, 483.4624
1031.999, 483.4961
1032.481, 483.6407
1032.963, 483.6945
1033.445, 483.0100
1033.927, 481.1345
1034.410, 479.5908
1034.892, 479.2843
1035.374, 479.3824
1035.856, 479.3549
1036.338, 479.2005
1036.820, 478.8517
1037.302, 478.3072
1037.784, 477.9524
1038.266, 478.4835
1038.749, 478.9417
1039.231, 477.8475
1039.713, 475.9615
1040.195, 475.2045
1040.677, 477.3481
1041.159, 477.9709
1041.641, 476.2667
1042.123, 473.8199
1042.605, 472.5165
1043.088, 472.0349
1043.570, 471.4500
1044.052, 470.6642
1044.534, 470.1841
1045.016, 470.6895
1045.498, 471.1581
1045.980, 470.9848
1046.462, 470.3348
1046.945, 470.0147
1047.427, 470.0417
1047.909, 469.8660
1048.391, 469.2094
1048.873, 468.5255
1049.355, 468.4080
1049.837, 468.5150
1050.319, 468.3336
1050.802, 467.3785
1051.284, 467.1847
1051.766, 468.1560
1052.248, 469.0123
1052.730, 468.5427
1053.212, 467.2772
1053.694, 467.0182
1054.176, 467.5502
1054.658, 467.8646
1055.141, 466.9370
1055.623, 466.3188
1056.105, 466.8392
1056.587, 467.8317
1057.069, 468.2881
1057.551, 468.1861
1058.033, 468.3539
1058.515, 468.9368
1058.997, 469.4110
1059.480, 469.2283
1059.962, 468.7753
1060.444, 468.3692
1060.926, 468.0501
1061.408, 467.8076
1061.890, 467.6628
1062.372, 467.5468
1062.854, 467.4529
1063.337, 467.3568
1063.819, 467.1431
1064.301, 466.9040
1064.783, 466.8592
1065.265, 467.1568
1065.747, 467.4481
1066.229, 467.6917
1066.711, 467.8315
1067.193, 467.8017
1067.676, 467.6103
1068.158, 467.4297
1068.640, 467.2599
1069.122, 467.1334
1069.604, 466.9457
1070.086, 466.1237
1070.568, 467.0384
1071.050, 467.5171
1071.532, 467.5835
1072.015, 466.0020
1072.497, 466.5483
1072.979, 466.2420
1073.461, 465.9006
1073.943, 466.7464
1074.425, 465.4048
1074.907, 466.2317
1075.389, 466.1929
1075.872, 466.5503
1076.354, 466.0498
1076.836, 465.8143
1077.318, 466.4370
1077.800, 466.5845
1078.282, 465.9854
1078.764, 466.5385
1079.246, 467.1660
1079.729, 467.0995
1080.211, 466.9209
1080.693, 466.8911
1081.175, 466.9146
1081.657, 466.8841
1082.139, 466.7984
1082.621, 466.9986
1083.103, 467.4926
1083.585, 467.9664
1084.068, 468.4109
1084.550, 468.5913
1085.032, 467.9049
1085.514, 466.8951
1085.996, 466.6129
1086.478, 467.7197
1086.960, 468.3240
1087.442, 468.3096
1087.924, 467.9744
1088.406, 467.2358
1088.889, 466.5298
1089.371, 466.9249
1089.853, 468.2562
1090.335, 469.1921
1090.817, 468.8339
1091.299, 468.5411
1091.781, 468.6545
1092.263, 468.9873
1092.746, 469.1643
1093.228, 469.2448
1093.710, 469.6096
1094.192, 470.3780
1094.674, 470.8717
1095.156, 470.1520
1095.638, 469.4457
1096.120, 469.6104
1096.603, 470.5367
1097.085, 471.7162
1097.567, 473.1796
1098.049, 473.8516
1098.531, 472.9253
1099.013, 471.9209
1099.495, 472.6665
1099.977, 474.1795
1100.459, 475.1870
1100.942, 475.2804
1101.424, 475.5832
1101.906, 476.2189
1102.388, 476.6751
1102.870, 476.5705
1103.352, 476.0964
1103.834, 475.3947
1104.316, 474.6323
1104.798, 474.2943
1105.281, 474.9825
1105.763, 475.4968
1106.245, 475.6128
1106.727, 475.6055
1107.209, 475.7658
1107.691, 476.0648
1108.173, 476.3780
1108.655, 476.7012
1109.138, 477.0414
1109.620, 477.6693
1110.102, 478.0194
1110.584, 477.5844
1111.066, 476.8062
1111.548, 476.7093
1112.030, 477.2723
1112.512, 477.3957
1112.995, 476.7820
1113.477, 476.3768
1113.959, 477.5077
1114.441, 478.8146
1114.923, 479.0453
1115.405, 478.1673
1115.887, 477.2640
1116.369, 476.2330
1116.851, 475.7533
1117.333, 476.2186
1117.816, 477.0235
1118.298, 477.5432
1118.780, 477.8066
1119.262, 477.8891
1119.744, 477.9211
1120.226, 477.2409
1120.708, 475.4150
1121.190, 473.9442
1121.673, 473.9046
1122.155, 474.7289
1122.637, 475.1526
1123.119, 475.2811
1123.601, 475.4037
1124.083, 475.9624
1124.565, 476.0236
1125.047, 475.2542
1125.530, 474.2394
1126.012, 473.3894
1126.494, 472.7411
1126.976, 472.6700
1127.458, 473.1025
1127.940, 473.3518
1128.422, 472.6328
1128.904, 472.0901
1129.386, 472.4581
1129.869, 473.1733
1130.351, 473.2926
1130.833, 472.8295
1131.315, 472.8157
1131.797, 473.4031
1132.279, 473.8091
1132.761, 473.3881
1133.243, 472.5767
1133.725, 471.3696
1134.208, 470.0082
1134.690, 469.6274
1135.172, 470.3920
1135.654, 470.9245
1136.136, 470.9174
1136.618, 470.5401
1137.100, 469.6436
1137.582, 468.6971
1138.065, 468.2785
1138.547, 468.5595
1139.029, 468.6388
1139.511, 468.4391
1139.993, 468.2904
1140.475, 468.3751
1140.957, 468.4971
1141.439, 468.2430
1141.922, 467.8345
1142.404, 467.6729
1142.886, 468.0055
1143.368, 468.1674
1143.850, 468.0408
1144.332, 467.8818
1144.814, 467.8799
1145.296, 467.9408
1145.778, 467.7592
1146.260, 467.4307
1146.743, 467.2299
1147.225, 467.8275
1147.707, 467.7055
1148.189, 466.1756
1148.671, 464.5543
1149.153, 464.1915
1149.635, 464.7708
1150.117, 464.6339
1150.600, 463.8668
1151.082, 463.3350
1151.564, 464.0226
1152.046, 464.3603
1152.528, 463.4309
1153.010, 462.1475
1153.492, 461.8520
1153.974, 462.4323
1154.457, 462.5647
1154.939, 462.1372
1155.421, 461.5982
1155.903, 460.8968
1156.385, 460.5219
1156.867, 461.1561
1157.349, 462.2262
1157.831, 462.2986
1158.313, 461.3466
1158.796, 461.0974
1159.278, 461.9434
1159.760, 462.5980
1160.242, 461.2976
1160.724, 459.9048
1161.206, 460.2410
1161.688, 462.0534
1162.170, 463.0241
1162.652, 463.0944
1163.135, 462.9863
1163.617, 462.8433
1164.099, 462.7868
1164.581, 462.9994
1165.063, 463.3281
1165.545, 463.6567
1166.027, 463.9822
1166.509, 463.9860
1166.992, 463.5670
1167.474, 463.3964
1167.956, 463.8513
1168.438, 464.4899
1168.920, 465.0508
1169.402, 465.2894
1169.884, 464.7101
1170.366, 462.6584
1170.849, 461.7934
1171.331, 462.3962
1171.813, 463.2303
1172.295, 463.7172
1172.777, 463.9102
1173.259, 463.8351
1173.741, 463.5521
1174.223, 463.1654
1174.705, 462.2493
1175.188, 462.1603
1175.670, 463.2246
1176.152, 464.2856
1176.634, 464.4892
1177.116, 464.0772
1177.598, 463.2567
1178.080, 462.2330
1178.562, 461.6073
1179.044, 461.9469
1179.527, 462.1466
1180.009, 462.1495
1180.491, 461.9326
1180.973, 461.2369
1181.455, 460.3905
1181.937, 460.3127
1182.419, 460.8698
1182.901, 461.2426
1183.384, 460.9551
1183.866, 460.6972
1184.348, 460.6002
1184.830, 460.5546
1185.312, 460.3724
1185.794, 460.1432
1186.276, 460.2003
1186.758, 460.5198
1187.240, 460.5926
1187.723, 459.3452
1188.205, 459.0713
1188.687, 460.7813
1189.169, 463.0375
1189.651, 463.3783
1190.133, 462.3040
1190.615, 461.1314
1191.097, 460.0283
1191.579, 459.5709
1192.062, 460.7570
1192.544, 461.7166
1193.026, 461.8335
1193.508, 461.3717
1193.990, 460.6561
1194.472, 459.8555
1194.954, 459.7292
1195.436, 460.5290
1195.919, 460.9366
1196.401, 459.9105
1196.883, 458.8615
1197.365, 458.2505
1197.847, 458.1204
1198.329, 458.9850
1198.811, 460.4781
1199.293, 461.0823
1199.776, 460.2263
1200.258, 459.3910
1200.740, 459.1122
1201.222, 459.2231
1201.704, 459.8297
1202.186, 460.6703
1202.668, 460.5475
1203.150, 459.6944
1203.632, 459.0229
1204.115, 458.7739
1204.597, 458.8836
1205.079, 459.7474
1205.561, 460.5474
1206.043, 460.7686
1206.525, 460.5295
1207.007, 460.4070
1207.489, 460.3613
1207.971, 460.1976
1208.454, 459.7853
1208.936, 459.3531
1209.418, 458.8204
1209.900, 458.4784
1210.382, 458.5497
1210.864, 458.9872
1211.346, 459.5813
1211.828, 460.2766
1212.311, 460.7860
1212.793, 460.9977
1213.275, 460.9796
1213.757, 460.4661
1214.239, 460.0221
1214.721, 460.1647
1215.203, 460.7926
1215.685, 461.1666
1216.167, 461.2951
1216.650, 461.2319
1217.132, 460.7079
1217.614, 460.3940
1218.096, 460.6772
1218.578, 461.0649
1219.060, 461.0857
1219.542, 460.8129
1220.024, 460.7728
1220.506, 460.9324
1220.989, 461.0477
1221.471, 460.8734
1221.953, 460.8177
1222.435, 461.1040
1222.917, 461.4291
1223.399, 461.4655
1223.881, 461.2667
1224.363, 461.0077
1224.846, 460.7362
1225.328, 460.6976
1225.810, 460.4821
1226.292, 461.5454
1226.774, 462.1730
1227.256, 462.3881
1227.738, 460.9556
1228.220, 461.6506
1228.703, 461.4932
1229.185, 461.3006
1229.667, 462.2951
1230.149, 461.1023
1230.631, 462.0779
1231.113, 462.1880
1231.595, 462.6942
1232.077, 462.3425
1232.559, 462.2558
1233.042, 463.0274
1233.524, 463.3237
1234.006, 462.8733
1234.488, 463.4047
1234.970, 462.1818
1235.452, 462.4983
1235.934, 463.4790
1236.416, 463.0717
1236.898, 463.6188
1237.381, 463.8026
1237.863, 462.3343
1238.345, 463.7388
1238.827, 463.9009
1239.309, 462.7873
1239.791, 464.0934
1240.273, 463.1557
1240.755, 463.0190
1241.238, 463.4850
1241.720, 463.3226
1242.202, 464.1508
1242.684, 464.0247
1243.166, 463.8134
1243.648, 463.6298
1244.130, 464.7303
1244.612, 465.3949
1245.094, 465.6471
1245.577, 464.2519
1246.059, 464.9840
1246.541, 464.8635
1247.023, 464.7080
1247.505, 465.7397
1247.987, 464.5839
1248.469, 465.5966
1248.951, 465.7438
1249.433, 466.2871
1249.916, 465.9727
1250.398, 465.9231
1250.880, 466.7317
1251.362, 467.0651
1251.844, 466.6517
1252.326, 467.2202
1252.808, 466.0344
1253.290, 466.3881
1253.773, 467.4061
1254.255, 467.0359
1254.737, 467.6201
1255.219, 467.8408
1255.701, 466.4095
1256.183, 467.8512
1256.665, 468.0504
1257.147, 466.9739
1257.630, 468.3173
1258.112, 467.4167
1258.594, 467.3170
1259.076, 467.8201
1259.558, 469.2925
1260.040, 469.6635
1260.522, 468.4689
1261.004, 467.5625
1261.486, 467.3315
1261.969, 467.5587
1262.451, 468.4178
1262.933, 469.3592
1263.415, 470.1579
1263.897, 470.7097
1264.379, 470.3929
1264.861, 469.3806
1265.343, 469.1175
1265.825, 470.0340
1266.308, 470.7240
1266.790, 469.7858
1267.272, 469.1061
1267.754, 469.8158
1268.236, 471.2201
1268.718, 471.2422
1269.200, 470.3714
1269.682, 470.6218
1270.165, 472.5610
1270.647, 473.7685
1271.129, 472.0841
1271.611, 471.0037
1272.093, 471.9336
1272.575, 473.7090
1273.057, 473.9100
1273.539, 473.1653
1274.021, 472.9239
1274.504, 473.4853
1274.986, 473.7736
1275.468, 473.2990
1275.950, 473.2487
1276.432, 474.2457
1276.914, 475.2528
1277.396, 473.9543
1277.878, 471.9502
1278.360, 472.0041
1278.843, 474.6018
1279.325, 475.9408
1279.807, 475.5931
1280.289, 474.8018
1280.771, 473.7127
1281.253, 472.9330
1281.735, 473.5552
1282.217, 474.6236
1282.700, 475.0292
1283.182, 474.7432
1283.664, 474.7311
1284.146, 475.0007
1284.628, 475.4166
1285.110, 475.9656
1285.592, 476.5440
1286.074, 477.2031
1286.557, 477.7222
1287.039, 477.8515
1287.521, 477.6998
1288.003, 477.6177
1288.485, 477.6077
1288.967, 477.7323
1289.449, 478.0114
1289.931, 478.3772
1290.413, 478.8466
1290.896, 479.3631
1291.378, 480.0690
1291.860, 480.6740
1292.342, 480.3609
1292.824, 479.3139
1293.306, 477.9097
1293.788, 476.1504
1294.270, 475.2564
1294.752, 476.1870
1295.235, 477.6082
1295.717, 479.5094
1296.199, 481.1443
1296.681, 480.9492
1297.163, 479.6490
1297.645, 478.3200
1298.127, 477.1134
1298.609, 476.7490
1299.092, 477.5657
1299.574, 478.2624
1300.056, 478.5357
1300.538, 478.6706
1301.020, 479.0456
1301.502, 479.4852
1301.984, 479.7864
1302.466, 479.9362
1302.948, 480.1740
1303.431, 480.5714
1303.913, 480.6035
1304.395, 480.2472
1304.877, 479.2198
##END=



