##NAMES=Ludlamite
##RRUFFID=R090071
##IDEAL CHEMISTRY=Fe^2+^_3_(PO_4_)_2_&#183;4H_2_O
##LOCALITY=Cigana Mine (ex-Jocão Mine), Galiléia, Minas Gerais  Brazil
##OWNER=RRUFF
##SOURCE=Royal Ontario Museum 
##DESCRIPTION=Groups of colorless tabular crystals on reddish-brown reddingite R090069, associated with pink hureaulite R090070.
##STATUS=The identification of this mineral has been confirmed only by single crystal X-ray diffraction.
##URL=rruff.info/R090071
92.07813, 34.21983
92.56024, 31.56182
93.04236, 33.21915
93.52448, 38.20784
94.00659, 42.88848
94.48871, 44.25909
94.97083, 43.71553
95.45294, 45.87763
95.93506, 52.55396
96.41718, 59.50277
96.89929, 57.86687
97.38141, 47.54699
97.86353, 36.74699
98.34564, 32.34584
98.82776, 34.05288
99.30988, 32.90957
99.79199, 25.57300
100.2741, 15.02283
100.7562, 13.94263
101.2383, 25.07041
101.7205, 38.09008
102.2026, 42.89417
102.6847, 36.83789
103.1668, 32.71339
103.6489, 33.85555
104.1310, 40.40862
104.6132, 45.11338
105.0953, 47.48114
105.5774, 48.41576
106.0595, 49.17126
106.5416, 51.10386
107.0237, 50.72699
107.5059, 46.28459
107.9880, 35.33978
108.4701, 27.97759
108.9522, 24.66943
109.4343, 24.81827
109.9164, 27.31617
110.3986, 35.84466
110.8807, 43.59541
111.3628, 48.95408
111.8449, 53.54835
112.3270, 52.92558
112.8091, 41.32099
113.2913, 23.52790
113.7734, 12.89802
114.2555, 16.66165
114.7376, 24.68189
115.2197, 31.64639
115.7018, 38.34924
116.1840, 42.00721
116.6661, 39.78300
117.1482, 32.90394
117.6303, 27.76992
118.1124, 28.87096
118.5945, 31.75424
119.0767, 32.58659
119.5588, 24.47158
120.0409, 18.69521
120.5230, 24.50114
121.0051, 41.14072
121.4872, 53.92401
121.9694, 49.12187
122.4515, 35.86345
122.9336, 26.76663
123.4157, 29.45845
123.8978, 37.34372
124.3799, 45.90119
124.8621, 55.18222
125.3442, 62.22839
125.8263, 61.27305
126.3084, 55.69256
126.7905, 53.74675
127.2726, 61.54094
127.7548, 75.11056
128.2369, 89.91572
128.7190, 106.9405
129.2011, 119.9510
129.6832, 116.8775
130.1653, 100.3793
130.6474, 86.22898
131.1296, 84.10674
131.6117, 91.97914
132.0938, 104.0875
132.5759, 121.9850
133.0580, 140.1173
133.5401, 144.8629
134.0223, 135.8681
134.5044, 127.8549
134.9865, 133.0543
135.4686, 151.1094
135.9507, 165.7522
136.4328, 174.2596
136.9150, 178.3452
137.3971, 182.8954
137.8792, 187.6438
138.3613, 193.9375
138.8434, 202.9792
139.3255, 214.8966
139.8077, 228.7855
140.2898, 245.5473
140.7719, 264.5042
141.2540, 280.6816
141.7361, 293.3331
142.2182, 304.1492
142.7004, 315.0369
143.1825, 327.0318
143.6646, 336.2837
144.1467, 341.3099
144.6288, 341.9194
145.1109, 342.4514
145.5931, 342.8203
146.0752, 343.1833
146.5573, 343.9756
147.0394, 347.1111
147.5215, 347.8641
148.0036, 344.6392
148.4858, 336.2487
148.9679, 328.3392
149.4500, 319.8433
149.9321, 312.1519
150.4142, 307.5178
150.8963, 309.9115
151.3785, 311.5977
151.8606, 309.9938
152.3427, 302.4739
152.8248, 297.7690
153.3069, 294.5569
153.7890, 294.4061
154.2712, 299.3667
154.7533, 313.9346
155.2354, 329.4318
155.7175, 342.7569
156.1996, 353.6068
156.6817, 362.0180
157.1639, 366.4901
157.6460, 368.6203
158.1281, 371.7106
158.6102, 377.3044
159.0923, 383.3976
159.5744, 389.0119
160.0566, 393.5771
160.5387, 398.2172
161.0208, 400.8908
161.5029, 403.3831
161.9850, 411.0191
162.4671, 432.5039
162.9493, 455.6237
163.4314, 471.7630
163.9135, 472.4785
164.3956, 474.3004
164.8777, 484.6299
165.3598, 502.1291
165.8420, 521.4119
166.3241, 541.7992
166.8062, 561.9606
167.2883, 580.6007
167.7704, 595.3610
168.2525, 610.5382
168.7346, 629.0804
169.2168, 650.6396
169.6989, 673.1028
170.1810, 694.6476
170.6631, 716.5317
171.1452, 740.6451
171.6273, 775.9178
172.1095, 806.8336
172.5916, 821.2263
173.0737, 819.6505
173.5558, 807.2532
174.0379, 784.5528
174.5201, 754.0985
175.0022, 719.5455
175.4843, 681.5760
175.9664, 640.2684
176.4485, 593.2096
176.9306, 540.1647
177.4128, 492.6857
177.8949, 463.0463
178.3770, 446.5656
178.8591, 432.2119
179.3412, 414.8302
179.8233, 397.1792
180.3055, 383.6349
180.7876, 374.1422
181.2697, 367.2925
181.7518, 362.0801
182.2339, 358.3871
182.7160, 355.6689
183.1982, 354.1266
183.6803, 353.3680
184.1624, 352.7199
184.6445, 352.2401
185.1266, 351.4813
185.6087, 348.3575
186.0909, 343.7358
186.5730, 342.4309
187.0551, 349.3273
187.5372, 361.4500
188.0193, 368.5207
188.5014, 369.7579
188.9836, 368.7076
189.4657, 368.5711
189.9478, 369.4947
190.4299, 373.3463
190.9120, 381.2740
191.3941, 392.8898
191.8763, 406.8805
192.3584, 423.5506
192.8405, 441.4516
193.3226, 459.4608
193.8047, 477.5029
194.2868, 494.8663
194.7690, 512.1755
195.2511, 529.1423
195.7332, 542.0326
196.2153, 549.6766
196.6974, 555.7057
197.1795, 567.5409
197.6617, 585.9683
198.1438, 600.9761
198.6259, 607.7580
199.1080, 606.3641
199.5901, 600.8826
200.0722, 590.5456
200.5544, 577.4998
201.0365, 566.9590
201.5186, 559.8849
202.0007, 548.9420
202.4828, 528.1225
202.9649, 496.2399
203.4471, 471.5656
203.9292, 455.8874
204.4113, 445.3948
204.8934, 432.2123
205.3755, 415.6173
205.8576, 399.7393
206.3398, 386.4426
206.8219, 375.8653
207.3040, 366.9183
207.7861, 359.7843
208.2682, 354.1742
208.7503, 349.9605
209.2325, 347.7591
209.7146, 345.1463
210.1967, 340.9640
210.6788, 334.9689
211.1609, 328.7032
211.6430, 322.4843
212.1252, 315.7547
212.6073, 306.8274
213.0894, 294.5254
213.5715, 283.1857
214.0536, 275.1374
214.5357, 271.4420
215.0179, 266.7566
215.5000, 260.0400
215.9821, 252.9279
216.4642, 249.4466
216.9463, 251.0455
217.4284, 253.2173
217.9105, 254.1889
218.3927, 253.8883
218.8748, 252.4596
219.3569, 249.2554
219.8390, 245.2841
220.3211, 242.5475
220.8032, 240.8118
221.2854, 240.7585
221.7675, 243.1401
222.2496, 249.2903
222.7317, 253.7202
223.2138, 256.4689
223.6959, 257.4740
224.1781, 256.0522
224.6602, 249.8945
225.1423, 245.4004
225.6244, 245.9995
226.1065, 254.7367
226.5886, 259.1548
227.0708, 256.8952
227.5529, 251.5177
228.0350, 250.6617
228.5171, 256.8581
228.9992, 263.3232
229.4813, 267.2641
229.9635, 267.3632
230.4456, 269.0994
230.9277, 273.2733
231.4098, 278.6507
231.8919, 283.1231
232.3740, 287.1601
232.8562, 289.4517
233.3383, 288.8861
233.8204, 283.6192
234.3025, 281.6366
234.7846, 284.1761
235.2667, 289.3165
235.7489, 293.4349
236.2310, 295.3844
236.7131, 298.2061
237.1952, 303.7424
237.6773, 313.8540
238.1594, 319.0617
238.6416, 315.6939
239.1237, 309.6611
239.6058, 311.2701
240.0879, 326.8626
240.5700, 339.8268
241.0521, 343.9803
241.5343, 336.4629
242.0164, 332.8243
242.4985, 334.9843
242.9806, 339.7009
243.4627, 342.2374
243.9448, 341.5703
244.4270, 340.4859
244.9091, 340.1694
245.3912, 341.3012
245.8733, 339.0162
246.3554, 330.6147
246.8375, 320.9101
247.3197, 316.7307
247.8018, 321.8593
248.2839, 325.6454
248.7660, 324.6263
249.2481, 317.8051
249.7302, 314.1982
250.2124, 315.0602
250.6945, 317.9445
251.1766, 320.0728
251.6587, 320.9497
252.1408, 322.0644
252.6229, 323.8668
253.1051, 326.4467
253.5872, 328.5548
254.0693, 329.8332
254.5514, 331.0788
255.0335, 333.1320
255.5156, 336.1825
255.9978, 339.6248
256.4799, 343.7186
256.9620, 348.4579
257.4441, 351.4328
257.9262, 351.5655
258.4083, 351.3231
258.8904, 353.2499
259.3726, 358.8931
259.8547, 362.8766
260.3368, 364.0283
260.8189, 362.5644
261.3010, 360.6310
261.7831, 357.7104
262.2653, 355.1361
262.7474, 354.5692
263.2295, 357.6897
263.7116, 357.6772
264.1937, 352.2148
264.6758, 342.7232
265.1580, 337.0712
265.6401, 336.1067
266.1222, 337.4802
266.6043, 339.6570
267.0864, 342.5587
267.5685, 347.0302
268.0507, 354.8048
268.5328, 363.8641
269.0149, 365.8174
269.4970, 358.0911
269.9791, 349.4201
270.4612, 345.3466
270.9434, 347.2735
271.4255, 347.2093
271.9076, 344.4088
272.3897, 339.4593
272.8718, 333.8511
273.3539, 327.6641
273.8361, 320.5426
274.3182, 310.8587
274.8003, 297.5541
275.2824, 290.5768
275.7645, 291.6391
276.2466, 297.6464
276.7288, 303.4347
277.2109, 309.3907
277.6930, 313.1776
278.1751, 312.1104
278.6572, 305.7357
279.1393, 304.3815
279.6215, 309.2545
280.1036, 316.8279
280.5857, 321.4288
281.0678, 322.6688
281.5499, 324.6312
282.0320, 329.3947
282.5142, 336.6870
282.9963, 342.6187
283.4784, 347.1704
283.9605, 350.4414
284.4426, 352.4668
284.9247, 353.2421
285.4069, 353.0319
285.8890, 351.6010
286.3711, 349.2276
286.8532, 347.4416
287.3353, 346.4186
287.8174, 344.9927
288.2996, 341.7945
288.7817, 336.9356
289.2638, 331.8182
289.7459, 326.8944
290.2280, 321.9384
290.7101, 315.0952
291.1923, 306.1059
291.6744, 299.2098
292.1565, 300.4346
292.6386, 307.7900
293.1207, 310.8952
293.6028, 306.4648
294.0850, 297.9292
294.5671, 290.2764
295.0492, 283.6081
295.5313, 279.6603
296.0134, 281.7510
296.4955, 287.7415
296.9777, 291.3516
297.4598, 291.2794
297.9419, 289.1416
298.4240, 286.7484
298.9061, 284.1607
299.3882, 281.6286
299.8704, 279.1307
300.3525, 276.8423
300.8346, 274.7055
301.3167, 272.4574
301.7988, 271.5687
302.2809, 276.1548
302.7631, 283.8937
303.2452, 288.0029
303.7273, 281.7265
304.2094, 271.0595
304.6915, 264.3709
305.1736, 262.2735
305.6558, 261.2124
306.1379, 257.8076
306.6200, 253.2083
307.1021, 249.5916
307.5842, 249.1393
308.0663, 249.2590
308.5485, 247.0558
309.0306, 242.5978
309.5127, 238.4119
309.9948, 236.2790
310.4769, 235.4303
310.9590, 234.8884
311.4412, 234.1443
311.9233, 233.7782
312.4054, 234.9795
312.8875, 237.2866
313.3696, 238.2259
313.8517, 234.4636
314.3339, 229.7324
314.8160, 227.3496
315.2981, 229.2319
315.7802, 231.8878
316.2623, 233.8959
316.7444, 235.3698
317.2266, 236.6391
317.7087, 239.5910
318.1908, 241.1713
318.6729, 238.8548
319.1550, 230.4023
319.6371, 223.0910
320.1193, 218.4907
320.6014, 216.7364
321.0835, 218.0219
321.5656, 227.6479
322.0477, 235.8851
322.5298, 238.0913
323.0120, 232.7374
323.4941, 227.6118
323.9762, 224.3312
324.4583, 222.0605
324.9404, 219.8978
325.4225, 214.7294
325.9047, 212.6310
326.3868, 218.2724
326.8689, 232.1620
327.3510, 237.9899
327.8331, 225.6943
328.3152, 210.3023
328.7974, 202.2164
329.2795, 209.6571
329.7616, 214.8617
330.2437, 214.8995
330.7258, 211.0348
331.2079, 210.5039
331.6901, 217.8564
332.1722, 224.0266
332.6543, 224.1122
333.1364, 212.0546
333.6185, 205.0941
334.1006, 204.9996
334.5828, 209.6276
335.0649, 214.1972
335.5470, 219.2196
336.0291, 223.3675
336.5112, 226.2854
336.9933, 228.1700
337.4755, 227.5784
337.9576, 223.2666
338.4397, 217.9363
338.9218, 215.2691
339.4039, 215.7998
339.8860, 217.2734
340.3681, 219.7625
340.8503, 223.0303
341.3324, 223.4263
341.8145, 220.6116
342.2966, 215.8812
342.7787, 208.6236
343.2608, 198.5375
343.7430, 193.9653
344.2251, 198.2828
344.7072, 207.9858
345.1893, 212.3365
345.6714, 210.9927
346.1535, 209.0573
346.6357, 210.4944
347.1178, 214.6932
347.5999, 217.7746
348.0820, 219.0219
348.5641, 219.7626
349.0462, 222.8194
349.5284, 227.7511
350.0105, 231.3572
350.4926, 231.1263
350.9747, 228.4747
351.4568, 225.9576
351.9389, 223.5275
352.4211, 222.6985
352.9032, 226.5404
353.3853, 233.3029
353.8674, 238.7709
354.3495, 241.7297
354.8316, 242.2773
355.3138, 239.0195
355.7959, 232.4004
356.2780, 227.1048
356.7601, 227.8777
357.2422, 231.3707
357.7243, 233.0947
358.2065, 230.4274
358.6886, 227.8463
359.1707, 230.2269
359.6528, 235.5593
360.1349, 237.7800
360.6170, 227.2579
361.0992, 216.8414
361.5813, 217.5284
362.0634, 235.1001
362.5455, 249.7344
363.0276, 250.1328
363.5097, 243.2953
363.9919, 239.6397
364.4740, 246.0692
364.9561, 252.7784
365.4382, 255.9979
365.9203, 255.2921
366.4024, 253.9497
366.8846, 250.7081
367.3667, 248.0950
367.8488, 248.1572
368.3309, 257.7508
368.8130, 262.5859
369.2951, 257.3950
369.7773, 244.1673
370.2594, 236.8911
370.7415, 239.9222
371.2236, 244.8221
371.7057, 248.0836
372.1878, 250.4943
372.6700, 249.4973
373.1521, 242.8566
373.6342, 233.7920
374.1163, 228.8783
374.5984, 230.4317
375.0805, 231.6734
375.5627, 230.2038
376.0448, 225.7145
376.5269, 222.0722
377.0090, 219.1926
377.4911, 217.2420
377.9732, 217.2273
378.4554, 219.8695
378.9375, 219.4134
379.4196, 213.3925
379.9017, 203.8974
380.3838, 197.8828
380.8659, 195.3880
381.3481, 196.4236
381.8302, 204.3199
382.3123, 217.4071
382.7944, 222.2529
383.2765, 215.7260
383.7586, 205.0166
384.2408, 200.9696
384.7229, 202.7620
385.2050, 205.1008
385.6871, 205.1001
386.1692, 203.8801
386.6513, 203.9727
387.1335, 205.5217
387.6156, 206.4579
388.0977, 203.0264
388.5798, 197.8525
389.0619, 195.9920
389.5440, 202.3152
390.0262, 209.4889
390.5083, 210.8001
390.9904, 207.0573
391.4725, 201.9786
391.9546, 195.3728
392.4367, 189.7001
392.9189, 187.4269
393.4010, 190.2234
393.8831, 193.4360
394.3652, 194.7537
394.8473, 194.9819
395.3294, 195.4522
395.8116, 198.1811
396.2937, 199.8487
396.7758, 197.8604
397.2579, 191.4351
397.7400, 188.1829
398.2221, 192.7167
398.7043, 199.4226
399.1864, 203.7334
399.6685, 203.6245
400.1506, 202.9529
400.6327, 202.2111
401.1148, 201.2512
401.5970, 199.2557
402.0791, 195.0458
402.5612, 191.1879
403.0433, 188.7491
403.5254, 187.8216
404.0075, 188.2144
404.4897, 190.6544
404.9718, 193.7896
405.4539, 195.7624
405.9360, 196.7455
406.4181, 195.8298
406.9002, 191.5202
407.3824, 184.5898
407.8645, 182.5676
408.3466, 186.1478
408.8287, 191.9742
409.3108, 198.7422
409.7929, 206.1856
410.2751, 208.3512
410.7572, 202.4495
411.2393, 194.0567
411.7214, 195.6941
412.2035, 206.1659
412.6856, 214.2896
413.1678, 211.2201
413.6499, 201.6386
414.1320, 195.5936
414.6141, 193.6466
415.0962, 193.6496
415.5783, 193.9827
416.0605, 194.7573
416.5426, 196.2059
417.0247, 198.8316
417.5068, 201.7983
417.9889, 205.1799
418.4710, 208.5739
418.9532, 210.1626
419.4353, 206.9634
419.9174, 202.6900
420.3995, 200.3874
420.8816, 201.0676
421.3637, 202.4214
421.8459, 203.7147
422.3280, 205.0685
422.8101, 206.6897
423.2922, 210.5593
423.7743, 212.8360
424.2564, 210.8714
424.7386, 204.1382
425.2207, 200.9327
425.7028, 205.0392
426.1849, 210.9214
426.6670, 215.1565
427.1491, 218.9194
427.6313, 219.0673
428.1134, 213.9641
428.5955, 205.4362
429.0776, 197.7422
429.5597, 188.7322
430.0418, 184.8669
430.5240, 191.0401
431.0061, 208.6050
431.4882, 216.5122
431.9703, 212.0514
432.4524, 203.7475
432.9345, 201.0087
433.4167, 203.9438
433.8988, 208.2815
434.3809, 213.9373
434.8630, 219.5061
435.3451, 220.5048
435.8272, 217.0909
436.3094, 213.9516
436.7915, 215.5282
437.2736, 219.6172
437.7557, 220.4994
438.2378, 217.3465
438.7199, 213.0869
439.2020, 209.0889
439.6841, 206.2311
440.1663, 206.3148
440.6484, 213.5637
441.1305, 221.5371
441.6126, 224.0856
442.0947, 222.0622
442.5768, 220.5790
443.0590, 223.5242
443.5411, 227.3690
444.0232, 229.0467
444.5053, 226.4358
444.9874, 225.0611
445.4695, 228.2209
445.9517, 233.4628
446.4338, 236.8589
446.9159, 235.7543
447.3980, 234.6359
447.8801, 234.2019
448.3622, 234.3984
448.8444, 236.9739
449.3265, 243.8707
449.8086, 251.4671
450.2907, 257.5030
450.7728, 261.8741
451.2549, 264.9490
451.7371, 266.3262
452.2192, 266.6601
452.7013, 267.2783
453.1834, 268.1563
453.6655, 269.4237
454.1476, 271.4302
454.6298, 274.0230
455.1119, 274.9739
455.5940, 273.8244
456.0761, 273.4252
456.5582, 277.4506
457.0403, 285.0386
457.5225, 291.6812
458.0046, 296.5668
458.4867, 299.6624
458.9688, 299.7833
459.4509, 297.6096
459.9330, 295.9496
460.4152, 297.5960
460.8973, 299.9825
461.3794, 299.4989
461.8615, 295.8914
462.3436, 292.6068
462.8257, 291.8192
463.3079, 292.6037
463.7900, 293.9886
464.2721, 297.2245
464.7542, 299.1614
465.2363, 296.6978
465.7184, 291.7577
466.2006, 289.8023
466.6827, 298.0789
467.1648, 304.4480
467.6469, 303.0331
468.1290, 290.8610
468.6111, 281.3408
469.0933, 274.2501
469.5754, 270.2009
470.0575, 269.9429
470.5396, 275.4857
471.0217, 280.8953
471.5038, 286.1573
471.9860, 290.6932
472.4681, 291.9112
472.9502, 288.5482
473.4323, 286.1197
473.9144, 288.4494
474.3965, 295.2787
474.8787, 297.0738
475.3608, 292.6380
475.8429, 288.7512
476.3250, 294.2997
476.8071, 307.5754
477.2892, 320.2021
477.7714, 330.2838
478.2535, 338.1078
478.7356, 342.7892
479.2177, 345.0849
479.6998, 348.1440
480.1819, 353.7883
480.6641, 361.1886
481.1462, 369.7516
481.6283, 379.5277
482.1104, 389.3446
482.5925, 399.3104
483.0746, 408.6442
483.5568, 416.5657
484.0389, 420.1952
484.5210, 425.1834
485.0031, 433.5833
485.4852, 444.5752
485.9673, 455.8766
486.4495, 467.6123
486.9316, 479.0376
487.4137, 490.1753
487.8958, 501.3765
488.3779, 510.5191
488.8600, 516.9409
489.3422, 522.0574
489.8243, 527.3502
490.3064, 533.2169
490.7885, 537.6025
491.2706, 539.9662
491.7527, 540.9085
492.2349, 542.0923
492.7170, 543.5910
493.1991, 544.3788
493.6812, 543.3791
494.1633, 541.1829
494.6454, 541.8932
495.1276, 545.8552
495.6097, 546.0745
496.0918, 532.9608
496.5739, 511.5956
497.0560, 493.3699
497.5381, 481.4611
498.0203, 471.3363
498.5024, 459.7047
498.9845, 446.6919
499.4666, 432.2586
499.9487, 413.6183
500.4308, 395.9773
500.9130, 382.1774
501.3951, 372.4013
501.8772, 365.2084
502.3593, 362.2088
502.8414, 360.4293
503.3235, 357.9549
503.8057, 355.5712
504.2878, 350.9407
504.7699, 342.1490
505.2520, 331.7835
505.7341, 324.2197
506.2162, 320.4678
506.6984, 317.6686
507.1805, 316.0128
507.6626, 315.0418
508.1447, 309.6218
508.6268, 298.5998
509.1089, 287.4135
509.5911, 279.0832
510.0732, 273.6810
510.5553, 273.0669
511.0374, 278.3534
511.5195, 284.6038
512.0016, 285.6086
512.4838, 282.3091
512.9659, 277.7394
513.4480, 271.6027
513.9301, 265.9648
514.4122, 264.0779
514.8943, 265.0684
515.3765, 265.2347
515.8586, 259.9674
516.3407, 254.7233
516.8228, 254.2302
517.3049, 259.8269
517.7870, 265.5857
518.2692, 270.6989
518.7513, 274.3726
519.2334, 275.8122
519.7155, 271.1521
520.1976, 268.7798
520.6797, 270.1861
521.1619, 274.4056
521.6440, 278.9635
522.1261, 284.6972
522.6082, 289.1678
523.0903, 291.0728
523.5724, 290.3463
524.0546, 290.9230
524.5367, 293.0860
525.0188, 295.6718
525.5009, 296.9495
525.9830, 297.2402
526.4651, 300.7103
526.9473, 308.7820
527.4294, 317.9478
527.9115, 321.9823
528.3936, 322.4918
528.8757, 324.9081
529.3578, 336.2176
529.8400, 347.6935
530.3221, 347.4974
530.8042, 337.5844
531.2863, 330.5988
531.7684, 336.9790
532.2505, 346.8723
532.7327, 352.3109
533.2148, 350.1505
533.6969, 350.1517
534.1790, 358.2233
534.6611, 368.4339
535.1432, 373.9718
535.6254, 370.2339
536.1075, 366.9907
536.5896, 365.4670
537.0717, 365.1416
537.5538, 364.0976
538.0359, 361.6100
538.5181, 360.1183
539.0002, 361.1757
539.4823, 364.6971
539.9644, 366.3062
540.4465, 365.7618
540.9286, 364.5255
541.4108, 363.7631
541.8929, 363.4273
542.3750, 363.2696
542.8571, 363.1284
543.3392, 363.4909
543.8214, 364.6756
544.3035, 366.8133
544.7856, 370.2450
545.2677, 376.0276
545.7498, 382.4324
546.2319, 389.1062
546.7141, 395.6432
547.1962, 399.8025
547.6783, 399.8588
548.1604, 397.8939
548.6425, 394.9764
549.1246, 391.1751
549.6068, 386.5465
550.0889, 378.6295
550.5710, 371.3893
551.0531, 369.0462
551.5352, 375.7113
552.0173, 378.2437
552.4995, 373.8385
552.9816, 365.2735
553.4637, 359.3079
553.9458, 356.1718
554.4279, 354.1422
554.9100, 353.8116
555.3922, 353.9652
555.8743, 348.9174
556.3564, 338.7093
556.8385, 327.6468
557.3206, 317.0975
557.8027, 308.6264
558.2849, 305.3135
558.7670, 308.2781
559.2491, 313.2222
559.7312, 318.8085
560.2133, 323.7606
560.6954, 326.3008
561.1776, 324.6535
561.6597, 321.6873
562.1418, 317.0707
562.6239, 311.6159
563.1060, 308.3185
563.5881, 310.3730
564.0703, 311.8063
564.5524, 310.6848
565.0345, 306.8292
565.5166, 302.7785
565.9987, 298.0755
566.4808, 293.9498
566.9630, 291.6797
567.4451, 291.4821
567.9272, 290.4070
568.4093, 288.2200
568.8914, 285.0793
569.3735, 280.0085
569.8557, 273.7686
570.3378, 269.9912
570.8199, 271.4632
571.3020, 274.4317
571.7841, 273.6290
572.2662, 270.0016
572.7484, 267.0513
573.2305, 267.5060
573.7126, 268.6623
574.1947, 268.3700
574.6768, 266.3568
575.1589, 265.0755
575.6411, 266.4023
576.1232, 268.0482
576.6053, 268.2826
577.0874, 264.3606
577.5695, 263.4765
578.0516, 267.6896
578.5338, 273.5887
579.0159, 276.0889
579.4980, 274.2517
579.9801, 272.3122
580.4622, 271.6300
580.9443, 271.2223
581.4265, 266.2680
581.9086, 256.7885
582.3907, 251.0744
582.8728, 257.2238
583.3549, 269.6408
583.8370, 276.0606
584.3192, 276.3551
584.8013, 275.9692
585.2834, 278.4948
585.7655, 282.7748
586.2476, 288.1142
586.7297, 295.6732
587.2118, 300.5372
587.6939, 296.7349
588.1760, 290.4385
588.6581, 289.5132
589.1403, 302.6730
589.6224, 312.5328
590.1045, 314.9580
590.5866, 312.3134
591.0687, 312.4875
591.5508, 316.3229
592.0330, 321.0778
592.5151, 325.9362
592.9972, 330.8712
593.4793, 335.7584
593.9614, 340.6945
594.4435, 344.8738
594.9257, 347.5031
595.4078, 348.8495
595.8899, 349.6973
596.3720, 350.0858
596.8541, 350.2661
597.3362, 350.9148
597.8184, 351.3967
598.3005, 350.6537
598.7826, 347.1810
599.2647, 344.0130
599.7468, 343.4136
600.2289, 344.1088
600.7111, 343.2768
601.1932, 338.9586
601.6753, 334.4297
602.1574, 331.1906
602.6395, 328.9987
603.1216, 323.5547
603.6038, 311.9671
604.0859, 302.3153
604.5680, 300.4069
605.0501, 307.0641
605.5322, 307.5284
606.0143, 300.9808
606.4965, 291.9024
606.9786, 283.3433
607.4607, 275.9476
607.9428, 272.8282
608.4249, 276.3698
608.9070, 278.9416
609.3892, 269.2272
609.8713, 253.3653
610.3534, 242.5811
610.8355, 246.6535
611.3176, 252.0726
611.7997, 252.5318
612.2819, 249.1600
612.7640, 246.4581
613.2461, 246.0774
613.7282, 245.7759
614.2103, 244.3814
614.6924, 241.7581
615.1746, 241.8229
615.6567, 246.7585
616.1388, 250.2476
616.6209, 246.8680
617.1030, 236.3549
617.5851, 228.1781
618.0673, 222.7983
618.5494, 219.7435
619.0315, 218.7058
619.5136, 219.6323
619.9957, 222.9134
620.4778, 230.0998
620.9600, 236.6747
621.4421, 237.2220
621.9242, 234.1075
622.4063, 232.1551
622.8884, 233.3195
623.3705, 235.9400
623.8527, 240.9070
624.3348, 247.4572
624.8169, 250.6452
625.2990, 247.5022
625.7811, 243.4725
626.2632, 239.6243
626.7454, 235.6572
627.2275, 236.9979
627.7096, 245.8089
628.1917, 254.2964
628.6738, 255.3878
629.1559, 249.7861
629.6381, 245.4937
630.1202, 243.2764
630.6023, 241.9886
631.0844, 240.1259
631.5665, 238.2202
632.0486, 237.5043
632.5308, 238.9942
633.0129, 240.6383
633.4950, 240.8353
633.9771, 240.1860
634.4592, 239.8492
634.9413, 241.1359
635.4235, 241.7879
635.9056, 240.7350
636.3877, 238.2574
636.8698, 236.0992
637.3519, 232.9838
637.8340, 232.3980
638.3162, 236.9623
638.7983, 246.5381
639.2804, 251.5432
639.7625, 251.5537
640.2446, 249.6028
640.7267, 247.3217
641.2089, 245.0400
641.6910, 244.1391
642.1731, 244.8747
642.6552, 245.9136
643.1373, 246.8862
643.6194, 247.1261
644.1016, 245.4841
644.5837, 240.1462
645.0658, 235.5363
645.5479, 233.7470
646.0300, 233.8717
646.5121, 234.5097
646.9943, 237.8522
647.4764, 238.6213
647.9585, 234.2398
648.4406, 226.8814
648.9227, 224.9862
649.4048, 230.2932
649.8870, 235.0152
650.3691, 236.1596
650.8512, 234.2329
651.3333, 230.1261
651.8154, 223.9373
652.2975, 220.0247
652.7797, 224.8259
653.2618, 232.4274
653.7439, 233.3683
654.2260, 226.6708
654.7081, 219.9854
655.1902, 216.6482
655.6724, 216.1187
656.1545, 218.5708
656.6366, 227.9350
657.1187, 232.4103
657.6008, 225.6973
658.0829, 216.0723
658.5651, 212.4268
659.0472, 217.6219
659.5293, 221.2525
660.0114, 221.8592
660.4935, 220.4158
660.9756, 217.2860
661.4578, 212.7761
661.9399, 213.1330
662.4220, 224.8407
662.9041, 238.4456
663.3862, 236.1980
663.8683, 221.9356
664.3505, 210.8366
664.8326, 214.9511
665.3147, 222.2962
665.7968, 224.5280
666.2789, 221.5309
666.7610, 219.8501
667.2432, 223.0642
667.7253, 226.2683
668.2074, 227.0368
668.6895, 224.8716
669.1716, 222.6868
669.6537, 220.5586
670.1359, 218.2376
670.6180, 214.8252
671.1001, 210.4624
671.5822, 208.9352
672.0643, 210.9322
672.5464, 214.1750
673.0286, 216.7456
673.5107, 218.4238
673.9928, 218.4724
674.4749, 215.5214
674.9570, 213.2235
675.4391, 215.2452
675.9213, 219.3631
676.4034, 221.9199
676.8855, 221.0193
677.3676, 219.3523
677.8497, 216.2300
678.3318, 212.8066
678.8140, 213.0456
679.2961, 219.8172
679.7782, 223.3014
680.2603, 219.1334
680.7424, 209.3188
681.2245, 201.7106
681.7067, 196.2865
682.1888, 194.2447
682.6709, 198.3912
683.1530, 205.5671
683.6351, 210.9011
684.1172, 214.1447
684.5994, 216.1165
685.0815, 217.4765
685.5636, 217.6019
686.0457, 215.0209
686.5278, 207.9126
687.0099, 204.9165
687.4921, 212.3268
687.9742, 220.9894
688.4563, 224.4672
688.9384, 221.3336
689.4205, 217.0429
689.9026, 211.1116
690.3848, 205.2997
690.8669, 201.8376
691.3490, 200.5900
691.8311, 200.7161
692.3132, 202.0914
692.7953, 204.5866
693.2775, 209.0940
693.7596, 214.5320
694.2417, 218.7450
694.7238, 220.2957
695.2059, 221.0037
695.6880, 222.4250
696.1702, 223.6607
696.6523, 222.2497
697.1344, 215.9804
697.6165, 209.1038
698.0986, 200.7943
698.5807, 192.3637
699.0629, 192.1396
699.5450, 201.6834
700.0271, 212.3583
700.5092, 221.7759
700.9913, 228.8937
701.4734, 228.1411
701.9556, 220.0994
702.4377, 212.8251
702.9198, 213.7657
703.4019, 217.3497
703.8840, 217.2667
704.3661, 212.8145
704.8483, 209.6510
705.3304, 211.5381
705.8125, 214.3129
706.2946, 215.1488
706.7767, 213.3417
707.2589, 211.3218
707.7410, 208.9550
708.2231, 206.5968
708.7052, 204.3100
709.1873, 202.0680
709.6694, 201.0282
710.1516, 201.3086
710.6337, 202.8120
711.1158, 206.3487
711.5979, 210.9250
712.0800, 214.4884
712.5621, 217.0954
713.0443, 217.2998
713.5264, 210.6353
714.0085, 201.9235
714.4906, 198.2568
714.9727, 207.8968
715.4548, 214.7901
715.9370, 215.1228
716.4191, 211.7144
716.9012, 211.1538
717.3833, 214.8447
717.8654, 216.0120
718.3475, 211.7667
718.8297, 204.6374
719.3118, 201.2502
719.7939, 201.2269
720.2760, 201.9479
720.7581, 201.6325
721.2402, 201.6552
721.7224, 204.3218
722.2045, 208.9247
722.6866, 212.2333
723.1687, 211.5447
723.6508, 210.4758
724.1329, 210.6359
724.6151, 212.1051
725.0972, 213.9393
725.5793, 216.9388
726.0614, 218.9265
726.5435, 218.7440
727.0256, 216.4433
727.5078, 212.7138
727.9899, 207.3778
728.4720, 202.5237
728.9541, 198.1201
729.4362, 195.8448
729.9183, 201.2139
730.4005, 215.0934
730.8826, 225.2492
731.3647, 219.8636
731.8468, 210.3084
732.3289, 206.2404
732.8110, 212.1913
733.2932, 215.3453
733.7753, 213.2014
734.2574, 209.5547
734.7395, 207.7310
735.2216, 208.1807
735.7037, 207.5781
736.1859, 205.4730
736.6680, 202.9836
737.1501, 201.0174
737.6322, 199.7873
738.1143, 200.1904
738.5964, 202.8225
739.0786, 205.8621
739.5607, 208.2124
740.0428, 209.9046
740.5249, 210.9567
741.0070, 209.7024
741.4891, 209.8980
741.9713, 214.0956
742.4534, 219.3367
742.9355, 220.8762
743.4176, 217.0479
743.8997, 215.0095
744.3818, 216.9910
744.8640, 220.2105
745.3461, 217.5227
745.8282, 210.1040
746.3103, 205.7627
746.7924, 209.7746
747.2745, 215.3681
747.7567, 214.3626
748.2388, 209.3669
748.7209, 206.9063
749.2030, 212.2841
749.6851, 217.6274
750.1672, 219.9079
750.6494, 219.8667
751.1315, 220.7161
751.6136, 224.0451
752.0957, 224.4259
752.5778, 218.7734
753.0599, 209.3024
753.5421, 204.1474
754.0242, 203.2833
754.5063, 204.8722
754.9884, 209.5232
755.4705, 215.0897
755.9526, 219.0105
756.4348, 221.4002
756.9169, 222.8331
757.3990, 223.6941
757.8811, 223.5638
758.3632, 221.1430
758.8453, 216.4553
759.3275, 215.5908
759.8096, 220.9631
760.2917, 225.8421
760.7738, 226.9053
761.2559, 224.4937
761.7380, 221.6458
762.2202, 218.3339
762.7023, 216.1602
763.1844, 217.0966
763.6665, 219.5012
764.1486, 221.0330
764.6307, 221.5698
765.1129, 221.9671
765.5950, 221.1106
766.0771, 221.4690
766.5592, 225.5247
767.0413, 234.9659
767.5234, 240.3777
768.0056, 240.9035
768.4877, 238.7284
768.9698, 234.0210
769.4519, 226.8683
769.9340, 223.9832
770.4161, 225.7323
770.8983, 229.1507
771.3804, 233.2564
771.8625, 236.6746
772.3446, 236.6994
772.8267, 232.6904
773.3088, 228.7589
773.7910, 226.0278
774.2731, 224.8225
774.7552, 225.8170
775.2373, 230.6401
775.7194, 233.0394
776.2015, 232.0095
776.6837, 230.0452
777.1658, 229.3220
777.6479, 229.7973
778.1300, 229.8150
778.6121, 229.2117
779.0942, 228.4760
779.5764, 227.9536
780.0585, 227.6680
780.5406, 227.5985
781.0227, 227.6804
781.5048, 228.2519
781.9869, 231.0036
782.4691, 233.4232
782.9512, 232.8133
783.4332, 225.4879
783.9153, 223.1028
784.3975, 227.6739
784.8796, 233.9936
785.3617, 235.9929
785.8438, 234.0769
786.3259, 234.2265
786.8080, 237.8194
787.2902, 240.0164
787.7723, 232.9257
788.2544, 222.2170
788.7365, 216.4602
789.2186, 219.2944
789.7007, 222.5843
790.1829, 222.6469
790.6650, 222.1994
791.1471, 224.2697
791.6292, 231.1259
792.1113, 235.0770
792.5934, 235.0290
793.0756, 233.6769
793.5577, 234.9383
794.0398, 238.1682
794.5219, 239.1362
795.0040, 236.7643
795.4861, 233.5726
795.9683, 231.2114
796.4504, 229.7684
796.9325, 229.5003
797.4146, 231.6492
797.8967, 232.6952
798.3788, 229.9530
798.8610, 226.7828
799.3431, 226.9865
799.8252, 232.1503
800.3073, 234.9338
800.7894, 234.2892
801.2715, 232.2987
801.7537, 231.5833
802.2358, 231.8130
802.7179, 232.0745
803.2000, 232.5047
803.6821, 231.6717
804.1642, 225.6384
804.6464, 218.9159
805.1285, 217.1897
805.6106, 227.7834
806.0927, 233.0529
806.5748, 227.8765
807.0569, 220.1228
807.5391, 218.3876
808.0212, 223.6226
808.5033, 228.1005
808.9854, 231.4834
809.4675, 232.2375
809.9496, 225.1640
810.4318, 214.5007
810.9139, 210.0738
811.3960, 215.4024
811.8781, 222.3286
812.3602, 228.7753
812.8423, 233.1238
813.3245, 233.3568
813.8066, 224.2226
814.2887, 219.9194
814.7708, 222.4181
815.2529, 227.0528
815.7350, 228.7695
816.2172, 227.6998
816.6993, 226.1341
817.1814, 224.1477
817.6635, 222.9966
818.1456, 225.4337
818.6277, 228.9742
819.1099, 229.8253
819.5920, 226.0973
820.0741, 223.0751
820.5562, 223.1391
821.0383, 224.3081
821.5204, 224.4777
822.0026, 221.9059
822.4847, 224.5205
822.9668, 234.5973
823.4489, 243.8342
823.9310, 241.0401
824.4131, 229.9059
824.8953, 223.5268
825.3774, 223.8817
825.8595, 225.4662
826.3416, 224.7725
826.8237, 222.8073
827.3058, 219.9414
827.7880, 214.8669
828.2701, 213.5637
828.7522, 218.2779
829.2343, 224.8452
829.7164, 230.6973
830.1985, 235.8169
830.6807, 239.7660
831.1628, 242.5453
831.6449, 243.8779
832.1270, 243.0907
832.6091, 240.8183
833.0912, 237.6469
833.5734, 233.6231
834.0555, 230.3936
834.5376, 228.7959
835.0197, 228.2868
835.5018, 228.7322
835.9839, 230.2429
836.4661, 231.5739
836.9482, 232.7357
837.4303, 233.6813
837.9124, 234.5616
838.3945, 235.2323
838.8766, 234.3952
839.3588, 232.1378
839.8409, 230.8963
840.3230, 234.2790
840.8051, 238.1303
841.2872, 238.0346
841.7693, 233.7868
842.2515, 231.4534
842.7336, 234.8256
843.2157, 237.2418
843.6978, 235.3289
844.1799, 229.6729
844.6620, 228.8200
845.1442, 233.0972
845.6263, 237.2127
846.1084, 238.2086
846.5905, 236.9840
847.0726, 233.8280
847.5547, 229.3815
848.0369, 226.5643
848.5190, 228.1850
849.0011, 230.3456
849.4832, 231.4690
849.9653, 231.6309
850.4474, 231.5143
850.9296, 231.2894
851.4117, 230.1060
851.8938, 226.8408
852.3759, 223.1242
852.8580, 223.5940
853.3401, 227.6286
853.8223, 232.3952
854.3044, 237.6932
854.7865, 242.1839
855.2686, 245.4511
855.7507, 247.1783
856.2328, 246.6291
856.7150, 242.4858
857.1971, 237.3086
857.6792, 229.6523
858.1613, 222.6467
858.6434, 224.7540
859.1255, 235.5655
859.6077, 243.8910
860.0898, 246.2297
860.5719, 245.5578
861.0540, 244.0489
861.5361, 242.1770
862.0182, 240.6886
862.5004, 239.6549
862.9825, 239.2862
863.4646, 240.6933
863.9467, 242.1798
864.4288, 241.8348
864.9109, 239.3097
865.3931, 236.3012
865.8752, 232.4643
866.3573, 229.9017
866.8394, 233.0046
867.3215, 238.8875
867.8036, 240.8335
868.2858, 236.7652
868.7679, 233.3502
869.2500, 235.1245
869.7321, 238.4549
870.2142, 240.2373
870.6964, 240.2034
871.1785, 238.7260
871.6606, 234.6347
872.1427, 231.9588
872.6248, 235.4646
873.1069, 243.3883
873.5891, 248.5141
874.0712, 250.5746
874.5533, 250.1979
875.0354, 244.2170
875.5175, 238.7478
875.9996, 240.1369
876.4818, 249.1518
876.9639, 253.5578
877.4460, 249.0345
877.9281, 245.1628
878.4102, 246.9362
878.8923, 252.9357
879.3745, 252.5360
879.8566, 246.2038
880.3387, 242.1586
880.8208, 247.8976
881.3029, 256.1645
881.7850, 260.0418
882.2672, 260.1564
882.7493, 258.8236
883.2314, 254.6221
883.7135, 251.6684
884.1956, 251.2983
884.6777, 252.6153
885.1599, 252.9500
885.6420, 252.1593
886.1241, 253.1441
886.6062, 257.8680
887.0883, 262.4910
887.5704, 259.9748
888.0526, 253.7991
888.5347, 250.5423
889.0168, 254.3877
889.4989, 258.4586
889.9810, 261.2121
890.4631, 262.8053
890.9453, 263.1990
891.4274, 261.9821
891.9095, 261.3346
892.3916, 261.4219
892.8737, 262.1209
893.3558, 263.1705
893.8380, 264.7640
894.3201, 267.9078
894.8022, 273.1825
895.2843, 276.6824
895.7664, 274.1158
896.2485, 270.7623
896.7307, 270.7642
897.2128, 274.7245
897.6949, 278.4867
898.1770, 282.0216
898.6591, 285.4409
899.1412, 289.5131
899.6234, 293.4462
900.1055, 293.9485
900.5876, 291.5424
901.0697, 290.6637
901.5518, 295.6681
902.0339, 301.4880
902.5161, 304.4110
902.9982, 304.9568
903.4803, 308.6437
903.9624, 317.0463
904.4445, 324.8286
904.9266, 330.0462
905.4088, 333.8233
905.8909, 338.6415
906.3730, 344.4424
906.8551, 350.9899
907.3372, 358.5972
907.8193, 366.4651
908.3015, 374.4015
908.7836, 382.1611
909.2657, 389.3893
909.7478, 397.3310
910.2299, 402.0291
910.7120, 401.7783
911.1942, 400.5887
911.6763, 403.6256
912.1584, 410.3963
912.6405, 419.1533
913.1226, 430.0031
913.6047, 439.2365
914.0869, 443.2867
914.5690, 444.6922
915.0511, 445.5654
915.5332, 446.0289
916.0153, 446.4917
916.4974, 446.2162
916.9796, 447.2455
917.4617, 452.0329
917.9438, 459.6181
918.4259, 462.4732
918.9080, 460.8980
919.3901, 458.7618
919.8723, 456.5762
920.3544, 456.5426
920.8365, 463.2286
921.3186, 474.6360
921.8007, 479.2392
922.2828, 469.3894
922.7650, 462.9711
923.2471, 465.2866
923.7292, 472.7775
924.2113, 477.1030
924.6934, 478.4798
925.1755, 478.1055
925.6577, 474.4338
926.1398, 473.1935
926.6219, 483.5243
927.1040, 497.9391
927.5861, 505.8268
928.0682, 493.8677
928.5504, 492.6068
929.0325, 506.8618
929.5146, 525.1780
929.9967, 534.4124
930.4788, 536.1356
930.9609, 543.0583
931.4431, 556.3417
931.9252, 573.8280
932.4073, 597.0733
932.8894, 621.7388
933.3715, 643.9032
933.8536, 662.7203
934.3358, 683.5634
934.8179, 705.7463
935.3000, 731.8419
935.7821, 763.6916
936.2642, 800.1582
936.7463, 835.1764
937.2285, 869.8380
937.7106, 909.5612
938.1927, 959.4191
938.6748, 1013.917
939.1569, 1070.368
939.6390, 1128.357
940.1212, 1186.649
940.6033, 1244.068
941.0854, 1304.857
941.5675, 1369.863
942.0496, 1437.693
942.5317, 1503.951
943.0139, 1570.190
943.4960, 1642.221
943.9781, 1722.570
944.4602, 1805.912
944.9423, 1890.910
945.4244, 1975.165
945.9066, 2058.025
946.3887, 2140.233
946.8708, 2216.662
947.3529, 2288.886
947.8350, 2352.938
948.3171, 2409.036
948.7993, 2454.758
949.2814, 2482.413
949.7635, 2491.747
950.2456, 2482.339
950.7277, 2455.406
951.2098, 2408.396
951.6920, 2334.618
952.1741, 2238.303
952.6562, 2136.713
953.1383, 2028.203
953.6204, 1920.079
954.1025, 1813.283
954.5847, 1708.142
955.0668, 1600.466
955.5489, 1493.480
956.0310, 1395.269
956.5131, 1309.026
956.9952, 1231.434
957.4774, 1163.011
957.9595, 1101.590
958.4416, 1043.821
958.9237, 988.6642
959.4058, 941.6566
959.8879, 904.2434
960.3701, 870.3059
960.8522, 835.6105
961.3343, 800.8168
961.8164, 766.6945
962.2985, 733.7809
962.7806, 706.7966
963.2628, 694.4531
963.7449, 681.4308
964.2270, 659.4323
964.7091, 632.2496
965.1912, 612.0121
965.6733, 599.4218
966.1555, 586.6783
966.6376, 571.3682
967.1197, 555.6567
967.6018, 542.4659
968.0839, 530.9752
968.5660, 520.1808
969.0482, 509.8825
969.5303, 499.8214
970.0124, 488.8140
970.4945, 478.9322
970.9766, 471.7762
971.4587, 467.4569
971.9409, 464.1431
972.4230, 461.8689
972.9051, 458.8148
973.3872, 454.0217
973.8693, 447.4641
974.3514, 437.9131
974.8336, 426.1144
975.3157, 416.6249
975.7978, 410.9896
976.2799, 406.8741
976.7620, 404.4884
977.2441, 402.6154
977.7263, 397.9746
978.2084, 391.0636
978.6905, 384.4305
979.1726, 378.0686
979.6547, 374.2155
980.1368, 378.6678
980.6190, 384.3654
981.1010, 382.5099
981.5831, 367.6268
982.0652, 359.1644
982.5474, 358.5067
983.0295, 360.4596
983.5116, 361.9757
983.9937, 362.7534
984.4758, 360.7982
984.9579, 356.6778
985.4401, 354.6940
985.9222, 361.2861
986.4043, 366.3636
986.8864, 363.8578
987.3685, 356.1127
987.8506, 349.1105
988.3328, 342.7353
988.8149, 338.4061
989.2970, 336.8390
989.7791, 336.4631
990.2612, 334.6539
990.7433, 332.7335
991.2255, 333.5219
991.7076, 339.7628
992.1897, 342.2879
992.6718, 335.4943
993.1539, 327.9390
993.6360, 325.4804
994.1182, 327.9747
994.6003, 326.5785
995.0824, 321.3221
995.5645, 316.2051
996.0466, 314.7224
996.5287, 313.6432
997.0109, 309.3655
997.4930, 303.0018
997.9751, 298.7318
998.4572, 298.2612
998.9393, 297.7602
999.4214, 296.9175
999.9036, 295.3267
1000.386, 291.5112
1000.868, 286.3772
1001.350, 283.1605
1001.832, 282.8061
1002.314, 282.6369
1002.796, 280.0455
1003.278, 277.7867
1003.760, 278.9134
1004.243, 283.8921
1004.725, 283.5161
1005.207, 276.5718
1005.689, 271.2898
1006.171, 274.0654
1006.653, 279.8575
1007.135, 280.2499
1007.617, 276.8482
1008.100, 273.9664
1008.582, 272.4106
1009.064, 272.8795
1009.546, 277.8500
1010.028, 282.6175
1010.510, 279.3312
1010.992, 268.5607
1011.474, 262.5829
1011.956, 262.8489
1012.439, 265.5374
1012.921, 268.6149
1013.403, 271.7004
1013.885, 275.0609
1014.367, 278.6865
1014.849, 278.7579
1015.331, 272.3778
1015.813, 269.7693
1016.296, 276.9638
1016.778, 288.1758
1017.260, 287.8562
1017.742, 279.9854
1018.224, 276.6383
1018.706, 286.7884
1019.188, 294.2403
1019.670, 286.6108
1020.152, 276.7645
1020.635, 278.6830
1021.117, 295.3278
1021.599, 304.4835
1022.081, 305.2420
1022.563, 304.9060
1023.045, 310.1786
1023.527, 317.0133
1024.009, 320.5569
1024.492, 321.1225
1024.974, 321.9720
1025.456, 323.8319
1025.938, 326.0375
1026.420, 328.3017
1026.902, 331.0130
1027.384, 336.4180
1027.866, 343.1852
1028.349, 344.4047
1028.831, 336.5629
1029.313, 331.8177
1029.795, 339.9419
1030.277, 352.8700
1030.759, 365.1981
1031.241, 377.1569
1031.723, 381.7256
1032.205, 377.2713
1032.688, 375.9448
1033.170, 386.0772
1033.652, 402.1226
1034.134, 418.4894
1034.616, 433.8423
1035.098, 445.2487
1035.580, 447.9691
1036.062, 451.6516
1036.544, 457.3960
1037.027, 464.7634
1037.509, 473.4216
1037.991, 483.2861
1038.473, 493.0114
1038.955, 502.5529
1039.437, 513.1267
1039.919, 526.9729
1040.401, 540.9426
1040.884, 554.1584
1041.366, 565.8852
1041.848, 571.8863
1042.330, 570.6713
1042.812, 570.3835
1043.294, 574.1035
1043.776, 578.5014
1044.258, 579.0520
1044.740, 576.7628
1045.223, 573.5596
1045.705, 570.5841
1046.187, 564.5511
1046.669, 553.4315
1047.151, 541.0211
1047.633, 529.8375
1048.115, 519.6360
1048.597, 508.2661
1049.079, 495.9538
1049.562, 485.4441
1050.044, 481.5111
1050.526, 476.5401
1051.008, 464.1889
1051.490, 447.9004
1051.972, 435.8771
1052.454, 430.2276
1052.936, 420.2907
1053.419, 404.1371
1053.901, 387.3623
1054.383, 375.7639
1054.865, 367.5358
1055.347, 360.6574
1055.829, 354.8972
1056.311, 347.7143
1056.793, 334.9395
1057.276, 325.5185
1057.758, 322.9704
1058.240, 324.8954
1058.722, 325.4785
1059.204, 324.7723
1059.686, 322.8722
1060.168, 319.5213
1060.650, 315.7715
1061.132, 312.1927
1061.615, 308.5269
1062.097, 303.8869
1062.579, 297.6807
1063.061, 297.0190
1063.543, 302.5216
1064.025, 307.2538
1064.507, 306.1726
1064.989, 302.3602
1065.471, 297.6316
1065.954, 293.3651
1066.436, 292.9648
1066.918, 300.4347
1067.400, 307.4729
1067.882, 314.3405
1068.364, 319.1458
1068.846, 318.6473
1069.328, 314.3130
1069.811, 309.6594
1070.293, 305.1508
1070.775, 303.3087
1071.257, 306.9458
1071.739, 312.1782
1072.221, 318.8037
1072.703, 325.2216
1073.185, 325.0052
1073.667, 318.2862
1074.150, 314.7451
1074.632, 317.5059
1075.114, 322.2077
1075.596, 325.9766
1076.078, 328.6992
1076.560, 329.9801
1077.042, 329.4571
1077.524, 329.1194
1078.006, 328.7642
1078.489, 329.4534
1078.971, 333.2782
1079.453, 337.2141
1079.935, 333.4313
1080.417, 325.0582
1080.899, 319.7177
1081.381, 325.4638
1081.863, 326.7956
1082.345, 320.4673
1082.828, 311.1312
1083.310, 302.3518
1083.792, 294.3603
1084.274, 289.5659
1084.756, 287.7856
1085.238, 285.3983
1085.720, 278.0118
1086.202, 271.5321
1086.685, 270.5581
1087.167, 272.6761
1087.649, 271.8958
1088.131, 267.7839
1088.613, 264.9749
1089.095, 264.3863
1089.577, 264.4069
1090.059, 264.8045
1090.542, 263.9933
1091.024, 258.4153
1091.506, 247.3050
1091.988, 244.1522
1092.470, 252.7752
1092.952, 260.6577
1093.434, 263.9687
1093.916, 263.0245
1094.398, 255.1303
1094.880, 243.9474
1095.363, 238.2603
1095.845, 242.6985
1096.327, 246.4009
1096.809, 246.4841
1097.291, 245.4682
1097.773, 245.2232
1098.255, 245.3076
1098.737, 240.7085
1099.220, 232.5734
1099.702, 228.0454
1100.184, 237.2948
1100.666, 244.0603
1101.148, 236.9811
1101.630, 224.0437
1102.112, 216.8596
1102.594, 216.1144
1103.077, 215.0712
1103.559, 213.2176
1104.041, 213.4265
1104.523, 221.1251
1105.005, 229.4977
1105.487, 231.6443
1105.969, 228.4530
1106.451, 226.4102
1106.933, 227.0851
1107.416, 225.2182
1107.898, 218.8229
1108.380, 212.6329
1108.862, 213.9773
1109.344, 219.2280
1109.826, 222.5811
1110.308, 223.0775
1110.790, 223.1978
1111.272, 222.7539
1111.755, 223.3289
1112.237, 226.2973
1112.719, 229.8713
1113.201, 227.7923
1113.683, 222.2708
1114.165, 221.3769
1114.647, 230.1025
1115.129, 235.6528
1115.612, 228.4541
1116.094, 219.3391
1116.576, 215.0327
1117.058, 215.4019
1117.540, 220.0868
1118.022, 228.5079
1118.504, 233.3240
1118.986, 228.1712
1119.469, 221.4278
1119.951, 217.7725
1120.433, 216.5021
1120.915, 216.6789
1121.397, 218.5611
1121.879, 220.6815
1122.361, 223.1455
1122.843, 224.5752
1123.325, 223.7677
1123.807, 221.4959
1124.290, 216.7746
1124.772, 211.1439
1125.254, 210.4950
1125.736, 218.9856
1126.218, 222.4445
1126.700, 217.9469
1127.182, 212.2803
1127.664, 213.8011
1128.147, 219.2376
1128.629, 223.6303
1129.111, 226.5190
1129.593, 227.9212
1130.075, 227.5887
1130.557, 225.6426
1131.039, 220.5279
1131.521, 215.8938
1132.004, 221.3517
1132.486, 232.7456
1132.968, 237.7884
1133.450, 233.3386
1133.932, 228.4382
1134.414, 228.2354
1134.896, 227.0436
1135.378, 220.5628
1135.860, 222.5693
1136.343, 212.4983
1136.825, 221.9925
1137.307, 228.4162
1137.789, 226.8911
1138.271, 224.3123
1138.753, 226.8495
1139.235, 228.5259
1139.717, 223.0703
1140.199, 210.2829
1140.682, 204.2630
1141.164, 204.9949
1141.646, 208.0548
1142.128, 211.7971
1142.610, 216.0538
1143.092, 223.4009
1143.574, 229.8888
1144.056, 229.0627
1144.539, 218.1098
1145.021, 209.2097
1145.503, 202.1647
1145.985, 199.8597
1146.467, 209.0824
1146.949, 220.6179
1147.431, 223.5103
1147.913, 220.3699
1148.396, 219.2005
1148.878, 222.3782
1149.360, 224.1805
1149.842, 224.3746
1150.324, 222.2464
1150.806, 213.4729
1151.288, 203.9841
1151.770, 204.0312
1152.252, 212.8071
1152.734, 219.9160
1153.217, 223.2825
1153.699, 224.1405
1154.181, 221.9995
1154.663, 218.7307
1155.145, 215.6680
1155.627, 213.9017
1156.109, 217.5630
1156.591, 227.2437
1157.074, 232.1567
1157.556, 222.8155
1158.038, 215.5730
1158.520, 215.8086
1159.002, 219.8081
1159.484, 219.3472
1159.966, 215.7136
1160.448, 212.3795
1160.931, 209.7114
1161.413, 209.6981
1161.895, 216.4474
1162.377, 222.5340
1162.859, 223.9072
1163.341, 222.2212
1163.823, 225.5348
1164.305, 232.1843
1164.787, 233.5126
1165.270, 224.0369
1165.752, 215.7425
1166.234, 217.2260
1166.716, 220.2504
1167.198, 218.8727
1167.680, 213.4296
1168.162, 207.6307
1168.644, 201.8037
1169.126, 199.6331
1169.609, 205.9682
1170.091, 211.5274
1170.573, 208.0860
1171.055, 202.9232
1171.537, 204.6432
1172.019, 214.2172
1172.501, 218.2221
1172.983, 216.7212
1173.466, 215.1772
1173.948, 218.0638
1174.430, 220.9671
1174.912, 220.6377
1175.394, 218.3683
1175.876, 216.3144
1176.358, 214.4488
1176.840, 213.4677
1177.323, 213.4413
1177.805, 213.4947
1178.287, 211.5519
1178.769, 210.7149
1179.251, 215.9932
1179.733, 224.0007
1180.215, 225.5291
1180.697, 218.6128
1181.179, 214.2811
1181.661, 213.6167
1182.144, 214.9960
1182.626, 219.7265
1183.108, 223.6124
1183.590, 221.0249
1184.072, 213.5641
1184.554, 209.3627
1185.036, 209.1406
1185.518, 210.8139
1186.001, 214.6512
1186.483, 217.4956
1186.965, 215.1747
1187.447, 210.5923
1187.929, 205.5996
1188.411, 200.8979
1188.893, 200.9098
1189.375, 207.4965
1189.858, 212.3923
1190.340, 213.5433
1190.822, 213.2899
1191.304, 214.3257
1191.786, 215.7755
1192.268, 216.4374
1192.750, 216.1581
1193.232, 216.7524
1193.714, 219.2205
1194.197, 219.1122
1194.679, 214.0855
1195.161, 208.5592
1195.643, 209.2204
1196.125, 213.0229
1196.607, 216.4784
1197.089, 219.2807
1197.571, 217.6761
1198.053, 208.3380
1198.536, 205.2899
1199.018, 216.7015
1199.500, 231.0499
1199.982, 229.1552
1200.464, 218.6971
1200.946, 211.0404
1201.428, 208.8042
1201.910, 208.6850
1202.393, 211.1239
1202.875, 213.7488
1203.357, 216.0968
1203.839, 217.0925
1204.321, 212.6979
1204.803, 206.3915
1205.285, 204.5858
1205.767, 211.4262
1206.250, 214.3045
1206.732, 211.2984
1207.214, 209.3220
1207.696, 213.7224
1208.178, 220.0080
1208.660, 219.5665
1209.142, 215.2664
1209.624, 212.5120
1210.106, 212.9120
1210.589, 214.7676
1211.071, 218.7424
1211.553, 222.0693
1212.035, 223.0751
1212.517, 222.2571
1212.999, 219.4855
1213.481, 215.7586
1213.963, 213.2011
1214.445, 213.0004
1214.928, 213.0435
1215.410, 213.5694
1215.892, 213.5850
1216.374, 211.4665
1216.856, 208.9326
1217.338, 209.2804
1217.820, 211.4001
1218.302, 212.4774
1218.785, 209.8482
1219.267, 210.9956
1219.749, 217.6730
1220.231, 222.6113
1220.713, 216.5469
1221.195, 207.4499
1221.677, 209.0090
1222.159, 217.3138
1222.641, 220.0617
1223.124, 210.6234
1223.606, 207.1131
1224.088, 211.8103
1224.570, 216.6008
1225.052, 212.5667
1225.534, 205.6526
1226.016, 203.9307
1226.498, 206.0892
1226.980, 206.6378
1227.463, 203.5425
1227.945, 203.5720
1228.427, 208.1100
1228.909, 211.4936
1229.391, 206.0341
1229.873, 198.3472
1230.355, 196.2619
1230.837, 198.8181
1231.320, 201.1596
1231.802, 202.5136
1232.284, 205.5558
1232.766, 210.9953
1233.248, 215.3866
1233.730, 213.1800
1234.212, 210.0931
1234.694, 213.4488
1235.177, 221.1694
1235.659, 223.7632
1236.141, 219.7561
1236.623, 217.0839
1237.105, 216.8909
1237.587, 216.6882
1238.069, 213.0535
1238.551, 209.3499
1239.033, 209.3377
1239.516, 207.7401
1239.998, 207.3274
1240.480, 208.9491
1240.962, 208.4399
1241.444, 211.5373
1241.926, 213.9496
1242.408, 210.9200
1242.890, 206.7808
1243.372, 204.5218
1243.855, 203.9457
1244.337, 204.0238
1244.819, 204.7471
1245.301, 206.6378
1245.783, 209.8306
1246.265, 212.8749
1246.747, 215.5563
1247.229, 216.7534
1247.712, 214.3966
1248.194, 210.4350
1248.676, 209.5924
1249.158, 211.6299
1249.640, 212.8408
1250.122, 212.6217
1250.604, 212.7116
1251.086, 215.7793
1251.568, 217.6999
1252.051, 215.4060
1252.533, 211.2325
1253.015, 210.7035
1253.497, 213.1263
1253.979, 214.9317
1254.461, 215.5478
1254.943, 215.5984
1255.425, 215.1529
1255.907, 214.4439
1256.390, 213.2548
1256.872, 212.2244
1257.354, 212.9584
1257.836, 214.9394
1258.318, 217.0088
1258.800, 219.0367
1259.282, 218.6022
1259.764, 210.7525
1260.247, 205.6924
1260.729, 206.9564
1261.211, 211.1483
1261.693, 212.0729
1262.175, 211.4550
1262.657, 214.0188
1263.139, 214.1828
1263.621, 213.4932
1264.104, 217.0785
1264.586, 213.8930
1265.068, 217.2282
1265.550, 222.6217
1266.032, 224.4719
1266.514, 223.4502
1266.996, 219.3924
1267.478, 212.5005
1267.960, 208.7796
1268.443, 208.5939
1268.925, 212.2358
1269.407, 221.1941
1269.889, 229.1299
1270.371, 226.6969
1270.853, 220.1335
1271.335, 216.3974
1271.817, 216.0046
1272.299, 215.0755
1272.782, 213.0764
1273.264, 214.4133
1273.746, 220.9038
1274.228, 226.5792
1274.710, 224.4057
1275.192, 220.0275
1275.674, 218.2275
1276.156, 218.6309
1276.639, 218.9485
1277.121, 219.1841
1277.603, 217.8043
1278.085, 214.1684
1278.567, 212.3558
1279.049, 217.7480
1279.531, 223.6992
1280.013, 227.0860
1280.495, 227.5552
1280.978, 222.3914
1281.460, 212.7926
1281.942, 206.4463
1282.424, 204.6819
1282.906, 204.4094
1283.388, 202.8941
1283.870, 204.4104
1284.352, 212.2052
1284.834, 221.6063
1285.317, 221.9596
1285.799, 216.5206
1286.281, 214.2528
1286.763, 216.2908
1287.245, 218.0911
1287.727, 216.3951
1288.209, 217.7331
1288.691, 225.2791
1289.173, 232.6292
1289.656, 228.5877
1290.138, 219.3240
1290.620, 214.8238
1291.102, 215.8315
1291.584, 217.2747
1292.066, 218.5165
1292.548, 220.5808
1293.030, 224.2342
1293.513, 226.2428
1293.995, 219.7861
1294.477, 212.3045
1294.959, 213.2655
1295.441, 221.1460
1295.923, 222.7851
1296.405, 217.3098
1296.887, 213.3979
1297.370, 212.3328
1297.852, 212.9502
1298.334, 215.5192
1298.816, 218.2408
1299.298, 220.3044
1299.780, 221.3284
1300.262, 219.8999
1300.744, 216.3894
1301.226, 215.2732
1301.708, 216.9885
1302.191, 219.7864
1302.673, 225.4118
1303.155, 228.2247
1303.637, 226.9580
1304.119, 221.5293
##END=



