##NAMES=Macfallite
##RRUFFID=R060391
##IDEAL CHEMISTRY=Ca_2_Mn^3+^_3_(SiO_4_)(Si_2_O_7_)(OH)_3_
##LOCALITY=near Manganese Lake, Copper Harbor, Keweenaw County, Michigan, USA
##OWNER=RRUFF
##SOURCE=Michael Scott
##DESCRIPTION=Reddish-brown radial aggregate of bladed crystals associated with braunite, quartz, calcite
##STATUS=The identification of this mineral has been confirmed by single-crystal X-ray diffraction.
##URL=rruff.info/R060391
178.7805, 294.7663
179.2626, 296.4627
179.7447, 297.4893
180.2268, 298.5281
180.7090, 299.9621
181.1911, 301.8780
181.6732, 304.5756
182.1553, 308.2014
182.6374, 312.6845
183.1195, 318.2210
183.6017, 325.1314
184.0838, 331.6633
184.5659, 335.2468
185.0480, 336.4554
185.5301, 338.3848
186.0123, 343.1932
186.4944, 349.9344
186.9765, 355.5107
187.4586, 359.8071
187.9407, 363.1898
188.4228, 366.3533
188.9050, 369.2232
189.3871, 371.0539
189.8692, 370.9146
190.3513, 369.2209
190.8334, 368.0236
191.3155, 367.4421
191.7977, 367.3271
192.2798, 367.6548
192.7619, 368.4274
193.2440, 368.9932
193.7261, 368.9432
194.2082, 368.3316
194.6904, 367.7323
195.1725, 367.1734
195.6546, 366.6482
196.1367, 366.4048
196.6188, 366.5192
197.1009, 365.9843
197.5831, 363.8003
198.0652, 359.9580
198.5473, 357.2654
199.0294, 356.1788
199.5115, 355.8663
199.9937, 354.4866
200.4758, 351.8746
200.9579, 349.3442
201.4400, 347.9998
201.9221, 348.0134
202.4042, 346.5767
202.8864, 343.0436
203.3685, 338.4656
203.8506, 335.4434
204.3327, 334.3282
204.8148, 333.4351
205.2969, 331.7502
205.7791, 329.1024
206.2612, 326.9802
206.7433, 325.6932
207.2254, 324.8092
207.7075, 323.0124
208.1896, 319.8514
208.6718, 317.0779
209.1539, 315.6080
209.6360, 315.5672
210.1181, 316.4019
210.6002, 318.6128
211.0823, 321.4001
211.5645, 322.4087
212.0466, 321.2252
212.5287, 319.2670
213.0108, 317.3486
213.4929, 315.6646
213.9750, 313.0910
214.4572, 308.9240
214.9393, 304.0947
215.4214, 301.5182
215.9035, 302.1901
216.3856, 303.0680
216.8678, 302.2622
217.3499, 298.8529
217.8320, 296.7879
218.3141, 296.6526
218.7962, 297.8551
219.2783, 298.6433
219.7605, 299.0355
220.2426, 298.9505
220.7247, 298.2305
221.2068, 296.5499
221.6889, 295.1481
222.1710, 294.0585
222.6532, 293.2904
223.1353, 292.8623
223.6174, 292.6169
224.0995, 292.9749
224.5816, 294.3857
225.0637, 297.7971
225.5459, 299.7733
226.0280, 299.4594
226.5101, 297.8170
226.9922, 298.0245
227.4743, 301.5600
227.9564, 304.6237
228.4386, 304.9898
228.9207, 300.5061
229.4028, 298.7473
229.8849, 301.4520
230.3670, 306.5465
230.8492, 307.9445
231.3313, 303.2241
231.8134, 298.4575
232.2955, 296.5207
232.7776, 298.9832
233.2597, 300.7074
233.7419, 301.4435
234.2240, 301.4908
234.7061, 301.6434
235.1882, 302.2101
235.6703, 302.4280
236.1524, 301.7931
236.6346, 299.3672
237.1167, 298.3735
237.5988, 299.6544
238.0809, 302.0568
238.5630, 302.7325
239.0451, 300.3480
239.5273, 298.2310
240.0094, 297.9485
240.4915, 300.7361
240.9736, 302.0736
241.4557, 301.4854
241.9378, 299.6632
242.4200, 297.9764
242.9021, 296.2347
243.3842, 294.8953
243.8663, 294.3027
244.3484, 295.0345
244.8306, 294.7573
245.3127, 293.2382
245.7948, 290.8432
246.2769, 288.0846
246.7590, 284.3661
247.2411, 281.3602
247.7233, 279.8911
248.2054, 280.6263
248.6875, 280.4225
249.1696, 279.1699
249.6517, 277.0687
250.1338, 274.2722
250.6160, 270.0698
251.0981, 266.4383
251.5802, 264.0376
252.0623, 262.9815
252.5444, 262.6467
253.0265, 263.8396
253.5087, 265.0980
253.9908, 263.9538
254.4729, 258.5622
254.9550, 254.5435
255.4371, 254.0394
255.9192, 257.7157
256.4014, 259.4194
256.8835, 258.4059
257.3656, 256.1548
257.8477, 254.3250
258.3298, 252.8443
258.8120, 251.9512
259.2941, 251.7912
259.7762, 252.4047
260.2583, 253.1428
260.7404, 254.2849
261.2225, 255.2063
261.7047, 255.0615
262.1868, 253.2025
262.6689, 252.0170
263.1510, 252.3976
263.6331, 254.2620
264.1152, 254.6126
264.5974, 253.0361
265.0795, 250.5711
265.5616, 248.1234
266.0437, 245.5303
266.5258, 243.4273
267.0079, 242.1922
267.4901, 241.6429
267.9722, 240.0951
268.4543, 237.1158
268.9364, 233.9846
269.4185, 231.6677
269.9006, 230.2051
270.3828, 229.5264
270.8649, 230.1308
271.3470, 231.4643
271.8291, 230.4380
272.3112, 226.0251
272.7933, 221.8970
273.2755, 220.9878
273.7576, 223.7317
274.2397, 226.6266
274.7218, 229.4888
275.2039, 232.0917
275.6860, 233.4435
276.1682, 233.1637
276.6503, 233.1116
277.1324, 234.9451
277.6145, 238.9013
278.0966, 241.2688
278.5787, 241.3915
279.0609, 240.2332
279.5430, 239.7553
280.0251, 239.9859
280.5072, 240.7934
280.9893, 242.3077
281.4715, 244.5143
281.9536, 246.5033
282.4357, 248.1510
282.9178, 249.7359
283.3999, 251.9182
283.8820, 254.7475
284.3642, 257.2143
284.8463, 258.9303
285.3284, 259.8931
285.8105, 259.6882
286.2926, 257.8954
286.7747, 256.2569
287.2569, 257.6490
287.7390, 261.9517
288.2211, 266.0799
288.7032, 269.1154
289.1853, 271.0023
289.6674, 271.2044
290.1496, 269.5298
290.6317, 267.4719
291.1138, 266.6046
291.5959, 266.8345
292.0780, 267.5766
292.5602, 269.2198
293.0423, 271.0401
293.5244, 270.9572
294.0065, 268.9156
294.4886, 266.2650
294.9707, 263.7837
295.4529, 261.5934
295.9350, 260.2889
296.4171, 260.5106
296.8992, 261.2113
297.3813, 260.5913
297.8634, 258.7112
298.3456, 256.1459
298.8277, 252.4462
299.3098, 248.4384
299.7919, 246.1905
300.2740, 246.7204
300.7561, 248.1517
301.2383, 248.0832
301.7204, 246.7570
302.2025, 245.2658
302.6846, 244.3638
303.1667, 243.7095
303.6488, 242.6831
304.1310, 241.0670
304.6131, 239.4915
305.0952, 238.5789
305.5773, 238.2208
306.0594, 238.1255
306.5415, 238.8177
307.0237, 239.3563
307.5058, 238.4658
307.9879, 235.8325
308.4700, 233.1560
308.9521, 231.6600
309.4343, 231.0095
309.9164, 230.5691
310.3985, 229.7552
310.8806, 229.2530
311.3627, 229.7821
311.8448, 231.3876
312.3270, 233.0088
312.8091, 234.3353
313.2912, 235.2207
313.7733, 235.4921
314.2554, 234.2608
314.7375, 233.1156
315.2197, 232.9890
315.7018, 233.7833
316.1839, 234.6393
316.6660, 235.0176
317.1481, 235.3755
317.6302, 236.1565
318.1124, 238.8931
318.5945, 240.3043
319.0766, 237.8272
319.5587, 232.7933
320.0408, 229.7792
320.5229, 231.8576
321.0051, 235.1989
321.4872, 237.6976
321.9693, 238.5954
322.4514, 239.4063
322.9335, 240.5005
323.4156, 241.7052
323.8978, 242.6869
324.3799, 242.5182
324.8620, 242.8738
325.3441, 244.5505
325.8262, 248.1512
326.3083, 251.2886
326.7905, 253.7293
327.2726, 255.6375
327.7547, 257.1864
328.2368, 256.8033
328.7189, 257.7310
329.2010, 261.2676
329.6832, 267.7629
330.1653, 272.6373
330.6474, 275.4429
331.1295, 276.9467
331.6116, 277.5685
332.0938, 275.1909
332.5759, 275.3847
333.0580, 279.7152
333.5401, 287.5786
334.0222, 294.2094
334.5043, 299.5425
334.9865, 303.8154
335.4686, 306.9996
335.9507, 308.4389
336.4328, 310.6233
336.9149, 313.9031
337.3970, 317.9446
337.8792, 321.7812
338.3613, 325.4918
338.8434, 328.9377
339.3255, 332.1803
339.8076, 335.3026
340.2898, 337.6094
340.7719, 338.9785
341.2540, 339.7911
341.7361, 340.3995
342.2182, 340.7067
342.7003, 341.6794
343.1825, 343.9980
343.6646, 347.3771
344.1467, 349.3156
344.6288, 349.4578
345.1109, 350.0334
345.5930, 353.8986
346.0752, 360.6739
346.5573, 366.9750
347.0394, 371.9237
347.5215, 375.9933
348.0036, 380.1970
348.4857, 384.5206
348.9679, 389.1318
349.4500, 393.8544
349.9321, 398.9954
350.4142, 405.5782
350.8963, 414.0959
351.3784, 423.2826
351.8606, 431.6667
352.3427, 439.2528
352.8248, 446.2354
353.3069, 452.2596
353.7890, 457.8282
354.2711, 463.6343
354.7533, 469.6870
355.2354, 476.1547
355.7175, 483.1163
356.1996, 490.5371
356.6817, 498.3558
357.1638, 507.7777
357.6460, 516.6821
358.1281, 522.6772
358.6102, 526.0225
359.0923, 530.4769
359.5744, 539.1142
360.0565, 549.4261
360.5387, 558.9656
361.0208, 566.4807
361.5029, 573.8578
361.9850, 582.2657
362.4671, 591.2361
362.9492, 599.2091
363.4314, 606.3620
363.9135, 611.8564
364.3956, 615.3340
364.8777, 616.9930
365.3598, 616.0390
365.8419, 612.9117
366.3241, 606.9806
366.8062, 597.2781
367.2883, 582.0498
367.7704, 564.6018
368.2526, 545.3217
368.7347, 523.8056
369.2168, 502.5643
369.6989, 480.8347
370.1810, 459.7908
370.6631, 440.1404
371.1453, 421.8245
371.6274, 404.9724
372.1095, 389.6704
372.5916, 375.7548
373.0737, 362.4678
373.5558, 348.8098
374.0380, 337.0871
374.5201, 328.9602
375.0022, 326.0180
375.4843, 321.4758
375.9664, 314.3382
376.4485, 306.1850
376.9307, 300.1463
377.4128, 296.6985
377.8949, 293.5385
378.3770, 289.5064
378.8591, 284.7251
379.3412, 281.7715
379.8234, 281.0831
380.3055, 280.7677
380.7876, 278.0562
381.2697, 273.1457
381.7518, 270.1390
382.2339, 270.9669
382.7161, 273.7205
383.1982, 273.6839
383.6803, 270.9433
384.1624, 267.9517
384.6445, 266.8974
385.1266, 266.9895
385.6088, 266.0255
386.0909, 263.3301
386.5730, 260.6215
387.0551, 260.4770
387.5372, 262.0760
388.0193, 263.0609
388.5015, 261.2950
388.9836, 258.7643
389.4657, 258.0318
389.9478, 259.3040
390.4299, 259.9228
390.9120, 257.0471
391.3942, 252.7801
391.8763, 249.7635
392.3584, 250.0644
392.8405, 250.7250
393.3226, 250.2270
393.8047, 248.7850
394.2869, 247.3789
394.7690, 246.3241
395.2511, 245.4693
395.7332, 244.7688
396.2154, 244.4041
396.6975, 243.8022
397.1796, 242.5214
397.6617, 240.9710
398.1438, 239.8611
398.6259, 239.7640
399.1081, 239.6367
399.5902, 238.8684
400.0723, 237.1524
400.5544, 236.9680
401.0365, 240.1455
401.5186, 243.4911
402.0008, 244.1953
402.4829, 240.3369
402.9650, 237.4944
403.4471, 236.4954
403.9292, 236.9658
404.4113, 237.4921
404.8935, 238.3418
405.3756, 238.6493
405.8577, 237.6519
406.3398, 235.0573
406.8219, 233.4913
407.3040, 233.1633
407.7862, 233.5230
408.2683, 233.9559
408.7504, 234.4784
409.2325, 234.6464
409.7146, 234.2623
410.1967, 233.4284
410.6789, 232.2431
411.1610, 230.6828
411.6431, 229.4319
412.1252, 229.2998
412.6073, 229.9678
413.0894, 230.6213
413.5716, 231.2280
414.0537, 231.4590
414.5358, 230.3060
415.0179, 228.2892
415.5000, 227.0751
415.9821, 228.4778
416.4643, 230.6601
416.9464, 231.7494
417.4285, 231.5585
417.9106, 230.8114
418.3927, 229.5298
418.8748, 228.0997
419.3570, 227.0034
419.8391, 226.1448
420.3212, 225.8850
420.8033, 226.6591
421.2854, 228.2659
421.7675, 229.7615
422.2497, 231.1049
422.7318, 232.0856
423.2139, 232.4842
423.6960, 231.8275
424.1781, 231.5902
424.6602, 232.4028
425.1424, 233.6034
425.6245, 234.1991
426.1066, 233.5066
426.5887, 233.0542
427.0709, 233.0974
427.5530, 233.6343
428.0351, 234.7653
428.5172, 237.0099
428.9993, 239.1491
429.4814, 240.1052
429.9636, 239.3546
430.4457, 239.4544
430.9278, 240.7201
431.4099, 242.8384
431.8920, 245.6103
432.3741, 249.3123
432.8563, 251.6685
433.3384, 250.8142
433.8205, 247.3946
434.3026, 246.1262
434.7847, 247.2195
435.2668, 248.7059
435.7490, 247.9393
436.2311, 245.7496
436.7132, 245.2515
437.1953, 247.8439
437.6774, 251.6771
438.1595, 254.6902
438.6417, 256.9041
439.1238, 258.4032
439.6059, 259.2079
440.0880, 259.3426
440.5701, 258.5396
441.0522, 256.5894
441.5344, 254.9953
442.0165, 254.6416
442.4986, 255.2011
442.9807, 256.2802
443.4628, 258.3117
443.9449, 260.2866
444.4271, 261.9240
444.9092, 263.2072
445.3913, 264.0878
445.8734, 263.6570
446.3555, 263.4823
446.8376, 264.4250
447.3198, 267.3023
447.8019, 269.8021
448.2840, 271.6660
448.7661, 273.1933
449.2482, 274.8214
449.7303, 276.8372
450.2125, 278.4049
450.6946, 279.0681
451.1767, 278.9551
451.6588, 279.9411
452.1409, 282.2745
452.6230, 285.1470
453.1052, 288.1781
453.5873, 291.4561
454.0694, 293.9548
454.5515, 295.4037
455.0337, 296.4350
455.5158, 297.7313
455.9979, 299.3508
456.4800, 302.0480
456.9621, 307.4532
457.4442, 313.8020
457.9264, 316.6336
458.4085, 316.0410
458.8906, 314.5631
459.3727, 314.0467
459.8548, 314.0540
460.3369, 313.9089
460.8191, 313.4596
461.3012, 312.8468
461.7833, 311.9114
462.2654, 310.9057
462.7475, 310.3535
463.2296, 311.3278
463.7118, 312.1169
464.1939, 311.6295
464.6760, 309.7816
465.1581, 307.8423
465.6402, 305.8864
466.1223, 304.1818
466.6045, 302.9453
467.0866, 302.7687
467.5687, 302.3503
468.0508, 300.6653
468.5329, 298.7757
469.0150, 299.2514
469.4972, 304.1977
469.9793, 308.2596
470.4614, 309.1858
470.9435, 306.7066
471.4256, 306.8518
471.9077, 310.5745
472.3899, 315.0283
472.8720, 317.4505
473.3541, 317.6427
473.8362, 318.6225
474.3183, 320.9858
474.8004, 324.0718
475.2826, 326.6135
475.7647, 328.6434
476.2468, 330.6333
476.7289, 332.9133
477.2110, 335.3109
477.6931, 337.4474
478.1753, 339.3272
478.6574, 340.9272
479.1395, 342.0854
479.6216, 342.9907
480.1037, 344.0113
480.5858, 345.6044
481.0680, 346.6562
481.5501, 345.7453
482.0322, 343.7617
482.5143, 342.5679
482.9964, 344.5681
483.4786, 346.0860
483.9607, 345.2032
484.4428, 341.6740
484.9249, 337.7383
485.4070, 332.7464
485.8892, 328.2040
486.3713, 325.2561
486.8534, 325.8027
487.3355, 325.1334
487.8176, 322.4658
488.2997, 318.7465
488.7819, 315.8557
489.2640, 313.7701
489.7461, 312.6148
490.2282, 312.8811
490.7103, 314.4052
491.1924, 314.0757
491.6746, 311.4906
492.1567, 308.6905
492.6388, 307.7227
493.1209, 308.3283
493.6030, 308.2522
494.0851, 307.0228
494.5673, 305.4773
495.0494, 304.6684
495.5315, 304.5418
496.0136, 304.9307
496.4957, 305.9826
496.9778, 307.3732
497.4600, 309.0532
497.9421, 310.9315
498.4242, 312.2391
498.9063, 311.4750
499.3884, 310.5419
499.8705, 311.2662
500.3527, 314.7176
500.8348, 318.0450
501.3169, 320.2608
501.7990, 321.6977
502.2811, 322.8320
502.7632, 321.5537
503.2454, 322.3256
503.7275, 327.5487
504.2096, 336.5917
504.6917, 342.6990
505.1738, 344.4598
505.6559, 345.1328
506.1381, 346.1428
506.6202, 347.2992
507.1023, 349.7780
507.5844, 354.0206
508.0665, 358.7897
508.5486, 362.6626
509.0308, 365.6584
509.5129, 367.0421
509.9950, 365.8884
510.4771, 363.7578
510.9592, 364.1675
511.4413, 366.9283
511.9235, 370.2375
512.4056, 373.8573
512.8877, 376.9540
513.3698, 377.8200
513.8519, 376.1727
514.3340, 374.7149
514.8162, 375.7525
515.2983, 377.9936
515.7804, 379.8595
516.2625, 380.1083
516.7446, 380.9031
517.2267, 383.2271
517.7089, 386.7434
518.1910, 390.6070
518.6731, 394.9742
519.1552, 399.3738
519.6373, 403.5470
520.1194, 407.4729
520.6016, 411.6506
521.0837, 416.0674
521.5658, 420.6874
522.0479, 425.6897
522.5300, 431.4540
523.0121, 435.8759
523.4943, 438.3644
523.9764, 440.0477
524.4585, 443.5771
524.9406, 448.9756
525.4227, 452.4927
525.9048, 451.9415
526.3870, 448.9830
526.8691, 447.8018
527.3513, 448.2967
527.8334, 448.9651
528.3155, 449.4980
528.7976, 449.2485
529.2797, 446.9741
529.7618, 442.2567
530.2440, 437.1512
530.7261, 433.3301
531.2082, 429.9318
531.6903, 425.9272
532.1724, 419.4997
532.6545, 413.9297
533.1367, 411.1500
533.6188, 410.2170
534.1009, 407.6446
534.5830, 400.8416
535.0651, 394.3620
535.5472, 390.0956
536.0294, 388.5220
536.5115, 385.3274
536.9936, 379.7340
537.4757, 373.6115
537.9578, 368.4986
538.4399, 364.4651
538.9221, 360.6938
539.4042, 356.9785
539.8863, 353.6286
540.3684, 351.3092
540.8505, 349.9537
541.3326, 348.8079
541.8148, 347.9810
542.2969, 346.9316
542.7790, 344.1727
543.2611, 339.9580
543.7432, 336.2186
544.2253, 334.7078
544.7075, 334.0992
545.1896, 333.0118
545.6717, 331.1761
546.1538, 329.3276
546.6359, 327.7699
547.1180, 326.4080
547.6002, 325.1611
548.0823, 324.1450
548.5644, 323.0851
549.0465, 321.4584
549.5286, 319.7239
550.0107, 319.2533
550.4929, 320.7204
550.9750, 322.4583
551.4571, 324.1348
551.9392, 325.7555
552.4213, 326.3170
552.9034, 325.4706
553.3856, 324.6613
553.8677, 325.1326
554.3498, 326.7914
554.8319, 328.5223
555.3140, 330.2023
555.7961, 331.9895
556.2783, 334.1344
556.7604, 336.5465
557.2425, 338.9405
557.7246, 341.1364
558.2067, 343.3626
558.6888, 346.1711
559.1710, 349.2686
559.6531, 351.6107
560.1352, 351.5922
560.6173, 351.5171
561.0994, 353.0688
561.5815, 356.6727
562.0637, 359.3542
562.5458, 359.3041
563.0279, 358.9236
563.5100, 360.0286
563.9921, 364.0986
564.4742, 367.0805
564.9564, 368.8063
565.4385, 369.4613
565.9206, 369.2523
566.4027, 368.1048
566.8848, 366.3984
567.3669, 364.0347
567.8491, 361.3000
568.3312, 359.0779
568.8133, 357.3758
569.2954, 356.2393
569.7775, 355.8748
570.2596, 356.0627
570.7418, 356.7224
571.2239, 357.8893
571.7060, 358.4013
572.1881, 356.3294
572.6702, 353.5928
573.1523, 352.3795
573.6345, 353.9570
574.1166, 355.8297
574.5987, 357.0799
575.0808, 358.0150
575.5629, 359.1700
576.0450, 360.4346
576.5272, 362.1303
577.0093, 364.3496
577.4914, 367.0413
577.9735, 370.0491
578.4556, 373.6230
578.9377, 376.9488
579.4199, 379.4751
579.9020, 381.1486
580.3841, 383.4460
580.8662, 386.3476
581.3483, 389.9371
581.8304, 394.6557
582.3126, 400.1585
582.7947, 405.1470
583.2768, 409.2176
583.7589, 413.2198
584.2410, 418.0653
584.7231, 423.5032
585.2053, 429.0380
585.6874, 434.3593
586.1696, 439.8022
586.6517, 445.9773
587.1338, 452.5544
587.6159, 458.1058
588.0980, 460.5944
588.5801, 463.4406
589.0623, 468.6016
589.5444, 476.6960
590.0265, 482.9012
590.5086, 486.7068
590.9907, 489.2809
591.4728, 491.5531
591.9550, 493.6160
592.4371, 494.6599
592.9192, 494.5036
593.4013, 493.6211
593.8834, 493.0560
594.3655, 492.5666
594.8477, 490.4416
595.3298, 485.5282
595.8119, 479.5344
596.2940, 475.1874
596.7761, 471.8524
597.2582, 467.2628
597.7404, 459.3685
598.2225, 450.4447
598.7046, 442.1180
599.1867, 434.4974
599.6688, 426.2542
600.1509, 415.9156
600.6331, 405.4920
601.1152, 396.3311
601.5973, 388.6347
602.0794, 381.6900
602.5615, 376.1999
603.0436, 370.8453
603.5258, 363.9154
604.0079, 354.9459
604.4900, 347.0856
604.9721, 341.0493
605.4542, 336.2055
605.9363, 331.4456
606.4185, 326.8272
606.9006, 322.4403
607.3827, 318.5490
607.8648, 314.8701
608.3469, 311.0155
608.8290, 307.0211
609.3112, 303.2980
609.7933, 300.1418
610.2754, 297.2665
610.7575, 294.3614
611.2396, 291.4054
611.7217, 288.7240
612.2039, 286.4854
612.6860, 284.5398
613.1681, 282.7589
613.6502, 281.2586
614.1323, 279.7164
614.6144, 278.0788
615.0966, 276.4579
615.5787, 275.0633
616.0608, 273.9942
616.5429, 272.5343
617.0250, 270.4351
617.5071, 267.9515
617.9893, 265.6939
618.4714, 263.6288
618.9535, 261.5739
619.4356, 259.5504
619.9177, 257.3769
620.3998, 254.6409
620.8820, 251.4178
621.3641, 248.3948
621.8462, 246.1532
622.3283, 244.0748
622.8104, 241.5821
623.2925, 238.3054
623.7747, 235.7578
624.2568, 234.8382
624.7389, 234.3622
625.2210, 233.3824
625.7031, 231.6760
626.1852, 229.9498
626.6674, 228.3075
627.1495, 226.6062
627.6316, 224.5276
628.1137, 222.0491
628.5958, 219.7549
629.0779, 217.8287
629.5601, 216.1689
630.0422, 214.8665
630.5243, 213.7694
631.0064, 212.0939
631.4885, 208.6156
631.9706, 204.9005
632.4528, 202.4356
632.9349, 201.2203
633.4170, 200.3895
633.8991, 200.1672
634.3812, 199.7652
634.8633, 198.6737
635.3455, 196.6815
635.8276, 194.4688
636.3097, 191.4414
636.7918, 188.7686
637.2739, 187.6210
637.7560, 188.5175
638.2382, 188.8885
638.7203, 188.5025
639.2024, 187.5727
639.6845, 186.1609
640.1666, 184.3544
640.6487, 182.9264
641.1309, 182.0864
641.6130, 181.7392
642.0951, 181.8736
642.5772, 182.4117
643.0594, 183.1349
643.5415, 184.8949
644.0236, 185.9773
644.5057, 184.9746
644.9879, 182.0837
645.4700, 179.4590
645.9521, 177.3530
646.4342, 175.8553
646.9163, 175.1886
647.3984, 175.6047
647.8806, 174.9662
648.3627, 172.6171
648.8448, 170.4424
649.3269, 170.1749
649.8090, 171.8195
650.2911, 173.2721
650.7733, 174.4971
651.2554, 175.0627
651.7375, 174.1709
652.2196, 172.2338
652.7017, 170.1359
653.1838, 167.7253
653.6660, 166.0081
654.1481, 166.6461
654.6302, 168.3739
655.1123, 168.9620
655.5944, 165.9556
656.0765, 163.5048
656.5587, 163.0258
657.0408, 164.2264
657.5229, 165.6918
658.0050, 168.0210
658.4871, 169.5061
658.9692, 169.2462
659.4514, 167.4528
659.9335, 166.5666
660.4156, 166.6791
660.8977, 166.9593
661.3798, 166.8971
661.8619, 166.5411
662.3441, 166.0258
662.8262, 165.3616
663.3083, 164.4876
663.7904, 162.7689
664.2725, 161.0993
664.7546, 160.6335
665.2368, 162.1677
665.7189, 163.3621
666.2010, 163.0588
666.6831, 162.1866
667.1652, 161.8410
667.6473, 162.8833
668.1295, 163.0031
668.6116, 161.3519
669.0937, 159.2030
669.5758, 159.3458
670.0579, 162.0468
670.5400, 164.4687
671.0222, 165.8464
671.5043, 166.3618
671.9864, 165.9431
672.4685, 164.8458
672.9506, 164.3440
673.4327, 165.6766
673.9149, 167.5347
674.3970, 168.9505
674.8791, 169.8876
675.3612, 170.2954
675.8433, 168.9259
676.3254, 168.0655
676.8076, 169.3437
677.2897, 173.3829
677.7718, 175.9248
678.2539, 176.4191
678.7360, 176.1602
679.2181, 175.8123
679.7003, 175.3213
680.1824, 175.3592
680.6645, 175.9548
681.1466, 177.0540
681.6287, 179.3316
682.1108, 182.0750
682.5930, 182.9985
683.0751, 181.2324
683.5572, 179.0631
684.0393, 178.3766
684.5214, 178.5158
685.0035, 178.5337
685.4857, 178.4279
685.9678, 177.8188
686.4499, 176.0462
686.9320, 173.7796
687.4141, 172.4949
687.8962, 172.7220
688.3784, 173.0065
688.8605, 173.2532
689.3426, 173.2453
689.8247, 171.8848
690.3068, 169.0942
690.7889, 166.7897
691.2711, 166.3404
691.7532, 166.7979
692.2353, 166.2474
692.7174, 164.8190
693.1995, 163.2998
693.6816, 161.3589
694.1638, 160.1101
694.6459, 161.0045
695.1280, 164.2534
695.6101, 166.3499
696.0922, 165.2793
696.5743, 163.7818
697.0565, 163.4103
697.5386, 164.5695
698.0207, 165.1620
698.5028, 165.1323
698.9849, 164.6594
699.4670, 163.7081
699.9492, 162.3519
700.4313, 161.2189
700.9135, 160.2925
701.3956, 160.1170
701.8777, 162.6011
702.3598, 165.9361
702.8419, 166.7143
703.3240, 162.4269
703.8062, 158.6382
704.2883, 158.8183
704.7704, 161.1230
705.2525, 162.8604
705.7346, 163.2641
706.2167, 163.4882
706.6989, 163.6419
707.1810, 163.6839
707.6631, 163.4555
708.1452, 162.8958
708.6273, 162.4460
709.1094, 162.1595
709.5916, 162.1496
710.0737, 163.0546
710.5558, 164.6248
711.0379, 165.6033
711.5200, 164.7757
712.0021, 163.4572
712.4843, 162.6661
712.9664, 162.3861
713.4485, 162.4283
713.9306, 163.1279
714.4127, 163.7625
714.8948, 163.9903
715.3770, 163.8112
715.8591, 163.4689
716.3412, 162.9269
716.8233, 162.2933
717.3054, 161.3810
717.7875, 160.2362
718.2697, 160.5351
718.7518, 162.3898
719.2339, 164.2151
719.7160, 164.3326
720.1981, 163.6430
720.6802, 163.7249
721.1624, 164.8518
721.6445, 165.7593
722.1266, 165.2881
722.6087, 164.5049
723.0908, 164.3798
723.5729, 165.6338
724.0551, 166.3668
724.5372, 166.2537
725.0193, 165.8175
725.5014, 165.7134
725.9835, 166.1331
726.4656, 165.4417
726.9478, 163.0252
727.4299, 160.6343
727.9120, 161.4050
728.3941, 164.3417
728.8762, 166.1561
729.3583, 165.4698
729.8405, 164.4041
730.3226, 164.6449
730.8047, 165.7257
731.2868, 166.8665
731.7689, 168.3716
732.2510, 169.2857
732.7332, 168.8590
733.2153, 167.8136
733.6974, 167.6852
734.1795, 168.9768
734.6616, 169.8059
735.1437, 169.6556
735.6259, 168.7922
736.1080, 167.6160
736.5901, 166.2099
737.0722, 165.3082
737.5543, 165.2818
738.0364, 165.9264
738.5186, 167.5137
739.0007, 169.6689
739.4828, 171.1083
739.9649, 170.8988
740.4470, 170.2114
740.9291, 169.2637
741.4113, 168.1554
741.8934, 167.7771
742.3755, 168.4677
742.8576, 169.3121
743.3397, 170.1736
743.8218, 170.9367
744.3040, 170.3196
744.7861, 168.2907
745.2682, 166.3799
745.7503, 165.6467
746.2324, 165.6936
746.7145, 166.0417
747.1967, 166.6410
747.6788, 167.1803
748.1609, 167.4510
748.6430, 167.6292
749.1251, 167.7991
749.6072, 167.9436
750.0894, 168.2742
750.5715, 169.1277
751.0536, 169.7341
751.5357, 169.2859
752.0178, 167.5785
752.4999, 167.6730
752.9821, 169.8426
753.4642, 172.0411
753.9463, 172.0845
754.4284, 170.8066
754.9105, 169.8215
755.3926, 169.3310
755.8748, 169.0778
756.3569, 169.6406
756.8390, 169.9168
757.3211, 168.6086
757.8032, 163.6500
758.2853, 161.4714
758.7675, 163.8396
759.2496, 167.5809
759.7318, 170.0834
760.2139, 171.3048
760.6960, 171.2545
761.1781, 169.6864
761.6602, 167.7226
762.1423, 166.7461
762.6245, 166.4397
763.1066, 165.9491
763.5887, 164.9246
764.0708, 164.2628
764.5529, 165.1538
765.0350, 166.5370
765.5172, 167.1538
765.9993, 165.7230
766.4814, 164.8628
766.9635, 164.8054
767.4456, 165.3018
767.9277, 166.2329
768.4099, 167.7841
768.8920, 168.5155
769.3741, 168.0883
769.8562, 167.0369
770.3383, 165.6264
770.8204, 164.2206
771.3026, 163.9508
771.7847, 165.8850
772.2668, 167.6931
772.7489, 167.5097
773.2310, 166.2427
773.7131, 165.3218
774.1953, 165.4083
774.6774, 165.3786
775.1595, 164.7984
775.6416, 164.2252
776.1237, 165.0146
776.6058, 167.4779
777.0880, 168.7683
777.5701, 167.8262
778.0522, 166.0752
778.5343, 166.1223
779.0164, 167.3657
779.4985, 168.0483
779.9807, 166.9926
780.4628, 165.7228
780.9449, 164.8914
781.4270, 164.5495
781.9091, 164.7836
782.3912, 166.3244
782.8734, 167.5589
783.3555, 168.2674
783.8376, 168.5352
784.3197, 168.3894
784.8018, 167.7569
785.2839, 167.7133
785.7661, 169.0279
786.2482, 170.4739
786.7303, 169.4306
787.2124, 166.7538
787.6945, 164.8528
788.1766, 165.4803
788.6588, 166.5326
789.1409, 166.8190
789.6230, 166.6880
790.1051, 167.2197
790.5872, 169.4767
791.0693, 170.8563
791.5515, 170.5826
792.0336, 169.2300
792.5157, 168.2509
792.9978, 167.6443
793.4799, 167.8297
793.9620, 169.4060
794.4442, 171.3378
794.9263, 171.9366
795.4084, 171.6286
795.8905, 171.6116
796.3726, 173.2062
796.8547, 174.3802
797.3369, 173.4911
797.8190, 171.4318
798.3011, 171.3897
798.7832, 174.7722
799.2653, 177.4257
799.7474, 178.2152
800.2296, 177.7165
800.7117, 177.3491
801.1938, 177.1256
801.6759, 177.2263
802.1580, 178.1141
802.6401, 178.9472
803.1223, 178.3053
803.6044, 176.8104
804.0865, 176.0908
804.5686, 177.5659
805.0507, 179.0056
805.5328, 179.5816
806.0150, 179.6142
806.4971, 180.0470
806.9792, 181.2209
807.4613, 181.6364
807.9434, 180.6073
808.4255, 178.8693
808.9077, 178.0745
809.3898, 178.0719
809.8719, 178.1814
810.3540, 177.8815
810.8361, 177.8076
811.3182, 178.6010
811.8004, 179.9945
812.2825, 181.3734
812.7646, 182.9910
813.2467, 184.0326
813.7288, 184.0548
814.2109, 183.5376
814.6931, 183.7881
815.1752, 184.9148
815.6573, 185.8370
816.1394, 186.1927
816.6215, 186.2844
817.1037, 186.4419
817.5858, 186.7420
818.0679, 187.3914
818.5500, 188.6732
819.0322, 190.1185
819.5143, 191.8212
819.9964, 193.4615
820.4785, 194.1998
820.9606, 192.6414
821.4427, 192.8839
821.9249, 196.3302
822.4070, 201.0851
822.8891, 203.0749
823.3712, 202.5198
823.8533, 201.7268
824.3354, 201.0619
824.8176, 201.0403
825.2997, 202.8824
825.7818, 205.6486
826.2639, 207.6879
826.7460, 207.8968
827.2281, 208.0223
827.7103, 208.1560
828.1924, 208.5736
828.6745, 209.7672
829.1566, 211.9582
829.6387, 213.9225
830.1208, 215.3191
830.6030, 216.7784
831.0851, 219.8253
831.5672, 223.6727
832.0493, 226.0152
832.5314, 225.7651
833.0135, 225.0829
833.4957, 225.3352
833.9778, 226.0369
834.4599, 226.6261
834.9420, 226.9373
835.4241, 227.2031
835.9063, 227.4282
836.3884, 227.6107
836.8705, 227.6920
837.3526, 227.6814
837.8347, 227.8487
838.3168, 228.2298
838.7990, 228.7989
839.2811, 230.1402
839.7632, 231.4066
840.2453, 231.2185
840.7274, 228.7893
841.2095, 226.6941
841.6917, 226.1527
842.1738, 226.0415
842.6559, 225.6279
843.1380, 225.2312
843.6201, 222.9008
844.1022, 217.9225
844.5844, 213.4725
845.0665, 213.6317
845.5486, 216.5676
846.0307, 216.8768
846.5128, 214.0229
846.9949, 211.2699
847.4771, 210.9324
847.9592, 211.4773
848.4413, 211.7049
848.9234, 211.3381
849.4055, 211.5656
849.8876, 212.8574
850.3698, 214.0212
850.8519, 214.2072
851.3340, 213.5220
851.8161, 213.4073
852.2982, 213.8571
852.7803, 214.3007
853.2625, 213.9345
853.7446, 213.5984
854.2267, 214.4531
854.7088, 216.4119
855.1909, 217.9621
855.6730, 218.6019
856.1552, 218.6812
856.6373, 217.9409
857.1194, 216.6362
857.6015, 217.1128
858.0836, 219.6535
858.5657, 221.8654
859.0479, 222.2193
859.5300, 221.8197
860.0121, 222.8857
860.4942, 225.0802
860.9763, 227.2251
861.4584, 228.5041
861.9406, 229.7862
862.4227, 231.4033
862.9048, 233.3459
863.3869, 235.4721
863.8690, 237.9366
864.3511, 240.2561
864.8333, 242.4115
865.3154, 244.2698
865.7975, 245.5259
866.2796, 246.2792
866.7617, 247.0123
867.2438, 248.0426
867.7260, 248.8614
868.2081, 248.2845
868.6902, 247.4812
869.1723, 248.2561
869.6544, 254.1001
870.1365, 256.9663
870.6187, 255.2398
871.1008, 251.7519
871.5829, 250.1937
872.0650, 250.5068
872.5471, 251.8471
873.0292, 254.4115
873.5114, 256.2878
873.9935, 254.8193
874.4756, 251.8051
874.9577, 249.5575
875.4399, 248.7655
875.9220, 247.9228
876.4041, 246.3632
876.8862, 244.8964
877.3683, 244.1654
877.8505, 244.3622
878.3326, 243.8765
878.8147, 242.6266
879.2968, 241.2940
879.7789, 240.7234
880.2610, 240.3665
880.7432, 238.8271
881.2253, 236.1217
881.7074, 234.6774
882.1895, 237.4953
882.6716, 240.1958
883.1537, 239.7357
883.6359, 236.3672
884.1180, 235.5552
884.6001, 237.9576
885.0822, 240.1487
885.5643, 240.5172
886.0464, 239.5244
886.5286, 237.5658
887.0107, 235.0493
887.4928, 233.6488
887.9749, 235.3070
888.4570, 237.2652
888.9391, 237.9463
889.4213, 237.8030
889.9034, 238.4265
890.3855, 240.2204
890.8676, 241.9172
891.3497, 243.3653
891.8318, 244.4444
892.3140, 244.7811
892.7961, 244.5569
893.2782, 244.4434
893.7603, 244.5293
894.2424, 245.0458
894.7245, 246.5127
895.2067, 248.3521
895.6888, 249.8867
896.1709, 251.4466
896.6530, 251.8064
897.1351, 250.4139
897.6172, 248.6820
898.0994, 248.0471
898.5815, 248.4076
899.0636, 249.1245
899.5457, 250.1416
900.0278, 251.3636
900.5099, 253.2268
900.9921, 254.9266
901.4742, 255.3056
901.9563, 253.8818
902.4384, 254.3108
902.9205, 258.7164
903.4026, 262.3986
903.8848, 262.5078
904.3669, 259.7042
904.8490, 260.0468
905.3311, 263.4192
905.8132, 266.6472
906.2953, 267.4514
906.7775, 267.4768
907.2596, 268.2350
907.7417, 269.6202
908.2238, 271.1903
908.7059, 272.8122
909.1880, 274.6855
909.6702, 277.2906
910.1523, 279.9026
910.6344, 280.3321
911.1165, 278.6422
911.5986, 277.8730
912.0807, 279.0419
912.5629, 280.9781
913.0450, 282.2348
913.5271, 283.4093
914.0092, 285.5295
914.4913, 290.0312
914.9734, 293.2587
915.4556, 293.6327
915.9377, 293.5321
916.4198, 295.2663
916.9019, 298.9789
917.3840, 302.0724
917.8661, 304.4411
918.3483, 306.0019
918.8304, 305.8423
919.3125, 305.3316
919.7946, 306.5063
920.2767, 309.5774
920.7589, 311.9315
921.2410, 312.0101
921.7231, 312.0176
922.2052, 312.9917
922.6873, 314.7351
923.1694, 315.4478
923.6516, 315.1019
924.1337, 314.4600
924.6158, 314.0517
925.0979, 313.4162
925.5800, 311.2440
926.0621, 308.3784
926.5443, 306.9052
927.0264, 309.5532
927.5085, 311.1014
927.9906, 309.9463
928.4727, 307.5607
928.9548, 306.4959
929.4370, 306.8203
929.9191, 306.6291
930.4012, 305.5512
930.8833, 304.0988
931.3654, 302.4311
931.8475, 300.9296
932.3297, 300.2748
932.8118, 301.0117
933.2939, 301.0399
933.7761, 299.1286
934.2582, 297.0993
934.7403, 296.1151
935.2224, 296.1995
935.7045, 295.5078
936.1866, 293.9793
936.6688, 293.1930
937.1509, 295.3257
937.6330, 298.0656
938.1151, 298.7381
938.5972, 297.5715
939.0793, 296.0929
939.5615, 293.9969
940.0436, 292.6045
940.5257, 292.4623
941.0078, 293.1108
941.4899, 293.4965
941.9720, 293.6094
942.4542, 293.0297
942.9363, 291.3214
943.4184, 289.6369
943.9005, 289.0656
944.3826, 289.3644
944.8647, 290.2847
945.3469, 292.7202
945.8290, 293.8304
946.3111, 292.7664
946.7932, 291.1935
947.2753, 290.8722
947.7574, 291.6642
948.2396, 290.6056
948.7217, 287.5881
949.2038, 284.0602
949.6859, 280.6564
950.1680, 277.6264
950.6501, 275.6357
951.1323, 274.5828
951.6144, 272.2337
952.0965, 267.4283
952.5786, 262.8810
953.0607, 259.1774
953.5428, 256.4563
954.0250, 255.8874
954.5071, 256.9883
954.9892, 256.8736
955.4713, 254.0165
955.9534, 250.3019
956.4355, 246.4373
956.9177, 242.8694
957.3998, 240.2489
957.8819, 239.3847
958.3640, 238.1174
958.8461, 236.5485
959.3282, 234.2637
959.8104, 229.9711
960.2925, 224.6273
960.7746, 222.0320
961.2567, 222.4733
961.7388, 223.1570
962.2209, 222.7108
962.7031, 221.5093
963.1852, 219.1108
963.6673, 215.7255
964.1494, 215.0734
964.6315, 218.4512
965.1136, 219.9667
965.5958, 216.6364
966.0779, 210.9047
966.5600, 207.4825
967.0421, 205.8436
967.5242, 204.6650
968.0063, 203.5072
968.4885, 202.5772
968.9706, 201.9484
969.4527, 201.5987
969.9348, 201.5879
970.4169, 202.1036
970.8990, 201.9662
971.3812, 201.0382
971.8633, 199.8660
972.3454, 199.0515
972.8275, 198.3247
973.3096, 197.2047
973.7917, 195.6588
974.2739, 194.2073
974.7560, 192.5466
975.2381, 191.6112
975.7202, 192.0322
976.2023, 193.4404
976.6844, 194.0693
977.1666, 193.9264
977.6487, 193.1249
978.1308, 191.4434
978.6129, 189.5770
979.0950, 187.7208
979.5771, 186.3259
980.0593, 186.1116
980.5414, 189.5547
981.0235, 190.6419
981.5056, 188.0359
981.9877, 184.6530
982.4698, 183.5701
982.9520, 184.3962
983.4341, 184.7345
983.9162, 184.4298
984.3983, 183.8507
984.8804, 182.6530
985.3625, 181.7840
985.8447, 182.2778
986.3268, 184.0603
986.8089, 184.8555
987.2910, 184.1950
987.7731, 183.8984
988.2552, 184.7563
988.7374, 186.0473
989.2195, 186.4027
989.7016, 185.9744
990.1837, 185.0935
990.6658, 183.6221
991.1479, 182.2114
991.6301, 180.7786
992.1122, 179.7929
992.5944, 179.6983
993.0765, 180.5953
993.5586, 182.0926
994.0407, 184.3335
994.5228, 185.9798
995.0049, 185.0757
995.4871, 183.4383
995.9692, 184.0995
996.4513, 186.6605
996.9334, 187.6300
997.4155, 182.9191
997.8976, 180.3643
998.3798, 182.7821
998.8619, 187.8222
999.3440, 189.8337
999.8261, 189.0847
1000.308, 187.9053
1000.790, 186.5840
1001.272, 186.0649
1001.755, 188.8288
1002.237, 191.8659
1002.719, 191.4857
1003.201, 185.3430
1003.683, 182.0553
1004.165, 182.2202
1004.647, 183.6711
1005.129, 185.6727
1005.612, 187.7251
1006.094, 187.9705
1006.576, 186.8147
1007.058, 186.1759
1007.540, 188.4981
1008.022, 189.9198
1008.504, 187.3345
1008.986, 183.4004
1009.468, 183.0224
1009.951, 186.7620
1010.433, 189.5957
1010.915, 190.7882
1011.397, 190.8784
1011.879, 189.8259
1012.361, 188.3855
1012.843, 187.4947
1013.325, 187.3443
1013.807, 187.3228
1014.290, 187.3332
1014.772, 187.4485
1015.254, 187.8591
1015.736, 188.3551
1016.218, 187.5907
1016.700, 185.9145
1017.182, 185.4029
1017.664, 188.3037
1018.147, 190.9321
1018.629, 190.6296
1019.111, 188.6765
1019.593, 186.9516
1020.075, 185.2610
1020.557, 184.8886
1021.039, 186.2440
1021.521, 187.5036
1022.003, 186.6030
1022.486, 184.5448
1022.968, 182.9420
1023.450, 181.9029
1023.932, 181.3723
1024.414, 181.5081
1024.896, 182.0301
1025.378, 183.3316
1025.860, 184.7047
1026.343, 183.6322
1026.825, 180.3447
1027.307, 177.7467
1027.789, 176.5734
1028.271, 176.4944
1028.753, 178.0844
1029.235, 180.1324
1029.717, 181.4416
1030.199, 182.1384
1030.682, 180.3527
1031.164, 174.5949
1031.646, 170.5021
1032.128, 173.2863
1032.610, 179.6589
1033.092, 180.8895
1033.574, 178.0804
1034.056, 175.2357
1034.539, 173.4124
1035.021, 172.7905
1035.503, 174.1852
1035.985, 176.3170
1036.467, 177.6633
1036.949, 178.2114
1037.431, 177.9629
1037.913, 176.8687
1038.396, 175.4669
1038.878, 174.0020
1039.360, 172.6169
1039.842, 171.1305
1040.324, 169.5895
1040.806, 169.6337
1041.288, 172.1440
1041.770, 174.3023
1042.252, 175.3201
1042.734, 175.3620
1043.217, 174.3653
1043.699, 172.7093
1044.181, 171.3398
1044.663, 170.3976
1045.145, 170.0912
1045.627, 170.8469
1046.109, 171.9999
1046.591, 173.2347
1047.074, 174.5904
1047.556, 174.7600
1048.038, 173.7409
1048.520, 172.8397
1049.002, 172.8635
1049.484, 173.4396
1049.966, 174.6958
1050.448, 176.2363
1050.931, 176.9471
1051.413, 176.4972
1051.895, 175.6917
1052.377, 174.4059
1052.859, 173.3064
1053.341, 173.2514
1053.823, 173.9707
1054.305, 174.9199
1054.787, 176.0354
1055.270, 177.2569
1055.752, 179.2610
1056.234, 180.5190
1056.716, 179.9367
1057.198, 178.2559
1057.680, 178.9790
1058.162, 181.8647
1058.644, 182.8712
1059.126, 179.8284
1059.609, 176.7255
1060.091, 178.0047
1060.573, 180.7132
1061.055, 181.2897
1061.537, 178.5279
1062.019, 177.2747
1062.501, 177.7960
1062.983, 178.8591
1063.466, 179.7603
1063.948, 180.5992
1064.430, 182.2186
1064.912, 183.9869
1065.394, 184.0032
1065.876, 178.8363
1066.358, 175.5794
1066.840, 175.8742
1067.323, 177.8909
1067.805, 179.7396
1068.287, 181.3736
1068.769, 182.3615
1069.251, 182.6729
1069.733, 182.4060
1070.215, 180.8639
1070.697, 179.4503
1071.179, 179.4381
1071.661, 180.4165
1072.144, 180.6424
1072.626, 180.0611
1073.108, 178.8767
1073.590, 176.7875
1074.072, 175.2215
1074.554, 176.8830
1075.036, 179.7509
1075.518, 180.9652
1076.001, 179.4796
1076.483, 179.0344
1076.965, 180.6422
1077.447, 181.7795
1077.929, 180.8078
1078.411, 178.6283
1078.893, 177.7353
1079.375, 177.8933
1079.858, 178.3419
1080.340, 178.7698
1080.822, 179.4343
1081.304, 181.2179
1081.786, 182.6633
1082.268, 182.1727
1082.750, 179.7048
1083.232, 177.5168
1083.714, 175.6564
1084.197, 174.8646
1084.679, 176.6289
1085.161, 178.7783
1085.643, 179.8832
1086.125, 179.9822
1086.607, 179.3938
1087.089, 177.6343
1087.571, 177.2406
1088.054, 178.9541
1088.536, 180.7015
1089.018, 179.3412
1089.500, 176.7968
1089.982, 175.9823
1090.464, 177.2355
1090.946, 178.4329
1091.428, 179.2494
1091.911, 179.7907
1092.393, 180.0628
1092.875, 180.1004
1093.357, 179.8157
1093.839, 179.3655
1094.321, 179.4106
1094.803, 180.5665
1095.285, 180.8200
1095.767, 177.6326
1096.250, 174.6822
1096.732, 174.7415
1097.214, 177.5999
1097.696, 178.8719
1098.178, 178.6258
1098.660, 178.1975
1099.142, 178.1425
1099.624, 178.3299
1100.106, 178.8690
1100.589, 179.5059
1101.071, 179.8178
1101.553, 179.6601
1102.035, 179.6060
1102.517, 179.6541
1102.999, 179.8809
1103.481, 180.3819
1103.963, 181.0767
1104.446, 182.1217
1104.928, 183.3061
1105.410, 183.7845
1105.892, 182.7268
1106.374, 182.0853
1106.856, 182.3056
1107.338, 182.6479
1107.820, 181.2870
1108.302, 179.4422
1108.785, 180.7513
1109.267, 185.6043
1109.749, 189.2260
1110.231, 189.2365
1110.713, 187.8515
1111.195, 185.2307
1111.677, 182.2925
1112.159, 182.2497
1112.641, 184.4905
1113.124, 184.7298
1113.606, 181.1434
1114.088, 178.6767
1114.570, 182.7408
1115.052, 187.5633
1115.534, 187.9751
1116.016, 184.2310
1116.498, 183.3889
1116.981, 185.5379
1117.463, 187.7306
1117.945, 189.0251
1118.427, 189.2498
1118.909, 186.7347
1119.391, 183.6753
1119.873, 183.4935
1120.355, 187.8741
1120.838, 190.9884
1121.320, 192.7808
1121.802, 193.5329
1122.284, 193.3889
1122.766, 192.3600
1123.248, 189.3589
1123.730, 185.5007
1124.212, 183.7432
1124.694, 186.9064
1125.177, 189.4005
1125.659, 190.6627
1126.141, 191.5256
1126.623, 192.8385
1127.105, 194.4507
1127.587, 196.1643
1128.069, 197.8851
1128.551, 199.0150
1129.033, 199.2583
1129.516, 198.7828
1129.998, 197.1310
1130.480, 195.3770
1130.962, 195.7724
1131.444, 197.7926
1131.926, 198.4063
1132.408, 197.1078
1132.890, 196.4056
1133.373, 198.6319
1133.855, 201.1802
1134.337, 202.7671
1134.819, 203.4636
1135.301, 203.2607
1135.783, 202.1976
1136.265, 201.1936
1136.747, 200.3835
1137.229, 200.1148
1137.712, 201.4470
1138.194, 202.8934
1138.676, 202.6914
1139.158, 200.8349
1139.640, 200.7598
1140.122, 202.6497
1140.604, 204.5478
1141.086, 205.7046
1141.569, 206.4607
1142.051, 207.4363
1142.533, 208.1785
1143.015, 207.8575
1143.497, 205.5858
1143.979, 205.2081
1144.461, 207.1713
1144.943, 209.3012
1145.426, 210.6540
1145.908, 211.0139
1146.390, 208.6276
1146.872, 205.1821
1147.354, 204.1935
1147.836, 209.3361
1148.318, 213.0383
1148.800, 215.1859
1149.282, 215.7275
1149.765, 213.3854
1150.247, 209.8764
1150.729, 209.4363
1151.211, 211.4769
1151.693, 213.1714
1152.175, 212.5476
1152.657, 212.8468
1153.139, 215.0608
1153.621, 217.6110
1154.104, 218.3382
1154.586, 217.8665
1155.068, 218.4963
1155.550, 220.2518
1156.032, 221.5726
1156.514, 221.6047
1156.996, 221.1186
1157.478, 220.0140
1157.961, 218.9325
1158.443, 219.4114
1158.925, 221.0602
1159.407, 221.2854
1159.889, 219.6638
1160.371, 218.9396
1160.853, 222.6660
1161.335, 225.6629
1161.818, 224.4529
1162.300, 220.8738
1162.782, 220.4570
1163.264, 222.9481
1163.746, 225.3420
1164.228, 227.0945
1164.710, 228.0315
1165.192, 227.2176
1165.674, 226.2441
1166.156, 226.4057
1166.639, 227.4984
1167.121, 228.2630
1167.603, 228.6979
1168.085, 228.8218
1168.567, 228.5448
1169.049, 228.2595
1169.531, 228.4668
1170.013, 228.7208
1170.496, 228.3343
1170.978, 227.2701
1171.460, 227.7606
1171.942, 229.9436
1172.424, 231.0845
1172.906, 229.1827
1173.388, 227.0984
1173.870, 228.5673
1174.353, 231.1563
1174.835, 231.2896
1175.317, 228.0851
1175.799, 226.7224
1176.281, 227.3598
1176.763, 228.5100
1177.245, 229.4182
1177.727, 230.3278
1178.209, 231.9712
1178.692, 233.6604
1179.174, 234.0574
1179.656, 232.0139
1180.138, 231.7295
1180.620, 233.5603
1181.102, 235.3026
1181.584, 235.0370
1182.066, 234.0293
1182.548, 233.9231
1183.031, 234.3434
1183.513, 234.3651
1183.995, 233.6491
1184.477, 232.9126
1184.959, 232.0684
1185.441, 231.6451
1185.923, 232.5152
1186.405, 233.8165
1186.888, 234.3067
1187.370, 234.1650
1187.852, 234.1157
1188.334, 234.2767
1188.816, 234.5914
1189.298, 235.0880
1189.780, 235.6138
1190.262, 236.3003
1190.745, 236.7446
1191.227, 236.3022
1191.709, 235.0212
1192.191, 233.2553
1192.673, 230.2892
1193.155, 228.4404
1193.637, 228.1059
1194.119, 228.7086
1194.601, 229.9143
1195.084, 231.4090
1195.566, 232.9162
1196.048, 234.3336
1196.530, 234.8564
1197.012, 233.8920
1197.494, 232.9457
1197.976, 232.2498
1198.458, 231.7866
1198.941, 231.7915
1199.423, 231.9009
1199.905, 231.3001
1200.387, 229.9355
1200.869, 229.1953
1201.351, 229.7240
1201.833, 230.1516
1202.315, 230.2395
1202.797, 229.8838
1203.280, 228.2994
1203.762, 226.4122
1204.244, 226.1364
1204.726, 227.8598
1205.208, 228.7846
1205.690, 228.3987
1206.172, 227.1750
1206.654, 224.7720
1207.136, 222.4532
1207.619, 223.0711
1208.101, 225.1009
1208.583, 226.0168
1209.065, 225.3775
1209.547, 223.2677
1210.029, 218.2745
1210.511, 215.1553
1210.993, 216.2561
1211.476, 219.0674
1211.958, 219.0044
1212.440, 217.2894
1212.922, 216.1411
1213.404, 216.1536
1213.886, 215.7573
1214.368, 214.3179
1214.850, 213.6796
1215.333, 215.2319
1215.815, 217.0914
1216.297, 215.3774
1216.779, 211.5881
1217.261, 208.2969
1217.743, 205.9424
1218.225, 204.5666
1218.707, 204.1326
1219.189, 204.7287
1219.672, 207.2151
1220.154, 209.6997
1220.636, 207.5364
1221.118, 203.2201
1221.600, 201.3979
1222.082, 204.3795
1222.564, 205.9634
1223.046, 205.5296
1223.528, 204.7126
1224.011, 204.2932
1224.493, 204.0696
1224.975, 203.9750
1225.457, 203.7378
1225.939, 202.7973
1226.421, 200.5155
1226.903, 199.0069
1227.385, 198.4765
1227.868, 198.0218
1228.350, 196.8696
1228.832, 195.8049
1229.314, 196.7764
1229.796, 195.4741
1230.278, 194.7460
1230.760, 194.7993
1231.242, 193.0834
1231.724, 193.5564
1232.207, 194.0339
1232.689, 192.9765
1233.171, 191.4741
1233.653, 190.8722
1234.135, 190.8306
1234.617, 190.8149
1235.099, 190.8900
1235.581, 190.3222
1236.063, 188.9239
1236.546, 188.2598
1237.028, 190.4038
1237.510, 192.6208
1237.992, 191.3605
1238.474, 191.7074
1238.956, 190.8532
1239.438, 188.5031
1239.920, 187.5048
1240.403, 183.9884
1240.885, 180.8175
1241.367, 180.1329
1241.849, 180.2851
1242.331, 179.8796
1242.813, 179.4004
1243.295, 179.6871
1243.777, 181.0506
1244.260, 181.3347
1244.742, 180.5427
1245.224, 179.6640
1245.706, 178.8484
1246.188, 178.6567
1246.670, 180.6839
1247.152, 182.8209
1247.634, 181.9792
1248.116, 177.8145
1248.599, 175.6865
1249.081, 175.5224
1249.563, 175.6491
1250.045, 175.1845
1250.527, 174.6198
1251.009, 174.0806
1251.491, 173.6743
1251.973, 173.8084
1252.455, 174.4048
1252.938, 172.7316
1253.420, 169.2021
1253.902, 167.1816
1254.384, 170.3595
1254.866, 173.0128
1255.348, 172.8179
1255.830, 171.4749
1256.313, 170.0943
1256.795, 168.7866
1257.277, 168.3349
1257.759, 168.6387
1258.241, 169.1531
1258.723, 169.8511
1259.205, 170.4609
1259.687, 171.3015
1260.169, 171.5028
1260.651, 169.8172
1261.134, 166.9678
1261.616, 165.2428
1262.098, 164.4451
1262.580, 163.7460
1263.062, 162.1744
1263.544, 161.8522
1264.026, 163.2464
1264.508, 165.1446
1264.991, 167.1319
1265.473, 168.5912
1265.955, 167.7819
1266.437, 165.4986
1266.919, 163.8491
1267.401, 163.9982
1267.883, 163.5229
1268.365, 162.1202
1268.848, 161.1253
1269.330, 162.2100
1269.812, 163.7932
1270.294, 163.3677
1270.776, 161.9702
1271.258, 162.0510
1271.740, 164.4875
1272.222, 166.1834
1272.704, 167.0987
1273.187, 167.1543
1273.669, 165.3163
1274.151, 163.5609
1274.633, 164.4186
1275.115, 162.9501
1275.597, 162.3263
1276.079, 162.4932
1276.561, 161.2093
1277.043, 161.8050
1277.526, 162.4027
1278.008, 161.8669
1278.490, 160.9928
1278.972, 159.9459
1279.454, 159.0303
1279.936, 158.5930
1280.418, 158.6217
1280.900, 158.6895
1281.383, 158.7345
1281.865, 158.3618
1282.347, 156.2227
1282.829, 155.3125
1283.311, 157.7743
1283.793, 160.4222
1284.275, 160.3905
1284.757, 158.6063
1285.240, 159.2603
1285.722, 161.6116
1286.204, 163.2417
1286.686, 163.0665
1287.168, 162.3033
1287.650, 160.9227
1288.132, 159.5279
1288.614, 158.3997
1289.096, 157.6587
1289.578, 157.6315
1290.061, 158.1622
1290.543, 159.0230
1291.025, 160.8682
1291.507, 160.8763
1291.989, 158.4842
1292.471, 156.9538
1292.953, 159.1441
1293.435, 161.8871
1293.918, 160.8545
1294.400, 158.1680
1294.882, 157.0895
1295.364, 158.0129
1295.846, 157.9759
1296.328, 156.9579
1296.810, 156.4088
1297.292, 157.3125
1297.775, 158.3370
1298.257, 158.4168
1298.739, 158.8962
1299.221, 158.3592
1299.703, 158.8215
1300.185, 158.6595
1300.667, 158.0069
1301.149, 157.6962
1301.631, 158.2617
1302.114, 158.5634
1302.596, 158.4075
##END=



