##NAMES=Mackayite
##RRUFFID=R060592
##IDEAL CHEMISTRY=Fe^3+^Te^4+^_2_O_5_(OH)
##LOCALITY=Lone Pine mine, Lone Pine Hill area, Wilcox District, Catron County, New Mexico, USA
##OWNER=RRUFF
##SOURCE=Michael Scott
##DESCRIPTION=Greenish-brown octahedral crystals associated with quartz
##STATUS=The identification of this mineral is confirmed by single-crystal X-ray diffraction and chemical analysis.
##URL=rruff.info/R060592
##MEASURED CHEMISTRY=(Fe^3+^_0.98_Al_0.02_)_Î£=1_Te^4+^_2.00_O_5_(OH) ; OH by difference and stoichiometry
9.059570e+001, 5.179374e+003
9.107782e+001, 5.009444e+003
9.155994e+001, 4.949271e+003
9.204205e+001, 5.064838e+003
9.252417e+001, 5.246172e+003
9.300629e+001, 5.466512e+003
9.348840e+001, 5.681749e+003
9.397052e+001, 5.837499e+003
9.445264e+001, 5.894518e+003
9.493475e+001, 5.952745e+003
9.541687e+001, 5.946053e+003
9.589898e+001, 5.860831e+003
9.638110e+001, 5.739859e+003
9.686321e+001, 5.614227e+003
9.734533e+001, 5.492455e+003
9.782745e+001, 5.368227e+003
9.830956e+001, 5.275526e+003
9.879168e+001, 5.217095e+003
9.927380e+001, 5.176386e+003
9.975591e+001, 5.149247e+003
1.002380e+002, 5.134435e+003
1.007201e+002, 5.131270e+003
1.012023e+002, 5.138425e+003
1.016844e+002, 5.158725e+003
1.021665e+002, 5.192228e+003
1.026486e+002, 5.239207e+003
1.031307e+002, 5.297977e+003
1.036128e+002, 5.366807e+003
1.040950e+002, 5.445570e+003
1.045771e+002, 5.534513e+003
1.050592e+002, 5.634927e+003
1.055413e+002, 5.743294e+003
1.060234e+002, 5.856460e+003
1.065055e+002, 5.979964e+003
1.069877e+002, 6.108448e+003
1.074698e+002, 6.222598e+003
1.079519e+002, 6.331009e+003
1.084340e+002, 6.409584e+003
1.089161e+002, 6.441354e+003
1.093982e+002, 6.436868e+003
1.098804e+002, 6.420037e+003
1.103625e+002, 6.407388e+003
1.108446e+002, 6.395306e+003
1.113267e+002, 6.407373e+003
1.118088e+002, 6.447655e+003
1.122909e+002, 6.505632e+003
1.127731e+002, 6.577714e+003
1.132552e+002, 6.662817e+003
1.137373e+002, 6.762293e+003
1.142194e+002, 6.876596e+003
1.147015e+002, 7.005695e+003
1.151836e+002, 7.157471e+003
1.156658e+002, 7.333721e+003
1.161479e+002, 7.530588e+003
1.166300e+002, 7.742061e+003
1.171121e+002, 7.966034e+003
1.175942e+002, 8.209183e+003
1.180763e+002, 8.490751e+003
1.185584e+002, 8.813422e+003
1.190406e+002, 9.155766e+003
1.195227e+002, 9.506364e+003
1.200048e+002, 9.870342e+003
1.204869e+002, 1.026292e+004
1.209690e+002, 1.068149e+004
1.214511e+002, 1.114556e+004
1.219333e+002, 1.167379e+004
1.224154e+002, 1.228266e+004
1.228975e+002, 1.292636e+004
1.233796e+002, 1.362406e+004
1.238617e+002, 1.440502e+004
1.243438e+002, 1.500646e+004
1.248260e+002, 1.528762e+004
1.253081e+002, 1.531945e+004
1.257902e+002, 1.509107e+004
1.262723e+002, 1.454008e+004
1.267544e+002, 1.379895e+004
1.272365e+002, 1.315619e+004
1.277187e+002, 1.259656e+004
1.282008e+002, 1.218133e+004
1.286829e+002, 1.198607e+004
1.291650e+002, 1.190500e+004
1.296471e+002, 1.181395e+004
1.301292e+002, 1.164848e+004
1.306114e+002, 1.140428e+004
1.310935e+002, 1.101262e+004
1.315756e+002, 1.033633e+004
1.320577e+002, 9.631315e+003
1.325398e+002, 8.911889e+003
1.330219e+002, 8.208396e+003
1.335041e+002, 7.569494e+003
1.339862e+002, 7.034778e+003
1.344683e+002, 6.611032e+003
1.349504e+002, 6.265620e+003
1.354325e+002, 6.003231e+003
1.359146e+002, 5.796143e+003
1.363968e+002, 5.639279e+003
1.368789e+002, 5.528061e+003
1.373610e+002, 5.448060e+003
1.378431e+002, 5.387026e+003
1.383252e+002, 5.347424e+003
1.388073e+002, 5.321474e+003
1.392895e+002, 5.310864e+003
1.397716e+002, 5.312790e+003
1.402537e+002, 5.325603e+003
1.407358e+002, 5.349944e+003
1.412179e+002, 5.381238e+003
1.417000e+002, 5.414514e+003
1.421821e+002, 5.449388e+003
1.426643e+002, 5.486363e+003
1.431464e+002, 5.523824e+003
1.436285e+002, 5.563092e+003
1.441106e+002, 5.609005e+003
1.445927e+002, 5.662244e+003
1.450748e+002, 5.724121e+003
1.455570e+002, 5.792248e+003
1.460391e+002, 5.866615e+003
1.465212e+002, 5.951847e+003
1.470033e+002, 6.054016e+003
1.474854e+002, 6.174639e+003
1.479675e+002, 6.299101e+003
1.484497e+002, 6.435276e+003
1.489318e+002, 6.569032e+003
1.494139e+002, 6.698532e+003
1.498960e+002, 6.821524e+003
1.503781e+002, 6.927758e+003
1.508602e+002, 7.002408e+003
1.513424e+002, 7.047776e+003
1.518245e+002, 7.051571e+003
1.523066e+002, 7.013944e+003
1.527887e+002, 6.944244e+003
1.532708e+002, 6.842507e+003
1.537529e+002, 6.710377e+003
1.542351e+002, 6.559118e+003
1.547172e+002, 6.416258e+003
1.551993e+002, 6.261764e+003
1.556814e+002, 6.145290e+003
1.561635e+002, 6.071826e+003
1.566456e+002, 6.035735e+003
1.571278e+002, 6.033878e+003
1.576099e+002, 6.065470e+003
1.580920e+002, 6.125901e+003
1.585741e+002, 6.197907e+003
1.590562e+002, 6.297734e+003
1.595383e+002, 6.389392e+003
1.600205e+002, 6.472028e+003
1.605026e+002, 6.540505e+003
1.609847e+002, 6.583875e+003
1.614668e+002, 6.595739e+003
1.619489e+002, 6.574955e+003
1.624310e+002, 6.529088e+003
1.629131e+002, 6.446242e+003
1.633953e+002, 6.352728e+003
1.638774e+002, 6.257136e+003
1.643595e+002, 6.160424e+003
1.648416e+002, 6.073632e+003
1.653237e+002, 6.000505e+003
1.658058e+002, 5.944888e+003
1.662880e+002, 5.911393e+003
1.667701e+002, 5.904011e+003
1.672522e+002, 5.916185e+003
1.677343e+002, 5.940820e+003
1.682164e+002, 5.977380e+003
1.686985e+002, 6.028854e+003
1.691807e+002, 6.098306e+003
1.696628e+002, 6.182853e+003
1.701449e+002, 6.282352e+003
1.706270e+002, 6.395880e+003
1.711091e+002, 6.524441e+003
1.715912e+002, 6.669487e+003
1.720734e+002, 6.828413e+003
1.725555e+002, 7.011997e+003
1.730376e+002, 7.217250e+003
1.735197e+002, 7.446749e+003
1.740018e+002, 7.705665e+003
1.744839e+002, 7.995418e+003
1.749661e+002, 8.316286e+003
1.754482e+002, 8.668367e+003
1.759303e+002, 9.076420e+003
1.764124e+002, 9.492203e+003
1.768945e+002, 9.924511e+003
1.773766e+002, 1.035386e+004
1.778588e+002, 1.074872e+004
1.783409e+002, 1.109131e+004
1.788230e+002, 1.138226e+004
1.793051e+002, 1.159916e+004
1.797872e+002, 1.177217e+004
1.802693e+002, 1.184418e+004
1.807515e+002, 1.181517e+004
1.812336e+002, 1.167024e+004
1.817157e+002, 1.137422e+004
1.821978e+002, 1.088524e+004
1.826799e+002, 1.018201e+004
1.831620e+002, 9.479233e+003
1.836441e+002, 8.723216e+003
1.841263e+002, 8.012817e+003
1.846084e+002, 7.392812e+003
1.850905e+002, 6.866442e+003
1.855726e+002, 6.419756e+003
1.860547e+002, 6.046599e+003
1.865368e+002, 5.757836e+003
1.870190e+002, 5.510703e+003
1.875011e+002, 5.315462e+003
1.879832e+002, 5.153883e+003
1.884653e+002, 5.017539e+003
1.889474e+002, 4.905300e+003
1.894296e+002, 4.809997e+003
1.899117e+002, 4.727354e+003
1.903938e+002, 4.658049e+003
1.908759e+002, 4.597479e+003
1.913580e+002, 4.547477e+003
1.918401e+002, 4.505362e+003
1.923223e+002, 4.468815e+003
1.928044e+002, 4.437951e+003
1.932865e+002, 4.410451e+003
1.937686e+002, 4.383375e+003
1.942507e+002, 4.357389e+003
1.947328e+002, 4.336829e+003
1.952150e+002, 4.325539e+003
1.956971e+002, 4.320093e+003
1.961792e+002, 4.313676e+003
1.966613e+002, 4.305219e+003
1.971434e+002, 4.296977e+003
1.976255e+002, 4.290315e+003
1.981077e+002, 4.285007e+003
1.985898e+002, 4.280892e+003
1.990719e+002, 4.276820e+003
1.995540e+002, 4.273565e+003
2.000361e+002, 4.274647e+003
2.005182e+002, 4.281498e+003
2.010004e+002, 4.291331e+003
2.014825e+002, 4.303019e+003
2.019646e+002, 4.316107e+003
2.024467e+002, 4.329489e+003
2.029288e+002, 4.343030e+003
2.034109e+002, 4.356632e+003
2.038930e+002, 4.367848e+003
2.043752e+002, 4.375170e+003
2.048573e+002, 4.381382e+003
2.053394e+002, 4.387940e+003
2.058215e+002, 4.394333e+003
2.063036e+002, 4.399200e+003
2.067857e+002, 4.401075e+003
2.072679e+002, 4.399785e+003
2.077500e+002, 4.399014e+003
2.082321e+002, 4.397119e+003
2.087142e+002, 4.397323e+003
2.091963e+002, 4.401209e+003
2.096784e+002, 4.408241e+003
2.101606e+002, 4.416637e+003
2.106427e+002, 4.424446e+003
2.111248e+002, 4.430940e+003
2.116069e+002, 4.443041e+003
2.120890e+002, 4.463126e+003
2.125711e+002, 4.485877e+003
2.130533e+002, 4.508447e+003
2.135354e+002, 4.531568e+003
2.140175e+002, 4.558423e+003
2.144996e+002, 4.592061e+003
2.149817e+002, 4.633302e+003
2.154638e+002, 4.676833e+003
2.159460e+002, 4.721201e+003
2.164281e+002, 4.768575e+003
2.169102e+002, 4.819938e+003
2.173923e+002, 4.875291e+003
2.178744e+002, 4.934886e+003
2.183565e+002, 4.998525e+003
2.188387e+002, 5.066442e+003
2.193208e+002, 5.140182e+003
2.198029e+002, 5.219891e+003
2.202850e+002, 5.304716e+003
2.207671e+002, 5.394554e+003
2.212492e+002, 5.489249e+003
2.217314e+002, 5.588500e+003
2.222135e+002, 5.692997e+003
2.226956e+002, 5.803121e+003
2.231777e+002, 5.911133e+003
2.236598e+002, 6.025417e+003
2.241419e+002, 6.131839e+003
2.246240e+002, 6.222486e+003
2.251062e+002, 6.296588e+003
2.255883e+002, 6.351073e+003
2.260704e+002, 6.385382e+003
2.265525e+002, 6.395483e+003
2.270346e+002, 6.373829e+003
2.275167e+002, 6.309534e+003
2.279989e+002, 6.219553e+003
2.284810e+002, 6.114241e+003
2.289631e+002, 5.993902e+003
2.294452e+002, 5.870178e+003
2.299273e+002, 5.745517e+003
2.304094e+002, 5.625038e+003
2.308916e+002, 5.522028e+003
2.313737e+002, 5.439720e+003
2.318558e+002, 5.375823e+003
2.323379e+002, 5.328888e+003
2.328200e+002, 5.299372e+003
2.333021e+002, 5.283542e+003
2.337843e+002, 5.282081e+003
2.342664e+002, 5.292843e+003
2.347485e+002, 5.314450e+003
2.352306e+002, 5.347149e+003
2.357127e+002, 5.390128e+003
2.361948e+002, 5.442463e+003
2.366770e+002, 5.504495e+003
2.371591e+002, 5.576071e+003
2.376412e+002, 5.662092e+003
2.381233e+002, 5.756476e+003
2.386054e+002, 5.855046e+003
2.390875e+002, 5.958478e+003
2.395697e+002, 6.062816e+003
2.400518e+002, 6.164681e+003
2.405339e+002, 6.269572e+003
2.410160e+002, 6.354825e+003
2.414981e+002, 6.419100e+003
2.419802e+002, 6.457725e+003
2.424624e+002, 6.462489e+003
2.429445e+002, 6.429755e+003
2.434266e+002, 6.364249e+003
2.439087e+002, 6.270651e+003
2.443908e+002, 6.142670e+003
2.448729e+002, 6.002835e+003
2.453550e+002, 5.847296e+003
2.458372e+002, 5.689143e+003
2.463193e+002, 5.537615e+003
2.468014e+002, 5.395243e+003
2.472835e+002, 5.264608e+003
2.477656e+002, 5.147837e+003
2.482477e+002, 5.045192e+003
2.487299e+002, 4.958291e+003
2.492120e+002, 4.888650e+003
2.496941e+002, 4.831810e+003
2.501762e+002, 4.785832e+003
2.506583e+002, 4.749917e+003
2.511404e+002, 4.722931e+003
2.516226e+002, 4.704228e+003
2.521047e+002, 4.699536e+003
2.525868e+002, 4.690400e+003
2.530689e+002, 4.676680e+003
2.535510e+002, 4.657885e+003
2.540331e+002, 4.634398e+003
2.545153e+002, 4.606029e+003
2.549974e+002, 4.570931e+003
2.554795e+002, 4.525139e+003
2.559616e+002, 4.463951e+003
2.564437e+002, 4.401857e+003
2.569258e+002, 4.336229e+003
2.574080e+002, 4.272126e+003
2.578901e+002, 4.211850e+003
2.583722e+002, 4.156306e+003
2.588543e+002, 4.105432e+003
2.593364e+002, 4.059181e+003
2.598185e+002, 4.017690e+003
2.603007e+002, 3.981212e+003
2.607828e+002, 3.949845e+003
2.612649e+002, 3.921871e+003
2.617470e+002, 3.896914e+003
2.622291e+002, 3.874495e+003
2.627112e+002, 3.853934e+003
2.631934e+002, 3.834151e+003
2.636755e+002, 3.814437e+003
2.641576e+002, 3.798537e+003
2.646397e+002, 3.788179e+003
2.651218e+002, 3.779389e+003
2.656039e+002, 3.769983e+003
2.660861e+002, 3.759973e+003
2.665682e+002, 3.750758e+003
2.670503e+002, 3.743853e+003
2.675324e+002, 3.739752e+003
2.680145e+002, 3.734983e+003
2.684966e+002, 3.729194e+003
2.689788e+002, 3.723209e+003
2.694609e+002, 3.716987e+003
2.699430e+002, 3.710836e+003
2.704251e+002, 3.705691e+003
2.709072e+002, 3.702566e+003
2.713893e+002, 3.701618e+003
2.718715e+002, 3.698506e+003
2.723536e+002, 3.690311e+003
2.728357e+002, 3.683282e+003
2.733178e+002, 3.680630e+003
2.737999e+002, 3.681446e+003
2.742820e+002, 3.683101e+003
2.747642e+002, 3.684034e+003
2.752463e+002, 3.684193e+003
2.757284e+002, 3.682793e+003
2.762105e+002, 3.677141e+003
2.766926e+002, 3.673161e+003
2.771747e+002, 3.673547e+003
2.776568e+002, 3.677113e+003
2.781389e+002, 3.681156e+003
2.786211e+002, 3.684218e+003
2.791032e+002, 3.686625e+003
2.795853e+002, 3.689857e+003
2.800674e+002, 3.694533e+003
2.805495e+002, 3.699148e+003
2.810316e+002, 3.702583e+003
2.815138e+002, 3.705805e+003
2.819959e+002, 3.710716e+003
2.824780e+002, 3.718268e+003
2.829601e+002, 3.727543e+003
2.834422e+002, 3.735991e+003
2.839243e+002, 3.742676e+003
2.844065e+002, 3.750476e+003
2.848886e+002, 3.759315e+003
2.853707e+002, 3.769802e+003
2.858528e+002, 3.783008e+003
2.863349e+002, 3.799405e+003
2.868170e+002, 3.818074e+003
2.872992e+002, 3.837931e+003
2.877813e+002, 3.859031e+003
2.882634e+002, 3.880679e+003
2.887455e+002, 3.901910e+003
2.892276e+002, 3.923876e+003
2.897097e+002, 3.948214e+003
2.901919e+002, 3.975362e+003
2.906740e+002, 4.003477e+003
2.911561e+002, 4.030800e+003
2.916382e+002, 4.057176e+003
2.921203e+002, 4.083052e+003
2.926024e+002, 4.109577e+003
2.930846e+002, 4.134983e+003
2.935667e+002, 4.157010e+003
2.940488e+002, 4.175505e+003
2.945309e+002, 4.192889e+003
2.950130e+002, 4.211787e+003
2.954951e+002, 4.232083e+003
2.959773e+002, 4.249377e+003
2.964594e+002, 4.260116e+003
2.969415e+002, 4.270231e+003
2.974236e+002, 4.284021e+003
2.979057e+002, 4.301562e+003
2.983878e+002, 4.321275e+003
2.988700e+002, 4.341745e+003
2.993521e+002, 4.363695e+003
2.998342e+002, 4.389607e+003
3.003163e+002, 4.418121e+003
3.007984e+002, 4.451404e+003
3.012805e+002, 4.492449e+003
3.017627e+002, 4.540104e+003
3.022448e+002, 4.590098e+003
3.027269e+002, 4.641461e+003
3.032090e+002, 4.693015e+003
3.036911e+002, 4.741827e+003
3.041732e+002, 4.788022e+003
3.046554e+002, 4.832130e+003
3.051375e+002, 4.878933e+003
3.056196e+002, 4.924235e+003
3.061017e+002, 4.957162e+003
3.065838e+002, 4.973493e+003
3.070659e+002, 4.975646e+003
3.075481e+002, 4.966402e+003
3.080302e+002, 4.945400e+003
3.085123e+002, 4.919518e+003
3.089944e+002, 4.891677e+003
3.094765e+002, 4.860295e+003
3.099586e+002, 4.822442e+003
3.104408e+002, 4.777170e+003
3.109229e+002, 4.726795e+003
3.114050e+002, 4.673676e+003
3.118871e+002, 4.617685e+003
3.123692e+002, 4.561110e+003
3.128513e+002, 4.503704e+003
3.133335e+002, 4.446281e+003
3.138156e+002, 4.388713e+003
3.142977e+002, 4.331032e+003
3.147798e+002, 4.275220e+003
3.152619e+002, 4.222890e+003
3.157440e+002, 4.174007e+003
3.162262e+002, 4.127744e+003
3.167083e+002, 4.083438e+003
3.171904e+002, 4.042149e+003
3.176725e+002, 4.004747e+003
3.181546e+002, 3.971112e+003
3.186367e+002, 3.941183e+003
3.191188e+002, 3.915161e+003
3.196010e+002, 3.893198e+003
3.200831e+002, 3.873425e+003
3.205652e+002, 3.855240e+003
3.210473e+002, 3.839628e+003
3.215294e+002, 3.827551e+003
3.220115e+002, 3.818633e+003
3.224937e+002, 3.811069e+003
3.229758e+002, 3.803594e+003
3.234579e+002, 3.797676e+003
3.239400e+002, 3.797328e+003
3.244221e+002, 3.804006e+003
3.249042e+002, 3.811817e+003
3.253864e+002, 3.818699e+003
3.258685e+002, 3.825317e+003
3.263506e+002, 3.832724e+003
3.268327e+002, 3.841086e+003
3.273148e+002, 3.851020e+003
3.277969e+002, 3.864030e+003
3.282791e+002, 3.880430e+003
3.287612e+002, 3.897128e+003
3.292433e+002, 3.912696e+003
3.297254e+002, 3.928637e+003
3.302075e+002, 3.946487e+003
3.306896e+002, 3.966510e+003
3.311718e+002, 3.988633e+003
3.316539e+002, 4.012900e+003
3.321360e+002, 4.039522e+003
3.326181e+002, 4.068637e+003
3.331002e+002, 4.101152e+003
3.335823e+002, 4.135279e+003
3.340645e+002, 4.169619e+003
3.345466e+002, 4.204123e+003
3.350287e+002, 4.240590e+003
3.355108e+002, 4.280336e+003
3.359929e+002, 4.323112e+003
3.364750e+002, 4.365319e+003
3.369572e+002, 4.404559e+003
3.374393e+002, 4.446158e+003
3.379214e+002, 4.492622e+003
3.384035e+002, 4.543277e+003
3.388856e+002, 4.595974e+003
3.393677e+002, 4.649621e+003
3.398499e+002, 4.704736e+003
3.403320e+002, 4.762681e+003
3.408141e+002, 4.822234e+003
3.412962e+002, 4.885853e+003
3.417783e+002, 4.953333e+003
3.422604e+002, 5.025454e+003
3.427426e+002, 5.104170e+003
3.432247e+002, 5.189742e+003
3.437068e+002, 5.278267e+003
3.441889e+002, 5.363981e+003
3.446710e+002, 5.444948e+003
3.451531e+002, 5.529044e+003
3.456353e+002, 5.619430e+003
3.461174e+002, 5.710158e+003
3.465995e+002, 5.798869e+003
3.470816e+002, 5.883841e+003
3.475637e+002, 5.962922e+003
3.480458e+002, 6.033869e+003
3.485280e+002, 6.096804e+003
3.490101e+002, 6.145353e+003
3.494922e+002, 6.178854e+003
3.499743e+002, 6.201579e+003
3.504564e+002, 6.213683e+003
3.509385e+002, 6.216179e+003
3.514207e+002, 6.210698e+003
3.519028e+002, 6.198048e+003
3.523849e+002, 6.178485e+003
3.528670e+002, 6.152413e+003
3.533491e+002, 6.116666e+003
3.538312e+002, 6.078511e+003
3.543134e+002, 6.034243e+003
3.547955e+002, 5.989872e+003
3.552776e+002, 5.952839e+003
3.557597e+002, 5.925675e+003
3.562418e+002, 5.903977e+003
3.567239e+002, 5.879672e+003
3.572061e+002, 5.847364e+003
3.576882e+002, 5.824249e+003
3.581703e+002, 5.809746e+003
3.586524e+002, 5.803751e+003
3.591345e+002, 5.807546e+003
3.596166e+002, 5.820386e+003
3.600987e+002, 5.839007e+003
3.605808e+002, 5.860003e+003
3.610630e+002, 5.882751e+003
3.615451e+002, 5.914291e+003
3.620272e+002, 5.958599e+003
3.625093e+002, 6.006744e+003
3.629914e+002, 6.054315e+003
3.634735e+002, 6.103873e+003
3.639557e+002, 6.159583e+003
3.644378e+002, 6.224068e+003
3.649199e+002, 6.296747e+003
3.654020e+002, 6.375204e+003
3.658841e+002, 6.460497e+003
3.663662e+002, 6.550967e+003
3.668484e+002, 6.643611e+003
3.673305e+002, 6.742007e+003
3.678126e+002, 6.851237e+003
3.682947e+002, 6.972042e+003
3.687768e+002, 7.099316e+003
3.692589e+002, 7.225956e+003
3.697411e+002, 7.351465e+003
3.702232e+002, 7.477208e+003
3.707053e+002, 7.605820e+003
3.711874e+002, 7.732799e+003
3.716695e+002, 7.858895e+003
3.721516e+002, 7.982172e+003
3.726338e+002, 8.100399e+003
3.731159e+002, 8.212206e+003
3.735980e+002, 8.317214e+003
3.740801e+002, 8.409736e+003
3.745622e+002, 8.493738e+003
3.750443e+002, 8.557854e+003
3.755265e+002, 8.601075e+003
3.760086e+002, 8.623235e+003
3.764907e+002, 8.623338e+003
3.769728e+002, 8.600238e+003
3.774549e+002, 8.556520e+003
3.779370e+002, 8.496737e+003
3.784192e+002, 8.418808e+003
3.789013e+002, 8.330284e+003
3.793834e+002, 8.233139e+003
3.798655e+002, 8.126453e+003
3.803476e+002, 8.006811e+003
3.808297e+002, 7.873698e+003
3.813119e+002, 7.734408e+003
3.817940e+002, 7.597373e+003
3.822761e+002, 7.462216e+003
3.827582e+002, 7.321688e+003
3.832403e+002, 7.171426e+003
3.837224e+002, 7.019408e+003
3.842046e+002, 6.868988e+003
3.846867e+002, 6.721306e+003
3.851688e+002, 6.576005e+003
3.856509e+002, 6.433708e+003
3.861330e+002, 6.294960e+003
3.866151e+002, 6.159744e+003
3.870973e+002, 6.028155e+003
3.875794e+002, 5.901109e+003
3.880615e+002, 5.778393e+003
3.885436e+002, 5.660417e+003
3.890257e+002, 5.548052e+003
3.895078e+002, 5.440755e+003
3.899900e+002, 5.340346e+003
3.904721e+002, 5.249125e+003
3.909542e+002, 5.166375e+003
3.914363e+002, 5.089514e+003
3.919184e+002, 5.017839e+003
3.924005e+002, 4.951900e+003
3.928827e+002, 4.891927e+003
3.933648e+002, 4.837756e+003
3.938469e+002, 4.788061e+003
3.943290e+002, 4.742744e+003
3.948111e+002, 4.701604e+003
3.952932e+002, 4.665039e+003
3.957754e+002, 4.632896e+003
3.962575e+002, 4.604435e+003
3.967396e+002, 4.578567e+003
3.972217e+002, 4.555830e+003
3.977038e+002, 4.537996e+003
3.981859e+002, 4.526797e+003
3.986681e+002, 4.518911e+003
3.991501e+002, 4.511771e+003
3.996323e+002, 4.505944e+003
4.001144e+002, 4.504089e+003
4.005965e+002, 4.508099e+003
4.010786e+002, 4.515994e+003
4.015607e+002, 4.521900e+003
4.020428e+002, 4.522812e+003
4.025250e+002, 4.527179e+003
4.030071e+002, 4.537752e+003
4.034892e+002, 4.551924e+003
4.039713e+002, 4.565854e+003
4.044534e+002, 4.578837e+003
4.049355e+002, 4.594737e+003
4.054177e+002, 4.618712e+003
4.058998e+002, 4.652821e+003
4.063819e+002, 4.684298e+003
4.068640e+002, 4.710171e+003
4.073461e+002, 4.736458e+003
4.078282e+002, 4.765080e+003
4.083104e+002, 4.796646e+003
4.087925e+002, 4.831725e+003
4.092746e+002, 4.871061e+003
4.097567e+002, 4.914330e+003
4.102388e+002, 4.960597e+003
4.107209e+002, 5.008705e+003
4.112031e+002, 5.061789e+003
4.116852e+002, 5.121732e+003
4.121673e+002, 5.185738e+003
4.126494e+002, 5.250830e+003
4.131315e+002, 5.316418e+003
4.136136e+002, 5.384735e+003
4.140958e+002, 5.459335e+003
4.145779e+002, 5.542417e+003
4.150600e+002, 5.624401e+003
4.155421e+002, 5.700374e+003
4.160242e+002, 5.779534e+003
4.165063e+002, 5.866038e+003
4.169885e+002, 5.959079e+003
4.174706e+002, 6.054481e+003
4.179527e+002, 6.150319e+003
4.184348e+002, 6.246764e+003
4.189169e+002, 6.346337e+003
4.193990e+002, 6.449884e+003
4.198812e+002, 6.553664e+003
4.203633e+002, 6.660116e+003
4.208454e+002, 6.763787e+003
4.213275e+002, 6.859074e+003
4.218096e+002, 6.944522e+003
4.222917e+002, 7.022047e+003
4.227739e+002, 7.094303e+003
4.232560e+002, 7.160883e+003
4.237381e+002, 7.217559e+003
4.242202e+002, 7.265242e+003
4.247023e+002, 7.299415e+003
4.251844e+002, 7.318523e+003
4.256666e+002, 7.323341e+003
4.261487e+002, 7.315910e+003
4.266308e+002, 7.297748e+003
4.271129e+002, 7.267454e+003
4.275950e+002, 7.221677e+003
4.280771e+002, 7.159760e+003
4.285593e+002, 7.089462e+003
4.290414e+002, 7.014529e+003
4.295235e+002, 6.933499e+003
4.300056e+002, 6.845307e+003
4.304877e+002, 6.747952e+003
4.309698e+002, 6.647948e+003
4.314520e+002, 6.548302e+003
4.319341e+002, 6.448822e+003
4.324162e+002, 6.348235e+003
4.328983e+002, 6.246648e+003
4.333804e+002, 6.144456e+003
4.338625e+002, 6.041342e+003
4.343447e+002, 5.936966e+003
4.348268e+002, 5.837411e+003
4.353089e+002, 5.744139e+003
4.357910e+002, 5.654604e+003
4.362731e+002, 5.568205e+003
4.367552e+002, 5.484560e+003
4.372374e+002, 5.403200e+003
4.377195e+002, 5.324239e+003
4.382016e+002, 5.246732e+003
4.386837e+002, 5.168432e+003
4.391658e+002, 5.084199e+003
4.396479e+002, 5.005632e+003
4.401301e+002, 4.935466e+003
4.406122e+002, 4.870467e+003
4.410943e+002, 4.807857e+003
4.415764e+002, 4.747420e+003
4.420585e+002, 4.690835e+003
4.425406e+002, 4.641357e+003
4.430227e+002, 4.600409e+003
4.435049e+002, 4.555401e+003
4.439870e+002, 4.500020e+003
4.444691e+002, 4.447261e+003
4.449512e+002, 4.401211e+003
4.454333e+002, 4.360822e+003
4.459154e+002, 4.323549e+003
4.463976e+002, 4.288538e+003
4.468797e+002, 4.255554e+003
4.473618e+002, 4.224135e+003
4.478439e+002, 4.194329e+003
4.483260e+002, 4.166003e+003
4.488081e+002, 4.139934e+003
4.492903e+002, 4.114583e+003
4.497724e+002, 4.088206e+003
4.502545e+002, 4.061091e+003
4.507366e+002, 4.036015e+003
4.512187e+002, 4.016215e+003
4.517008e+002, 4.000421e+003
4.521830e+002, 3.984032e+003
4.526651e+002, 3.967343e+003
4.531472e+002, 3.949266e+003
4.536293e+002, 3.926070e+003
4.541114e+002, 3.901806e+003
4.545935e+002, 3.882866e+003
4.550757e+002, 3.872259e+003
4.555578e+002, 3.864110e+003
4.560399e+002, 3.853955e+003
4.565220e+002, 3.842190e+003
4.570041e+002, 3.830298e+003
4.574862e+002, 3.818573e+003
4.579684e+002, 3.807097e+003
4.584505e+002, 3.795773e+003
4.589326e+002, 3.784550e+003
4.594147e+002, 3.774490e+003
4.598968e+002, 3.766498e+003
4.603789e+002, 3.759313e+003
4.608611e+002, 3.752309e+003
4.613432e+002, 3.745259e+003
4.618253e+002, 3.737290e+003
4.623074e+002, 3.727560e+003
4.627895e+002, 3.716766e+003
4.632716e+002, 3.707563e+003
4.637538e+002, 3.700281e+003
4.642359e+002, 3.694036e+003
4.647180e+002, 3.688456e+003
4.652001e+002, 3.683949e+003
4.656822e+002, 3.681548e+003
4.661643e+002, 3.681124e+003
4.666465e+002, 3.680766e+003
4.671286e+002, 3.678219e+003
4.676107e+002, 3.673077e+003
4.680928e+002, 3.669275e+003
4.685749e+002, 3.667258e+003
4.690570e+002, 3.666101e+003
4.695392e+002, 3.666262e+003
4.700213e+002, 3.666939e+003
4.705034e+002, 3.666882e+003
4.709855e+002, 3.665503e+003
4.714676e+002, 3.663726e+003
4.719497e+002, 3.663343e+003
4.724319e+002, 3.664774e+003
4.729140e+002, 3.665811e+003
4.733961e+002, 3.666190e+003
4.738782e+002, 3.666055e+003
4.743603e+002, 3.665801e+003
4.748424e+002, 3.665212e+003
4.753246e+002, 3.663358e+003
4.758067e+002, 3.658333e+003
4.762888e+002, 3.652175e+003
4.767709e+002, 3.649603e+003
4.772530e+002, 3.651088e+003
4.777351e+002, 3.653260e+003
4.782173e+002, 3.654092e+003
4.786994e+002, 3.655044e+003
4.791815e+002, 3.658528e+003
4.796636e+002, 3.665284e+003
4.801457e+002, 3.672146e+003
4.806278e+002, 3.676232e+003
4.811100e+002, 3.679666e+003
4.815920e+002, 3.686783e+003
4.820742e+002, 3.698437e+003
4.825563e+002, 3.711440e+003
4.830384e+002, 3.723344e+003
4.835205e+002, 3.734043e+003
4.840026e+002, 3.743856e+003
4.844847e+002, 3.750058e+003
4.849669e+002, 3.758305e+003
4.854490e+002, 3.771786e+003
4.859311e+002, 3.788739e+003
4.864132e+002, 3.805817e+003
4.868953e+002, 3.821826e+003
4.873774e+002, 3.838236e+003
4.878596e+002, 3.857449e+003
4.883417e+002, 3.880834e+003
4.888238e+002, 3.903746e+003
4.893059e+002, 3.924059e+003
4.897880e+002, 3.945946e+003
4.902701e+002, 3.970765e+003
4.907523e+002, 3.998763e+003
4.912344e+002, 4.030309e+003
4.917165e+002, 4.065896e+003
4.921986e+002, 4.104097e+003
4.926807e+002, 4.140366e+003
4.931628e+002, 4.172392e+003
4.936450e+002, 4.208669e+003
4.941271e+002, 4.252725e+003
4.946092e+002, 4.300177e+003
4.950913e+002, 4.348967e+003
4.955734e+002, 4.398610e+003
4.960555e+002, 4.448933e+003
4.965377e+002, 4.498621e+003
4.970198e+002, 4.548618e+003
4.975019e+002, 4.601049e+003
4.979840e+002, 4.655943e+003
4.984661e+002, 4.713677e+003
4.989482e+002, 4.775976e+003
4.994304e+002, 4.841507e+003
4.999125e+002, 4.907273e+003
5.003946e+002, 4.973552e+003
5.008767e+002, 5.039528e+003
5.013588e+002, 5.103991e+003
5.018409e+002, 5.168523e+003
5.023231e+002, 5.237386e+003
5.028052e+002, 5.311313e+003
5.032873e+002, 5.386881e+003
5.037694e+002, 5.460304e+003
5.042515e+002, 5.532019e+003
5.047336e+002, 5.607233e+003
5.052158e+002, 5.689396e+003
5.056979e+002, 5.770744e+003
5.061800e+002, 5.847977e+003
5.066621e+002, 5.922884e+003
5.071442e+002, 5.997401e+003
5.076263e+002, 6.072339e+003
5.081085e+002, 6.148108e+003
5.085906e+002, 6.225917e+003
5.090727e+002, 6.308921e+003
5.095548e+002, 6.382661e+003
5.100369e+002, 6.444182e+003
5.105190e+002, 6.499066e+003
5.110012e+002, 6.550508e+003
5.114833e+002, 6.596779e+003
5.119654e+002, 6.634016e+003
5.124475e+002, 6.659833e+003
5.129296e+002, 6.677382e+003
5.134117e+002, 6.694299e+003
5.138939e+002, 6.712325e+003
5.143760e+002, 6.716861e+003
5.148581e+002, 6.703790e+003
5.153402e+002, 6.675931e+003
5.158223e+002, 6.636601e+003
5.163044e+002, 6.586110e+003
5.167866e+002, 6.526137e+003
5.172687e+002, 6.453511e+003
5.177508e+002, 6.373739e+003
5.182329e+002, 6.294241e+003
5.187150e+002, 6.214755e+003
5.191971e+002, 6.129865e+003
5.196793e+002, 6.036404e+003
5.201614e+002, 5.936585e+003
5.206435e+002, 5.836499e+003
5.211256e+002, 5.735228e+003
5.216077e+002, 5.635150e+003
5.220898e+002, 5.537874e+003
5.225720e+002, 5.441497e+003
5.230541e+002, 5.342625e+003
5.235362e+002, 5.243056e+003
5.240183e+002, 5.149062e+003
5.245004e+002, 5.065786e+003
5.249825e+002, 4.992231e+003
5.254647e+002, 4.921404e+003
5.259468e+002, 4.855097e+003
5.264289e+002, 4.790024e+003
5.269110e+002, 4.724672e+003
5.273931e+002, 4.660903e+003
5.278752e+002, 4.600279e+003
5.283574e+002, 4.543057e+003
5.288395e+002, 4.488888e+003
5.293216e+002, 4.437748e+003
5.298037e+002, 4.389528e+003
5.302858e+002, 4.342803e+003
5.307679e+002, 4.297507e+003
5.312501e+002, 4.254184e+003
5.317322e+002, 4.213118e+003
5.322143e+002, 4.174236e+003
5.326964e+002, 4.137521e+003
5.331785e+002, 4.103231e+003
5.336606e+002, 4.069638e+003
5.341428e+002, 4.034912e+003
5.346249e+002, 4.000094e+003
5.351070e+002, 3.966984e+003
5.355891e+002, 3.935811e+003
5.360712e+002, 3.906358e+003
5.365533e+002, 3.878796e+003
5.370355e+002, 3.852954e+003
5.375176e+002, 3.827998e+003
5.379997e+002, 3.803808e+003
5.384818e+002, 3.780465e+003
5.389639e+002, 3.758231e+003
5.394460e+002, 3.736644e+003
5.399282e+002, 3.715231e+003
5.404103e+002, 3.693870e+003
5.408924e+002, 3.672078e+003
5.413745e+002, 3.648950e+003
5.418566e+002, 3.624306e+003
5.423387e+002, 3.604642e+003
5.428209e+002, 3.595514e+003
5.433029e+002, 3.585047e+003
5.437850e+002, 3.569635e+003
5.442672e+002, 3.552308e+003
5.447493e+002, 3.536436e+003
5.452314e+002, 3.522939e+003
5.457135e+002, 3.510853e+003
5.461956e+002, 3.499253e+003
5.466777e+002, 3.488166e+003
5.471599e+002, 3.478496e+003
5.476420e+002, 3.470576e+003
5.481241e+002, 3.463512e+003
5.486062e+002, 3.456653e+003
5.490883e+002, 3.450338e+003
5.495704e+002, 3.445340e+003
5.500526e+002, 3.442477e+003
5.505347e+002, 3.439531e+003
5.510168e+002, 3.434156e+003
5.514989e+002, 3.427851e+003
5.519810e+002, 3.424024e+003
5.524631e+002, 3.423427e+003
5.529453e+002, 3.423608e+003
5.534274e+002, 3.421766e+003
5.539095e+002, 3.417890e+003
5.543916e+002, 3.418803e+003
5.548737e+002, 3.429329e+003
5.553558e+002, 3.438100e+003
5.558380e+002, 3.439334e+003
5.563201e+002, 3.438326e+003
5.568022e+002, 3.441785e+003
5.572843e+002, 3.451335e+003
5.577664e+002, 3.463598e+003
5.582485e+002, 3.474906e+003
5.587307e+002, 3.485141e+003
5.592128e+002, 3.495832e+003
5.596949e+002, 3.505827e+003
5.601770e+002, 3.517982e+003
5.606591e+002, 3.534904e+003
5.611412e+002, 3.553512e+003
5.616234e+002, 3.569772e+003
5.621055e+002, 3.582397e+003
5.625876e+002, 3.595228e+003
5.630697e+002, 3.611005e+003
5.635518e+002, 3.629652e+003
5.640339e+002, 3.651164e+003
5.645161e+002, 3.675885e+003
5.649982e+002, 3.702220e+003
5.654803e+002, 3.729105e+003
5.659624e+002, 3.756787e+003
5.664445e+002, 3.785910e+003
5.669266e+002, 3.816137e+003
5.674088e+002, 3.848219e+003
5.678909e+002, 3.882978e+003
5.683730e+002, 3.919436e+003
5.688551e+002, 3.956951e+003
5.693372e+002, 3.995038e+003
5.698193e+002, 4.033360e+003
5.703015e+002, 4.070753e+003
5.707836e+002, 4.107601e+003
5.712657e+002, 4.148663e+003
5.717478e+002, 4.198338e+003
5.722299e+002, 4.246634e+003
5.727120e+002, 4.291162e+003
5.731942e+002, 4.334392e+003
5.736763e+002, 4.378483e+003
5.741584e+002, 4.424001e+003
5.746405e+002, 4.470087e+003
5.751226e+002, 4.517494e+003
5.756047e+002, 4.565080e+003
5.760869e+002, 4.608344e+003
5.765690e+002, 4.647296e+003
5.770511e+002, 4.681695e+003
5.775332e+002, 4.711079e+003
5.780153e+002, 4.735271e+003
5.784974e+002, 4.755014e+003
5.789796e+002, 4.770672e+003
5.794617e+002, 4.780274e+003
5.799438e+002, 4.783104e+003
5.804259e+002, 4.779492e+003
5.809080e+002, 4.769899e+003
5.813901e+002, 4.754351e+003
5.818723e+002, 4.732077e+003
5.823544e+002, 4.702162e+003
5.828365e+002, 4.665922e+003
5.833186e+002, 4.627639e+003
5.838007e+002, 4.586469e+003
5.842828e+002, 4.544214e+003
5.847650e+002, 4.502457e+003
5.852471e+002, 4.458272e+003
5.857292e+002, 4.408625e+003
5.862113e+002, 4.354649e+003
5.866934e+002, 4.299866e+003
5.871755e+002, 4.246154e+003
5.876577e+002, 4.193699e+003
5.881398e+002, 4.143214e+003
5.886219e+002, 4.094437e+003
5.891040e+002, 4.048953e+003
5.895861e+002, 4.007733e+003
5.900682e+002, 3.969141e+003
5.905504e+002, 3.932309e+003
5.910325e+002, 3.896985e+003
5.915146e+002, 3.861954e+003
5.919967e+002, 3.825927e+003
5.924788e+002, 3.790933e+003
5.929609e+002, 3.758237e+003
5.934431e+002, 3.728318e+003
5.939252e+002, 3.702755e+003
5.944073e+002, 3.682392e+003
5.948894e+002, 3.664845e+003
5.953715e+002, 3.646697e+003
5.958536e+002, 3.627438e+003
5.963358e+002, 3.609853e+003
5.968179e+002, 3.595275e+003
5.973000e+002, 3.580651e+003
5.977821e+002, 3.563870e+003
5.982642e+002, 3.546685e+003
5.987463e+002, 3.531558e+003
5.992285e+002, 3.519300e+003
5.997106e+002, 3.508960e+003
6.001927e+002, 3.499205e+003
6.006748e+002, 3.490041e+003
6.011569e+002, 3.483139e+003
6.016390e+002, 3.479696e+003
6.021212e+002, 3.476134e+003
6.026033e+002, 3.469629e+003
6.030854e+002, 3.461941e+003
6.035675e+002, 3.455964e+003
6.040496e+002, 3.452453e+003
6.045317e+002, 3.449322e+003
6.050139e+002, 3.444661e+003
6.054960e+002, 3.440088e+003
6.059781e+002, 3.438130e+003
6.064602e+002, 3.438986e+003
6.069423e+002, 3.441226e+003
6.074244e+002, 3.443915e+003
6.079066e+002, 3.447081e+003
6.083887e+002, 3.450817e+003
6.088708e+002, 3.454100e+003
6.093529e+002, 3.459612e+003
6.098350e+002, 3.468057e+003
6.103171e+002, 3.478201e+003
6.107993e+002, 3.489733e+003
6.112814e+002, 3.502224e+003
6.117635e+002, 3.514611e+003
6.122456e+002, 3.525753e+003
6.127277e+002, 3.537171e+003
6.132098e+002, 3.552196e+003
6.136920e+002, 3.571054e+003
6.141741e+002, 3.591812e+003
6.146562e+002, 3.614084e+003
6.151383e+002, 3.638138e+003
6.156204e+002, 3.663942e+003
6.161025e+002, 3.691610e+003
6.165847e+002, 3.722621e+003
6.170668e+002, 3.758656e+003
6.175489e+002, 3.796676e+003
6.180310e+002, 3.833896e+003
6.185131e+002, 3.871823e+003
6.189952e+002, 3.913639e+003
6.194774e+002, 3.960289e+003
6.199595e+002, 4.010561e+003
6.204416e+002, 4.062642e+003
6.209237e+002, 4.116455e+003
6.214058e+002, 4.176476e+003
6.218879e+002, 4.245948e+003
6.223701e+002, 4.318221e+003
6.228522e+002, 4.391895e+003
6.233343e+002, 4.467398e+003
6.238164e+002, 4.544299e+003
6.242985e+002, 4.622437e+003
6.247806e+002, 4.703946e+003
6.252628e+002, 4.789135e+003
6.257448e+002, 4.878800e+003
6.262269e+002, 4.974989e+003
6.267090e+002, 5.078086e+003
6.271912e+002, 5.185385e+003
6.276733e+002, 5.295042e+003
6.281554e+002, 5.409365e+003
6.286375e+002, 5.535043e+003
6.291196e+002, 5.672050e+003
6.296017e+002, 5.814695e+003
6.300839e+002, 5.963267e+003
6.305660e+002, 6.116670e+003
6.310481e+002, 6.275814e+003
6.315302e+002, 6.439674e+003
6.320123e+002, 6.608834e+003
6.324944e+002, 6.782821e+003
6.329766e+002, 6.956278e+003
6.334587e+002, 7.121511e+003
6.339408e+002, 7.281298e+003
6.344229e+002, 7.422577e+003
6.349050e+002, 7.549376e+003
6.353871e+002, 7.649318e+003
6.358693e+002, 7.725275e+003
6.363514e+002, 7.771399e+003
6.368335e+002, 7.778328e+003
6.373156e+002, 7.742862e+003
6.377977e+002, 7.672356e+003
6.382798e+002, 7.568239e+003
6.387620e+002, 7.434494e+003
6.392441e+002, 7.272316e+003
6.397262e+002, 7.083229e+003
6.402083e+002, 6.880212e+003
6.406904e+002, 6.669264e+003
6.411725e+002, 6.453688e+003
6.416547e+002, 6.242372e+003
6.421368e+002, 6.031046e+003
6.426189e+002, 5.832255e+003
6.431010e+002, 5.644748e+003
6.435831e+002, 5.471165e+003
6.440652e+002, 5.312947e+003
6.445474e+002, 5.169564e+003
6.450295e+002, 5.039243e+003
6.455116e+002, 4.922297e+003
6.459937e+002, 4.815239e+003
6.464758e+002, 4.713116e+003
6.469579e+002, 4.615944e+003
6.474401e+002, 4.525269e+003
6.479222e+002, 4.442453e+003
6.484043e+002, 4.364627e+003
6.488864e+002, 4.291797e+003
6.493685e+002, 4.222399e+003
6.498506e+002, 4.153592e+003
6.503328e+002, 4.084105e+003
6.508149e+002, 4.016912e+003
6.512970e+002, 3.953404e+003
6.517791e+002, 3.892963e+003
6.522612e+002, 3.835974e+003
6.527433e+002, 3.781982e+003
6.532255e+002, 3.728892e+003
6.537076e+002, 3.674939e+003
6.541897e+002, 3.621205e+003
6.546718e+002, 3.571084e+003
6.551539e+002, 3.524493e+003
6.556360e+002, 3.482009e+003
6.561182e+002, 3.445497e+003
6.566003e+002, 3.411698e+003
6.570824e+002, 3.378952e+003
6.575645e+002, 3.347429e+003
6.580466e+002, 3.318380e+003
6.585287e+002, 3.293032e+003
6.590109e+002, 3.268844e+003
6.594930e+002, 3.242640e+003
6.599751e+002, 3.215736e+003
6.604572e+002, 3.191415e+003
6.609393e+002, 3.170453e+003
6.614214e+002, 3.152190e+003
6.619036e+002, 3.136344e+003
6.623857e+002, 3.122666e+003
6.628678e+002, 3.108702e+003
6.633499e+002, 3.094903e+003
6.638320e+002, 3.080265e+003
6.643141e+002, 3.062741e+003
6.647963e+002, 3.045821e+003
6.652784e+002, 3.032045e+003
6.657605e+002, 3.021507e+003
6.662426e+002, 3.013278e+003
6.667247e+002, 3.007220e+003
6.672068e+002, 3.002333e+003
6.676890e+002, 2.997392e+003
6.681711e+002, 2.992337e+003
6.686532e+002, 2.984315e+003
6.691353e+002, 2.971498e+003
6.696174e+002, 2.958497e+003
6.700995e+002, 2.949608e+003
6.705817e+002, 2.944655e+003
6.710638e+002, 2.940816e+003
6.715459e+002, 2.939450e+003
6.720280e+002, 2.937429e+003
6.725101e+002, 2.933558e+003
6.729922e+002, 2.928668e+003
6.734744e+002, 2.922885e+003
6.739565e+002, 2.916782e+003
6.744386e+002, 2.912254e+003
6.749207e+002, 2.911039e+003
6.754028e+002, 2.911933e+003
6.758849e+002, 2.910743e+003
6.763671e+002, 2.906797e+003
6.768492e+002, 2.903803e+003
6.773313e+002, 2.903137e+003
6.778134e+002, 2.902887e+003
6.782955e+002, 2.901661e+003
6.787776e+002, 2.899602e+003
6.792598e+002, 2.897151e+003
6.797419e+002, 2.893572e+003
6.802240e+002, 2.890705e+003
6.807061e+002, 2.890014e+003
6.811882e+002, 2.890598e+003
6.816703e+002, 2.891164e+003
6.821525e+002, 2.891438e+003
6.826346e+002, 2.891470e+003
6.831167e+002, 2.891159e+003
6.835988e+002, 2.890823e+003
6.840809e+002, 2.892085e+003
6.845630e+002, 2.895578e+003
6.850452e+002, 2.899293e+003
6.855273e+002, 2.902707e+003
6.860094e+002, 2.906483e+003
6.864915e+002, 2.910966e+003
6.869736e+002, 2.916123e+003
6.874557e+002, 2.921797e+003
6.879379e+002, 2.927738e+003
6.884200e+002, 2.934454e+003
6.889021e+002, 2.942743e+003
6.893842e+002, 2.952048e+003
6.898663e+002, 2.961174e+003
6.903484e+002, 2.969934e+003
6.908306e+002, 2.978019e+003
6.913127e+002, 2.984870e+003
6.917948e+002, 2.991167e+003
6.922769e+002, 3.000590e+003
6.927590e+002, 3.015844e+003
6.932411e+002, 3.030024e+003
6.937233e+002, 3.042316e+003
6.942054e+002, 3.053945e+003
6.946875e+002, 3.066083e+003
6.951696e+002, 3.078246e+003
6.956517e+002, 3.089012e+003
6.961339e+002, 3.097706e+003
6.966160e+002, 3.105046e+003
6.970981e+002, 3.111795e+003
6.975802e+002, 3.117869e+003
6.980623e+002, 3.123385e+003
6.985444e+002, 3.128412e+003
6.990266e+002, 3.131526e+003
6.995087e+002, 3.131803e+003
6.999908e+002, 3.129308e+003
7.004729e+002, 3.124245e+003
7.009550e+002, 3.112499e+003
7.014371e+002, 3.104506e+003
7.019193e+002, 3.103145e+003
7.024014e+002, 3.102996e+003
7.028835e+002, 3.100676e+003
7.033656e+002, 3.096958e+003
7.038477e+002, 3.093864e+003
7.043298e+002, 3.092197e+003
7.048120e+002, 3.092177e+003
7.052941e+002, 3.093632e+003
7.057762e+002, 3.096890e+003
7.062583e+002, 3.104856e+003
7.067404e+002, 3.118723e+003
7.072225e+002, 3.130509e+003
7.077046e+002, 3.134413e+003
7.081867e+002, 3.134032e+003
7.086688e+002, 3.138657e+003
7.091509e+002, 3.150050e+003
7.096331e+002, 3.161598e+003
7.101152e+002, 3.171433e+003
7.105973e+002, 3.182755e+003
7.110794e+002, 3.197711e+003
7.115615e+002, 3.215375e+003
7.120436e+002, 3.233958e+003
7.125258e+002, 3.252898e+003
7.130079e+002, 3.272390e+003
7.134900e+002, 3.293022e+003
7.139721e+002, 3.314548e+003
7.144542e+002, 3.336170e+003
7.149363e+002, 3.357781e+003
7.154185e+002, 3.379000e+003
7.159006e+002, 3.398022e+003
7.163827e+002, 3.417935e+003
7.168648e+002, 3.445357e+003
7.173469e+002, 3.481798e+003
7.178290e+002, 3.515329e+003
7.183112e+002, 3.540770e+003
7.187933e+002, 3.567450e+003
7.192754e+002, 3.600536e+003
7.197575e+002, 3.637509e+003
7.202396e+002, 3.674606e+003
7.207217e+002, 3.710809e+003
7.212039e+002, 3.747949e+003
7.216860e+002, 3.787610e+003
7.221681e+002, 3.829774e+003
7.226502e+002, 3.874302e+003
7.231323e+002, 3.921746e+003
7.236144e+002, 3.969188e+003
7.240966e+002, 4.015292e+003
7.245787e+002, 4.061425e+003
7.250608e+002, 4.108487e+003
7.255429e+002, 4.156884e+003
7.260250e+002, 4.206742e+003
7.265071e+002, 4.260076e+003
7.269893e+002, 4.312861e+003
7.274714e+002, 4.361166e+003
7.279535e+002, 4.409774e+003
7.284356e+002, 4.465589e+003
7.289177e+002, 4.527729e+003
7.293998e+002, 4.587540e+003
7.298820e+002, 4.638751e+003
7.303641e+002, 4.683298e+003
7.308462e+002, 4.725911e+003
7.313283e+002, 4.766544e+003
7.318104e+002, 4.803916e+003
7.322925e+002, 4.838755e+003
7.327747e+002, 4.867950e+003
7.332568e+002, 4.889040e+003
7.337389e+002, 4.901914e+003
7.342210e+002, 4.908483e+003
7.347031e+002, 4.908585e+003
7.351852e+002, 4.902612e+003
7.356674e+002, 4.893313e+003
7.361495e+002, 4.875728e+003
7.366316e+002, 4.844833e+003
7.371137e+002, 4.801934e+003
7.375958e+002, 4.751193e+003
7.380779e+002, 4.694025e+003
7.385601e+002, 4.631653e+003
7.390422e+002, 4.564627e+003
7.395243e+002, 4.493463e+003
7.400064e+002, 4.421594e+003
7.404885e+002, 4.349709e+003
7.409706e+002, 4.276312e+003
7.414528e+002, 4.199649e+003
7.419349e+002, 4.122049e+003
7.424170e+002, 4.048857e+003
7.428991e+002, 3.980802e+003
7.433812e+002, 3.913974e+003
7.438633e+002, 3.847723e+003
7.443455e+002, 3.783022e+003
7.448276e+002, 3.719548e+003
7.453097e+002, 3.658298e+003
7.457918e+002, 3.600780e+003
7.462739e+002, 3.547562e+003
7.467560e+002, 3.497050e+003
7.472382e+002, 3.447762e+003
7.477203e+002, 3.400280e+003
7.482024e+002, 3.356741e+003
7.486845e+002, 3.317104e+003
7.491666e+002, 3.280508e+003
7.496487e+002, 3.246739e+003
7.501309e+002, 3.215808e+003
7.506130e+002, 3.187835e+003
7.510951e+002, 3.163110e+003
7.515772e+002, 3.138080e+003
7.520593e+002, 3.110213e+003
7.525414e+002, 3.085317e+003
7.530236e+002, 3.065684e+003
7.535057e+002, 3.048645e+003
7.539878e+002, 3.032114e+003
7.544699e+002, 3.015784e+003
7.549520e+002, 2.999690e+003
7.554341e+002, 2.983282e+003
7.559163e+002, 2.968119e+003
7.563984e+002, 2.957070e+003
7.568805e+002, 2.949292e+003
7.573626e+002, 2.941356e+003
7.578447e+002, 2.932677e+003
7.583268e+002, 2.924039e+003
7.588090e+002, 2.915762e+003
7.592911e+002, 2.908203e+003
7.597732e+002, 2.902457e+003
7.602553e+002, 2.898894e+003
7.607374e+002, 2.896656e+003
7.612195e+002, 2.896842e+003
7.617017e+002, 2.897214e+003
7.621838e+002, 2.896978e+003
7.626659e+002, 2.896190e+003
7.631480e+002, 2.894744e+003
7.636301e+002, 2.892570e+003
7.641122e+002, 2.891096e+003
7.645944e+002, 2.892952e+003
7.650765e+002, 2.895351e+003
7.655586e+002, 2.893670e+003
7.660407e+002, 2.888180e+003
7.665228e+002, 2.881073e+003
7.670049e+002, 2.873002e+003
7.674871e+002, 2.865533e+003
7.679692e+002, 2.861015e+003
7.684513e+002, 2.859554e+003
7.689334e+002, 2.856606e+003
7.694155e+002, 2.849843e+003
7.698976e+002, 2.845330e+003
7.703798e+002, 2.845323e+003
7.708619e+002, 2.847170e+003
7.713440e+002, 2.849384e+003
7.718261e+002, 2.851706e+003
7.723082e+002, 2.853718e+003
7.727903e+002, 2.855626e+003
7.732725e+002, 2.856715e+003
7.737546e+002, 2.855665e+003
7.742367e+002, 2.853837e+003
7.747188e+002, 2.853394e+003
7.752009e+002, 2.854534e+003
7.756830e+002, 2.856566e+003
7.761652e+002, 2.859292e+003
7.766473e+002, 2.861435e+003
7.771294e+002, 2.859229e+003
7.776115e+002, 2.851664e+003
7.780936e+002, 2.846844e+003
7.785757e+002, 2.847085e+003
7.790579e+002, 2.846772e+003
7.795400e+002, 2.842220e+003
7.800221e+002, 2.835490e+003
7.805042e+002, 2.830290e+003
7.809863e+002, 2.827216e+003
7.814684e+002, 2.823003e+003
7.819506e+002, 2.816887e+003
7.824327e+002, 2.809372e+003
7.829148e+002, 2.799266e+003
7.833969e+002, 2.788482e+003
7.838790e+002, 2.780438e+003
7.843611e+002, 2.775786e+003
7.848433e+002, 2.771927e+003
7.853254e+002, 2.766709e+003
7.858075e+002, 2.760303e+003
7.862896e+002, 2.752997e+003
7.867717e+002, 2.744794e+003
7.872538e+002, 2.737296e+003
7.877360e+002, 2.731443e+003
7.882181e+002, 2.724651e+003
7.887002e+002, 2.713869e+003
7.891823e+002, 2.699824e+003
7.896644e+002, 2.689080e+003
7.901465e+002, 2.685066e+003
7.906286e+002, 2.679214e+003
7.911107e+002, 2.670204e+003
7.915928e+002, 2.659824e+003
7.920750e+002, 2.648559e+003
7.925571e+002, 2.636959e+003
7.930392e+002, 2.625658e+003
7.935213e+002, 2.614890e+003
7.940034e+002, 2.604737e+003
7.944855e+002, 2.595964e+003
7.949677e+002, 2.587556e+003
7.954498e+002, 2.577611e+003
7.959319e+002, 2.566114e+003
7.964140e+002, 2.553921e+003
7.968961e+002, 2.541226e+003
7.973782e+002, 2.529099e+003
7.978604e+002, 2.519180e+003
7.983425e+002, 2.511511e+003
7.988246e+002, 2.503433e+003
7.993067e+002, 2.494568e+003
7.997888e+002, 2.485886e+003
8.002709e+002, 2.477239e+003
8.007531e+002, 2.469181e+003
8.012352e+002, 2.462648e+003
8.017173e+002, 2.457269e+003
8.021994e+002, 2.451335e+003
8.026815e+002, 2.443533e+003
8.031636e+002, 2.436368e+003
8.036458e+002, 2.431194e+003
8.041279e+002, 2.427419e+003
8.046100e+002, 2.425082e+003
8.050921e+002, 2.423561e+003
8.055742e+002, 2.421067e+003
8.060563e+002, 2.416619e+003
8.065385e+002, 2.411257e+003
8.070206e+002, 2.406791e+003
8.075027e+002, 2.403103e+003
8.079848e+002, 2.398504e+003
8.084669e+002, 2.392804e+003
8.089490e+002, 2.386611e+003
8.094312e+002, 2.379698e+003
8.099133e+002, 2.373146e+003
8.103954e+002, 2.368885e+003
8.108775e+002, 2.367449e+003
8.113596e+002, 2.364828e+003
8.118417e+002, 2.359611e+003
8.123239e+002, 2.355049e+003
8.128060e+002, 2.352269e+003
8.132881e+002, 2.350381e+003
8.137702e+002, 2.348981e+003
8.142523e+002, 2.347731e+003
8.147344e+002, 2.345770e+003
8.152166e+002, 2.342295e+003
8.156987e+002, 2.338765e+003
8.161808e+002, 2.337132e+003
8.166629e+002, 2.336514e+003
8.171450e+002, 2.334925e+003
8.176271e+002, 2.332185e+003
8.181093e+002, 2.329150e+003
8.185914e+002, 2.326281e+003
8.190735e+002, 2.323472e+003
8.195556e+002, 2.320192e+003
8.200377e+002, 2.315918e+003
8.205198e+002, 2.314690e+003
8.210020e+002, 2.318834e+003
8.214841e+002, 2.321548e+003
8.219662e+002, 2.319610e+003
8.224483e+002, 2.315424e+003
8.229304e+002, 2.311115e+003
8.234125e+002, 2.306767e+003
8.238947e+002, 2.303575e+003
8.243768e+002, 2.302644e+003
8.248589e+002, 2.301930e+003
8.253410e+002, 2.300074e+003
8.258231e+002, 2.298303e+003
8.263052e+002, 2.298676e+003
8.267874e+002, 2.300641e+003
8.272695e+002, 2.301479e+003
8.277516e+002, 2.299583e+003
8.282337e+002, 2.296348e+003
8.287158e+002, 2.293484e+003
8.291979e+002, 2.290957e+003
8.296801e+002, 2.288522e+003
8.301622e+002, 2.286163e+003
8.306443e+002, 2.284510e+003
8.311264e+002, 2.284095e+003
8.316085e+002, 2.283864e+003
8.320906e+002, 2.281880e+003
8.325728e+002, 2.277692e+003
8.330549e+002, 2.274984e+003
8.335370e+002, 2.274321e+003
8.340191e+002, 2.274353e+003
8.345012e+002, 2.276085e+003
8.349833e+002, 2.277306e+003
8.354655e+002, 2.275658e+003
8.359476e+002, 2.271676e+003
8.364297e+002, 2.268365e+003
8.369118e+002, 2.266780e+003
8.373939e+002, 2.265825e+003
8.378760e+002, 2.264778e+003
8.383582e+002, 2.264133e+003
8.388403e+002, 2.265204e+003
8.393224e+002, 2.267266e+003
8.398045e+002, 2.267701e+003
8.402866e+002, 2.265268e+003
8.407687e+002, 2.262000e+003
8.412509e+002, 2.260984e+003
8.417330e+002, 2.261696e+003
8.422151e+002, 2.260589e+003
8.426972e+002, 2.257399e+003
8.431793e+002, 2.256075e+003
8.436614e+002, 2.258496e+003
8.441436e+002, 2.262007e+003
8.446257e+002, 2.263592e+003
8.451078e+002, 2.263278e+003
8.455899e+002, 2.262812e+003
8.460720e+002, 2.261898e+003
8.465541e+002, 2.261221e+003
8.470363e+002, 2.261793e+003
8.475184e+002, 2.261683e+003
8.480005e+002, 2.258935e+003
8.484826e+002, 2.254691e+003
8.489647e+002, 2.251530e+003
8.494468e+002, 2.250148e+003
8.499290e+002, 2.249696e+003
8.504111e+002, 2.250224e+003
8.508932e+002, 2.251065e+003
8.513753e+002, 2.251982e+003
8.518574e+002, 2.252592e+003
8.523395e+002, 2.251694e+003
8.528217e+002, 2.249163e+003
8.533038e+002, 2.247135e+003
8.537859e+002, 2.248287e+003
8.542680e+002, 2.251089e+003
8.547501e+002, 2.250004e+003
8.552322e+002, 2.245044e+003
8.557144e+002, 2.242203e+003
8.561965e+002, 2.243129e+003
8.566786e+002, 2.244250e+003
8.571607e+002, 2.242615e+003
8.576428e+002, 2.239355e+003
8.581249e+002, 2.238218e+003
8.586071e+002, 2.240869e+003
8.590892e+002, 2.241994e+003
8.595713e+002, 2.240553e+003
8.600534e+002, 2.238816e+003
8.605355e+002, 2.237510e+003
8.610176e+002, 2.236352e+003
8.614998e+002, 2.234577e+003
8.619819e+002, 2.232217e+003
8.624640e+002, 2.231195e+003
8.629461e+002, 2.233735e+003
8.634282e+002, 2.236289e+003
8.639103e+002, 2.236167e+003
8.643925e+002, 2.234697e+003
8.648746e+002, 2.233813e+003
8.653567e+002, 2.233592e+003
8.658388e+002, 2.232915e+003
8.663209e+002, 2.231113e+003
8.668030e+002, 2.228760e+003
8.672852e+002, 2.226399e+003
8.677673e+002, 2.224218e+003
8.682494e+002, 2.223184e+003
8.687315e+002, 2.223366e+003
8.692136e+002, 2.224588e+003
8.696957e+002, 2.226946e+003
8.701779e+002, 2.229780e+003
8.706600e+002, 2.232285e+003
8.711421e+002, 2.234468e+003
8.716242e+002, 2.235941e+003
8.721063e+002, 2.236304e+003
8.725884e+002, 2.236656e+003
8.730705e+002, 2.238060e+003
8.735526e+002, 2.238646e+003
8.740347e+002, 2.236510e+003
8.745168e+002, 2.232774e+003
8.749990e+002, 2.230147e+003
8.754811e+002, 2.229190e+003
8.759632e+002, 2.229003e+003
8.764453e+002, 2.230592e+003
8.769274e+002, 2.231578e+003
8.774095e+002, 2.229888e+003
8.778917e+002, 2.226461e+003
8.783738e+002, 2.222761e+003
8.788559e+002, 2.219284e+003
8.793380e+002, 2.216208e+003
8.798201e+002, 2.213600e+003
8.803022e+002, 2.211573e+003
8.807844e+002, 2.210788e+003
8.812665e+002, 2.210762e+003
8.817486e+002, 2.209324e+003
8.822307e+002, 2.206254e+003
8.827128e+002, 2.204218e+003
8.831949e+002, 2.205164e+003
8.836771e+002, 2.207056e+003
8.841592e+002, 2.205280e+003
8.846413e+002, 2.199117e+003
8.851234e+002, 2.194798e+003
8.856055e+002, 2.193283e+003
8.860876e+002, 2.191125e+003
8.865698e+002, 2.186389e+003
8.870519e+002, 2.181222e+003
8.875340e+002, 2.177741e+003
8.880161e+002, 2.175942e+003
8.884982e+002, 2.175536e+003
8.889803e+002, 2.178596e+003
8.894625e+002, 2.180108e+003
8.899446e+002, 2.177232e+003
8.904267e+002, 2.174418e+003
8.909088e+002, 2.175927e+003
8.913909e+002, 2.179507e+003
8.918730e+002, 2.179762e+003
8.923552e+002, 2.175040e+003
8.928373e+002, 2.171483e+003
8.933194e+002, 2.174660e+003
8.938015e+002, 2.179594e+003
8.942836e+002, 2.180624e+003
8.947657e+002, 2.179370e+003
8.952479e+002, 2.179635e+003
8.957300e+002, 2.182059e+003
8.962121e+002, 2.184501e+003
8.966942e+002, 2.185231e+003
8.971763e+002, 2.185444e+003
8.976584e+002, 2.187946e+003
8.981406e+002, 2.192409e+003
8.986227e+002, 2.195644e+003
8.991048e+002, 2.197294e+003
8.995869e+002, 2.198309e+003
9.000690e+002, 2.199030e+003
9.005511e+002, 2.199644e+003
9.010333e+002, 2.200552e+003
9.015154e+002, 2.201810e+003
9.019975e+002, 2.201874e+003
9.024796e+002, 2.199722e+003
9.029617e+002, 2.198297e+003
9.034438e+002, 2.199244e+003
9.039260e+002, 2.200013e+003
9.044081e+002, 2.198119e+003
9.048902e+002, 2.194816e+003
9.053723e+002, 2.193583e+003
9.058544e+002, 2.195875e+003
9.063365e+002, 2.197144e+003
9.068187e+002, 2.194849e+003
9.073008e+002, 2.192739e+003
9.077829e+002, 2.193811e+003
9.082650e+002, 2.196053e+003
9.087471e+002, 2.196403e+003
9.092292e+002, 2.194561e+003
9.097114e+002, 2.192688e+003
9.101935e+002, 2.192175e+003
9.106756e+002, 2.191962e+003
9.111577e+002, 2.191395e+003
9.116398e+002, 2.190171e+003
9.121219e+002, 2.187553e+003
9.126041e+002, 2.183677e+003
9.130862e+002, 2.179509e+003
9.135683e+002, 2.175516e+003
9.140504e+002, 2.170979e+003
9.145325e+002, 2.164050e+003
9.150146e+002, 2.155667e+003
9.154968e+002, 2.151712e+003
9.159789e+002, 2.152388e+003
9.164610e+002, 2.152101e+003
9.169431e+002, 2.149633e+003
9.174252e+002, 2.144802e+003
9.179073e+002, 2.136672e+003
9.183895e+002, 2.126690e+003
9.188716e+002, 2.120281e+003
9.193537e+002, 2.119144e+003
9.198358e+002, 2.117096e+003
9.203179e+002, 2.113840e+003
9.208000e+002, 2.110019e+003
9.212822e+002, 2.105204e+003
9.217643e+002, 2.100342e+003
9.222464e+002, 2.096551e+003
9.227285e+002, 2.093795e+003
9.232106e+002, 2.091185e+003
9.236927e+002, 2.088791e+003
9.241749e+002, 2.086245e+003
9.246570e+002, 2.082821e+003
9.251391e+002, 2.079777e+003
9.256212e+002, 2.078165e+003
9.261033e+002, 2.077726e+003
9.265854e+002, 2.078292e+003
9.270676e+002, 2.079895e+003
9.275497e+002, 2.079994e+003
9.280318e+002, 2.075354e+003
9.285139e+002, 2.069837e+003
9.289960e+002, 2.067688e+003
9.294781e+002, 2.067482e+003
9.299603e+002, 2.066395e+003
9.304424e+002, 2.063961e+003
9.309245e+002, 2.061077e+003
9.314066e+002, 2.058259e+003
9.318887e+002, 2.055606e+003
9.323708e+002, 2.053218e+003
9.328530e+002, 2.051136e+003
9.333351e+002, 2.049928e+003
9.338172e+002, 2.049508e+003
9.342993e+002, 2.047696e+003
9.347814e+002, 2.043511e+003
9.352635e+002, 2.039606e+003
9.357457e+002, 2.039055e+003
9.362278e+002, 2.041208e+003
9.367099e+002, 2.042406e+003
9.371920e+002, 2.042631e+003
9.376741e+002, 2.041888e+003
9.381563e+002, 2.040108e+003
9.386384e+002, 2.037364e+003
9.391205e+002, 2.032605e+003
9.396026e+002, 2.027768e+003
9.400847e+002, 2.026717e+003
9.405668e+002, 2.030419e+003
9.410490e+002, 2.032203e+003
9.415311e+002, 2.030607e+003
9.420132e+002, 2.029199e+003
9.424953e+002, 2.029396e+003
9.429774e+002, 2.029351e+003
9.434595e+002, 2.027499e+003
9.439417e+002, 2.024344e+003
9.444238e+002, 2.021158e+003
9.449059e+002, 2.017876e+003
9.453880e+002, 2.015778e+003
9.458701e+002, 2.015864e+003
9.463522e+002, 2.016689e+003
9.468344e+002, 2.017714e+003
9.473165e+002, 2.018661e+003
9.477986e+002, 2.019604e+003
9.482807e+002, 2.020262e+003
9.487628e+002, 2.019404e+003
9.492449e+002, 2.015706e+003
9.497271e+002, 2.011998e+003
9.502092e+002, 2.011259e+003
9.506913e+002, 2.012079e+003
9.511734e+002, 2.012429e+003
9.516555e+002, 2.012276e+003
9.521376e+002, 2.012442e+003
9.526198e+002, 2.013105e+003
9.531019e+002, 2.012932e+003
9.535840e+002, 2.010227e+003
9.540661e+002, 2.006298e+003
9.545482e+002, 2.004599e+003
9.550303e+002, 2.004736e+003
9.555124e+002, 2.004134e+003
9.559945e+002, 2.002421e+003
9.564766e+002, 1.999919e+003
9.569587e+002, 1.996539e+003
9.574409e+002, 1.993875e+003
9.579230e+002, 1.994844e+003
9.584051e+002, 1.999362e+003
9.588872e+002, 2.002568e+003
9.593693e+002, 2.004669e+003
9.598514e+002, 2.004277e+003
9.603336e+002, 2.000031e+003
9.608157e+002, 1.995660e+003
9.612978e+002, 1.994015e+003
9.617799e+002, 1.994306e+003
9.622620e+002, 1.994465e+003
9.627441e+002, 1.994973e+003
9.632263e+002, 1.993851e+003
9.637084e+002, 1.989824e+003
9.641905e+002, 1.985909e+003
9.646726e+002, 1.981995e+003
9.651547e+002, 1.979268e+003
9.656368e+002, 1.979739e+003
9.661190e+002, 1.982483e+003
9.666011e+002, 1.983132e+003
9.670832e+002, 1.979416e+003
9.675653e+002, 1.977130e+003
9.680474e+002, 1.979276e+003
9.685295e+002, 1.981260e+003
9.690117e+002, 1.979868e+003
9.694938e+002, 1.977052e+003
9.699759e+002, 1.975604e+003
9.704580e+002, 1.975747e+003
9.709401e+002, 1.975718e+003
9.714222e+002, 1.974328e+003
9.719044e+002, 1.973266e+003
9.723865e+002, 1.974400e+003
9.728686e+002, 1.975775e+003
9.733507e+002, 1.975692e+003
9.738328e+002, 1.973986e+003
9.743149e+002, 1.969973e+003
9.747971e+002, 1.963836e+003
9.752792e+002, 1.959024e+003
9.757613e+002, 1.958943e+003
9.762434e+002, 1.960962e+003
9.767255e+002, 1.962130e+003
9.772076e+002, 1.962516e+003
9.776898e+002, 1.961843e+003
9.781719e+002, 1.960428e+003
9.786540e+002, 1.959901e+003
9.791361e+002, 1.961027e+003
9.796182e+002, 1.962377e+003
9.801003e+002, 1.962060e+003
9.805825e+002, 1.960581e+003
9.810646e+002, 1.959446e+003
9.815467e+002, 1.958692e+003
9.820288e+002, 1.958711e+003
9.825109e+002, 1.959584e+003
9.829930e+002, 1.960731e+003
9.834752e+002, 1.961827e+003
9.839573e+002, 1.962741e+003
9.844394e+002, 1.963401e+003
9.849215e+002, 1.963818e+003
9.854036e+002, 1.962396e+003
9.858857e+002, 1.958674e+003
9.863679e+002, 1.955888e+003
9.868500e+002, 1.954981e+003
9.873321e+002, 1.954860e+003
9.878142e+002, 1.954686e+003
9.882963e+002, 1.954572e+003
9.887784e+002, 1.955055e+003
9.892606e+002, 1.956830e+003
9.897427e+002, 1.956596e+003
9.902248e+002, 1.953265e+003
9.907069e+002, 1.949954e+003
9.911890e+002, 1.947201e+003
9.916711e+002, 1.945306e+003
9.921533e+002, 1.944815e+003
9.926354e+002, 1.945500e+003
9.931175e+002, 1.946005e+003
9.935996e+002, 1.946059e+003
9.940817e+002, 1.946435e+003
9.945638e+002, 1.948303e+003
9.950460e+002, 1.949116e+003
9.955281e+002, 1.946830e+003
9.960102e+002, 1.943748e+003
9.964923e+002, 1.942348e+003
9.969744e+002, 1.942573e+003
9.974565e+002, 1.943000e+003
9.979387e+002, 1.944269e+003
9.984208e+002, 1.944211e+003
9.989029e+002, 1.940013e+003
9.993850e+002, 1.936690e+003
9.998671e+002, 1.939081e+003
1.000349e+003, 1.943463e+003
1.000831e+003, 1.944041e+003
1.001313e+003, 1.940389e+003
1.001796e+003, 1.937043e+003
1.002278e+003, 1.936064e+003
1.002760e+003, 1.935524e+003
1.003242e+003, 1.934270e+003
1.003724e+003, 1.933076e+003
1.004206e+003, 1.932869e+003
1.004688e+003, 1.933214e+003
1.005170e+003, 1.933084e+003
1.005653e+003, 1.932282e+003
1.006135e+003, 1.931641e+003
1.006617e+003, 1.931810e+003
1.007099e+003, 1.932183e+003
1.007581e+003, 1.932156e+003
1.008063e+003, 1.931995e+003
1.008545e+003, 1.932678e+003
1.009027e+003, 1.933527e+003
1.009509e+003, 1.932024e+003
1.009992e+003, 1.927535e+003
1.010474e+003, 1.923488e+003
1.010956e+003, 1.923402e+003
1.011438e+003, 1.924962e+003
1.011920e+003, 1.924176e+003
1.012402e+003, 1.922462e+003
1.012884e+003, 1.924016e+003
1.013366e+003, 1.928335e+003
1.013849e+003, 1.930674e+003
1.014331e+003, 1.928991e+003
1.014813e+003, 1.925730e+003
1.015295e+003, 1.923164e+003
1.015777e+003, 1.921420e+003
1.016259e+003, 1.921440e+003
1.016741e+003, 1.922660e+003
1.017223e+003, 1.922203e+003
1.017705e+003, 1.919785e+003
1.018188e+003, 1.917275e+003
1.018670e+003, 1.915618e+003
1.019152e+003, 1.914592e+003
1.019634e+003, 1.913847e+003
1.020116e+003, 1.913485e+003
1.020598e+003, 1.914487e+003
1.021080e+003, 1.916748e+003
1.021562e+003, 1.917170e+003
1.022044e+003, 1.915107e+003
1.022527e+003, 1.913490e+003
1.023009e+003, 1.914161e+003
1.023491e+003, 1.915399e+003
1.023973e+003, 1.914063e+003
1.024455e+003, 1.910447e+003
1.024937e+003, 1.909953e+003
1.025419e+003, 1.913151e+003
1.025901e+003, 1.914574e+003
1.026384e+003, 1.912945e+003
1.026866e+003, 1.910600e+003
1.027348e+003, 1.908753e+003
1.027830e+003, 1.907620e+003
1.028312e+003, 1.907797e+003
1.028794e+003, 1.909387e+003
1.029276e+003, 1.909873e+003
1.029758e+003, 1.909128e+003
1.030240e+003, 1.907582e+003
1.030723e+003, 1.904674e+003
1.031205e+003, 1.902516e+003
1.031687e+003, 1.902660e+003
1.032169e+003, 1.904265e+003
1.032651e+003, 1.905659e+003
1.033133e+003, 1.906784e+003
1.033615e+003, 1.908178e+003
1.034097e+003, 1.910561e+003
1.034579e+003, 1.911498e+003
1.035062e+003, 1.909548e+003
1.035544e+003, 1.907519e+003
1.036026e+003, 1.907552e+003
1.036508e+003, 1.908582e+003
1.036990e+003, 1.908345e+003
1.037472e+003, 1.906591e+003
1.037954e+003, 1.904904e+003
1.038436e+003, 1.902838e+003
1.038919e+003, 1.901573e+003
1.039401e+003, 1.901577e+003
1.039883e+003, 1.902173e+003
1.040365e+003, 1.903855e+003
1.040847e+003, 1.905557e+003
1.041329e+003, 1.904531e+003
1.041811e+003, 1.899840e+003
1.042293e+003, 1.897480e+003
1.042776e+003, 1.899741e+003
1.043258e+003, 1.901304e+003
1.043740e+003, 1.901089e+003
1.044222e+003, 1.900016e+003
1.044704e+003, 1.898469e+003
1.045186e+003, 1.896563e+003
1.045668e+003, 1.894125e+003
1.046150e+003, 1.890809e+003
1.046632e+003, 1.889477e+003
1.047115e+003, 1.893069e+003
1.047597e+003, 1.895025e+003
1.048079e+003, 1.892342e+003
1.048561e+003, 1.888859e+003
1.049043e+003, 1.886488e+003
1.049525e+003, 1.885483e+003
1.050007e+003, 1.886665e+003
1.050489e+003, 1.890462e+003
1.050971e+003, 1.892177e+003
1.051454e+003, 1.889494e+003
1.051936e+003, 1.886525e+003
1.052418e+003, 1.883549e+003
1.052900e+003, 1.881607e+003
1.053382e+003, 1.882052e+003
1.053864e+003, 1.883808e+003
1.054346e+003, 1.885047e+003
1.054828e+003, 1.885513e+003
1.055311e+003, 1.885454e+003
1.055793e+003, 1.885067e+003
1.056275e+003, 1.883995e+003
1.056757e+003, 1.881420e+003
1.057239e+003, 1.878802e+003
1.057721e+003, 1.876921e+003
1.058203e+003, 1.875929e+003
1.058685e+003, 1.876085e+003
1.059167e+003, 1.877401e+003
1.059650e+003, 1.878849e+003
1.060132e+003, 1.880338e+003
1.060614e+003, 1.881582e+003
1.061096e+003, 1.882329e+003
1.061578e+003, 1.882934e+003
1.062060e+003, 1.884304e+003
1.062542e+003, 1.885427e+003
1.063024e+003, 1.884231e+003
1.063506e+003, 1.880596e+003
1.063989e+003, 1.877427e+003
1.064471e+003, 1.875769e+003
1.064953e+003, 1.874738e+003
1.065435e+003, 1.874167e+003
1.065917e+003, 1.873881e+003
1.066399e+003, 1.874012e+003
1.066881e+003, 1.874206e+003
1.067363e+003, 1.874029e+003
1.067846e+003, 1.873393e+003
1.068328e+003, 1.872300e+003
1.068810e+003, 1.870900e+003
1.069292e+003, 1.868805e+003
1.069774e+003, 1.864529e+003
1.070256e+003, 1.860848e+003
1.070738e+003, 1.860287e+003
1.071220e+003, 1.861407e+003
1.071703e+003, 1.862049e+003
1.072185e+003, 1.862006e+003
1.072667e+003, 1.862354e+003
1.073149e+003, 1.863732e+003
1.073631e+003, 1.864985e+003
1.074113e+003, 1.866255e+003
1.074595e+003, 1.866488e+003
1.075077e+003, 1.863869e+003
1.075559e+003, 1.860397e+003
1.076042e+003, 1.859004e+003
1.076524e+003, 1.859490e+003
1.077006e+003, 1.859200e+003
1.077488e+003, 1.857107e+003
1.077970e+003, 1.854542e+003
1.078452e+003, 1.850876e+003
1.078934e+003, 1.848314e+003
1.079416e+003, 1.849698e+003
1.079898e+003, 1.852081e+003
1.080380e+003, 1.851482e+003
1.080863e+003, 1.848486e+003
1.081345e+003, 1.846397e+003
1.081827e+003, 1.846105e+003
1.082309e+003, 1.847423e+003
1.082791e+003, 1.852640e+003
1.083273e+003, 1.856673e+003
1.083755e+003, 1.855287e+003
1.084237e+003, 1.851935e+003
1.084720e+003, 1.850368e+003
1.085202e+003, 1.850188e+003
1.085684e+003, 1.848964e+003
1.086166e+003, 1.845873e+003
1.086648e+003, 1.843671e+003
1.087130e+003, 1.844554e+003
1.087612e+003, 1.845324e+003
1.088094e+003, 1.843517e+003
1.088577e+003, 1.841520e+003
1.089059e+003, 1.842544e+003
1.089541e+003, 1.844892e+003
1.090023e+003, 1.843965e+003
1.090505e+003, 1.838806e+003
1.090987e+003, 1.835927e+003
1.091469e+003, 1.840765e+003
1.091951e+003, 1.844402e+003
1.092433e+003, 1.841868e+003
1.092916e+003, 1.837819e+003
1.093398e+003, 1.835449e+003
1.093880e+003, 1.834435e+003
1.094362e+003, 1.834079e+003
1.094844e+003, 1.834158e+003
1.095326e+003, 1.833543e+003
1.095808e+003, 1.830395e+003
1.096290e+003, 1.828720e+003
1.096772e+003, 1.831620e+003
1.097255e+003, 1.834470e+003
1.097737e+003, 1.834168e+003
1.098219e+003, 1.832118e+003
1.098701e+003, 1.830131e+003
1.099183e+003, 1.828438e+003
1.099665e+003, 1.826828e+003
1.100147e+003, 1.824815e+003
1.100629e+003, 1.823758e+003
1.101112e+003, 1.824310e+003
1.101594e+003, 1.825526e+003
1.102076e+003, 1.827748e+003
1.102558e+003, 1.829778e+003
1.103040e+003, 1.830755e+003
1.103522e+003, 1.830443e+003
1.104004e+003, 1.827838e+003
1.104486e+003, 1.820850e+003
1.104969e+003, 1.817793e+003
1.105451e+003, 1.824505e+003
1.105933e+003, 1.829688e+003
1.106415e+003, 1.827627e+003
1.106897e+003, 1.824161e+003
1.107379e+003, 1.824442e+003
1.107861e+003, 1.826967e+003
1.108343e+003, 1.827392e+003
1.108825e+003, 1.824815e+003
1.109307e+003, 1.823547e+003
1.109790e+003, 1.825737e+003
1.110272e+003, 1.826729e+003
1.110754e+003, 1.825548e+003
1.111236e+003, 1.822966e+003
1.111718e+003, 1.817738e+003
1.112200e+003, 1.812212e+003
1.112682e+003, 1.810535e+003
1.113164e+003, 1.812948e+003
1.113647e+003, 1.815208e+003
1.114129e+003, 1.818723e+003
1.114611e+003, 1.819701e+003
1.115093e+003, 1.815707e+003
1.115575e+003, 1.812144e+003
1.116057e+003, 1.811906e+003
1.116539e+003, 1.812654e+003
1.117021e+003, 1.811365e+003
1.117504e+003, 1.808504e+003
1.117986e+003, 1.807595e+003
1.118468e+003, 1.809686e+003
1.118950e+003, 1.811245e+003
1.119432e+003, 1.812271e+003
1.119914e+003, 1.812664e+003
1.120396e+003, 1.812215e+003
1.120878e+003, 1.811376e+003
1.121360e+003, 1.810363e+003
1.121843e+003, 1.809380e+003
1.122325e+003, 1.809166e+003
1.122807e+003, 1.810032e+003
1.123289e+003, 1.809666e+003
1.123771e+003, 1.807543e+003
1.124253e+003, 1.806100e+003
1.124735e+003, 1.806165e+003
1.125217e+003, 1.806009e+003
1.125699e+003, 1.804398e+003
1.126182e+003, 1.802224e+003
1.126664e+003, 1.801057e+003
1.127146e+003, 1.800834e+003
1.127628e+003, 1.800397e+003
1.128110e+003, 1.799707e+003
1.128592e+003, 1.799022e+003
1.129074e+003, 1.798280e+003
1.129556e+003, 1.798469e+003
1.130039e+003, 1.800253e+003
1.130521e+003, 1.801744e+003
1.131003e+003, 1.800478e+003
1.131485e+003, 1.797647e+003
1.131967e+003, 1.797887e+003
1.132449e+003, 1.800959e+003
1.132931e+003, 1.802634e+003
1.133413e+003, 1.802689e+003
1.133896e+003, 1.802162e+003
1.134378e+003, 1.801370e+003
1.134860e+003, 1.800179e+003
1.135342e+003, 1.798374e+003
1.135824e+003, 1.796694e+003
1.136306e+003, 1.796660e+003
1.136788e+003, 1.797882e+003
1.137270e+003, 1.799252e+003
1.137752e+003, 1.800511e+003
1.138234e+003, 1.800236e+003
1.138717e+003, 1.798406e+003
1.139199e+003, 1.796699e+003
1.139681e+003, 1.795965e+003
1.140163e+003, 1.796070e+003
1.140645e+003, 1.797542e+003
1.141127e+003, 1.799105e+003
1.141609e+003, 1.797764e+003
1.142091e+003, 1.794961e+003
1.142574e+003, 1.793839e+003
1.143056e+003, 1.794378e+003
1.143538e+003, 1.795387e+003
1.144020e+003, 1.796379e+003
1.144502e+003, 1.796991e+003
1.144984e+003, 1.797014e+003
1.145466e+003, 1.796434e+003
1.145948e+003, 1.794852e+003
1.146431e+003, 1.792965e+003
1.146913e+003, 1.790948e+003
1.147395e+003, 1.789625e+003
1.147877e+003, 1.791256e+003
1.148359e+003, 1.795168e+003
1.148841e+003, 1.797327e+003
1.149323e+003, 1.795930e+003
1.149805e+003, 1.793303e+003
1.150287e+003, 1.789638e+003
1.150770e+003, 1.786707e+003
1.151252e+003, 1.785897e+003
1.151734e+003, 1.786399e+003
1.152216e+003, 1.787929e+003
1.152698e+003, 1.789833e+003
1.153180e+003, 1.790922e+003
1.153662e+003, 1.790954e+003
1.154144e+003, 1.790809e+003
1.154626e+003, 1.791353e+003
1.155109e+003, 1.790974e+003
1.155591e+003, 1.787806e+003
1.156073e+003, 1.785039e+003
1.156555e+003, 1.784882e+003
1.157037e+003, 1.786142e+003
1.157519e+003, 1.787467e+003
1.158001e+003, 1.788685e+003
1.158483e+003, 1.789422e+003
1.158966e+003, 1.789388e+003
1.159448e+003, 1.789439e+003
1.159930e+003, 1.790728e+003
1.160412e+003, 1.790544e+003
1.160894e+003, 1.786492e+003
1.161376e+003, 1.782644e+003
1.161858e+003, 1.782745e+003
1.162340e+003, 1.784734e+003
1.162822e+003, 1.783809e+003
1.163305e+003, 1.779480e+003
1.163787e+003, 1.777592e+003
1.164269e+003, 1.779058e+003
1.164751e+003, 1.780378e+003
1.165233e+003, 1.781188e+003
1.165715e+003, 1.781510e+003
1.166197e+003, 1.781227e+003
1.166679e+003, 1.780764e+003
1.167161e+003, 1.780605e+003
1.167644e+003, 1.780693e+003
1.168126e+003, 1.780812e+003
1.168608e+003, 1.780960e+003
1.169090e+003, 1.781094e+003
1.169572e+003, 1.781210e+003
1.170054e+003, 1.781420e+003
1.170536e+003, 1.781764e+003
1.171018e+003, 1.781654e+003
1.171500e+003, 1.780621e+003
1.171983e+003, 1.779392e+003
1.172465e+003, 1.779291e+003
1.172947e+003, 1.779894e+003
1.173429e+003, 1.779794e+003
1.173911e+003, 1.779139e+003
1.174393e+003, 1.778324e+003
1.174875e+003, 1.777518e+003
1.175357e+003, 1.777298e+003
1.175840e+003, 1.777816e+003
1.176322e+003, 1.778114e+003
1.176804e+003, 1.777230e+003
1.177286e+003, 1.776122e+003
1.177768e+003, 1.775692e+003
1.178250e+003, 1.776005e+003
1.178732e+003, 1.778001e+003
1.179214e+003, 1.780460e+003
1.179697e+003, 1.780905e+003
1.180179e+003, 1.779295e+003
1.180661e+003, 1.777219e+003
1.181143e+003, 1.775181e+003
1.181625e+003, 1.773969e+003
1.182107e+003, 1.775088e+003
1.182589e+003, 1.775958e+003
1.183071e+003, 1.774306e+003
1.183553e+003, 1.772119e+003
1.184036e+003, 1.771100e+003
1.184518e+003, 1.771109e+003
1.185000e+003, 1.772039e+003
1.185482e+003, 1.773724e+003
1.185964e+003, 1.773897e+003
1.186446e+003, 1.770541e+003
1.186928e+003, 1.768109e+003
1.187410e+003, 1.768439e+003
1.187892e+003, 1.768487e+003
1.188375e+003, 1.766178e+003
1.188857e+003, 1.763756e+003
1.189339e+003, 1.763421e+003
1.189821e+003, 1.764588e+003
1.190303e+003, 1.765754e+003
1.190785e+003, 1.767182e+003
1.191267e+003, 1.766827e+003
1.191749e+003, 1.763324e+003
1.192232e+003, 1.762111e+003
1.192714e+003, 1.764919e+003
1.193196e+003, 1.767483e+003
1.193678e+003, 1.767592e+003
1.194160e+003, 1.766699e+003
1.194642e+003, 1.766680e+003
1.195124e+003, 1.766993e+003
1.195606e+003, 1.764907e+003
1.196089e+003, 1.760593e+003
1.196571e+003, 1.759824e+003
1.197053e+003, 1.762609e+003
1.197535e+003, 1.763402e+003
1.198017e+003, 1.760911e+003
1.198499e+003, 1.758000e+003
1.198981e+003, 1.756387e+003
1.199463e+003, 1.756083e+003
1.199945e+003, 1.757859e+003
1.200427e+003, 1.760380e+003
1.200910e+003, 1.761149e+003
1.201392e+003, 1.760494e+003
1.201874e+003, 1.758342e+003
1.202356e+003, 1.755569e+003
1.202838e+003, 1.755049e+003
1.203320e+003, 1.757053e+003
1.203802e+003, 1.757444e+003
1.204284e+003, 1.752926e+003
1.204767e+003, 1.748813e+003
1.205249e+003, 1.749849e+003
1.205731e+003, 1.752187e+003
1.206213e+003, 1.752962e+003
1.206695e+003, 1.752930e+003
1.207177e+003, 1.753027e+003
1.207659e+003, 1.753334e+003
1.208141e+003, 1.754136e+003
1.208624e+003, 1.755645e+003
1.209106e+003, 1.754804e+003
1.209588e+003, 1.747051e+003
1.210070e+003, 1.742643e+003
1.210552e+003, 1.746582e+003
1.211034e+003, 1.750898e+003
1.211516e+003, 1.751927e+003
1.211998e+003, 1.751121e+003
1.212480e+003, 1.749295e+003
1.212963e+003, 1.746956e+003
1.213445e+003, 1.746251e+003
1.213927e+003, 1.747774e+003
1.214409e+003, 1.747733e+003
1.214891e+003, 1.745686e+003
1.215373e+003, 1.743767e+003
1.215855e+003, 1.742405e+003
1.216337e+003, 1.740944e+003
1.216819e+003, 1.738942e+003
1.217302e+003, 1.737339e+003
1.217784e+003, 1.737487e+003
1.218266e+003, 1.738639e+003
1.218748e+003, 1.738473e+003
1.219230e+003, 1.737202e+003
1.219712e+003, 1.735376e+003
1.220194e+003, 1.733356e+003
1.220676e+003, 1.733013e+003
1.221159e+003, 1.734433e+003
1.221641e+003, 1.735046e+003
1.222123e+003, 1.733421e+003
1.222605e+003, 1.731750e+003
1.223087e+003, 1.732867e+003
1.223569e+003, 1.734441e+003
1.224051e+003, 1.732975e+003
1.224533e+003, 1.730945e+003
1.225016e+003, 1.731976e+003
1.225498e+003, 1.734881e+003
1.225980e+003, 1.736996e+003
1.226462e+003, 1.737832e+003
1.226944e+003, 1.738284e+003
1.227426e+003, 1.738909e+003
1.227908e+003, 1.738324e+003
1.228390e+003, 1.733841e+003
1.228872e+003, 1.730937e+003
1.229354e+003, 1.734292e+003
1.229837e+003, 1.737780e+003
1.230319e+003, 1.735120e+003
1.230801e+003, 1.730062e+003
1.231283e+003, 1.729984e+003
1.231765e+003, 1.734683e+003
1.232247e+003, 1.736522e+003
1.232729e+003, 1.734498e+003
1.233211e+003, 1.732661e+003
1.233694e+003, 1.731044e+003
1.234176e+003, 1.730250e+003
1.234658e+003, 1.730643e+003
1.235140e+003, 1.731168e+003
1.235622e+003, 1.731133e+003
1.236104e+003, 1.730483e+003
1.236586e+003, 1.728930e+003
1.237068e+003, 1.726778e+003
1.237551e+003, 1.725301e+003
1.238033e+003, 1.724367e+003
1.238515e+003, 1.723091e+003
1.238997e+003, 1.721673e+003
1.239479e+003, 1.721868e+003
1.239961e+003, 1.723850e+003
1.240443e+003, 1.724852e+003
1.240925e+003, 1.722830e+003
1.241407e+003, 1.720814e+003
1.241890e+003, 1.722628e+003
1.242372e+003, 1.724911e+003
1.242854e+003, 1.724740e+003
1.243336e+003, 1.722791e+003
1.243818e+003, 1.718559e+003
1.244300e+003, 1.713896e+003
1.244782e+003, 1.712499e+003
1.245264e+003, 1.714778e+003
1.245746e+003, 1.717557e+003
1.246229e+003, 1.721493e+003
1.246711e+003, 1.723131e+003
1.247193e+003, 1.719034e+003
1.247675e+003, 1.716457e+003
1.248157e+003, 1.719690e+003
1.248639e+003, 1.722940e+003
1.249121e+003, 1.721584e+003
1.249603e+003, 1.718165e+003
1.250085e+003, 1.717341e+003
1.250568e+003, 1.718931e+003
1.251050e+003, 1.719946e+003
1.251532e+003, 1.720407e+003
1.252014e+003, 1.719498e+003
1.252496e+003, 1.717047e+003
1.252978e+003, 1.716753e+003
1.253460e+003, 1.719708e+003
1.253942e+003, 1.721679e+003
1.254425e+003, 1.719654e+003
1.254907e+003, 1.716260e+003
1.255389e+003, 1.714432e+003
1.255871e+003, 1.714314e+003
1.256353e+003, 1.717470e+003
1.256835e+003, 1.721832e+003
1.257317e+003, 1.723713e+003
1.257799e+003, 1.723256e+003
1.258281e+003, 1.721191e+003
1.258764e+003, 1.718213e+003
1.259246e+003, 1.716457e+003
1.259728e+003, 1.717069e+003
1.260210e+003, 1.718137e+003
1.260692e+003, 1.719494e+003
1.261174e+003, 1.720157e+003
1.261656e+003, 1.718828e+003
1.262138e+003, 1.717475e+003
1.262620e+003, 1.717546e+003
1.263103e+003, 1.718617e+003
1.263585e+003, 1.720394e+003
1.264067e+003, 1.722592e+003
1.264549e+003, 1.722697e+003
1.265031e+003, 1.719439e+003
1.265513e+003, 1.718605e+003
1.265995e+003, 1.720961e+003
1.266477e+003, 1.722364e+003
1.266960e+003, 1.721851e+003
1.267442e+003, 1.720391e+003
1.267924e+003, 1.718444e+003
1.268406e+003, 1.716519e+003
1.268888e+003, 1.715193e+003
1.269370e+003, 1.714361e+003
1.269852e+003, 1.713581e+003
1.270334e+003, 1.713164e+003
1.270817e+003, 1.714516e+003
1.271299e+003, 1.716749e+003
1.271781e+003, 1.717407e+003
1.272263e+003, 1.716309e+003
1.272745e+003, 1.714484e+003
1.273227e+003, 1.712327e+003
1.273709e+003, 1.710573e+003
1.274191e+003, 1.709099e+003
1.274673e+003, 1.708928e+003
1.275156e+003, 1.711672e+003
1.275638e+003, 1.714626e+003
1.276120e+003, 1.716094e+003
1.276602e+003, 1.716707e+003
1.277084e+003, 1.717245e+003
1.277566e+003, 1.717604e+003
1.278048e+003, 1.717267e+003
1.278530e+003, 1.716108e+003
1.279012e+003, 1.715422e+003
1.279495e+003, 1.714996e+003
1.279977e+003, 1.715742e+003
1.280459e+003, 1.718201e+003
1.280941e+003, 1.719969e+003
1.281423e+003, 1.720192e+003
1.281905e+003, 1.719075e+003
1.282387e+003, 1.716621e+003
1.282869e+003, 1.713852e+003
1.283352e+003, 1.712036e+003
1.283834e+003, 1.711281e+003
1.284316e+003, 1.711706e+003
1.284798e+003, 1.713395e+003
##END=



