##NAMES=Magnesio-hastingsite
##RRUFFID=R070145
##IDEAL CHEMISTRY=NaCa_2_(Mg_4_Fe^3+^)Si_6_Al_2_O_22_(OH)_2_
##LOCALITY=Niaslo, Basha Valley, Baltistan, Northern Areas, Pakistan
##OWNER=RRUFF
##SOURCE=William W. Pinch
##DESCRIPTION=Black cleavage fragments
##STATUS=The identification of this mineral is confirmed by single-crystal X-ray diffraction and chemical analysis.
##URL=rruff.info/R070145
##MEASURED CHEMISTRY=(Na_0.57_K_0.43_)_Σ=1_(Ca_1.78_Na_0.22_)_Σ=2_(Mg_1.88_Fe^2+^_1.79_Mn_0.17_Fe^3+^_0.16_)_Σ=4_(Fe^3+^_0.53_Al_0.40_Ti_0.07_)_Σ=1_Si_5.99_Al_2.01_O_22_((OH)_1.79_F_0.21_)_Σ=2_; OH estimated by difference and charge balance
147.2889, 272.7414
147.7710, 267.5123
148.2531, 268.0285
148.7352, 279.7128
149.2174, 292.6620
149.6995, 302.7925
150.1816, 308.4496
150.6637, 313.2039
151.1458, 316.1711
151.6279, 317.7393
152.1101, 320.8773
152.5922, 328.7095
153.0743, 336.4665
153.5564, 341.0619
154.0385, 341.6911
154.5206, 339.6684
155.0028, 334.6107
155.4849, 326.3778
155.9670, 317.6854
156.4491, 306.4945
156.9312, 295.9633
157.4133, 289.4669
157.8955, 292.0832
158.3776, 295.3484
158.8597, 295.9182
159.3418, 292.7897
159.8239, 289.4044
160.3060, 286.9160
160.7882, 284.9162
161.2703, 282.6839
161.7524, 279.3094
162.2345, 276.0280
162.7166, 273.7870
163.1987, 273.5960
163.6808, 272.9053
164.1630, 270.0380
164.6451, 265.5519
165.1272, 261.2719
165.6093, 254.7890
166.0914, 250.3480
166.5735, 252.2852
167.0557, 269.2734
167.5378, 285.8007
168.0199, 289.1340
168.5020, 280.6492
168.9841, 272.1422
169.4662, 271.8822
169.9484, 276.1728
170.4305, 279.8236
170.9126, 280.0484
171.3947, 279.1782
171.8768, 278.9806
172.3589, 279.4481
172.8411, 281.2902
173.3232, 287.6389
173.8053, 295.9897
174.2874, 300.8027
174.7695, 294.2078
175.2516, 284.1975
175.7338, 283.1610
176.2159, 294.0640
176.6980, 306.3958
177.1801, 309.0813
177.6622, 303.6184
178.1443, 296.0882
178.6264, 287.2775
179.1086, 279.0887
179.5907, 276.1795
180.0728, 280.6053
180.5549, 287.9714
181.0370, 292.2448
181.5191, 293.6579
182.0013, 294.8737
182.4834, 298.4529
182.9655, 303.5153
183.4476, 307.1848
183.9297, 308.1832
184.4118, 307.8707
184.8940, 309.8896
185.3761, 314.3934
185.8582, 317.4760
186.3403, 314.6902
186.8224, 306.8071
187.3046, 298.7424
187.7867, 291.5500
188.2688, 285.2659
188.7509, 279.3024
189.2330, 273.3173
189.7151, 269.5058
190.1973, 271.7143
190.6794, 279.7081
191.1615, 287.2194
191.6436, 291.9907
192.1257, 294.1977
192.6078, 295.9411
193.0900, 297.7779
193.5721, 297.8229
194.0542, 290.9372
194.5363, 276.5468
195.0184, 265.2605
195.5005, 263.7375
195.9826, 271.8731
196.4648, 279.1126
196.9469, 285.1335
197.4290, 289.7758
197.9111, 292.5988
198.3932, 293.4758
198.8753, 293.0967
199.3575, 291.2229
199.8396, 287.6359
200.3217, 285.5147
200.8038, 285.4320
201.2859, 286.8521
201.7680, 288.1019
202.2502, 288.9922
202.7323, 290.3789
203.2144, 293.0959
203.6965, 297.4020
204.1786, 301.7622
204.6607, 306.8048
205.1429, 311.7839
205.6250, 311.1410
206.1071, 302.6066
206.5892, 293.6031
207.0713, 291.0950
207.5534, 296.4890
208.0356, 302.8665
208.5177, 309.5748
208.9998, 316.4257
209.4819, 320.0995
209.9640, 318.8880
210.4461, 317.1481
210.9282, 320.3579
211.4104, 330.5206
211.8925, 339.6487
212.3746, 345.7497
212.8567, 348.6797
213.3388, 349.9927
213.8209, 349.1847
214.3031, 347.3493
214.7852, 345.6598
215.2673, 343.4957
215.7494, 342.9947
216.2315, 345.1414
216.7136, 350.4582
217.1958, 355.8338
217.6779, 361.6214
218.1600, 367.2424
218.6421, 371.8730
219.1242, 375.7239
219.6063, 378.1801
220.0885, 378.8360
220.5706, 377.0843
221.0527, 375.1729
221.5348, 372.2778
222.0169, 369.5623
222.4990, 370.1949
222.9812, 376.5118
223.4633, 382.3147
223.9454, 384.3914
224.4275, 380.5357
224.9096, 378.4318
225.3917, 379.5701
225.8739, 382.3794
226.3560, 381.1996
226.8381, 373.3661
227.3202, 365.3694
227.8023, 360.7495
228.2844, 361.2028
228.7665, 361.4828
229.2487, 361.3650
229.7308, 360.8542
230.2129, 360.0889
230.6950, 359.8341
231.1771, 358.3723
231.6592, 353.5924
232.1414, 340.1485
232.6235, 334.6953
233.1056, 342.9625
233.5877, 362.5832
234.0698, 371.5895
234.5519, 365.3356
235.0341, 353.8138
235.5162, 343.3379
235.9983, 331.3521
236.4804, 325.6678
236.9625, 329.8144
237.4446, 343.2246
237.9268, 352.0702
238.4089, 356.9913
238.8910, 356.7772
239.3731, 348.8481
239.8552, 324.4764
240.3373, 308.6407
240.8195, 308.0954
241.3016, 323.1879
241.7837, 334.1185
242.2658, 341.3443
242.7479, 343.9720
243.2300, 339.8958
243.7122, 322.5797
244.1943, 310.5803
244.6764, 309.4680
245.1585, 320.4271
245.6406, 326.6254
246.1227, 325.2298
246.6048, 321.5754
247.0870, 322.1780
247.5691, 331.0139
248.0512, 336.8514
248.5333, 335.9277
249.0154, 326.9264
249.4975, 321.6306
249.9797, 322.4502
250.4618, 324.8846
250.9439, 322.5512
251.4260, 311.3477
251.9081, 302.9276
252.3902, 300.7466
252.8724, 305.7925
253.3545, 311.7896
253.8366, 320.6066
254.3187, 328.8232
254.8008, 330.8737
255.2829, 323.4888
255.7651, 316.2289
256.2472, 312.0344
256.7293, 311.5811
257.2114, 310.4239
257.6935, 307.3146
258.1756, 304.5121
258.6577, 306.6377
259.1399, 317.5002
259.6220, 325.2098
260.1041, 324.4842
260.5862, 312.4474
261.0683, 305.9827
261.5504, 306.8047
262.0326, 311.7087
262.5147, 315.9873
262.9968, 320.3568
263.4789, 322.2827
263.9610, 319.8842
264.4431, 311.5738
264.9253, 306.6862
265.4074, 306.2767
265.8895, 308.3320
266.3716, 309.6049
266.8537, 310.3921
267.3358, 309.5282
267.8180, 305.0439
268.3001, 295.1381
268.7822, 292.5507
269.2643, 299.9128
269.7464, 311.9985
270.2285, 320.1962
270.7107, 324.3861
271.1928, 324.8419
271.6749, 319.4167
272.1570, 305.9596
272.6391, 301.5380
273.1212, 309.3388
273.6034, 322.4770
274.0855, 327.2560
274.5676, 321.8043
275.0497, 316.0551
275.5318, 314.2264
276.0139, 316.5142
276.4961, 321.1009
276.9782, 329.2619
277.4603, 337.9333
277.9424, 340.2524
278.4245, 335.2176
278.9066, 330.6155
279.3888, 330.5286
279.8709, 335.0518
280.3530, 338.7384
280.8351, 340.8264
281.3172, 343.1104
281.7993, 350.6516
282.2815, 364.2177
282.7636, 373.9409
283.2457, 371.9573
283.7278, 359.2580
284.2099, 353.1328
284.6920, 355.4877
285.1741, 361.7481
285.6563, 364.8382
286.1384, 364.7665
286.6205, 363.2100
287.1026, 359.4830
287.5847, 354.3542
288.0668, 353.3468
288.5490, 357.4897
289.0311, 363.5695
289.5132, 366.9764
289.9953, 367.7838
290.4774, 367.7752
290.9595, 367.4904
291.4417, 367.0439
291.9238, 367.1876
292.4059, 368.2565
292.8880, 368.8498
293.3701, 366.2401
293.8522, 360.9565
294.3344, 356.4397
294.8165, 354.4201
295.2986, 354.4162
295.7807, 355.3643
296.2628, 357.2795
296.7449, 359.8151
297.2271, 364.6031
297.7092, 370.2781
298.1913, 371.7877
298.6734, 361.7316
299.1555, 347.0002
299.6376, 341.2647
300.1198, 346.1806
300.6019, 352.7636
301.0840, 350.5803
301.5661, 342.4363
302.0482, 335.9311
302.5303, 335.5867
303.0125, 338.4591
303.4946, 341.8005
303.9767, 345.7123
304.4588, 347.3593
304.9409, 341.2800
305.4230, 331.2208
305.9052, 324.3188
306.3873, 326.8774
306.8694, 332.4125
307.3515, 335.0576
307.8336, 334.5031
308.3157, 332.2470
308.7979, 326.8022
309.2800, 320.7629
309.7621, 318.0962
310.2442, 325.4120
310.7263, 333.0874
311.2084, 333.4999
311.6906, 326.2115
312.1727, 318.7080
312.6548, 313.4447
313.1369, 310.8523
313.6190, 311.5847
314.1011, 321.6300
314.5833, 330.1794
315.0654, 330.5782
315.5475, 322.8591
316.0296, 315.0275
316.5117, 307.1219
316.9938, 302.1609
317.4760, 303.0425
317.9580, 319.8774
318.4402, 333.8823
318.9223, 337.3393
319.4044, 330.7176
319.8865, 323.4151
320.3686, 315.7234
320.8507, 309.7000
321.3329, 306.9224
321.8150, 309.3967
322.2971, 313.4215
322.7792, 320.7755
323.2613, 330.5655
323.7434, 334.5979
324.2256, 325.4050
324.7077, 314.0214
325.1898, 307.1029
325.6719, 305.5756
326.1540, 308.2456
326.6361, 319.5112
327.1183, 336.9895
327.6004, 345.9039
328.0825, 341.1718
328.5646, 331.7720
329.0467, 321.7962
329.5288, 307.0087
330.0110, 297.7412
330.4931, 295.2559
330.9752, 298.4708
331.4573, 304.0550
331.9394, 315.6919
332.4215, 325.1439
332.9037, 328.1665
333.3858, 320.8470
333.8679, 315.8487
334.3500, 313.8599
334.8321, 313.9219
335.3142, 313.8146
335.7964, 313.4420
336.2785, 313.0973
336.7606, 312.7013
337.2427, 311.9683
337.7248, 312.8240
338.2069, 316.1574
338.6891, 320.0213
339.1712, 320.9435
339.6533, 318.4506
340.1354, 315.1764
340.6175, 311.5785
341.0996, 307.6363
341.5818, 306.0885
342.0639, 307.3333
342.5460, 309.9296
343.0281, 311.9647
343.5102, 313.4124
343.9923, 315.5640
344.4745, 319.7460
344.9566, 325.1331
345.4387, 327.3821
345.9208, 326.1790
346.4029, 323.9815
346.8850, 323.9537
347.3672, 325.4713
347.8493, 325.1317
348.3314, 320.0783
348.8135, 313.4428
349.2956, 312.2765
349.7777, 316.5045
350.2599, 321.8394
350.7419, 324.9334
351.2241, 326.5160
351.7062, 328.0992
352.1883, 329.4756
352.6704, 331.7422
353.1525, 338.4912
353.6346, 348.4729
354.1168, 354.6687
354.5989, 346.9016
355.0810, 334.6053
355.5631, 330.5182
356.0452, 342.2159
356.5273, 354.2899
357.0095, 353.5786
357.4916, 343.6023
357.9737, 334.8906
358.4558, 333.1940
358.9379, 334.4087
359.4200, 335.5316
359.9022, 335.8247
360.3843, 336.6665
360.8664, 339.9247
361.3485, 344.0564
361.8306, 346.1870
362.3127, 344.9346
362.7949, 341.8776
363.2770, 337.1413
363.7591, 330.0185
364.2412, 324.1964
364.7233, 319.4463
365.2054, 316.7340
365.6876, 317.3050
366.1697, 325.6384
366.6518, 333.0403
367.1339, 337.6201
367.6160, 339.3401
368.0981, 338.3125
368.5803, 329.9431
369.0624, 321.4964
369.5445, 319.4337
370.0266, 330.0789
370.5087, 337.8217
370.9908, 339.3011
371.4730, 335.1528
371.9551, 334.1968
372.4372, 340.0114
372.9193, 344.4107
373.4014, 339.9549
373.8835, 320.8851
374.3657, 311.2114
374.8478, 317.2176
375.3299, 332.6801
375.8120, 335.6340
376.2941, 322.1263
376.7762, 309.2300
377.2584, 308.5767
377.7405, 321.1413
378.2226, 329.5518
378.7047, 332.4986
379.1868, 331.8865
379.6689, 330.2839
380.1511, 327.6946
380.6332, 325.7433
381.1153, 326.5055
381.5974, 328.8694
382.0795, 327.3364
382.5616, 321.3497
383.0438, 314.3166
383.5259, 309.9056
384.0080, 307.6565
384.4901, 305.7578
384.9722, 302.7958
385.4543, 300.0974
385.9364, 299.8908
386.4185, 302.1357
386.9007, 305.0642
387.3828, 308.1316
387.8649, 310.8246
388.3470, 312.4305
388.8291, 313.1025
389.3112, 312.1938
389.7934, 307.6318
390.2755, 300.4532
390.7576, 295.2079
391.2397, 296.1431
391.7218, 298.9060
392.2039, 299.7394
392.6861, 296.3894
393.1682, 293.9957
393.6503, 295.2012
394.1324, 298.8029
394.6145, 302.2541
395.0966, 307.9274
395.5788, 310.7310
396.0609, 307.2560
396.5430, 294.3630
397.0251, 284.6996
397.5072, 280.6325
397.9893, 280.4242
398.4715, 281.8545
398.9536, 286.0726
399.4357, 290.5526
399.9178, 295.6037
400.3999, 301.4323
400.8820, 303.8899
401.3642, 301.0530
401.8463, 296.7656
402.3284, 294.0481
402.8105, 293.4120
403.2926, 292.9966
403.7747, 292.1935
404.2569, 291.4698
404.7390, 293.0926
405.2211, 297.6876
405.7032, 302.8807
406.1853, 308.7173
406.6674, 315.4680
407.1496, 315.3962
407.6317, 305.7670
408.1138, 293.0753
408.5959, 289.0032
409.0780, 293.3750
409.5602, 299.0664
410.0423, 303.8354
410.5244, 307.2064
411.0065, 306.5553
411.4886, 301.3631
411.9707, 295.8442
412.4529, 294.0098
412.9350, 295.2523
413.4171, 298.0449
413.8992, 304.5757
414.3813, 310.3459
414.8634, 308.1175
415.3456, 298.9258
415.8277, 292.1268
416.3098, 295.1032
416.7919, 303.1191
417.2740, 311.9772
417.7561, 324.3359
418.2382, 330.9272
418.7203, 321.1393
419.2025, 301.1429
419.6846, 287.2259
420.1667, 288.4032
420.6488, 294.6899
421.1309, 301.6024
421.6130, 308.9448
422.0952, 315.4692
422.5773, 321.4672
423.0594, 326.2899
423.5415, 329.1623
424.0236, 328.4312
424.5057, 327.3469
424.9879, 326.9344
425.4700, 327.3121
425.9521, 325.3253
426.4342, 318.0835
426.9163, 311.4389
427.3984, 310.1208
427.8806, 316.1273
428.3627, 322.6457
428.8448, 330.0673
429.3269, 337.1484
429.8090, 338.8619
430.2911, 333.9126
430.7733, 328.4948
431.2554, 326.1451
431.7375, 326.8123
432.2196, 327.7770
432.7017, 329.1940
433.1838, 330.1442
433.6660, 328.1306
434.1481, 323.7285
434.6302, 321.4569
435.1123, 324.8082
435.5944, 331.0842
436.0765, 335.5070
436.5587, 338.0711
437.0408, 337.6790
437.5229, 329.9370
438.0050, 319.3172
438.4871, 313.6365
438.9692, 318.7871
439.4514, 324.4548
439.9335, 320.5352
440.4156, 309.8186
440.8977, 301.4735
441.3798, 301.0694
441.8619, 304.0721
442.3441, 308.1298
442.8262, 313.8751
443.3083, 317.5579
443.7904, 316.7261
444.2725, 313.4152
444.7546, 310.3803
445.2368, 308.4479
445.7189, 306.5775
446.2010, 304.3959
446.6831, 301.8246
447.1652, 299.8713
447.6473, 299.2664
448.1295, 298.6711
448.6116, 297.2325
449.0937, 295.0768
449.5758, 291.5422
450.0579, 285.4733
450.5400, 278.3706
451.0221, 275.2820
451.5042, 277.3280
451.9864, 279.8496
452.4685, 280.9577
452.9506, 280.6431
453.4327, 277.8563
453.9148, 271.6733
454.3969, 266.0121
454.8791, 267.1377
455.3612, 274.1399
455.8433, 280.5298
456.3254, 284.4090
456.8075, 286.0345
457.2896, 285.1238
457.7718, 281.8363
458.2539, 278.2134
458.7360, 274.6877
459.2181, 272.0811
459.7002, 272.5011
460.1823, 278.8883
460.6645, 282.6379
461.1466, 272.8218
461.6287, 255.6653
462.1108, 244.6827
462.5929, 248.2130
463.0750, 257.2047
463.5572, 268.8755
464.0393, 283.9780
464.5214, 294.0367
465.0035, 292.6774
465.4856, 287.2639
465.9677, 284.3816
466.4499, 289.6721
466.9320, 291.7326
467.4141, 287.5686
467.8962, 278.7202
468.3783, 272.9460
468.8604, 271.2128
469.3426, 271.2096
469.8247, 271.5818
470.3068, 271.5584
470.7889, 275.8082
471.2710, 286.9403
471.7531, 298.5692
472.2353, 299.1148
472.7174, 287.4111
473.1995, 278.8954
473.6816, 280.0588
474.1637, 287.6971
474.6458, 290.9176
475.1280, 289.6461
475.6101, 286.6303
476.0922, 283.8308
476.5743, 281.0128
477.0564, 277.3491
477.5385, 272.0062
478.0207, 267.3630
478.5028, 265.4220
478.9849, 265.9986
479.4670, 268.6333
479.9491, 275.7914
480.4312, 283.0316
480.9134, 286.7419
481.3955, 286.5544
481.8776, 285.9129
482.3597, 284.6700
482.8418, 284.3858
483.3239, 286.4485
483.8060, 294.4307
484.2881, 301.1122
484.7703, 304.2798
485.2524, 304.8997
485.7345, 306.8613
486.2166, 312.9529
486.6987, 317.1788
487.1808, 316.5214
487.6630, 308.9135
488.1451, 305.0386
488.6272, 306.6017
489.1093, 309.7267
489.5914, 308.5234
490.0735, 301.8754
490.5557, 299.3530
491.0378, 305.1921
491.5199, 315.9148
492.0020, 319.4523
492.4841, 315.6120
492.9662, 311.5607
493.4484, 313.4660
493.9305, 318.9858
494.4126, 322.3066
494.8947, 322.7260
495.3768, 321.2198
495.8589, 314.4522
496.3411, 306.6514
496.8232, 306.4649
497.3053, 326.0422
497.7874, 347.8306
498.2695, 360.1851
498.7516, 363.4116
499.2338, 363.1707
499.7159, 357.4552
500.1980, 351.7888
500.6801, 350.1438
501.1622, 354.6270
501.6443, 360.5583
502.1265, 370.2936
502.6086, 380.5648
503.0907, 385.3761
503.5728, 381.6709
504.0549, 376.7504
504.5370, 372.0898
505.0192, 367.6881
505.5013, 363.3777
505.9834, 358.3172
506.4655, 355.1295
506.9476, 356.5619
507.4297, 362.8762
507.9119, 369.5844
508.3940, 376.9524
508.8761, 383.0022
509.3582, 382.0505
509.8403, 375.2841
510.3224, 371.7829
510.8046, 380.2102
511.2867, 393.2684
511.7688, 397.2997
512.2509, 392.0915
512.7330, 388.1935
513.2151, 399.7462
513.6973, 414.7414
514.1794, 417.5736
514.6615, 394.4097
515.1436, 373.8697
515.6257, 372.2982
516.1078, 383.5994
516.5900, 393.2811
517.0721, 396.3069
517.5542, 398.2630
518.0363, 401.2193
518.5184, 405.6027
519.0005, 409.0012
519.4827, 409.8732
519.9648, 411.0719
520.4469, 415.2506
520.9290, 424.4329
521.4111, 431.2010
521.8932, 434.7217
522.3754, 435.5284
522.8575, 434.0858
523.3396, 429.9757
523.8217, 427.0092
524.3038, 427.2521
524.7859, 430.1781
525.2681, 433.8609
525.7502, 438.3935
526.2323, 442.5430
526.7144, 444.3270
527.1965, 445.0371
527.6786, 447.5296
528.1608, 453.3487
528.6429, 459.5903
529.1250, 464.5645
529.6071, 468.0622
530.0892, 469.4482
530.5714, 468.7595
531.0535, 465.6597
531.5356, 457.6799
532.0176, 443.8386
532.4998, 436.3506
532.9819, 444.3158
533.4640, 455.4723
533.9461, 460.5562
534.4282, 453.7978
534.9103, 449.7443
535.3925, 450.5887
535.8746, 453.8462
536.3567, 453.6981
536.8388, 449.4067
537.3209, 443.9516
537.8030, 437.6532
538.2852, 430.8722
538.7673, 427.0430
539.2494, 426.4193
539.7315, 427.2212
540.2136, 430.4507
540.6957, 434.1073
541.1779, 429.7620
541.6600, 412.7719
542.1421, 396.0584
542.6242, 398.1759
543.1063, 412.1325
543.5884, 421.3029
544.0706, 413.5486
544.5527, 401.8334
545.0348, 394.4009
545.5169, 391.3418
545.9990, 388.4158
546.4811, 382.2113
546.9633, 376.9211
547.4454, 375.4068
547.9275, 380.3270
548.4096, 385.4681
548.8917, 392.5192
549.3738, 398.8370
549.8560, 399.8358
550.3381, 392.6234
550.8202, 386.8701
551.3023, 385.8894
551.7844, 388.4054
552.2665, 386.1972
552.7487, 378.5549
553.2308, 370.6938
553.7129, 366.5193
554.1950, 365.3018
554.6771, 364.1748
555.1592, 363.0645
555.6414, 361.1220
556.1235, 356.7250
556.6056, 350.8788
557.0877, 345.5800
557.5698, 340.8723
558.0519, 337.6476
558.5341, 335.7650
559.0162, 335.6894
559.4983, 339.1973
559.9804, 354.9572
560.4625, 368.0023
560.9446, 369.6895
561.4268, 355.9725
561.9089, 342.7684
562.3910, 327.8070
562.8731, 315.9308
563.3552, 312.7190
563.8373, 324.2906
564.3195, 329.0408
564.8016, 321.3572
565.2837, 307.3986
565.7658, 304.7089
566.2479, 314.4915
566.7300, 323.4627
567.2122, 324.1919
567.6943, 319.1484
568.1764, 317.1661
568.6585, 318.2553
569.1406, 319.6492
569.6227, 320.0999
570.1049, 319.0491
570.5870, 314.9715
571.0691, 306.1494
571.5512, 298.1901
572.0333, 295.0211
572.5154, 295.1499
572.9976, 296.1819
573.4797, 299.1755
573.9618, 301.1241
574.4439, 300.8722
574.9260, 298.4368
575.4081, 295.4831
575.8903, 291.5506
576.3724, 287.6433
576.8545, 283.9974
577.3366, 280.1238
577.8187, 278.9684
578.3008, 282.1546
578.7830, 285.0586
579.2651, 279.8256
579.7472, 266.7733
580.2293, 259.4643
580.7114, 263.4255
581.1935, 271.5668
581.6757, 269.5668
582.1578, 259.6486
582.6399, 252.2854
583.1220, 257.3629
583.6041, 265.5689
584.0862, 266.4258
584.5684, 259.3991
585.0505, 253.8722
585.5326, 256.9942
586.0147, 262.1724
586.4968, 263.9236
586.9789, 257.6439
587.4611, 253.5483
587.9432, 253.7658
588.4253, 256.5161
588.9074, 259.5393
589.3895, 264.3214
589.8716, 266.4054
590.3538, 264.4588
590.8359, 258.9877
591.3180, 251.4004
591.8001, 240.9940
592.2822, 233.0136
592.7643, 231.7311
593.2465, 235.8013
593.7286, 240.3530
594.2107, 245.2910
594.6928, 249.5112
595.1749, 252.7612
595.6570, 254.5231
596.1392, 253.5933
596.6213, 247.1345
597.1034, 241.7437
597.5854, 243.1330
598.0676, 248.3494
598.5497, 250.7458
599.0318, 244.6930
599.5139, 239.2210
599.9960, 238.2024
600.4781, 241.7767
600.9603, 242.8158
601.4424, 240.0028
601.9245, 236.4376
602.4066, 233.7863
602.8887, 232.0242
603.3708, 231.6132
603.8530, 232.9630
604.3351, 234.6437
604.8172, 234.0031
605.2993, 231.6369
605.7814, 231.4788
606.2635, 235.6636
606.7457, 241.0542
607.2278, 244.2429
607.7099, 245.2573
608.1920, 244.0856
608.6741, 238.3000
609.1563, 232.2042
609.6384, 228.1393
610.1205, 226.2680
610.6026, 227.2563
611.0847, 234.5796
611.5668, 242.5212
612.0490, 247.3416
612.5311, 247.8798
613.0132, 247.4229
613.4953, 244.6653
613.9774, 242.0832
614.4595, 244.1263
614.9417, 252.0559
615.4238, 256.3938
615.9059, 253.4898
616.3880, 247.3413
616.8701, 248.4332
617.3522, 255.9601
617.8344, 261.7324
618.3165, 257.7717
618.7986, 251.1043
619.2807, 253.1941
619.7628, 263.9489
620.2449, 271.6475
620.7271, 264.2639
621.2092, 253.8783
621.6913, 251.1366
622.1734, 262.9340
622.6555, 271.2300
623.1376, 269.3104
623.6198, 263.5933
624.1019, 262.0792
624.5840, 267.6893
625.0661, 271.6721
625.5482, 271.8922
626.0303, 270.0026
626.5125, 271.2616
626.9946, 275.9620
627.4767, 280.9327
627.9588, 285.5315
628.4409, 289.1463
628.9230, 288.8204
629.4052, 284.7106
629.8873, 281.3367
630.3694, 281.6023
630.8515, 284.7982
631.3336, 291.2331
631.8157, 302.5044
632.2979, 310.7277
632.7800, 308.7029
633.2621, 303.0262
633.7442, 301.3942
634.2263, 309.9030
634.7084, 316.5694
635.1906, 320.7841
635.6727, 322.2715
636.1548, 319.4349
636.6369, 309.8383
637.1190, 302.9434
637.6011, 302.7699
638.0833, 308.0316
638.5654, 313.1895
639.0475, 318.2196
639.5296, 322.3993
640.0117, 324.2941
640.4938, 325.1902
640.9760, 327.2776
641.4581, 330.6912
641.9402, 335.7124
642.4223, 345.3594
642.9044, 355.4562
643.3865, 361.5629
643.8687, 360.8196
644.3508, 358.3299
644.8329, 354.2822
645.3150, 349.3709
645.7971, 344.8094
646.2792, 339.3999
646.7614, 336.4931
647.2435, 337.6180
647.7256, 341.7526
648.2077, 343.8277
648.6898, 343.5781
649.1719, 343.3806
649.6541, 344.5597
650.1362, 346.8451
650.6183, 349.7748
651.1004, 353.3635
651.5825, 356.3667
652.0646, 356.5632
652.5468, 356.1817
653.0289, 358.3110
653.5110, 364.8609
653.9931, 369.9571
654.4752, 370.7390
654.9573, 368.9850
655.4395, 366.8995
655.9216, 363.7617
656.4037, 361.6472
656.8858, 361.0160
657.3679, 361.4337
657.8500, 361.8514
658.3322, 362.2692
658.8143, 362.7508
659.2964, 363.7780
659.7785, 364.7645
660.2606, 362.8120
660.7427, 358.0881
661.2249, 354.2954
661.7070, 355.3110
662.1891, 358.0580
662.6712, 357.6671
663.1533, 353.3966
663.6354, 351.0625
664.1175, 358.3012
664.5996, 366.3948
665.0817, 367.4852
665.5638, 353.1346
666.0460, 343.5735
666.5281, 343.4585
667.0102, 346.5373
667.4923, 343.9182
667.9744, 333.0883
668.4565, 324.7397
668.9387, 320.8445
669.4208, 320.5147
669.9029, 323.0417
670.3850, 328.0404
670.8671, 330.9963
671.3492, 327.2908
671.8314, 321.4189
672.3135, 320.4462
672.7956, 323.6352
673.2777, 326.1362
673.7598, 323.6596
674.2419, 320.6701
674.7241, 320.6729
675.2062, 324.9977
675.6883, 327.4098
676.1704, 325.4529
676.6525, 322.5268
677.1346, 320.4499
677.6168, 318.3750
678.0989, 320.7260
678.5810, 329.9002
679.0631, 339.5196
679.5452, 339.0816
680.0273, 329.6499
680.5095, 322.1471
680.9916, 318.9670
681.4737, 319.5097
681.9558, 326.9592
682.4379, 337.7155
682.9200, 342.5146
683.4022, 330.5490
683.8843, 317.2774
684.3664, 311.4933
684.8485, 312.2899
685.3306, 311.0053
685.8127, 302.9810
686.2949, 295.8605
686.7770, 292.9188
687.2591, 294.6556
687.7412, 293.2571
688.2233, 288.0674
688.7054, 281.6640
689.1876, 275.4039
689.6697, 269.4697
690.1518, 265.7206
690.6339, 264.5833
691.1160, 263.7032
691.5981, 258.3173
692.0803, 252.3368
692.5624, 252.6948
693.0445, 266.8245
693.5266, 277.2104
694.0087, 273.1840
694.4908, 261.1167
694.9730, 251.4225
695.4551, 244.7937
695.9372, 241.9937
696.4193, 244.4922
696.9014, 250.6026
697.3835, 255.4870
697.8657, 259.4403
698.3478, 260.5806
698.8299, 255.8236
699.3120, 248.4151
699.7941, 250.7847
700.2762, 261.7939
700.7584, 269.9013
701.2405, 263.1597
701.7226, 252.0217
702.2047, 247.4663
702.6868, 250.6077
703.1689, 254.9673
703.6511, 258.6500
704.1332, 262.2493
704.6153, 266.4663
705.0974, 272.9832
705.5795, 276.0443
706.0616, 274.6266
706.5438, 270.9940
707.0259, 267.2385
707.5080, 263.3185
707.9901, 259.7717
708.4722, 256.3641
708.9543, 254.2006
709.4365, 254.8971
709.9186, 258.0689
710.4007, 262.7691
710.8828, 270.3406
711.3649, 277.2727
711.8470, 281.8379
712.3292, 283.9365
712.8113, 283.4477
713.2934, 277.5303
713.7755, 271.9562
714.2576, 266.6977
714.7397, 262.6035
715.2219, 266.4781
715.7040, 282.0187
716.1861, 294.5980
716.6682, 295.3191
717.1503, 286.5019
717.6324, 281.4487
718.1146, 280.2011
718.5967, 280.7375
719.0788, 282.8238
719.5609, 285.1493
720.0430, 285.6396
720.5251, 283.8584
721.0073, 282.5485
721.4894, 282.0537
721.9715, 283.1771
722.4536, 286.9451
722.9357, 297.4201
723.4178, 302.6031
723.9000, 298.9301
724.3821, 293.6148
724.8642, 296.6514
725.3463, 309.0797
725.8284, 316.4704
726.3105, 315.3309
726.7927, 311.0094
727.2748, 312.1986
727.7569, 316.8592
728.2390, 319.1025
728.7211, 314.9317
729.2032, 309.6192
729.6853, 305.6030
730.1674, 303.2309
730.6495, 303.3654
731.1317, 309.3174
731.6138, 314.4044
732.0959, 316.7426
732.5780, 316.7596
733.0601, 316.9419
733.5422, 317.5944
734.0244, 317.3887
734.5065, 315.4908
734.9886, 312.2435
735.4707, 307.6385
735.9528, 301.9361
736.4349, 300.0536
736.9171, 310.6035
737.3992, 323.9520
737.8813, 328.6913
738.3634, 323.5856
738.8455, 317.3676
739.3276, 312.3136
739.8098, 308.1261
740.2919, 304.6562
740.7740, 301.9319
741.2561, 299.5793
741.7382, 297.1968
742.2203, 295.8683
742.7025, 298.1495
743.1846, 303.7020
743.6667, 303.5053
744.1488, 295.2081
744.6309, 286.6705
745.1130, 290.1347
745.5952, 299.3166
746.0773, 302.7045
746.5594, 292.7576
747.0415, 283.9017
747.5236, 284.7620
748.0057, 290.6596
748.4879, 294.0781
748.9700, 295.4970
749.4521, 291.8912
749.9342, 279.6952
750.4163, 264.1552
750.8984, 258.7620
751.3806, 264.2225
751.8627, 270.8021
752.3448, 276.1711
752.8269, 279.6031
753.3090, 278.8372
753.7911, 274.6549
754.2733, 269.8884
754.7554, 262.3070
755.2375, 257.8359
755.7196, 263.3437
756.2017, 276.9606
756.6838, 284.6131
757.1660, 279.0899
757.6481, 272.2523
758.1302, 267.6964
758.6123, 265.3249
759.0944, 262.4262
759.5765, 258.7194
760.0587, 256.1401
760.5408, 255.9598
761.0229, 257.9184
761.5050, 262.2248
761.9871, 268.7816
762.4692, 274.4521
762.9514, 277.3589
763.4335, 278.2005
763.9156, 277.1186
764.3977, 273.6792
764.8798, 270.6185
765.3619, 266.4892
765.8441, 264.4771
766.3262, 267.5271
766.8083, 277.7632
767.2904, 283.8060
767.7725, 284.9195
768.2546, 283.6966
768.7368, 281.9054
769.2189, 280.0797
769.7010, 281.0927
770.1831, 286.7399
770.6652, 289.3832
771.1473, 277.7040
771.6295, 261.4123
772.1116, 252.6369
772.5937, 261.0493
773.0758, 267.1272
773.5579, 265.2008
774.0400, 261.2563
774.5222, 263.9219
775.0043, 276.0719
775.4864, 282.2232
775.9685, 277.9551
776.4506, 270.2224
776.9327, 273.2349
777.4149, 283.4942
777.8970, 287.6592
778.3791, 276.8257
778.8612, 264.3700
779.3433, 261.2443
779.8254, 264.4335
780.3076, 267.6134
780.7897, 270.1245
781.2718, 271.1643
781.7539, 270.6305
782.2360, 268.5757
782.7181, 264.0098
783.2003, 255.3100
783.6824, 251.9042
784.1645, 259.2981
784.6466, 271.7445
785.1287, 275.7734
785.6108, 272.6588
786.0930, 268.5467
786.5751, 265.6874
787.0572, 263.9428
787.5393, 264.4499
788.0214, 266.4061
788.5035, 265.8559
788.9857, 257.6215
789.4678, 251.4150
789.9499, 250.9587
790.4320, 255.4576
790.9141, 257.4242
791.3962, 256.3941
791.8784, 255.4046
792.3605, 256.8084
792.8426, 259.3413
793.3247, 259.1605
793.8068, 256.6895
794.2889, 255.3620
794.7711, 262.3894
795.2531, 267.4110
795.7352, 259.7651
796.2173, 238.2066
796.6995, 225.3689
797.1816, 226.4017
797.6637, 233.6826
798.1458, 247.1975
798.6279, 267.3103
799.1100, 271.1465
799.5922, 257.2112
800.0743, 241.1445
800.5564, 234.9692
801.0385, 235.2950
801.5206, 236.5171
802.0027, 238.2242
802.4849, 239.8135
802.9670, 241.3257
803.4491, 242.3046
803.9312, 242.6010
804.4133, 242.4417
804.8954, 240.1058
805.3776, 233.8793
805.8597, 228.0231
806.3418, 226.4942
806.8239, 229.2118
807.3060, 228.9172
807.7881, 225.2267
808.2703, 220.2660
808.7524, 214.7959
809.2345, 209.7790
809.7166, 205.9855
810.1987, 203.1619
810.6808, 204.3043
811.1630, 215.8284
811.6451, 228.3239
812.1272, 234.1017
812.6093, 230.1074
813.0914, 228.3418
813.5735, 229.6859
814.0557, 231.3946
814.5378, 230.1939
815.0199, 226.7883
815.5020, 225.5136
815.9841, 227.0562
816.4662, 228.5191
816.9484, 227.8061
817.4305, 225.3318
817.9126, 220.8889
818.3947, 212.2121
818.8768, 207.7259
819.3589, 212.9164
819.8411, 220.3954
820.3232, 224.6651
820.8053, 225.1701
821.2874, 225.0816
821.7695, 224.7669
822.2516, 223.0884
822.7338, 217.4943
823.2159, 209.6125
823.6980, 203.2361
824.1801, 198.6864
824.6622, 197.0995
825.1443, 201.0898
825.6265, 207.4075
826.1086, 212.8905
826.5907, 218.1802
827.0728, 220.2806
827.5549, 217.5780
828.0370, 213.6272
828.5192, 212.3371
829.0013, 213.6810
829.4834, 214.4526
829.9655, 214.2274
830.4476, 213.8475
830.9297, 215.1810
831.4119, 216.6183
831.8940, 215.0703
832.3761, 207.8705
832.8582, 203.3128
833.3403, 207.4969
833.8224, 214.0018
834.3046, 216.1846
834.7867, 211.0385
835.2688, 210.5114
835.7509, 216.3656
836.2330, 223.6148
836.7151, 226.7971
837.1973, 226.4444
837.6794, 223.9861
838.1615, 219.1971
838.6436, 214.8156
839.1257, 212.5666
839.6078, 212.1049
840.0900, 213.3882
840.5721, 218.8692
841.0542, 220.8667
841.5363, 216.5400
842.0184, 211.1597
842.5005, 209.7413
842.9827, 212.4472
843.4648, 216.7686
843.9469, 222.9610
844.4290, 228.2916
844.9111, 229.4288
845.3932, 227.7965
845.8754, 225.4645
846.3575, 222.7250
846.8396, 219.7598
847.3217, 214.8048
847.8038, 210.8661
848.2859, 210.8037
848.7681, 216.1666
849.2502, 221.3609
849.7323, 227.0869
850.2144, 230.8718
850.6965, 228.6233
851.1786, 222.1763
851.6608, 218.2975
852.1429, 217.8933
852.6250, 219.3387
853.1071, 222.8709
853.5892, 226.8287
854.0714, 229.4966
854.5535, 230.0274
855.0356, 231.2674
855.5177, 234.6003
855.9998, 237.2278
856.4819, 236.3043
856.9641, 231.6694
857.4462, 231.4530
857.9283, 236.4067
858.4104, 239.9013
858.8925, 231.8289
859.3746, 220.7986
859.8568, 219.5006
860.3389, 230.1886
860.8210, 240.0838
861.3030, 246.6388
861.7852, 248.9566
862.2673, 245.1449
862.7494, 233.4513
863.2315, 231.3842
863.7136, 241.3081
864.1957, 251.1336
864.6779, 249.3757
865.1600, 241.0372
865.6421, 239.5710
866.1242, 245.1509
866.6063, 250.1143
867.0884, 250.1645
867.5706, 247.5018
868.0527, 241.3292
868.5348, 230.9706
869.0169, 229.8756
869.4990, 243.1997
869.9811, 256.0574
870.4633, 261.1017
870.9454, 259.3275
871.4275, 255.2036
871.9096, 249.1112
872.3917, 245.7713
872.8738, 250.2404
873.3560, 257.4361
873.8381, 264.7648
874.3202, 271.4987
874.8023, 273.3123
875.2844, 261.8307
875.7665, 253.8120
876.2487, 254.6615
876.7308, 262.8554
877.2129, 272.0245
877.6950, 282.3395
878.1771, 287.3602
878.6592, 281.1741
879.1414, 270.2442
879.6235, 261.2923
880.1056, 254.7559
880.5877, 251.9526
881.0698, 257.8665
881.5519, 262.6715
882.0341, 261.2121
882.5162, 256.5648
882.9983, 257.2442
883.4804, 264.6624
883.9625, 270.3018
884.4446, 271.8067
884.9268, 270.2866
885.4089, 265.1164
885.8910, 258.5452
886.3731, 256.4304
886.8552, 266.6648
887.3373, 274.6937
887.8195, 269.9364
888.3016, 259.9191
888.7837, 258.4551
889.2658, 271.2817
889.7479, 278.7753
890.2300, 277.3385
890.7122, 272.0385
891.1943, 269.8304
891.6764, 270.1777
892.1585, 271.3639
892.6406, 273.3170
893.1227, 274.9520
893.6049, 274.9798
894.0870, 274.4704
894.5691, 274.4455
895.0512, 273.0323
895.5333, 276.8947
896.0154, 290.2329
896.4976, 302.2051
896.9797, 298.7922
897.4618, 282.5180
897.9439, 274.6697
898.4260, 277.2598
898.9081, 283.0956
899.3903, 288.2314
899.8724, 292.3633
900.3545, 295.4709
900.8366, 297.7359
901.3187, 297.5712
901.8008, 293.8934
902.2830, 289.1703
902.7651, 283.3681
903.2472, 276.7830
903.7293, 278.4941
904.2114, 288.6367
904.6935, 297.6301
905.1757, 297.7752
905.6578, 294.0407
906.1399, 290.2335
906.6220, 286.9121
907.1041, 286.7119
907.5862, 295.1229
908.0684, 301.3645
908.5505, 300.4550
909.0326, 294.5819
909.5147, 295.5102
909.9968, 303.4923
910.4789, 310.5443
910.9611, 313.1675
911.4432, 312.8899
911.9253, 309.9529
912.4074, 305.7775
912.8895, 303.8817
913.3716, 304.5702
913.8538, 309.1603
914.3359, 321.6568
914.8180, 336.3065
915.3001, 341.6351
915.7822, 336.6478
916.2643, 332.0348
916.7465, 330.0675
917.2286, 329.2329
917.7107, 327.5247
918.1928, 325.5932
918.6749, 324.5246
919.1570, 324.5282
919.6392, 325.6130
920.1213, 328.9206
920.6034, 332.5481
921.0855, 334.5007
921.5676, 334.1254
922.0497, 336.0846
922.5319, 341.1017
923.0140, 345.6110
923.4961, 345.7287
923.9782, 343.0546
924.4603, 340.5973
924.9424, 338.8052
925.4246, 334.3066
925.9067, 319.4544
926.3888, 307.2436
926.8708, 305.8444
927.3530, 315.4834
927.8351, 322.1388
928.3172, 325.3701
928.7993, 328.7449
929.2814, 336.4606
929.7635, 344.8569
930.2457, 346.6643
930.7278, 342.8447
931.2099, 337.5564
931.6920, 327.2655
932.1741, 321.6308
932.6563, 327.6308
933.1384, 340.7303
933.6205, 348.7624
934.1026, 351.3984
934.5847, 350.7682
935.0668, 346.4227
935.5490, 341.0808
936.0311, 338.0430
936.5132, 337.3527
936.9953, 339.4127
937.4774, 347.1613
937.9595, 353.1521
938.4417, 354.1048
938.9238, 352.4241
939.4059, 350.1196
939.8880, 346.5128
940.3701, 346.8241
940.8522, 352.4341
941.3344, 357.3067
941.8165, 352.0761
942.2986, 342.9122
942.7807, 341.3695
943.2628, 349.7346
943.7449, 355.3834
944.2271, 350.3547
944.7092, 343.8645
945.1913, 341.6144
945.6734, 343.6872
946.1555, 341.5923
946.6376, 334.7172
947.1198, 329.7270
947.6019, 332.4759
948.0840, 338.5266
948.5661, 340.9226
949.0482, 340.5143
949.5303, 340.7459
950.0125, 341.0891
950.4946, 344.8905
950.9767, 357.6892
951.4588, 372.6818
951.9409, 369.5675
952.4230, 346.6401
952.9052, 334.8981
953.3873, 345.8745
953.8694, 362.4931
954.3515, 364.7368
954.8336, 357.8253
955.3157, 349.6057
955.7979, 339.5431
956.2800, 333.4327
956.7621, 334.0616
957.2442, 337.1902
957.7263, 339.5845
958.2084, 341.2395
958.6906, 341.8090
959.1727, 341.1771
959.6548, 340.9977
960.1369, 345.0361
960.6190, 348.7743
961.1011, 346.5540
961.5833, 337.9465
962.0654, 329.8214
962.5475, 322.4378
963.0296, 317.0710
963.5117, 314.4542
963.9938, 314.2180
964.4760, 315.8696
964.9581, 319.0623
965.4402, 319.9028
965.9223, 313.7725
966.4044, 307.5548
966.8865, 306.3470
967.3687, 309.4474
967.8508, 315.7131
968.3329, 331.1215
968.8150, 339.1520
969.2971, 336.6842
969.7792, 329.1936
970.2614, 323.2417
970.7435, 318.7950
971.2256, 315.5076
971.7077, 313.3796
972.1898, 312.2349
972.6719, 308.5887
973.1541, 308.2117
973.6362, 319.0965
974.1183, 346.2764
974.6004, 357.6408
975.0825, 348.8810
975.5646, 336.3331
976.0468, 329.3625
976.5289, 326.3636
977.0110, 323.3205
977.4931, 320.1431
977.9752, 316.3784
978.4573, 309.7246
978.9395, 304.5787
979.4216, 302.8406
979.9037, 304.3047
980.3858, 309.6395
980.8679, 320.6451
981.3500, 325.7587
981.8322, 321.3324
982.3143, 312.9700
982.7964, 305.7916
983.2785, 301.0969
983.7606, 302.2858
984.2427, 313.2380
984.7249, 321.1289
985.2070, 319.0359
985.6891, 314.9458
986.1712, 314.7104
986.6533, 318.9507
987.1354, 317.7784
987.6176, 310.8513
988.0997, 306.0164
988.5818, 310.8184
989.0639, 319.5620
989.5460, 328.6990
990.0281, 337.0146
990.5103, 338.5963
990.9924, 324.0516
991.4745, 313.8595
991.9566, 312.7648
992.4387, 318.5343
992.9208, 329.2584
993.4029, 343.2183
993.8850, 348.4933
994.3671, 338.1399
994.8492, 326.3702
995.3314, 323.5990
995.8135, 325.5669
996.2956, 327.6371
996.7777, 331.5137
997.2598, 328.4577
997.7419, 314.8127
998.2241, 304.1706
998.7062, 312.2006
999.1883, 331.3533
999.6704, 343.2027
1000.153, 347.2112
1000.635, 348.7425
1001.117, 352.0219
1001.599, 351.9206
1002.081, 341.6594
1002.563, 326.0138
1003.045, 323.7295
1003.527, 336.4334
1004.009, 348.0344
1004.492, 354.8922
1004.974, 356.0037
1005.456, 344.5883
1005.938, 328.2539
1006.420, 319.2991
1006.902, 324.6503
1007.384, 331.3248
1007.866, 338.4613
1008.349, 345.1217
1008.831, 350.8091
1009.313, 355.4529
1009.795, 358.7859
1010.277, 360.7695
1010.759, 359.9152
1011.241, 351.2502
1011.723, 342.6449
1012.205, 340.5115
1012.688, 344.5303
1013.170, 348.5853
1013.652, 353.9855
1014.134, 354.6164
1014.616, 346.7919
1015.098, 336.3632
1015.580, 335.3174
1016.062, 340.6665
1016.544, 344.9280
1017.027, 345.8804
1017.509, 345.2566
1017.991, 343.0306
1018.473, 339.9732
1018.955, 336.2260
1019.437, 331.1548
1019.919, 330.3497
1020.401, 334.1595
1020.884, 338.1990
1021.366, 341.0615
1021.848, 340.9080
1022.330, 332.6780
1022.812, 318.3117
1023.294, 309.4782
1023.776, 311.9329
1024.258, 316.1553
1024.740, 321.3336
1025.223, 325.8663
1025.705, 325.0369
1026.187, 320.2523
1026.669, 318.0399
1027.151, 320.9331
1027.633, 323.6960
1028.115, 323.7497
1028.597, 321.4773
1029.079, 316.5200
1029.562, 307.8663
1030.044, 303.0186
1030.526, 302.5311
1031.008, 302.8019
1031.490, 300.6085
1031.972, 298.0119
1032.454, 297.9882
1032.936, 300.4522
1033.419, 304.9013
1033.901, 316.0845
1034.383, 322.8550
1034.865, 323.0803
1035.347, 317.8436
1035.829, 306.9381
1036.311, 291.2587
1036.793, 280.4487
1037.276, 276.3925
1037.758, 275.7447
1038.240, 276.6154
1038.722, 278.9981
1039.204, 283.8828
1039.686, 291.8741
1040.168, 295.3930
1040.650, 293.0404
1041.132, 291.1576
1041.615, 295.2940
1042.097, 300.1760
1042.579, 291.5756
1043.061, 274.6511
1043.543, 263.8101
1044.025, 270.1660
1044.507, 276.2310
1044.989, 278.5132
1045.471, 278.2421
1045.954, 275.8611
1046.436, 271.5022
1046.918, 269.4879
1047.400, 270.2354
1047.882, 272.7026
1048.364, 278.0019
1048.846, 283.1240
1049.328, 285.3584
1049.811, 284.5244
1050.293, 283.9149
1050.775, 284.3730
1051.257, 282.3273
1051.739, 275.0771
1052.221, 266.9245
1052.703, 266.3310
1053.185, 270.9621
1053.667, 276.0470
1054.150, 281.1883
1054.632, 284.2010
1055.114, 283.9703
1055.596, 281.8091
1056.078, 277.9875
1056.560, 272.5098
1057.042, 268.4836
1057.524, 265.9637
1058.006, 265.1059
1058.489, 268.8259
1058.971, 271.6671
1059.453, 268.1914
1059.935, 260.2424
1060.417, 255.3198
1060.899, 254.6668
1061.381, 254.0373
1061.863, 252.8380
1062.346, 251.0651
1062.828, 247.3799
1063.310, 243.5655
1063.792, 243.1806
1064.274, 247.2683
1064.756, 251.5757
1065.238, 255.8972
1065.720, 258.8987
1066.203, 259.7368
1066.685, 258.7984
1067.167, 258.0110
1067.649, 257.3932
1068.131, 257.2069
1068.613, 259.4722
1069.095, 259.7294
1069.577, 253.1325
1070.059, 243.6662
1070.542, 236.6902
1071.024, 231.4691
1071.506, 233.4546
1071.988, 244.2039
1072.470, 254.6888
1072.952, 254.2970
1073.434, 249.9021
1073.916, 251.2889
1074.398, 258.1347
1074.881, 262.9875
1075.363, 265.5432
1075.845, 262.8804
1076.327, 251.2195
1076.809, 237.7299
1077.291, 239.8208
1077.773, 252.7250
1078.255, 259.1210
1078.738, 253.6172
1079.220, 246.9639
1079.702, 242.9066
1080.184, 241.9357
1080.666, 244.9668
1081.148, 252.0188
1081.630, 255.5289
1082.112, 255.4560
1082.594, 253.9273
1083.077, 250.9250
1083.559, 248.1574
1084.041, 247.9359
1084.523, 249.0515
1085.005, 249.0933
1085.487, 247.0380
1085.969, 245.4374
1086.451, 244.3017
1086.933, 243.9126
1087.416, 245.6104
1087.898, 247.8613
1088.380, 246.5118
1088.862, 241.8593
1089.344, 239.8685
1089.826, 248.9473
1090.308, 253.2826
1090.790, 246.6203
1091.272, 233.7836
1091.755, 224.8620
1092.237, 219.7029
1092.719, 217.7605
1093.201, 219.3766
1093.683, 222.0983
1094.165, 225.2871
1094.647, 228.1126
1095.129, 229.7218
1095.612, 230.1088
1096.094, 230.9655
1096.576, 232.4181
1097.058, 232.7506
1097.540, 229.1115
1098.022, 226.1392
1098.504, 235.1524
1098.986, 247.2737
1099.469, 245.7014
1099.951, 210.7392
1100.433, 192.7546
1100.915, 196.4630
1101.397, 207.5919
1101.879, 215.9213
1102.361, 220.7272
1102.843, 219.2971
1103.325, 212.3954
1103.807, 205.9642
1104.290, 201.3997
1104.772, 199.1460
1105.254, 199.7392
1105.736, 202.0490
1106.218, 204.2130
1106.700, 206.1905
1107.182, 207.8140
1107.664, 209.0410
1108.147, 209.8813
1108.629, 212.2797
1109.111, 212.4839
1109.593, 205.4628
1110.075, 192.7101
1110.557, 190.3566
1111.039, 198.9559
1111.521, 205.0569
1112.004, 201.6820
1112.486, 196.2901
1112.968, 196.2173
1113.450, 199.2006
1113.932, 202.2161
1114.414, 205.6805
1114.896, 206.8763
1115.378, 205.6240
1115.860, 202.7476
1116.343, 197.4926
1116.825, 191.6967
1117.307, 187.9081
1117.789, 186.2678
1118.271, 187.1101
1118.753, 193.8490
1119.235, 198.4319
1119.717, 199.4037
1120.199, 198.5019
1120.682, 197.4305
1121.164, 196.3699
1121.646, 196.2354
1122.128, 197.0598
1122.610, 197.0806
1123.092, 194.8386
1123.574, 192.1286
1124.056, 189.4892
1124.539, 187.0865
1125.021, 184.5469
1125.503, 182.1757
1125.985, 184.2351
1126.467, 193.2216
1126.949, 200.5485
1127.431, 197.0309
1127.913, 190.8824
1128.396, 190.3505
1128.878, 195.5745
1129.360, 194.0444
1129.842, 185.0834
1130.324, 178.1925
1130.806, 178.9136
1131.288, 182.1694
1131.770, 182.4357
1132.252, 181.3513
1132.734, 181.6347
1133.217, 185.4715
1133.699, 186.1386
1134.181, 182.9761
1134.663, 179.0027
1135.145, 176.6347
1135.627, 174.9213
1136.109, 168.8750
1136.591, 161.5788
1137.074, 163.8222
1137.556, 195.4846
1138.038, 211.7601
1138.520, 203.2161
1139.002, 186.4409
1139.484, 182.4814
1139.966, 186.9988
1140.448, 189.7241
1140.931, 189.6756
1141.413, 186.8511
1141.895, 176.5395
1142.377, 169.2989
1142.859, 169.5430
1143.341, 174.0501
1143.823, 175.3771
1144.305, 174.2784
1144.787, 174.9203
1145.270, 178.6646
1145.752, 181.2910
1146.234, 178.0620
1146.716, 174.9076
1147.198, 175.9794
1147.680, 180.5355
1148.162, 184.4683
1148.644, 187.5766
1149.126, 185.6379
1149.609, 173.5823
1150.091, 163.2348
1150.573, 164.6132
1151.055, 172.1871
1151.537, 180.5884
1152.019, 190.3660
1152.501, 194.7568
1152.983, 193.3804
1153.466, 191.5957
1153.948, 196.0077
1154.430, 198.6863
1154.912, 187.9015
1155.394, 170.6273
1155.876, 160.9983
1156.358, 160.6807
1156.840, 167.3916
1157.322, 183.0743
1157.805, 196.5888
1158.287, 196.5385
1158.769, 189.8111
1159.251, 183.3867
1159.733, 178.1784
1160.215, 176.9204
1160.697, 181.9837
1161.179, 187.0179
1161.661, 191.9097
1162.144, 194.6214
1162.626, 189.6779
1163.108, 181.9699
1163.590, 182.1342
1164.072, 190.9705
1164.554, 193.5530
1165.036, 180.5179
1165.518, 170.1458
1166.000, 167.7081
1166.483, 169.6806
1166.965, 168.5504
1167.447, 166.5337
1167.929, 170.4637
1168.411, 183.3859
1168.893, 191.6162
1169.375, 185.2621
1169.857, 179.7225
1170.340, 182.6242
1170.822, 190.0309
1171.304, 186.7348
1171.786, 176.2033
1172.268, 171.1217
1172.750, 178.1578
1173.232, 184.8319
1173.714, 186.9131
1174.197, 185.9541
1174.679, 182.0097
1175.161, 175.5642
1175.643, 170.2095
1176.125, 166.1447
1176.607, 164.5982
1177.089, 169.2444
1177.571, 172.5532
1178.053, 168.8868
1178.536, 163.9200
1179.018, 163.2335
1179.500, 166.8118
1179.982, 171.8284
1180.464, 177.8754
1180.946, 180.2411
1181.428, 170.6085
1181.910, 162.1167
1182.392, 162.6556
1182.875, 168.9941
1183.357, 178.2251
1183.839, 190.7241
1184.321, 191.6566
1184.803, 179.5429
1185.285, 167.0662
1185.767, 162.3546
1186.249, 162.1398
1186.732, 166.3345
1187.214, 172.9444
1187.696, 177.9050
1188.178, 181.4828
1188.660, 176.8090
1189.142, 161.1868
1189.624, 151.2740
1190.106, 170.4406
1190.589, 194.5148
1191.071, 203.3900
1191.553, 198.4041
1192.035, 192.3106
1192.517, 184.6784
1192.999, 181.3332
1193.481, 184.9767
1193.963, 188.1236
1194.445, 180.2581
1194.927, 170.4169
1195.410, 168.6933
1195.892, 175.5435
1196.374, 178.0091
1196.856, 175.2410
1197.338, 175.7461
1197.820, 184.3933
1198.302, 192.9780
1198.784, 191.4510
1199.267, 185.4359
1199.749, 181.6584
1200.231, 181.0955
1200.713, 179.3457
1201.195, 176.1183
1201.677, 174.0513
1202.159, 175.5843
1202.641, 177.0306
1203.124, 171.3698
1203.606, 164.0782
1204.088, 164.0772
1204.570, 174.8561
1205.052, 182.9252
1205.534, 188.5028
1206.016, 190.2875
1206.498, 185.2877
1206.980, 178.1815
1207.463, 173.8304
1207.945, 171.3354
1208.427, 168.6698
1208.909, 163.6124
1209.391, 164.9973
1209.873, 173.9427
1210.355, 183.0289
1210.837, 186.1749
1211.319, 186.6898
1211.802, 188.5674
1212.284, 190.7372
1212.766, 189.8003
1213.248, 183.7086
1213.730, 181.2561
1214.212, 183.6637
1214.694, 185.9740
1215.176, 183.9096
1215.659, 179.3992
1216.141, 171.9233
1216.623, 163.7501
1217.105, 163.4862
1217.587, 175.2545
1218.069, 180.8443
1218.551, 177.5652
1219.033, 171.7102
1219.516, 167.6838
1219.998, 165.9076
1220.480, 167.6896
1220.962, 172.4857
1221.444, 176.9500
1221.926, 181.3543
1222.408, 183.4043
1222.890, 182.3181
1223.372, 180.5811
1223.854, 182.8489
1224.337, 184.3336
1224.819, 177.3433
1225.301, 162.9942
1225.783, 159.2822
1226.265, 169.2861
1226.747, 174.5242
1227.229, 170.0432
1227.711, 163.8970
1228.193, 164.8427
1228.676, 168.5162
1229.158, 170.7925
1229.640, 171.3480
1230.122, 171.4423
1230.604, 170.8450
1231.086, 171.7606
1231.568, 175.2640
1232.050, 178.8928
1232.533, 179.5329
1233.015, 179.4448
1233.497, 182.1262
1233.979, 187.4185
1234.461, 185.3087
1234.943, 174.9937
1235.425, 169.5385
1235.907, 174.5530
1236.390, 182.3637
1236.872, 187.6462
1237.354, 190.7982
1237.836, 191.2305
1238.318, 189.2459
1238.800, 191.8624
1239.282, 199.1544
1239.764, 201.4443
1240.246, 192.5146
1240.729, 183.1212
1241.211, 183.3264
1241.693, 186.7303
1242.175, 187.2023
1242.657, 184.6968
1243.139, 182.0588
1243.621, 179.3999
1244.103, 179.7239
1244.585, 186.9556
1245.068, 192.4913
1245.550, 188.0331
1246.032, 181.1793
1246.514, 178.4828
1246.996, 179.8857
1247.478, 186.8142
1247.960, 198.1073
1248.442, 202.7261
1248.925, 190.2412
1249.407, 178.9498
1249.889, 179.7662
1250.371, 184.6127
1250.853, 188.1195
1251.335, 190.0162
1251.817, 185.3786
1252.299, 175.4377
1252.781, 167.0661
1253.264, 161.2443
1253.746, 161.0538
1254.228, 172.0490
1254.710, 184.4329
1255.192, 191.6286
1255.674, 193.8028
1256.156, 189.2025
1256.638, 179.6741
1257.120, 172.9872
1257.603, 173.3181
1258.085, 176.3458
1258.567, 182.8409
1259.049, 188.9551
1259.531, 190.8543
1260.013, 189.8169
1260.495, 190.7732
1260.977, 192.5409
1261.460, 190.7183
1261.942, 178.7455
1262.424, 170.2461
1262.906, 166.4961
1263.388, 166.7721
1263.870, 173.0527
1264.352, 181.7321
1264.834, 185.2579
1265.317, 184.7240
1265.799, 184.1704
1266.281, 185.6810
1266.763, 184.8937
1267.245, 180.6841
1267.727, 177.3384
1268.209, 180.7464
1268.691, 185.8936
1269.173, 184.1679
1269.656, 178.2483
1270.138, 177.5706
1270.620, 185.7794
1271.102, 190.1527
1271.584, 189.5811
1272.066, 187.9054
1272.548, 187.8563
1273.030, 188.7682
1273.512, 190.4058
1273.995, 192.4151
1274.477, 194.6364
1274.959, 198.0482
1275.441, 193.9669
1275.923, 181.3461
1276.405, 171.5434
1276.887, 176.5094
1277.369, 183.9516
1277.852, 184.5286
1278.334, 182.0463
1278.816, 184.3909
1279.298, 191.6147
1279.780, 192.8779
1280.262, 187.7470
1280.744, 183.9055
1281.226, 188.0976
1281.708, 192.6219
1282.191, 194.7936
1282.673, 194.5804
1283.155, 189.9963
1283.637, 182.4490
1284.119, 182.2962
1284.601, 189.0117
1285.083, 192.0287
1285.565, 177.6076
1286.047, 171.3456
1286.530, 184.0159
1287.012, 199.1112
1287.494, 192.2605
1287.976, 173.3653
1288.458, 168.8903
1288.940, 177.8832
1289.422, 185.2122
1289.904, 185.5521
1290.386, 183.9297
1290.869, 180.1642
1291.351, 176.4560
1291.833, 175.3735
1292.315, 175.7736
1292.797, 176.2031
1293.279, 176.6214
1293.761, 177.3124
1294.243, 178.5620
1294.726, 179.2415
1295.208, 179.2321
1295.690, 178.6917
1296.172, 178.1760
1296.654, 176.8338
1297.136, 171.2128
1297.618, 164.7126
1298.100, 166.7193
1298.583, 178.3648
1299.065, 189.5754
1299.547, 199.5325
1300.029, 205.2187
1300.511, 200.2646
1300.993, 194.7088
1301.475, 197.7888
1301.957, 202.2193
1302.439, 195.2314
1302.922, 178.7412
1303.404, 171.9180
1303.886, 175.1399
1304.368, 179.0168
1304.850, 176.8896
1305.332, 176.8932
1305.814, 181.8590
1306.296, 188.6279
1306.778, 195.4911
1307.261, 200.6963
1307.743, 196.9364
1308.225, 186.1747
1308.707, 179.9124
1309.189, 188.0866
1309.671, 190.9439
1310.153, 184.9710
1310.635, 178.8495
1311.118, 182.0248
1311.600, 189.6535
1312.082, 198.4450
1312.564, 205.9031
1313.046, 203.7303
1313.528, 188.3892
1314.010, 176.2315
1314.492, 168.0112
1314.974, 164.9577
1315.457, 171.8088
1315.939, 180.3918
1316.421, 183.9414
1316.903, 185.0582
1317.385, 188.3297
1317.867, 193.7313
##END=



