##NAMES=Magnetite
##RRUFFID=R060656
##IDEAL CHEMISTRY=Fe^2+^Fe^3+^_2_O_4_
##LOCALITY=Jacupiranga Pegmatite, Sao Paulo State, Brazil
##OWNER=RRUFF
##SOURCE=Michael Scott
##DESCRIPTION=Black rounded octahedra associated with phlogopite and diopside
##STATUS=The identification of this mineral has been confirmed by X-ray diffraction and chemical analysis
##URL=rruff.info/R060656
##MEASURED CHEMISTRY=(Fe^2+^_0.98_Mg_0.01_Mn_0.01_)(Fe^3+^_1.96_Ti_0.02_Mg_0.02_)O_4_
8.806445e+001, 6.427095e+002
8.854657e+001, 6.415334e+002
8.902869e+001, 6.411566e+002
8.951080e+001, 6.422760e+002
8.999292e+001, 6.438884e+002
9.047504e+001, 6.452061e+002
9.095715e+001, 6.461719e+002
9.143927e+001, 6.462338e+002
9.192139e+001, 6.442302e+002
9.240350e+001, 6.402640e+002
9.288562e+001, 6.360622e+002
9.336774e+001, 6.285110e+002
9.384985e+001, 6.137189e+002
9.433197e+001, 5.914542e+002
9.481409e+001, 5.697477e+002
9.529620e+001, 5.477798e+002
9.577832e+001, 5.277464e+002
9.626044e+001, 5.098791e+002
9.674255e+001, 4.942827e+002
9.722467e+001, 4.812757e+002
9.770679e+001, 4.712744e+002
9.818890e+001, 4.619098e+002
9.867102e+001, 4.526353e+002
9.915314e+001, 4.435269e+002
9.963525e+001, 4.345056e+002
1.001174e+002, 4.254860e+002
1.005995e+002, 4.165580e+002
1.010816e+002, 4.080532e+002
1.015637e+002, 3.993336e+002
1.020458e+002, 3.916369e+002
1.025280e+002, 3.848768e+002
1.030101e+002, 3.791302e+002
1.034922e+002, 3.745666e+002
1.039743e+002, 3.713983e+002
1.044564e+002, 3.696072e+002
1.049385e+002, 3.680299e+002
1.054207e+002, 3.673385e+002
1.059028e+002, 3.662008e+002
1.063849e+002, 3.645902e+002
1.068670e+002, 3.622989e+002
1.073491e+002, 3.578357e+002
1.078312e+002, 3.485280e+002
1.083134e+002, 3.347326e+002
1.087955e+002, 3.234934e+002
1.092776e+002, 3.167119e+002
1.097597e+002, 3.126464e+002
1.102418e+002, 3.089149e+002
1.107239e+002, 3.052120e+002
1.112061e+002, 3.018251e+002
1.116882e+002, 2.990515e+002
1.121703e+002, 2.967753e+002
1.126524e+002, 2.947305e+002
1.131345e+002, 2.928221e+002
1.136166e+002, 2.910357e+002
1.140988e+002, 2.892234e+002
1.145809e+002, 2.876085e+002
1.150630e+002, 2.857249e+002
1.155451e+002, 2.832100e+002
1.160272e+002, 2.800816e+002
1.165093e+002, 2.767852e+002
1.169915e+002, 2.738724e+002
1.174736e+002, 2.715222e+002
1.179557e+002, 2.691058e+002
1.184378e+002, 2.662933e+002
1.189199e+002, 2.635847e+002
1.194020e+002, 2.613565e+002
1.198842e+002, 2.597249e+002
1.203663e+002, 2.585105e+002
1.208484e+002, 2.572961e+002
1.213305e+002, 2.558811e+002
1.218126e+002, 2.547143e+002
1.222947e+002, 2.544839e+002
1.227769e+002, 2.543537e+002
1.232590e+002, 2.530899e+002
1.237411e+002, 2.499296e+002
1.242232e+002, 2.454180e+002
1.247053e+002, 2.420395e+002
1.251874e+002, 2.400300e+002
1.256696e+002, 2.385655e+002
1.261517e+002, 2.374926e+002
1.266338e+002, 2.367653e+002
1.271159e+002, 2.362132e+002
1.275980e+002, 2.359339e+002
1.280801e+002, 2.356852e+002
1.285623e+002, 2.347910e+002
1.290444e+002, 2.326222e+002
1.295265e+002, 2.302236e+002
1.300086e+002, 2.288801e+002
1.304907e+002, 2.288901e+002
1.309728e+002, 2.284641e+002
1.314550e+002, 2.258952e+002
1.319371e+002, 2.222457e+002
1.324192e+002, 2.188862e+002
1.329013e+002, 2.163616e+002
1.333834e+002, 2.145143e+002
1.338655e+002, 2.129068e+002
1.343477e+002, 2.116353e+002
1.348298e+002, 2.104926e+002
1.353119e+002, 2.093381e+002
1.357940e+002, 2.082339e+002
1.362761e+002, 2.073036e+002
1.367582e+002, 2.066509e+002
1.372404e+002, 2.062844e+002
1.377225e+002, 2.060041e+002
1.382046e+002, 2.066053e+002
1.386867e+002, 2.065818e+002
1.391688e+002, 2.051773e+002
1.396509e+002, 2.025926e+002
1.401331e+002, 1.995882e+002
1.406152e+002, 1.968721e+002
1.410973e+002, 1.944762e+002
1.415794e+002, 1.923948e+002
1.420615e+002, 1.907350e+002
1.425436e+002, 1.892339e+002
1.430258e+002, 1.877028e+002
1.435079e+002, 1.861203e+002
1.439900e+002, 1.846007e+002
1.444721e+002, 1.832856e+002
1.449542e+002, 1.821721e+002
1.454363e+002, 1.813618e+002
1.459185e+002, 1.811950e+002
1.464006e+002, 1.812034e+002
1.468827e+002, 1.808799e+002
1.473648e+002, 1.800841e+002
1.478469e+002, 1.788998e+002
1.483290e+002, 1.772635e+002
1.488112e+002, 1.750976e+002
1.492933e+002, 1.731914e+002
1.497754e+002, 1.718722e+002
1.502575e+002, 1.710403e+002
1.507396e+002, 1.704435e+002
1.512217e+002, 1.702072e+002
1.517039e+002, 1.699436e+002
1.521860e+002, 1.691205e+002
1.526681e+002, 1.676579e+002
1.531502e+002, 1.662491e+002
1.536323e+002, 1.655612e+002
1.541144e+002, 1.656292e+002
1.545966e+002, 1.654631e+002
1.550787e+002, 1.646685e+002
1.555608e+002, 1.635875e+002
1.560429e+002, 1.624220e+002
1.565250e+002, 1.612061e+002
1.570071e+002, 1.599164e+002
1.574893e+002, 1.583945e+002
1.579714e+002, 1.563333e+002
1.584535e+002, 1.549127e+002
1.589356e+002, 1.547074e+002
1.594177e+002, 1.549236e+002
1.598998e+002, 1.550146e+002
1.603820e+002, 1.547710e+002
1.608641e+002, 1.542773e+002
1.613462e+002, 1.537382e+002
1.618283e+002, 1.532509e+002
1.623104e+002, 1.525517e+002
1.627925e+002, 1.514358e+002
1.632747e+002, 1.501795e+002
1.637568e+002, 1.490789e+002
1.642389e+002, 1.482906e+002
1.647210e+002, 1.477361e+002
1.652031e+002, 1.470982e+002
1.656852e+002, 1.463409e+002
1.661674e+002, 1.455414e+002
1.666495e+002, 1.446014e+002
1.671316e+002, 1.436331e+002
1.676137e+002, 1.428394e+002
1.680958e+002, 1.423413e+002
1.685779e+002, 1.421067e+002
1.690601e+002, 1.419126e+002
1.695422e+002, 1.418234e+002
1.700243e+002, 1.417022e+002
1.705064e+002, 1.415722e+002
1.709885e+002, 1.413906e+002
1.714706e+002, 1.409723e+002
1.719528e+002, 1.401163e+002
1.724349e+002, 1.389319e+002
1.729170e+002, 1.379692e+002
1.733991e+002, 1.373829e+002
1.738812e+002, 1.368876e+002
1.743633e+002, 1.362550e+002
1.748455e+002, 1.354803e+002
1.753276e+002, 1.347004e+002
1.758097e+002, 1.338721e+002
1.762918e+002, 1.331277e+002
1.767739e+002, 1.327447e+002
1.772560e+002, 1.331022e+002
1.777382e+002, 1.336222e+002
1.782203e+002, 1.334076e+002
1.787024e+002, 1.322469e+002
1.791845e+002, 1.310531e+002
1.796666e+002, 1.302695e+002
1.801487e+002, 1.297558e+002
1.806309e+002, 1.293750e+002
1.811130e+002, 1.291018e+002
1.815951e+002, 1.289028e+002
1.820772e+002, 1.287109e+002
1.825593e+002, 1.286399e+002
1.830414e+002, 1.283633e+002
1.835236e+002, 1.275276e+002
1.840057e+002, 1.264953e+002
1.844878e+002, 1.258251e+002
1.849699e+002, 1.259448e+002
1.854520e+002, 1.266741e+002
1.859341e+002, 1.268451e+002
1.864163e+002, 1.258982e+002
1.868984e+002, 1.249662e+002
1.873805e+002, 1.241576e+002
1.878626e+002, 1.235569e+002
1.883447e+002, 1.233310e+002
1.888268e+002, 1.236740e+002
1.893090e+002, 1.245503e+002
1.897911e+002, 1.247277e+002
1.902732e+002, 1.234412e+002
1.907553e+002, 1.222349e+002
1.912374e+002, 1.215434e+002
1.917195e+002, 1.212697e+002
1.922017e+002, 1.211170e+002
1.926838e+002, 1.208738e+002
1.931659e+002, 1.205380e+002
1.936480e+002, 1.201001e+002
1.941301e+002, 1.195179e+002
1.946122e+002, 1.189008e+002
1.950944e+002, 1.182434e+002
1.955765e+002, 1.175785e+002
1.960586e+002, 1.170007e+002
1.965407e+002, 1.166171e+002
1.970228e+002, 1.164344e+002
1.975049e+002, 1.160788e+002
1.979871e+002, 1.154093e+002
1.984692e+002, 1.146997e+002
1.989513e+002, 1.140793e+002
1.994334e+002, 1.135654e+002
1.999155e+002, 1.131737e+002
2.003976e+002, 1.129537e+002
2.008798e+002, 1.128972e+002
2.013619e+002, 1.127921e+002
2.018440e+002, 1.126304e+002
2.023261e+002, 1.124187e+002
2.028082e+002, 1.120987e+002
2.032903e+002, 1.116607e+002
2.037725e+002, 1.113392e+002
2.042546e+002, 1.115193e+002
2.047367e+002, 1.119776e+002
2.052188e+002, 1.120597e+002
2.057009e+002, 1.113309e+002
2.061830e+002, 1.102930e+002
2.066652e+002, 1.096518e+002
2.071473e+002, 1.095072e+002
2.076294e+002, 1.093999e+002
2.081115e+002, 1.088551e+002
2.085936e+002, 1.081519e+002
2.090757e+002, 1.077645e+002
2.095579e+002, 1.081176e+002
2.100400e+002, 1.087945e+002
2.105221e+002, 1.089005e+002
2.110042e+002, 1.082010e+002
2.114863e+002, 1.074491e+002
2.119685e+002, 1.070345e+002
2.124506e+002, 1.068093e+002
2.129327e+002, 1.065619e+002
2.134148e+002, 1.061541e+002
2.138969e+002, 1.056706e+002
2.143790e+002, 1.053992e+002
2.148612e+002, 1.054963e+002
2.153433e+002, 1.055510e+002
2.158254e+002, 1.054110e+002
2.163075e+002, 1.051487e+002
2.167896e+002, 1.048635e+002
2.172717e+002, 1.046139e+002
2.177539e+002, 1.043817e+002
2.182360e+002, 1.040811e+002
2.187181e+002, 1.035958e+002
2.192002e+002, 1.032008e+002
2.196823e+002, 1.030269e+002
2.201644e+002, 1.029646e+002
2.206466e+002, 1.028531e+002
2.211287e+002, 1.025871e+002
2.216108e+002, 1.022086e+002
2.220929e+002, 1.019615e+002
2.225750e+002, 1.019880e+002
2.230571e+002, 1.020010e+002
2.235393e+002, 1.020181e+002
2.240214e+002, 1.019810e+002
2.245035e+002, 1.017735e+002
2.249856e+002, 1.013086e+002
2.254677e+002, 1.006601e+002
2.259498e+002, 1.003061e+002
2.264320e+002, 1.006396e+002
2.269141e+002, 1.008470e+002
2.273962e+002, 1.007217e+002
2.278783e+002, 1.003954e+002
2.283604e+002, 1.000639e+002
2.288425e+002, 9.983244e+001
2.293247e+002, 9.970246e+001
2.298068e+002, 9.968790e+001
2.302889e+002, 1.001468e+002
2.307710e+002, 1.003105e+002
2.312531e+002, 9.982935e+001
2.317352e+002, 9.896072e+001
2.322174e+002, 9.812586e+001
2.326995e+002, 9.753417e+001
2.331816e+002, 9.717383e+001
2.336637e+002, 9.702256e+001
2.341458e+002, 9.720164e+001
2.346279e+002, 9.740392e+001
2.351101e+002, 9.762764e+001
2.355922e+002, 9.781873e+001
2.360743e+002, 9.786082e+001
2.365564e+002, 9.768473e+001
2.370385e+002, 9.734385e+001
2.375206e+002, 9.699211e+001
2.380028e+002, 9.645277e+001
2.384849e+002, 9.615504e+001
2.389670e+002, 9.645598e+001
2.394491e+002, 9.711117e+001
2.399312e+002, 9.758836e+001
2.404133e+002, 9.767667e+001
2.408955e+002, 9.742580e+001
2.413776e+002, 9.688999e+001
2.418597e+002, 9.588799e+001
2.423418e+002, 9.509077e+001
2.428239e+002, 9.486306e+001
2.433060e+002, 9.506815e+001
2.437882e+002, 9.538090e+001
2.442703e+002, 9.579093e+001
2.447524e+002, 9.610225e+001
2.452345e+002, 9.598988e+001
2.457166e+002, 9.541133e+001
2.461987e+002, 9.473046e+001
2.466809e+002, 9.398060e+001
2.471630e+002, 9.324326e+001
2.476451e+002, 9.284023e+001
2.481272e+002, 9.302990e+001
2.486093e+002, 9.335718e+001
2.490914e+002, 9.326619e+001
2.495736e+002, 9.275730e+001
2.500557e+002, 9.216983e+001
2.505378e+002, 9.168594e+001
2.510199e+002, 9.127811e+001
2.515020e+002, 9.080128e+001
2.519841e+002, 9.011217e+001
2.524663e+002, 8.951991e+001
2.529484e+002, 8.937866e+001
2.534305e+002, 8.963256e+001
2.539126e+002, 8.978432e+001
2.543947e+002, 8.939018e+001
2.548768e+002, 8.859742e+001
2.553590e+002, 8.813615e+001
2.558411e+002, 8.825277e+001
2.563232e+002, 8.849184e+001
2.568053e+002, 8.857420e+001
2.572874e+002, 8.851044e+001
2.577695e+002, 8.833645e+001
2.582516e+002, 8.794654e+001
2.587338e+002, 8.741797e+001
2.592159e+002, 8.721885e+001
2.596980e+002, 8.760545e+001
2.601801e+002, 8.797218e+001
2.606622e+002, 8.796728e+001
2.611443e+002, 8.770103e+001
2.616265e+002, 8.742181e+001
2.621086e+002, 8.730835e+001
2.625907e+002, 8.730518e+001
2.630728e+002, 8.716030e+001
2.635549e+002, 8.684143e+001
2.640370e+002, 8.641131e+001
2.645192e+002, 8.583958e+001
2.650013e+002, 8.520142e+001
2.654834e+002, 8.461303e+001
2.659655e+002, 8.413042e+001
2.664476e+002, 8.374513e+001
2.669297e+002, 8.342875e+001
2.674119e+002, 8.323206e+001
2.678940e+002, 8.302644e+001
2.683761e+002, 8.276080e+001
2.688582e+002, 8.246958e+001
2.693403e+002, 8.220586e+001
2.698224e+002, 8.200758e+001
2.703046e+002, 8.182512e+001
2.707867e+002, 8.149656e+001
2.712688e+002, 8.085923e+001
2.717509e+002, 8.037415e+001
2.722330e+002, 8.019441e+001
2.727151e+002, 8.015925e+001
2.731973e+002, 8.009720e+001
2.736794e+002, 7.993797e+001
2.741615e+002, 7.975855e+001
2.746436e+002, 7.974292e+001
2.751257e+002, 8.004195e+001
2.756078e+002, 8.020459e+001
2.760900e+002, 8.010953e+001
2.765721e+002, 7.991837e+001
2.770542e+002, 7.976555e+001
2.775363e+002, 7.968932e+001
2.780184e+002, 7.963039e+001
2.785005e+002, 7.949660e+001
2.789827e+002, 7.929131e+001
2.794648e+002, 7.899224e+001
2.799469e+002, 7.841878e+001
2.804290e+002, 7.789172e+001
2.809111e+002, 7.764536e+001
2.813932e+002, 7.771085e+001
2.818754e+002, 7.794215e+001
2.823575e+002, 7.816705e+001
2.828396e+002, 7.840260e+001
2.833217e+002, 7.857822e+001
2.838038e+002, 7.875626e+001
2.842859e+002, 7.883504e+001
2.847681e+002, 7.873158e+001
2.852502e+002, 7.846056e+001
2.857323e+002, 7.810080e+001
2.862144e+002, 7.770325e+001
2.866965e+002, 7.722166e+001
2.871786e+002, 7.698056e+001
2.876608e+002, 7.715520e+001
2.881429e+002, 7.738123e+001
2.886250e+002, 7.760135e+001
2.891071e+002, 7.775764e+001
2.895892e+002, 7.775439e+001
2.900714e+002, 7.749535e+001
2.905535e+002, 7.697723e+001
2.910356e+002, 7.650921e+001
2.915177e+002, 7.601313e+001
2.919998e+002, 7.565000e+001
2.924819e+002, 7.553384e+001
2.929641e+002, 7.558035e+001
2.934462e+002, 7.562294e+001
2.939283e+002, 7.554733e+001
2.944104e+002, 7.538841e+001
2.948925e+002, 7.538419e+001
2.953746e+002, 7.582851e+001
2.958568e+002, 7.610289e+001
2.963389e+002, 7.600255e+001
2.968210e+002, 7.571169e+001
2.973031e+002, 7.549178e+001
2.977852e+002, 7.546941e+001
2.982673e+002, 7.556719e+001
2.987495e+002, 7.555541e+001
2.992316e+002, 7.532064e+001
2.997137e+002, 7.510732e+001
3.001958e+002, 7.491431e+001
3.006779e+002, 7.475096e+001
3.011600e+002, 7.463083e+001
3.016422e+002, 7.455655e+001
3.021243e+002, 7.451184e+001
3.026064e+002, 7.446894e+001
3.030885e+002, 7.443260e+001
3.035706e+002, 7.438888e+001
3.040527e+002, 7.436515e+001
3.045349e+002, 7.431729e+001
3.050170e+002, 7.420139e+001
3.054991e+002, 7.401561e+001
3.059812e+002, 7.380482e+001
3.064633e+002, 7.363216e+001
3.069454e+002, 7.354038e+001
3.074276e+002, 7.332775e+001
3.079097e+002, 7.289913e+001
3.083918e+002, 7.245572e+001
3.088739e+002, 7.208453e+001
3.093560e+002, 7.179884e+001
3.098381e+002, 7.159453e+001
3.103203e+002, 7.147794e+001
3.108024e+002, 7.146043e+001
3.112845e+002, 7.136394e+001
3.117666e+002, 7.118745e+001
3.122487e+002, 7.094712e+001
3.127308e+002, 7.054655e+001
3.132130e+002, 7.008432e+001
3.136951e+002, 6.977380e+001
3.141772e+002, 6.976495e+001
3.146593e+002, 7.000548e+001
3.151414e+002, 7.013406e+001
3.156235e+002, 7.025550e+001
3.161057e+002, 7.014059e+001
3.165878e+002, 6.950757e+001
3.170699e+002, 6.868177e+001
3.175520e+002, 6.810647e+001
3.180341e+002, 6.798293e+001
3.185162e+002, 6.816519e+001
3.189984e+002, 6.828518e+001
3.194805e+002, 6.833884e+001
3.199626e+002, 6.832329e+001
3.204447e+002, 6.821505e+001
3.209268e+002, 6.805307e+001
3.214089e+002, 6.785293e+001
3.218911e+002, 6.762553e+001
3.223732e+002, 6.740800e+001
3.228553e+002, 6.725921e+001
3.233374e+002, 6.723340e+001
3.238195e+002, 6.714396e+001
3.243016e+002, 6.695301e+001
3.247838e+002, 6.673830e+001
3.252659e+002, 6.658401e+001
3.257480e+002, 6.647152e+001
3.262301e+002, 6.627473e+001
3.267122e+002, 6.582723e+001
3.271943e+002, 6.505500e+001
3.276765e+002, 6.467973e+001
3.281586e+002, 6.504289e+001
3.286407e+002, 6.540564e+001
3.291228e+002, 6.555003e+001
3.296049e+002, 6.547331e+001
3.300870e+002, 6.521970e+001
3.305692e+002, 6.480328e+001
3.310513e+002, 6.425036e+001
3.315334e+002, 6.377344e+001
3.320155e+002, 6.334339e+001
3.324976e+002, 6.302657e+001
3.329797e+002, 6.287044e+001
3.334619e+002, 6.282273e+001
3.339440e+002, 6.284411e+001
3.344261e+002, 6.291716e+001
3.349082e+002, 6.299471e+001
3.353904e+002, 6.295794e+001
3.358725e+002, 6.269854e+001
3.363546e+002, 6.249164e+001
3.368367e+002, 6.242074e+001
3.373188e+002, 6.235669e+001
3.378009e+002, 6.219012e+001
3.382831e+002, 6.190108e+001
3.387652e+002, 6.154734e+001
3.392473e+002, 6.119524e+001
3.397294e+002, 6.081372e+001
3.402115e+002, 6.053284e+001
3.406936e+002, 6.046452e+001
3.411758e+002, 6.038336e+001
3.416579e+002, 6.012702e+001
3.421400e+002, 5.974121e+001
3.426221e+002, 5.940281e+001
3.431042e+002, 5.926146e+001
3.435863e+002, 5.931670e+001
3.440685e+002, 5.943542e+001
3.445506e+002, 5.977302e+001
3.450327e+002, 6.001357e+001
3.455148e+002, 6.003869e+001
3.459969e+002, 5.992767e+001
3.464790e+002, 5.981129e+001
3.469612e+002, 5.976214e+001
3.474433e+002, 5.974723e+001
3.479254e+002, 5.965248e+001
3.484075e+002, 5.940279e+001
3.488896e+002, 5.919586e+001
3.493717e+002, 5.912920e+001
3.498539e+002, 5.907555e+001
3.503360e+002, 5.887166e+001
3.508181e+002, 5.848309e+001
3.513002e+002, 5.809211e+001
3.517823e+002, 5.800685e+001
3.522644e+002, 5.835864e+001
3.527466e+002, 5.858684e+001
3.532287e+002, 5.869059e+001
3.537108e+002, 5.864265e+001
3.541929e+002, 5.827858e+001
3.546750e+002, 5.769175e+001
3.551571e+002, 5.724212e+001
3.556393e+002, 5.736310e+001
3.561214e+002, 5.804868e+001
3.566035e+002, 5.826107e+001
3.570856e+002, 5.753274e+001
3.575677e+002, 5.686965e+001
3.580498e+002, 5.669454e+001
3.585320e+002, 5.681937e+001
3.590141e+002, 5.690546e+001
3.594962e+002, 5.676649e+001
3.599783e+002, 5.647947e+001
3.604604e+002, 5.623580e+001
3.609425e+002, 5.601634e+001
3.614247e+002, 5.588801e+001
3.619068e+002, 5.594690e+001
3.623889e+002, 5.605768e+001
3.628710e+002, 5.610790e+001
3.633531e+002, 5.606746e+001
3.638352e+002, 5.596003e+001
3.643174e+002, 5.577540e+001
3.647995e+002, 5.549612e+001
3.652816e+002, 5.532103e+001
3.657637e+002, 5.539906e+001
3.662458e+002, 5.549114e+001
3.667279e+002, 5.544788e+001
3.672101e+002, 5.527271e+001
3.676922e+002, 5.504370e+001
3.681743e+002, 5.474951e+001
3.686564e+002, 5.442980e+001
3.691385e+002, 5.429603e+001
3.696206e+002, 5.445469e+001
3.701028e+002, 5.460686e+001
3.705849e+002, 5.456663e+001
3.710670e+002, 5.439920e+001
3.715491e+002, 5.420564e+001
3.720312e+002, 5.398364e+001
3.725133e+002, 5.378949e+001
3.729955e+002, 5.371288e+001
3.734776e+002, 5.376332e+001
3.739597e+002, 5.384911e+001
3.744418e+002, 5.401872e+001
3.749239e+002, 5.414780e+001
3.754060e+002, 5.404634e+001
3.758882e+002, 5.364074e+001
3.763703e+002, 5.325209e+001
3.768524e+002, 5.315857e+001
3.773345e+002, 5.328283e+001
3.778166e+002, 5.327547e+001
3.782987e+002, 5.298275e+001
3.787809e+002, 5.267851e+001
3.792630e+002, 5.274408e+001
3.797451e+002, 5.312638e+001
3.802272e+002, 5.337872e+001
3.807093e+002, 5.327372e+001
3.811914e+002, 5.299604e+001
3.816736e+002, 5.275076e+001
3.821557e+002, 5.255244e+001
3.826378e+002, 5.245687e+001
3.831199e+002, 5.257090e+001
3.836020e+002, 5.282760e+001
3.840841e+002, 5.292296e+001
3.845663e+002, 5.275861e+001
3.850484e+002, 5.252450e+001
3.855305e+002, 5.229320e+001
3.860126e+002, 5.207526e+001
3.864947e+002, 5.190720e+001
3.869768e+002, 5.181054e+001
3.874590e+002, 5.175840e+001
3.879411e+002, 5.167665e+001
3.884232e+002, 5.149868e+001
3.889053e+002, 5.147800e+001
3.893874e+002, 5.186146e+001
3.898695e+002, 5.233451e+001
3.903517e+002, 5.251019e+001
3.908338e+002, 5.232356e+001
3.913159e+002, 5.200861e+001
3.917980e+002, 5.178868e+001
3.922801e+002, 5.167486e+001
3.927622e+002, 5.160126e+001
3.932444e+002, 5.163466e+001
3.937265e+002, 5.164172e+001
3.942086e+002, 5.152180e+001
3.946907e+002, 5.131710e+001
3.951728e+002, 5.114978e+001
3.956549e+002, 5.109802e+001
3.961371e+002, 5.112147e+001
3.966192e+002, 5.106014e+001
3.971013e+002, 5.080750e+001
3.975834e+002, 5.060056e+001
3.980655e+002, 5.050386e+001
3.985476e+002, 5.043711e+001
3.990298e+002, 5.029719e+001
3.995119e+002, 5.006637e+001
3.999940e+002, 4.984074e+001
4.004761e+002, 4.976881e+001
4.009582e+002, 4.994080e+001
4.014403e+002, 4.994494e+001
4.019225e+002, 4.955959e+001
4.024046e+002, 4.923729e+001
4.028867e+002, 4.925499e+001
4.033688e+002, 4.951604e+001
4.038509e+002, 4.974438e+001
4.043330e+002, 4.974786e+001
4.048152e+002, 4.956351e+001
4.052973e+002, 4.940046e+001
4.057794e+002, 4.923612e+001
4.062615e+002, 4.913212e+001
4.067436e+002, 4.908023e+001
4.072257e+002, 4.909587e+001
4.077079e+002, 4.923543e+001
4.081900e+002, 4.951013e+001
4.086721e+002, 4.978458e+001
4.091542e+002, 4.986619e+001
4.096363e+002, 4.972831e+001
4.101184e+002, 4.954957e+001
4.106006e+002, 4.930300e+001
4.110827e+002, 4.905682e+001
4.115648e+002, 4.882647e+001
4.120469e+002, 4.862255e+001
4.125290e+002, 4.847379e+001
4.130111e+002, 4.841777e+001
4.134933e+002, 4.842774e+001
4.139754e+002, 4.843798e+001
4.144575e+002, 4.848695e+001
4.149396e+002, 4.843347e+001
4.154217e+002, 4.803326e+001
4.159038e+002, 4.755873e+001
4.163860e+002, 4.736082e+001
4.168681e+002, 4.757674e+001
4.173502e+002, 4.788437e+001
4.178323e+002, 4.798974e+001
4.183144e+002, 4.791040e+001
4.187965e+002, 4.777732e+001
4.192787e+002, 4.757170e+001
4.197608e+002, 4.739720e+001
4.202429e+002, 4.740858e+001
4.207250e+002, 4.758685e+001
4.212071e+002, 4.769514e+001
4.216892e+002, 4.752832e+001
4.221714e+002, 4.730322e+001
4.226535e+002, 4.739820e+001
4.231356e+002, 4.784151e+001
4.236177e+002, 4.815396e+001
4.240998e+002, 4.793604e+001
4.245819e+002, 4.733445e+001
4.250641e+002, 4.703108e+001
4.255462e+002, 4.720292e+001
4.260283e+002, 4.744034e+001
4.265104e+002, 4.764406e+001
4.269925e+002, 4.778032e+001
4.274746e+002, 4.775342e+001
4.279568e+002, 4.751947e+001
4.284389e+002, 4.720636e+001
4.289210e+002, 4.700361e+001
4.294031e+002, 4.695880e+001
4.298852e+002, 4.690380e+001
4.303673e+002, 4.679451e+001
4.308495e+002, 4.670920e+001
4.313316e+002, 4.672015e+001
4.318137e+002, 4.681193e+001
4.322958e+002, 4.691625e+001
4.327779e+002, 4.699241e+001
4.332600e+002, 4.703306e+001
4.337422e+002, 4.697797e+001
4.342243e+002, 4.667722e+001
4.347064e+002, 4.645744e+001
4.351885e+002, 4.642417e+001
4.356706e+002, 4.646087e+001
4.361527e+002, 4.642438e+001
4.366349e+002, 4.627824e+001
4.371170e+002, 4.612035e+001
4.375991e+002, 4.610785e+001
4.380812e+002, 4.630424e+001
4.385633e+002, 4.641119e+001
4.390454e+002, 4.637324e+001
4.395276e+002, 4.629525e+001
4.400097e+002, 4.623077e+001
4.404918e+002, 4.615851e+001
4.409739e+002, 4.600606e+001
4.414560e+002, 4.569467e+001
4.419381e+002, 4.531744e+001
4.424203e+002, 4.516356e+001
4.429024e+002, 4.532049e+001
4.433845e+002, 4.547102e+001
4.438666e+002, 4.548680e+001
4.443487e+002, 4.547620e+001
4.448308e+002, 4.553362e+001
4.453130e+002, 4.567502e+001
4.457951e+002, 4.582975e+001
4.462772e+002, 4.597989e+001
4.467593e+002, 4.610606e+001
4.472414e+002, 4.607058e+001
4.477235e+002, 4.577084e+001
4.482057e+002, 4.549095e+001
4.486878e+002, 4.547309e+001
4.491699e+002, 4.563955e+001
4.496520e+002, 4.583376e+001
4.501341e+002, 4.612146e+001
4.506162e+002, 4.632520e+001
4.510984e+002, 4.618996e+001
4.515805e+002, 4.577702e+001
4.520626e+002, 4.549384e+001
4.525447e+002, 4.555764e+001
4.530268e+002, 4.576092e+001
4.535089e+002, 4.565499e+001
4.539911e+002, 4.514579e+001
4.544732e+002, 4.482901e+001
4.549553e+002, 4.502961e+001
4.554374e+002, 4.537555e+001
4.559195e+002, 4.547198e+001
4.564016e+002, 4.528586e+001
4.568838e+002, 4.500421e+001
4.573659e+002, 4.475275e+001
4.578480e+002, 4.453638e+001
4.583301e+002, 4.444341e+001
4.588122e+002, 4.457999e+001
4.592943e+002, 4.469268e+001
4.597765e+002, 4.465128e+001
4.602586e+002, 4.457570e+001
4.607407e+002, 4.469905e+001
4.612228e+002, 4.507814e+001
4.617049e+002, 4.543870e+001
4.621870e+002, 4.531834e+001
4.626692e+002, 4.445748e+001
4.631513e+002, 4.395145e+001
4.636334e+002, 4.402792e+001
4.641155e+002, 4.421449e+001
4.645976e+002, 4.436686e+001
4.650797e+002, 4.446944e+001
4.655619e+002, 4.454870e+001
4.660440e+002, 4.462801e+001
4.665261e+002, 4.467686e+001
4.670082e+002, 4.456881e+001
4.674903e+002, 4.418439e+001
4.679724e+002, 4.396960e+001
4.684546e+002, 4.427231e+001
4.689367e+002, 4.462568e+001
4.694188e+002, 4.462414e+001
4.699009e+002, 4.425038e+001
4.703830e+002, 4.391961e+001
4.708651e+002, 4.403835e+001
4.713473e+002, 4.446541e+001
4.718294e+002, 4.467632e+001
4.723115e+002, 4.460107e+001
4.727936e+002, 4.443614e+001
4.732757e+002, 4.425499e+001
4.737578e+002, 4.408104e+001
4.742400e+002, 4.396323e+001
4.747221e+002, 4.391982e+001
4.752042e+002, 4.391553e+001
4.756863e+002, 4.396258e+001
4.761684e+002, 4.403212e+001
4.766505e+002, 4.403157e+001
4.771327e+002, 4.392593e+001
4.776148e+002, 4.378025e+001
4.780969e+002, 4.367216e+001
4.785790e+002, 4.360815e+001
4.790611e+002, 4.354551e+001
4.795432e+002, 4.344973e+001
4.800254e+002, 4.338416e+001
4.805075e+002, 4.337928e+001
4.809896e+002, 4.343864e+001
4.814717e+002, 4.359832e+001
4.819538e+002, 4.389711e+001
4.824359e+002, 4.422883e+001
4.829181e+002, 4.427705e+001
4.834002e+002, 4.360478e+001
4.838823e+002, 4.329384e+001
4.843644e+002, 4.373353e+001
4.848465e+002, 4.423634e+001
4.853286e+002, 4.425013e+001
4.858108e+002, 4.379273e+001
4.862929e+002, 4.327135e+001
4.867750e+002, 4.302216e+001
4.872571e+002, 4.302150e+001
4.877392e+002, 4.306101e+001
4.882213e+002, 4.317456e+001
4.887035e+002, 4.327225e+001
4.891856e+002, 4.335642e+001
4.896677e+002, 4.340142e+001
4.901498e+002, 4.337276e+001
4.906319e+002, 4.326215e+001
4.911140e+002, 4.311414e+001
4.915962e+002, 4.290302e+001
4.920783e+002, 4.265870e+001
4.925604e+002, 4.267168e+001
4.930425e+002, 4.308957e+001
4.935246e+002, 4.353389e+001
4.940067e+002, 4.372320e+001
4.944889e+002, 4.373214e+001
4.949710e+002, 4.370663e+001
4.954531e+002, 4.364764e+001
4.959352e+002, 4.360147e+001
4.964173e+002, 4.363465e+001
4.968994e+002, 4.371803e+001
4.973816e+002, 4.372977e+001
4.978637e+002, 4.361320e+001
4.983458e+002, 4.346446e+001
4.988279e+002, 4.343658e+001
4.993100e+002, 4.356958e+001
4.997921e+002, 4.361857e+001
5.002743e+002, 4.350061e+001
5.007564e+002, 4.335345e+001
5.012385e+002, 4.319944e+001
5.017206e+002, 4.308902e+001
5.022027e+002, 4.318972e+001
5.026848e+002, 4.362172e+001
5.031670e+002, 4.420234e+001
5.036491e+002, 4.437344e+001
5.041312e+002, 4.378938e+001
5.046133e+002, 4.334391e+001
5.050954e+002, 4.309524e+001
5.055775e+002, 4.295406e+001
5.060597e+002, 4.284100e+001
5.065418e+002, 4.276936e+001
5.070239e+002, 4.284563e+001
5.075060e+002, 4.322956e+001
5.079881e+002, 4.380059e+001
5.084702e+002, 4.393928e+001
5.089524e+002, 4.344716e+001
5.094345e+002, 4.297109e+001
5.099166e+002, 4.271113e+001
5.103987e+002, 4.257122e+001
5.108808e+002, 4.247805e+001
5.113629e+002, 4.241940e+001
5.118451e+002, 4.241887e+001
5.123271e+002, 4.251137e+001
5.128093e+002, 4.267547e+001
5.132914e+002, 4.286525e+001
5.137735e+002, 4.308782e+001
5.142556e+002, 4.327755e+001
5.147377e+002, 4.340734e+001
5.152198e+002, 4.346053e+001
5.157020e+002, 4.339879e+001
5.161841e+002, 4.307886e+001
5.166662e+002, 4.284938e+001
5.171483e+002, 4.295475e+001
5.176304e+002, 4.322484e+001
5.181125e+002, 4.340506e+001
5.185947e+002, 4.342986e+001
5.190768e+002, 4.330684e+001
5.195589e+002, 4.300919e+001
5.200410e+002, 4.249437e+001
5.205231e+002, 4.221211e+001
5.210052e+002, 4.233417e+001
5.214874e+002, 4.245662e+001
5.219695e+002, 4.241796e+001
5.224516e+002, 4.231245e+001
5.229337e+002, 4.229769e+001
5.234158e+002, 4.242838e+001
5.238979e+002, 4.260478e+001
5.243801e+002, 4.266661e+001
5.248622e+002, 4.258171e+001
5.253443e+002, 4.255197e+001
5.258264e+002, 4.262805e+001
5.263085e+002, 4.271228e+001
5.267906e+002, 4.274669e+001
5.272728e+002, 4.276076e+001
5.277549e+002, 4.283643e+001
5.282370e+002, 4.305996e+001
5.287191e+002, 4.323874e+001
5.292012e+002, 4.303498e+001
5.296833e+002, 4.248344e+001
5.301655e+002, 4.211328e+001
5.306476e+002, 4.209325e+001
5.311297e+002, 4.223330e+001
5.316118e+002, 4.240547e+001
5.320939e+002, 4.259497e+001
5.325760e+002, 4.261052e+001
5.330582e+002, 4.220882e+001
5.335403e+002, 4.179490e+001
5.340224e+002, 4.172663e+001
5.345045e+002, 4.191300e+001
5.349866e+002, 4.205346e+001
5.354688e+002, 4.201523e+001
5.359509e+002, 4.187727e+001
5.364330e+002, 4.178160e+001
5.369151e+002, 4.173496e+001
5.373972e+002, 4.172229e+001
5.378793e+002, 4.179318e+001
5.383615e+002, 4.184935e+001
5.388436e+002, 4.185253e+001
5.393257e+002, 4.179556e+001
5.398078e+002, 4.165308e+001
5.402899e+002, 4.139808e+001
5.407720e+002, 4.111914e+001
5.412542e+002, 4.105006e+001
5.417363e+002, 4.127966e+001
5.422184e+002, 4.142101e+001
5.427005e+002, 4.146134e+001
5.431826e+002, 4.134825e+001
5.436647e+002, 4.088226e+001
5.441469e+002, 4.019429e+001
5.446290e+002, 3.976571e+001
5.451111e+002, 4.001130e+001
5.455932e+002, 4.052652e+001
5.460753e+002, 4.069619e+001
5.465574e+002, 4.053004e+001
5.470396e+002, 4.031945e+001
5.475217e+002, 4.014764e+001
5.480038e+002, 4.001678e+001
5.484859e+002, 3.993346e+001
5.489680e+002, 3.989510e+001
5.494501e+002, 3.989363e+001
5.499323e+002, 3.994896e+001
5.504144e+002, 4.002354e+001
5.508965e+002, 4.008842e+001
5.513786e+002, 4.014603e+001
5.518607e+002, 4.023372e+001
5.523428e+002, 4.038148e+001
5.528250e+002, 4.051770e+001
5.533071e+002, 4.044504e+001
5.537892e+002, 3.990821e+001
5.542713e+002, 3.963067e+001
5.547534e+002, 3.982453e+001
5.552355e+002, 4.005014e+001
5.557177e+002, 4.003911e+001
5.561998e+002, 3.984391e+001
5.566819e+002, 3.966674e+001
5.571640e+002, 3.963265e+001
5.576461e+002, 3.967897e+001
5.581282e+002, 3.969145e+001
5.586104e+002, 3.968036e+001
5.590925e+002, 3.956391e+001
5.595746e+002, 3.924937e+001
5.600567e+002, 3.889185e+001
5.605388e+002, 3.858078e+001
5.610209e+002, 3.833052e+001
5.615031e+002, 3.823325e+001
5.619852e+002, 3.848237e+001
5.624673e+002, 3.878817e+001
5.629494e+002, 3.883916e+001
5.634315e+002, 3.866967e+001
5.639136e+002, 3.844308e+001
5.643958e+002, 3.819965e+001
5.648779e+002, 3.801632e+001
5.653600e+002, 3.804436e+001
5.658421e+002, 3.840677e+001
5.663242e+002, 3.862803e+001
5.668063e+002, 3.864128e+001
5.672885e+002, 3.858041e+001
5.677706e+002, 3.850149e+001
5.682527e+002, 3.840935e+001
5.687348e+002, 3.827840e+001
5.692169e+002, 3.809271e+001
5.696990e+002, 3.792119e+001
5.701812e+002, 3.792491e+001
5.706633e+002, 3.816857e+001
5.711454e+002, 3.832420e+001
5.716275e+002, 3.829544e+001
5.721096e+002, 3.824630e+001
5.725917e+002, 3.826027e+001
5.730739e+002, 3.831721e+001
5.735560e+002, 3.836233e+001
5.740381e+002, 3.836532e+001
5.745202e+002, 3.836578e+001
5.750023e+002, 3.842299e+001
5.754844e+002, 3.852326e+001
5.759666e+002, 3.857435e+001
5.764487e+002, 3.853370e+001
5.769308e+002, 3.850654e+001
5.774129e+002, 3.863462e+001
5.778950e+002, 3.892085e+001
5.783771e+002, 3.908281e+001
5.788593e+002, 3.909547e+001
5.793414e+002, 3.900410e+001
5.798235e+002, 3.876094e+001
5.803056e+002, 3.844721e+001
5.807877e+002, 3.813371e+001
5.812698e+002, 3.785757e+001
5.817520e+002, 3.775850e+001
5.822341e+002, 3.807527e+001
5.827162e+002, 3.888989e+001
5.831984e+002, 3.935229e+001
5.836805e+002, 3.929103e+001
5.841626e+002, 3.906724e+001
5.846447e+002, 3.864494e+001
5.851268e+002, 3.818556e+001
5.856089e+002, 3.786790e+001
5.860911e+002, 3.773938e+001
5.865732e+002, 3.776018e+001
5.870553e+002, 3.795258e+001
5.875374e+002, 3.827166e+001
5.880195e+002, 3.855792e+001
5.885016e+002, 3.881106e+001
5.889838e+002, 3.897080e+001
5.894659e+002, 3.899049e+001
5.899480e+002, 3.888471e+001
5.904301e+002, 3.869362e+001
5.909122e+002, 3.824941e+001
5.913943e+002, 3.805214e+001
5.918765e+002, 3.851702e+001
5.923586e+002, 3.914637e+001
5.928407e+002, 3.934931e+001
5.933228e+002, 3.911593e+001
5.938049e+002, 3.887347e+001
5.942870e+002, 3.895119e+001
5.947692e+002, 3.925451e+001
5.952513e+002, 3.932482e+001
5.957334e+002, 3.893798e+001
5.962155e+002, 3.871630e+001
5.966976e+002, 3.879164e+001
5.971797e+002, 3.897604e+001
5.976619e+002, 3.917930e+001
5.981440e+002, 3.937902e+001
5.986261e+002, 3.956380e+001
5.991082e+002, 3.976397e+001
5.995903e+002, 3.991008e+001
6.000724e+002, 3.982229e+001
6.005546e+002, 3.949899e+001
6.010367e+002, 3.923085e+001
6.015188e+002, 3.906861e+001
6.020009e+002, 3.905794e+001
6.024830e+002, 3.936994e+001
6.029651e+002, 3.999641e+001
6.034473e+002, 4.038716e+001
6.039294e+002, 4.024918e+001
6.044115e+002, 4.006165e+001
6.048936e+002, 4.011120e+001
6.053757e+002, 4.033246e+001
6.058578e+002, 4.059628e+001
6.063400e+002, 4.085117e+001
6.068221e+002, 4.106208e+001
6.073042e+002, 4.118074e+001
6.077863e+002, 4.120508e+001
6.082684e+002, 4.115203e+001
6.087505e+002, 4.093954e+001
6.092327e+002, 4.074556e+001
6.097148e+002, 4.052673e+001
6.101969e+002, 4.039661e+001
6.106790e+002, 4.056460e+001
6.111611e+002, 4.109725e+001
6.116432e+002, 4.160653e+001
6.121254e+002, 4.167786e+001
6.126075e+002, 4.145414e+001
6.130896e+002, 4.138065e+001
6.135717e+002, 4.149988e+001
6.140538e+002, 4.170657e+001
6.145359e+002, 4.197252e+001
6.150181e+002, 4.226409e+001
6.155002e+002, 4.248080e+001
6.159823e+002, 4.261322e+001
6.164644e+002, 4.270530e+001
6.169465e+002, 4.269634e+001
6.174286e+002, 4.270123e+001
6.179108e+002, 4.285280e+001
6.183929e+002, 4.311794e+001
6.188750e+002, 4.334016e+001
6.193571e+002, 4.341262e+001
6.198392e+002, 4.341994e+001
6.203214e+002, 4.360979e+001
6.208035e+002, 4.407689e+001
6.212856e+002, 4.443690e+001
6.217677e+002, 4.464430e+001
6.222498e+002, 4.473353e+001
6.227319e+002, 4.460072e+001
6.232141e+002, 4.436608e+001
6.236962e+002, 4.433774e+001
6.241783e+002, 4.471442e+001
6.246604e+002, 4.518830e+001
6.251425e+002, 4.537948e+001
6.256246e+002, 4.541233e+001
6.261068e+002, 4.578406e+001
6.265889e+002, 4.664529e+001
6.270710e+002, 4.747577e+001
6.275531e+002, 4.774963e+001
6.280352e+002, 4.749694e+001
6.285173e+002, 4.744722e+001
6.289995e+002, 4.763314e+001
6.294816e+002, 4.794796e+001
6.299637e+002, 4.850029e+001
6.304458e+002, 4.908858e+001
6.309279e+002, 4.949022e+001
6.314100e+002, 4.970182e+001
6.318922e+002, 4.991484e+001
6.323743e+002, 5.030061e+001
6.328564e+002, 5.079903e+001
6.333385e+002, 5.119234e+001
6.338206e+002, 5.147334e+001
6.343027e+002, 5.166011e+001
6.347849e+002, 5.156087e+001
6.352670e+002, 5.155826e+001
6.357491e+002, 5.212001e+001
6.362312e+002, 5.318286e+001
6.367133e+002, 5.405457e+001
6.371954e+002, 5.440028e+001
6.376776e+002, 5.458899e+001
6.381597e+002, 5.484998e+001
6.386418e+002, 5.519419e+001
6.391239e+002, 5.565149e+001
6.396060e+002, 5.622951e+001
6.400881e+002, 5.684714e+001
6.405703e+002, 5.738801e+001
6.410524e+002, 5.783407e+001
6.415345e+002, 5.840726e+001
6.420166e+002, 5.919684e+001
6.424987e+002, 6.001348e+001
6.429808e+002, 6.091440e+001
6.434630e+002, 6.176897e+001
6.439451e+002, 6.242473e+001
6.444272e+002, 6.286277e+001
6.449093e+002, 6.324783e+001
6.453914e+002, 6.361691e+001
6.458735e+002, 6.404816e+001
6.463557e+002, 6.482664e+001
6.468378e+002, 6.597802e+001
6.473199e+002, 6.691787e+001
6.478020e+002, 6.730990e+001
6.482841e+002, 6.750978e+001
6.487662e+002, 6.812511e+001
6.492484e+002, 6.924393e+001
6.497305e+002, 7.026234e+001
6.502126e+002, 7.111328e+001
6.506947e+002, 7.186961e+001
6.511768e+002, 7.250252e+001
6.516589e+002, 7.308945e+001
6.521411e+002, 7.378007e+001
6.526232e+002, 7.461726e+001
6.531053e+002, 7.542759e+001
6.535874e+002, 7.590009e+001
6.540695e+002, 7.602633e+001
6.545516e+002, 7.658569e+001
6.550338e+002, 7.780174e+001
6.555159e+002, 7.899558e+001
6.559980e+002, 7.991868e+001
6.564801e+002, 8.063698e+001
6.569622e+002, 8.117469e+001
6.574443e+002, 8.152126e+001
6.579265e+002, 8.182719e+001
6.584086e+002, 8.209256e+001
6.588907e+002, 8.239431e+001
6.593728e+002, 8.286500e+001
6.598549e+002, 8.346277e+001
6.603370e+002, 8.401929e+001
6.608192e+002, 8.446317e+001
6.613013e+002, 8.477251e+001
6.617834e+002, 8.489400e+001
6.622655e+002, 8.478255e+001
6.627476e+002, 8.465296e+001
6.632297e+002, 8.437768e+001
6.637119e+002, 8.422688e+001
6.641940e+002, 8.441992e+001
6.646761e+002, 8.472900e+001
6.651582e+002, 8.483884e+001
6.656403e+002, 8.466621e+001
6.661224e+002, 8.442028e+001
6.666046e+002, 8.433850e+001
6.670867e+002, 8.429892e+001
6.675688e+002, 8.396107e+001
6.680509e+002, 8.330664e+001
6.685330e+002, 8.264950e+001
6.690151e+002, 8.214464e+001
6.694973e+002, 8.172945e+001
6.699794e+002, 8.127739e+001
6.704615e+002, 8.075887e+001
6.709436e+002, 8.029002e+001
6.714257e+002, 7.983054e+001
6.719078e+002, 7.946555e+001
6.723900e+002, 7.939408e+001
6.728721e+002, 7.940237e+001
6.733542e+002, 7.911877e+001
6.738363e+002, 7.841581e+001
6.743184e+002, 7.752769e+001
6.748005e+002, 7.669175e+001
6.752827e+002, 7.590608e+001
6.757648e+002, 7.515541e+001
6.762469e+002, 7.442142e+001
6.767290e+002, 7.380755e+001
6.772111e+002, 7.345781e+001
6.776932e+002, 7.319772e+001
6.781754e+002, 7.270574e+001
6.786575e+002, 7.193613e+001
6.791396e+002, 7.119499e+001
6.796217e+002, 7.050235e+001
6.801038e+002, 6.990141e+001
6.805859e+002, 6.949805e+001
6.810681e+002, 6.920451e+001
6.815502e+002, 6.887417e+001
6.820323e+002, 6.844413e+001
6.825144e+002, 6.782787e+001
6.829965e+002, 6.678960e+001
6.834786e+002, 6.527345e+001
6.839608e+002, 6.435217e+001
6.844429e+002, 6.440807e+001
6.849250e+002, 6.437586e+001
6.854071e+002, 6.366238e+001
6.858892e+002, 6.272949e+001
6.863713e+002, 6.208144e+001
6.868535e+002, 6.177963e+001
6.873356e+002, 6.147565e+001
6.878177e+002, 6.096336e+001
6.882998e+002, 6.042034e+001
6.887819e+002, 6.015442e+001
6.892640e+002, 6.002749e+001
6.897462e+002, 5.949047e+001
6.902283e+002, 5.831610e+001
6.907104e+002, 5.702628e+001
6.911925e+002, 5.639154e+001
6.916746e+002, 5.649026e+001
6.921567e+002, 5.652796e+001
6.926389e+002, 5.667348e+001
6.931210e+002, 5.651221e+001
6.936031e+002, 5.569993e+001
6.940852e+002, 5.469723e+001
6.945673e+002, 5.395241e+001
6.950494e+002, 5.352116e+001
6.955316e+002, 5.321721e+001
6.960137e+002, 5.301009e+001
6.964958e+002, 5.282115e+001
6.969779e+002, 5.252271e+001
6.974600e+002, 5.214170e+001
6.979421e+002, 5.181582e+001
6.984243e+002, 5.160010e+001
6.989064e+002, 5.140445e+001
6.993885e+002, 5.111536e+001
6.998706e+002, 5.072575e+001
7.003527e+002, 5.033621e+001
7.008348e+002, 4.987938e+001
7.013170e+002, 4.950723e+001
7.017991e+002, 4.924496e+001
7.022812e+002, 4.908213e+001
7.027633e+002, 4.913562e+001
7.032454e+002, 4.933422e+001
7.037275e+002, 4.926504e+001
7.042097e+002, 4.843833e+001
7.046918e+002, 4.738832e+001
7.051739e+002, 4.703580e+001
7.056560e+002, 4.726094e+001
7.061381e+002, 4.729522e+001
7.066202e+002, 4.690594e+001
7.071024e+002, 4.639143e+001
7.075845e+002, 4.605191e+001
7.080666e+002, 4.588130e+001
7.085487e+002, 4.567061e+001
7.090308e+002, 4.534615e+001
7.095129e+002, 4.508055e+001
7.099951e+002, 4.492657e+001
7.104772e+002, 4.481910e+001
7.109593e+002, 4.474058e+001
7.114414e+002, 4.466177e+001
7.119235e+002, 4.451382e+001
7.124056e+002, 4.424681e+001
7.128878e+002, 4.390623e+001
7.133699e+002, 4.348143e+001
7.138520e+002, 4.301210e+001
7.143341e+002, 4.284771e+001
7.148162e+002, 4.310824e+001
7.152983e+002, 4.340162e+001
7.157805e+002, 4.343038e+001
7.162626e+002, 4.322250e+001
7.167447e+002, 4.293398e+001
7.172268e+002, 4.245768e+001
7.177089e+002, 4.206051e+001
7.181910e+002, 4.180458e+001
7.186732e+002, 4.159905e+001
7.191553e+002, 4.133456e+001
7.196374e+002, 4.106852e+001
7.201195e+002, 4.098347e+001
7.206016e+002, 4.119263e+001
7.210837e+002, 4.144724e+001
7.215659e+002, 4.134912e+001
7.220480e+002, 4.098122e+001
7.225301e+002, 4.085870e+001
7.230122e+002, 4.108361e+001
7.234943e+002, 4.121605e+001
7.239764e+002, 4.094637e+001
7.244586e+002, 4.044437e+001
7.249407e+002, 4.014697e+001
7.254228e+002, 4.015232e+001
7.259049e+002, 4.011364e+001
7.263870e+002, 3.993650e+001
7.268691e+002, 3.978846e+001
7.273513e+002, 3.975697e+001
7.278334e+002, 3.982042e+001
7.283155e+002, 3.997474e+001
7.287976e+002, 4.020939e+001
7.292797e+002, 4.037679e+001
7.297618e+002, 4.030616e+001
7.302440e+002, 4.004058e+001
7.307261e+002, 3.966265e+001
7.312082e+002, 3.915305e+001
7.316903e+002, 3.889175e+001
7.321724e+002, 3.912962e+001
7.326545e+002, 3.952346e+001
7.331367e+002, 3.955149e+001
7.336188e+002, 3.911733e+001
7.341009e+002, 3.885082e+001
7.345830e+002, 3.892564e+001
7.350651e+002, 3.895759e+001
7.355472e+002, 3.874089e+001
7.360294e+002, 3.845345e+001
7.365115e+002, 3.832656e+001
7.369936e+002, 3.837512e+001
7.374757e+002, 3.841132e+001
7.379578e+002, 3.825249e+001
7.384399e+002, 3.803182e+001
7.389221e+002, 3.803848e+001
7.394042e+002, 3.825924e+001
7.398863e+002, 3.850773e+001
7.403684e+002, 3.876136e+001
7.408505e+002, 3.893661e+001
7.413326e+002, 3.891850e+001
7.418148e+002, 3.873314e+001
7.422969e+002, 3.868509e+001
7.427790e+002, 3.903120e+001
7.432611e+002, 3.914773e+001
7.437432e+002, 3.871164e+001
7.442253e+002, 3.823235e+001
7.447075e+002, 3.810036e+001
7.451896e+002, 3.825745e+001
7.456717e+002, 3.845606e+001
7.461538e+002, 3.859431e+001
7.466359e+002, 3.866769e+001
7.471180e+002, 3.864460e+001
7.476002e+002, 3.855137e+001
7.480823e+002, 3.851104e+001
7.485644e+002, 3.854311e+001
7.490465e+002, 3.845411e+001
7.495286e+002, 3.806911e+001
7.500107e+002, 3.758015e+001
7.504929e+002, 3.746197e+001
7.509750e+002, 3.796244e+001
7.514571e+002, 3.822021e+001
7.519392e+002, 3.813708e+001
7.524213e+002, 3.794196e+001
7.529034e+002, 3.758386e+001
7.533856e+002, 3.723268e+001
7.538677e+002, 3.713718e+001
7.543498e+002, 3.734392e+001
7.548319e+002, 3.760004e+001
7.553140e+002, 3.774599e+001
7.557961e+002, 3.780807e+001
7.562783e+002, 3.782317e+001
7.567604e+002, 3.779291e+001
7.572425e+002, 3.771291e+001
7.577246e+002, 3.757878e+001
7.582067e+002, 3.742446e+001
7.586888e+002, 3.728057e+001
7.591710e+002, 3.714716e+001
7.596531e+002, 3.710479e+001
7.601352e+002, 3.718825e+001
7.606173e+002, 3.731279e+001
7.610994e+002, 3.755047e+001
7.615815e+002, 3.775163e+001
7.620637e+002, 3.778951e+001
7.625458e+002, 3.769049e+001
7.630279e+002, 3.756206e+001
7.635100e+002, 3.739083e+001
7.639921e+002, 3.730622e+001
7.644742e+002, 3.751551e+001
7.649564e+002, 3.785065e+001
7.654385e+002, 3.799304e+001
7.659206e+002, 3.791719e+001
7.664027e+002, 3.777011e+001
7.668848e+002, 3.763646e+001
7.673669e+002, 3.753229e+001
7.678491e+002, 3.749944e+001
7.683312e+002, 3.755049e+001
7.688133e+002, 3.763099e+001
7.692954e+002, 3.778653e+001
7.697775e+002, 3.790471e+001
7.702596e+002, 3.793468e+001
7.707418e+002, 3.790171e+001
7.712239e+002, 3.783555e+001
7.717060e+002, 3.773940e+001
7.721881e+002, 3.760658e+001
7.726702e+002, 3.735706e+001
7.731523e+002, 3.713988e+001
7.736345e+002, 3.708686e+001
7.741166e+002, 3.715774e+001
7.745987e+002, 3.728921e+001
7.750808e+002, 3.745119e+001
7.755629e+002, 3.758146e+001
7.760450e+002, 3.761105e+001
7.765272e+002, 3.756047e+001
7.770093e+002, 3.752007e+001
7.774914e+002, 3.748590e+001
7.779735e+002, 3.749264e+001
7.784556e+002, 3.759130e+001
7.789377e+002, 3.766627e+001
7.794199e+002, 3.756231e+001
7.799020e+002, 3.733470e+001
7.803841e+002, 3.725874e+001
7.808662e+002, 3.749244e+001
7.813483e+002, 3.765770e+001
7.818304e+002, 3.763349e+001
7.823126e+002, 3.753257e+001
7.827947e+002, 3.738758e+001
7.832768e+002, 3.725234e+001
7.837589e+002, 3.723957e+001
7.842410e+002, 3.740372e+001
7.847231e+002, 3.762100e+001
7.852053e+002, 3.778412e+001
7.856874e+002, 3.787556e+001
7.861695e+002, 3.775805e+001
7.866516e+002, 3.741085e+001
7.871337e+002, 3.723484e+001
7.876158e+002, 3.746368e+001
7.880980e+002, 3.781318e+001
7.885801e+002, 3.782011e+001
7.890622e+002, 3.739010e+001
7.895443e+002, 3.723420e+001
7.900264e+002, 3.761512e+001
7.905085e+002, 3.792460e+001
7.909907e+002, 3.805448e+001
7.914728e+002, 3.804118e+001
7.919549e+002, 3.785275e+001
7.924370e+002, 3.754142e+001
7.929191e+002, 3.729354e+001
7.934012e+002, 3.718052e+001
7.938834e+002, 3.720115e+001
7.943655e+002, 3.745972e+001
7.948476e+002, 3.782355e+001
7.953297e+002, 3.800546e+001
7.958118e+002, 3.797171e+001
7.962939e+002, 3.781681e+001
7.967761e+002, 3.757591e+001
7.972582e+002, 3.736082e+001
7.977403e+002, 3.750614e+001
7.982224e+002, 3.818040e+001
7.987045e+002, 3.848853e+001
7.991866e+002, 3.823130e+001
7.996688e+002, 3.789176e+001
8.001509e+002, 3.753521e+001
8.006330e+002, 3.729591e+001
8.011151e+002, 3.744033e+001
8.015972e+002, 3.802428e+001
8.020793e+002, 3.839565e+001
8.025615e+002, 3.809772e+001
8.030436e+002, 3.782372e+001
8.035257e+002, 3.815161e+001
8.040078e+002, 3.871431e+001
8.044899e+002, 3.889327e+001
8.049720e+002, 3.862806e+001
8.054542e+002, 3.838951e+001
8.059363e+002, 3.858211e+001
8.064184e+002, 3.897390e+001
8.069005e+002, 3.904137e+001
8.073826e+002, 3.879584e+001
8.078647e+002, 3.845998e+001
8.083469e+002, 3.802374e+001
8.088290e+002, 3.772018e+001
8.093111e+002, 3.775279e+001
8.097932e+002, 3.801069e+001
8.102753e+002, 3.815273e+001
8.107574e+002, 3.810224e+001
8.112396e+002, 3.809174e+001
8.117217e+002, 3.815731e+001
8.122038e+002, 3.822170e+001
8.126859e+002, 3.830701e+001
8.131680e+002, 3.834527e+001
8.136501e+002, 3.819398e+001
8.141323e+002, 3.784327e+001
8.146144e+002, 3.757906e+001
8.150965e+002, 3.759834e+001
8.155786e+002, 3.777942e+001
8.160607e+002, 3.806400e+001
8.165428e+002, 3.838673e+001
8.170250e+002, 3.858368e+001
8.175071e+002, 3.861821e+001
8.179892e+002, 3.854430e+001
8.184713e+002, 3.839046e+001
8.189534e+002, 3.819426e+001
8.194355e+002, 3.809579e+001
8.199177e+002, 3.811123e+001
8.203998e+002, 3.816504e+001
8.208819e+002, 3.835143e+001
8.213640e+002, 3.840162e+001
8.218461e+002, 3.800343e+001
8.223282e+002, 3.740831e+001
8.228104e+002, 3.709806e+001
8.232925e+002, 3.710701e+001
8.237746e+002, 3.730755e+001
8.242567e+002, 3.793237e+001
8.247388e+002, 3.847210e+001
8.252209e+002, 3.852590e+001
8.257031e+002, 3.836023e+001
8.261852e+002, 3.841471e+001
8.266673e+002, 3.874418e+001
8.271494e+002, 3.899321e+001
8.276315e+002, 3.883885e+001
8.281136e+002, 3.849868e+001
8.285958e+002, 3.831577e+001
8.290779e+002, 3.827425e+001
8.295600e+002, 3.831708e+001
8.300421e+002, 3.843547e+001
8.305242e+002, 3.854862e+001
8.310063e+002, 3.860387e+001
8.314885e+002, 3.859899e+001
8.319706e+002, 3.851337e+001
8.324527e+002, 3.827295e+001
8.329348e+002, 3.814983e+001
8.334169e+002, 3.824981e+001
8.338990e+002, 3.833570e+001
8.343812e+002, 3.827002e+001
8.348633e+002, 3.816313e+001
8.353454e+002, 3.815453e+001
8.358275e+002, 3.825897e+001
8.363096e+002, 3.838881e+001
8.367917e+002, 3.857158e+001
8.372739e+002, 3.871073e+001
8.377560e+002, 3.875877e+001
8.382381e+002, 3.871956e+001
8.387202e+002, 3.854049e+001
8.392023e+002, 3.826340e+001
8.396844e+002, 3.807626e+001
8.401666e+002, 3.810968e+001
8.406487e+002, 3.828619e+001
8.411308e+002, 3.853120e+001
8.416129e+002, 3.881830e+001
8.420950e+002, 3.895046e+001
8.425771e+002, 3.890134e+001
8.430593e+002, 3.877700e+001
8.435414e+002, 3.863433e+001
8.440235e+002, 3.844477e+001
8.445056e+002, 3.811619e+001
8.449877e+002, 3.755495e+001
8.454698e+002, 3.733870e+001
8.459520e+002, 3.779496e+001
8.464341e+002, 3.816816e+001
8.469162e+002, 3.826959e+001
8.473983e+002, 3.823402e+001
8.478804e+002, 3.811713e+001
8.483625e+002, 3.795921e+001
8.488447e+002, 3.791008e+001
8.493268e+002, 3.808157e+001
8.498089e+002, 3.827063e+001
8.502910e+002, 3.844012e+001
8.507731e+002, 3.851550e+001
8.512552e+002, 3.835332e+001
8.517374e+002, 3.801274e+001
8.522195e+002, 3.767262e+001
8.527016e+002, 3.741521e+001
8.531837e+002, 3.726464e+001
8.536658e+002, 3.730994e+001
8.541479e+002, 3.749659e+001
8.546301e+002, 3.753259e+001
8.551122e+002, 3.740944e+001
8.555943e+002, 3.738952e+001
8.560764e+002, 3.758796e+001
8.565585e+002, 3.781831e+001
8.570406e+002, 3.787669e+001
8.575228e+002, 3.777896e+001
8.580049e+002, 3.771579e+001
8.584870e+002, 3.777861e+001
8.589691e+002, 3.771968e+001
8.594512e+002, 3.735719e+001
8.599333e+002, 3.703644e+001
8.604155e+002, 3.695503e+001
8.608976e+002, 3.703880e+001
8.613797e+002, 3.715601e+001
8.618618e+002, 3.729945e+001
8.623439e+002, 3.738079e+001
8.628260e+002, 3.736792e+001
8.633082e+002, 3.727446e+001
8.637903e+002, 3.700779e+001
8.642724e+002, 3.670738e+001
8.647545e+002, 3.666821e+001
8.652366e+002, 3.690491e+001
8.657188e+002, 3.707057e+001
8.662009e+002, 3.686960e+001
8.666830e+002, 3.647969e+001
8.671651e+002, 3.623944e+001
8.676472e+002, 3.612488e+001
8.681293e+002, 3.598820e+001
8.686115e+002, 3.580667e+001
8.690936e+002, 3.563167e+001
8.695757e+002, 3.549033e+001
8.700578e+002, 3.538243e+001
8.705399e+002, 3.530165e+001
8.710220e+002, 3.523533e+001
8.715042e+002, 3.526903e+001
8.719863e+002, 3.549389e+001
8.724684e+002, 3.567198e+001
8.729505e+002, 3.572363e+001
8.734326e+002, 3.570259e+001
8.739147e+002, 3.563462e+001
8.743969e+002, 3.552855e+001
8.748790e+002, 3.542989e+001
8.753611e+002, 3.538916e+001
8.758432e+002, 3.529810e+001
8.763253e+002, 3.507633e+001
8.768074e+002, 3.482424e+001
8.772896e+002, 3.460448e+001
8.777717e+002, 3.443189e+001
8.782538e+002, 3.432557e+001
8.787359e+002, 3.429156e+001
8.792180e+002, 3.427810e+001
8.797001e+002, 3.423420e+001
8.801823e+002, 3.417965e+001
8.806644e+002, 3.416184e+001
8.811465e+002, 3.416858e+001
8.816286e+002, 3.413262e+001
8.821107e+002, 3.403831e+001
8.825928e+002, 3.396896e+001
8.830750e+002, 3.400875e+001
8.835571e+002, 3.410830e+001
8.840392e+002, 3.409840e+001
8.845213e+002, 3.396828e+001
8.850034e+002, 3.379023e+001
8.854855e+002, 3.356763e+001
8.859677e+002, 3.329749e+001
8.864498e+002, 3.290953e+001
8.869319e+002, 3.252590e+001
8.874140e+002, 3.239116e+001
8.878961e+002, 3.256029e+001
8.883782e+002, 3.261477e+001
8.888604e+002, 3.243876e+001
8.893425e+002, 3.228368e+001
8.898246e+002, 3.229039e+001
8.903067e+002, 3.228885e+001
8.907888e+002, 3.204034e+001
8.912709e+002, 3.164712e+001
8.917531e+002, 3.148192e+001
8.922352e+002, 3.174197e+001
8.927173e+002, 3.203223e+001
8.931994e+002, 3.211098e+001
8.936815e+002, 3.205394e+001
8.941636e+002, 3.190321e+001
8.946458e+002, 3.169836e+001
8.951279e+002, 3.151308e+001
8.956100e+002, 3.137201e+001
8.960921e+002, 3.126474e+001
8.965742e+002, 3.117464e+001
8.970563e+002, 3.111617e+001
8.975385e+002, 3.117924e+001
8.980206e+002, 3.134323e+001
8.985027e+002, 3.130388e+001
8.989848e+002, 3.098792e+001
8.994669e+002, 3.068597e+001
8.999490e+002, 3.058597e+001
9.004312e+002, 3.062085e+001
9.009133e+002, 3.063491e+001
9.013954e+002, 3.061265e+001
9.018775e+002, 3.065298e+001
9.023596e+002, 3.088236e+001
9.028417e+002, 3.095612e+001
9.033239e+002, 3.061293e+001
9.038060e+002, 3.019437e+001
9.042881e+002, 3.003156e+001
9.047702e+002, 3.009047e+001
9.052523e+002, 3.014178e+001
9.057344e+002, 3.024467e+001
9.062166e+002, 3.020922e+001
9.066987e+002, 2.987258e+001
9.071808e+002, 2.949401e+001
9.076629e+002, 2.921329e+001
9.081450e+002, 2.904461e+001
9.086271e+002, 2.900900e+001
9.091093e+002, 2.910472e+001
9.095914e+002, 2.919329e+001
9.100735e+002, 2.919135e+001
9.105556e+002, 2.912372e+001
9.110377e+002, 2.897786e+001
9.115198e+002, 2.879936e+001
9.120020e+002, 2.869262e+001
9.124841e+002, 2.866391e+001
9.129662e+002, 2.862287e+001
9.134483e+002, 2.850534e+001
9.139304e+002, 2.839661e+001
9.144125e+002, 2.851999e+001
9.148947e+002, 2.881794e+001
9.153768e+002, 2.875659e+001
9.158589e+002, 2.829379e+001
9.163410e+002, 2.795516e+001
9.168231e+002, 2.794039e+001
9.173052e+002, 2.809316e+001
9.177874e+002, 2.826672e+001
9.182695e+002, 2.844895e+001
9.187516e+002, 2.850336e+001
9.192337e+002, 2.834382e+001
9.197158e+002, 2.826973e+001
9.201979e+002, 2.841882e+001
9.206801e+002, 2.851616e+001
9.211622e+002, 2.831699e+001
9.216443e+002, 2.800812e+001
9.221264e+002, 2.791890e+001
9.226085e+002, 2.810443e+001
9.230906e+002, 2.817137e+001
9.235728e+002, 2.794400e+001
9.240549e+002, 2.774034e+001
9.245370e+002, 2.774204e+001
9.250191e+002, 2.777247e+001
9.255012e+002, 2.761266e+001
9.259833e+002, 2.732609e+001
9.264655e+002, 2.716439e+001
9.269476e+002, 2.724286e+001
9.274297e+002, 2.736990e+001
9.279118e+002, 2.744353e+001
9.283939e+002, 2.747181e+001
9.288760e+002, 2.745784e+001
9.293582e+002, 2.740694e+001
9.298403e+002, 2.730445e+001
9.303224e+002, 2.716160e+001
9.308045e+002, 2.707920e+001
9.312866e+002, 2.717547e+001
9.317687e+002, 2.730413e+001
9.322509e+002, 2.705644e+001
9.327330e+002, 2.657934e+001
9.332151e+002, 2.667297e+001
9.336972e+002, 2.739012e+001
9.341793e+002, 2.786954e+001
9.346614e+002, 2.766452e+001
9.351436e+002, 2.717319e+001
9.356257e+002, 2.697131e+001
9.361078e+002, 2.704235e+001
9.365899e+002, 2.705909e+001
9.370720e+002, 2.700791e+001
9.375541e+002, 2.696166e+001
9.380363e+002, 2.695531e+001
9.385184e+002, 2.690685e+001
9.390005e+002, 2.669169e+001
9.394826e+002, 2.642038e+001
9.399647e+002, 2.643367e+001
9.404468e+002, 2.694537e+001
9.409290e+002, 2.715443e+001
9.414111e+002, 2.676004e+001
9.418932e+002, 2.645627e+001
9.423753e+002, 2.649164e+001
9.428574e+002, 2.666280e+001
9.433395e+002, 2.682250e+001
9.438217e+002, 2.694842e+001
9.443038e+002, 2.699630e+001
9.447859e+002, 2.691157e+001
9.452680e+002, 2.683573e+001
9.457501e+002, 2.685984e+001
9.462322e+002, 2.687287e+001
9.467144e+002, 2.673840e+001
9.471965e+002, 2.655528e+001
9.476786e+002, 2.651762e+001
9.481607e+002, 2.664917e+001
9.486428e+002, 2.675916e+001
9.491249e+002, 2.674844e+001
9.496071e+002, 2.663408e+001
9.500892e+002, 2.628976e+001
9.505713e+002, 2.592246e+001
9.510534e+002, 2.596937e+001
9.515355e+002, 2.636242e+001
9.520176e+002, 2.667420e+001
9.524998e+002, 2.671202e+001
9.529819e+002, 2.656747e+001
9.534640e+002, 2.623475e+001
9.539461e+002, 2.584401e+001
9.544282e+002, 2.587709e+001
9.549103e+002, 2.626757e+001
9.553925e+002, 2.647086e+001
9.558746e+002, 2.637287e+001
9.563567e+002, 2.626126e+001
9.568388e+002, 2.634073e+001
9.573209e+002, 2.651894e+001
9.578030e+002, 2.660703e+001
9.582852e+002, 2.660413e+001
9.587673e+002, 2.649701e+001
9.592494e+002, 2.624084e+001
9.597315e+002, 2.606130e+001
9.602136e+002, 2.603681e+001
9.606957e+002, 2.609775e+001
9.611779e+002, 2.621522e+001
9.616600e+002, 2.635803e+001
9.621421e+002, 2.634595e+001
9.626242e+002, 2.600798e+001
9.631063e+002, 2.585824e+001
9.635884e+002, 2.609570e+001
9.640706e+002, 2.627670e+001
9.645527e+002, 2.620943e+001
9.650348e+002, 2.602237e+001
9.655169e+002, 2.583373e+001
9.659990e+002, 2.565043e+001
9.664811e+002, 2.549963e+001
9.669633e+002, 2.532829e+001
9.674454e+002, 2.527111e+001
9.679275e+002, 2.544073e+001
9.684096e+002, 2.565219e+001
9.688917e+002, 2.584350e+001
9.693738e+002, 2.596375e+001
9.698560e+002, 2.589731e+001
9.703381e+002, 2.563337e+001
9.708202e+002, 2.546863e+001
9.713023e+002, 2.570221e+001
9.717844e+002, 2.590042e+001
9.722665e+002, 2.568015e+001
9.727487e+002, 2.533036e+001
9.732308e+002, 2.517134e+001
9.737129e+002, 2.520868e+001
9.741950e+002, 2.535447e+001
9.746771e+002, 2.557370e+001
9.751592e+002, 2.576200e+001
9.756414e+002, 2.579465e+001
9.761235e+002, 2.576278e+001
9.766056e+002, 2.581071e+001
9.770877e+002, 2.589581e+001
9.775698e+002, 2.590127e+001
9.780519e+002, 2.582008e+001
9.785341e+002, 2.573950e+001
9.790162e+002, 2.571109e+001
9.794983e+002, 2.570980e+001
9.799804e+002, 2.569394e+001
9.804625e+002, 2.567436e+001
9.809446e+002, 2.572070e+001
9.814268e+002, 2.581989e+001
9.819089e+002, 2.581638e+001
9.823910e+002, 2.566845e+001
9.828731e+002, 2.550253e+001
9.833552e+002, 2.541674e+001
9.838373e+002, 2.539530e+001
9.843195e+002, 2.542817e+001
9.848016e+002, 2.552385e+001
9.852837e+002, 2.544282e+001
9.857658e+002, 2.512191e+001
9.862479e+002, 2.495492e+001
9.867300e+002, 2.510891e+001
9.872122e+002, 2.538177e+001
9.876943e+002, 2.560059e+001
9.881764e+002, 2.575241e+001
9.886585e+002, 2.574222e+001
9.891406e+002, 2.543645e+001
9.896227e+002, 2.538015e+001
9.901049e+002, 2.581486e+001
9.905870e+002, 2.608925e+001
9.910691e+002, 2.581324e+001
9.915512e+002, 2.536637e+001
9.920333e+002, 2.520584e+001
9.925154e+002, 2.532354e+001
9.929976e+002, 2.541771e+001
9.934797e+002, 2.553199e+001
9.939618e+002, 2.555656e+001
9.944439e+002, 2.544451e+001
9.949260e+002, 2.528804e+001
9.954081e+002, 2.504243e+001
9.958903e+002, 2.482696e+001
9.963724e+002, 2.483786e+001
9.968545e+002, 2.508111e+001
9.973366e+002, 2.526071e+001
9.978187e+002, 2.529465e+001
9.983008e+002, 2.529378e+001
9.987830e+002, 2.524301e+001
9.992651e+002, 2.521334e+001
9.997472e+002, 2.528085e+001
1.000229e+003, 2.539570e+001
1.000711e+003, 2.546364e+001
1.001194e+003, 2.546731e+001
1.001676e+003, 2.547876e+001
1.002158e+003, 2.558510e+001
1.002640e+003, 2.564092e+001
1.003122e+003, 2.551030e+001
1.003604e+003, 2.532831e+001
1.004086e+003, 2.521295e+001
1.004568e+003, 2.517255e+001
1.005050e+003, 2.521485e+001
1.005533e+003, 2.533845e+001
1.006015e+003, 2.539516e+001
1.006497e+003, 2.519938e+001
1.006979e+003, 2.496994e+001
1.007461e+003, 2.491872e+001
1.007943e+003, 2.497659e+001
1.008425e+003, 2.505906e+001
1.008907e+003, 2.514153e+001
1.009390e+003, 2.520472e+001
1.009872e+003, 2.524063e+001
1.010354e+003, 2.524565e+001
1.010836e+003, 2.519161e+001
1.011318e+003, 2.512112e+001
1.011800e+003, 2.509979e+001
1.012282e+003, 2.511935e+001
1.012764e+003, 2.509337e+001
1.013246e+003, 2.506096e+001
1.013729e+003, 2.536587e+001
1.014211e+003, 2.620575e+001
1.014693e+003, 2.698990e+001
1.015175e+003, 2.681536e+001
1.015657e+003, 2.601050e+001
1.016139e+003, 2.547451e+001
1.016621e+003, 2.518964e+001
1.017103e+003, 2.511316e+001
1.017586e+003, 2.521727e+001
1.018068e+003, 2.528418e+001
1.018550e+003, 2.517509e+001
1.019032e+003, 2.499899e+001
1.019514e+003, 2.494797e+001
1.019996e+003, 2.499900e+001
1.020478e+003, 2.496704e+001
1.020960e+003, 2.485614e+001
1.021442e+003, 2.482985e+001
1.021925e+003, 2.492824e+001
1.022407e+003, 2.507318e+001
1.022889e+003, 2.522152e+001
1.023371e+003, 2.534003e+001
1.023853e+003, 2.533584e+001
1.024335e+003, 2.520679e+001
1.024817e+003, 2.522912e+001
1.025299e+003, 2.543320e+001
1.025781e+003, 2.553720e+001
1.026264e+003, 2.544313e+001
1.026746e+003, 2.536750e+001
1.027228e+003, 2.548508e+001
1.027710e+003, 2.570743e+001
1.028192e+003, 2.583355e+001
1.028674e+003, 2.586281e+001
1.029156e+003, 2.577360e+001
1.029638e+003, 2.551253e+001
1.030120e+003, 2.530963e+001
1.030603e+003, 2.521120e+001
1.031085e+003, 2.522079e+001
1.031567e+003, 2.539085e+001
1.032049e+003, 2.562871e+001
1.032531e+003, 2.567636e+001
1.033013e+003, 2.547686e+001
1.033495e+003, 2.534410e+001
1.033977e+003, 2.529659e+001
1.034460e+003, 2.527915e+001
1.034942e+003, 2.529712e+001
1.035424e+003, 2.531693e+001
1.035906e+003, 2.533905e+001
1.036388e+003, 2.533233e+001
1.036870e+003, 2.517826e+001
1.037352e+003, 2.475546e+001
1.037834e+003, 2.461661e+001
1.038317e+003, 2.500831e+001
1.038799e+003, 2.530531e+001
1.039281e+003, 2.529703e+001
1.039763e+003, 2.521470e+001
1.040245e+003, 2.522425e+001
1.040727e+003, 2.529692e+001
1.041209e+003, 2.534903e+001
1.041691e+003, 2.536607e+001
1.042173e+003, 2.540813e+001
1.042656e+003, 2.554603e+001
1.043138e+003, 2.561543e+001
1.043620e+003, 2.555701e+001
1.044102e+003, 2.543404e+001
1.044584e+003, 2.526132e+001
1.045066e+003, 2.506651e+001
1.045548e+003, 2.490952e+001
1.046030e+003, 2.478332e+001
1.046512e+003, 2.473936e+001
1.046995e+003, 2.489053e+001
1.047477e+003, 2.498231e+001
1.047959e+003, 2.487743e+001
1.048441e+003, 2.474181e+001
1.048923e+003, 2.466162e+001
1.049405e+003, 2.466368e+001
1.049887e+003, 2.484060e+001
1.050369e+003, 2.527635e+001
1.050852e+003, 2.549400e+001
1.051334e+003, 2.524061e+001
1.051816e+003, 2.496962e+001
1.052298e+003, 2.480897e+001
1.052780e+003, 2.471717e+001
1.053262e+003, 2.465202e+001
1.053744e+003, 2.462610e+001
1.054226e+003, 2.470402e+001
1.054708e+003, 2.492229e+001
1.055191e+003, 2.502196e+001
1.055673e+003, 2.480549e+001
1.056155e+003, 2.462522e+001
1.056637e+003, 2.470715e+001
1.057119e+003, 2.479958e+001
1.057601e+003, 2.459666e+001
1.058083e+003, 2.426969e+001
1.058565e+003, 2.424266e+001
1.059047e+003, 2.461560e+001
1.059530e+003, 2.486993e+001
1.060012e+003, 2.475731e+001
1.060494e+003, 2.459123e+001
1.060976e+003, 2.445922e+001
1.061458e+003, 2.436988e+001
1.061940e+003, 2.435345e+001
1.062422e+003, 2.437307e+001
1.062904e+003, 2.435470e+001
1.063387e+003, 2.428471e+001
1.063869e+003, 2.423132e+001
1.064351e+003, 2.430149e+001
1.064833e+003, 2.428710e+001
1.065315e+003, 2.390259e+001
1.065797e+003, 2.357444e+001
1.066279e+003, 2.381287e+001
1.066761e+003, 2.430562e+001
1.067244e+003, 2.442777e+001
1.067726e+003, 2.409041e+001
1.068208e+003, 2.381358e+001
1.068690e+003, 2.386661e+001
1.069172e+003, 2.394402e+001
1.069654e+003, 2.391590e+001
1.070136e+003, 2.384869e+001
1.070618e+003, 2.379122e+001
1.071100e+003, 2.373454e+001
1.071583e+003, 2.363150e+001
1.072065e+003, 2.349096e+001
1.072547e+003, 2.343623e+001
1.073029e+003, 2.354008e+001
1.073511e+003, 2.369855e+001
1.073993e+003, 2.395111e+001
1.074475e+003, 2.415049e+001
1.074957e+003, 2.416967e+001
1.075439e+003, 2.406810e+001
1.075922e+003, 2.389856e+001
1.076404e+003, 2.369735e+001
1.076886e+003, 2.358087e+001
1.077368e+003, 2.363548e+001
1.077850e+003, 2.368231e+001
1.078332e+003, 2.354835e+001
1.078814e+003, 2.347017e+001
1.079297e+003, 2.378135e+001
1.079779e+003, 2.415173e+001
1.080261e+003, 2.403392e+001
1.080743e+003, 2.351639e+001
1.081225e+003, 2.326050e+001
1.081707e+003, 2.358936e+001
1.082189e+003, 2.385024e+001
1.082671e+003, 2.364812e+001
1.083153e+003, 2.339110e+001
1.083635e+003, 2.331668e+001
1.084118e+003, 2.335357e+001
1.084600e+003, 2.342646e+001
1.085082e+003, 2.351817e+001
1.085564e+003, 2.364371e+001
1.086046e+003, 2.383970e+001
1.086528e+003, 2.388832e+001
1.087010e+003, 2.347843e+001
1.087492e+003, 2.315889e+001
1.087975e+003, 2.336990e+001
1.088457e+003, 2.371260e+001
1.088939e+003, 2.374854e+001
1.089421e+003, 2.357261e+001
1.089903e+003, 2.353678e+001
1.090385e+003, 2.373762e+001
1.090867e+003, 2.385331e+001
1.091349e+003, 2.371450e+001
1.091832e+003, 2.352374e+001
1.092314e+003, 2.322737e+001
1.092796e+003, 2.305284e+001
1.093278e+003, 2.333427e+001
1.093760e+003, 2.382775e+001
1.094242e+003, 2.406241e+001
1.094724e+003, 2.395968e+001
1.095206e+003, 2.378788e+001
1.095688e+003, 2.354254e+001
1.096171e+003, 2.336619e+001
1.096653e+003, 2.333120e+001
1.097135e+003, 2.335840e+001
1.097617e+003, 2.341845e+001
1.098099e+003, 2.349110e+001
1.098581e+003, 2.356520e+001
1.099063e+003, 2.363453e+001
1.099545e+003, 2.366086e+001
1.100027e+003, 2.359824e+001
1.100510e+003, 2.355447e+001
1.100992e+003, 2.355150e+001
1.101474e+003, 2.358022e+001
1.101956e+003, 2.368044e+001
1.102438e+003, 2.377796e+001
1.102920e+003, 2.376809e+001
1.103402e+003, 2.367146e+001
1.103884e+003, 2.361649e+001
1.104367e+003, 2.361998e+001
1.104849e+003, 2.367389e+001
1.105331e+003, 2.389275e+001
1.105813e+003, 2.401518e+001
1.106295e+003, 2.386384e+001
1.106777e+003, 2.363855e+001
1.107259e+003, 2.348967e+001
1.107741e+003, 2.341959e+001
1.108224e+003, 2.343452e+001
1.108706e+003, 2.359192e+001
1.109188e+003, 2.360248e+001
1.109670e+003, 2.324936e+001
1.110152e+003, 2.301363e+001
1.110634e+003, 2.308082e+001
1.111116e+003, 2.322276e+001
1.111598e+003, 2.332895e+001
1.112080e+003, 2.339021e+001
1.112563e+003, 2.338673e+001
1.113045e+003, 2.331257e+001
1.113527e+003, 2.322584e+001
1.114009e+003, 2.304147e+001
1.114491e+003, 2.298769e+001
1.114973e+003, 2.326948e+001
1.115455e+003, 2.343789e+001
1.115937e+003, 2.318767e+001
1.116419e+003, 2.279003e+001
1.116902e+003, 2.257988e+001
1.117384e+003, 2.254749e+001
1.117866e+003, 2.256631e+001
1.118348e+003, 2.261463e+001
1.118830e+003, 2.277919e+001
1.119312e+003, 2.318112e+001
1.119794e+003, 2.346048e+001
1.120276e+003, 2.345546e+001
1.120759e+003, 2.332772e+001
1.121241e+003, 2.318249e+001
1.121723e+003, 2.306178e+001
1.122205e+003, 2.314791e+001
1.122687e+003, 2.355204e+001
1.123169e+003, 2.361023e+001
1.123651e+003, 2.317626e+001
1.124133e+003, 2.289060e+001
1.124615e+003, 2.294262e+001
1.125098e+003, 2.308396e+001
1.125580e+003, 2.316560e+001
1.126062e+003, 2.318271e+001
1.126544e+003, 2.311507e+001
1.127026e+003, 2.296521e+001
1.127508e+003, 2.282579e+001
1.127990e+003, 2.268593e+001
1.128472e+003, 2.268678e+001
1.128954e+003, 2.288278e+001
1.129437e+003, 2.294386e+001
1.129919e+003, 2.267318e+001
1.130401e+003, 2.238938e+001
1.130883e+003, 2.250727e+001
1.131365e+003, 2.291569e+001
1.131847e+003, 2.321196e+001
1.132329e+003, 2.339146e+001
1.132811e+003, 2.328187e+001
1.133294e+003, 2.288105e+001
1.133776e+003, 2.259282e+001
1.134258e+003, 2.255179e+001
1.134740e+003, 2.257944e+001
1.135222e+003, 2.252856e+001
1.135704e+003, 2.244398e+001
1.136186e+003, 2.241117e+001
1.136668e+003, 2.242115e+001
1.137151e+003, 2.244294e+001
1.137633e+003, 2.247395e+001
1.138115e+003, 2.250594e+001
1.138597e+003, 2.253804e+001
1.139079e+003, 2.258890e+001
1.139561e+003, 2.267029e+001
1.140043e+003, 2.271985e+001
1.140525e+003, 2.259005e+001
1.141007e+003, 2.242937e+001
1.141490e+003, 2.262398e+001
1.141972e+003, 2.297294e+001
1.142454e+003, 2.298511e+001
1.142936e+003, 2.269818e+001
1.143418e+003, 2.244883e+001
1.143900e+003, 2.235510e+001
1.144382e+003, 2.233263e+001
1.144864e+003, 2.234494e+001
1.145346e+003, 2.234746e+001
1.145829e+003, 2.224977e+001
1.146311e+003, 2.214798e+001
1.146793e+003, 2.221789e+001
1.147275e+003, 2.235875e+001
1.147757e+003, 2.232940e+001
1.148239e+003, 2.213525e+001
1.148721e+003, 2.202310e+001
1.149203e+003, 2.212252e+001
1.149686e+003, 2.222874e+001
1.150168e+003, 2.220065e+001
1.150650e+003, 2.214268e+001
1.151132e+003, 2.212390e+001
1.151614e+003, 2.212391e+001
1.152096e+003, 2.210290e+001
1.152578e+003, 2.208087e+001
1.153060e+003, 2.212808e+001
1.153542e+003, 2.226324e+001
1.154025e+003, 2.234984e+001
1.154507e+003, 2.233555e+001
1.154989e+003, 2.227176e+001
1.155471e+003, 2.213871e+001
1.155953e+003, 2.200187e+001
1.156435e+003, 2.185979e+001
1.156917e+003, 2.176509e+001
1.157399e+003, 2.180899e+001
1.157881e+003, 2.197937e+001
1.158364e+003, 2.212960e+001
1.158846e+003, 2.230873e+001
1.159328e+003, 2.234600e+001
1.159810e+003, 2.204038e+001
1.160292e+003, 2.184980e+001
1.160774e+003, 2.199044e+001
1.161256e+003, 2.219842e+001
1.161738e+003, 2.227911e+001
1.162221e+003, 2.227047e+001
1.162703e+003, 2.225463e+001
1.163185e+003, 2.222309e+001
1.163667e+003, 2.227583e+001
1.164149e+003, 2.251353e+001
1.164631e+003, 2.251085e+001
1.165113e+003, 2.209784e+001
1.165595e+003, 2.174833e+001
1.166078e+003, 2.169982e+001
1.166560e+003, 2.182961e+001
1.167042e+003, 2.200912e+001
1.167524e+003, 2.221329e+001
1.168006e+003, 2.233088e+001
1.168488e+003, 2.236306e+001
1.168970e+003, 2.224682e+001
1.169452e+003, 2.197035e+001
1.169934e+003, 2.185409e+001
1.170417e+003, 2.199407e+001
1.170899e+003, 2.217054e+001
1.171381e+003, 2.222666e+001
1.171863e+003, 2.220366e+001
1.172345e+003, 2.211142e+001
1.172827e+003, 2.201061e+001
1.173309e+003, 2.221598e+001
1.173791e+003, 2.260649e+001
1.174273e+003, 2.265718e+001
1.174756e+003, 2.237024e+001
1.175238e+003, 2.218090e+001
1.175720e+003, 2.225185e+001
1.176202e+003, 2.231885e+001
1.176684e+003, 2.212611e+001
1.177166e+003, 2.187001e+001
1.177648e+003, 2.177142e+001
1.178130e+003, 2.178495e+001
1.178613e+003, 2.188859e+001
1.179095e+003, 2.203032e+001
1.179577e+003, 2.212278e+001
1.180059e+003, 2.215672e+001
1.180541e+003, 2.218467e+001
1.181023e+003, 2.223852e+001
1.181505e+003, 2.222821e+001
1.181987e+003, 2.200016e+001
1.182469e+003, 2.180718e+001
1.182952e+003, 2.185104e+001
1.183434e+003, 2.198201e+001
1.183916e+003, 2.209726e+001
1.184398e+003, 2.216340e+001
1.184880e+003, 2.210618e+001
1.185362e+003, 2.192463e+001
1.185844e+003, 2.186124e+001
1.186326e+003, 2.210249e+001
1.186808e+003, 2.226348e+001
1.187291e+003, 2.225585e+001
1.187773e+003, 2.218245e+001
1.188255e+003, 2.200046e+001
1.188737e+003, 2.184940e+001
1.189219e+003, 2.189564e+001
1.189701e+003, 2.206848e+001
1.190183e+003, 2.215273e+001
1.190665e+003, 2.214095e+001
1.191148e+003, 2.206711e+001
1.191630e+003, 2.186521e+001
1.192112e+003, 2.179608e+001
1.192594e+003, 2.194292e+001
1.193076e+003, 2.211748e+001
1.193558e+003, 2.223937e+001
1.194040e+003, 2.228930e+001
1.194522e+003, 2.222814e+001
1.195005e+003, 2.208907e+001
1.195487e+003, 2.199648e+001
1.195969e+003, 2.195193e+001
1.196451e+003, 2.201035e+001
1.196933e+003, 2.216930e+001
1.197415e+003, 2.232792e+001
1.197897e+003, 2.245715e+001
1.198379e+003, 2.252088e+001
1.198861e+003, 2.249590e+001
1.199344e+003, 2.240400e+001
1.199826e+003, 2.224936e+001
1.200308e+003, 2.206569e+001
1.200790e+003, 2.185778e+001
1.201272e+003, 2.170114e+001
1.201754e+003, 2.183582e+001
1.202236e+003, 2.217296e+001
1.202718e+003, 2.238569e+001
1.203200e+003, 2.239260e+001
1.203683e+003, 2.236062e+001
1.204165e+003, 2.236875e+001
1.204647e+003, 2.242484e+001
1.205129e+003, 2.261360e+001
1.205611e+003, 2.276981e+001
1.206093e+003, 2.273810e+001
1.206575e+003, 2.260034e+001
1.207057e+003, 2.243836e+001
1.207540e+003, 2.227134e+001
1.208022e+003, 2.206473e+001
1.208504e+003, 2.179144e+001
1.208986e+003, 2.176714e+001
1.209468e+003, 2.244825e+001
1.209950e+003, 2.281528e+001
1.210432e+003, 2.229189e+001
1.210914e+003, 2.182150e+001
1.211396e+003, 2.202728e+001
1.211879e+003, 2.239428e+001
1.212361e+003, 2.233967e+001
1.212843e+003, 2.200455e+001
1.213325e+003, 2.198157e+001
1.213807e+003, 2.238124e+001
1.214289e+003, 2.253748e+001
1.214771e+003, 2.236466e+001
1.215253e+003, 2.231273e+001
1.215735e+003, 2.250579e+001
1.216218e+003, 2.264311e+001
1.216700e+003, 2.255219e+001
1.217182e+003, 2.236626e+001
1.217664e+003, 2.219994e+001
1.218146e+003, 2.215011e+001
1.218628e+003, 2.272913e+001
1.219110e+003, 2.371719e+001
1.219592e+003, 2.385976e+001
1.220075e+003, 2.327002e+001
1.220557e+003, 2.293698e+001
1.221039e+003, 2.304679e+001
1.221521e+003, 2.301855e+001
1.222003e+003, 2.251319e+001
1.222485e+003, 2.220507e+001
1.222967e+003, 2.320755e+001
1.223449e+003, 2.433533e+001
1.223932e+003, 2.401902e+001
1.224414e+003, 2.315263e+001
1.224896e+003, 2.283563e+001
1.225378e+003, 2.295341e+001
1.225860e+003, 2.310705e+001
1.226342e+003, 2.319537e+001
1.226824e+003, 2.318351e+001
1.227306e+003, 2.302449e+001
1.227788e+003, 2.286635e+001
1.228271e+003, 2.275445e+001
1.228753e+003, 2.265887e+001
1.229235e+003, 2.246869e+001
1.229717e+003, 2.238619e+001
1.230199e+003, 2.276370e+001
1.230681e+003, 2.326382e+001
1.231163e+003, 2.321115e+001
1.231645e+003, 2.262259e+001
1.232127e+003, 2.232876e+001
1.232610e+003, 2.244203e+001
1.233092e+003, 2.249813e+001
1.233574e+003, 2.243806e+001
1.234056e+003, 2.247443e+001
1.234538e+003, 2.270109e+001
1.235020e+003, 2.289857e+001
1.235502e+003, 2.289834e+001
1.235984e+003, 2.280035e+001
1.236467e+003, 2.277073e+001
1.236949e+003, 2.279470e+001
1.237431e+003, 2.283494e+001
1.237913e+003, 2.287238e+001
1.238395e+003, 2.278688e+001
1.238877e+003, 2.260381e+001
1.239359e+003, 2.248460e+001
1.239841e+003, 2.247853e+001
1.240323e+003, 2.253444e+001
1.240806e+003, 2.261157e+001
1.241288e+003, 2.278235e+001
1.241770e+003, 2.332032e+001
1.242252e+003, 2.377207e+001
1.242734e+003, 2.354922e+001
1.243216e+003, 2.308602e+001
1.243698e+003, 2.292365e+001
1.244180e+003, 2.297776e+001
1.244662e+003, 2.291425e+001
1.245145e+003, 2.269674e+001
1.245627e+003, 2.266776e+001
1.246109e+003, 2.309711e+001
1.246591e+003, 2.338663e+001
1.247073e+003, 2.333820e+001
1.247555e+003, 2.326610e+001
1.248037e+003, 2.330718e+001
1.248519e+003, 2.331823e+001
1.249002e+003, 2.316171e+001
1.249484e+003, 2.294350e+001
1.249966e+003, 2.285166e+001
1.250448e+003, 2.288289e+001
1.250930e+003, 2.303122e+001
1.251412e+003, 2.333857e+001
1.251894e+003, 2.321071e+001
1.252376e+003, 2.257875e+001
1.252859e+003, 2.221331e+001
1.253341e+003, 2.234672e+001
1.253823e+003, 2.265902e+001
1.254305e+003, 2.294059e+001
1.254787e+003, 2.319975e+001
1.255269e+003, 2.351478e+001
1.255751e+003, 2.376398e+001
1.256233e+003, 2.364435e+001
1.256715e+003, 2.333679e+001
1.257198e+003, 2.314288e+001
1.257680e+003, 2.307279e+001
1.258162e+003, 2.308146e+001
1.258644e+003, 2.313799e+001
1.259126e+003, 2.316511e+001
1.259608e+003, 2.313015e+001
1.260090e+003, 2.306242e+001
1.260572e+003, 2.289159e+001
1.261054e+003, 2.280189e+001
1.261537e+003, 2.289749e+001
1.262019e+003, 2.309216e+001
1.262501e+003, 2.340847e+001
1.262983e+003, 2.372780e+001
1.263465e+003, 2.387100e+001
1.263947e+003, 2.385116e+001
1.264429e+003, 2.376476e+001
1.264911e+003, 2.355868e+001
1.265394e+003, 2.348520e+001
1.265876e+003, 2.358740e+001
1.266358e+003, 2.362489e+001
1.266840e+003, 2.353528e+001
1.267322e+003, 2.344121e+001
1.267804e+003, 2.341177e+001
1.268286e+003, 2.338415e+001
1.268768e+003, 2.325853e+001
1.269250e+003, 2.312906e+001
1.269733e+003, 2.325187e+001
1.270215e+003, 2.352225e+001
1.270697e+003, 2.370832e+001
1.271179e+003, 2.380368e+001
1.271661e+003, 2.382713e+001
1.272143e+003, 2.379152e+001
1.272625e+003, 2.371866e+001
1.273107e+003, 2.361688e+001
1.273589e+003, 2.349404e+001
1.274072e+003, 2.325597e+001
1.274554e+003, 2.313672e+001
1.275036e+003, 2.339188e+001
1.275518e+003, 2.364666e+001
1.276000e+003, 2.359875e+001
1.276482e+003, 2.345879e+001
1.276964e+003, 2.345556e+001
1.277446e+003, 2.357682e+001
1.277929e+003, 2.375245e+001
1.278411e+003, 2.400098e+001
1.278893e+003, 2.410553e+001
1.279375e+003, 2.403020e+001
1.279857e+003, 2.393936e+001
1.280339e+003, 2.384223e+001
1.280821e+003, 2.376888e+001
1.281303e+003, 2.373059e+001
1.281786e+003, 2.373295e+001
1.282268e+003, 2.377748e+001
##END=



