##NAMES=Magnesio-fluoro-hastingsite
##RRUFFID=R141098
##IDEAL CHEMISTRY=NaCa_2_(Mg_4_Fe^3+^)(Si_6_Al_2_)O_22_F_2_
##LOCALITY=Uroi Hill (Arany Hill), Simeria, Hunedoara Co., Romania
##OWNER=RRUFF
##SOURCE=Ch. and H. Sch√§fer
##DESCRIPTION=Prismatic brown to orange-brown crystals
##STATUS=The identification of this mineral has been confirmed only by single crystal X-ray diffraction.
##URL=rruff.info/R141098
9.059570e+001, 4.576412e+003
9.107782e+001, 4.431616e+003
9.155994e+001, 4.380351e+003
9.204205e+001, 4.487619e+003
9.252417e+001, 4.644526e+003
9.300629e+001, 4.816484e+003
9.348840e+001, 4.965192e+003
9.397052e+001, 5.055792e+003
9.445264e+001, 5.071619e+003
9.493475e+001, 5.074914e+003
9.541687e+001, 5.076651e+003
9.589898e+001, 5.083757e+003
9.638110e+001, 5.092143e+003
9.686321e+001, 5.097954e+003
9.734533e+001, 5.096180e+003
9.782745e+001, 5.078713e+003
9.830956e+001, 5.064956e+003
9.879168e+001, 5.056249e+003
9.927380e+001, 5.050910e+003
9.975591e+001, 5.047759e+003
1.002380e+002, 5.046251e+003
1.007201e+002, 5.046465e+003
1.012023e+002, 5.048604e+003
1.016844e+002, 5.052335e+003
1.021665e+002, 5.055700e+003
1.026486e+002, 5.058146e+003
1.031307e+002, 5.059932e+003
1.036128e+002, 5.060692e+003
1.040950e+002, 5.059818e+003
1.045771e+002, 5.059642e+003
1.050592e+002, 5.059632e+003
1.055413e+002, 5.059943e+003
1.060234e+002, 5.061515e+003
1.065055e+002, 5.064884e+003
1.069877e+002, 5.069596e+003
1.074698e+002, 5.074394e+003
1.079519e+002, 5.079555e+003
1.084340e+002, 5.083769e+003
1.089161e+002, 5.086847e+003
1.093982e+002, 5.088544e+003
1.098804e+002, 5.088354e+003
1.103625e+002, 5.084949e+003
1.108446e+002, 5.076942e+003
1.113267e+002, 5.072751e+003
1.118088e+002, 5.074730e+003
1.122909e+002, 5.078133e+003
1.127731e+002, 5.081259e+003
1.132552e+002, 5.083600e+003
1.137373e+002, 5.085250e+003
1.142194e+002, 5.086192e+003
1.147015e+002, 5.084772e+003
1.151836e+002, 5.085863e+003
1.156658e+002, 5.092007e+003
1.161479e+002, 5.099375e+003
1.166300e+002, 5.104167e+003
1.171121e+002, 5.104985e+003
1.175942e+002, 5.103195e+003
1.180763e+002, 5.101722e+003
1.185584e+002, 5.100452e+003
1.190406e+002, 5.099534e+003
1.195227e+002, 5.099665e+003
1.200048e+002, 5.100275e+003
1.204869e+002, 5.099502e+003
1.209690e+002, 5.095485e+003
1.214511e+002, 5.090397e+003
1.219333e+002, 5.088515e+003
1.224154e+002, 5.090907e+003
1.228975e+002, 5.094538e+003
1.233796e+002, 5.097608e+003
1.238617e+002, 5.100317e+003
1.243438e+002, 5.100576e+003
1.248260e+002, 5.094729e+003
1.253081e+002, 5.086729e+003
1.257902e+002, 5.079971e+003
1.262723e+002, 5.075850e+003
1.267544e+002, 5.073383e+003
1.272365e+002, 5.070503e+003
1.277187e+002, 5.067083e+003
1.282008e+002, 5.063396e+003
1.286829e+002, 5.059531e+003
1.291650e+002, 5.055519e+003
1.296471e+002, 5.051500e+003
1.301292e+002, 5.047685e+003
1.306114e+002, 5.044000e+003
1.310935e+002, 5.039100e+003
1.315756e+002, 5.029664e+003
1.320577e+002, 5.022212e+003
1.325398e+002, 5.019281e+003
1.330219e+002, 5.019916e+003
1.335041e+002, 5.021591e+003
1.339862e+002, 5.022150e+003
1.344683e+002, 5.021400e+003
1.349504e+002, 5.020739e+003
1.354325e+002, 5.019736e+003
1.359146e+002, 5.019123e+003
1.363968e+002, 5.019385e+003
1.368789e+002, 5.020535e+003
1.373610e+002, 5.022193e+003
1.378431e+002, 5.024003e+003
1.383252e+002, 5.026025e+003
1.388073e+002, 5.027821e+003
1.392895e+002, 5.029233e+003
1.397716e+002, 5.030447e+003
1.402537e+002, 5.031909e+003
1.407358e+002, 5.033877e+003
1.412179e+002, 5.035404e+003
1.417000e+002, 5.034423e+003
1.421821e+002, 5.031138e+003
1.426643e+002, 5.029084e+003
1.431464e+002, 5.030790e+003
1.436285e+002, 5.035155e+003
1.441106e+002, 5.038244e+003
1.445927e+002, 5.039171e+003
1.450748e+002, 5.038404e+003
1.455570e+002, 5.035920e+003
1.460391e+002, 5.031781e+003
1.465212e+002, 5.028319e+003
1.470033e+002, 5.028111e+003
1.474854e+002, 5.031581e+003
1.479675e+002, 5.034162e+003
1.484497e+002, 5.034445e+003
1.489318e+002, 5.033892e+003
1.494139e+002, 5.032744e+003
1.498960e+002, 5.031162e+003
1.503781e+002, 5.030005e+003
1.508602e+002, 5.030838e+003
1.513424e+002, 5.035085e+003
1.518245e+002, 5.038242e+003
1.523066e+002, 5.038468e+003
1.527887e+002, 5.038447e+003
1.532708e+002, 5.040687e+003
1.537529e+002, 5.046051e+003
1.542351e+002, 5.053075e+003
1.547172e+002, 5.058051e+003
1.551993e+002, 5.058072e+003
1.556814e+002, 5.059400e+003
1.561635e+002, 5.062923e+003
1.566456e+002, 5.067719e+003
1.571278e+002, 5.072825e+003
1.576099e+002, 5.077804e+003
1.580920e+002, 5.082539e+003
1.585741e+002, 5.086477e+003
1.590562e+002, 5.088698e+003
1.595383e+002, 5.091229e+003
1.600205e+002, 5.095233e+003
1.605026e+002, 5.099947e+003
1.609847e+002, 5.103604e+003
1.614668e+002, 5.105089e+003
1.619489e+002, 5.104686e+003
1.624310e+002, 5.104132e+003
1.629131e+002, 5.103567e+003
1.633953e+002, 5.102753e+003
1.638774e+002, 5.101708e+003
1.643595e+002, 5.100399e+003
1.648416e+002, 5.098436e+003
1.653237e+002, 5.095185e+003
1.658058e+002, 5.091175e+003
1.662880e+002, 5.087624e+003
1.667701e+002, 5.084421e+003
1.672522e+002, 5.081901e+003
1.677343e+002, 5.081110e+003
1.682164e+002, 5.082663e+003
1.686985e+002, 5.083046e+003
1.691807e+002, 5.077694e+003
1.696628e+002, 5.070497e+003
1.701449e+002, 5.066487e+003
1.706270e+002, 5.068649e+003
1.711091e+002, 5.074519e+003
1.715912e+002, 5.078400e+003
1.720734e+002, 5.079306e+003
1.725555e+002, 5.079925e+003
1.730376e+002, 5.081378e+003
1.735197e+002, 5.083291e+003
1.740018e+002, 5.085049e+003
1.744839e+002, 5.086091e+003
1.749661e+002, 5.086727e+003
1.754482e+002, 5.088842e+003
1.759303e+002, 5.093983e+003
1.764124e+002, 5.099044e+003
1.768945e+002, 5.103607e+003
1.773766e+002, 5.107493e+003
1.778588e+002, 5.110312e+003
1.783409e+002, 5.111558e+003
1.788230e+002, 5.111212e+003
1.793051e+002, 5.112567e+003
1.797872e+002, 5.116022e+003
1.802693e+002, 5.120724e+003
1.807515e+002, 5.128393e+003
1.812336e+002, 5.137417e+003
1.817157e+002, 5.144109e+003
1.821978e+002, 5.145159e+003
1.826799e+002, 5.139946e+003
1.831620e+002, 5.134437e+003
1.836441e+002, 5.128826e+003
1.841263e+002, 5.122788e+003
1.846084e+002, 5.116127e+003
1.850905e+002, 5.108867e+003
1.855726e+002, 5.101091e+003
1.860547e+002, 5.092693e+003
1.865368e+002, 5.083508e+003
1.870190e+002, 5.075982e+003
1.875011e+002, 5.070872e+003
1.879832e+002, 5.066872e+003
1.884653e+002, 5.063517e+003
1.889474e+002, 5.060702e+003
1.894296e+002, 5.057514e+003
1.899117e+002, 5.052882e+003
1.903938e+002, 5.046858e+003
1.908759e+002, 5.040993e+003
1.913580e+002, 5.034084e+003
1.918401e+002, 5.028080e+003
1.923223e+002, 5.026252e+003
1.928044e+002, 5.029762e+003
1.932865e+002, 5.033256e+003
1.937686e+002, 5.029476e+003
1.942507e+002, 5.020837e+003
1.947328e+002, 5.015032e+003
1.952150e+002, 5.017153e+003
1.956971e+002, 5.023217e+003
1.961792e+002, 5.024803e+003
1.966613e+002, 5.019419e+003
1.971434e+002, 5.013486e+003
1.976255e+002, 5.012694e+003
1.981077e+002, 5.015241e+003
1.985898e+002, 5.016588e+003
1.990719e+002, 5.012665e+003
1.995540e+002, 5.005162e+003
2.000361e+002, 5.001643e+003
2.005182e+002, 5.004329e+003
2.010004e+002, 5.008441e+003
2.014825e+002, 5.011642e+003
2.019646e+002, 5.014088e+003
2.024467e+002, 5.016224e+003
2.029288e+002, 5.018576e+003
2.034109e+002, 5.021088e+003
2.038930e+002, 5.022333e+003
2.043752e+002, 5.020037e+003
2.048573e+002, 5.018921e+003
2.053394e+002, 5.021929e+003
2.058215e+002, 5.027703e+003
2.063036e+002, 5.032893e+003
2.067857e+002, 5.034531e+003
2.072679e+002, 5.032408e+003
2.077500e+002, 5.030901e+003
2.082321e+002, 5.028827e+003
2.087142e+002, 5.028524e+003
2.091963e+002, 5.031901e+003
2.096784e+002, 5.037945e+003
2.101606e+002, 5.043963e+003
2.106427e+002, 5.047350e+003
2.111248e+002, 5.047542e+003
2.116069e+002, 5.049834e+003
2.120890e+002, 5.056145e+003
2.125711e+002, 5.062524e+003
2.130533e+002, 5.067601e+003
2.135354e+002, 5.071342e+003
2.140175e+002, 5.074289e+003
2.144996e+002, 5.076774e+003
2.149817e+002, 5.078563e+003
2.154638e+002, 5.081753e+003
2.159460e+002, 5.087605e+003
2.164281e+002, 5.093435e+003
2.169102e+002, 5.097539e+003
2.173923e+002, 5.100179e+003
2.178744e+002, 5.103151e+003
2.183565e+002, 5.108268e+003
2.188387e+002, 5.115929e+003
2.193208e+002, 5.121833e+003
2.198029e+002, 5.124628e+003
2.202850e+002, 5.127007e+003
2.207671e+002, 5.130470e+003
2.212492e+002, 5.135097e+003
2.217314e+002, 5.140369e+003
2.222135e+002, 5.146123e+003
2.226956e+002, 5.152325e+003
2.231777e+002, 5.157110e+003
2.236598e+002, 5.159478e+003
2.241419e+002, 5.161184e+003
2.246240e+002, 5.163219e+003
2.251062e+002, 5.165701e+003
2.255883e+002, 5.168993e+003
2.260704e+002, 5.174367e+003
2.265525e+002, 5.181116e+003
2.270346e+002, 5.184564e+003
2.275167e+002, 5.182251e+003
2.279989e+002, 5.177873e+003
2.284810e+002, 5.175036e+003
2.289631e+002, 5.173986e+003
2.294452e+002, 5.172183e+003
2.299273e+002, 5.166965e+003
2.304094e+002, 5.159557e+003
2.308916e+002, 5.153359e+003
2.313737e+002, 5.148942e+003
2.318558e+002, 5.145981e+003
2.323379e+002, 5.145001e+003
2.328200e+002, 5.146470e+003
2.333021e+002, 5.146603e+003
2.337843e+002, 5.141384e+003
2.342664e+002, 5.133480e+003
2.347485e+002, 5.126770e+003
2.352306e+002, 5.121869e+003
2.357127e+002, 5.118866e+003
2.361948e+002, 5.118746e+003
2.366770e+002, 5.122482e+003
2.371591e+002, 5.125030e+003
2.376412e+002, 5.123469e+003
2.381233e+002, 5.119370e+003
2.386054e+002, 5.113852e+003
2.390875e+002, 5.106656e+003
2.395697e+002, 5.099065e+003
2.400518e+002, 5.093399e+003
2.405339e+002, 5.090300e+003
2.410160e+002, 5.087008e+003
2.414981e+002, 5.081683e+003
2.419802e+002, 5.075959e+003
2.424624e+002, 5.071343e+003
2.429445e+002, 5.068354e+003
2.434266e+002, 5.066669e+003
2.439087e+002, 5.065939e+003
2.443908e+002, 5.066524e+003
2.448729e+002, 5.067046e+003
2.453550e+002, 5.067835e+003
2.458372e+002, 5.068033e+003
2.463193e+002, 5.066514e+003
2.468014e+002, 5.062806e+003
2.472835e+002, 5.058251e+003
2.477656e+002, 5.055244e+003
2.482477e+002, 5.054595e+003
2.487299e+002, 5.053565e+003
2.492120e+002, 5.051489e+003
2.496941e+002, 5.049017e+003
2.501762e+002, 5.047085e+003
2.506583e+002, 5.045903e+003
2.511404e+002, 5.044134e+003
2.516226e+002, 5.039122e+003
2.521047e+002, 5.028880e+003
2.525868e+002, 5.019971e+003
2.530689e+002, 5.012651e+003
2.535510e+002, 5.006870e+003
2.540331e+002, 5.003082e+003
2.545153e+002, 5.001237e+003
2.549974e+002, 5.000160e+003
2.554795e+002, 4.997975e+003
2.559616e+002, 4.993970e+003
2.564437e+002, 4.990442e+003
2.569258e+002, 4.987263e+003
2.574080e+002, 4.984615e+003
2.578901e+002, 4.982979e+003
2.583722e+002, 4.982267e+003
2.588543e+002, 4.981577e+003
2.593364e+002, 4.979541e+003
2.598185e+002, 4.975116e+003
2.603007e+002, 4.972012e+003
2.607828e+002, 4.971923e+003
2.612649e+002, 4.971548e+003
2.617470e+002, 4.968372e+003
2.622291e+002, 4.962418e+003
2.627112e+002, 4.955880e+003
2.631934e+002, 4.951204e+003
2.636755e+002, 4.948753e+003
2.641576e+002, 4.947002e+003
2.646397e+002, 4.945411e+003
2.651218e+002, 4.944772e+003
2.656039e+002, 4.946599e+003
2.660861e+002, 4.950243e+003
2.665682e+002, 4.952963e+003
2.670503e+002, 4.951757e+003
2.675324e+002, 4.945607e+003
2.680145e+002, 4.942097e+003
2.684966e+002, 4.943561e+003
2.689788e+002, 4.944978e+003
2.694609e+002, 4.943051e+003
2.699430e+002, 4.938558e+003
2.704251e+002, 4.934986e+003
2.709072e+002, 4.935412e+003
2.713893e+002, 4.940029e+003
2.718715e+002, 4.942896e+003
2.723536e+002, 4.943224e+003
2.728357e+002, 4.942989e+003
2.733178e+002, 4.942911e+003
2.737999e+002, 4.942948e+003
2.742820e+002, 4.942743e+003
2.747642e+002, 4.941983e+003
2.752463e+002, 4.940748e+003
2.757284e+002, 4.940125e+003
2.762105e+002, 4.939587e+003
2.766926e+002, 4.940011e+003
2.771747e+002, 4.942333e+003
2.776568e+002, 4.945849e+003
2.781389e+002, 4.949250e+003
2.786211e+002, 4.952019e+003
2.791032e+002, 4.953873e+003
2.795853e+002, 4.953340e+003
2.800674e+002, 4.946404e+003
2.805495e+002, 4.942237e+003
2.810316e+002, 4.945718e+003
2.815138e+002, 4.953225e+003
2.819959e+002, 4.958078e+003
2.824780e+002, 4.957176e+003
2.829601e+002, 4.952831e+003
2.834422e+002, 4.950955e+003
2.839243e+002, 4.952557e+003
2.844065e+002, 4.954284e+003
2.848886e+002, 4.955643e+003
2.853707e+002, 4.956697e+003
2.858528e+002, 4.957005e+003
2.863349e+002, 4.956204e+003
2.868170e+002, 4.956017e+003
2.872992e+002, 4.959955e+003
2.877813e+002, 4.969391e+003
2.882634e+002, 4.977783e+003
2.887455e+002, 4.983253e+003
2.892276e+002, 4.987459e+003
2.897097e+002, 4.992671e+003
2.901919e+002, 4.999462e+003
2.906740e+002, 5.006032e+003
2.911561e+002, 5.010129e+003
2.916382e+002, 5.011467e+003
2.921203e+002, 5.012177e+003
2.926024e+002, 5.012215e+003
2.930846e+002, 5.011839e+003
2.935667e+002, 5.011059e+003
2.940488e+002, 5.009890e+003
2.945309e+002, 5.009028e+003
2.950130e+002, 5.009316e+003
2.954951e+002, 5.010754e+003
2.959773e+002, 5.011469e+003
2.964594e+002, 5.011099e+003
2.969415e+002, 5.010167e+003
2.974236e+002, 5.008926e+003
2.979057e+002, 5.007415e+003
2.983878e+002, 5.005731e+003
2.988700e+002, 5.003638e+003
2.993521e+002, 5.001433e+003
2.998342e+002, 5.000592e+003
3.003163e+002, 5.002823e+003
3.007984e+002, 5.004820e+003
3.012805e+002, 5.004571e+003
3.017627e+002, 5.002358e+003
3.022448e+002, 4.999481e+003
3.027269e+002, 4.996368e+003
3.032090e+002, 4.993225e+003
3.036911e+002, 4.990695e+003
3.041732e+002, 4.989535e+003
3.046554e+002, 4.987771e+003
3.051375e+002, 4.983946e+003
3.056196e+002, 4.978840e+003
3.061017e+002, 4.974421e+003
3.065838e+002, 4.971454e+003
3.070659e+002, 4.969549e+003
3.075481e+002, 4.967950e+003
3.080302e+002, 4.966447e+003
3.085123e+002, 4.965830e+003
3.089944e+002, 4.967325e+003
3.094765e+002, 4.969685e+003
3.099586e+002, 4.970610e+003
3.104408e+002, 4.969370e+003
3.109229e+002, 4.967199e+003
3.114050e+002, 4.965251e+003
3.118871e+002, 4.963360e+003
3.123692e+002, 4.963125e+003
3.128513e+002, 4.965864e+003
3.133335e+002, 4.969930e+003
3.138156e+002, 4.973628e+003
3.142977e+002, 4.976711e+003
3.147798e+002, 4.979087e+003
3.152619e+002, 4.980524e+003
3.157440e+002, 4.981027e+003
3.162262e+002, 4.981277e+003
3.167083e+002, 4.981100e+003
3.171904e+002, 4.980830e+003
3.176725e+002, 4.980407e+003
3.181546e+002, 4.979921e+003
3.186367e+002, 4.980393e+003
3.191188e+002, 4.982931e+003
3.196010e+002, 4.986981e+003
3.200831e+002, 4.989732e+003
3.205652e+002, 4.989233e+003
3.210473e+002, 4.989428e+003
3.215294e+002, 4.993172e+003
3.220115e+002, 4.999599e+003
3.224937e+002, 5.005797e+003
3.229758e+002, 5.010566e+003
3.234579e+002, 5.014065e+003
3.239400e+002, 5.016437e+003
3.244221e+002, 5.016931e+003
3.249042e+002, 5.018152e+003
3.253864e+002, 5.021814e+003
3.258685e+002, 5.026743e+003
3.263506e+002, 5.030558e+003
3.268327e+002, 5.032359e+003
3.273148e+002, 5.033510e+003
3.277969e+002, 5.036502e+003
3.282791e+002, 5.041885e+003
3.287612e+002, 5.045771e+003
3.292433e+002, 5.046036e+003
3.297254e+002, 5.045083e+003
3.302075e+002, 5.045672e+003
3.306896e+002, 5.048281e+003
3.311718e+002, 5.051797e+003
3.316539e+002, 5.055003e+003
3.321360e+002, 5.057880e+003
3.326181e+002, 5.062317e+003
3.331002e+002, 5.069354e+003
3.335823e+002, 5.077188e+003
3.340645e+002, 5.084599e+003
3.345466e+002, 5.091525e+003
3.350287e+002, 5.098612e+003
3.355108e+002, 5.106424e+003
3.359929e+002, 5.114731e+003
3.364750e+002, 5.121839e+003
3.369572e+002, 5.128403e+003
3.374393e+002, 5.133305e+003
3.379214e+002, 5.134915e+003
3.384035e+002, 5.134452e+003
3.388856e+002, 5.134937e+003
3.393677e+002, 5.137927e+003
3.398499e+002, 5.142306e+003
3.403320e+002, 5.145004e+003
3.408141e+002, 5.145199e+003
3.412962e+002, 5.145459e+003
3.417783e+002, 5.146780e+003
3.422604e+002, 5.148241e+003
3.427426e+002, 5.148768e+003
3.432247e+002, 5.148062e+003
3.437068e+002, 5.146144e+003
3.441889e+002, 5.142755e+003
3.446710e+002, 5.136735e+003
3.451531e+002, 5.132945e+003
3.456353e+002, 5.132977e+003
3.461174e+002, 5.134225e+003
3.465995e+002, 5.135565e+003
3.470816e+002, 5.136503e+003
3.475637e+002, 5.135682e+003
3.480458e+002, 5.131558e+003
3.485280e+002, 5.123890e+003
3.490101e+002, 5.117863e+003
3.494922e+002, 5.114592e+003
3.499743e+002, 5.111564e+003
3.504564e+002, 5.107873e+003
3.509385e+002, 5.103634e+003
3.514207e+002, 5.099317e+003
3.519028e+002, 5.095271e+003
3.523849e+002, 5.091271e+003
3.528670e+002, 5.086244e+003
3.533491e+002, 5.077636e+003
3.538312e+002, 5.071200e+003
3.543134e+002, 5.069222e+003
3.547955e+002, 5.069170e+003
3.552776e+002, 5.068320e+003
3.557597e+002, 5.065693e+003
3.562418e+002, 5.061680e+003
3.567239e+002, 5.056921e+003
3.572061e+002, 5.051545e+003
3.576882e+002, 5.044929e+003
3.581703e+002, 5.034850e+003
3.586524e+002, 5.025253e+003
3.591345e+002, 5.019677e+003
3.596166e+002, 5.017814e+003
3.600987e+002, 5.016200e+003
3.605808e+002, 5.011213e+003
3.610630e+002, 5.002289e+003
3.615451e+002, 4.995305e+003
3.620272e+002, 4.992094e+003
3.625093e+002, 4.988776e+003
3.629914e+002, 4.984092e+003
3.634735e+002, 4.978325e+003
3.639557e+002, 4.972227e+003
3.644378e+002, 4.966204e+003
3.649199e+002, 4.960320e+003
3.654020e+002, 4.954862e+003
3.658841e+002, 4.950359e+003
3.663662e+002, 4.945606e+003
3.668484e+002, 4.939401e+003
3.673305e+002, 4.933462e+003
3.678126e+002, 4.930078e+003
3.682947e+002, 4.929817e+003
3.687768e+002, 4.930349e+003
3.692589e+002, 4.927993e+003
3.697411e+002, 4.921897e+003
3.702232e+002, 4.915120e+003
3.707053e+002, 4.907124e+003
3.711874e+002, 4.899033e+003
3.716695e+002, 4.891126e+003
3.721516e+002, 4.883583e+003
3.726338e+002, 4.876507e+003
3.731159e+002, 4.869942e+003
3.735980e+002, 4.863901e+003
3.740801e+002, 4.858875e+003
3.745622e+002, 4.855300e+003
3.750443e+002, 4.852270e+003
3.755265e+002, 4.849761e+003
3.760086e+002, 4.847486e+003
3.764907e+002, 4.845146e+003
3.769728e+002, 4.842658e+003
3.774549e+002, 4.839820e+003
3.779370e+002, 4.835833e+003
3.784192e+002, 4.829862e+003
3.789013e+002, 4.825147e+003
3.793834e+002, 4.824027e+003
3.798655e+002, 4.823626e+003
3.803476e+002, 4.821579e+003
3.808297e+002, 4.817438e+003
3.813119e+002, 4.812856e+003
3.817940e+002, 4.809582e+003
3.822761e+002, 4.807587e+003
3.827582e+002, 4.805346e+003
3.832403e+002, 4.802203e+003
3.837224e+002, 4.799383e+003
3.842046e+002, 4.798164e+003
3.846867e+002, 4.798051e+003
3.851688e+002, 4.797212e+003
3.856509e+002, 4.794830e+003
3.861330e+002, 4.791017e+003
3.866151e+002, 4.785524e+003
3.870973e+002, 4.777748e+003
3.875794e+002, 4.770451e+003
3.880615e+002, 4.765847e+003
3.885436e+002, 4.762481e+003
3.890257e+002, 4.758126e+003
3.895078e+002, 4.751477e+003
3.899900e+002, 4.745317e+003
3.904721e+002, 4.742586e+003
3.909542e+002, 4.742853e+003
3.914363e+002, 4.742908e+003
3.919184e+002, 4.741548e+003
3.924005e+002, 4.739718e+003
3.928827e+002, 4.739140e+003
3.933648e+002, 4.740039e+003
3.938469e+002, 4.739657e+003
3.943290e+002, 4.735850e+003
3.948111e+002, 4.730474e+003
3.952932e+002, 4.726765e+003
3.957754e+002, 4.725313e+003
3.962575e+002, 4.724017e+003
3.967396e+002, 4.721059e+003
3.972217e+002, 4.716509e+003
3.977038e+002, 4.711767e+003
3.981859e+002, 4.706072e+003
3.986681e+002, 4.700893e+003
3.991501e+002, 4.696809e+003
3.996323e+002, 4.693961e+003
4.001144e+002, 4.693133e+003
4.005965e+002, 4.695202e+003
4.010786e+002, 4.698729e+003
4.015607e+002, 4.699375e+003
4.020428e+002, 4.695575e+003
4.025250e+002, 4.692089e+003
4.030071e+002, 4.689489e+003
4.034892e+002, 4.687703e+003
4.039713e+002, 4.687202e+003
4.044534e+002, 4.687943e+003
4.049355e+002, 4.688323e+003
4.054177e+002, 4.686229e+003
4.058998e+002, 4.680833e+003
4.063819e+002, 4.677234e+003
4.068640e+002, 4.676979e+003
4.073461e+002, 4.676836e+003
4.078282e+002, 4.675210e+003
4.083104e+002, 4.672374e+003
4.087925e+002, 4.669228e+003
4.092746e+002, 4.666237e+003
4.097567e+002, 4.663541e+003
4.102388e+002, 4.661713e+003
4.107209e+002, 4.662122e+003
4.112031e+002, 4.661640e+003
4.116852e+002, 4.659136e+003
4.121673e+002, 4.656124e+003
4.126494e+002, 4.654287e+003
4.131315e+002, 4.653955e+003
4.136136e+002, 4.653867e+003
4.140958e+002, 4.652398e+003
4.145779e+002, 4.649389e+003
4.150600e+002, 4.645598e+003
4.155421e+002, 4.640693e+003
4.160242e+002, 4.635314e+003
4.165063e+002, 4.628951e+003
4.169885e+002, 4.622271e+003
4.174706e+002, 4.616746e+003
4.179527e+002, 4.613256e+003
4.184348e+002, 4.611609e+003
4.189169e+002, 4.611267e+003
4.193990e+002, 4.612813e+003
4.198812e+002, 4.614418e+003
4.203633e+002, 4.616175e+003
4.208454e+002, 4.617381e+003
4.213275e+002, 4.617341e+003
4.218096e+002, 4.615883e+003
4.222917e+002, 4.613276e+003
4.227739e+002, 4.608708e+003
4.232560e+002, 4.602381e+003
4.237381e+002, 4.599003e+003
4.242202e+002, 4.600709e+003
4.247023e+002, 4.603553e+003
4.251844e+002, 4.604882e+003
4.256666e+002, 4.604816e+003
4.261487e+002, 4.603755e+003
4.266308e+002, 4.601144e+003
4.271129e+002, 4.597947e+003
4.275950e+002, 4.595345e+003
4.280771e+002, 4.593300e+003
4.285593e+002, 4.592555e+003
4.290414e+002, 4.594313e+003
4.295235e+002, 4.597292e+003
4.300056e+002, 4.598631e+003
4.304877e+002, 4.597955e+003
4.309698e+002, 4.596548e+003
4.314520e+002, 4.595296e+003
4.319341e+002, 4.593756e+003
4.324162e+002, 4.590428e+003
4.328983e+002, 4.584688e+003
4.333804e+002, 4.579135e+003
4.338625e+002, 4.576956e+003
4.343447e+002, 4.578663e+003
4.348268e+002, 4.580294e+003
4.353089e+002, 4.582093e+003
4.357910e+002, 4.583444e+003
4.362731e+002, 4.584237e+003
4.367552e+002, 4.584264e+003
4.372374e+002, 4.582784e+003
4.377195e+002, 4.579186e+003
4.382016e+002, 4.574118e+003
4.386837e+002, 4.570143e+003
4.391658e+002, 4.568485e+003
4.396479e+002, 4.566354e+003
4.401301e+002, 4.562052e+003
4.406122e+002, 4.558082e+003
4.410943e+002, 4.558045e+003
4.415764e+002, 4.562033e+003
4.420585e+002, 4.565692e+003
4.425406e+002, 4.563625e+003
4.430227e+002, 4.554746e+003
4.435049e+002, 4.548193e+003
4.439870e+002, 4.545728e+003
4.444691e+002, 4.543857e+003
4.449512e+002, 4.541618e+003
4.454333e+002, 4.539272e+003
4.459154e+002, 4.537507e+003
4.463976e+002, 4.536772e+003
4.468797e+002, 4.536369e+003
4.473618e+002, 4.534426e+003
4.478439e+002, 4.529948e+003
4.483260e+002, 4.526883e+003
4.488081e+002, 4.526964e+003
4.492903e+002, 4.527925e+003
4.497724e+002, 4.528458e+003
4.502545e+002, 4.528458e+003
4.507366e+002, 4.528486e+003
4.512187e+002, 4.529142e+003
4.517008e+002, 4.530204e+003
4.521830e+002, 4.530792e+003
4.526651e+002, 4.530916e+003
4.531472e+002, 4.530456e+003
4.536293e+002, 4.528818e+003
4.541114e+002, 4.526652e+003
4.545935e+002, 4.524826e+003
4.550757e+002, 4.523455e+003
4.555578e+002, 4.522581e+003
4.560399e+002, 4.522640e+003
4.565220e+002, 4.523335e+003
4.570041e+002, 4.523201e+003
4.574862e+002, 4.521467e+003
4.579684e+002, 4.519533e+003
4.584505e+002, 4.519840e+003
4.589326e+002, 4.522438e+003
4.594147e+002, 4.523289e+003
4.598968e+002, 4.520177e+003
4.603789e+002, 4.516137e+003
4.608611e+002, 4.513515e+003
4.613432e+002, 4.512430e+003
4.618253e+002, 4.512658e+003
4.623074e+002, 4.514536e+003
4.627895e+002, 4.517170e+003
4.632716e+002, 4.516747e+003
4.637538e+002, 4.510744e+003
4.642359e+002, 4.505236e+003
4.647180e+002, 4.500042e+003
4.652001e+002, 4.496077e+003
4.656822e+002, 4.494624e+003
4.661643e+002, 4.495732e+003
4.666465e+002, 4.498058e+003
4.671286e+002, 4.500268e+003
4.676107e+002, 4.502425e+003
4.680928e+002, 4.503787e+003
4.685749e+002, 4.503878e+003
4.690570e+002, 4.503594e+003
4.695392e+002, 4.502351e+003
4.700213e+002, 4.501073e+003
4.705034e+002, 4.501578e+003
4.709855e+002, 4.504771e+003
4.714676e+002, 4.508380e+003
4.719497e+002, 4.508220e+003
4.724319e+002, 4.503593e+003
4.729140e+002, 4.498282e+003
4.733961e+002, 4.490803e+003
4.738782e+002, 4.484626e+003
4.743603e+002, 4.482712e+003
4.748424e+002, 4.484222e+003
4.753246e+002, 4.485356e+003
4.758067e+002, 4.483862e+003
4.762888e+002, 4.480513e+003
4.767709e+002, 4.476625e+003
4.772530e+002, 4.472055e+003
4.777351e+002, 4.467976e+003
4.782173e+002, 4.464588e+003
4.786994e+002, 4.462295e+003
4.791815e+002, 4.461802e+003
4.796636e+002, 4.463604e+003
4.801457e+002, 4.465459e+003
4.806278e+002, 4.466683e+003
4.811100e+002, 4.467070e+003
4.815920e+002, 4.466061e+003
4.820742e+002, 4.463510e+003
4.825563e+002, 4.460285e+003
4.830384e+002, 4.456940e+003
4.835205e+002, 4.453503e+003
4.840026e+002, 4.450591e+003
4.844847e+002, 4.447788e+003
4.849669e+002, 4.445885e+003
4.854490e+002, 4.446161e+003
4.859311e+002, 4.447335e+003
4.864132e+002, 4.446930e+003
4.868953e+002, 4.444034e+003
4.873774e+002, 4.440290e+003
4.878596e+002, 4.438646e+003
4.883417e+002, 4.440886e+003
4.888238e+002, 4.440208e+003
4.893059e+002, 4.433289e+003
4.897880e+002, 4.427143e+003
4.902701e+002, 4.425991e+003
4.907523e+002, 4.428378e+003
4.912344e+002, 4.430564e+003
4.917165e+002, 4.430334e+003
4.921986e+002, 4.428341e+003
4.926807e+002, 4.426253e+003
4.931628e+002, 4.424040e+003
4.936450e+002, 4.421880e+003
4.941271e+002, 4.419623e+003
4.946092e+002, 4.417604e+003
4.950913e+002, 4.416271e+003
4.955734e+002, 4.415547e+003
4.960555e+002, 4.414654e+003
4.965377e+002, 4.413101e+003
4.970198e+002, 4.410972e+003
4.975019e+002, 4.408510e+003
4.979840e+002, 4.405733e+003
4.984661e+002, 4.402441e+003
4.989482e+002, 4.397554e+003
4.994304e+002, 4.392438e+003
4.999125e+002, 4.389917e+003
5.003946e+002, 4.391339e+003
5.008767e+002, 4.392381e+003
5.013588e+002, 4.390121e+003
5.018409e+002, 4.386248e+003
5.023231e+002, 4.384104e+003
5.028052e+002, 4.384409e+003
5.032873e+002, 4.384665e+003
5.037694e+002, 4.382408e+003
5.042515e+002, 4.377511e+003
5.047336e+002, 4.373146e+003
5.052158e+002, 4.368649e+003
5.056979e+002, 4.365352e+003
5.061800e+002, 4.364289e+003
5.066621e+002, 4.364551e+003
5.071442e+002, 4.364883e+003
5.076263e+002, 4.364810e+003
5.081085e+002, 4.364515e+003
5.085906e+002, 4.364295e+003
5.090727e+002, 4.364220e+003
5.095548e+002, 4.363906e+003
5.100369e+002, 4.363370e+003
5.105190e+002, 4.362541e+003
5.110012e+002, 4.361265e+003
5.114833e+002, 4.359675e+003
5.119654e+002, 4.357912e+003
5.124475e+002, 4.355933e+003
5.129296e+002, 4.354171e+003
5.134117e+002, 4.353599e+003
5.138939e+002, 4.354407e+003
5.143760e+002, 4.355017e+003
5.148581e+002, 4.355525e+003
5.153402e+002, 4.355250e+003
5.158223e+002, 4.353153e+003
5.163044e+002, 4.349590e+003
5.167866e+002, 4.346834e+003
5.172687e+002, 4.346749e+003
5.177508e+002, 4.347468e+003
5.182329e+002, 4.346052e+003
5.187150e+002, 4.342707e+003
5.191971e+002, 4.340708e+003
5.196793e+002, 4.342019e+003
5.201614e+002, 4.345109e+003
5.206435e+002, 4.346640e+003
5.211256e+002, 4.346755e+003
5.216077e+002, 4.345389e+003
5.220898e+002, 4.341716e+003
5.225720e+002, 4.337115e+003
5.230541e+002, 4.332030e+003
5.235362e+002, 4.327006e+003
5.240183e+002, 4.323557e+003
5.245004e+002, 4.322933e+003
5.249825e+002, 4.324614e+003
5.254647e+002, 4.325924e+003
5.259468e+002, 4.326595e+003
5.264289e+002, 4.327260e+003
5.269110e+002, 4.327724e+003
5.273931e+002, 4.328392e+003
5.278752e+002, 4.329694e+003
5.283574e+002, 4.331616e+003
5.288395e+002, 4.333772e+003
5.293216e+002, 4.336282e+003
5.298037e+002, 4.338810e+003
5.302858e+002, 4.338890e+003
5.307679e+002, 4.335249e+003
5.312501e+002, 4.332116e+003
5.317322e+002, 4.332038e+003
5.322143e+002, 4.333046e+003
5.326964e+002, 4.332903e+003
5.331785e+002, 4.331034e+003
5.336606e+002, 4.329728e+003
5.341428e+002, 4.331284e+003
5.346249e+002, 4.334305e+003
5.351070e+002, 4.335413e+003
5.355891e+002, 4.334015e+003
5.360712e+002, 4.332941e+003
5.365533e+002, 4.334705e+003
5.370355e+002, 4.338661e+003
5.375176e+002, 4.340673e+003
5.379997e+002, 4.339166e+003
5.384818e+002, 4.337843e+003
5.389639e+002, 4.337845e+003
5.394460e+002, 4.338563e+003
5.399282e+002, 4.339742e+003
5.404103e+002, 4.341100e+003
5.408924e+002, 4.341459e+003
5.413745e+002, 4.339484e+003
5.418566e+002, 4.335114e+003
5.423387e+002, 4.330439e+003
5.428209e+002, 4.323046e+003
5.433029e+002, 4.318399e+003
5.437850e+002, 4.319179e+003
5.442672e+002, 4.322499e+003
5.447493e+002, 4.325319e+003
5.452314e+002, 4.326787e+003
5.457135e+002, 4.327628e+003
5.461956e+002, 4.328777e+003
5.466777e+002, 4.330135e+003
5.471599e+002, 4.330560e+003
5.476420e+002, 4.330214e+003
5.481241e+002, 4.328476e+003
5.486062e+002, 4.322630e+003
5.490883e+002, 4.315628e+003
5.495704e+002, 4.312739e+003
5.500526e+002, 4.316599e+003
5.505347e+002, 4.320926e+003
5.510168e+002, 4.321358e+003
5.514989e+002, 4.319503e+003
5.519810e+002, 4.318978e+003
5.524631e+002, 4.320571e+003
5.529453e+002, 4.322053e+003
5.534274e+002, 4.321205e+003
5.539095e+002, 4.317998e+003
5.543916e+002, 4.315528e+003
5.548737e+002, 4.314167e+003
5.553558e+002, 4.312951e+003
5.558380e+002, 4.312235e+003
5.563201e+002, 4.311217e+003
5.568022e+002, 4.308279e+003
5.572843e+002, 4.303311e+003
5.577664e+002, 4.298790e+003
5.582485e+002, 4.297991e+003
5.587307e+002, 4.301116e+003
5.592128e+002, 4.302296e+003
5.596949e+002, 4.300003e+003
5.601770e+002, 4.297915e+003
5.606591e+002, 4.298212e+003
5.611412e+002, 4.298978e+003
5.616234e+002, 4.297560e+003
5.621055e+002, 4.293128e+003
5.625876e+002, 4.288392e+003
5.630697e+002, 4.285849e+003
5.635518e+002, 4.284917e+003
5.640339e+002, 4.283507e+003
5.645161e+002, 4.281211e+003
5.649982e+002, 4.279307e+003
5.654803e+002, 4.278918e+003
5.659624e+002, 4.279698e+003
5.664445e+002, 4.279979e+003
5.669266e+002, 4.280080e+003
5.674088e+002, 4.279239e+003
5.678909e+002, 4.275826e+003
5.683730e+002, 4.271971e+003
5.688551e+002, 4.271369e+003
5.693372e+002, 4.274115e+003
5.698193e+002, 4.275645e+003
5.703015e+002, 4.271128e+003
5.707836e+002, 4.261072e+003
5.712657e+002, 4.255799e+003
5.717478e+002, 4.260441e+003
5.722299e+002, 4.263048e+003
5.727120e+002, 4.260802e+003
5.731942e+002, 4.256406e+003
5.736763e+002, 4.252027e+003
5.741584e+002, 4.248157e+003
5.746405e+002, 4.244665e+003
5.751226e+002, 4.241253e+003
5.756047e+002, 4.238085e+003
5.760869e+002, 4.236186e+003
5.765690e+002, 4.235998e+003
5.770511e+002, 4.235115e+003
5.775332e+002, 4.231610e+003
5.780153e+002, 4.227205e+003
5.784974e+002, 4.224633e+003
5.789796e+002, 4.224147e+003
5.794617e+002, 4.224563e+003
5.799438e+002, 4.227416e+003
5.804259e+002, 4.229782e+003
5.809080e+002, 4.227786e+003
5.813901e+002, 4.221629e+003
5.818723e+002, 4.214200e+003
5.823544e+002, 4.206958e+003
5.828365e+002, 4.200511e+003
5.833186e+002, 4.196944e+003
5.838007e+002, 4.199555e+003
5.842828e+002, 4.200093e+003
5.847650e+002, 4.197672e+003
5.852471e+002, 4.193943e+003
5.857292e+002, 4.189639e+003
5.862113e+002, 4.185004e+003
5.866934e+002, 4.180139e+003
5.871755e+002, 4.174935e+003
5.876577e+002, 4.169863e+003
5.881398e+002, 4.166438e+003
5.886219e+002, 4.165036e+003
5.891040e+002, 4.162402e+003
5.895861e+002, 4.156002e+003
5.900682e+002, 4.150059e+003
5.905504e+002, 4.149663e+003
5.910325e+002, 4.153771e+003
5.915146e+002, 4.155577e+003
5.919967e+002, 4.151372e+003
5.924788e+002, 4.145425e+003
5.929609e+002, 4.140967e+003
5.934431e+002, 4.137772e+003
5.939252e+002, 4.134884e+003
5.944073e+002, 4.131939e+003
5.948894e+002, 4.129509e+003
5.953715e+002, 4.128454e+003
5.958536e+002, 4.129093e+003
5.963358e+002, 4.129731e+003
5.968179e+002, 4.132949e+003
5.973000e+002, 4.133349e+003
5.977821e+002, 4.126442e+003
5.982642e+002, 4.116460e+003
5.987463e+002, 4.109486e+003
5.992285e+002, 4.107549e+003
5.997106e+002, 4.107812e+003
6.001927e+002, 4.106896e+003
6.006748e+002, 4.104852e+003
6.011569e+002, 4.103649e+003
6.016390e+002, 4.104005e+003
6.021212e+002, 4.103810e+003
6.026033e+002, 4.101039e+003
6.030854e+002, 4.097174e+003
6.035675e+002, 4.094718e+003
6.040496e+002, 4.094623e+003
6.045317e+002, 4.093918e+003
6.050139e+002, 4.090718e+003
6.054960e+002, 4.086147e+003
6.059781e+002, 4.081462e+003
6.064602e+002, 4.076975e+003
6.069423e+002, 4.073394e+003
6.074244e+002, 4.071354e+003
6.079066e+002, 4.070552e+003
6.083887e+002, 4.069571e+003
6.088708e+002, 4.069022e+003
6.093529e+002, 4.067400e+003
6.098350e+002, 4.064110e+003
6.103171e+002, 4.060242e+003
6.107993e+002, 4.055906e+003
6.112814e+002, 4.051630e+003
6.117635e+002, 4.048679e+003
6.122456e+002, 4.048083e+003
6.127277e+002, 4.048903e+003
6.132098e+002, 4.049387e+003
6.136920e+002, 4.049556e+003
6.141741e+002, 4.049022e+003
6.146562e+002, 4.047778e+003
6.151383e+002, 4.045633e+003
6.156204e+002, 4.041906e+003
6.161025e+002, 4.036886e+003
6.165847e+002, 4.032406e+003
6.170668e+002, 4.028621e+003
6.175489e+002, 4.025685e+003
6.180310e+002, 4.024162e+003
6.185131e+002, 4.023478e+003
6.189952e+002, 4.022479e+003
6.194774e+002, 4.020822e+003
6.199595e+002, 4.018901e+003
6.204416e+002, 4.017066e+003
6.209237e+002, 4.015256e+003
6.214058e+002, 4.014544e+003
6.218879e+002, 4.017336e+003
6.223701e+002, 4.018246e+003
6.228522e+002, 4.016049e+003
6.233343e+002, 4.011562e+003
6.238164e+002, 4.004658e+003
6.242985e+002, 3.995708e+003
6.247806e+002, 3.987733e+003
6.252628e+002, 3.983877e+003
6.257448e+002, 3.982801e+003
6.262269e+002, 3.980861e+003
6.267090e+002, 3.977879e+003
6.271912e+002, 3.975317e+003
6.276733e+002, 3.974044e+003
6.281554e+002, 3.973366e+003
6.286375e+002, 3.971892e+003
6.291196e+002, 3.969472e+003
6.296017e+002, 3.967159e+003
6.300839e+002, 3.964384e+003
6.305660e+002, 3.962372e+003
6.310481e+002, 3.962258e+003
6.315302e+002, 3.963561e+003
6.320123e+002, 3.965313e+003
6.324944e+002, 3.967065e+003
6.329766e+002, 3.968356e+003
6.334587e+002, 3.968320e+003
6.339408e+002, 3.966745e+003
6.344229e+002, 3.964905e+003
6.349050e+002, 3.963000e+003
6.353871e+002, 3.960571e+003
6.358693e+002, 3.956955e+003
6.363514e+002, 3.952905e+003
6.368335e+002, 3.949282e+003
6.373156e+002, 3.946035e+003
6.377977e+002, 3.944500e+003
6.382798e+002, 3.947130e+003
6.387620e+002, 3.951691e+003
6.392441e+002, 3.953867e+003
6.397262e+002, 3.953204e+003
6.402083e+002, 3.951685e+003
6.406904e+002, 3.950449e+003
6.411725e+002, 3.949472e+003
6.416547e+002, 3.948680e+003
6.421368e+002, 3.949636e+003
6.426189e+002, 3.948327e+003
6.431010e+002, 3.941824e+003
6.435831e+002, 3.935651e+003
6.440652e+002, 3.933919e+003
6.445474e+002, 3.935449e+003
6.450295e+002, 3.936553e+003
6.455116e+002, 3.935259e+003
6.459937e+002, 3.932836e+003
6.464758e+002, 3.931221e+003
6.469579e+002, 3.930411e+003
6.474401e+002, 3.929731e+003
6.479222e+002, 3.928716e+003
6.484043e+002, 3.928694e+003
6.488864e+002, 3.932247e+003
6.493685e+002, 3.937654e+003
6.498506e+002, 3.939275e+003
6.503328e+002, 3.934544e+003
6.508149e+002, 3.929370e+003
6.512970e+002, 3.924792e+003
6.517791e+002, 3.921752e+003
6.522612e+002, 3.921946e+003
6.527433e+002, 3.925173e+003
6.532255e+002, 3.929301e+003
6.537076e+002, 3.932735e+003
6.541897e+002, 3.935853e+003
6.546718e+002, 3.940293e+003
6.551539e+002, 3.946906e+003
6.556360e+002, 3.952677e+003
6.561182e+002, 3.957677e+003
6.566003e+002, 3.961188e+003
6.570824e+002, 3.961352e+003
6.575645e+002, 3.959509e+003
6.580466e+002, 3.959737e+003
6.585287e+002, 3.964458e+003
6.590109e+002, 3.970326e+003
6.594930e+002, 3.974448e+003
6.599751e+002, 3.977160e+003
6.604572e+002, 3.979248e+003
6.609393e+002, 3.980842e+003
6.614214e+002, 3.982652e+003
6.619036e+002, 3.985395e+003
6.623857e+002, 3.988975e+003
6.628678e+002, 3.992189e+003
6.633499e+002, 3.995281e+003
6.638320e+002, 3.997742e+003
6.643141e+002, 3.999374e+003
6.647963e+002, 4.000548e+003
6.652784e+002, 4.000956e+003
6.657605e+002, 4.001110e+003
6.662426e+002, 4.002662e+003
6.667247e+002, 4.007188e+003
6.672068e+002, 4.012794e+003
6.676890e+002, 4.015873e+003
6.681711e+002, 4.016506e+003
6.686532e+002, 4.017142e+003
6.691353e+002, 4.017982e+003
6.696174e+002, 4.019775e+003
6.700995e+002, 4.023861e+003
6.705817e+002, 4.029868e+003
6.710638e+002, 4.033984e+003
6.715459e+002, 4.034454e+003
6.720280e+002, 4.035071e+003
6.725101e+002, 4.037987e+003
6.729922e+002, 4.041041e+003
6.734744e+002, 4.041912e+003
6.739565e+002, 4.040350e+003
6.744386e+002, 4.037455e+003
6.749207e+002, 4.034035e+003
6.754028e+002, 4.029916e+003
6.758849e+002, 4.024259e+003
6.763671e+002, 4.016634e+003
6.768492e+002, 4.009456e+003
6.773313e+002, 4.003883e+003
6.778134e+002, 3.998036e+003
6.782955e+002, 3.990654e+003
6.787776e+002, 3.981854e+003
6.792598e+002, 3.971943e+003
6.797419e+002, 3.959665e+003
6.802240e+002, 3.948009e+003
6.807061e+002, 3.939309e+003
6.811882e+002, 3.932169e+003
6.816703e+002, 3.924188e+003
6.821525e+002, 3.915082e+003
6.826346e+002, 3.906304e+003
6.831167e+002, 3.899221e+003
6.835988e+002, 3.893258e+003
6.840809e+002, 3.885250e+003
6.845630e+002, 3.873575e+003
6.850452e+002, 3.863452e+003
6.855273e+002, 3.855946e+003
6.860094e+002, 3.849928e+003
6.864915e+002, 3.845495e+003
6.869736e+002, 3.842066e+003
6.874557e+002, 3.838074e+003
6.879379e+002, 3.832686e+003
6.884200e+002, 3.826969e+003
6.889021e+002, 3.821690e+003
6.893842e+002, 3.816826e+003
6.898663e+002, 3.812592e+003
6.903484e+002, 3.808966e+003
6.908306e+002, 3.805083e+003
6.913127e+002, 3.800103e+003
6.917948e+002, 3.794390e+003
6.922769e+002, 3.789691e+003
6.927590e+002, 3.786797e+003
6.932411e+002, 3.783735e+003
6.937233e+002, 3.779669e+003
6.942054e+002, 3.776179e+003
6.946875e+002, 3.775504e+003
6.951696e+002, 3.776160e+003
6.956517e+002, 3.773990e+003
6.961339e+002, 3.766286e+003
6.966160e+002, 3.758016e+003
6.970981e+002, 3.755047e+003
6.975802e+002, 3.756147e+003
6.980623e+002, 3.757131e+003
6.985444e+002, 3.757398e+003
6.990266e+002, 3.757146e+003
6.995087e+002, 3.756566e+003
6.999908e+002, 3.755503e+003
7.004729e+002, 3.753395e+003
7.009550e+002, 3.749196e+003
7.014371e+002, 3.745471e+003
7.019193e+002, 3.742470e+003
7.024014e+002, 3.739717e+003
7.028835e+002, 3.736770e+003
7.033656e+002, 3.733870e+003
7.038477e+002, 3.731543e+003
7.043298e+002, 3.730046e+003
7.048120e+002, 3.729114e+003
7.052941e+002, 3.729257e+003
7.057762e+002, 3.729913e+003
7.062583e+002, 3.727640e+003
7.067404e+002, 3.721670e+003
7.072225e+002, 3.716087e+003
7.077046e+002, 3.713270e+003
7.081867e+002, 3.712410e+003
7.086688e+002, 3.711540e+003
7.091509e+002, 3.710756e+003
7.096331e+002, 3.709676e+003
7.101152e+002, 3.708251e+003
7.105973e+002, 3.706485e+003
7.110794e+002, 3.704490e+003
7.115615e+002, 3.702101e+003
7.120436e+002, 3.698424e+003
7.125258e+002, 3.693191e+003
7.130079e+002, 3.689009e+003
7.134900e+002, 3.690380e+003
7.139721e+002, 3.695835e+003
7.144542e+002, 3.696572e+003
7.149363e+002, 3.691560e+003
7.154185e+002, 3.686851e+003
7.159006e+002, 3.685301e+003
7.163827e+002, 3.685502e+003
7.168648e+002, 3.685381e+003
7.173469e+002, 3.685129e+003
7.178290e+002, 3.683633e+003
7.183112e+002, 3.680009e+003
7.187933e+002, 3.675980e+003
7.192754e+002, 3.672133e+003
7.197575e+002, 3.668541e+003
7.202396e+002, 3.664974e+003
7.207217e+002, 3.661496e+003
7.212039e+002, 3.658893e+003
7.216860e+002, 3.658397e+003
7.221681e+002, 3.659296e+003
7.226502e+002, 3.658486e+003
7.231323e+002, 3.655666e+003
7.236144e+002, 3.653834e+003
7.240966e+002, 3.654714e+003
7.245787e+002, 3.655831e+003
7.250608e+002, 3.654263e+003
7.255429e+002, 3.650051e+003
7.260250e+002, 3.645271e+003
7.265071e+002, 3.638421e+003
7.269893e+002, 3.632972e+003
7.274714e+002, 3.630504e+003
7.279535e+002, 3.629911e+003
7.284356e+002, 3.630344e+003
7.289177e+002, 3.631428e+003
7.293998e+002, 3.632680e+003
7.298820e+002, 3.633762e+003
7.303641e+002, 3.634725e+003
7.308462e+002, 3.636094e+003
7.313283e+002, 3.637925e+003
7.318104e+002, 3.637675e+003
7.322925e+002, 3.634079e+003
7.327747e+002, 3.630003e+003
7.332568e+002, 3.627480e+003
7.337389e+002, 3.626437e+003
7.342210e+002, 3.626268e+003
7.347031e+002, 3.628435e+003
7.351852e+002, 3.629159e+003
7.356674e+002, 3.626691e+003
7.361495e+002, 3.623243e+003
7.366316e+002, 3.620311e+003
7.371137e+002, 3.618037e+003
7.375958e+002, 3.616152e+003
7.380779e+002, 3.614516e+003
7.385601e+002, 3.613138e+003
7.390422e+002, 3.612230e+003
7.395243e+002, 3.611701e+003
7.400064e+002, 3.610463e+003
7.404885e+002, 3.608277e+003
7.409706e+002, 3.606110e+003
7.414528e+002, 3.604272e+003
7.419349e+002, 3.602990e+003
7.424170e+002, 3.603164e+003
7.428991e+002, 3.605856e+003
7.433812e+002, 3.606348e+003
7.438633e+002, 3.602927e+003
7.443455e+002, 3.598648e+003
7.448276e+002, 3.594803e+003
7.453097e+002, 3.591302e+003
7.457918e+002, 3.587327e+003
7.462739e+002, 3.582866e+003
7.467560e+002, 3.579822e+003
7.472382e+002, 3.581226e+003
7.477203e+002, 3.585305e+003
7.482024e+002, 3.586258e+003
7.486845e+002, 3.584012e+003
7.491666e+002, 3.581853e+003
7.496487e+002, 3.580731e+003
7.501309e+002, 3.580467e+003
7.506130e+002, 3.580996e+003
7.510951e+002, 3.582356e+003
7.515772e+002, 3.583520e+003
7.520593e+002, 3.585674e+003
7.525414e+002, 3.586031e+003
7.530236e+002, 3.582686e+003
7.535057e+002, 3.578143e+003
7.539878e+002, 3.573887e+003
7.544699e+002, 3.570533e+003
7.549520e+002, 3.569150e+003
7.554341e+002, 3.571078e+003
7.559163e+002, 3.573625e+003
7.563984e+002, 3.572748e+003
7.568805e+002, 3.569134e+003
7.573626e+002, 3.565950e+003
7.578447e+002, 3.563759e+003
7.583268e+002, 3.561119e+003
7.588090e+002, 3.556801e+003
7.592911e+002, 3.551524e+003
7.597732e+002, 3.547598e+003
7.602553e+002, 3.545313e+003
7.607374e+002, 3.544056e+003
7.612195e+002, 3.545347e+003
7.617017e+002, 3.546131e+003
7.621838e+002, 3.545075e+003
7.626659e+002, 3.542591e+003
7.631480e+002, 3.538836e+003
7.636301e+002, 3.533768e+003
7.641122e+002, 3.530089e+003
7.645944e+002, 3.530779e+003
7.650765e+002, 3.533603e+003
7.655586e+002, 3.535261e+003
7.660407e+002, 3.535707e+003
7.665228e+002, 3.535781e+003
7.670049e+002, 3.535823e+003
7.674871e+002, 3.535063e+003
7.679692e+002, 3.532226e+003
7.684513e+002, 3.527110e+003
7.689334e+002, 3.523636e+003
7.694155e+002, 3.521812e+003
7.698976e+002, 3.521550e+003
7.703798e+002, 3.524799e+003
7.708619e+002, 3.527931e+003
7.713440e+002, 3.527686e+003
7.718261e+002, 3.524517e+003
7.723082e+002, 3.521561e+003
7.727903e+002, 3.520051e+003
7.732725e+002, 3.518892e+003
7.737546e+002, 3.517556e+003
7.742367e+002, 3.516011e+003
7.747188e+002, 3.513827e+003
7.752009e+002, 3.511225e+003
7.756830e+002, 3.509681e+003
7.761652e+002, 3.510317e+003
7.766473e+002, 3.511928e+003
7.771294e+002, 3.511245e+003
7.776115e+002, 3.507653e+003
7.780936e+002, 3.506246e+003
7.785757e+002, 3.508925e+003
7.790579e+002, 3.510900e+003
7.795400e+002, 3.508737e+003
7.800221e+002, 3.504600e+003
7.805042e+002, 3.502272e+003
7.809863e+002, 3.502307e+003
7.814684e+002, 3.501789e+003
7.819506e+002, 3.499570e+003
7.824327e+002, 3.497021e+003
7.829148e+002, 3.494771e+003
7.833969e+002, 3.492872e+003
7.838790e+002, 3.491291e+003
7.843611e+002, 3.490031e+003
7.848433e+002, 3.489195e+003
7.853254e+002, 3.488868e+003
7.858075e+002, 3.489041e+003
7.862896e+002, 3.489964e+003
7.867717e+002, 3.491651e+003
7.872538e+002, 3.492904e+003
7.877360e+002, 3.493691e+003
7.882181e+002, 3.493032e+003
7.887002e+002, 3.489135e+003
7.891823e+002, 3.482713e+003
7.896644e+002, 3.479998e+003
7.901465e+002, 3.485064e+003
7.906286e+002, 3.487800e+003
7.911107e+002, 3.486695e+003
7.915928e+002, 3.483765e+003
7.920750e+002, 3.478449e+003
7.925571e+002, 3.472719e+003
7.930392e+002, 3.470608e+003
7.935213e+002, 3.473910e+003
7.940034e+002, 3.478038e+003
7.944855e+002, 3.479438e+003
7.949677e+002, 3.478729e+003
7.954498e+002, 3.476335e+003
7.959319e+002, 3.472644e+003
7.964140e+002, 3.469977e+003
7.968961e+002, 3.469344e+003
7.973782e+002, 3.469313e+003
7.978604e+002, 3.467707e+003
7.983425e+002, 3.464357e+003
7.988246e+002, 3.463213e+003
7.993067e+002, 3.466587e+003
7.997888e+002, 3.467925e+003
8.002709e+002, 3.463711e+003
8.007531e+002, 3.458333e+003
8.012352e+002, 3.454787e+003
8.017173e+002, 3.452947e+003
8.021994e+002, 3.451592e+003
8.026815e+002, 3.449551e+003
8.031636e+002, 3.449182e+003
8.036458e+002, 3.453997e+003
8.041279e+002, 3.459751e+003
8.046100e+002, 3.460898e+003
8.050921e+002, 3.457954e+003
8.055742e+002, 3.454852e+003
8.060563e+002, 3.453700e+003
8.065385e+002, 3.453874e+003
8.070206e+002, 3.455183e+003
8.075027e+002, 3.457390e+003
8.079848e+002, 3.456288e+003
8.084669e+002, 3.450868e+003
8.089490e+002, 3.446573e+003
8.094312e+002, 3.446253e+003
8.099133e+002, 3.447722e+003
8.103954e+002, 3.447946e+003
8.108775e+002, 3.446869e+003
8.113596e+002, 3.444694e+003
8.118417e+002, 3.440421e+003
8.123239e+002, 3.436371e+003
8.128060e+002, 3.432077e+003
8.132881e+002, 3.429088e+003
8.137702e+002, 3.429879e+003
8.142523e+002, 3.433622e+003
8.147344e+002, 3.436411e+003
8.152166e+002, 3.436070e+003
8.156987e+002, 3.434535e+003
8.161808e+002, 3.433480e+003
8.166629e+002, 3.432832e+003
8.171450e+002, 3.432366e+003
8.176271e+002, 3.432081e+003
8.181093e+002, 3.432395e+003
8.185914e+002, 3.433617e+003
8.190735e+002, 3.435069e+003
8.195556e+002, 3.435484e+003
8.200377e+002, 3.434769e+003
8.205198e+002, 3.433178e+003
8.210020e+002, 3.429409e+003
8.214841e+002, 3.427179e+003
8.219662e+002, 3.429901e+003
8.224483e+002, 3.433399e+003
8.229304e+002, 3.432421e+003
8.234125e+002, 3.427126e+003
8.238947e+002, 3.423418e+003
8.243768e+002, 3.423733e+003
8.248589e+002, 3.424398e+003
8.253410e+002, 3.423252e+003
8.258231e+002, 3.422038e+003
8.263052e+002, 3.423426e+003
8.267874e+002, 3.426860e+003
8.272695e+002, 3.429388e+003
8.277516e+002, 3.429424e+003
8.282337e+002, 3.427609e+003
8.287158e+002, 3.424316e+003
8.291979e+002, 3.419904e+003
8.296801e+002, 3.415452e+003
8.301622e+002, 3.411060e+003
8.306443e+002, 3.408417e+003
8.311264e+002, 3.408669e+003
8.316085e+002, 3.410218e+003
8.320906e+002, 3.410448e+003
8.325728e+002, 3.409139e+003
8.330549e+002, 3.407889e+003
8.335370e+002, 3.405945e+003
8.340191e+002, 3.405139e+003
8.345012e+002, 3.406943e+003
8.349833e+002, 3.409113e+003
8.354655e+002, 3.409969e+003
8.359476e+002, 3.409530e+003
8.364297e+002, 3.408462e+003
8.369118e+002, 3.406445e+003
8.373939e+002, 3.404715e+003
8.378760e+002, 3.403832e+003
8.383582e+002, 3.403695e+003
8.388403e+002, 3.404971e+003
8.393224e+002, 3.406922e+003
8.398045e+002, 3.407199e+003
8.402866e+002, 3.404696e+003
8.407687e+002, 3.401225e+003
8.412509e+002, 3.399251e+003
8.417330e+002, 3.398527e+003
8.422151e+002, 3.397555e+003
8.426972e+002, 3.396266e+003
8.431793e+002, 3.395489e+003
8.436614e+002, 3.395581e+003
8.441436e+002, 3.396149e+003
8.446257e+002, 3.397063e+003
8.451078e+002, 3.398247e+003
8.455899e+002, 3.397257e+003
8.460720e+002, 3.390977e+003
8.465541e+002, 3.387041e+003
8.470363e+002, 3.387852e+003
8.475184e+002, 3.389431e+003
8.480005e+002, 3.389878e+003
8.484826e+002, 3.389042e+003
8.489647e+002, 3.386607e+003
8.494468e+002, 3.381910e+003
8.499290e+002, 3.378266e+003
8.504111e+002, 3.378569e+003
8.508932e+002, 3.379920e+003
8.513753e+002, 3.379326e+003
8.518574e+002, 3.377357e+003
8.523395e+002, 3.375892e+003
8.528217e+002, 3.375453e+003
8.533038e+002, 3.374838e+003
8.537859e+002, 3.372848e+003
8.542680e+002, 3.369836e+003
8.547501e+002, 3.366766e+003
8.552322e+002, 3.363641e+003
8.557144e+002, 3.360730e+003
8.561965e+002, 3.358073e+003
8.566786e+002, 3.355767e+003
8.571607e+002, 3.353992e+003
8.576428e+002, 3.352547e+003
8.581249e+002, 3.350786e+003
8.586071e+002, 3.348488e+003
8.590892e+002, 3.346309e+003
8.595713e+002, 3.343187e+003
8.600534e+002, 3.341372e+003
8.605355e+002, 3.342917e+003
8.610176e+002, 3.345455e+003
8.614998e+002, 3.345885e+003
8.619819e+002, 3.343964e+003
8.624640e+002, 3.342425e+003
8.629461e+002, 3.343745e+003
8.634282e+002, 3.344307e+003
8.639103e+002, 3.340484e+003
8.643925e+002, 3.334991e+003
8.648746e+002, 3.332139e+003
8.653567e+002, 3.331788e+003
8.658388e+002, 3.330364e+003
8.663209e+002, 3.325616e+003
8.668030e+002, 3.320171e+003
8.672852e+002, 3.318550e+003
8.677673e+002, 3.319959e+003
8.682494e+002, 3.320018e+003
8.687315e+002, 3.318440e+003
8.692136e+002, 3.317045e+003
8.696957e+002, 3.316740e+003
8.701779e+002, 3.316372e+003
8.706600e+002, 3.314237e+003
8.711421e+002, 3.310304e+003
8.716242e+002, 3.307540e+003
8.721063e+002, 3.306247e+003
8.725884e+002, 3.305574e+003
8.730705e+002, 3.306503e+003
8.735526e+002, 3.306964e+003
8.740347e+002, 3.305907e+003
8.745168e+002, 3.303384e+003
8.749990e+002, 3.299085e+003
8.754811e+002, 3.291596e+003
8.759632e+002, 3.286612e+003
8.764453e+002, 3.289014e+003
8.769274e+002, 3.291872e+003
8.774095e+002, 3.289273e+003
8.778917e+002, 3.283791e+003
8.783738e+002, 3.280350e+003
8.788559e+002, 3.279977e+003
8.793380e+002, 3.280046e+003
8.798201e+002, 3.278745e+003
8.803022e+002, 3.276448e+003
8.807844e+002, 3.272550e+003
8.812665e+002, 3.268125e+003
8.817486e+002, 3.268082e+003
8.822307e+002, 3.272908e+003
8.827128e+002, 3.277150e+003
8.831949e+002, 3.277347e+003
8.836771e+002, 3.274872e+003
8.841592e+002, 3.272419e+003
8.846413e+002, 3.269953e+003
8.851234e+002, 3.267554e+003
8.856055e+002, 3.264886e+003
8.860876e+002, 3.263125e+003
8.865698e+002, 3.263422e+003
8.870519e+002, 3.263992e+003
8.875340e+002, 3.262703e+003
8.880161e+002, 3.259666e+003
8.884982e+002, 3.256738e+003
8.889803e+002, 3.253477e+003
8.894625e+002, 3.251022e+003
8.899446e+002, 3.249483e+003
8.904267e+002, 3.248894e+003
8.909088e+002, 3.250584e+003
8.913909e+002, 3.252903e+003
8.918730e+002, 3.252129e+003
8.923552e+002, 3.247082e+003
8.928373e+002, 3.243099e+003
8.933194e+002, 3.246124e+003
8.938015e+002, 3.249808e+003
8.942836e+002, 3.246543e+003
8.947657e+002, 3.238902e+003
8.952479e+002, 3.232060e+003
8.957300e+002, 3.227388e+003
8.962121e+002, 3.224453e+003
8.966942e+002, 3.223059e+003
8.971763e+002, 3.222827e+003
8.976584e+002, 3.223410e+003
8.981406e+002, 3.224637e+003
8.986227e+002, 3.224522e+003
8.991048e+002, 3.222673e+003
8.995869e+002, 3.222397e+003
9.000690e+002, 3.225982e+003
9.005511e+002, 3.229739e+003
9.010333e+002, 3.227723e+003
9.015154e+002, 3.219548e+003
9.019975e+002, 3.214266e+003
9.024796e+002, 3.213568e+003
9.029617e+002, 3.212585e+003
9.034438e+002, 3.208901e+003
9.039260e+002, 3.206205e+003
9.044081e+002, 3.208316e+003
9.048902e+002, 3.213196e+003
9.053723e+002, 3.215390e+003
9.058544e+002, 3.213279e+003
9.063365e+002, 3.211509e+003
9.068187e+002, 3.211774e+003
9.073008e+002, 3.212087e+003
9.077829e+002, 3.211531e+003
9.082650e+002, 3.210127e+003
9.087471e+002, 3.207391e+003
9.092292e+002, 3.203672e+003
9.097114e+002, 3.201080e+003
9.101935e+002, 3.201106e+003
9.106756e+002, 3.202376e+003
9.111577e+002, 3.204430e+003
9.116398e+002, 3.206333e+003
9.121219e+002, 3.206658e+003
9.126041e+002, 3.205126e+003
9.130862e+002, 3.200858e+003
9.135683e+002, 3.193443e+003
9.140504e+002, 3.186074e+003
9.145325e+002, 3.183173e+003
9.150146e+002, 3.184141e+003
9.154968e+002, 3.185707e+003
9.159789e+002, 3.187946e+003
9.164610e+002, 3.189306e+003
9.169431e+002, 3.189360e+003
9.174252e+002, 3.188716e+003
9.179073e+002, 3.187771e+003
9.183895e+002, 3.186616e+003
9.188716e+002, 3.185580e+003
9.193537e+002, 3.184656e+003
9.198358e+002, 3.183814e+003
9.203179e+002, 3.183527e+003
9.208000e+002, 3.182559e+003
9.212822e+002, 3.179717e+003
9.217643e+002, 3.176339e+003
9.222464e+002, 3.173822e+003
9.227285e+002, 3.172151e+003
9.232106e+002, 3.170794e+003
9.236927e+002, 3.169753e+003
9.241749e+002, 3.168879e+003
9.246570e+002, 3.168359e+003
9.251391e+002, 3.167797e+003
9.256212e+002, 3.166345e+003
9.261033e+002, 3.164770e+003
9.265854e+002, 3.164965e+003
9.270676e+002, 3.167560e+003
9.275497e+002, 3.169829e+003
9.280318e+002, 3.170191e+003
9.285139e+002, 3.169221e+003
9.289960e+002, 3.166522e+003
9.294781e+002, 3.163297e+003
9.299603e+002, 3.162115e+003
9.304424e+002, 3.163033e+003
9.309245e+002, 3.163754e+003
9.314066e+002, 3.162802e+003
9.318887e+002, 3.160964e+003
9.323708e+002, 3.159192e+003
9.328530e+002, 3.157582e+003
9.333351e+002, 3.156758e+003
9.338172e+002, 3.156676e+003
9.342993e+002, 3.156096e+003
9.347814e+002, 3.154488e+003
9.352635e+002, 3.152858e+003
9.357457e+002, 3.152280e+003
9.362278e+002, 3.152640e+003
9.367099e+002, 3.153481e+003
9.371920e+002, 3.155030e+003
9.376741e+002, 3.156005e+003
9.381563e+002, 3.156235e+003
9.386384e+002, 3.155945e+003
9.391205e+002, 3.155335e+003
9.396026e+002, 3.154205e+003
9.400847e+002, 3.152021e+003
9.405668e+002, 3.148488e+003
9.410490e+002, 3.145720e+003
9.415311e+002, 3.144748e+003
9.420132e+002, 3.143132e+003
9.424953e+002, 3.139626e+003
9.429774e+002, 3.136066e+003
9.434595e+002, 3.133354e+003
9.439417e+002, 3.131744e+003
9.444238e+002, 3.132113e+003
9.449059e+002, 3.135613e+003
9.453880e+002, 3.137339e+003
9.458701e+002, 3.133246e+003
9.463522e+002, 3.129284e+003
9.468344e+002, 3.130663e+003
9.473165e+002, 3.133923e+003
9.477986e+002, 3.133729e+003
9.482807e+002, 3.129990e+003
9.487628e+002, 3.127011e+003
9.492449e+002, 3.127501e+003
9.497271e+002, 3.128466e+003
9.502092e+002, 3.126668e+003
9.506913e+002, 3.123698e+003
9.511734e+002, 3.121874e+003
9.516555e+002, 3.121178e+003
9.521376e+002, 3.120648e+003
9.526198e+002, 3.120016e+003
9.531019e+002, 3.120331e+003
9.535840e+002, 3.123217e+003
9.540661e+002, 3.126982e+003
9.545482e+002, 3.127194e+003
9.550303e+002, 3.124334e+003
9.555124e+002, 3.121332e+003
9.559945e+002, 3.118589e+003
9.564766e+002, 3.116551e+003
9.569587e+002, 3.115422e+003
9.574409e+002, 3.115221e+003
9.579230e+002, 3.116159e+003
9.584051e+002, 3.118206e+003
9.588872e+002, 3.119998e+003
9.593693e+002, 3.122190e+003
9.598514e+002, 3.120844e+003
9.603336e+002, 3.113520e+003
9.608157e+002, 3.106146e+003
9.612978e+002, 3.103341e+003
9.617799e+002, 3.103709e+003
9.622620e+002, 3.103357e+003
9.627441e+002, 3.101989e+003
9.632263e+002, 3.100827e+003
9.637084e+002, 3.099704e+003
9.641905e+002, 3.099049e+003
9.646726e+002, 3.099573e+003
9.651547e+002, 3.100128e+003
9.656368e+002, 3.099784e+003
9.661190e+002, 3.098607e+003
9.666011e+002, 3.096916e+003
9.670832e+002, 3.093848e+003
9.675653e+002, 3.092098e+003
9.680474e+002, 3.093282e+003
9.685295e+002, 3.094796e+003
9.690117e+002, 3.095294e+003
9.694938e+002, 3.095137e+003
9.699759e+002, 3.095096e+003
9.704580e+002, 3.095132e+003
9.709401e+002, 3.094181e+003
9.714222e+002, 3.091241e+003
9.719044e+002, 3.088073e+003
9.723865e+002, 3.086387e+003
9.728686e+002, 3.084572e+003
9.733507e+002, 3.079651e+003
9.738328e+002, 3.073452e+003
9.743149e+002, 3.070927e+003
9.747971e+002, 3.073189e+003
9.752792e+002, 3.075208e+003
9.757613e+002, 3.072324e+003
9.762434e+002, 3.067792e+003
9.767255e+002, 3.065759e+003
9.772076e+002, 3.065469e+003
9.776898e+002, 3.065446e+003
9.781719e+002, 3.065462e+003
9.786540e+002, 3.065612e+003
9.791361e+002, 3.065943e+003
9.796182e+002, 3.066663e+003
9.801003e+002, 3.068555e+003
9.805825e+002, 3.070862e+003
9.810646e+002, 3.070509e+003
9.815467e+002, 3.067888e+003
9.820288e+002, 3.066252e+003
9.825109e+002, 3.066252e+003
9.829930e+002, 3.066555e+003
9.834752e+002, 3.066348e+003
9.839573e+002, 3.065726e+003
9.844394e+002, 3.064853e+003
9.849215e+002, 3.063737e+003
9.854036e+002, 3.062258e+003
9.858857e+002, 3.060254e+003
9.863679e+002, 3.058898e+003
9.868500e+002, 3.058570e+003
9.873321e+002, 3.058703e+003
9.878142e+002, 3.058888e+003
9.882963e+002, 3.059131e+003
9.887784e+002, 3.059708e+003
9.892606e+002, 3.061527e+003
9.897427e+002, 3.060067e+003
9.902248e+002, 3.052373e+003
9.907069e+002, 3.047169e+003
9.911890e+002, 3.048826e+003
9.916711e+002, 3.052183e+003
9.921533e+002, 3.051925e+003
9.926354e+002, 3.048890e+003
9.931175e+002, 3.048118e+003
9.935996e+002, 3.051535e+003
9.940817e+002, 3.053766e+003
9.945638e+002, 3.054959e+003
9.950460e+002, 3.054716e+003
9.955281e+002, 3.052110e+003
9.960102e+002, 3.048540e+003
9.964923e+002, 3.045047e+003
9.969744e+002, 3.041859e+003
9.974565e+002, 3.039956e+003
9.979387e+002, 3.040032e+003
9.984208e+002, 3.040563e+003
9.989029e+002, 3.041281e+003
9.993850e+002, 3.042217e+003
9.998671e+002, 3.044060e+003
1.000349e+003, 3.045771e+003
1.000831e+003, 3.045730e+003
1.001313e+003, 3.043867e+003
1.001796e+003, 3.041697e+003
1.002278e+003, 3.039055e+003
1.002760e+003, 3.037456e+003
1.003242e+003, 3.038231e+003
1.003724e+003, 3.039980e+003
1.004206e+003, 3.041938e+003
1.004688e+003, 3.043661e+003
1.005170e+003, 3.044694e+003
1.005653e+003, 3.044901e+003
1.006135e+003, 3.044254e+003
1.006617e+003, 3.042297e+003
1.007099e+003, 3.040054e+003
1.007581e+003, 3.038013e+003
1.008063e+003, 3.036584e+003
1.008545e+003, 3.037016e+003
1.009027e+003, 3.038545e+003
1.009509e+003, 3.038336e+003
1.009992e+003, 3.035651e+003
1.010474e+003, 3.034245e+003
1.010956e+003, 3.039076e+003
1.011438e+003, 3.045268e+003
1.011920e+003, 3.044462e+003
1.012402e+003, 3.039543e+003
1.012884e+003, 3.037176e+003
1.013366e+003, 3.037766e+003
1.013849e+003, 3.038643e+003
1.014331e+003, 3.038638e+003
1.014813e+003, 3.038630e+003
1.015295e+003, 3.039916e+003
1.015777e+003, 3.041688e+003
1.016259e+003, 3.041789e+003
1.016741e+003, 3.040505e+003
1.017223e+003, 3.038870e+003
1.017705e+003, 3.037156e+003
1.018188e+003, 3.036623e+003
1.018670e+003, 3.038013e+003
1.019152e+003, 3.039201e+003
1.019634e+003, 3.036878e+003
1.020116e+003, 3.031934e+003
1.020598e+003, 3.028262e+003
1.021080e+003, 3.025907e+003
1.021562e+003, 3.026546e+003
1.022044e+003, 3.030684e+003
1.022527e+003, 3.033508e+003
1.023009e+003, 3.032028e+003
1.023491e+003, 3.028816e+003
1.023973e+003, 3.028184e+003
1.024455e+003, 3.029896e+003
1.024937e+003, 3.029713e+003
1.025419e+003, 3.027321e+003
1.025901e+003, 3.025905e+003
1.026384e+003, 3.026287e+003
1.026866e+003, 3.026649e+003
1.027348e+003, 3.025859e+003
1.027830e+003, 3.024364e+003
1.028312e+003, 3.022901e+003
1.028794e+003, 3.021447e+003
1.029276e+003, 3.020551e+003
1.029758e+003, 3.020050e+003
1.030240e+003, 3.020978e+003
1.030723e+003, 3.024499e+003
1.031205e+003, 3.027112e+003
1.031687e+003, 3.025957e+003
1.032169e+003, 3.023017e+003
1.032651e+003, 3.022364e+003
1.033133e+003, 3.024261e+003
1.033615e+003, 3.025983e+003
1.034097e+003, 3.026736e+003
1.034579e+003, 3.029148e+003
1.035062e+003, 3.035317e+003
1.035544e+003, 3.040760e+003
1.036026e+003, 3.042353e+003
1.036508e+003, 3.041235e+003
1.036990e+003, 3.039595e+003
1.037472e+003, 3.037250e+003
1.037954e+003, 3.035320e+003
1.038436e+003, 3.033928e+003
1.038919e+003, 3.032765e+003
1.039401e+003, 3.031912e+003
1.039883e+003, 3.031161e+003
1.040365e+003, 3.030274e+003
1.040847e+003, 3.029454e+003
1.041329e+003, 3.029182e+003
1.041811e+003, 3.029625e+003
1.042293e+003, 3.029865e+003
1.042776e+003, 3.029807e+003
1.043258e+003, 3.029717e+003
1.043740e+003, 3.030318e+003
1.044222e+003, 3.030269e+003
1.044704e+003, 3.028100e+003
1.045186e+003, 3.024880e+003
1.045668e+003, 3.022702e+003
1.046150e+003, 3.021820e+003
1.046632e+003, 3.021151e+003
1.047115e+003, 3.020362e+003
1.047597e+003, 3.020058e+003
1.048079e+003, 3.021209e+003
1.048561e+003, 3.022072e+003
1.049043e+003, 3.020861e+003
1.049525e+003, 3.018709e+003
1.050007e+003, 3.017750e+003
1.050489e+003, 3.018274e+003
1.050971e+003, 3.019357e+003
1.051454e+003, 3.022242e+003
1.051936e+003, 3.023709e+003
1.052418e+003, 3.021520e+003
1.052900e+003, 3.018812e+003
1.053382e+003, 3.017407e+003
1.053864e+003, 3.017305e+003
1.054346e+003, 3.018759e+003
1.054828e+003, 3.021871e+003
1.055311e+003, 3.023444e+003
1.055793e+003, 3.021554e+003
1.056275e+003, 3.019478e+003
1.056757e+003, 3.017937e+003
1.057239e+003, 3.017013e+003
1.057721e+003, 3.017108e+003
1.058203e+003, 3.017720e+003
1.058685e+003, 3.017917e+003
1.059167e+003, 3.017577e+003
1.059650e+003, 3.017681e+003
1.060132e+003, 3.018908e+003
1.060614e+003, 3.020152e+003
1.061096e+003, 3.021141e+003
1.061578e+003, 3.021841e+003
1.062060e+003, 3.021817e+003
1.062542e+003, 3.021665e+003
1.063024e+003, 3.022850e+003
1.063506e+003, 3.025354e+003
1.063989e+003, 3.026185e+003
1.064471e+003, 3.021991e+003
1.064953e+003, 3.019121e+003
1.065435e+003, 3.021642e+003
1.065917e+003, 3.025010e+003
1.066399e+003, 3.025800e+003
1.066881e+003, 3.025053e+003
1.067363e+003, 3.024882e+003
1.067846e+003, 3.025469e+003
1.068328e+003, 3.025186e+003
1.068810e+003, 3.022725e+003
1.069292e+003, 3.020552e+003
1.069774e+003, 3.019348e+003
1.070256e+003, 3.019311e+003
1.070738e+003, 3.021929e+003
1.071220e+003, 3.025063e+003
1.071703e+003, 3.025453e+003
1.072185e+003, 3.023093e+003
1.072667e+003, 3.020879e+003
1.073149e+003, 3.019659e+003
1.073631e+003, 3.019220e+003
1.074113e+003, 3.019449e+003
1.074595e+003, 3.020437e+003
1.075077e+003, 3.023446e+003
1.075559e+003, 3.026497e+003
1.076042e+003, 3.026794e+003
1.076524e+003, 3.024493e+003
1.077006e+003, 3.021800e+003
1.077488e+003, 3.018856e+003
1.077970e+003, 3.017540e+003
1.078452e+003, 3.019404e+003
1.078934e+003, 3.022457e+003
1.079416e+003, 3.026629e+003
1.079898e+003, 3.030354e+003
1.080380e+003, 3.031280e+003
1.080863e+003, 3.030119e+003
1.081345e+003, 3.029896e+003
1.081827e+003, 3.031651e+003
1.082309e+003, 3.033798e+003
1.082791e+003, 3.035799e+003
1.083273e+003, 3.037760e+003
1.083755e+003, 3.040032e+003
1.084237e+003, 3.042035e+003
1.084720e+003, 3.042732e+003
1.085202e+003, 3.042663e+003
1.085684e+003, 3.043151e+003
1.086166e+003, 3.044430e+003
1.086648e+003, 3.047273e+003
1.087130e+003, 3.054073e+003
1.087612e+003, 3.059922e+003
1.088094e+003, 3.061703e+003
1.088577e+003, 3.061908e+003
1.089059e+003, 3.062599e+003
1.089541e+003, 3.063732e+003
1.090023e+003, 3.064595e+003
1.090505e+003, 3.065058e+003
1.090987e+003, 3.066015e+003
1.091469e+003, 3.068395e+003
1.091951e+003, 3.070622e+003
1.092433e+003, 3.072568e+003
1.092916e+003, 3.073632e+003
1.093398e+003, 3.072687e+003
1.093880e+003, 3.070842e+003
1.094362e+003, 3.069638e+003
1.094844e+003, 3.069389e+003
1.095326e+003, 3.070411e+003
1.095808e+003, 3.073305e+003
1.096290e+003, 3.076770e+003
1.096772e+003, 3.081084e+003
1.097255e+003, 3.085081e+003
1.097737e+003, 3.087480e+003
1.098219e+003, 3.089460e+003
1.098701e+003, 3.092799e+003
1.099183e+003, 3.097404e+003
1.099665e+003, 3.101659e+003
1.100147e+003, 3.105552e+003
1.100629e+003, 3.108262e+003
1.101112e+003, 3.108073e+003
1.101594e+003, 3.108384e+003
1.102076e+003, 3.111148e+003
1.102558e+003, 3.115032e+003
1.103040e+003, 3.118791e+003
1.103522e+003, 3.122331e+003
1.104004e+003, 3.125758e+003
1.104486e+003, 3.128999e+003
1.104969e+003, 3.132413e+003
1.105451e+003, 3.136035e+003
1.105933e+003, 3.139856e+003
1.106415e+003, 3.143477e+003
1.106897e+003, 3.147662e+003
1.107379e+003, 3.153956e+003
1.107861e+003, 3.161106e+003
1.108343e+003, 3.165923e+003
1.108825e+003, 3.167774e+003
1.109307e+003, 3.169684e+003
1.109790e+003, 3.171827e+003
1.110272e+003, 3.174173e+003
1.110754e+003, 3.177358e+003
1.111236e+003, 3.180063e+003
1.111718e+003, 3.181107e+003
1.112200e+003, 3.181379e+003
1.112682e+003, 3.182391e+003
1.113164e+003, 3.184225e+003
1.113647e+003, 3.185677e+003
1.114129e+003, 3.185656e+003
1.114611e+003, 3.187125e+003
1.115093e+003, 3.191144e+003
1.115575e+003, 3.195541e+003
1.116057e+003, 3.199640e+003
1.116539e+003, 3.203460e+003
1.117021e+003, 3.207029e+003
1.117504e+003, 3.210336e+003
1.117986e+003, 3.213203e+003
1.118468e+003, 3.214585e+003
1.118950e+003, 3.218079e+003
1.119432e+003, 3.225042e+003
1.119914e+003, 3.231359e+003
1.120396e+003, 3.235391e+003
1.120878e+003, 3.238964e+003
1.121360e+003, 3.243767e+003
1.121843e+003, 3.249262e+003
1.122325e+003, 3.253864e+003
1.122807e+003, 3.257539e+003
1.123289e+003, 3.260479e+003
1.123771e+003, 3.262453e+003
1.124253e+003, 3.264591e+003
1.124735e+003, 3.267239e+003
1.125217e+003, 3.269781e+003
1.125699e+003, 3.271764e+003
1.126182e+003, 3.273524e+003
1.126664e+003, 3.275442e+003
1.127146e+003, 3.277594e+003
1.127628e+003, 3.281778e+003
1.128110e+003, 3.288344e+003
1.128592e+003, 3.293299e+003
1.129074e+003, 3.295843e+003
1.129556e+003, 3.298738e+003
1.130039e+003, 3.303332e+003
1.130521e+003, 3.307978e+003
1.131003e+003, 3.310714e+003
1.131485e+003, 3.312097e+003
1.131967e+003, 3.313705e+003
1.132449e+003, 3.315624e+003
1.132931e+003, 3.319925e+003
1.133413e+003, 3.326668e+003
1.133896e+003, 3.332655e+003
1.134378e+003, 3.336913e+003
1.134860e+003, 3.340171e+003
1.135342e+003, 3.342802e+003
1.135824e+003, 3.345800e+003
1.136306e+003, 3.351829e+003
1.136788e+003, 3.359682e+003
1.137270e+003, 3.364199e+003
1.137752e+003, 3.366059e+003
1.138234e+003, 3.368808e+003
1.138717e+003, 3.373046e+003
1.139199e+003, 3.377763e+003
1.139681e+003, 3.382466e+003
1.140163e+003, 3.386570e+003
1.140645e+003, 3.388972e+003
1.141127e+003, 3.390832e+003
1.141609e+003, 3.395212e+003
1.142091e+003, 3.400355e+003
1.142574e+003, 3.402156e+003
1.143056e+003, 3.400906e+003
1.143538e+003, 3.398373e+003
1.144020e+003, 3.395555e+003
1.144502e+003, 3.394994e+003
1.144984e+003, 3.398894e+003
1.145466e+003, 3.404810e+003
1.145948e+003, 3.411821e+003
1.146431e+003, 3.418030e+003
1.146913e+003, 3.420700e+003
1.147395e+003, 3.420870e+003
1.147877e+003, 3.419689e+003
1.148359e+003, 3.418163e+003
1.148841e+003, 3.418872e+003
1.149323e+003, 3.423233e+003
1.149805e+003, 3.427842e+003
1.150287e+003, 3.430471e+003
1.150770e+003, 3.432668e+003
1.151252e+003, 3.436010e+003
1.151734e+003, 3.439145e+003
1.152216e+003, 3.440021e+003
1.152698e+003, 3.439599e+003
1.153180e+003, 3.440813e+003
1.153662e+003, 3.444262e+003
1.154144e+003, 3.445774e+003
1.154626e+003, 3.441629e+003
1.155109e+003, 3.438671e+003
1.155591e+003, 3.440437e+003
1.156073e+003, 3.442691e+003
1.156555e+003, 3.442256e+003
1.157037e+003, 3.441116e+003
1.157519e+003, 3.442569e+003
1.158001e+003, 3.446191e+003
1.158483e+003, 3.447719e+003
1.158966e+003, 3.445160e+003
1.159448e+003, 3.443938e+003
1.159930e+003, 3.444788e+003
1.160412e+003, 3.446468e+003
1.160894e+003, 3.449448e+003
1.161376e+003, 3.452272e+003
1.161858e+003, 3.454318e+003
1.162340e+003, 3.455151e+003
1.162822e+003, 3.453358e+003
1.163305e+003, 3.448441e+003
1.163787e+003, 3.446500e+003
1.164269e+003, 3.449276e+003
1.164751e+003, 3.449576e+003
1.165233e+003, 3.445083e+003
1.165715e+003, 3.442326e+003
1.166197e+003, 3.445001e+003
1.166679e+003, 3.449118e+003
1.167161e+003, 3.449859e+003
1.167644e+003, 3.448202e+003
1.168126e+003, 3.448843e+003
1.168608e+003, 3.451973e+003
1.169090e+003, 3.450449e+003
1.169572e+003, 3.443817e+003
1.170054e+003, 3.438511e+003
1.170536e+003, 3.436298e+003
1.171018e+003, 3.435724e+003
1.171500e+003, 3.435983e+003
1.171983e+003, 3.435973e+003
1.172465e+003, 3.433799e+003
1.172947e+003, 3.429973e+003
1.173429e+003, 3.425570e+003
1.173911e+003, 3.421046e+003
1.174393e+003, 3.418570e+003
1.174875e+003, 3.417895e+003
1.175357e+003, 3.416256e+003
1.175840e+003, 3.412678e+003
1.176322e+003, 3.408964e+003
1.176804e+003, 3.406457e+003
1.177286e+003, 3.404822e+003
1.177768e+003, 3.404003e+003
1.178250e+003, 3.403516e+003
1.178732e+003, 3.403740e+003
1.179214e+003, 3.403265e+003
1.179697e+003, 3.398675e+003
1.180179e+003, 3.390491e+003
1.180661e+003, 3.383156e+003
1.181143e+003, 3.378553e+003
1.181625e+003, 3.374481e+003
1.182107e+003, 3.368755e+003
1.182589e+003, 3.364170e+003
1.183071e+003, 3.364611e+003
1.183553e+003, 3.365243e+003
1.184036e+003, 3.360673e+003
1.184518e+003, 3.353109e+003
1.185000e+003, 3.347403e+003
1.185482e+003, 3.344133e+003
1.185964e+003, 3.339910e+003
1.186446e+003, 3.332448e+003
1.186928e+003, 3.326458e+003
1.187410e+003, 3.324096e+003
1.187892e+003, 3.321682e+003
1.188375e+003, 3.316692e+003
1.188857e+003, 3.311918e+003
1.189339e+003, 3.310934e+003
1.189821e+003, 3.311963e+003
1.190303e+003, 3.309605e+003
1.190785e+003, 3.302976e+003
1.191267e+003, 3.298440e+003
1.191749e+003, 3.297217e+003
1.192232e+003, 3.294401e+003
1.192714e+003, 3.288203e+003
1.193196e+003, 3.283489e+003
1.193678e+003, 3.283098e+003
1.194160e+003, 3.284133e+003
1.194642e+003, 3.283212e+003
1.195124e+003, 3.280574e+003
1.195606e+003, 3.276806e+003
1.196089e+003, 3.271985e+003
1.196571e+003, 3.269116e+003
1.197053e+003, 3.268206e+003
1.197535e+003, 3.266566e+003
1.198017e+003, 3.263499e+003
1.198499e+003, 3.258732e+003
1.198981e+003, 3.251960e+003
1.199463e+003, 3.245485e+003
1.199945e+003, 3.242479e+003
1.200427e+003, 3.241871e+003
1.200910e+003, 3.242738e+003
1.201392e+003, 3.243772e+003
1.201874e+003, 3.241702e+003
1.202356e+003, 3.237098e+003
1.202838e+003, 3.232014e+003
1.203320e+003, 3.227368e+003
1.203802e+003, 3.224846e+003
1.204284e+003, 3.226238e+003
1.204767e+003, 3.227528e+003
1.205249e+003, 3.225464e+003
1.205731e+003, 3.222268e+003
1.206213e+003, 3.218820e+003
1.206695e+003, 3.216061e+003
1.207177e+003, 3.215784e+003
1.207659e+003, 3.216870e+003
1.208141e+003, 3.216030e+003
1.208624e+003, 3.212478e+003
1.209106e+003, 3.209712e+003
1.209588e+003, 3.209189e+003
1.210070e+003, 3.208615e+003
1.210552e+003, 3.207019e+003
1.211034e+003, 3.205834e+003
1.211516e+003, 3.206688e+003
1.211998e+003, 3.207469e+003
1.212480e+003, 3.205863e+003
1.212963e+003, 3.202423e+003
1.213445e+003, 3.199290e+003
1.213927e+003, 3.196409e+003
1.214409e+003, 3.194026e+003
1.214891e+003, 3.192360e+003
1.215373e+003, 3.190066e+003
1.215855e+003, 3.186663e+003
1.216337e+003, 3.183821e+003
1.216819e+003, 3.182545e+003
1.217302e+003, 3.181770e+003
1.217784e+003, 3.180141e+003
1.218266e+003, 3.178129e+003
1.218748e+003, 3.177429e+003
1.219230e+003, 3.177683e+003
1.219712e+003, 3.176459e+003
1.220194e+003, 3.174172e+003
1.220676e+003, 3.173530e+003
1.221159e+003, 3.175016e+003
1.221641e+003, 3.177337e+003
1.222123e+003, 3.179845e+003
1.222605e+003, 3.181901e+003
1.223087e+003, 3.182860e+003
1.223569e+003, 3.182983e+003
1.224051e+003, 3.181958e+003
1.224533e+003, 3.180681e+003
1.225016e+003, 3.180538e+003
1.225498e+003, 3.180960e+003
1.225980e+003, 3.180788e+003
1.226462e+003, 3.179767e+003
1.226944e+003, 3.177845e+003
1.227426e+003, 3.173925e+003
1.227908e+003, 3.172208e+003
1.228390e+003, 3.176402e+003
1.228872e+003, 3.180062e+003
1.229354e+003, 3.180569e+003
1.229837e+003, 3.179410e+003
1.230319e+003, 3.176798e+003
1.230801e+003, 3.173876e+003
1.231283e+003, 3.172554e+003
1.231765e+003, 3.172819e+003
1.232247e+003, 3.173657e+003
1.232729e+003, 3.175618e+003
1.233211e+003, 3.176339e+003
1.233694e+003, 3.174969e+003
1.234176e+003, 3.175625e+003
1.234658e+003, 3.180352e+003
1.235140e+003, 3.183523e+003
1.235622e+003, 3.180662e+003
1.236104e+003, 3.175591e+003
1.236586e+003, 3.174940e+003
1.237068e+003, 3.177648e+003
1.237551e+003, 3.179612e+003
1.238033e+003, 3.180857e+003
1.238515e+003, 3.181448e+003
1.238997e+003, 3.181460e+003
1.239479e+003, 3.180921e+003
1.239961e+003, 3.180017e+003
1.240443e+003, 3.179783e+003
1.240925e+003, 3.180852e+003
1.241407e+003, 3.182971e+003
1.241890e+003, 3.186688e+003
1.242372e+003, 3.190518e+003
1.242854e+003, 3.193588e+003
1.243336e+003, 3.195506e+003
1.243818e+003, 3.194760e+003
1.244300e+003, 3.192959e+003
1.244782e+003, 3.193736e+003
1.245264e+003, 3.197468e+003
1.245746e+003, 3.200431e+003
1.246229e+003, 3.200734e+003
1.246711e+003, 3.201924e+003
1.247193e+003, 3.204783e+003
1.247675e+003, 3.208414e+003
1.248157e+003, 3.214661e+003
1.248639e+003, 3.218833e+003
1.249121e+003, 3.216115e+003
1.249603e+003, 3.210659e+003
1.250085e+003, 3.210093e+003
1.250568e+003, 3.214116e+003
1.251050e+003, 3.217676e+003
1.251532e+003, 3.220702e+003
1.252014e+003, 3.223651e+003
1.252496e+003, 3.226521e+003
1.252978e+003, 3.230743e+003
1.253460e+003, 3.236731e+003
1.253942e+003, 3.241479e+003
1.254425e+003, 3.242738e+003
1.254907e+003, 3.243438e+003
1.255389e+003, 3.248251e+003
1.255871e+003, 3.254816e+003
1.256353e+003, 3.258728e+003
1.256835e+003, 3.261041e+003
1.257317e+003, 3.263241e+003
1.257799e+003, 3.265660e+003
1.258281e+003, 3.268740e+003
1.258764e+003, 3.272386e+003
1.259246e+003, 3.275564e+003
1.259728e+003, 3.277609e+003
1.260210e+003, 3.280047e+003
1.260692e+003, 3.284757e+003
1.261174e+003, 3.288507e+003
1.261656e+003, 3.288326e+003
1.262138e+003, 3.288074e+003
1.262620e+003, 3.291085e+003
1.263103e+003, 3.295767e+003
1.263585e+003, 3.299411e+003
1.264067e+003, 3.302148e+003
1.264549e+003, 3.305215e+003
1.265031e+003, 3.308817e+003
1.265513e+003, 3.311907e+003
1.265995e+003, 3.314312e+003
1.266477e+003, 3.316763e+003
1.266960e+003, 3.319429e+003
1.267442e+003, 3.321944e+003
1.267924e+003, 3.324054e+003
1.268406e+003, 3.326486e+003
1.268888e+003, 3.330482e+003
1.269370e+003, 3.334793e+003
1.269852e+003, 3.336117e+003
1.270334e+003, 3.335664e+003
1.270817e+003, 3.335713e+003
1.271299e+003, 3.336913e+003
1.271781e+003, 3.341397e+003
1.272263e+003, 3.348292e+003
1.272745e+003, 3.353062e+003
1.273227e+003, 3.353971e+003
1.273709e+003, 3.354711e+003
1.274191e+003, 3.357503e+003
1.274673e+003, 3.360710e+003
1.275156e+003, 3.363787e+003
1.275638e+003, 3.366698e+003
1.276120e+003, 3.368652e+003
1.276602e+003, 3.371029e+003
1.277084e+003, 3.376117e+003
1.277566e+003, 3.382831e+003
1.278048e+003, 3.387455e+003
1.278530e+003, 3.389796e+003
1.279012e+003, 3.391773e+003
1.279495e+003, 3.392825e+003
1.279977e+003, 3.394961e+003
1.280459e+003, 3.398626e+003
1.280941e+003, 3.403204e+003
1.281423e+003, 3.408612e+003
1.281905e+003, 3.413132e+003
1.282387e+003, 3.415200e+003
1.282869e+003, 3.417094e+003
1.283352e+003, 3.424079e+003
1.283834e+003, 3.432664e+003
1.284316e+003, 3.435099e+003
1.284798e+003, 3.431547e+003
##END=



