##NAMES=Magnetite
##RRUFFID=R060656
##IDEAL CHEMISTRY=Fe^2+^Fe^3+^_2_O_4_
##LOCALITY=Jacupiranga Pegmatite, Sao Paulo State, Brazil
##OWNER=RRUFF
##SOURCE=Michael Scott
##DESCRIPTION=Black rounded octahedra associated with phlogopite and diopside
##STATUS=The identification of this mineral has been confirmed by X-ray diffraction and chemical analysis
##URL=rruff.info/R060656
##MEASURED CHEMISTRY=(Fe^2+^_0.98_Mg_0.01_Mn_0.01_)(Fe^3+^_1.96_Ti_0.02_Mg_0.02_)O_4_
8.813672e+001, 9.318062e+001
8.861884e+001, 9.364976e+001
8.910095e+001, 9.454688e+001
8.958307e+001, 9.650904e+001
9.006519e+001, 9.914881e+001
9.054730e+001, 1.020269e+002
9.102942e+001, 1.057088e+002
9.151154e+001, 1.083801e+002
9.199365e+001, 1.070292e+002
9.247577e+001, 1.023769e+002
9.295789e+001, 9.811922e+001
9.344000e+001, 9.772356e+001
9.392212e+001, 9.976876e+001
9.440424e+001, 1.002077e+002
9.488635e+001, 9.793317e+001
9.536847e+001, 9.417497e+001
9.585059e+001, 9.138249e+001
9.633270e+001, 8.953114e+001
9.681482e+001, 8.838018e+001
9.729694e+001, 8.777888e+001
9.777905e+001, 8.771172e+001
9.826117e+001, 8.816252e+001
9.874329e+001, 8.953974e+001
9.922540e+001, 9.155754e+001
9.970752e+001, 9.188472e+001
1.001896e+002, 9.011613e+001
1.006718e+002, 8.757348e+001
1.011539e+002, 8.584549e+001
1.016360e+002, 8.498614e+001
1.021181e+002, 8.466122e+001
1.026002e+002, 8.484273e+001
1.030823e+002, 8.560043e+001
1.035645e+002, 8.627759e+001
1.040466e+002, 8.634555e+001
1.045287e+002, 8.665669e+001
1.050108e+002, 8.904797e+001
1.054929e+002, 9.506181e+001
1.059750e+002, 1.008832e+002
1.064572e+002, 1.052220e+002
1.069393e+002, 1.088239e+002
1.074214e+002, 1.096733e+002
1.079035e+002, 1.063900e+002
1.083856e+002, 1.001847e+002
1.088677e+002, 9.542935e+001
1.093499e+002, 9.261166e+001
1.098320e+002, 9.080668e+001
1.103141e+002, 8.961841e+001
1.107962e+002, 8.929873e+001
1.112783e+002, 8.926743e+001
1.117604e+002, 8.941279e+001
1.122426e+002, 8.976667e+001
1.127247e+002, 9.056189e+001
1.132068e+002, 9.182069e+001
1.136889e+002, 9.353960e+001
1.141710e+002, 9.570687e+001
1.146531e+002, 9.963276e+001
1.151353e+002, 1.027607e+002
1.156174e+002, 1.040649e+002
1.160995e+002, 1.035277e+002
1.165816e+002, 1.029377e+002
1.170637e+002, 1.032728e+002
1.175458e+002, 1.037987e+002
1.180280e+002, 1.037189e+002
1.185101e+002, 1.019391e+002
1.189922e+002, 1.000129e+002
1.194743e+002, 9.878895e+001
1.199564e+002, 9.832654e+001
1.204385e+002, 9.847990e+001
1.209207e+002, 9.883089e+001
1.214028e+002, 9.976038e+001
1.218849e+002, 1.019243e+002
1.223670e+002, 1.082856e+002
1.228491e+002, 1.148940e+002
1.233312e+002, 1.170813e+002
1.238134e+002, 1.135674e+002
1.242955e+002, 1.085238e+002
1.247776e+002, 1.053509e+002
1.252597e+002, 1.037930e+002
1.257418e+002, 1.029628e+002
1.262239e+002, 1.022846e+002
1.267061e+002, 1.019888e+002
1.271882e+002, 1.026743e+002
1.276703e+002, 1.047539e+002
1.281524e+002, 1.072289e+002
1.286345e+002, 1.085395e+002
1.291166e+002, 1.087837e+002
1.295988e+002, 1.090285e+002
1.300809e+002, 1.106058e+002
1.305630e+002, 1.130173e+002
1.310451e+002, 1.140519e+002
1.315272e+002, 1.128366e+002
1.320093e+002, 1.103004e+002
1.324915e+002, 1.084668e+002
1.329736e+002, 1.073670e+002
1.334557e+002, 1.067412e+002
1.339378e+002, 1.063908e+002
1.344199e+002, 1.063157e+002
1.349020e+002, 1.065766e+002
1.353842e+002, 1.072357e+002
1.358663e+002, 1.082425e+002
1.363484e+002, 1.092603e+002
1.368305e+002, 1.101206e+002
1.373126e+002, 1.114857e+002
1.377947e+002, 1.147358e+002
1.382769e+002, 1.206099e+002
1.387590e+002, 1.245576e+002
1.392411e+002, 1.248862e+002
1.397232e+002, 1.215192e+002
1.402053e+002, 1.184481e+002
1.406874e+002, 1.156346e+002
1.411696e+002, 1.131109e+002
1.416517e+002, 1.109188e+002
1.421338e+002, 1.089626e+002
1.426159e+002, 1.075467e+002
1.430980e+002, 1.068584e+002
1.435801e+002, 1.070835e+002
1.440623e+002, 1.071482e+002
1.445444e+002, 1.068258e+002
1.450265e+002, 1.064773e+002
1.455086e+002, 1.067971e+002
1.459907e+002, 1.085935e+002
1.464728e+002, 1.099904e+002
1.469550e+002, 1.103109e+002
1.474371e+002, 1.089572e+002
1.479192e+002, 1.078864e+002
1.484013e+002, 1.072147e+002
1.488834e+002, 1.068152e+002
1.493655e+002, 1.063962e+002
1.498477e+002, 1.056438e+002
1.503298e+002, 1.051442e+002
1.508119e+002, 1.051707e+002
1.512940e+002, 1.066749e+002
1.517761e+002, 1.073026e+002
1.522583e+002, 1.059500e+002
1.527404e+002, 1.035285e+002
1.532225e+002, 1.026238e+002
1.537046e+002, 1.055202e+002
1.541867e+002, 1.084973e+002
1.546688e+002, 1.098329e+002
1.551510e+002, 1.080579e+002
1.556331e+002, 1.062297e+002
1.561152e+002, 1.046792e+002
1.565973e+002, 1.034018e+002
1.570794e+002, 1.024186e+002
1.575615e+002, 1.020475e+002
1.580437e+002, 1.017729e+002
1.585258e+002, 1.012715e+002
1.590079e+002, 1.000556e+002
1.594900e+002, 9.904170e+001
1.599721e+002, 9.838996e+001
1.604542e+002, 9.811491e+001
1.609364e+002, 9.830364e+001
1.614185e+002, 9.960265e+001
1.619006e+002, 1.010836e+002
1.623827e+002, 1.020001e+002
1.628648e+002, 1.018549e+002
1.633469e+002, 1.013456e+002
1.638291e+002, 1.006421e+002
1.643112e+002, 9.977511e+001
1.647933e+002, 9.897039e+001
1.652754e+002, 9.835352e+001
1.657575e+002, 9.785155e+001
1.662396e+002, 9.738785e+001
1.667218e+002, 9.673273e+001
1.672039e+002, 9.625821e+001
1.676860e+002, 9.623375e+001
1.681681e+002, 9.665588e+001
1.686502e+002, 9.728876e+001
1.691323e+002, 9.831461e+001
1.696145e+002, 9.938906e+001
1.700966e+002, 1.000343e+002
1.705787e+002, 9.980579e+001
1.710608e+002, 9.922009e+001
1.715429e+002, 9.864106e+001
1.720250e+002, 9.807005e+001
1.725072e+002, 9.763103e+001
1.729893e+002, 9.750291e+001
1.734714e+002, 9.756019e+001
1.739535e+002, 9.757061e+001
1.744356e+002, 9.748067e+001
1.749177e+002, 9.726781e+001
1.753999e+002, 9.678966e+001
1.758820e+002, 9.599784e+001
1.763641e+002, 9.534748e+001
1.768462e+002, 9.541477e+001
1.773283e+002, 9.596281e+001
1.778104e+002, 9.638321e+001
1.782926e+002, 9.626812e+001
1.787747e+002, 9.586845e+001
1.792568e+002, 9.559827e+001
1.797389e+002, 9.549180e+001
1.802210e+002, 9.541878e+001
1.807031e+002, 9.524418e+001
1.811853e+002, 9.498335e+001
1.816674e+002, 9.469582e+001
1.821495e+002, 9.430521e+001
1.826316e+002, 9.391596e+001
1.831137e+002, 9.381567e+001
1.835958e+002, 9.405131e+001
1.840780e+002, 9.444567e+001
1.845601e+002, 9.490866e+001
1.850422e+002, 9.539431e+001
1.855243e+002, 9.564207e+001
1.860064e+002, 9.536429e+001
1.864885e+002, 9.470970e+001
1.869707e+002, 9.421150e+001
1.874528e+002, 9.390812e+001
1.879349e+002, 9.373840e+001
1.884170e+002, 9.366747e+001
1.888991e+002, 9.368642e+001
1.893812e+002, 9.363923e+001
1.898634e+002, 9.333621e+001
1.903455e+002, 9.284631e+001
1.908276e+002, 9.265247e+001
1.913097e+002, 9.286662e+001
1.917918e+002, 9.320208e+001
1.922739e+002, 9.309119e+001
1.927561e+002, 9.251169e+001
1.932382e+002, 9.197012e+001
1.937203e+002, 9.182578e+001
1.942024e+002, 9.203862e+001
1.946845e+002, 9.201965e+001
1.951666e+002, 9.164967e+001
1.956488e+002, 9.115546e+001
1.961309e+002, 9.107530e+001
1.966130e+002, 9.147375e+001
1.970951e+002, 9.175017e+001
1.975772e+002, 9.144398e+001
1.980593e+002, 9.054566e+001
1.985415e+002, 8.994272e+001
1.990236e+002, 8.975255e+001
1.995057e+002, 8.981921e+001
1.999878e+002, 8.979323e+001
2.004699e+002, 8.964975e+001
2.009520e+002, 8.953794e+001
2.014342e+002, 8.958340e+001
2.019163e+002, 8.980810e+001
2.023984e+002, 8.992260e+001
2.028805e+002, 8.990027e+001
2.033626e+002, 8.976415e+001
2.038447e+002, 8.955128e+001
2.043269e+002, 8.924068e+001
2.048090e+002, 8.892650e+001
2.052911e+002, 8.864139e+001
2.057732e+002, 8.836916e+001
2.062553e+002, 8.823878e+001
2.067374e+002, 8.830778e+001
2.072196e+002, 8.849143e+001
2.077017e+002, 8.853110e+001
2.081838e+002, 8.836135e+001
2.086659e+002, 8.822899e+001
2.091480e+002, 8.833486e+001
2.096301e+002, 8.878642e+001
2.101123e+002, 8.897586e+001
2.105944e+002, 8.881490e+001
2.110765e+002, 8.840182e+001
2.115586e+002, 8.797408e+001
2.120407e+002, 8.746143e+001
2.125228e+002, 8.709261e+001
2.130050e+002, 8.705749e+001
2.134871e+002, 8.748986e+001
2.139692e+002, 8.774041e+001
2.144513e+002, 8.770011e+001
2.149334e+002, 8.748237e+001
2.154155e+002, 8.744386e+001
2.158977e+002, 8.766698e+001
2.163798e+002, 8.790518e+001
2.168619e+002, 8.803235e+001
2.173440e+002, 8.803854e+001
2.178261e+002, 8.794862e+001
2.183082e+002, 8.771032e+001
2.187904e+002, 8.739165e+001
2.192725e+002, 8.721746e+001
2.197546e+002, 8.726024e+001
2.202367e+002, 8.732008e+001
2.207188e+002, 8.729601e+001
2.212009e+002, 8.716526e+001
2.216831e+002, 8.700521e+001
2.221652e+002, 8.678276e+001
2.226473e+002, 8.654379e+001
2.231294e+002, 8.644748e+001
2.236115e+002, 8.659473e+001
2.240936e+002, 8.672060e+001
2.245758e+002, 8.667468e+001
2.250579e+002, 8.632997e+001
2.255400e+002, 8.614363e+001
2.260221e+002, 8.619711e+001
2.265042e+002, 8.639517e+001
2.269863e+002, 8.647592e+001
2.274685e+002, 8.641531e+001
2.279506e+002, 8.627574e+001
2.284327e+002, 8.604807e+001
2.289148e+002, 8.557012e+001
2.293969e+002, 8.539756e+001
2.298790e+002, 8.569969e+001
2.303612e+002, 8.625853e+001
2.308433e+002, 8.650932e+001
2.313254e+002, 8.630687e+001
2.318075e+002, 8.601543e+001
2.322896e+002, 8.576963e+001
2.327717e+002, 8.553175e+001
2.332539e+002, 8.544025e+001
2.337360e+002, 8.557118e+001
2.342181e+002, 8.582119e+001
2.347002e+002, 8.594370e+001
2.351823e+002, 8.583561e+001
2.356644e+002, 8.575333e+001
2.361466e+002, 8.583797e+001
2.366287e+002, 8.625767e+001
2.371108e+002, 8.635779e+001
2.375929e+002, 8.593381e+001
2.380750e+002, 8.527435e+001
2.385571e+002, 8.502103e+001
2.390393e+002, 8.551169e+001
2.395214e+002, 8.587365e+001
2.400035e+002, 8.572158e+001
2.404856e+002, 8.475993e+001
2.409677e+002, 8.420113e+001
2.414498e+002, 8.422401e+001
2.419320e+002, 8.455944e+001
2.424141e+002, 8.471859e+001
2.428962e+002, 8.456655e+001
2.433783e+002, 8.446371e+001
2.438604e+002, 8.456727e+001
2.443425e+002, 8.498575e+001
2.448247e+002, 8.520603e+001
2.453068e+002, 8.514279e+001
2.457889e+002, 8.493591e+001
2.462710e+002, 8.480147e+001
2.467531e+002, 8.475916e+001
2.472352e+002, 8.475521e+001
2.477174e+002, 8.478759e+001
2.481995e+002, 8.487382e+001
2.486816e+002, 8.490114e+001
2.491637e+002, 8.485667e+001
2.496458e+002, 8.476070e+001
2.501279e+002, 8.464212e+001
2.506101e+002, 8.449882e+001
2.510922e+002, 8.432890e+001
2.515743e+002, 8.409653e+001
2.520564e+002, 8.376685e+001
2.525385e+002, 8.365041e+001
2.530206e+002, 8.387246e+001
2.535028e+002, 8.419334e+001
2.539849e+002, 8.429699e+001
2.544670e+002, 8.405360e+001
2.549491e+002, 8.387663e+001
2.554312e+002, 8.388972e+001
2.559133e+002, 8.410726e+001
2.563955e+002, 8.425998e+001
2.568776e+002, 8.436629e+001
2.573597e+002, 8.438659e+001
2.578418e+002, 8.422936e+001
2.583239e+002, 8.372002e+001
2.588061e+002, 8.345644e+001
2.592882e+002, 8.365555e+001
2.597703e+002, 8.430732e+001
2.602524e+002, 8.464289e+001
2.607345e+002, 8.453167e+001
2.612166e+002, 8.429268e+001
2.616988e+002, 8.422392e+001
2.621809e+002, 8.440575e+001
2.626630e+002, 8.453140e+001
2.631451e+002, 8.453999e+001
2.636272e+002, 8.444300e+001
2.641093e+002, 8.434305e+001
2.645915e+002, 8.424588e+001
2.650736e+002, 8.413612e+001
2.655557e+002, 8.395412e+001
2.660378e+002, 8.361729e+001
2.665199e+002, 8.354213e+001
2.670020e+002, 8.390773e+001
2.674842e+002, 8.458311e+001
2.679663e+002, 8.484057e+001
2.684484e+002, 8.453896e+001
2.689305e+002, 8.414383e+001
2.694126e+002, 8.399106e+001
2.698947e+002, 8.414523e+001
2.703769e+002, 8.424686e+001
2.708590e+002, 8.424816e+001
2.713411e+002, 8.418037e+001
2.718232e+002, 8.413314e+001
2.723053e+002, 8.409695e+001
2.727874e+002, 8.410869e+001
2.732696e+002, 8.420359e+001
2.737517e+002, 8.439560e+001
2.742338e+002, 8.457925e+001
2.747159e+002, 8.474754e+001
2.751980e+002, 8.490650e+001
2.756801e+002, 8.507710e+001
2.761623e+002, 8.527150e+001
2.766444e+002, 8.542614e+001
2.771265e+002, 8.553179e+001
2.776086e+002, 8.559659e+001
2.780907e+002, 8.548265e+001
2.785728e+002, 8.512775e+001
2.790550e+002, 8.468970e+001
2.795371e+002, 8.447983e+001
2.800192e+002, 8.453020e+001
2.805013e+002, 8.454531e+001
2.809834e+002, 8.427110e+001
2.814655e+002, 8.372502e+001
2.819477e+002, 8.368889e+001
2.824298e+002, 8.426636e+001
2.829119e+002, 8.507861e+001
2.833940e+002, 8.566044e+001
2.838761e+002, 8.601001e+001
2.843582e+002, 8.614436e+001
2.848404e+002, 8.596104e+001
2.853225e+002, 8.553511e+001
2.858046e+002, 8.536521e+001
2.862867e+002, 8.549314e+001
2.867688e+002, 8.568363e+001
2.872509e+002, 8.564677e+001
2.877331e+002, 8.540060e+001
2.882152e+002, 8.520411e+001
2.886973e+002, 8.519170e+001
2.891794e+002, 8.527501e+001
2.896615e+002, 8.510014e+001
2.901436e+002, 8.464156e+001
2.906258e+002, 8.422919e+001
2.911079e+002, 8.423188e+001
2.915900e+002, 8.457685e+001
2.920721e+002, 8.486404e+001
2.925542e+002, 8.497379e+001
2.930363e+002, 8.498491e+001
2.935185e+002, 8.506784e+001
2.940006e+002, 8.522202e+001
2.944827e+002, 8.534889e+001
2.949648e+002, 8.535474e+001
2.954469e+002, 8.527172e+001
2.959290e+002, 8.520432e+001
2.964112e+002, 8.518175e+001
2.968933e+002, 8.516242e+001
2.973754e+002, 8.505211e+001
2.978575e+002, 8.486919e+001
2.983396e+002, 8.472861e+001
2.988217e+002, 8.476537e+001
2.993039e+002, 8.488931e+001
2.997860e+002, 8.492040e+001
3.002681e+002, 8.482716e+001
3.007502e+002, 8.466206e+001
3.012323e+002, 8.442142e+001
3.017144e+002, 8.414125e+001
3.021966e+002, 8.395911e+001
3.026787e+002, 8.401071e+001
3.031608e+002, 8.417529e+001
3.036429e+002, 8.433743e+001
3.041250e+002, 8.450565e+001
3.046071e+002, 8.452833e+001
3.050893e+002, 8.412391e+001
3.055714e+002, 8.346735e+001
3.060535e+002, 8.294050e+001
3.065356e+002, 8.274366e+001
3.070177e+002, 8.273035e+001
3.074998e+002, 8.281036e+001
3.079820e+002, 8.298109e+001
3.084641e+002, 8.312912e+001
3.089462e+002, 8.321214e+001
3.094283e+002, 8.321556e+001
3.099104e+002, 8.311699e+001
3.103925e+002, 8.288508e+001
3.108747e+002, 8.257039e+001
3.113568e+002, 8.214931e+001
3.118389e+002, 8.164448e+001
3.123210e+002, 8.122299e+001
3.128031e+002, 8.104320e+001
3.132852e+002, 8.095695e+001
3.137674e+002, 8.081654e+001
3.142495e+002, 8.052457e+001
3.147316e+002, 8.024833e+001
3.152137e+002, 8.010966e+001
3.156958e+002, 8.006459e+001
3.161779e+002, 7.996628e+001
3.166601e+002, 7.971971e+001
3.171422e+002, 7.941930e+001
3.176243e+002, 7.913021e+001
3.181064e+002, 7.888766e+001
3.185885e+002, 7.861089e+001
3.190706e+002, 7.824773e+001
3.195528e+002, 7.783277e+001
3.200349e+002, 7.743348e+001
3.205170e+002, 7.701945e+001
3.209991e+002, 7.666535e+001
3.214812e+002, 7.642563e+001
3.219633e+002, 7.634440e+001
3.224455e+002, 7.622580e+001
3.229276e+002, 7.594100e+001
3.234097e+002, 7.562569e+001
3.238918e+002, 7.544666e+001
3.243739e+002, 7.558872e+001
3.248560e+002, 7.571418e+001
3.253382e+002, 7.576060e+001
3.258203e+002, 7.572921e+001
3.263024e+002, 7.558224e+001
3.267845e+002, 7.516249e+001
3.272666e+002, 7.471084e+001
3.277487e+002, 7.441920e+001
3.282309e+002, 7.454847e+001
3.287130e+002, 7.453603e+001
3.291951e+002, 7.425214e+001
3.296772e+002, 7.373284e+001
3.301593e+002, 7.333630e+001
3.306414e+002, 7.307566e+001
3.311236e+002, 7.292860e+001
3.316057e+002, 7.290406e+001
3.320878e+002, 7.319214e+001
3.325699e+002, 7.324742e+001
3.330520e+002, 7.293746e+001
3.335341e+002, 7.240376e+001
3.340163e+002, 7.204948e+001
3.344984e+002, 7.196954e+001
3.349805e+002, 7.191380e+001
3.354626e+002, 7.175340e+001
3.359447e+002, 7.141525e+001
3.364268e+002, 7.128303e+001
3.369090e+002, 7.146510e+001
3.373911e+002, 7.174178e+001
3.378732e+002, 7.172465e+001
3.383553e+002, 7.131438e+001
3.388374e+002, 7.096634e+001
3.393195e+002, 7.087477e+001
3.398017e+002, 7.102547e+001
3.402838e+002, 7.092811e+001
3.407659e+002, 7.051704e+001
3.412480e+002, 7.002589e+001
3.417301e+002, 6.970390e+001
3.422122e+002, 6.956551e+001
3.426944e+002, 6.940256e+001
3.431765e+002, 6.915520e+001
3.436586e+002, 6.885545e+001
3.441407e+002, 6.859922e+001
3.446228e+002, 6.838305e+001
3.451049e+002, 6.825109e+001
3.455871e+002, 6.833230e+001
3.460692e+002, 6.857453e+001
3.465513e+002, 6.858416e+001
3.470334e+002, 6.824876e+001
3.475155e+002, 6.778789e+001
3.479977e+002, 6.758156e+001
3.484798e+002, 6.760373e+001
3.489619e+002, 6.765452e+001
3.494440e+002, 6.762787e+001
3.499261e+002, 6.754523e+001
3.504082e+002, 6.746908e+001
3.508904e+002, 6.741181e+001
3.513725e+002, 6.730558e+001
3.518546e+002, 6.702163e+001
3.523367e+002, 6.662517e+001
3.528188e+002, 6.628463e+001
3.533009e+002, 6.609161e+001
3.537831e+002, 6.598321e+001
3.542652e+002, 6.594760e+001
3.547473e+002, 6.597564e+001
3.552294e+002, 6.588837e+001
3.557115e+002, 6.544483e+001
3.561936e+002, 6.484171e+001
3.566758e+002, 6.432384e+001
3.571579e+002, 6.387455e+001
3.576400e+002, 6.363531e+001
3.581221e+002, 6.388186e+001
3.586042e+002, 6.447131e+001
3.590863e+002, 6.489530e+001
3.595685e+002, 6.471214e+001
3.600506e+002, 6.438269e+001
3.605327e+002, 6.428524e+001
3.610148e+002, 6.461052e+001
3.614969e+002, 6.482813e+001
3.619790e+002, 6.464830e+001
3.624612e+002, 6.422711e+001
3.629433e+002, 6.382590e+001
3.634254e+002, 6.343392e+001
3.639075e+002, 6.315440e+001
3.643896e+002, 6.310822e+001
3.648717e+002, 6.335455e+001
3.653539e+002, 6.340933e+001
3.658360e+002, 6.304644e+001
3.663181e+002, 6.251064e+001
3.668002e+002, 6.201926e+001
3.672823e+002, 6.141798e+001
3.677644e+002, 6.105697e+001
3.682466e+002, 6.114409e+001
3.687287e+002, 6.162383e+001
3.692108e+002, 6.183827e+001
3.696929e+002, 6.154963e+001
3.701750e+002, 6.120536e+001
3.706571e+002, 6.104350e+001
3.711393e+002, 6.125787e+001
3.716214e+002, 6.130921e+001
3.721035e+002, 6.111926e+001
3.725856e+002, 6.078894e+001
3.730677e+002, 6.055302e+001
3.735498e+002, 6.045237e+001
3.740320e+002, 6.036555e+001
3.745141e+002, 6.025210e+001
3.749962e+002, 6.011042e+001
3.754783e+002, 5.995745e+001
3.759604e+002, 5.978352e+001
3.764425e+002, 5.961686e+001
3.769247e+002, 5.950621e+001
3.774068e+002, 5.946759e+001
3.778889e+002, 5.938522e+001
3.783710e+002, 5.920592e+001
3.788531e+002, 5.896646e+001
3.793352e+002, 5.885474e+001
3.798174e+002, 5.889658e+001
3.802995e+002, 5.889585e+001
3.807816e+002, 5.865910e+001
3.812637e+002, 5.821507e+001
3.817458e+002, 5.779620e+001
3.822279e+002, 5.739189e+001
3.827101e+002, 5.710464e+001
3.831922e+002, 5.720324e+001
3.836743e+002, 5.762797e+001
3.841564e+002, 5.795776e+001
3.846385e+002, 5.791125e+001
3.851206e+002, 5.762399e+001
3.856028e+002, 5.734716e+001
3.860849e+002, 5.708945e+001
3.865670e+002, 5.687099e+001
3.870491e+002, 5.674322e+001
3.875312e+002, 5.666446e+001
3.880133e+002, 5.654958e+001
3.884955e+002, 5.633378e+001
3.889776e+002, 5.609635e+001
3.894597e+002, 5.591035e+001
3.899418e+002, 5.577053e+001
3.904239e+002, 5.564613e+001
3.909060e+002, 5.551875e+001
3.913882e+002, 5.539840e+001
3.918703e+002, 5.528585e+001
3.923524e+002, 5.515196e+001
3.928345e+002, 5.508630e+001
3.933166e+002, 5.518113e+001
3.937987e+002, 5.537265e+001
3.942809e+002, 5.553111e+001
3.947630e+002, 5.562346e+001
3.952451e+002, 5.566644e+001
3.957272e+002, 5.569345e+001
3.962093e+002, 5.572663e+001
3.966914e+002, 5.560523e+001
3.971736e+002, 5.511455e+001
3.976557e+002, 5.454134e+001
3.981378e+002, 5.414765e+001
3.986199e+002, 5.417960e+001
3.991020e+002, 5.414833e+001
3.995841e+002, 5.391414e+001
4.000663e+002, 5.352867e+001
4.005484e+002, 5.335445e+001
4.010305e+002, 5.362194e+001
4.015126e+002, 5.385223e+001
4.019947e+002, 5.377469e+001
4.024768e+002, 5.313448e+001
4.029590e+002, 5.281786e+001
4.034411e+002, 5.297348e+001
4.039232e+002, 5.334412e+001
4.044053e+002, 5.346529e+001
4.048874e+002, 5.326622e+001
4.053695e+002, 5.303200e+001
4.058517e+002, 5.283671e+001
4.063338e+002, 5.268266e+001
4.068159e+002, 5.255664e+001
4.072980e+002, 5.243849e+001
4.077801e+002, 5.241955e+001
4.082622e+002, 5.270695e+001
4.087444e+002, 5.327742e+001
4.092265e+002, 5.353075e+001
4.097086e+002, 5.326478e+001
4.101907e+002, 5.273649e+001
4.106728e+002, 5.246799e+001
4.111549e+002, 5.243858e+001
4.116371e+002, 5.244003e+001
4.121192e+002, 5.235651e+001
4.126013e+002, 5.221033e+001
4.130834e+002, 5.202570e+001
4.135655e+002, 5.179401e+001
4.140476e+002, 5.160756e+001
4.145298e+002, 5.160510e+001
4.150119e+002, 5.170975e+001
4.154940e+002, 5.176609e+001
4.159761e+002, 5.163936e+001
4.164582e+002, 5.149286e+001
4.169403e+002, 5.153405e+001
4.174225e+002, 5.172003e+001
4.179046e+002, 5.178294e+001
4.183867e+002, 5.140277e+001
4.188688e+002, 5.092641e+001
4.193509e+002, 5.064837e+001
4.198330e+002, 5.066683e+001
4.203152e+002, 5.079495e+001
4.207973e+002, 5.114368e+001
4.212794e+002, 5.153313e+001
4.217615e+002, 5.163999e+001
4.222436e+002, 5.107828e+001
4.227257e+002, 5.050727e+001
4.232079e+002, 5.015616e+001
4.236900e+002, 5.006573e+001
4.241721e+002, 4.997749e+001
4.246542e+002, 4.980666e+001
4.251363e+002, 4.966992e+001
4.256184e+002, 4.965444e+001
4.261006e+002, 4.984443e+001
4.265827e+002, 5.002959e+001
4.270648e+002, 5.022396e+001
4.275469e+002, 5.040068e+001
4.280290e+002, 5.045356e+001
4.285111e+002, 5.034078e+001
4.289933e+002, 5.018375e+001
4.294754e+002, 5.003192e+001
4.299575e+002, 4.988592e+001
4.304396e+002, 4.971619e+001
4.309217e+002, 4.949499e+001
4.314038e+002, 4.930500e+001
4.318860e+002, 4.928993e+001
4.323681e+002, 4.945806e+001
4.328502e+002, 4.957335e+001
4.333323e+002, 4.955630e+001
4.338144e+002, 4.945788e+001
4.342965e+002, 4.943714e+001
4.347787e+002, 4.949282e+001
4.352608e+002, 4.950085e+001
4.357429e+002, 4.926171e+001
4.362250e+002, 4.891436e+001
4.367071e+002, 4.887592e+001
4.371892e+002, 4.926951e+001
4.376714e+002, 4.965401e+001
4.381535e+002, 4.943873e+001
4.386356e+002, 4.885209e+001
4.391177e+002, 4.839755e+001
4.395998e+002, 4.841725e+001
4.400819e+002, 4.858003e+001
4.405641e+002, 4.863138e+001
4.410462e+002, 4.857286e+001
4.415283e+002, 4.846738e+001
4.420104e+002, 4.824159e+001
4.424925e+002, 4.804211e+001
4.429746e+002, 4.801890e+001
4.434568e+002, 4.836168e+001
4.439389e+002, 4.859034e+001
4.444210e+002, 4.842650e+001
4.449031e+002, 4.806044e+001
4.453852e+002, 4.785529e+001
4.458673e+002, 4.809782e+001
4.463495e+002, 4.830768e+001
4.468316e+002, 4.832500e+001
4.473137e+002, 4.811564e+001
4.477958e+002, 4.792582e+001
4.482779e+002, 4.768127e+001
4.487600e+002, 4.752102e+001
4.492422e+002, 4.757787e+001
4.497243e+002, 4.804649e+001
4.502064e+002, 4.831606e+001
4.506885e+002, 4.828378e+001
4.511706e+002, 4.805239e+001
4.516527e+002, 4.788556e+001
4.521349e+002, 4.777333e+001
4.526170e+002, 4.775964e+001
4.530991e+002, 4.795954e+001
4.535812e+002, 4.835411e+001
4.540633e+002, 4.830733e+001
4.545454e+002, 4.773594e+001
4.550276e+002, 4.712318e+001
4.555097e+002, 4.707456e+001
4.559918e+002, 4.748873e+001
4.564739e+002, 4.777196e+001
4.569560e+002, 4.776682e+001
4.574381e+002, 4.759529e+001
4.579203e+002, 4.736147e+001
4.584024e+002, 4.710060e+001
4.588845e+002, 4.697392e+001
4.593666e+002, 4.725711e+001
4.598488e+002, 4.764879e+001
4.603309e+002, 4.772558e+001
4.608130e+002, 4.742716e+001
4.612951e+002, 4.714437e+001
4.617772e+002, 4.725434e+001
4.622593e+002, 4.750020e+001
4.627415e+002, 4.757755e+001
4.632236e+002, 4.719796e+001
4.637057e+002, 4.682519e+001
4.641878e+002, 4.663433e+001
4.646699e+002, 4.659778e+001
4.651520e+002, 4.661555e+001
4.656342e+002, 4.671480e+001
4.661163e+002, 4.681987e+001
4.665984e+002, 4.690346e+001
4.670805e+002, 4.696840e+001
4.675626e+002, 4.699548e+001
4.680447e+002, 4.697856e+001
4.685269e+002, 4.692851e+001
4.690090e+002, 4.684447e+001
4.694911e+002, 4.665886e+001
4.699732e+002, 4.657385e+001
4.704553e+002, 4.665215e+001
4.709374e+002, 4.685018e+001
4.714196e+002, 4.698211e+001
4.719017e+002, 4.703434e+001
4.723838e+002, 4.705754e+001
4.728659e+002, 4.709542e+001
4.733480e+002, 4.714747e+001
4.738301e+002, 4.706804e+001
4.743123e+002, 4.681831e+001
4.747944e+002, 4.657682e+001
4.752765e+002, 4.658510e+001
4.757586e+002, 4.680424e+001
4.762407e+002, 4.704625e+001
4.767228e+002, 4.731294e+001
4.772050e+002, 4.750866e+001
4.776871e+002, 4.739869e+001
4.781692e+002, 4.704649e+001
4.786513e+002, 4.676051e+001
4.791334e+002, 4.675342e+001
4.796155e+002, 4.690320e+001
4.800977e+002, 4.709569e+001
4.805798e+002, 4.732262e+001
4.810619e+002, 4.756075e+001
4.815440e+002, 4.788894e+001
4.820261e+002, 4.818507e+001
4.825082e+002, 4.830970e+001
4.829904e+002, 4.805998e+001
4.834725e+002, 4.780167e+001
4.839546e+002, 4.763688e+001
4.844367e+002, 4.755276e+001
4.849188e+002, 4.749156e+001
4.854009e+002, 4.760134e+001
4.858831e+002, 4.758791e+001
4.863652e+002, 4.727177e+001
4.868473e+002, 4.648018e+001
4.873294e+002, 4.603678e+001
4.878115e+002, 4.611100e+001
4.882936e+002, 4.637477e+001
4.887758e+002, 4.650065e+001
4.892579e+002, 4.646654e+001
4.897400e+002, 4.634844e+001
4.902221e+002, 4.611744e+001
4.907042e+002, 4.583487e+001
4.911863e+002, 4.570984e+001
4.916685e+002, 4.575442e+001
4.921506e+002, 4.582468e+001
4.926327e+002, 4.583266e+001
4.931148e+002, 4.579788e+001
4.935969e+002, 4.582588e+001
4.940790e+002, 4.592648e+001
4.945612e+002, 4.601339e+001
4.950433e+002, 4.599673e+001
4.955254e+002, 4.590461e+001
4.960075e+002, 4.579144e+001
4.964896e+002, 4.565416e+001
4.969717e+002, 4.553259e+001
4.974539e+002, 4.549486e+001
4.979360e+002, 4.550750e+001
4.984181e+002, 4.548508e+001
4.989002e+002, 4.524442e+001
4.993823e+002, 4.506507e+001
4.998644e+002, 4.519225e+001
5.003466e+002, 4.567129e+001
5.008287e+002, 4.601714e+001
5.013108e+002, 4.598129e+001
5.017929e+002, 4.581182e+001
5.022750e+002, 4.569776e+001
5.027571e+002, 4.564607e+001
5.032393e+002, 4.567011e+001
5.037214e+002, 4.583780e+001
5.042035e+002, 4.606413e+001
5.046856e+002, 4.616593e+001
5.051677e+002, 4.608086e+001
5.056498e+002, 4.598265e+001
5.061320e+002, 4.591857e+001
5.066141e+002, 4.588769e+001
5.070962e+002, 4.587019e+001
5.075783e+002, 4.586657e+001
5.080604e+002, 4.587736e+001
5.085425e+002, 4.592799e+001
5.090247e+002, 4.601084e+001
5.095068e+002, 4.600829e+001
5.099889e+002, 4.589048e+001
5.104710e+002, 4.573590e+001
5.109531e+002, 4.565226e+001
5.114352e+002, 4.562583e+001
5.119174e+002, 4.560520e+001
5.123995e+002, 4.553295e+001
5.128816e+002, 4.547882e+001
5.133637e+002, 4.552827e+001
5.138458e+002, 4.567174e+001
5.143279e+002, 4.585339e+001
5.148101e+002, 4.607252e+001
5.152922e+002, 4.629511e+001
5.157743e+002, 4.651054e+001
5.162564e+002, 4.674249e+001
5.167385e+002, 4.687273e+001
5.172206e+002, 4.676900e+001
5.177028e+002, 4.657564e+001
5.181849e+002, 4.645725e+001
5.186670e+002, 4.654156e+001
5.191491e+002, 4.658219e+001
5.196312e+002, 4.646679e+001
5.201133e+002, 4.626542e+001
5.205955e+002, 4.629523e+001
5.210776e+002, 4.670807e+001
5.215597e+002, 4.709957e+001
5.220418e+002, 4.730239e+001
5.225239e+002, 4.730505e+001
5.230060e+002, 4.724685e+001
5.234882e+002, 4.712014e+001
5.239703e+002, 4.695660e+001
5.244524e+002, 4.670533e+001
5.249345e+002, 4.639054e+001
5.254166e+002, 4.637672e+001
5.258987e+002, 4.681944e+001
5.263809e+002, 4.741770e+001
5.268630e+002, 4.769652e+001
5.273451e+002, 4.771659e+001
5.278272e+002, 4.772432e+001
5.283093e+002, 4.790846e+001
5.287914e+002, 4.810698e+001
5.292736e+002, 4.806736e+001
5.297557e+002, 4.781015e+001
5.302378e+002, 4.768127e+001
5.307199e+002, 4.803339e+001
5.312020e+002, 4.850561e+001
5.316841e+002, 4.880523e+001
5.321663e+002, 4.886903e+001
5.326484e+002, 4.878511e+001
5.331305e+002, 4.844583e+001
5.336126e+002, 4.801280e+001
5.340947e+002, 4.771203e+001
5.345768e+002, 4.760456e+001
5.350590e+002, 4.758606e+001
5.355411e+002, 4.767789e+001
5.360232e+002, 4.785833e+001
5.365053e+002, 4.799971e+001
5.369874e+002, 4.812119e+001
5.374695e+002, 4.816112e+001
5.379517e+002, 4.805015e+001
5.384338e+002, 4.777549e+001
5.389159e+002, 4.760685e+001
5.393980e+002, 4.755297e+001
5.398801e+002, 4.756991e+001
5.403622e+002, 4.764619e+001
5.408444e+002, 4.776190e+001
5.413265e+002, 4.783952e+001
5.418086e+002, 4.788839e+001
5.422907e+002, 4.783805e+001
5.427728e+002, 4.748882e+001
5.432549e+002, 4.694868e+001
5.437371e+002, 4.653703e+001
5.442192e+002, 4.658335e+001
5.447013e+002, 4.669469e+001
5.451834e+002, 4.646554e+001
5.456655e+002, 4.592242e+001
5.461476e+002, 4.563342e+001
5.466298e+002, 4.613592e+001
5.471119e+002, 4.676896e+001
5.475940e+002, 4.707586e+001
5.480761e+002, 4.677385e+001
5.485582e+002, 4.660543e+001
5.490403e+002, 4.675832e+001
5.495225e+002, 4.700971e+001
5.500046e+002, 4.708231e+001
5.504867e+002, 4.685993e+001
5.509688e+002, 4.670318e+001
5.514509e+002, 4.672117e+001
5.519330e+002, 4.683429e+001
5.524152e+002, 4.671357e+001
5.528973e+002, 4.631270e+001
5.533794e+002, 4.595068e+001
5.538615e+002, 4.581240e+001
5.543436e+002, 4.585932e+001
5.548257e+002, 4.587724e+001
5.553079e+002, 4.586189e+001
5.557900e+002, 4.588392e+001
5.562721e+002, 4.613968e+001
5.567542e+002, 4.645178e+001
5.572363e+002, 4.643690e+001
5.577184e+002, 4.589746e+001
5.582006e+002, 4.536208e+001
5.586827e+002, 4.529844e+001
5.591648e+002, 4.551318e+001
5.596469e+002, 4.567746e+001
5.601290e+002, 4.562882e+001
5.606111e+002, 4.554649e+001
5.610933e+002, 4.550839e+001
5.615754e+002, 4.550410e+001
5.620575e+002, 4.545398e+001
5.625396e+002, 4.527175e+001
5.630217e+002, 4.511247e+001
5.635038e+002, 4.505977e+001
5.639860e+002, 4.516687e+001
5.644681e+002, 4.510086e+001
5.649502e+002, 4.475226e+001
5.654323e+002, 4.439970e+001
5.659144e+002, 4.433610e+001
5.663965e+002, 4.458263e+001
5.668787e+002, 4.486432e+001
5.673608e+002, 4.515808e+001
5.678429e+002, 4.543951e+001
5.683250e+002, 4.569100e+001
5.688071e+002, 4.590012e+001
5.692892e+002, 4.598023e+001
5.697714e+002, 4.587387e+001
5.702535e+002, 4.562870e+001
5.707356e+002, 4.520397e+001
5.712177e+002, 4.464610e+001
5.716998e+002, 4.426116e+001
5.721819e+002, 4.433378e+001
5.726641e+002, 4.456909e+001
5.731462e+002, 4.475352e+001
5.736283e+002, 4.486041e+001
5.741104e+002, 4.492391e+001
5.745925e+002, 4.491384e+001
5.750746e+002, 4.488655e+001
5.755568e+002, 4.489311e+001
5.760389e+002, 4.493504e+001
5.765210e+002, 4.501667e+001
5.770031e+002, 4.516192e+001
5.774852e+002, 4.533780e+001
5.779673e+002, 4.547079e+001
5.784495e+002, 4.554217e+001
5.789316e+002, 4.564610e+001
5.794137e+002, 4.586811e+001
5.798958e+002, 4.613574e+001
5.803779e+002, 4.608630e+001
5.808600e+002, 4.570765e+001
5.813422e+002, 4.531992e+001
5.818243e+002, 4.513572e+001
5.823064e+002, 4.510390e+001
5.827885e+002, 4.511982e+001
5.832706e+002, 4.517658e+001
5.837527e+002, 4.527301e+001
5.842349e+002, 4.550317e+001
5.847170e+002, 4.573665e+001
5.851991e+002, 4.579634e+001
5.856812e+002, 4.552843e+001
5.861633e+002, 4.526630e+001
5.866454e+002, 4.514303e+001
5.871276e+002, 4.512116e+001
5.876097e+002, 4.513417e+001
5.880918e+002, 4.519077e+001
5.885739e+002, 4.525788e+001
5.890560e+002, 4.534355e+001
5.895381e+002, 4.543977e+001
5.900203e+002, 4.548129e+001
5.905024e+002, 4.543760e+001
5.909845e+002, 4.540087e+001
5.914666e+002, 4.541763e+001
5.919487e+002, 4.548877e+001
5.924308e+002, 4.556461e+001
5.929130e+002, 4.564201e+001
5.933951e+002, 4.574425e+001
5.938772e+002, 4.595715e+001
5.943593e+002, 4.622027e+001
5.948414e+002, 4.629431e+001
5.953235e+002, 4.608385e+001
5.958057e+002, 4.585721e+001
5.962878e+002, 4.592373e+001
5.967699e+002, 4.616562e+001
5.972520e+002, 4.636101e+001
5.977341e+002, 4.640801e+001
5.982162e+002, 4.640119e+001
5.986984e+002, 4.634446e+001
5.991805e+002, 4.626253e+001
5.996626e+002, 4.624272e+001
6.001447e+002, 4.639100e+001
6.006268e+002, 4.652092e+001
6.011089e+002, 4.655182e+001
6.015911e+002, 4.647320e+001
6.020732e+002, 4.642048e+001
6.025553e+002, 4.636853e+001
6.030374e+002, 4.638357e+001
6.035195e+002, 4.654860e+001
6.040016e+002, 4.688196e+001
6.044838e+002, 4.711915e+001
6.049659e+002, 4.723749e+001
6.054480e+002, 4.728127e+001
6.059301e+002, 4.728424e+001
6.064122e+002, 4.725515e+001
6.068943e+002, 4.721842e+001
6.073765e+002, 4.714550e+001
6.078586e+002, 4.712941e+001
6.083407e+002, 4.732851e+001
6.088228e+002, 4.766919e+001
6.093049e+002, 4.796529e+001
6.097870e+002, 4.817639e+001
6.102692e+002, 4.828333e+001
6.107513e+002, 4.820800e+001
6.112334e+002, 4.797436e+001
6.117155e+002, 4.784762e+001
6.121976e+002, 4.792981e+001
6.126797e+002, 4.808768e+001
6.131619e+002, 4.825527e+001
6.136440e+002, 4.841989e+001
6.141261e+002, 4.868504e+001
6.146082e+002, 4.914986e+001
6.150903e+002, 4.956462e+001
6.155724e+002, 4.964477e+001
6.160546e+002, 4.937338e+001
6.165367e+002, 4.924526e+001
6.170188e+002, 4.933049e+001
6.175009e+002, 4.954845e+001
6.179830e+002, 4.982802e+001
6.184651e+002, 5.014912e+001
6.189473e+002, 5.043810e+001
6.194294e+002, 5.062369e+001
6.199115e+002, 5.081641e+001
6.203936e+002, 5.120744e+001
6.208757e+002, 5.170697e+001
6.213578e+002, 5.205298e+001
6.218400e+002, 5.194707e+001
6.223221e+002, 5.181922e+001
6.228042e+002, 5.190613e+001
6.232863e+002, 5.222194e+001
6.237684e+002, 5.249514e+001
6.242505e+002, 5.259060e+001
6.247327e+002, 5.274369e+001
6.252148e+002, 5.310872e+001
6.256969e+002, 5.379560e+001
6.261790e+002, 5.421690e+001
6.266611e+002, 5.427967e+001
6.271432e+002, 5.426430e+001
6.276254e+002, 5.450214e+001
6.281075e+002, 5.497229e+001
6.285896e+002, 5.533126e+001
6.290717e+002, 5.549959e+001
6.295538e+002, 5.559299e+001
6.300359e+002, 5.569363e+001
6.305181e+002, 5.583844e+001
6.310002e+002, 5.612587e+001
6.314823e+002, 5.669761e+001
6.319644e+002, 5.732397e+001
6.324465e+002, 5.783424e+001
6.329286e+002, 5.826620e+001
6.334108e+002, 5.872852e+001
6.338929e+002, 5.931614e+001
6.343750e+002, 5.989091e+001
6.348571e+002, 6.040145e+001
6.353392e+002, 6.084641e+001
6.358214e+002, 6.126071e+001
6.363035e+002, 6.160505e+001
6.367856e+002, 6.197963e+001
6.372677e+002, 6.246686e+001
6.377498e+002, 6.309217e+001
6.382319e+002, 6.359941e+001
6.387141e+002, 6.396376e+001
6.391962e+002, 6.432430e+001
6.396783e+002, 6.480654e+001
6.401604e+002, 6.541125e+001
6.406425e+002, 6.614720e+001
6.411246e+002, 6.705324e+001
6.416068e+002, 6.799254e+001
6.420889e+002, 6.889132e+001
6.425710e+002, 6.972014e+001
6.430531e+002, 7.040887e+001
6.435352e+002, 7.074437e+001
6.440173e+002, 7.113721e+001
6.444995e+002, 7.181882e+001
6.449816e+002, 7.269302e+001
6.454637e+002, 7.350518e+001
6.459458e+002, 7.399961e+001
6.464279e+002, 7.465697e+001
6.469100e+002, 7.563774e+001
6.473922e+002, 7.691901e+001
6.478743e+002, 7.811641e+001
6.483564e+002, 7.927333e+001
6.488385e+002, 8.024755e+001
6.493206e+002, 8.083264e+001
6.498027e+002, 8.110448e+001
6.502849e+002, 8.171712e+001
6.507670e+002, 8.268848e+001
6.512491e+002, 8.373755e+001
6.517312e+002, 8.455833e+001
6.522133e+002, 8.529018e+001
6.526954e+002, 8.623279e+001
6.531776e+002, 8.752388e+001
6.536597e+002, 8.864592e+001
6.541418e+002, 8.909151e+001
6.546239e+002, 8.929091e+001
6.551060e+002, 8.974754e+001
6.555881e+002, 9.093930e+001
6.560703e+002, 9.196019e+001
6.565524e+002, 9.262657e+001
6.570345e+002, 9.305595e+001
6.575166e+002, 9.339568e+001
6.579987e+002, 9.352196e+001
6.584808e+002, 9.389531e+001
6.589630e+002, 9.473425e+001
6.594451e+002, 9.584749e+001
6.599272e+002, 9.657455e+001
6.604093e+002, 9.691489e+001
6.608914e+002, 9.714734e+001
6.613735e+002, 9.742613e+001
6.618557e+002, 9.769540e+001
6.623378e+002, 9.787586e+001
6.628199e+002, 9.796461e+001
6.633020e+002, 9.793644e+001
6.637841e+002, 9.764689e+001
6.642662e+002, 9.732231e+001
6.647484e+002, 9.714957e+001
6.652305e+002, 9.717059e+001
6.657126e+002, 9.722012e+001
6.661947e+002, 9.747923e+001
6.666768e+002, 9.759341e+001
6.671589e+002, 9.730527e+001
6.676411e+002, 9.639902e+001
6.681232e+002, 9.552712e+001
6.686053e+002, 9.461707e+001
6.690874e+002, 9.383763e+001
6.695695e+002, 9.352254e+001
6.700516e+002, 9.366319e+001
6.705338e+002, 9.352457e+001
6.710159e+002, 9.291395e+001
6.714980e+002, 9.207555e+001
6.719801e+002, 9.136099e+001
6.724622e+002, 9.071795e+001
6.729443e+002, 9.002358e+001
6.734265e+002, 8.913102e+001
6.739086e+002, 8.825394e+001
6.743907e+002, 8.761623e+001
6.748728e+002, 8.711447e+001
6.753549e+002, 8.644465e+001
6.758370e+002, 8.528187e+001
6.763192e+002, 8.415938e+001
6.768013e+002, 8.330651e+001
6.772834e+002, 8.269389e+001
6.777655e+002, 8.206325e+001
6.782476e+002, 8.142732e+001
6.787297e+002, 8.075643e+001
6.792119e+002, 7.999808e+001
6.796940e+002, 7.916177e+001
6.801761e+002, 7.854417e+001
6.806582e+002, 7.816435e+001
6.811403e+002, 7.782645e+001
6.816224e+002, 7.738309e+001
6.821046e+002, 7.685819e+001
6.825867e+002, 7.631063e+001
6.830688e+002, 7.574500e+001
6.835509e+002, 7.513387e+001
6.840330e+002, 7.427562e+001
6.845151e+002, 7.344651e+001
6.849973e+002, 7.294150e+001
6.854794e+002, 7.314227e+001
6.859615e+002, 7.312460e+001
6.864436e+002, 7.258392e+001
6.869257e+002, 7.182488e+001
6.874078e+002, 7.119791e+001
6.878900e+002, 7.075627e+001
6.883721e+002, 7.028307e+001
6.888542e+002, 6.973589e+001
6.893363e+002, 6.916378e+001
6.898184e+002, 6.871413e+001
6.903005e+002, 6.837505e+001
6.907827e+002, 6.796165e+001
6.912648e+002, 6.734668e+001
6.917469e+002, 6.668146e+001
6.922290e+002, 6.618572e+001
6.927111e+002, 6.582632e+001
6.931932e+002, 6.552065e+001
6.936754e+002, 6.522953e+001
6.941575e+002, 6.497565e+001
6.946396e+002, 6.479983e+001
6.951217e+002, 6.469269e+001
6.956038e+002, 6.453141e+001
6.960859e+002, 6.430772e+001
6.965681e+002, 6.401464e+001
6.970502e+002, 6.361791e+001
6.975323e+002, 6.310918e+001
6.980144e+002, 6.274353e+001
6.984965e+002, 6.257202e+001
6.989786e+002, 6.236224e+001
6.994608e+002, 6.186311e+001
6.999429e+002, 6.116086e+001
7.004250e+002, 6.064880e+001
7.009071e+002, 6.034855e+001
7.013892e+002, 6.019918e+001
7.018713e+002, 6.023343e+001
7.023535e+002, 6.035025e+001
7.028356e+002, 6.046725e+001
7.033177e+002, 6.064734e+001
7.037998e+002, 6.056588e+001
7.042819e+002, 5.972253e+001
7.047640e+002, 5.873458e+001
7.052462e+002, 5.830096e+001
7.057283e+002, 5.909383e+001
7.062104e+002, 5.930986e+001
7.066925e+002, 5.858171e+001
7.071746e+002, 5.752348e+001
7.076567e+002, 5.720110e+001
7.081389e+002, 5.767455e+001
7.086210e+002, 5.790858e+001
7.091031e+002, 5.758974e+001
7.095852e+002, 5.705575e+001
7.100673e+002, 5.686501e+001
7.105494e+002, 5.692997e+001
7.110316e+002, 5.697884e+001
7.115137e+002, 5.689656e+001
7.119958e+002, 5.674904e+001
7.124779e+002, 5.654028e+001
7.129600e+002, 5.629574e+001
7.134421e+002, 5.609690e+001
7.139243e+002, 5.601059e+001
7.144064e+002, 5.592164e+001
7.148885e+002, 5.577296e+001
7.153706e+002, 5.558082e+001
7.158527e+002, 5.551746e+001
7.163348e+002, 5.566069e+001
7.168170e+002, 5.569488e+001
7.172991e+002, 5.539195e+001
7.177812e+002, 5.484293e+001
7.182633e+002, 5.450530e+001
7.187454e+002, 5.437534e+001
7.192275e+002, 5.443016e+001
7.197097e+002, 5.490196e+001
7.201918e+002, 5.541138e+001
7.206739e+002, 5.545155e+001
7.211560e+002, 5.498024e+001
7.216381e+002, 5.446078e+001
7.221202e+002, 5.390883e+001
7.226024e+002, 5.353478e+001
7.230845e+002, 5.352691e+001
7.235666e+002, 5.405304e+001
7.240487e+002, 5.447245e+001
7.245308e+002, 5.481853e+001
7.250129e+002, 5.501957e+001
7.254951e+002, 5.497396e+001
7.259772e+002, 5.466537e+001
7.264593e+002, 5.439153e+001
7.269414e+002, 5.416426e+001
7.274235e+002, 5.401389e+001
7.279056e+002, 5.406034e+001
7.283878e+002, 5.419833e+001
7.288699e+002, 5.416581e+001
7.293520e+002, 5.382024e+001
7.298341e+002, 5.353840e+001
7.303162e+002, 5.366412e+001
7.307983e+002, 5.396939e+001
7.312805e+002, 5.416821e+001
7.317626e+002, 5.410036e+001
7.322447e+002, 5.404613e+001
7.327268e+002, 5.404927e+001
7.332089e+002, 5.407215e+001
7.336910e+002, 5.403071e+001
7.341732e+002, 5.388550e+001
7.346553e+002, 5.388377e+001
7.351374e+002, 5.414997e+001
7.356195e+002, 5.447453e+001
7.361016e+002, 5.434017e+001
7.365837e+002, 5.386709e+001
7.370659e+002, 5.358144e+001
7.375480e+002, 5.381451e+001
7.380301e+002, 5.420949e+001
7.385122e+002, 5.448561e+001
7.389943e+002, 5.466859e+001
7.394764e+002, 5.482138e+001
7.399586e+002, 5.497007e+001
7.404407e+002, 5.508609e+001
7.409228e+002, 5.518237e+001
7.414049e+002, 5.524376e+001
7.418870e+002, 5.517371e+001
7.423691e+002, 5.491774e+001
7.428513e+002, 5.467532e+001
7.433334e+002, 5.449302e+001
7.438155e+002, 5.438967e+001
7.442976e+002, 5.450471e+001
7.447797e+002, 5.482510e+001
7.452618e+002, 5.509923e+001
7.457440e+002, 5.518093e+001
7.462261e+002, 5.512761e+001
7.467082e+002, 5.492711e+001
7.471903e+002, 5.461221e+001
7.476724e+002, 5.443140e+001
7.481545e+002, 5.461049e+001
7.486367e+002, 5.485479e+001
7.491188e+002, 5.502146e+001
7.496009e+002, 5.510027e+001
7.500830e+002, 5.512344e+001
7.505651e+002, 5.507658e+001
7.510472e+002, 5.500007e+001
7.515294e+002, 5.487229e+001
7.520115e+002, 5.469923e+001
7.524936e+002, 5.476867e+001
7.529757e+002, 5.509499e+001
7.534578e+002, 5.542597e+001
7.539399e+002, 5.561619e+001
7.544221e+002, 5.564035e+001
7.549042e+002, 5.533419e+001
7.553863e+002, 5.463951e+001
7.558684e+002, 5.419831e+001
7.563505e+002, 5.453085e+001
7.568326e+002, 5.511940e+001
7.573148e+002, 5.559448e+001
7.577969e+002, 5.596889e+001
7.582790e+002, 5.605001e+001
7.587611e+002, 5.565557e+001
7.592432e+002, 5.521357e+001
7.597253e+002, 5.512215e+001
7.602075e+002, 5.538897e+001
7.606896e+002, 5.563165e+001
7.611717e+002, 5.583211e+001
7.616538e+002, 5.595979e+001
7.621359e+002, 5.589759e+001
7.626180e+002, 5.576336e+001
7.631002e+002, 5.580458e+001
7.635823e+002, 5.614314e+001
7.640644e+002, 5.641116e+001
7.645465e+002, 5.634792e+001
7.650286e+002, 5.614181e+001
7.655107e+002, 5.599543e+001
7.659929e+002, 5.593977e+001
7.664750e+002, 5.594605e+001
7.669571e+002, 5.604022e+001
7.674392e+002, 5.617035e+001
7.679213e+002, 5.625246e+001
7.684034e+002, 5.628172e+001
7.688856e+002, 5.643212e+001
7.693677e+002, 5.677740e+001
7.698498e+002, 5.709592e+001
7.703319e+002, 5.696442e+001
7.708140e+002, 5.660859e+001
7.712961e+002, 5.652384e+001
7.717783e+002, 5.701350e+001
7.722604e+002, 5.752130e+001
7.727425e+002, 5.777723e+001
7.732246e+002, 5.785885e+001
7.737067e+002, 5.788722e+001
7.741888e+002, 5.788956e+001
7.746710e+002, 5.780574e+001
7.751531e+002, 5.753724e+001
7.756352e+002, 5.726002e+001
7.761173e+002, 5.737953e+001
7.765994e+002, 5.791072e+001
7.770815e+002, 5.821555e+001
7.775637e+002, 5.806673e+001
7.780458e+002, 5.778075e+001
7.785279e+002, 5.778919e+001
7.790100e+002, 5.801388e+001
7.794921e+002, 5.828054e+001
7.799742e+002, 5.855918e+001
7.804564e+002, 5.881366e+001
7.809385e+002, 5.911401e+001
7.814206e+002, 5.937015e+001
7.819027e+002, 5.936074e+001
7.823848e+002, 5.879960e+001
7.828669e+002, 5.846855e+001
7.833491e+002, 5.858819e+001
7.838312e+002, 5.894166e+001
7.843133e+002, 5.895538e+001
7.847954e+002, 5.863958e+001
7.852775e+002, 5.842897e+001
7.857596e+002, 5.850162e+001
7.862418e+002, 5.871096e+001
7.867239e+002, 5.888631e+001
7.872060e+002, 5.903675e+001
7.876881e+002, 5.918960e+001
7.881702e+002, 5.932673e+001
7.886523e+002, 5.949553e+001
7.891345e+002, 5.980758e+001
7.896166e+002, 6.016370e+001
7.900987e+002, 6.028296e+001
7.905808e+002, 6.006512e+001
7.910629e+002, 5.978389e+001
7.915450e+002, 5.942632e+001
7.920272e+002, 5.910037e+001
7.925093e+002, 5.917599e+001
7.929914e+002, 5.962434e+001
7.934735e+002, 6.012121e+001
7.939556e+002, 6.066654e+001
7.944377e+002, 6.105644e+001
7.949199e+002, 6.089373e+001
7.954020e+002, 6.037300e+001
7.958841e+002, 6.001624e+001
7.963662e+002, 6.020987e+001
7.968483e+002, 6.040032e+001
7.973304e+002, 6.034651e+001
7.978126e+002, 6.014059e+001
7.982947e+002, 6.009327e+001
7.987768e+002, 6.029028e+001
7.992589e+002, 6.039270e+001
7.997410e+002, 6.024910e+001
8.002231e+002, 5.999753e+001
8.007053e+002, 6.002995e+001
8.011874e+002, 6.030052e+001
8.016695e+002, 6.055320e+001
8.021516e+002, 6.065512e+001
8.026337e+002, 6.069054e+001
8.031158e+002, 6.070218e+001
8.035980e+002, 6.070567e+001
8.040801e+002, 6.074469e+001
8.045622e+002, 6.077686e+001
8.050443e+002, 6.091809e+001
8.055264e+002, 6.127174e+001
8.060085e+002, 6.174092e+001
8.064907e+002, 6.200542e+001
8.069728e+002, 6.203764e+001
8.074549e+002, 6.200521e+001
8.079370e+002, 6.196041e+001
8.084191e+002, 6.188866e+001
8.089012e+002, 6.167926e+001
8.093834e+002, 6.139959e+001
8.098655e+002, 6.129138e+001
8.103476e+002, 6.172417e+001
8.108297e+002, 6.212789e+001
8.113118e+002, 6.203904e+001
8.117939e+002, 6.163346e+001
8.122761e+002, 6.144101e+001
8.127582e+002, 6.171198e+001
8.132403e+002, 6.196020e+001
8.137224e+002, 6.208083e+001
8.142045e+002, 6.212134e+001
8.146866e+002, 6.223507e+001
8.151688e+002, 6.242160e+001
8.156509e+002, 6.257064e+001
8.161330e+002, 6.265715e+001
8.166151e+002, 6.266452e+001
8.170972e+002, 6.244896e+001
8.175793e+002, 6.213157e+001
8.180615e+002, 6.201979e+001
8.185436e+002, 6.260002e+001
8.190257e+002, 6.303368e+001
8.195078e+002, 6.277020e+001
8.199899e+002, 6.212294e+001
8.204720e+002, 6.198854e+001
8.209542e+002, 6.262175e+001
8.214363e+002, 6.315716e+001
8.219184e+002, 6.340713e+001
8.224005e+002, 6.345402e+001
8.228826e+002, 6.346492e+001
8.233647e+002, 6.343979e+001
8.238469e+002, 6.336614e+001
8.243290e+002, 6.316315e+001
8.248111e+002, 6.301952e+001
8.252932e+002, 6.320081e+001
8.257753e+002, 6.355487e+001
8.262574e+002, 6.377521e+001
8.267396e+002, 6.368227e+001
8.272217e+002, 6.356425e+001
8.277038e+002, 6.344105e+001
8.281859e+002, 6.333975e+001
8.286681e+002, 6.333466e+001
8.291502e+002, 6.345089e+001
8.296323e+002, 6.347096e+001
8.301144e+002, 6.331147e+001
8.305966e+002, 6.310704e+001
8.310787e+002, 6.304809e+001
8.315608e+002, 6.310523e+001
8.320429e+002, 6.321406e+001
8.325250e+002, 6.339824e+001
8.330071e+002, 6.355288e+001
8.334893e+002, 6.361140e+001
8.339714e+002, 6.361176e+001
8.344535e+002, 6.361694e+001
8.349356e+002, 6.366239e+001
8.354177e+002, 6.364199e+001
8.358998e+002, 6.350135e+001
8.363820e+002, 6.335557e+001
8.368641e+002, 6.342723e+001
8.373462e+002, 6.368167e+001
8.378283e+002, 6.380590e+001
8.383104e+002, 6.371012e+001
8.387925e+002, 6.355716e+001
8.392747e+002, 6.347114e+001
8.397568e+002, 6.344036e+001
8.402389e+002, 6.344839e+001
8.407210e+002, 6.349223e+001
8.412031e+002, 6.357362e+001
8.416852e+002, 6.373947e+001
8.421674e+002, 6.390908e+001
8.426495e+002, 6.402814e+001
8.431316e+002, 6.411796e+001
8.436137e+002, 6.400091e+001
8.440958e+002, 6.361836e+001
8.445779e+002, 6.320555e+001
8.450601e+002, 6.302451e+001
8.455422e+002, 6.301712e+001
8.460243e+002, 6.307978e+001
8.465064e+002, 6.321123e+001
8.469885e+002, 6.331257e+001
8.474706e+002, 6.337965e+001
8.479528e+002, 6.336015e+001
8.484349e+002, 6.318084e+001
8.489170e+002, 6.274046e+001
8.493991e+002, 6.243248e+001
8.498812e+002, 6.227121e+001
8.503633e+002, 6.220642e+001
8.508455e+002, 6.221814e+001
8.513276e+002, 6.229650e+001
8.518097e+002, 6.241437e+001
8.522918e+002, 6.257443e+001
8.527739e+002, 6.262146e+001
8.532560e+002, 6.231444e+001
8.537382e+002, 6.191433e+001
8.542203e+002, 6.167044e+001
8.547024e+002, 6.162263e+001
8.551845e+002, 6.159019e+001
8.556666e+002, 6.152824e+001
8.561487e+002, 6.148690e+001
8.566309e+002, 6.150524e+001
8.571130e+002, 6.158163e+001
8.575951e+002, 6.161377e+001
8.580772e+002, 6.160694e+001
8.585593e+002, 6.148460e+001
8.590414e+002, 6.103524e+001
8.595236e+002, 6.051368e+001
8.600057e+002, 6.041254e+001
8.604878e+002, 6.067110e+001
8.609699e+002, 6.080781e+001
8.614520e+002, 6.033007e+001
8.619341e+002, 5.994331e+001
8.624163e+002, 6.014352e+001
8.628984e+002, 6.080132e+001
8.633805e+002, 6.097661e+001
8.638626e+002, 6.053740e+001
8.643447e+002, 6.005330e+001
8.648268e+002, 5.970840e+001
8.653090e+002, 5.949347e+001
8.657911e+002, 5.951605e+001
8.662732e+002, 5.968872e+001
8.667553e+002, 5.965149e+001
8.672374e+002, 5.893673e+001
8.677195e+002, 5.822821e+001
8.682017e+002, 5.799373e+001
8.686838e+002, 5.809077e+001
8.691659e+002, 5.811809e+001
8.696480e+002, 5.798306e+001
8.701301e+002, 5.789001e+001
8.706122e+002, 5.791310e+001
8.710944e+002, 5.796085e+001
8.715765e+002, 5.783081e+001
8.720586e+002, 5.753857e+001
8.725407e+002, 5.719729e+001
8.730228e+002, 5.684184e+001
8.735049e+002, 5.645171e+001
8.739871e+002, 5.590780e+001
8.744692e+002, 5.534414e+001
8.749513e+002, 5.495979e+001
8.754334e+002, 5.496320e+001
8.759155e+002, 5.494837e+001
8.763976e+002, 5.492870e+001
8.768798e+002, 5.483134e+001
8.773619e+002, 5.450392e+001
8.778440e+002, 5.392358e+001
8.783261e+002, 5.360105e+001
8.788082e+002, 5.364143e+001
8.792903e+002, 5.368584e+001
8.797725e+002, 5.321405e+001
8.802546e+002, 5.254962e+001
8.807367e+002, 5.219960e+001
8.812188e+002, 5.232595e+001
8.817009e+002, 5.240971e+001
8.821830e+002, 5.228601e+001
8.826652e+002, 5.203469e+001
8.831473e+002, 5.168457e+001
8.836294e+002, 5.119245e+001
8.841115e+002, 5.091085e+001
8.845936e+002, 5.088575e+001
8.850757e+002, 5.084335e+001
8.855579e+002, 5.054387e+001
8.860400e+002, 5.008512e+001
8.865221e+002, 4.961485e+001
8.870042e+002, 4.915472e+001
8.874863e+002, 4.880714e+001
8.879684e+002, 4.877388e+001
8.884506e+002, 4.873963e+001
8.889327e+002, 4.848384e+001
8.894148e+002, 4.802368e+001
8.898969e+002, 4.767177e+001
8.903790e+002, 4.741605e+001
8.908611e+002, 4.733104e+001
8.913433e+002, 4.757115e+001
8.918254e+002, 4.791956e+001
8.923075e+002, 4.774369e+001
8.927896e+002, 4.714140e+001
8.932717e+002, 4.654897e+001
8.937538e+002, 4.613817e+001
8.942360e+002, 4.584224e+001
8.947181e+002, 4.567161e+001
8.952002e+002, 4.558837e+001
8.956823e+002, 4.551100e+001
8.961644e+002, 4.550495e+001
8.966465e+002, 4.533635e+001
8.971287e+002, 4.488984e+001
8.976108e+002, 4.437634e+001
8.980929e+002, 4.423300e+001
8.985750e+002, 4.438616e+001
8.990571e+002, 4.451171e+001
8.995392e+002, 4.456625e+001
9.000214e+002, 4.445837e+001
9.005035e+002, 4.391819e+001
9.009856e+002, 4.326748e+001
9.014677e+002, 4.288455e+001
9.019498e+002, 4.312972e+001
9.024319e+002, 4.314280e+001
9.029141e+002, 4.285669e+001
9.033962e+002, 4.242632e+001
9.038783e+002, 4.191334e+001
9.043604e+002, 4.134612e+001
9.048425e+002, 4.102056e+001
9.053246e+002, 4.095932e+001
9.058068e+002, 4.096839e+001
9.062889e+002, 4.088503e+001
9.067710e+002, 4.079521e+001
9.072531e+002, 4.084389e+001
9.077352e+002, 4.106538e+001
9.082173e+002, 4.101085e+001
9.086995e+002, 4.039101e+001
9.091816e+002, 3.980957e+001
9.096637e+002, 3.955877e+001
9.101458e+002, 3.958018e+001
9.106279e+002, 3.949521e+001
9.111100e+002, 3.930807e+001
9.115922e+002, 3.910284e+001
9.120743e+002, 3.888958e+001
9.125564e+002, 3.870835e+001
9.130385e+002, 3.868368e+001
9.135206e+002, 3.873182e+001
9.140027e+002, 3.859794e+001
9.144849e+002, 3.790081e+001
9.149670e+002, 3.742100e+001
9.154491e+002, 3.738316e+001
9.159312e+002, 3.758117e+001
9.164133e+002, 3.755450e+001
9.168954e+002, 3.730955e+001
9.173776e+002, 3.721136e+001
9.178597e+002, 3.740272e+001
9.183418e+002, 3.759779e+001
9.188239e+002, 3.741740e+001
9.193060e+002, 3.706393e+001
9.197881e+002, 3.682897e+001
9.202703e+002, 3.686668e+001
9.207524e+002, 3.684963e+001
9.212345e+002, 3.667785e+001
9.217166e+002, 3.648986e+001
9.221987e+002, 3.643818e+001
9.226808e+002, 3.653435e+001
9.231630e+002, 3.637429e+001
9.236451e+002, 3.591675e+001
9.241272e+002, 3.554403e+001
9.246093e+002, 3.564818e+001
9.250914e+002, 3.597574e+001
9.255735e+002, 3.632982e+001
9.260557e+002, 3.667979e+001
9.265378e+002, 3.678009e+001
9.270199e+002, 3.636683e+001
9.275020e+002, 3.589124e+001
9.279841e+002, 3.547887e+001
9.284662e+002, 3.513288e+001
9.289484e+002, 3.483247e+001
9.294305e+002, 3.457726e+001
9.299126e+002, 3.451003e+001
9.303947e+002, 3.487517e+001
9.308768e+002, 3.527490e+001
9.313589e+002, 3.514566e+001
9.318411e+002, 3.469691e+001
9.323232e+002, 3.439167e+001
9.328053e+002, 3.464093e+001
9.332874e+002, 3.467765e+001
9.337695e+002, 3.424030e+001
9.342516e+002, 3.366970e+001
9.347338e+002, 3.354537e+001
9.352159e+002, 3.386388e+001
9.356980e+002, 3.399741e+001
9.361801e+002, 3.382475e+001
9.366622e+002, 3.357372e+001
9.371443e+002, 3.342779e+001
9.376265e+002, 3.336176e+001
9.381086e+002, 3.335715e+001
9.385907e+002, 3.342445e+001
9.390728e+002, 3.350011e+001
9.395549e+002, 3.369950e+001
9.400370e+002, 3.374389e+001
9.405192e+002, 3.334867e+001
9.410013e+002, 3.255804e+001
9.414834e+002, 3.235529e+001
9.419655e+002, 3.272776e+001
9.424476e+002, 3.309537e+001
9.429297e+002, 3.299417e+001
9.434119e+002, 3.276326e+001
9.438940e+002, 3.277324e+001
9.443761e+002, 3.296068e+001
9.448582e+002, 3.299691e+001
9.453403e+002, 3.262813e+001
9.458224e+002, 3.234584e+001
9.463046e+002, 3.225535e+001
9.467867e+002, 3.230459e+001
9.472688e+002, 3.242631e+001
9.477509e+002, 3.260069e+001
9.482330e+002, 3.264095e+001
9.487151e+002, 3.245387e+001
9.491973e+002, 3.223014e+001
9.496794e+002, 3.211090e+001
9.501615e+002, 3.207045e+001
9.506436e+002, 3.208243e+001
9.511257e+002, 3.218648e+001
9.516078e+002, 3.226404e+001
9.520900e+002, 3.234705e+001
9.525721e+002, 3.234797e+001
9.530542e+002, 3.211075e+001
9.535363e+002, 3.170074e+001
9.540184e+002, 3.157306e+001
9.545005e+002, 3.173488e+001
9.549827e+002, 3.187480e+001
9.554648e+002, 3.172857e+001
9.559469e+002, 3.151639e+001
9.564290e+002, 3.134664e+001
9.569111e+002, 3.124130e+001
9.573932e+002, 3.134481e+001
9.578754e+002, 3.183577e+001
9.583575e+002, 3.211266e+001
9.588396e+002, 3.190998e+001
9.593217e+002, 3.145785e+001
9.598038e+002, 3.128156e+001
9.602859e+002, 3.133364e+001
9.607681e+002, 3.147460e+001
9.612502e+002, 3.180587e+001
9.617323e+002, 3.195203e+001
9.622144e+002, 3.145979e+001
9.626965e+002, 3.077378e+001
9.631786e+002, 3.050192e+001
9.636608e+002, 3.089570e+001
9.641429e+002, 3.100319e+001
9.646250e+002, 3.071233e+001
9.651071e+002, 3.039980e+001
9.655892e+002, 3.051310e+001
9.660714e+002, 3.086612e+001
9.665535e+002, 3.107984e+001
9.670356e+002, 3.112130e+001
9.675177e+002, 3.105013e+001
9.679998e+002, 3.073578e+001
9.684819e+002, 3.047039e+001
9.689641e+002, 3.045048e+001
9.694462e+002, 3.063263e+001
9.699283e+002, 3.073060e+001
9.704104e+002, 3.075271e+001
9.708925e+002, 3.060077e+001
9.713746e+002, 3.010667e+001
9.718568e+002, 2.959187e+001
9.723389e+002, 2.965871e+001
9.728210e+002, 3.006329e+001
9.733031e+002, 3.028700e+001
9.737852e+002, 2.992150e+001
9.742673e+002, 2.966372e+001
9.747495e+002, 2.971616e+001
9.752316e+002, 2.986971e+001
9.757137e+002, 2.991838e+001
9.761958e+002, 2.986038e+001
9.766779e+002, 2.971026e+001
9.771600e+002, 2.945134e+001
9.776422e+002, 2.929562e+001
9.781243e+002, 2.956338e+001
9.786064e+002, 2.994271e+001
9.790885e+002, 3.010167e+001
9.795706e+002, 3.000805e+001
9.800527e+002, 2.986592e+001
9.805349e+002, 2.967757e+001
9.810170e+002, 2.949361e+001
9.814991e+002, 2.932587e+001
9.819812e+002, 2.917650e+001
9.824633e+002, 2.902194e+001
9.829454e+002, 2.887973e+001
9.834276e+002, 2.886704e+001
9.839097e+002, 2.913470e+001
9.843918e+002, 2.939952e+001
9.848739e+002, 2.945273e+001
9.853560e+002, 2.937664e+001
9.858381e+002, 2.928949e+001
9.863203e+002, 2.915603e+001
9.868024e+002, 2.913254e+001
9.872845e+002, 2.926228e+001
9.877666e+002, 2.940830e+001
9.882487e+002, 2.940320e+001
9.887308e+002, 2.930763e+001
9.892130e+002, 2.929854e+001
9.896951e+002, 2.938654e+001
9.901772e+002, 2.942979e+001
9.906593e+002, 2.929506e+001
9.911414e+002, 2.914810e+001
9.916235e+002, 2.909714e+001
9.921057e+002, 2.911845e+001
9.925878e+002, 2.904865e+001
9.930699e+002, 2.886685e+001
9.935520e+002, 2.874856e+001
9.940341e+002, 2.876659e+001
9.945162e+002, 2.885937e+001
9.949984e+002, 2.895120e+001
9.954805e+002, 2.904999e+001
9.959626e+002, 2.917645e+001
9.964447e+002, 2.943962e+001
9.969268e+002, 2.955021e+001
9.974089e+002, 2.932371e+001
9.978911e+002, 2.908920e+001
9.983732e+002, 2.922495e+001
9.988553e+002, 2.970923e+001
9.993374e+002, 2.984501e+001
9.998195e+002, 2.960073e+001
1.000302e+003, 2.929089e+001
1.000784e+003, 2.905020e+001
1.001266e+003, 2.892623e+001
1.001748e+003, 2.902189e+001
1.002230e+003, 2.930838e+001
1.002712e+003, 2.947864e+001
1.003194e+003, 2.948244e+001
1.003676e+003, 2.943288e+001
1.004159e+003, 2.933231e+001
1.004641e+003, 2.923148e+001
1.005123e+003, 2.927544e+001
1.005605e+003, 2.940637e+001
1.006087e+003, 2.944384e+001
1.006569e+003, 2.931025e+001
1.007051e+003, 2.914374e+001
1.007533e+003, 2.898480e+001
1.008016e+003, 2.884263e+001
1.008498e+003, 2.870490e+001
1.008980e+003, 2.854687e+001
1.009462e+003, 2.857853e+001
1.009944e+003, 2.882880e+001
1.010426e+003, 2.906063e+001
1.010908e+003, 2.901907e+001
1.011390e+003, 2.890299e+001
1.011872e+003, 2.905592e+001
1.012355e+003, 2.939721e+001
1.012837e+003, 2.954992e+001
1.013319e+003, 2.916245e+001
1.013801e+003, 2.886889e+001
1.014283e+003, 2.880839e+001
1.014765e+003, 2.889829e+001
1.015247e+003, 2.903554e+001
1.015729e+003, 2.920200e+001
1.016211e+003, 2.921673e+001
1.016694e+003, 2.900763e+001
1.017176e+003, 2.884046e+001
1.017658e+003, 2.901143e+001
1.018140e+003, 2.927018e+001
1.018622e+003, 2.937345e+001
1.019104e+003, 2.926695e+001
1.019586e+003, 2.925925e+001
1.020068e+003, 2.939281e+001
1.020551e+003, 2.948691e+001
1.021033e+003, 2.943813e+001
1.021515e+003, 2.928757e+001
1.021997e+003, 2.907121e+001
1.022479e+003, 2.882781e+001
1.022961e+003, 2.867524e+001
1.023443e+003, 2.867093e+001
1.023925e+003, 2.875816e+001
1.024407e+003, 2.898681e+001
1.024890e+003, 2.925245e+001
1.025372e+003, 2.941979e+001
1.025854e+003, 2.948394e+001
1.026336e+003, 2.957382e+001
1.026818e+003, 2.970397e+001
1.027300e+003, 2.983349e+001
1.027782e+003, 3.002698e+001
1.028264e+003, 3.013281e+001
1.028746e+003, 2.988434e+001
1.029229e+003, 2.927231e+001
1.029711e+003, 2.906481e+001
1.030193e+003, 2.954000e+001
1.030675e+003, 2.988379e+001
1.031157e+003, 2.976200e+001
1.031639e+003, 2.941680e+001
1.032121e+003, 2.944263e+001
1.032603e+003, 2.971563e+001
1.033086e+003, 2.983333e+001
1.033568e+003, 2.956905e+001
1.034050e+003, 2.934815e+001
1.034532e+003, 2.938844e+001
1.035014e+003, 2.954236e+001
1.035496e+003, 2.969798e+001
1.035978e+003, 2.987015e+001
1.036460e+003, 2.991221e+001
1.036943e+003, 2.981655e+001
1.037425e+003, 2.970223e+001
1.037907e+003, 2.967584e+001
1.038389e+003, 2.966106e+001
1.038871e+003, 2.953946e+001
1.039353e+003, 2.934899e+001
1.039835e+003, 2.925659e+001
1.040317e+003, 2.936843e+001
1.040799e+003, 2.945335e+001
1.041281e+003, 2.946976e+001
1.041764e+003, 2.945684e+001
1.042246e+003, 2.949857e+001
1.042728e+003, 2.956391e+001
1.043210e+003, 2.954910e+001
1.043692e+003, 2.943197e+001
1.044174e+003, 2.926700e+001
1.044656e+003, 2.894274e+001
1.045138e+003, 2.871297e+001
1.045621e+003, 2.881527e+001
1.046103e+003, 2.920896e+001
1.046585e+003, 2.929985e+001
1.047067e+003, 2.906675e+001
1.047549e+003, 2.881589e+001
1.048031e+003, 2.869403e+001
1.048513e+003, 2.861319e+001
1.048995e+003, 2.847486e+001
1.049478e+003, 2.830547e+001
1.049960e+003, 2.814981e+001
1.050442e+003, 2.796465e+001
1.050924e+003, 2.789277e+001
1.051406e+003, 2.798018e+001
1.051888e+003, 2.809778e+001
1.052370e+003, 2.815139e+001
1.052852e+003, 2.813701e+001
1.053334e+003, 2.801312e+001
1.053817e+003, 2.779019e+001
1.054299e+003, 2.757674e+001
1.054781e+003, 2.744497e+001
1.055263e+003, 2.732371e+001
1.055745e+003, 2.717994e+001
1.056227e+003, 2.702136e+001
1.056709e+003, 2.685753e+001
1.057191e+003, 2.668608e+001
1.057673e+003, 2.655098e+001
1.058156e+003, 2.645950e+001
1.058638e+003, 2.641286e+001
1.059120e+003, 2.642298e+001
1.059602e+003, 2.647058e+001
1.060084e+003, 2.656663e+001
1.060566e+003, 2.674359e+001
1.061048e+003, 2.672319e+001
1.061530e+003, 2.640516e+001
1.062013e+003, 2.612057e+001
1.062495e+003, 2.606935e+001
1.062977e+003, 2.612621e+001
1.063459e+003, 2.592150e+001
1.063941e+003, 2.555863e+001
1.064423e+003, 2.533252e+001
1.064905e+003, 2.549261e+001
1.065387e+003, 2.561968e+001
1.065870e+003, 2.558314e+001
1.066352e+003, 2.545685e+001
1.066834e+003, 2.525265e+001
1.067316e+003, 2.497004e+001
1.067798e+003, 2.493712e+001
1.068280e+003, 2.516533e+001
1.068762e+003, 2.531588e+001
1.069244e+003, 2.501300e+001
1.069726e+003, 2.464376e+001
1.070208e+003, 2.457131e+001
1.070691e+003, 2.471569e+001
1.071173e+003, 2.466240e+001
1.071655e+003, 2.429831e+001
1.072137e+003, 2.406713e+001
1.072619e+003, 2.405886e+001
1.073101e+003, 2.417758e+001
1.073583e+003, 2.441107e+001
1.074065e+003, 2.463524e+001
1.074548e+003, 2.460690e+001
1.075030e+003, 2.425117e+001
1.075512e+003, 2.396628e+001
1.075994e+003, 2.390510e+001
1.076476e+003, 2.387474e+001
1.076958e+003, 2.380780e+001
1.077440e+003, 2.371128e+001
1.077922e+003, 2.360917e+001
1.078405e+003, 2.350089e+001
1.078887e+003, 2.337857e+001
1.079369e+003, 2.320057e+001
1.079851e+003, 2.307468e+001
1.080333e+003, 2.313126e+001
1.080815e+003, 2.322711e+001
1.081297e+003, 2.320123e+001
1.081779e+003, 2.302707e+001
1.082261e+003, 2.286801e+001
1.082744e+003, 2.271937e+001
1.083226e+003, 2.262942e+001
1.083708e+003, 2.269403e+001
1.084190e+003, 2.278655e+001
1.084672e+003, 2.276038e+001
1.085154e+003, 2.264721e+001
1.085636e+003, 2.256463e+001
1.086118e+003, 2.255743e+001
1.086601e+003, 2.252859e+001
1.087083e+003, 2.247849e+001
1.087565e+003, 2.237558e+001
1.088047e+003, 2.205712e+001
1.088529e+003, 2.169231e+001
1.089011e+003, 2.172356e+001
1.089493e+003, 2.219553e+001
1.089975e+003, 2.250911e+001
1.090458e+003, 2.219833e+001
1.090940e+003, 2.193979e+001
1.091422e+003, 2.204496e+001
1.091904e+003, 2.234511e+001
1.092386e+003, 2.226172e+001
1.092868e+003, 2.186441e+001
1.093350e+003, 2.161290e+001
1.093832e+003, 2.169170e+001
1.094314e+003, 2.177530e+001
1.094797e+003, 2.156292e+001
1.095279e+003, 2.130683e+001
1.095761e+003, 2.126449e+001
1.096243e+003, 2.145753e+001
1.096725e+003, 2.156653e+001
1.097207e+003, 2.159250e+001
1.097689e+003, 2.152277e+001
1.098171e+003, 2.127968e+001
1.098653e+003, 2.100885e+001
1.099136e+003, 2.083155e+001
1.099618e+003, 2.075876e+001
1.100100e+003, 2.082075e+001
1.100582e+003, 2.126716e+001
1.101064e+003, 2.134795e+001
1.101546e+003, 2.091522e+001
1.102028e+003, 2.044237e+001
1.102510e+003, 2.040718e+001
1.102993e+003, 2.063466e+001
1.103475e+003, 2.078960e+001
1.103957e+003, 2.085439e+001
1.104439e+003, 2.082308e+001
1.104921e+003, 2.050806e+001
1.105403e+003, 2.035051e+001
1.105885e+003, 2.055069e+001
1.106367e+003, 2.086289e+001
1.106849e+003, 2.079443e+001
1.107332e+003, 2.043163e+001
1.107814e+003, 2.026748e+001
1.108296e+003, 2.039233e+001
1.108778e+003, 2.047091e+001
1.109260e+003, 2.012726e+001
1.109742e+003, 1.981874e+001
1.110224e+003, 1.989306e+001
1.110706e+003, 2.026260e+001
1.111188e+003, 2.048296e+001
1.111671e+003, 2.055387e+001
1.112153e+003, 2.055504e+001
1.112635e+003, 2.051488e+001
1.113117e+003, 2.040665e+001
1.113599e+003, 2.014720e+001
1.114081e+003, 1.983481e+001
1.114563e+003, 1.957503e+001
1.115045e+003, 1.936050e+001
1.115528e+003, 1.931468e+001
1.116010e+003, 1.947745e+001
1.116492e+003, 1.963934e+001
1.116974e+003, 1.968559e+001
1.117456e+003, 1.965715e+001
1.117938e+003, 1.961451e+001
1.118420e+003, 1.954950e+001
1.118902e+003, 1.944440e+001
1.119385e+003, 1.918009e+001
1.119867e+003, 1.906565e+001
1.120349e+003, 1.917082e+001
1.120831e+003, 1.931504e+001
1.121313e+003, 1.933205e+001
1.121795e+003, 1.925744e+001
1.122277e+003, 1.917483e+001
1.122759e+003, 1.909414e+001
1.123241e+003, 1.905154e+001
1.123724e+003, 1.913668e+001
1.124206e+003, 1.916870e+001
1.124688e+003, 1.909152e+001
1.125170e+003, 1.894372e+001
1.125652e+003, 1.876550e+001
1.126134e+003, 1.856485e+001
1.126616e+003, 1.839889e+001
1.127098e+003, 1.827414e+001
1.127580e+003, 1.819723e+001
1.128063e+003, 1.822107e+001
1.128545e+003, 1.824808e+001
1.129027e+003, 1.819416e+001
1.129509e+003, 1.809526e+001
1.129991e+003, 1.809720e+001
1.130473e+003, 1.820339e+001
1.130955e+003, 1.825022e+001
1.131437e+003, 1.817892e+001
1.131920e+003, 1.810692e+001
1.132402e+003, 1.818714e+001
1.132884e+003, 1.829309e+001
1.133366e+003, 1.826929e+001
1.133848e+003, 1.809193e+001
1.134330e+003, 1.808214e+001
1.134812e+003, 1.828820e+001
1.135294e+003, 1.838497e+001
1.135776e+003, 1.816626e+001
1.136259e+003, 1.787205e+001
1.136741e+003, 1.784138e+001
1.137223e+003, 1.794693e+001
1.137705e+003, 1.799074e+001
1.138187e+003, 1.790899e+001
1.138669e+003, 1.779592e+001
1.139151e+003, 1.763302e+001
1.139633e+003, 1.748939e+001
1.140115e+003, 1.745783e+001
1.140598e+003, 1.745414e+001
1.141080e+003, 1.717272e+001
1.141562e+003, 1.676810e+001
1.142044e+003, 1.666432e+001
1.142526e+003, 1.746749e+001
1.143008e+003, 1.791293e+001
1.143490e+003, 1.775831e+001
1.143972e+003, 1.738976e+001
1.144455e+003, 1.711659e+001
1.144937e+003, 1.695423e+001
1.145419e+003, 1.702892e+001
1.145901e+003, 1.730164e+001
1.146383e+003, 1.747548e+001
1.146865e+003, 1.729144e+001
1.147347e+003, 1.712437e+001
1.147829e+003, 1.712591e+001
1.148312e+003, 1.716950e+001
1.148794e+003, 1.694401e+001
1.149276e+003, 1.653717e+001
1.149758e+003, 1.670358e+001
1.150240e+003, 1.754100e+001
1.150722e+003, 1.812582e+001
1.151204e+003, 1.755397e+001
1.151686e+003, 1.687784e+001
1.152168e+003, 1.670746e+001
1.152651e+003, 1.687514e+001
1.153133e+003, 1.690063e+001
1.153615e+003, 1.678980e+001
1.154097e+003, 1.667869e+001
1.154579e+003, 1.659797e+001
1.155061e+003, 1.652822e+001
1.155543e+003, 1.641771e+001
1.156025e+003, 1.633983e+001
1.156507e+003, 1.639161e+001
1.156990e+003, 1.655251e+001
1.157472e+003, 1.661776e+001
1.157954e+003, 1.657988e+001
1.158436e+003, 1.657027e+001
1.158918e+003, 1.664830e+001
1.159400e+003, 1.673784e+001
1.159882e+003, 1.678491e+001
1.160364e+003, 1.678747e+001
1.160847e+003, 1.673134e+001
1.161329e+003, 1.660520e+001
1.161811e+003, 1.649623e+001
1.162293e+003, 1.640190e+001
1.162775e+003, 1.634590e+001
1.163257e+003, 1.634338e+001
1.163739e+003, 1.638231e+001
1.164221e+003, 1.651260e+001
1.164703e+003, 1.665224e+001
1.165186e+003, 1.665473e+001
1.165668e+003, 1.641126e+001
1.166150e+003, 1.621684e+001
1.166632e+003, 1.607520e+001
1.167114e+003, 1.597438e+001
1.167596e+003, 1.587300e+001
1.168078e+003, 1.582775e+001
1.168560e+003, 1.601367e+001
1.169042e+003, 1.632960e+001
1.169525e+003, 1.650459e+001
1.170007e+003, 1.643829e+001
1.170489e+003, 1.622665e+001
1.170971e+003, 1.577516e+001
1.171453e+003, 1.542618e+001
1.171935e+003, 1.563184e+001
1.172417e+003, 1.611568e+001
1.172899e+003, 1.637356e+001
1.173382e+003, 1.640541e+001
1.173864e+003, 1.631708e+001
1.174346e+003, 1.594916e+001
1.174828e+003, 1.575045e+001
1.175310e+003, 1.581738e+001
1.175792e+003, 1.600484e+001
1.176274e+003, 1.618259e+001
1.176756e+003, 1.632104e+001
1.177239e+003, 1.633807e+001
1.177721e+003, 1.623408e+001
1.178203e+003, 1.612046e+001
1.178685e+003, 1.605494e+001
1.179167e+003, 1.596067e+001
1.179649e+003, 1.579572e+001
1.180131e+003, 1.562251e+001
1.180613e+003, 1.553170e+001
1.181095e+003, 1.552626e+001
1.181578e+003, 1.566931e+001
1.182060e+003, 1.598290e+001
1.182542e+003, 1.615618e+001
1.183024e+003, 1.592290e+001
1.183506e+003, 1.567023e+001
1.183988e+003, 1.552192e+001
1.184470e+003, 1.545873e+001
1.184952e+003, 1.544768e+001
1.185434e+003, 1.548001e+001
1.185917e+003, 1.553245e+001
1.186399e+003, 1.560705e+001
1.186881e+003, 1.565917e+001
1.187363e+003, 1.564066e+001
1.187845e+003, 1.562517e+001
1.188327e+003, 1.566733e+001
1.188809e+003, 1.573266e+001
1.189291e+003, 1.562829e+001
1.189774e+003, 1.541292e+001
1.190256e+003, 1.539300e+001
1.190738e+003, 1.577595e+001
1.191220e+003, 1.604712e+001
1.191702e+003, 1.580740e+001
1.192184e+003, 1.551371e+001
1.192666e+003, 1.545796e+001
1.193148e+003, 1.560310e+001
1.193630e+003, 1.574872e+001
1.194113e+003, 1.587841e+001
1.194595e+003, 1.588499e+001
1.195077e+003, 1.563641e+001
1.195559e+003, 1.542013e+001
1.196041e+003, 1.540007e+001
1.196523e+003, 1.545901e+001
1.197005e+003, 1.552743e+001
1.197487e+003, 1.560053e+001
1.197969e+003, 1.556357e+001
1.198452e+003, 1.543470e+001
1.198934e+003, 1.535046e+001
1.199416e+003, 1.545334e+001
1.199898e+003, 1.552730e+001
1.200380e+003, 1.540890e+001
1.200862e+003, 1.525597e+001
1.201344e+003, 1.523065e+001
1.201826e+003, 1.533239e+001
1.202309e+003, 1.539609e+001
1.202791e+003, 1.542715e+001
1.203273e+003, 1.549520e+001
1.203755e+003, 1.575269e+001
1.204237e+003, 1.593138e+001
1.204719e+003, 1.580859e+001
1.205201e+003, 1.558293e+001
1.205683e+003, 1.548908e+001
1.206166e+003, 1.552592e+001
1.206648e+003, 1.558838e+001
1.207130e+003, 1.566257e+001
1.207612e+003, 1.560459e+001
1.208094e+003, 1.507281e+001
1.208576e+003, 1.465557e+001
1.209058e+003, 1.482291e+001
1.209540e+003, 1.522190e+001
1.210022e+003, 1.536058e+001
1.210505e+003, 1.524990e+001
1.210987e+003, 1.516205e+001
1.211469e+003, 1.511864e+001
1.211951e+003, 1.517213e+001
1.212433e+003, 1.555882e+001
1.212915e+003, 1.583712e+001
1.213397e+003, 1.562389e+001
1.213879e+003, 1.521101e+001
1.214361e+003, 1.509179e+001
1.214844e+003, 1.524681e+001
1.215326e+003, 1.538892e+001
1.215808e+003, 1.548608e+001
1.216290e+003, 1.553155e+001
1.216772e+003, 1.547089e+001
1.217254e+003, 1.541078e+001
1.217736e+003, 1.543635e+001
1.218218e+003, 1.548874e+001
1.218701e+003, 1.541313e+001
1.219183e+003, 1.522764e+001
1.219665e+003, 1.515945e+001
1.220147e+003, 1.524873e+001
1.220629e+003, 1.533448e+001
1.221111e+003, 1.525749e+001
1.221593e+003, 1.521025e+001
1.222075e+003, 1.533831e+001
1.222557e+003, 1.554717e+001
1.223040e+003, 1.558420e+001
1.223522e+003, 1.546968e+001
1.224004e+003, 1.535697e+001
1.224486e+003, 1.527300e+001
1.224968e+003, 1.520108e+001
1.225450e+003, 1.509010e+001
1.225932e+003, 1.503881e+001
1.226414e+003, 1.511682e+001
1.226896e+003, 1.527330e+001
1.227379e+003, 1.538322e+001
1.227861e+003, 1.543760e+001
1.228343e+003, 1.535461e+001
1.228825e+003, 1.508241e+001
1.229307e+003, 1.490180e+001
1.229789e+003, 1.501436e+001
1.230271e+003, 1.522434e+001
1.230753e+003, 1.548857e+001
1.231236e+003, 1.573769e+001
1.231718e+003, 1.566094e+001
1.232200e+003, 1.535069e+001
1.232682e+003, 1.520389e+001
1.233164e+003, 1.536059e+001
1.233646e+003, 1.548601e+001
1.234128e+003, 1.537946e+001
1.234610e+003, 1.524111e+001
1.235093e+003, 1.514115e+001
1.235575e+003, 1.509356e+001
1.236057e+003, 1.520411e+001
1.236539e+003, 1.540960e+001
1.237021e+003, 1.548556e+001
1.237503e+003, 1.533309e+001
1.237985e+003, 1.518638e+001
1.238467e+003, 1.513872e+001
1.238949e+003, 1.510800e+001
1.239432e+003, 1.505168e+001
1.239914e+003, 1.499148e+001
1.240396e+003, 1.500242e+001
1.240878e+003, 1.506446e+001
1.241360e+003, 1.512479e+001
1.241842e+003, 1.517467e+001
1.242324e+003, 1.520166e+001
1.242806e+003, 1.518573e+001
1.243288e+003, 1.517909e+001
1.243771e+003, 1.522011e+001
1.244253e+003, 1.527775e+001
1.244735e+003, 1.527864e+001
1.245217e+003, 1.523171e+001
1.245699e+003, 1.514070e+001
1.246181e+003, 1.493462e+001
1.246663e+003, 1.492064e+001
1.247145e+003, 1.523691e+001
1.247628e+003, 1.549274e+001
1.248110e+003, 1.544131e+001
1.248592e+003, 1.522850e+001
1.249074e+003, 1.516855e+001
1.249556e+003, 1.518021e+001
1.250038e+003, 1.508672e+001
1.250520e+003, 1.473711e+001
1.251002e+003, 1.457901e+001
1.251484e+003, 1.467453e+001
1.251967e+003, 1.481876e+001
1.252449e+003, 1.491932e+001
1.252931e+003, 1.497018e+001
1.253413e+003, 1.488389e+001
1.253895e+003, 1.476756e+001
1.254377e+003, 1.484109e+001
1.254859e+003, 1.532092e+001
1.255341e+003, 1.544585e+001
1.255823e+003, 1.513826e+001
1.256306e+003, 1.484351e+001
1.256788e+003, 1.485311e+001
1.257270e+003, 1.497928e+001
1.257752e+003, 1.502856e+001
1.258234e+003, 1.502615e+001
1.258716e+003, 1.501143e+001
1.259198e+003, 1.499573e+001
1.259680e+003, 1.493582e+001
1.260163e+003, 1.482582e+001
1.260645e+003, 1.472519e+001
1.261127e+003, 1.464842e+001
1.261609e+003, 1.461686e+001
1.262091e+003, 1.469232e+001
1.262573e+003, 1.480263e+001
1.263055e+003, 1.483706e+001
1.263537e+003, 1.477310e+001
1.264020e+003, 1.479898e+001
1.264502e+003, 1.491354e+001
1.264984e+003, 1.504616e+001
1.265466e+003, 1.523769e+001
1.265948e+003, 1.532981e+001
1.266430e+003, 1.508477e+001
1.266912e+003, 1.477434e+001
1.267394e+003, 1.474185e+001
1.267876e+003, 1.499423e+001
1.268359e+003, 1.500712e+001
1.268841e+003, 1.480269e+001
1.269323e+003, 1.457910e+001
1.269805e+003, 1.440423e+001
1.270287e+003, 1.428739e+001
1.270769e+003, 1.422739e+001
1.271251e+003, 1.423856e+001
1.271733e+003, 1.433332e+001
1.272215e+003, 1.451245e+001
1.272698e+003, 1.487606e+001
1.273180e+003, 1.535137e+001
1.273662e+003, 1.558594e+001
1.274144e+003, 1.517701e+001
1.274626e+003, 1.485832e+001
1.275108e+003, 1.480828e+001
1.275590e+003, 1.484789e+001
1.276072e+003, 1.483605e+001
1.276555e+003, 1.480351e+001
1.277037e+003, 1.490183e+001
1.277519e+003, 1.507050e+001
1.278001e+003, 1.513139e+001
1.278483e+003, 1.489161e+001
1.278965e+003, 1.473723e+001
1.279447e+003, 1.470451e+001
1.279929e+003, 1.472769e+001
1.280411e+003, 1.478606e+001
1.280894e+003, 1.484949e+001
1.281376e+003, 1.486146e+001
1.281858e+003, 1.483442e+001
1.282340e+003, 1.479664e+001
1.282822e+003, 1.474238e+001
1.283304e+003, 1.470392e+001
1.283786e+003, 1.468459e+001
1.284268e+003, 1.466522e+001
1.284750e+003, 1.459962e+001
1.285233e+003, 1.455599e+001
1.285715e+003, 1.465862e+001
1.286197e+003, 1.482242e+001
1.286679e+003, 1.489783e+001
1.287161e+003, 1.486614e+001
1.287643e+003, 1.477145e+001
1.288125e+003, 1.460817e+001
1.288607e+003, 1.452582e+001
1.289090e+003, 1.474113e+001
1.289572e+003, 1.492990e+001
1.290054e+003, 1.479180e+001
1.290536e+003, 1.453887e+001
1.291018e+003, 1.444454e+001
1.291500e+003, 1.451571e+001
1.291982e+003, 1.452840e+001
1.292464e+003, 1.449259e+001
1.292947e+003, 1.450223e+001
1.293429e+003, 1.469948e+001
1.293911e+003, 1.482484e+001
1.294393e+003, 1.465122e+001
1.294875e+003, 1.446646e+001
1.295357e+003, 1.451507e+001
1.295839e+003, 1.474206e+001
1.296321e+003, 1.484666e+001
1.296803e+003, 1.484848e+001
1.297286e+003, 1.481189e+001
1.297768e+003, 1.470660e+001
1.298250e+003, 1.466565e+001
1.298732e+003, 1.472747e+001
1.299214e+003, 1.481074e+001
1.299696e+003, 1.486023e+001
1.300178e+003, 1.488895e+001
1.300660e+003, 1.492801e+001
##END=



