##NAMES=Magnesio-hastingsite
##RRUFFID=R070145
##IDEAL CHEMISTRY=NaCa_2_(Mg_4_Fe^3+^)Si_6_Al_2_O_22_(OH)_2_
##LOCALITY=Niaslo, Basha Valley, Baltistan, Northern Areas, Pakistan
##OWNER=RRUFF
##SOURCE=William W. Pinch
##DESCRIPTION=Black cleavage fragments
##STATUS=The identification of this mineral is confirmed by single-crystal X-ray diffraction and chemical analysis.
##URL=rruff.info/R070145
##MEASURED CHEMISTRY=(Na_0.57_K_0.43_)_Σ=1_(Ca_1.78_Na_0.22_)_Σ=2_(Mg_1.88_Fe^2+^_1.79_Mn_0.17_Fe^3+^_0.16_)_Σ=4_(Fe^3+^_0.53_Al_0.40_Ti_0.07_)_Σ=1_Si_5.99_Al_2.01_O_22_((OH)_1.79_F_0.21_)_Σ=2_; OH estimated by difference and charge balance
152.1649, 365.4728
152.6470, 377.7175
153.1292, 394.1608
153.6113, 403.2657
154.0934, 402.0296
154.5755, 396.5038
155.0576, 395.0680
155.5397, 398.7547
156.0219, 401.4180
156.5040, 402.1007
156.9861, 401.2552
157.4682, 398.8581
157.9503, 394.5987
158.4324, 390.4074
158.9146, 389.6088
159.3967, 392.4147
159.8788, 394.9862
160.3609, 397.3029
160.8430, 398.6050
161.3251, 396.6990
161.8073, 390.1138
162.2894, 383.1096
162.7715, 382.1125
163.2536, 386.8589
163.7357, 392.3149
164.2178, 399.0662
164.7000, 405.1605
165.1821, 404.6829
165.6642, 393.3045
166.1463, 381.9023
166.6284, 386.8282
167.1105, 407.5779
167.5927, 424.0575
168.0748, 424.1987
168.5569, 413.8661
169.0390, 408.2811
169.5211, 411.5458
170.0032, 418.3692
170.4854, 423.8107
170.9675, 427.9675
171.4496, 430.3807
171.9317, 429.9693
172.4138, 427.5182
172.8959, 425.3728
173.3781, 423.6322
173.8602, 422.8325
174.3423, 423.5293
174.8244, 425.5960
175.3065, 428.0591
175.7886, 431.5421
176.2708, 435.2623
176.7529, 435.9512
177.2350, 431.9156
177.7171, 426.3094
178.1992, 420.7935
178.6813, 415.6307
179.1635, 412.8820
179.6456, 415.1498
180.1277, 421.3155
180.6098, 425.9193
181.0919, 428.0043
181.5740, 428.7599
182.0562, 428.2489
182.5383, 426.9514
183.0204, 427.2211
183.5025, 431.5652
183.9846, 439.1361
184.4667, 445.6510
184.9489, 452.2382
185.4310, 455.2774
185.9131, 450.4781
186.3952, 439.9842
186.8773, 431.6754
187.3594, 432.5652
187.8416, 440.7628
188.3237, 445.4277
188.8058, 445.8865
189.2879, 442.5135
189.7700, 432.8160
190.2521, 419.4921
190.7343, 409.9196
191.2164, 410.2376
191.6985, 419.0121
192.1806, 428.3735
192.6627, 441.7566
193.1448, 450.4609
193.6270, 448.0416
194.1091, 438.1161
194.5912, 429.2135
195.0733, 427.2643
195.5554, 430.8031
196.0375, 432.4241
196.5197, 430.8718
197.0018, 429.1979
197.4839, 429.1726
197.9660, 430.0450
198.4481, 430.2230
198.9302, 427.9453
199.4124, 424.3535
199.8945, 424.9140
200.3766, 434.9050
200.8587, 440.2860
201.3408, 431.5671
201.8229, 415.8336
202.3051, 404.6506
202.7872, 405.2368
203.2693, 413.9804
203.7514, 419.5075
204.2335, 420.8643
204.7156, 420.4449
205.1978, 417.6368
205.6799, 414.2523
206.1620, 413.1887
206.6441, 416.7601
207.1262, 422.2539
207.6083, 421.8561
208.0905, 410.8848
208.5726, 403.7709
209.0547, 408.3557
209.5368, 417.5979
210.0189, 423.7172
210.5010, 423.2042
210.9832, 418.7644
211.4653, 415.1964
211.9474, 411.7223
212.4295, 411.2903
212.9116, 418.8065
213.3937, 427.5995
213.8759, 430.4832
214.3580, 424.4335
214.8401, 415.2188
215.3222, 412.9342
215.8043, 420.4201
216.2864, 426.0461
216.7686, 427.3315
217.2507, 425.5569
217.7328, 419.8439
218.2149, 409.7766
218.6970, 400.4873
219.1791, 399.9836
219.6613, 410.5645
220.1434, 419.7743
220.6255, 424.8253
221.1076, 427.8061
221.5897, 430.0402
222.0718, 431.7251
222.5540, 431.7291
223.0361, 427.6275
223.5182, 418.5186
224.0003, 412.2932
224.4824, 413.3003
224.9645, 415.1733
225.4467, 413.5937
225.9288, 408.6363
226.4109, 404.4464
226.8930, 406.8396
227.3751, 416.0438
227.8572, 418.9595
228.3394, 407.5058
228.8215, 396.2620
229.3036, 393.5686
229.7857, 398.6100
230.2678, 405.8801
230.7499, 412.9118
231.2321, 419.3824
231.7142, 421.9289
232.1963, 419.3640
232.6784, 413.7829
233.1605, 403.9097
233.6426, 392.0148
234.1248, 383.6559
234.6069, 384.2315
235.0890, 391.2347
235.5711, 394.3929
236.0532, 391.7570
236.5353, 388.6673
237.0175, 388.6955
237.4996, 390.0424
237.9817, 389.3619
238.4638, 383.7526
238.9459, 376.0438
239.4280, 372.3896
239.9102, 373.7463
240.3923, 376.6549
240.8744, 380.8235
241.3565, 385.1495
241.8386, 388.3586
242.3207, 390.2014
242.8029, 390.5133
243.2850, 388.9353
243.7671, 385.3288
244.2492, 380.5141
244.7313, 371.5881
245.2134, 363.1480
245.6956, 360.6259
246.1777, 366.2444
246.6598, 373.8704
247.1419, 378.1597
247.6240, 379.1221
248.1061, 377.5035
248.5883, 370.2544
249.0704, 363.1848
249.5525, 363.2484
250.0346, 371.7279
250.5167, 379.8389
250.9988, 380.5029
251.4810, 375.0438
251.9631, 370.6994
252.4452, 369.0057
252.9273, 368.9582
253.4094, 369.7855
253.8915, 371.4380
254.3737, 372.7124
254.8558, 372.2790
255.3379, 371.0995
255.8200, 372.3069
256.3021, 377.7693
256.7842, 381.8745
257.2664, 375.5187
257.7485, 361.8545
258.2306, 354.5313
258.7127, 363.4005
259.1948, 378.3449
259.6769, 385.6692
260.1591, 383.9815
260.6412, 379.3980
261.1233, 375.5047
261.6054, 372.2195
262.0875, 369.0904
262.5696, 365.1957
263.0518, 362.1069
263.5339, 361.8090
264.0160, 364.0298
264.4981, 365.5988
264.9802, 364.0043
265.4623, 360.7675
265.9445, 360.9591
266.4266, 367.5606
266.9087, 373.6417
267.3908, 374.7528
267.8729, 372.5324
268.3550, 371.9314
268.8372, 375.5634
269.3193, 380.9773
269.8014, 381.9467
270.2835, 377.1602
270.7656, 372.3296
271.2477, 367.3761
271.7299, 363.6790
272.2120, 364.4342
272.6941, 370.8515
273.1762, 378.2100
273.6583, 379.0339
274.1404, 369.4866
274.6226, 365.5463
275.1047, 373.3870
275.5868, 383.7940
276.0689, 388.7527
276.5510, 387.3683
277.0331, 383.4545
277.5153, 380.3782
277.9974, 378.1283
278.4795, 377.5062
278.9616, 379.8958
279.4437, 382.4226
279.9258, 382.9291
280.4080, 382.1502
280.8901, 382.6367
281.3722, 386.3053
281.8543, 392.8070
282.3364, 398.4566
282.8185, 404.0615
283.3007, 407.9050
283.7828, 410.0675
284.2649, 410.1050
284.7470, 406.9253
285.2291, 399.9317
285.7112, 390.5560
286.1934, 382.4912
286.6755, 372.9136
287.1576, 369.4390
287.6397, 377.5705
288.1218, 388.5500
288.6039, 394.8752
289.0861, 394.6808
289.5682, 391.0612
290.0503, 387.9085
290.5324, 384.5264
291.0145, 383.6594
291.4966, 387.9433
291.9788, 392.3230
292.4609, 393.7413
292.9430, 392.6037
293.4251, 391.6366
293.9072, 393.6062
294.3893, 398.4868
294.8715, 401.5605
295.3536, 402.4624
295.8357, 401.7568
296.3178, 399.9729
296.7999, 396.7762
297.2820, 391.0326
297.7642, 380.8730
298.2463, 369.2034
298.7284, 364.4140
299.2105, 369.6420
299.6926, 374.3396
300.1747, 372.7574
300.6569, 369.9166
301.1390, 371.5899
301.6211, 380.1190
302.1032, 389.4986
302.5853, 392.7361
303.0674, 389.6498
303.5496, 383.9915
304.0317, 371.3263
304.5138, 361.4460
304.9959, 365.9662
305.4780, 385.2376
305.9601, 400.9669
306.4423, 398.3289
306.9244, 383.0309
307.4065, 372.8828
307.8886, 371.1031
308.3707, 372.6136
308.8528, 374.8401
309.3350, 377.1691
309.8171, 376.4627
310.2992, 367.2450
310.7813, 357.2268
311.2634, 357.3229
311.7455, 367.7018
312.2277, 376.0462
312.7098, 373.8385
313.1919, 363.3922
313.6740, 355.6652
314.1561, 351.2469
314.6382, 348.7366
315.1204, 347.4239
315.6025, 347.4930
316.0846, 350.0713
316.5667, 356.1681
317.0488, 363.3170
317.5309, 365.8834
318.0131, 361.2036
318.4952, 358.1847
318.9773, 359.6082
319.4594, 362.3010
319.9415, 362.4658
320.4236, 359.6133
320.9058, 357.0879
321.3879, 359.3913
321.8700, 368.8341
322.3521, 370.2838
322.8342, 354.1539
323.3163, 340.3086
323.7985, 341.0589
324.2806, 352.2955
324.7627, 361.5887
325.2448, 360.2369
325.7269, 350.3780
326.2090, 345.6890
326.6912, 351.5072
327.1733, 356.2421
327.6554, 357.5154
328.1375, 357.3244
328.6196, 358.0587
329.1017, 360.5691
329.5839, 363.6538
330.0660, 365.7011
330.5481, 367.2629
331.0302, 366.0183
331.5123, 358.7796
331.9944, 351.0727
332.4766, 345.2094
332.9587, 341.6026
333.4408, 340.1705
333.9229, 341.9121
334.4050, 346.3571
334.8871, 348.7482
335.3693, 347.3176
335.8514, 346.7058
336.3335, 350.2544
336.8156, 356.0003
337.2977, 360.6606
337.7798, 363.6047
338.2620, 364.1669
338.7441, 359.3413
339.2262, 348.4831
339.7083, 341.9754
340.1904, 346.7250
340.6725, 356.4257
341.1547, 362.1515
341.6368, 363.3506
342.1189, 361.6229
342.6010, 354.3050
343.0831, 344.9050
343.5652, 343.0557
344.0474, 352.2715
344.5295, 363.8315
345.0116, 367.0039
345.4937, 361.4063
345.9758, 359.0788
346.4579, 365.3651
346.9401, 372.4305
347.4222, 372.5775
347.9043, 366.7645
348.3864, 362.6387
348.8685, 366.0298
349.3506, 375.3222
349.8328, 378.6708
350.3149, 371.3088
350.7970, 364.6719
351.2791, 361.0288
351.7612, 359.5660
352.2433, 359.2317
352.7255, 359.6357
353.2076, 360.7265
353.6897, 362.5972
354.1718, 366.3313
354.6539, 368.3118
355.1360, 368.2382
355.6182, 367.0017
356.1003, 364.2103
356.5824, 360.5135
357.0645, 357.5879
357.5466, 356.5521
358.0287, 357.4621
358.5109, 361.3191
358.9930, 372.6647
359.4751, 380.1161
359.9572, 378.1263
360.4393, 371.5532
360.9214, 366.1159
361.4036, 363.7660
361.8857, 363.6897
362.3678, 365.7932
362.8499, 370.4330
363.3320, 372.6282
363.8141, 368.9961
364.2963, 364.5723
364.7784, 363.6438
365.2605, 366.2111
365.7426, 370.0706
366.2247, 376.5314
366.7068, 382.9326
367.1890, 382.6885
367.6711, 374.2856
368.1532, 365.6833
368.6353, 362.4817
369.1174, 364.0157
369.5995, 366.2344
370.0817, 369.4280
370.5638, 372.8145
371.0459, 375.9105
371.5280, 378.8622
372.0101, 382.2055
372.4922, 386.2823
372.9744, 390.3823
373.4565, 393.3701
373.9386, 397.3584
374.4207, 395.4654
374.9028, 379.0346
375.3849, 362.3885
375.8671, 358.8154
376.3492, 368.0043
376.8313, 379.7419
377.3134, 385.1245
377.7955, 384.1666
378.2776, 382.9164
378.7598, 380.7525
379.2419, 378.9765
379.7240, 377.0553
380.2061, 375.9409
380.6882, 377.8028
381.1703, 383.6515
381.6525, 389.8612
382.1346, 389.1669
382.6167, 379.2588
383.0988, 372.2531
383.5809, 370.6331
384.0630, 372.1049
384.5452, 377.6778
385.0273, 386.1068
385.5094, 391.9069
385.9915, 389.4281
386.4736, 381.7841
386.9557, 377.7478
387.4379, 378.2142
387.9200, 379.2478
388.4021, 378.4162
388.8842, 376.6818
389.3663, 375.9167
389.8484, 376.6714
390.3306, 377.8192
390.8127, 379.6562
391.2948, 381.3667
391.7769, 379.8517
392.2590, 373.4651
392.7411, 366.9294
393.2233, 367.6230
393.7054, 378.3902
394.1875, 384.1234
394.6696, 381.1856
395.1517, 375.5254
395.6339, 370.1723
396.1160, 365.6830
396.5981, 362.3358
397.0802, 360.4155
397.5623, 359.6906
398.0444, 358.9476
398.5266, 357.4979
399.0087, 356.9881
399.4908, 359.1424
399.9729, 361.3814
400.4550, 360.6242
400.9371, 356.5184
401.4193, 352.1789
401.9014, 351.4277
402.3835, 354.6155
402.8656, 357.5754
403.3477, 360.8213
403.8298, 363.0735
404.3120, 363.9256
404.7941, 363.4664
405.2762, 361.7224
405.7583, 357.9652
406.2404, 353.9597
406.7225, 352.6426
407.2047, 354.0284
407.6868, 354.8091
408.1689, 354.4153
408.6510, 352.2550
409.1331, 346.2997
409.6152, 335.6351
410.0974, 328.9332
410.5795, 330.4133
411.0616, 336.8535
411.5437, 345.7860
412.0258, 356.5923
412.5079, 366.0450
412.9901, 371.9852
413.4722, 374.4142
413.9543, 372.7656
414.4364, 361.9877
414.9185, 353.9066
415.4006, 352.8943
415.8828, 355.6339
416.3649, 357.9128
416.8470, 358.4099
417.3291, 358.3905
417.8112, 359.4879
418.2933, 361.5700
418.7755, 365.3100
419.2576, 375.1441
419.7397, 382.3545
420.2218, 381.5897
420.7039, 375.6901
421.1860, 371.0395
421.6682, 371.4350
422.1503, 374.1996
422.6324, 373.7538
423.1145, 369.4454
423.5966, 365.6384
424.0787, 363.2826
424.5609, 362.3129
425.0430, 363.0774
425.5251, 365.6577
426.0072, 367.6094
426.4893, 367.0775
426.9714, 365.4356
427.4536, 363.8266
427.9357, 362.3433
428.4178, 364.8354
428.8999, 376.1223
429.3820, 393.6231
429.8641, 402.0603
430.3463, 394.8987
430.8284, 387.6835
431.3105, 384.9181
431.7926, 384.5341
432.2747, 384.1527
432.7568, 383.0251
433.2390, 381.0798
433.7211, 377.9330
434.2032, 372.9789
434.6853, 370.1754
435.1674, 370.1974
435.6495, 371.7041
436.1317, 374.9999
436.6138, 379.3717
437.0959, 383.9270
437.5780, 388.3209
438.0601, 392.2712
438.5422, 395.9308
439.0244, 399.7323
439.5065, 399.6119
439.9886, 391.5975
440.4707, 382.5245
440.9528, 377.8249
441.4349, 377.2265
441.9171, 377.6884
442.3992, 379.7562
442.8813, 381.1804
443.3634, 376.8326
443.8455, 367.2541
444.3276, 362.3813
444.8098, 368.9997
445.2919, 382.3723
445.7740, 389.0006
446.2561, 386.5581
446.7382, 383.0995
447.2203, 375.3233
447.7025, 369.9772
448.1846, 377.2985
448.6667, 396.0098
449.1488, 412.2077
449.6309, 413.0392
450.1130, 399.5410
450.5952, 390.2943
451.0773, 389.6515
451.5594, 387.6796
452.0415, 379.8502
452.5236, 371.1507
453.0057, 367.0333
453.4879, 368.8675
453.9700, 373.5099
454.4521, 379.3478
454.9342, 385.9023
455.4163, 387.5432
455.8984, 382.0763
456.3806, 375.1485
456.8627, 369.2343
457.3448, 364.8528
457.8269, 363.7827
458.3090, 368.6191
458.7911, 374.0464
459.2733, 375.4621
459.7554, 374.6106
460.2375, 377.3069
460.7196, 385.8722
461.2017, 393.6719
461.6838, 391.2498
462.1660, 375.2561
462.6481, 363.2132
463.1302, 354.9722
463.6123, 350.5375
464.0944, 351.6201
464.5765, 356.2493
465.0587, 361.2903
465.5408, 365.2779
466.0229, 367.8944
466.5050, 367.9109
466.9871, 363.9550
467.4692, 362.1347
467.9514, 366.3318
468.4335, 369.9651
468.9156, 368.7241
469.3977, 363.6509
469.8798, 358.9776
470.3619, 356.2791
470.8441, 355.5677
471.3262, 357.8360
471.8083, 362.9309
472.2904, 366.7001
472.7725, 367.1250
473.2546, 365.8076
473.7368, 365.9677
474.2189, 368.4518
474.7010, 368.1732
475.1831, 358.7498
475.6652, 350.2622
476.1473, 354.0630
476.6295, 367.5218
477.1116, 378.5060
477.5937, 379.1669
478.0758, 371.7890
478.5579, 364.0695
479.0400, 351.0155
479.5222, 346.6777
480.0043, 360.7849
480.4864, 376.2619
480.9685, 380.4232
481.4506, 373.5463
481.9327, 364.7055
482.4149, 359.3716
482.8970, 357.4068
483.3791, 359.2942
483.8612, 365.9587
484.3433, 371.5823
484.8254, 373.2546
485.3076, 372.7647
485.7897, 372.9214
486.2718, 373.7974
486.7539, 375.0646
487.2360, 379.0131
487.7181, 381.9565
488.2003, 376.2881
488.6824, 363.1736
489.1645, 355.5424
489.6466, 363.5375
490.1287, 383.1983
490.6108, 394.1438
491.0930, 387.5318
491.5751, 383.3086
492.0572, 384.2942
492.5393, 386.8603
493.0214, 387.5933
493.5035, 386.5111
493.9857, 386.4041
494.4678, 389.8516
494.9499, 396.1638
495.4320, 402.2301
495.9141, 407.8185
496.3962, 413.9253
496.8784, 423.7156
497.3605, 432.5017
497.8426, 433.1270
498.3247, 423.4620
498.8068, 416.9745
499.2889, 424.7330
499.7711, 437.1442
500.2532, 439.3327
500.7353, 430.8910
501.2174, 423.4827
501.6995, 425.1991
502.1816, 433.8756
502.6638, 440.0242
503.1459, 442.4151
503.6280, 443.7923
504.1101, 444.2285
504.5922, 443.7309
505.0743, 439.8871
505.5565, 434.2742
506.0386, 433.8934
506.5207, 446.7805
507.0028, 468.1631
507.4849, 478.1620
507.9670, 473.8460
508.4492, 467.2040
508.9313, 458.0640
509.4134, 451.2974
509.8955, 453.2618
510.3776, 464.7713
510.8597, 475.5107
511.3419, 479.7696
511.8240, 481.3265
512.3061, 485.4182
512.7882, 491.8602
513.2703, 496.6693
513.7524, 497.3238
514.2346, 495.1493
514.7167, 493.8827
515.1988, 492.5638
515.6809, 493.7908
516.1630, 500.0662
516.6451, 506.7604
517.1273, 510.8975
517.6094, 512.5956
518.0915, 513.2390
518.5736, 513.2463
519.0557, 513.5634
519.5378, 517.3342
520.0200, 525.5128
520.5021, 531.7010
520.9842, 534.3282
521.4663, 534.1950
521.9484, 531.3987
522.4305, 526.2139
522.9127, 522.3010
523.3948, 519.6870
523.8769, 519.7088
524.3590, 526.8701
524.8411, 538.1622
525.3232, 542.3837
525.8054, 534.1686
526.2875, 521.4174
526.7696, 518.3106
527.2517, 529.6376
527.7338, 537.1984
528.2159, 539.5882
528.6981, 540.2001
529.1802, 539.9224
529.6623, 539.0337
530.1444, 537.2546
530.6265, 534.1565
531.1086, 532.0625
531.5908, 535.4590
532.0729, 543.9883
532.5550, 550.0280
533.0371, 552.8157
533.5192, 552.1240
534.0013, 544.1519
534.4835, 531.8297
534.9656, 526.8185
535.4477, 540.9123
535.9298, 550.9403
536.4119, 541.9655
536.8940, 523.4982
537.3762, 509.9399
537.8583, 504.7339
538.3404, 503.5093
538.8225, 501.8275
539.3046, 499.6638
539.7867, 499.0958
540.2689, 502.7635
540.7510, 504.2600
541.2331, 499.3082
541.7152, 493.2697
542.1973, 492.6686
542.6794, 498.4663
543.1616, 503.6039
543.6437, 503.0450
544.1258, 497.8941
544.6079, 488.7772
545.0900, 475.4526
545.5721, 466.4294
546.0543, 467.4952
546.5364, 474.8294
547.0185, 478.4609
547.5006, 476.7387
547.9827, 475.4293
548.4648, 475.7136
548.9470, 476.1505
549.4291, 476.8277
549.9112, 476.7614
550.3933, 472.6426
550.8754, 461.7140
551.3575, 449.1442
551.8397, 448.8628
552.3218, 465.0363
552.8039, 472.9118
553.2860, 463.6754
553.7681, 450.7804
554.2502, 442.0717
554.7324, 437.5426
555.2145, 437.1801
555.6966, 444.3817
556.1787, 452.0462
556.6608, 455.8274
557.1429, 455.9372
557.6251, 452.2206
558.1072, 444.6463
558.5893, 435.3505
559.0714, 426.0572
559.5535, 416.4934
560.0356, 412.1044
560.5178, 418.6847
560.9999, 423.7682
561.4820, 424.5072
561.9641, 422.9815
562.4462, 421.8345
562.9283, 421.4280
563.4105, 419.2807
563.8926, 410.3736
564.3747, 398.4433
564.8568, 395.7978
565.3389, 403.7513
565.8210, 409.4054
566.3032, 405.3960
566.7853, 396.6425
567.2674, 394.0107
567.7495, 400.4791
568.2316, 402.0917
568.7137, 391.7379
569.1959, 380.6347
569.6780, 376.6304
570.1601, 378.3452
570.6422, 381.4037
571.1243, 383.7738
571.6064, 384.5009
572.0886, 380.7160
572.5707, 371.2711
573.0528, 365.7894
573.5349, 367.1711
574.0170, 369.5944
574.4991, 369.7083
574.9813, 368.2707
575.4634, 366.5742
575.9455, 363.7733
576.4276, 362.8987
576.9097, 369.4562
577.3918, 377.7177
577.8740, 375.6871
578.3561, 362.7907
578.8382, 352.8490
579.3203, 357.9193
579.8024, 374.7104
580.2845, 382.9863
580.7667, 380.2864
581.2488, 372.7178
581.7309, 353.6634
582.2130, 336.4085
582.6951, 332.4181
583.1772, 339.7325
583.6594, 346.8600
584.1415, 347.8439
584.6236, 345.1461
585.1057, 340.1736
585.5878, 333.8130
586.0699, 331.5956
586.5521, 335.5318
587.0342, 342.5184
587.5163, 349.9525
587.9984, 358.1860
588.4805, 361.8988
588.9626, 360.4536
589.4448, 355.8288
589.9269, 343.4991
590.4090, 330.9390
590.8911, 328.6793
591.3732, 337.6803
591.8553, 346.8127
592.3375, 345.9275
592.8196, 336.9622
593.3017, 325.0761
593.7838, 308.8305
594.2659, 300.4894
594.7480, 308.1211
595.2302, 323.0245
595.7123, 331.9789
596.1944, 334.9427
596.6765, 335.2862
597.1586, 332.0551
597.6407, 327.7361
598.1229, 322.1649
598.6050, 317.0417
599.0871, 316.5616
599.5692, 322.0546
600.0513, 327.6750
600.5334, 323.2826
601.0156, 308.1629
601.4977, 302.4637
601.9798, 310.1236
602.4619, 319.2617
602.9440, 326.4724
603.4261, 330.8710
603.9083, 330.4960
604.3904, 324.3198
604.8725, 317.6959
605.3546, 311.1782
605.8367, 306.2825
606.3188, 305.0351
606.8010, 306.8884
607.2831, 309.6187
607.7652, 312.1075
608.2473, 314.8411
608.7294, 319.8123
609.2115, 329.4039
609.6937, 331.5883
610.1758, 317.5574
610.6579, 306.7372
611.1400, 312.0469
611.6221, 324.6037
612.1042, 329.0588
612.5864, 320.0410
613.0685, 310.7285
613.5506, 309.5674
614.0327, 313.1562
614.5148, 317.8702
614.9969, 322.7061
615.4791, 324.3347
615.9612, 320.2724
616.4433, 313.0437
616.9254, 309.8763
617.4075, 314.2144
617.8896, 314.9369
618.3718, 306.4848
618.8539, 299.7119
619.3360, 300.8626
619.8181, 306.9807
620.3002, 312.1266
620.7823, 314.3216
621.2645, 315.1404
621.7466, 314.6145
622.2287, 313.9826
622.7108, 316.7006
623.1929, 323.0375
623.6750, 329.3058
624.1572, 333.5450
624.6393, 335.1891
625.1214, 331.8869
625.6035, 316.6478
626.0856, 308.4819
626.5677, 313.1620
627.0499, 319.0617
627.5320, 318.3530
628.0141, 314.0018
628.4962, 314.5819
628.9783, 325.5266
629.4604, 335.5269
629.9426, 329.0117
630.4247, 312.5621
630.9068, 306.4656
631.3889, 313.8008
631.8710, 322.5077
632.3531, 324.3655
632.8353, 320.9123
633.3174, 318.1075
633.7995, 315.3308
634.2816, 314.2679
634.7637, 316.2318
635.2458, 318.6482
635.7280, 319.3571
636.2101, 319.3270
636.6922, 321.1969
637.1743, 326.4622
637.6564, 332.6348
638.1385, 339.0595
638.6207, 344.2093
639.1028, 340.6949
639.5849, 326.9835
640.0670, 315.1234
640.5491, 313.6536
641.0313, 320.1575
641.5134, 325.6772
641.9955, 331.7154
642.4776, 334.3202
642.9597, 329.0418
643.4418, 324.5710
643.9240, 327.2821
644.4061, 334.7159
644.8882, 341.2402
645.3703, 344.9598
645.8524, 345.2877
646.3345, 339.3263
646.8167, 329.4622
647.2988, 322.5764
647.7809, 319.4180
648.2630, 322.3402
648.7451, 335.1839
649.2272, 352.6709
649.7094, 358.1370
650.1915, 341.1421
650.6736, 330.0470
651.1557, 327.4565
651.6378, 327.9857
652.1199, 331.4025
652.6021, 335.2661
653.0842, 334.8843
653.5663, 327.8997
654.0484, 320.8584
654.5305, 320.7817
655.0126, 325.3030
655.4948, 329.4607
655.9769, 332.7123
656.4590, 332.5776
656.9411, 326.9268
657.4232, 318.4032
657.9053, 313.0853
658.3875, 310.6200
658.8696, 312.2915
659.3517, 323.4073
659.8338, 332.6038
660.3159, 334.1547
660.7980, 331.1440
661.2802, 328.2566
661.7623, 326.7726
662.2444, 326.0208
662.7265, 325.3684
663.2086, 325.1581
663.6907, 327.0433
664.1729, 330.5598
664.6550, 330.8994
665.1371, 325.2324
665.6192, 318.1573
666.1013, 318.4641
666.5834, 329.7068
667.0656, 333.0568
667.5477, 317.3157
668.0298, 306.9791
668.5119, 313.8510
668.9940, 327.2763
669.4761, 334.3389
669.9583, 332.8705
670.4404, 331.2516
670.9225, 335.9913
671.4046, 341.8462
671.8867, 341.5335
672.3688, 336.7063
672.8510, 333.7218
673.3331, 334.8448
673.8152, 337.8217
674.2973, 340.1901
674.7794, 341.9747
675.2615, 341.2165
675.7437, 335.6312
676.2258, 331.5552
676.7079, 331.6013
677.1900, 333.2215
677.6721, 334.5526
678.1542, 335.4921
678.6364, 336.3540
679.1185, 335.1555
679.6006, 335.9924
680.0827, 346.1082
680.5648, 359.0277
681.0469, 361.9417
681.5291, 352.8246
682.0112, 339.7776
682.4933, 329.1257
682.9754, 321.4469
683.4575, 320.4768
683.9396, 328.3109
684.4218, 334.3262
684.9039, 336.3622
685.3860, 336.0582
685.8681, 334.7466
686.3502, 332.2699
686.8323, 327.6446
687.3145, 316.0875
687.7966, 308.8145
688.2787, 315.0479
688.7608, 323.7508
689.2429, 322.7018
689.7250, 312.8553
690.2072, 302.3896
690.6893, 295.6707
691.1714, 292.8671
691.6535, 296.3305
692.1356, 305.5610
692.6177, 309.5667
693.0999, 306.1634
693.5820, 301.3190
694.0641, 297.9852
694.5462, 296.2381
695.0283, 296.5616
695.5104, 300.6749
695.9926, 302.8967
696.4747, 301.3571
696.9568, 299.3978
697.4389, 297.5090
697.9210, 296.9244
698.4031, 300.7217
698.8853, 309.8193
699.3674, 317.3559
699.8495, 316.6317
700.3316, 309.9956
700.8137, 300.5879
701.2958, 289.1218
701.7780, 282.2843
702.2601, 283.2149
702.7422, 287.5245
703.2243, 288.9668
703.7064, 287.0629
704.1885, 286.5791
704.6707, 288.0728
705.1528, 290.2930
705.6349, 294.7718
706.1170, 298.5647
706.5991, 298.6041
707.0812, 295.0361
707.5634, 291.0417
708.0455, 285.2693
708.5276, 282.2383
709.0097, 288.8057
709.4918, 299.8489
709.9739, 305.0970
710.4561, 303.0298
710.9382, 299.2750
711.4203, 297.9484
711.9024, 299.1015
712.3845, 304.5526
712.8666, 316.7670
713.3488, 320.3004
713.8309, 307.8756
714.3130, 294.3611
714.7951, 290.4766
715.2772, 293.4127
715.7593, 295.8221
716.2415, 296.0300
716.7236, 298.5182
717.2057, 309.6366
717.6878, 318.8432
718.1699, 314.9169
718.6520, 303.0267
719.1342, 296.1330
719.6163, 299.3773
720.0984, 304.9527
720.5805, 303.3441
721.0626, 296.8005
721.5447, 293.5670
722.0269, 293.9690
722.5090, 294.2291
722.9911, 292.5501
723.4732, 290.7914
723.9553, 292.1541
724.4374, 297.5751
724.9196, 298.8970
725.4017, 289.1806
725.8838, 284.0455
726.3659, 288.2038
726.8480, 296.9269
727.3301, 309.1409
727.8123, 322.7672
728.2944, 329.5847
728.7765, 321.8229
729.2586, 310.8041
729.7407, 305.2971
730.2228, 303.3932
730.7050, 301.7976
731.1871, 300.0164
731.6692, 299.3988
732.1513, 301.0812
732.6334, 303.9084
733.1155, 304.3625
733.5977, 301.7351
734.0798, 302.5953
734.5619, 309.7244
735.0440, 315.6804
735.5261, 315.1095
736.0082, 310.7064
736.4904, 309.4147
736.9725, 313.9868
737.4546, 312.9517
737.9367, 295.5905
738.4188, 281.6680
738.9009, 286.4617
739.3831, 300.1195
739.8652, 306.7472
740.3473, 302.6607
740.8294, 296.5865
741.3115, 296.5691
741.7936, 298.9313
742.2758, 295.5752
742.7579, 287.9926
743.2400, 284.9716
743.7221, 289.2545
744.2042, 292.8262
744.6863, 286.7755
745.1685, 273.3570
745.6506, 269.7293
746.1327, 281.8848
746.6148, 290.6224
747.0969, 292.1465
747.5790, 290.9371
748.0612, 287.5798
748.5433, 283.8455
749.0254, 284.6599
749.5075, 294.0890
749.9896, 299.8783
750.4717, 294.5691
750.9539, 285.9174
751.4360, 278.5457
751.9181, 273.9850
752.4002, 275.1042
752.8823, 282.7838
753.3644, 291.4196
753.8466, 294.2609
754.3287, 292.7820
754.8108, 292.6989
755.2929, 294.0388
755.7750, 294.0523
756.2571, 291.6101
756.7393, 288.1073
757.2214, 284.6867
757.7035, 281.4007
758.1856, 281.1571
758.6677, 287.4076
759.1498, 291.3812
759.6320, 289.4665
760.1141, 287.3065
760.5962, 289.4656
761.0783, 294.5160
761.5604, 297.8136
762.0425, 297.9403
762.5247, 296.5284
763.0068, 293.6841
763.4889, 290.3005
763.9710, 287.8333
764.4531, 285.7216
764.9352, 281.0106
765.4174, 272.5076
765.8995, 265.5636
766.3816, 268.9818
766.8637, 280.5565
767.3458, 287.5001
767.8279, 289.4933
768.3101, 290.4663
768.7922, 291.7041
769.2743, 292.6669
769.7564, 292.9292
770.2385, 292.4947
770.7206, 289.9800
771.2028, 281.7101
771.6849, 276.6925
772.1670, 279.5775
772.6491, 282.6670
773.1312, 277.7584
773.6133, 268.8181
774.0955, 268.5001
774.5776, 284.8727
775.0597, 298.2531
775.5418, 292.9144
776.0239, 282.5325
776.5060, 282.4306
776.9882, 290.5475
777.4703, 298.6436
777.9524, 303.2726
778.4345, 303.7372
778.9166, 296.9716
779.3987, 285.2389
779.8809, 279.1863
780.3630, 278.8940
780.8451, 279.7652
781.3272, 280.5851
781.8093, 281.4160
782.2914, 282.0855
782.7736, 282.7449
783.2557, 285.6027
783.7378, 296.7140
784.2199, 299.6940
784.7020, 281.2463
785.1841, 266.1409
785.6663, 273.1339
786.1484, 292.8141
786.6305, 304.5869
787.1126, 303.5399
787.5947, 297.7625
788.0768, 285.1799
788.5590, 274.1121
789.0411, 272.4820
789.5232, 277.4821
790.0053, 284.5374
790.4874, 291.5838
790.9695, 295.1496
791.4517, 290.0451
791.9338, 280.5996
792.4159, 276.1197
792.8980, 276.3407
793.3801, 280.1986
793.8622, 287.8306
794.3444, 293.1747
794.8265, 290.7758
795.3086, 283.0308
795.7907, 279.2820
796.2728, 282.1792
796.7549, 281.0880
797.2371, 270.9142
797.7192, 263.0231
798.2013, 265.2079
798.6834, 272.1185
799.1655, 275.8883
799.6476, 275.3414
800.1298, 277.7745
800.6119, 288.7740
801.0940, 298.3771
801.5761, 302.5349
802.0582, 302.0786
802.5403, 294.9945
803.0225, 283.6277
803.5046, 278.4410
803.9867, 288.9350
804.4688, 301.2332
804.9509, 295.6867
805.4330, 281.0648
805.9152, 278.4859
806.3973, 288.4553
806.8794, 296.7689
807.3615, 295.9609
807.8436, 288.9966
808.3257, 278.7393
808.8079, 265.1399
809.2900, 260.8532
809.7721, 268.0464
810.2542, 275.8787
810.7363, 281.9301
811.2184, 285.1482
811.7006, 283.0895
812.1827, 275.9482
812.6648, 273.3792
813.1469, 280.5012
813.6290, 284.8100
814.1111, 284.6214
814.5933, 281.7841
815.0754, 274.0196
815.5575, 265.2588
816.0396, 263.9717
816.5217, 273.3673
817.0038, 283.8350
817.4860, 294.9267
817.9681, 301.1928
818.4502, 293.3837
818.9323, 278.5699
819.4144, 270.4092
819.8965, 271.8148
820.3787, 274.6682
820.8608, 271.7536
821.3429, 266.8772
821.8250, 267.9287
822.3071, 273.6526
822.7892, 277.8316
823.2714, 279.4425
823.7535, 280.6762
824.2356, 283.0692
824.7177, 285.5634
825.1998, 285.4218
825.6819, 281.8227
826.1641, 280.7154
826.6462, 283.8578
827.1283, 285.2149
827.6104, 280.3668
828.0925, 274.8815
828.5746, 277.7325
829.0568, 288.8505
829.5389, 290.7015
830.0210, 270.0439
830.5031, 257.9013
830.9852, 267.1744
831.4673, 280.3840
831.9495, 286.8008
832.4316, 286.6210
832.9137, 281.6212
833.3958, 270.9411
833.8779, 263.7036
834.3600, 266.7708
834.8422, 274.4063
835.3243, 285.3411
835.8064, 295.1649
836.2885, 293.4220
836.7706, 279.3512
837.2527, 266.6773
837.7349, 267.0290
838.2170, 274.7820
838.6991, 280.7226
839.1812, 284.7927
839.6633, 286.4315
840.1454, 285.5784
840.6276, 282.9940
841.1097, 278.9727
841.5918, 274.0706
842.0739, 268.8189
842.5560, 262.8764
843.0381, 260.9984
843.5203, 264.5438
844.0024, 268.2722
844.4845, 270.6919
844.9666, 272.4902
845.4487, 274.2433
845.9308, 275.9650
846.4130, 277.8854
846.8951, 282.5255
847.3772, 283.6191
847.8593, 276.2849
848.3414, 269.8662
848.8235, 269.4402
849.3057, 273.4710
849.7878, 280.3044
850.2699, 290.0743
850.7520, 295.6675
851.2341, 291.1917
851.7162, 284.7733
852.1984, 280.0537
852.6805, 277.8438
853.1626, 281.2739
853.6447, 288.5569
854.1268, 290.9844
854.6089, 282.0887
855.0911, 271.6817
855.5732, 273.7932
856.0553, 281.8769
856.5374, 279.6204
857.0195, 268.5408
857.5016, 263.2455
857.9838, 269.4541
858.4659, 279.2887
858.9480, 283.6946
859.4301, 283.6702
859.9122, 283.6028
860.3943, 283.4280
860.8765, 284.8365
861.3586, 288.4372
861.8407, 292.6659
862.3228, 297.3196
862.8049, 300.6778
863.2870, 297.7442
863.7692, 286.2214
864.2513, 275.9796
864.7334, 263.9147
865.2155, 258.2249
865.6976, 265.6120
866.1797, 277.6676
866.6619, 286.9818
867.1440, 293.3979
867.6261, 295.4277
868.1082, 289.8475
868.5903, 284.2878
869.0724, 279.3025
869.5546, 275.6461
870.0367, 274.1003
870.5188, 274.1582
871.0009, 274.8621
871.4830, 275.9750
871.9651, 278.2002
872.4473, 284.9088
872.9294, 289.7730
873.4115, 284.5453
873.8936, 276.1487
874.3757, 274.5180
874.8578, 280.4157
875.3400, 290.2726
875.8221, 303.6530
876.3042, 313.0007
876.7863, 305.4882
877.2684, 289.1928
877.7505, 280.8741
878.2327, 279.9734
878.7148, 278.9578
879.1969, 275.2650
879.6790, 271.6789
880.1611, 271.2153
880.6432, 272.8097
881.1254, 272.3517
881.6075, 269.9773
882.0896, 271.2526
882.5717, 277.4643
883.0538, 282.8443
883.5359, 283.9517
884.0181, 282.5903
884.5002, 282.1625
884.9823, 282.9198
885.4644, 281.3977
885.9465, 275.4602
886.4286, 273.0088
886.9108, 277.9563
887.3929, 284.3372
887.8750, 287.2168
888.3571, 287.2411
888.8392, 287.3123
889.3214, 288.2990
889.8035, 287.7211
890.2856, 283.1541
890.7677, 279.8484
891.2498, 280.9492
891.7319, 283.7150
892.2141, 284.8569
892.6962, 284.2754
893.1783, 284.3126
893.6604, 286.3777
894.1425, 288.0363
894.6246, 287.9203
895.1068, 287.5287
895.5889, 288.6781
896.0710, 290.3607
896.5531, 289.5287
897.0352, 285.3053
897.5173, 283.4833
897.9995, 291.7482
898.4816, 299.9125
898.9637, 297.5204
899.4458, 289.5747
899.9279, 283.7287
900.4100, 280.8146
900.8922, 277.4753
901.3743, 271.5532
901.8564, 267.4747
902.3385, 273.5964
902.8206, 283.7295
903.3027, 283.2652
903.7849, 274.9608
904.2670, 271.3577
904.7491, 275.8761
905.2312, 284.6213
905.7133, 295.4697
906.1954, 305.3952
906.6776, 305.6320
907.1597, 297.6482
907.6418, 294.3136
908.1239, 296.8569
908.6060, 297.8823
909.0881, 293.9168
909.5703, 288.4582
910.0524, 285.6295
910.5345, 285.5311
911.0166, 289.7173
911.4987, 299.1207
911.9808, 307.9908
912.4630, 316.7988
912.9451, 320.2885
913.4272, 313.1563
913.9093, 301.2936
914.3914, 297.1670
914.8735, 302.7602
915.3557, 303.7792
915.8378, 296.5302
916.3199, 291.7134
916.8020, 292.6738
917.2841, 295.9159
917.7662, 300.0026
918.2484, 304.1143
918.7305, 305.4477
919.2126, 304.1857
919.6947, 299.7394
920.1768, 284.5803
920.6589, 275.4221
921.1411, 283.0707
921.6232, 295.9908
922.1053, 303.1785
922.5874, 304.3950
923.0695, 303.6292
923.5516, 300.6703
924.0338, 297.5400
924.5159, 294.2192
924.9980, 291.4973
925.4801, 288.7853
925.9622, 287.5367
926.4443, 291.6185
926.9265, 300.7610
927.4086, 305.9569
927.8907, 298.3378
928.3728, 291.7112
928.8549, 295.5128
929.3370, 303.3174
929.8192, 309.8987
930.3013, 314.4788
930.7834, 317.3420
931.2655, 318.5381
931.7476, 317.4481
932.2297, 312.2209
932.7119, 305.8188
933.1940, 302.2125
933.6761, 299.0039
934.1582, 288.7936
934.6403, 274.4835
935.1224, 270.0950
935.6046, 282.3667
936.0867, 299.1879
936.5688, 308.5529
937.0509, 313.3292
937.5330, 319.7467
938.0151, 325.7187
938.4973, 322.7593
938.9794, 310.9026
939.4615, 302.1324
939.9436, 304.4712
940.4257, 310.4389
940.9078, 307.8346
941.3900, 299.4486
941.8721, 295.2493
942.3542, 294.9278
942.8363, 293.0439
943.3184, 288.2290
943.8005, 286.2005
944.2827, 292.0684
944.7648, 302.4986
945.2469, 310.7475
945.7290, 316.7116
946.2111, 318.4333
946.6932, 315.7708
947.1754, 312.1033
947.6575, 308.4977
948.1396, 305.2263
948.6217, 302.2686
949.1038, 300.2443
949.5859, 302.8188
950.0681, 310.7979
950.5502, 312.5367
951.0323, 305.5163
951.5144, 301.2519
951.9965, 305.2383
952.4786, 312.6872
952.9608, 317.8590
953.4429, 320.9052
953.9250, 323.5095
954.4071, 326.5455
954.8892, 324.8600
955.3713, 315.4325
955.8535, 307.9439
956.3356, 308.3466
956.8177, 311.8656
957.2998, 311.2153
957.7819, 306.2899
958.2640, 303.4486
958.7462, 302.9377
959.2283, 303.9943
959.7104, 307.0999
960.1925, 310.8947
960.6746, 315.3582
961.1567, 319.4205
961.6389, 320.3610
962.1210, 317.1310
962.6031, 319.4432
963.0852, 336.1972
963.5673, 343.4119
964.0494, 330.2131
964.5316, 314.5310
965.0137, 306.3436
965.4958, 303.9350
965.9779, 304.4691
966.4600, 309.1867
966.9421, 311.0681
967.4243, 306.4132
967.9064, 303.9293
968.3885, 305.3241
968.8706, 309.4273
969.3527, 318.0160
969.8348, 328.1787
970.3170, 333.2808
970.7991, 332.5365
971.2812, 328.3558
971.7633, 319.4867
972.2454, 309.1438
972.7275, 291.7794
973.2097, 279.0609
973.6918, 284.8185
974.1739, 302.1455
974.6560, 310.6614
975.1381, 304.7614
975.6202, 302.1677
976.1024, 308.8983
976.5845, 316.0151
977.0666, 322.1128
977.5487, 325.3995
978.0308, 323.0208
978.5129, 316.6099
978.9951, 310.9541
979.4772, 306.7469
979.9593, 303.9893
980.4414, 302.1543
980.9235, 302.4049
981.4056, 307.2211
981.8878, 312.8967
982.3699, 315.4971
982.8520, 315.6132
983.3341, 316.1852
983.8162, 317.6496
984.2983, 320.4661
984.7805, 327.9041
985.2626, 333.1023
985.7447, 331.9058
986.2268, 326.9040
986.7089, 318.2953
987.1910, 308.5864
987.6732, 305.2437
988.1553, 312.0608
988.6374, 318.8338
989.1195, 321.5037
989.6016, 323.0467
990.0837, 324.7776
990.5659, 326.6614
991.0480, 329.2959
991.5301, 331.9674
992.0122, 331.9209
992.4943, 327.1871
992.9764, 323.8229
993.4586, 327.0037
993.9407, 329.5215
994.4228, 325.1821
994.9049, 318.6947
995.3870, 315.3562
995.8691, 315.3956
996.3513, 316.8918
996.8334, 319.5690
997.3155, 322.3652
997.7976, 324.9555
998.2797, 327.3364
998.7618, 329.5091
999.2440, 331.4696
999.7261, 334.6127
1000.208, 337.6158
1000.690, 335.1901
1001.172, 323.8176
1001.655, 314.4554
1002.137, 312.1635
1002.619, 313.5050
1003.101, 318.7520
1003.583, 324.5741
1004.065, 328.3988
1004.547, 329.2985
1005.029, 324.6312
1005.511, 311.1509
1005.994, 302.9544
1006.476, 311.3699
1006.958, 321.6480
1007.440, 322.6556
1007.922, 321.6392
1008.404, 329.0030
1008.886, 342.3324
1009.368, 351.6880
1009.851, 354.6217
1010.333, 350.7162
1010.815, 331.8801
1011.297, 315.3749
1011.779, 312.6117
1012.261, 316.4735
1012.743, 321.2885
1013.225, 325.1849
1013.707, 325.1122
1014.190, 319.2407
1014.672, 316.1424
1015.154, 321.5034
1015.636, 327.8657
1016.118, 333.7141
1016.600, 336.6499
1017.082, 331.9656
1017.564, 322.9631
1018.047, 318.8422
1018.529, 322.4935
1019.011, 323.6401
1019.493, 313.6609
1019.975, 306.7047
1020.457, 313.9172
1020.939, 322.8190
1021.421, 320.8605
1021.903, 312.1835
1022.386, 307.9033
1022.868, 310.3913
1023.350, 312.6768
1023.832, 313.6958
1024.314, 312.9309
1024.796, 308.6017
1025.278, 303.9306
1025.760, 301.1394
1026.242, 299.9017
1026.725, 299.6699
1027.207, 300.4188
1027.689, 300.5348
1028.171, 297.8255
1028.653, 297.0412
1029.135, 301.0754
1029.617, 305.7451
1030.099, 309.7848
1030.582, 311.9756
1031.064, 308.2617
1031.546, 298.4311
1032.028, 297.3897
1032.510, 323.0583
1032.992, 333.9482
1033.474, 307.6285
1033.956, 282.7242
1034.438, 281.9826
1034.921, 292.7077
1035.403, 299.6687
1035.885, 302.2847
1036.367, 301.0267
1036.849, 289.0232
1037.331, 284.0237
1037.813, 294.2959
1038.295, 302.5556
1038.778, 298.6975
1039.260, 292.3741
1039.742, 295.0693
1040.224, 304.9870
1040.706, 309.5199
1041.188, 305.3386
1041.670, 302.7843
1042.152, 303.7402
1042.635, 303.0142
1043.117, 296.8524
1043.599, 291.2844
1044.081, 293.5807
1044.563, 300.2267
1045.045, 297.8883
1045.527, 281.5937
1046.009, 275.0440
1046.491, 281.9133
1046.974, 289.7746
1047.456, 296.9760
1047.938, 301.3528
1048.420, 300.7512
1048.902, 296.8866
1049.384, 293.7536
1049.866, 291.5512
1050.348, 286.7280
1050.830, 277.5632
1051.313, 274.1670
1051.795, 279.4749
1052.277, 287.1339
1052.759, 294.0009
1053.241, 298.9656
1053.723, 299.9622
1054.205, 297.2836
1054.687, 293.5745
1055.169, 288.7221
1055.652, 285.6646
1056.134, 284.9448
1056.616, 283.7733
1057.098, 280.6429
1057.580, 278.1617
1058.062, 279.8983
1058.544, 284.2094
1059.026, 286.0034
1059.509, 285.2296
1059.991, 279.4709
1060.473, 269.3569
1060.955, 265.0190
1061.437, 269.8905
1061.919, 277.9963
1062.401, 284.9333
1062.883, 289.0601
1063.365, 285.0634
1063.848, 276.2151
1064.330, 272.6470
1064.812, 273.9448
1065.294, 276.8170
1065.776, 280.0923
1066.258, 282.1982
1066.740, 281.9047
1067.222, 281.6463
1067.705, 287.4659
1068.187, 293.1718
1068.669, 282.8660
1069.151, 266.3751
1069.633, 268.9814
1070.115, 288.3319
1070.597, 299.5612
1071.079, 291.7454
1071.562, 280.4438
1072.044, 276.2755
1072.526, 276.7662
1073.008, 284.4342
1073.490, 291.8539
1073.972, 286.6757
1074.454, 273.7940
1074.936, 267.2720
1075.418, 270.3062
1075.901, 272.5344
1076.383, 265.6446
1076.865, 260.7770
1077.347, 267.0029
1077.829, 274.4471
1078.311, 274.5313
1078.793, 270.9008
1079.275, 268.6945
1079.757, 268.8692
1080.240, 272.4563
1080.722, 285.0392
1081.204, 289.5497
1081.686, 271.0851
1082.168, 256.8216
1082.650, 263.4920
1083.132, 276.2166
1083.614, 280.6331
1084.096, 278.4954
1084.579, 278.0905
1085.061, 281.3696
1085.543, 281.1480
1086.025, 277.5143
1086.507, 269.8207
1086.989, 252.3246
1087.471, 238.6513
1087.953, 238.0563
1088.436, 245.8351
1088.918, 254.7154
1089.400, 264.6882
1089.882, 273.3028
1090.364, 282.3944
1090.846, 281.4255
1091.328, 265.2160
1091.810, 254.9405
1092.292, 261.4144
1092.775, 271.9769
1093.257, 272.8958
1093.739, 266.8043
1094.221, 261.6681
1094.703, 257.5914
1095.185, 260.8771
1095.667, 271.4695
1096.149, 272.4299
1096.632, 259.3435
1097.114, 247.3831
1097.596, 247.4887
1098.078, 252.8202
1098.560, 250.9293
1099.042, 246.1294
1099.524, 254.7936
1100.006, 271.0287
1100.489, 272.7448
1100.971, 260.5680
1101.453, 254.9601
1101.935, 264.1689
1102.417, 273.6920
1102.899, 269.2626
1103.381, 260.4971
1103.863, 257.2978
1104.345, 257.7722
1104.828, 261.6111
1105.310, 266.1607
1105.792, 265.4669
1106.274, 259.4806
1106.756, 256.0044
1107.238, 259.6451
1107.720, 263.5979
1108.202, 265.4233
1108.684, 264.8947
1109.167, 261.5526
1109.649, 256.0073
1110.131, 246.3742
1110.613, 235.4538
1111.095, 231.4767
1111.577, 237.0374
1112.059, 242.4799
1112.541, 245.5535
1113.023, 249.3031
1113.506, 256.2944
1113.988, 262.0424
1114.470, 264.3107
1114.952, 263.6069
1115.434, 259.8117
1115.916, 253.2478
1116.398, 248.8323
1116.880, 247.1713
1117.363, 245.6552
1117.845, 243.6655
1118.327, 244.1617
1118.809, 249.7601
1119.291, 251.7082
1119.773, 240.5539
1120.255, 225.2664
1120.737, 229.6710
1121.219, 252.0929
1121.702, 262.4563
1122.184, 261.3151
1122.666, 253.7475
1123.148, 241.5463
1123.630, 236.1547
1124.112, 243.1923
1124.594, 253.0036
1125.076, 254.2380
1125.559, 252.4805
1126.041, 262.0833
1126.523, 274.2428
1127.005, 265.0632
1127.487, 242.8879
1127.969, 236.3917
1128.451, 249.1984
1128.933, 258.7852
1129.416, 251.8343
1129.898, 243.7815
1130.380, 246.9206
1130.862, 252.5312
1131.344, 256.0684
1131.826, 256.2453
1132.308, 248.9185
1132.790, 238.0967
1133.272, 233.5946
1133.755, 237.5506
1134.237, 242.4433
1134.719, 248.4689
1135.201, 252.2437
1135.683, 253.2902
1136.165, 251.6138
1136.647, 245.1903
1137.129, 237.5323
1137.611, 231.1096
1138.094, 226.6844
1138.576, 228.4079
1139.058, 238.8392
1139.540, 245.8186
1140.022, 248.6147
1140.504, 250.7994
1140.986, 253.4962
1141.468, 254.0735
1141.950, 250.5338
1142.433, 245.6718
1142.915, 243.9344
1143.397, 244.2865
1143.879, 241.3790
1144.361, 236.3814
1144.843, 237.2629
1145.325, 243.4961
1145.807, 247.7125
1146.290, 247.6282
1146.772, 245.3358
1147.254, 241.9740
1147.736, 238.5849
1148.218, 236.1940
1148.700, 234.6506
1149.182, 233.8041
1149.664, 233.6434
1150.146, 234.7313
1150.629, 236.4191
1151.111, 236.7668
1151.593, 235.2528
1152.075, 234.2112
1152.557, 234.7711
1153.039, 235.8374
1153.521, 238.9870
1154.003, 240.2710
1154.486, 233.8699
1154.968, 226.7357
1155.450, 229.3656
1155.932, 239.2203
1156.414, 241.8849
1156.896, 233.6763
1157.378, 231.7998
1157.860, 239.4969
1158.343, 245.0027
1158.825, 245.8796
1159.307, 244.6247
1159.789, 242.1821
1160.271, 239.7281
1160.753, 238.7944
1161.235, 239.2002
1161.717, 240.2093
1162.199, 241.8823
1162.682, 245.9030
1163.164, 251.4812
1163.646, 252.0902
1164.128, 246.8479
1164.610, 242.6237
1165.092, 243.5353
1165.574, 246.5009
1166.056, 249.0098
1166.538, 251.0558
1167.021, 252.7188
1167.503, 253.8582
1167.985, 255.4357
1168.467, 255.9133
1168.949, 250.8997
1169.431, 240.4984
1169.913, 232.4353
1170.395, 228.9491
1170.877, 228.9240
1171.360, 236.2802
1171.842, 241.6002
1172.324, 237.5606
1172.806, 233.0229
1173.288, 235.8709
1173.770, 243.2157
1174.252, 250.1528
1174.734, 256.8105
1175.217, 255.6343
1175.699, 242.4190
1176.181, 243.7001
1176.663, 265.8202
1177.145, 274.5718
1177.627, 256.4543
1178.109, 234.5536
1178.591, 227.9093
1179.073, 230.4570
1179.556, 233.5443
1180.038, 236.1148
1180.520, 233.5425
1181.002, 228.2173
1181.484, 226.1465
1181.966, 228.0467
1182.448, 233.7938
1182.930, 242.8449
1183.413, 251.2446
1183.895, 258.7703
1184.377, 260.4206
1184.859, 247.2865
1185.341, 233.2943
1185.823, 227.1992
1186.305, 226.9643
1186.787, 231.3974
1187.270, 238.9148
1187.752, 246.8169
1188.234, 255.4949
1188.716, 259.3987
1189.198, 257.0034
1189.680, 252.5768
1190.162, 244.5377
1190.644, 239.4611
1191.126, 240.5866
1191.609, 243.5466
1192.091, 244.7703
1192.573, 243.9815
1193.055, 238.8516
1193.537, 230.8093
1194.019, 231.4043
1194.501, 238.4031
1194.983, 239.3818
1195.465, 234.3522
1195.948, 234.2236
1196.430, 242.1388
1196.912, 247.1398
1197.394, 239.5191
1197.876, 231.3412
1198.358, 234.0412
1198.840, 240.3328
1199.322, 245.8098
1199.804, 249.2845
1200.287, 249.6135
1200.769, 247.2099
1201.251, 241.9421
1201.733, 233.2799
1202.215, 230.5702
1202.697, 241.5504
1203.179, 247.2603
1203.661, 243.9119
1204.144, 240.4310
1204.626, 239.5227
1205.108, 240.0502
1205.590, 241.0288
1206.072, 243.0723
1206.554, 248.5774
1207.036, 256.1415
1207.518, 255.6305
1208.000, 248.3632
1208.483, 240.7200
1208.965, 234.4992
1209.447, 235.5892
1209.929, 244.6791
1210.411, 252.9305
1210.893, 254.9758
1211.375, 253.7261
1211.857, 250.3794
1212.340, 246.3577
1212.822, 242.3349
1213.304, 238.7112
1213.786, 236.0034
1214.268, 233.9021
1214.750, 230.7519
1215.232, 226.7509
1215.714, 228.1211
1216.197, 240.4412
1216.679, 247.9492
1217.161, 250.1818
1217.643, 247.8105
1218.125, 238.6866
1218.607, 232.3617
1219.089, 235.2399
1219.571, 241.6905
1220.053, 243.9538
1220.536, 243.7086
1221.018, 248.1065
1221.500, 254.2490
1221.982, 248.8689
1222.464, 235.5668
1222.946, 228.9792
1223.428, 230.5278
1223.910, 231.0649
1224.392, 226.5922
1224.875, 224.8529
1225.357, 232.6256
1225.839, 242.2322
1226.321, 252.7816
1226.803, 259.7818
1227.285, 256.9097
1227.767, 251.0645
1228.249, 251.8304
1228.731, 256.6196
1229.214, 254.8619
1229.696, 244.9003
1230.178, 243.9349
1230.660, 255.8051
1231.142, 255.9693
1231.624, 239.7968
1232.106, 229.4492
1232.588, 233.2786
1233.071, 240.5034
1233.553, 242.7798
1234.035, 241.6908
1234.517, 237.6863
1234.999, 233.3618
1235.481, 234.0173
1235.963, 236.9762
1236.445, 237.6970
1236.927, 236.8022
1237.410, 235.9594
1237.892, 236.0534
##END=



