##NAMES=Magnesio-riebeckite
##RRUFFID=R060037
##IDEAL CHEMISTRY=[box]Na_2_(Mg_3_Fe^3+^_2_)Si_8_O_22_(OH)_2_
##LOCALITY=Pollone, Piedmont, Italy
##OWNER=RRUFF
##SOURCE=University of Arizona Mineral Museum
##DESCRIPTION=Black bladed single crystals embedded in a white matrix of calcite
##STATUS=The identification of this mineral has been confirmed by X-ray diffraction and chemical analysis
##URL=rruff.info/R060037
##MEASURED CHEMISTRY=[box](Na_1.90_Ca_0.10_)_Σ=2_(Mg_1.65_Fe^2+^_1.40_)_Σ=3.05_(Fe^3+^_1.25_Al_0.55_Mg_0.20_)_Σ=2_Si_8.00_O_22_((OH)_0.95_F_0.05_)_2_
187.7276, 77.46304
188.2097, 77.66976
188.6918, 77.77613
189.1739, 77.78141
189.6560, 77.78329
190.1382, 77.83614
190.6203, 77.94296
191.1024, 78.11693
191.5845, 78.35329
192.0666, 78.66581
192.5487, 79.15356
193.0309, 79.83461
193.5130, 80.47153
193.9951, 80.80042
194.4772, 80.84431
194.9593, 81.04000
195.4414, 81.50023
195.9236, 82.15938
196.4057, 82.80803
196.8878, 83.44917
197.3699, 84.05933
197.8520, 84.52525
198.3341, 84.84090
198.8163, 85.42837
199.2984, 86.41255
199.7805, 87.73216
200.2626, 89.18995
200.7447, 90.83707
201.2268, 92.40982
201.7090, 93.58189
202.1911, 94.30923
202.6732, 95.06543
203.1553, 95.96305
203.6374, 96.97832
204.1195, 97.94283
204.6017, 98.86852
205.0838, 99.71541
205.5659, 100.5354
206.0480, 101.4077
206.5301, 101.7901
207.0122, 101.4500
207.4944, 100.4555
207.9765, 99.55158
208.4586, 98.78828
208.9407, 98.01228
209.4228, 97.01772
209.9049, 95.71851
210.3871, 94.54750
210.8692, 93.69153
211.3513, 93.13057
211.8334, 92.25674
212.3155, 90.97445
212.7976, 89.53810
213.2798, 88.20154
213.7619, 86.95656
214.2440, 85.82259
214.7261, 84.75975
215.2082, 83.77469
215.6903, 83.11003
216.1725, 82.90318
216.6546, 82.83444
217.1367, 82.53672
217.6188, 81.91123
218.1009, 81.31104
218.5830, 80.84205
219.0651, 80.51294
219.5473, 80.02705
220.0294, 79.25069
220.5115, 78.46547
220.9936, 78.04667
221.4757, 78.18806
221.9578, 78.23122
222.4400, 77.97175
222.9221, 77.36822
223.4042, 76.95184
223.8863, 76.78197
224.3684, 76.72525
224.8505, 76.64969
225.3327, 76.61317
225.8148, 76.43638
226.2969, 76.05669
226.7790, 75.45171
227.2611, 74.84466
227.7432, 74.20531
228.2254, 73.58403
228.7075, 73.02906
229.1896, 72.51437
229.6717, 72.11980
230.1538, 71.94852
230.6359, 72.05607
231.1181, 71.74183
231.6002, 70.71598
232.0823, 69.54243
232.5644, 68.90699
233.0465, 69.18060
233.5286, 69.27297
234.0108, 68.89583
234.4929, 67.99694
234.9750, 67.15896
235.4571, 66.30325
235.9392, 65.59296
236.4213, 65.24595
236.9035, 65.52431
237.3856, 65.68262
237.8677, 65.52088
238.3498, 65.00565
238.8319, 64.63783
239.3140, 64.56441
239.7962, 64.50253
240.2783, 64.09026
240.7604, 62.92566
241.2425, 62.18406
241.7246, 62.24430
242.2067, 63.16884
242.6889, 63.73745
243.1710, 63.85088
243.6531, 63.70226
244.1352, 63.45564
244.6173, 63.02154
245.0994, 62.65824
245.5816, 62.41862
246.0637, 62.30376
246.5458, 62.23914
247.0279, 62.24933
247.5100, 62.28461
247.9921, 62.28574
248.4743, 62.18364
248.9564, 62.19865
249.4385, 62.32736
249.9206, 62.54181
250.4027, 62.67181
250.8848, 62.72192
251.3670, 62.45280
251.8491, 62.59590
252.3312, 62.57380
252.8133, 62.54492
253.2954, 62.74603
253.7775, 62.52334
254.2597, 62.72081
254.7418, 62.75056
255.2239, 62.85706
255.7060, 62.79736
256.1881, 62.78899
256.6702, 62.94689
257.1523, 63.04427
257.6345, 63.58825
258.1166, 63.70241
258.5987, 63.16970
259.0808, 62.53001
259.5629, 62.17383
260.0450, 62.18552
260.5272, 62.27689
261.0093, 62.45710
261.4914, 62.69617
261.9735, 62.81769
262.4556, 62.78892
262.9377, 62.69898
263.4199, 62.56903
263.9020, 62.32393
264.3841, 62.31577
264.8662, 62.72490
265.3483, 63.36737
265.8304, 63.48302
266.3126, 62.84732
266.7947, 62.16552
267.2768, 61.88737
267.7589, 62.12133
268.2410, 62.34793
268.7231, 62.56332
269.2053, 62.73828
269.6874, 62.76287
270.1695, 62.57820
270.6516, 62.40014
271.1337, 62.38783
271.6158, 62.60806
272.0980, 62.61937
272.5801, 62.33730
273.0622, 61.89222
273.5443, 61.56477
274.0264, 61.34392
274.5085, 61.27501
274.9907, 61.42038
275.4728, 61.80714
275.9549, 62.19846
276.4370, 62.64819
276.9191, 63.02195
277.4012, 62.96695
277.8834, 62.37921
278.3655, 61.94521
278.8476, 62.10629
279.3297, 62.89820
279.8118, 63.24044
280.2939, 63.05685
280.7761, 62.58263
281.2582, 62.05297
281.7403, 61.44038
282.2224, 61.09612
282.7045, 61.26423
283.1866, 61.89101
283.6688, 62.37842
284.1509, 62.75146
284.6330, 62.90393
285.1151, 62.52807
285.5972, 61.62506
286.0793, 61.02015
286.5615, 61.14806
287.0436, 61.81432
287.5257, 62.04918
288.0078, 61.79012
288.4899, 61.44633
288.9720, 61.49727
289.4542, 61.89994
289.9363, 62.19570
290.4184, 62.21340
290.9005, 62.04902
291.3826, 61.99049
291.8647, 62.04621
292.3469, 62.07376
292.8290, 61.89456
293.3111, 61.56068
293.7932, 61.30029
294.2753, 61.15914
294.7574, 61.12856
295.2396, 61.25704
295.7217, 61.53408
296.2038, 61.75946
296.6859, 61.81712
297.1680, 61.70534
297.6501, 61.36869
298.1323, 60.69282
298.6144, 59.97557
299.0965, 59.64062
299.5786, 59.65445
300.0607, 59.80312
300.5428, 60.18818
301.0250, 60.57180
301.5071, 60.42351
301.9892, 59.52615
302.4713, 58.51149
302.9534, 58.10868
303.4355, 58.18618
303.9177, 58.29698
304.3998, 58.28824
304.8819, 58.12910
305.3640, 57.69764
305.8461, 56.92638
306.3282, 56.20799
306.8104, 55.94855
307.2925, 55.99654
307.7746, 56.04317
308.2567, 55.92442
308.7388, 55.75071
309.2209, 55.60091
309.7031, 55.47893
310.1852, 55.42504
310.6673, 55.58594
311.1494, 55.80703
311.6315, 55.86884
312.1136, 55.40642
312.5958, 54.97091
313.0779, 54.99846
313.5600, 55.45723
314.0421, 55.91371
314.5242, 56.19044
315.0063, 56.31811
315.4885, 56.32091
315.9706, 55.99440
316.4527, 55.76158
316.9348, 55.88494
317.4169, 56.29398
317.8990, 56.67249
318.3812, 56.88954
318.8633, 57.03459
319.3454, 57.15292
319.8275, 57.15337
320.3096, 57.28856
320.7917, 57.79956
321.2739, 58.51710
321.7560, 59.01362
322.2381, 58.84735
322.7202, 58.68996
323.2023, 58.88297
323.6844, 59.61765
324.1666, 60.33746
324.6487, 61.01518
325.1308, 61.60219
325.6129, 62.01657
326.0950, 61.91532
326.5771, 61.94587
327.0593, 62.37104
327.5414, 63.34292
328.0235, 64.10925
328.5056, 64.42630
328.9877, 64.59944
329.4698, 64.94257
329.9520, 65.70503
330.4341, 66.34520
330.9162, 66.71705
331.3983, 66.80820
331.8804, 67.03923
332.3625, 67.54360
332.8447, 68.07104
333.3268, 68.44321
333.8089, 68.62577
334.2910, 68.71673
334.7731, 68.71984
335.2552, 68.63921
335.7374, 68.48452
336.2195, 68.19855
336.7016, 67.92767
337.1837, 67.77502
337.6658, 67.81171
338.1479, 67.74006
338.6301, 67.56834
339.1122, 67.26567
339.5943, 66.66360
340.0764, 65.61275
340.5585, 64.77120
341.0406, 64.55755
341.5227, 65.02514
342.0049, 65.20090
342.4870, 65.00112
342.9691, 64.68637
343.4512, 64.72627
343.9333, 65.16032
344.4154, 65.34162
344.8976, 64.90404
345.3797, 64.01610
345.8618, 63.63976
346.3439, 63.85571
346.8260, 64.02880
347.3081, 63.36815
347.7903, 62.00973
348.2724, 60.87946
348.7545, 60.28127
349.2366, 59.97239
349.7187, 59.43418
350.2008, 58.68301
350.6830, 58.03237
351.1651, 57.73824
351.6472, 57.71123
352.1293, 57.77783
352.6114, 57.94320
353.0935, 58.10418
353.5757, 58.12833
354.0578, 58.04310
354.5399, 57.94525
355.0220, 57.86433
355.5041, 57.81104
355.9862, 57.79377
356.4684, 57.81072
356.9505, 57.88276
357.4326, 58.00285
357.9147, 58.19177
358.3968, 58.48200
358.8789, 58.84436
359.3611, 59.34731
359.8432, 60.16252
360.3253, 61.27118
360.8074, 62.19785
361.2895, 62.56836
361.7716, 62.71358
362.2538, 62.93304
362.7359, 63.20283
363.2180, 63.67982
363.7001, 64.53525
364.1822, 65.67987
364.6643, 66.76085
365.1465, 67.72154
365.6286, 68.56928
366.1107, 69.26677
366.5928, 69.59862
367.0749, 70.20480
367.5570, 71.45569
368.0392, 73.00349
368.5213, 74.25175
369.0034, 74.69707
369.4855, 75.24718
369.9676, 76.23641
370.4497, 77.79801
370.9319, 79.05063
371.4140, 79.82423
371.8961, 80.39587
372.3782, 81.01900
372.8603, 81.68810
373.3424, 82.42663
373.8246, 83.38648
374.3067, 84.47662
374.7888, 84.96260
375.2709, 84.64037
375.7530, 84.05479
376.2351, 83.55947
376.7173, 83.22339
377.1994, 82.70671
377.6815, 81.95701
378.1636, 81.04115
378.6457, 80.07845
379.1278, 79.03370
379.6100, 78.09850
380.0921, 77.51185
380.5742, 77.24327
381.0563, 76.34495
381.5384, 74.71097
382.0205, 72.85844
382.5027, 71.39133
382.9848, 70.28091
383.4669, 69.41667
383.9490, 68.90804
384.4311, 68.53178
384.9132, 67.65004
385.3954, 66.28654
385.8775, 64.99162
386.3596, 64.35828
386.8417, 64.12216
387.3238, 63.68963
387.8059, 62.85777
388.2881, 61.96405
388.7702, 61.37697
389.2523, 61.03631
389.7344, 60.75934
390.2165, 60.49781
390.6986, 60.22020
391.1808, 59.91306
391.6629, 59.58013
392.1450, 59.15318
392.6271, 58.46148
393.1092, 57.68740
393.5913, 57.07748
394.0735, 56.94128
394.5556, 56.78222
395.0377, 56.23400
395.5198, 55.35318
396.0019, 54.77217
396.4840, 55.03020
396.9662, 55.45048
397.4483, 55.58333
397.9304, 55.14874
398.4125, 54.70686
398.8946, 54.27233
399.3767, 53.88384
399.8589, 53.63756
400.3410, 53.65704
400.8231, 53.70988
401.3052, 53.74577
401.7873, 53.78748
402.2694, 53.71522
402.7516, 53.46249
403.2337, 53.14458
403.7158, 52.90370
404.1979, 52.82439
404.6800, 52.62848
405.1621, 52.19287
405.6443, 51.57502
406.1264, 51.24947
406.6085, 51.31518
407.0906, 51.40826
407.5727, 51.24722
408.0548, 50.80555
408.5370, 50.45237
409.0191, 50.24751
409.5012, 50.10600
409.9833, 49.88519
410.4654, 49.58519
410.9475, 49.25005
411.4297, 48.93241
411.9118, 48.60001
412.3939, 48.09831
412.8760, 47.42281
413.3581, 46.74997
413.8402, 46.19787
414.3224, 45.78553
414.8045, 45.57907
415.2866, 45.76790
415.7687, 45.96315
416.2508, 45.60679
416.7329, 44.81599
417.2151, 44.10583
417.6972, 43.86668
418.1793, 43.80889
418.6614, 43.58459
419.1435, 43.05187
419.6256, 42.73946
420.1078, 43.22683
420.5899, 44.06245
421.0720, 44.59651
421.5541, 44.40089
422.0362, 44.03914
422.5183, 43.73626
423.0005, 43.50019
423.4826, 43.15288
423.9647, 42.39326
424.4468, 41.67134
424.9289, 41.29413
425.4110, 41.59268
425.8932, 41.85696
426.3753, 42.02250
426.8574, 42.13820
427.3395, 42.32471
427.8216, 42.60942
428.3037, 42.92669
428.7859, 43.26945
429.2680, 43.64998
429.7501, 43.98132
430.2322, 44.30512
430.7143, 44.51946
431.1964, 44.41980
431.6786, 43.89393
432.1607, 43.66930
432.6428, 43.98353
433.1249, 44.64000
433.6070, 45.00720
434.0891, 45.06961
434.5713, 45.02953
435.0534, 45.05752
435.5355, 45.10821
436.0176, 44.86549
436.4997, 44.22296
436.9818, 43.64596
437.4640, 43.89180
437.9461, 44.70493
438.4282, 45.26712
438.9103, 44.99719
439.3924, 44.45782
439.8745, 44.43458
440.3566, 44.85832
440.8387, 45.15788
441.3209, 44.83166
441.8030, 44.24703
442.2851, 43.76500
442.7672, 43.44206
443.2493, 43.27434
443.7314, 43.32435
444.2136, 43.52276
444.6957, 43.74297
445.1778, 44.07112
445.6599, 44.29992
446.1420, 44.29705
446.6241, 44.03160
447.1063, 43.83814
447.5884, 43.78600
448.0705, 43.80973
448.5526, 43.86091
449.0347, 43.92136
449.5168, 44.03302
449.9990, 44.20930
450.4811, 44.43803
450.9632, 44.69804
451.4453, 45.06058
451.9274, 45.32109
452.4095, 45.37011
452.8917, 45.18611
453.3738, 45.05573
453.8559, 44.98237
454.3380, 44.95800
454.8201, 45.00428
455.3022, 45.12242
455.7844, 45.16658
456.2665, 45.06562
456.7486, 44.91525
457.2307, 44.92527
457.7128, 45.08861
458.1949, 45.31414
458.6771, 45.53257
459.1592, 45.77412
459.6413, 46.14544
460.1234, 46.67686
460.6055, 47.13002
461.0876, 47.20392
461.5698, 47.07225
462.0519, 47.02993
462.5340, 47.23865
463.0161, 47.52150
463.4982, 47.77945
463.9803, 48.01881
464.4625, 48.26396
464.9446, 48.59466
465.4267, 48.89034
465.9088, 49.07864
466.3909, 49.14000
466.8730, 49.12851
467.3552, 48.89271
467.8373, 48.64405
468.3194, 48.65403
468.8015, 49.15306
469.2836, 49.65107
469.7657, 50.07831
470.2479, 50.44302
470.7300, 50.80233
471.2121, 51.19071
471.6942, 51.51794
472.1763, 51.70025
472.6584, 51.68177
473.1406, 51.80904
473.6227, 52.13787
474.1048, 52.53147
474.5869, 52.77497
475.0690, 52.86640
475.5511, 52.95596
476.0333, 53.11056
476.5154, 53.28669
476.9975, 53.33690
477.4796, 53.26931
477.9617, 53.24772
478.4438, 53.43880
478.9260, 53.74947
479.4081, 54.02713
479.8902, 54.26247
480.3723, 54.40870
480.8544, 54.38776
481.3365, 54.25671
481.8187, 54.11432
482.3008, 54.12661
482.7829, 54.02890
483.2650, 53.54486
483.7471, 52.74059
484.2292, 52.13937
484.7114, 51.96441
485.1935, 52.00512
485.6756, 52.17519
486.1577, 52.63862
486.6398, 52.87615
487.1219, 52.72351
487.6041, 52.36388
488.0862, 52.02504
488.5683, 51.65557
489.0504, 51.38786
489.5325, 51.29191
490.0146, 51.33615
490.4968, 51.24680
490.9789, 50.95262
491.4610, 50.71260
491.9431, 50.71270
492.4252, 50.95660
492.9073, 51.25344
493.3895, 51.65327
493.8716, 51.92818
494.3537, 51.66061
494.8358, 50.94365
495.3179, 50.29211
495.8000, 49.86202
496.2822, 49.62397
496.7643, 49.50062
497.2464, 49.51050
497.7285, 49.76540
498.2106, 50.68107
498.6927, 51.69884
499.1749, 52.16925
499.6570, 51.89526
500.1391, 51.63451
500.6212, 51.85423
501.1033, 52.29536
501.5854, 52.65694
502.0676, 52.77280
502.5497, 52.87965
503.0318, 53.02857
503.5139, 53.21878
503.9960, 53.43597
504.4781, 53.65004
504.9603, 53.92591
505.4424, 54.31736
505.9245, 54.89394
506.4066, 55.29306
506.8887, 55.40626
507.3708, 55.47949
507.8530, 55.81878
508.3351, 56.48487
508.8172, 57.03958
509.2993, 57.38029
509.7814, 57.59059
510.2635, 57.86512
510.7457, 58.20509
511.2278, 58.55452
511.7099, 58.84438
512.1920, 59.12481
512.6741, 59.56850
513.1563, 60.18317
513.6384, 60.76760
514.1205, 61.13935
514.6026, 61.37548
515.0847, 61.58069
515.5668, 61.75480
516.0490, 61.95093
516.5311, 62.14850
517.0132, 62.39506
517.4953, 62.78634
517.9774, 63.62987
518.4595, 64.37291
518.9417, 64.70940
519.4238, 64.60440
519.9059, 64.65551
520.3880, 65.07429
520.8701, 65.55416
521.3522, 65.94123
521.8344, 66.24252
522.3165, 66.40958
522.7986, 66.31585
523.2807, 66.19559
523.7628, 66.51204
524.2449, 67.38163
524.7271, 68.05662
525.2092, 68.21292
525.6913, 68.04951
526.1734, 68.33676
526.6555, 69.08237
527.1376, 69.90908
527.6198, 70.51110
528.1019, 70.99250
528.5840, 71.60654
529.0661, 72.37643
529.5482, 73.22958
530.0303, 74.21500
530.5125, 75.20899
530.9946, 76.03481
531.4767, 76.46103
531.9588, 76.87492
532.4409, 77.51736
532.9230, 78.31016
533.4052, 79.04747
533.8873, 79.44090
534.3694, 79.95454
534.8515, 80.84243
535.3336, 82.22704
535.8157, 83.42638
536.2979, 84.32437
536.7800, 85.14229
537.2621, 86.05492
537.7442, 87.16622
538.2263, 88.10773
538.7084, 88.81712
539.1906, 89.40114
539.6727, 90.11856
540.1548, 91.00851
540.6369, 91.66809
541.1190, 91.86401
541.6011, 91.76140
542.0833, 91.84004
542.5654, 92.09378
543.0475, 92.39355
543.5296, 92.79270
544.0117, 93.12746
544.4938, 93.12043
544.9760, 92.71404
545.4581, 92.11264
545.9402, 91.42600
546.4223, 90.64537
546.9044, 89.76003
547.3865, 88.67550
547.8687, 87.57986
548.3508, 86.51836
548.8329, 85.49130
549.3150, 84.49970
549.7971, 83.57467
550.2792, 82.65674
550.7614, 81.71114
551.2435, 80.74143
551.7256, 79.88042
552.2077, 79.25900
552.6898, 78.56080
553.1719, 77.42793
553.6541, 75.75488
554.1362, 74.52738
554.6183, 73.89481
555.1004, 73.58698
555.5825, 73.25465
556.0646, 72.89127
556.5468, 72.46719
557.0289, 71.93714
557.5110, 71.36804
557.9931, 70.86404
558.4752, 70.41263
558.9573, 69.96613
559.4395, 69.44917
559.9216, 68.94814
560.4037, 68.49355
560.8858, 68.07247
561.3679, 67.85189
561.8500, 68.06990
562.3322, 68.42887
562.8143, 68.67345
563.2964, 68.79511
563.7785, 68.74934
564.2606, 68.42429
564.7427, 67.96623
565.2249, 67.65829
565.7070, 67.52944
566.1891, 67.49791
566.6712, 67.56773
567.1533, 67.72014
567.6354, 67.86164
568.1176, 68.00377
568.5997, 68.06408
569.0818, 67.84411
569.5639, 67.47166
570.0460, 67.54169
570.5281, 68.13488
571.0103, 68.79174
571.4924, 69.02937
571.9745, 69.01804
572.4566, 69.07966
572.9387, 69.43346
573.4208, 69.68178
573.9030, 69.44553
574.3851, 68.91811
574.8672, 68.52342
575.3493, 68.46906
575.8314, 68.50509
576.3135, 68.58013
576.7957, 68.68961
577.2778, 68.72728
577.7599, 68.64657
578.2420, 68.54210
578.7241, 68.47672
579.2062, 68.48730
579.6884, 68.35157
580.1705, 67.98637
580.6526, 67.63692
581.1347, 67.67250
581.6168, 68.07587
582.0989, 68.31377
582.5811, 68.22141
583.0632, 68.00954
583.5453, 68.06041
584.0274, 68.29534
584.5095, 68.42304
584.9916, 68.15471
585.4738, 67.80850
585.9559, 67.73846
586.4380, 67.90876
586.9201, 67.97585
587.4022, 67.75244
587.8843, 67.39272
588.3664, 66.99656
588.8485, 66.59297
589.3306, 66.09711
589.8127, 65.28934
590.2949, 64.50943
590.7770, 64.10214
591.2591, 64.33625
591.7412, 64.29298
592.2233, 63.78016
592.7054, 63.03189
593.1876, 62.61419
593.6697, 62.56503
594.1518, 62.37947
594.6339, 61.91051
595.1160, 61.16076
595.5981, 59.99721
596.0803, 58.46733
596.5624, 57.02562
597.0445, 55.96997
597.5266, 55.17467
598.0087, 54.56820
598.4908, 54.14845
598.9730, 53.69090
599.4551, 53.05132
599.9372, 52.32356
600.4193, 51.59517
600.9014, 50.77796
601.3835, 50.10425
601.8657, 49.73357
602.3478, 49.49294
602.8299, 49.12043
603.3120, 48.54090
603.7941, 47.97692
604.2762, 47.48519
604.7584, 47.03972
605.2405, 46.48399
605.7226, 45.78938
606.2047, 45.16871
606.6868, 44.69314
607.1689, 44.37339
607.6511, 44.29903
608.1332, 44.47062
608.6153, 44.62766
609.0974, 44.49899
609.5795, 44.25197
610.0616, 44.13806
610.5438, 44.25579
611.0259, 44.30508
611.5080, 44.04639
611.9901, 43.65705
612.4722, 43.34436
612.9543, 43.19239
613.4365, 43.08062
613.9186, 42.93538
614.4007, 42.82427
614.8828, 42.95329
615.3649, 43.52605
615.8470, 43.90828
616.3292, 43.85675
616.8113, 43.44020
617.2934, 43.15662
617.7755, 43.01855
618.2576, 42.87960
618.7397, 42.59010
619.2219, 42.22429
619.7040, 41.94904
620.1861, 41.77125
620.6682, 41.78157
621.1503, 42.23495
621.6324, 42.84807
622.1146, 43.28733
622.5967, 43.46703
623.0788, 43.47082
623.5609, 43.20917
624.0430, 42.83095
624.5251, 42.54876
625.0073, 42.42131
625.4894, 42.37038
625.9715, 42.40377
626.4536, 42.50214
626.9357, 42.61642
627.4178, 42.77246
627.9000, 42.86756
628.3821, 42.83717
628.8642, 42.70613
629.3463, 42.67432
629.8284, 42.74636
630.3105, 42.74518
630.7927, 42.32232
631.2748, 41.78868
631.7569, 41.83888
632.2390, 42.57788
632.7211, 43.33190
633.2032, 43.54043
633.6854, 43.52063
634.1675, 43.61824
634.6496, 44.03598
635.1317, 44.36491
635.6138, 44.49212
636.0959, 44.46882
636.5781, 44.36411
637.0602, 44.03360
637.5423, 43.87833
638.0244, 44.04192
638.5065, 44.39256
638.9886, 44.43843
639.4708, 44.09668
639.9529, 43.99437
640.4350, 44.54492
640.9171, 45.51401
641.3992, 46.15096
641.8813, 46.46724
642.3635, 46.64814
642.8456, 46.75359
643.3277, 46.82917
643.8098, 46.89206
644.2919, 46.93290
644.7740, 47.10835
645.2562, 47.60490
645.7383, 48.20699
646.2204, 48.72003
646.7025, 48.97096
647.1846, 49.39014
647.6667, 50.13408
648.1489, 50.97072
648.6310, 51.61704
649.1131, 52.01557
649.5952, 52.36751
650.0773, 52.66257
650.5594, 52.98415
651.0416, 53.51906
651.5237, 54.26200
652.0058, 55.16012
652.4879, 56.29044
652.9700, 57.50194
653.4521, 58.63531
653.9343, 59.68914
654.4164, 60.60666
654.8985, 61.01994
655.3806, 61.54737
655.8627, 62.72295
656.3448, 64.63860
656.8270, 66.37914
657.3091, 67.56879
657.7912, 68.68337
658.2733, 69.99399
658.7554, 71.60638
659.2375, 73.08055
659.7197, 74.38405
660.2018, 75.60230
660.6839, 76.75115
661.1660, 77.83712
661.6481, 79.24128
662.1302, 81.12748
662.6124, 83.03709
663.0945, 84.24031
663.5766, 84.96920
664.0587, 85.82661
664.5408, 87.30249
665.0229, 88.65275
665.5051, 89.25262
665.9872, 89.32947
666.4693, 89.44476
666.9514, 89.94121
667.4335, 90.32930
667.9156, 90.45541
668.3978, 90.33548
668.8799, 90.02537
669.3620, 89.45959
669.8441, 88.83186
670.3262, 88.24749
670.8083, 87.69758
671.2905, 86.96502
671.7726, 86.03680
672.2547, 85.04349
672.7368, 84.13357
673.2189, 83.24712
673.7010, 82.32554
674.1832, 81.37600
674.6653, 80.20348
675.1474, 78.35130
675.6295, 76.32726
676.1116, 74.73830
676.5938, 74.13682
677.0759, 73.22216
677.5580, 71.42231
678.0401, 69.27880
678.5222, 67.49594
679.0043, 66.31094
679.4865, 64.96200
679.9686, 63.25049
680.4507, 61.39237
680.9328, 59.79047
681.4149, 58.45745
681.8970, 57.17132
682.3792, 55.80127
682.8613, 54.47943
683.3434, 53.40392
683.8255, 52.56938
684.3076, 51.86885
684.7897, 51.40015
685.2719, 50.93248
685.7540, 50.29340
686.2361, 49.48993
686.7182, 48.68182
687.2003, 47.88450
687.6824, 47.12066
688.1646, 46.35805
688.6467, 45.55692
689.1288, 45.08701
689.6109, 45.07166
690.0930, 45.12901
690.5751, 44.90247
691.0573, 44.42458
691.5394, 44.22009
692.0215, 44.37273
692.5036, 44.46389
692.9857, 43.92787
693.4678, 43.05923
693.9500, 42.37925
694.4321, 42.05910
694.9142, 41.79090
695.3963, 41.32616
695.8784, 40.83430
696.3605, 40.53573
696.8427, 40.63944
697.3248, 40.73539
697.8069, 40.78390
698.2890, 40.79827
698.7711, 40.81832
699.2532, 40.86924
699.7354, 40.82059
700.2175, 40.61286
700.6996, 40.31121
701.1817, 40.03426
701.6638, 39.79256
702.1459, 39.65693
702.6281, 39.82104
703.1102, 40.00469
703.5923, 39.80720
704.0744, 39.31869
704.5565, 38.98760
705.0386, 39.17040
705.5208, 39.42269
706.0029, 39.54495
706.4850, 39.51485
706.9671, 39.36367
707.4492, 38.92405
707.9313, 38.61049
708.4135, 38.76046
708.8956, 39.42382
709.3777, 39.50670
709.8598, 38.92106
710.3419, 38.32109
710.8240, 38.40462
711.3062, 38.91353
711.7883, 39.24752
712.2704, 39.32835
712.7525, 39.29342
713.2346, 39.20449
713.7167, 39.07505
714.1989, 38.91123
714.6810, 38.67261
715.1631, 38.48657
715.6452, 38.41228
716.1273, 38.38326
716.6094, 38.32030
717.0916, 38.18205
717.5737, 38.13288
718.0558, 38.19545
718.5379, 38.35138
719.0200, 38.67276
719.5021, 39.10840
719.9843, 39.25244
720.4664, 38.80241
720.9485, 38.28197
721.4306, 38.45248
721.9127, 39.04705
722.3948, 39.43373
722.8770, 39.12211
723.3591, 38.78746
723.8412, 38.66534
724.3233, 38.74430
724.8054, 38.97266
725.2875, 39.56687
725.7697, 39.94588
726.2518, 39.87488
726.7339, 39.44974
727.2160, 39.13781
727.6981, 38.94151
728.1802, 38.85127
728.6624, 38.84499
729.1445, 38.94553
729.6266, 39.33220
730.1087, 39.94651
730.5908, 40.33527
731.0729, 39.99238
731.5551, 39.49564
732.0372, 39.28206
732.5193, 39.41006
733.0014, 39.49618
733.4835, 39.34819
733.9656, 39.25831
734.4478, 39.41665
734.9299, 39.89910
735.4120, 40.05132
735.8941, 39.76499
736.3762, 39.52191
736.8583, 39.95467
737.3405, 40.81039
737.8226, 41.01458
738.3047, 40.42396
738.7868, 39.76170
739.2689, 39.53172
739.7510, 39.62054
740.2332, 39.98639
740.7153, 40.86796
741.1974, 41.35392
741.6795, 40.76130
742.1616, 39.89156
742.6437, 39.54539
743.1259, 40.00673
743.6080, 40.27391
744.0901, 40.25045
744.5722, 40.09136
745.0543, 39.98269
745.5364, 39.92614
746.0186, 39.93340
746.5007, 40.00097
746.9828, 40.14889
747.4649, 40.51467
747.9470, 40.95354
748.4291, 41.22017
748.9113, 41.19378
749.3934, 41.02269
749.8755, 40.62874
750.3576, 40.14999
750.8397, 39.86287
751.3218, 39.89222
751.8040, 39.88320
752.2861, 39.75504
752.7682, 39.57031
753.2503, 39.46044
753.7324, 39.42699
754.2145, 39.48424
754.6967, 39.66399
755.1788, 39.90458
755.6609, 40.14934
756.1430, 40.38444
756.6251, 40.56424
757.1072, 40.72808
757.5894, 40.77296
758.0715, 40.49120
758.5536, 40.00892
759.0357, 39.91004
759.5178, 40.46748
759.9999, 40.99828
760.4821, 41.28572
760.9642, 41.39184
761.4463, 41.64134
761.9284, 42.04078
762.4105, 42.35004
762.8926, 42.34215
763.3748, 42.21506
763.8569, 42.34849
764.3390, 42.69303
764.8211, 42.98243
765.3032, 42.96897
765.7853, 42.95510
766.2675, 43.16961
766.7496, 43.61480
767.2317, 43.86230
767.7138, 43.72422
768.1959, 43.63710
768.6780, 43.82182
769.1602, 44.24987
769.6423, 44.54661
770.1244, 44.71695
770.6065, 44.69014
771.0886, 44.24521
771.5707, 43.63547
772.0529, 43.34468
772.5350, 43.36854
773.0171, 43.39965
773.4992, 43.25135
773.9813, 43.05520
774.4634, 42.90815
774.9456, 42.83333
775.4277, 42.68019
775.9098, 42.40934
776.3919, 42.10691
776.8740, 41.80858
777.3561, 41.51702
777.8383, 41.21989
778.3204, 40.90653
778.8025, 40.71032
779.2846, 40.85176
779.7667, 41.14662
780.2488, 41.28822
780.7310, 41.25107
781.2131, 41.10742
781.6952, 40.81001
782.1773, 40.48425
782.6594, 40.20110
783.1415, 39.94670
783.6237, 39.84771
784.1058, 40.03681
784.5879, 40.18177
785.0699, 39.95318
785.5521, 39.35140
786.0342, 39.13929
786.5163, 39.37009
786.9984, 39.65593
787.4805, 39.59154
787.9626, 39.37645
788.4448, 39.37547
788.9269, 39.67970
789.4090, 39.77068
789.8911, 39.08440
790.3732, 38.30439
790.8553, 38.00344
791.3375, 38.45245
791.8196, 38.60391
792.3017, 38.31012
792.7838, 37.98597
793.2659, 38.05045
793.7480, 38.45628
794.2302, 38.63346
794.7123, 38.53112
795.1944, 38.31090
795.6765, 37.96098
796.1586, 37.65343
796.6407, 37.64819
797.1229, 38.05195
797.6050, 38.41838
798.0871, 38.57393
798.5692, 38.64209
799.0513, 38.75060
799.5334, 39.01814
800.0156, 38.90239
800.4977, 38.27082
800.9798, 37.58736
801.4619, 37.34760
801.9440, 37.45923
802.4261, 37.47609
802.9083, 37.34636
803.3904, 37.23836
803.8725, 37.30323
804.3546, 37.45907
804.8367, 37.61616
805.3188, 37.74279
805.8010, 37.92840
806.2831, 38.42355
806.7652, 38.79884
807.2473, 38.69049
807.7294, 37.91859
808.2115, 37.52736
808.6937, 37.57355
809.1758, 37.80227
809.6579, 38.06359
810.1400, 38.30565
810.6221, 38.37127
811.1042, 38.23518
811.5864, 38.05738
812.0685, 37.96827
812.5506, 37.87079
813.0327, 37.63878
813.5148, 37.12122
813.9969, 36.93406
814.4791, 37.33524
814.9612, 37.77188
815.4433, 37.74798
815.9254, 37.23700
816.4075, 37.24144
816.8896, 37.83790
817.3718, 38.44960
817.8539, 38.43858
818.3360, 38.14714
818.8181, 38.15285
819.3002, 38.54676
819.7823, 38.79390
820.2645, 38.43886
820.7466, 38.00582
821.2287, 37.88921
821.7108, 38.17685
822.1929, 38.35093
822.6750, 38.39048
823.1572, 38.37395
823.6393, 38.35326
824.1214, 38.32528
824.6035, 38.23079
825.0856, 38.07012
825.5677, 38.01886
826.0499, 38.36232
826.5320, 38.78088
827.0141, 38.97066
827.4962, 38.88803
827.9783, 38.76837
828.4604, 38.58474
828.9426, 38.45911
829.4247, 38.49156
829.9068, 38.68990
830.3889, 38.59761
830.8710, 38.15258
831.3531, 37.89074
831.8353, 38.38733
832.3174, 39.26143
832.7995, 39.77016
833.2816, 39.91322
833.7637, 39.91106
834.2458, 39.74424
834.7280, 39.59391
835.2101, 39.60991
835.6922, 39.80360
836.1743, 39.82005
836.6564, 39.55808
837.1385, 39.31608
837.6207, 39.22680
838.1028, 39.26326
838.5849, 39.33873
839.0670, 39.44572
839.5491, 39.49561
840.0313, 39.36253
840.5134, 39.20163
840.9955, 39.15131
841.4776, 39.20453
841.9597, 39.30473
842.4418, 39.47107
842.9240, 39.64836
843.4061, 39.88927
843.8882, 40.12790
844.3703, 39.98609
844.8524, 39.38792
845.3345, 39.00409
845.8167, 39.16840
846.2988, 39.61232
846.7809, 39.89096
847.2630, 40.04399
847.7451, 40.18895
848.2272, 40.45124
848.7094, 40.64373
849.1915, 40.60273
849.6736, 40.43488
850.1557, 40.44080
850.6378, 40.74874
851.1199, 40.95123
851.6021, 40.95107
852.0842, 40.82976
852.5663, 40.73810
853.0484, 40.67310
853.5305, 40.60480
854.0126, 40.47437
854.4948, 40.43679
854.9769, 40.67567
855.4590, 41.08202
855.9411, 41.49575
856.4232, 42.03332
856.9053, 42.33870
857.3875, 42.29064
857.8696, 42.09579
858.3517, 42.02993
858.8338, 42.10007
859.3159, 42.10670
859.7980, 42.00203
860.2802, 41.91845
860.7623, 42.07726
861.2444, 42.33437
861.7265, 42.42872
862.2086, 42.20848
862.6907, 42.14311
863.1729, 42.57519
863.6550, 43.12519
864.1371, 43.46910
864.6192, 43.55847
865.1013, 43.61822
865.5834, 43.63557
866.0656, 43.66740
866.5477, 43.81787
867.0298, 44.01544
867.5119, 44.00820
867.9940, 43.77523
868.4761, 43.68047
868.9583, 44.09321
869.4404, 44.61908
869.9225, 44.97844
870.4046, 45.11407
870.8867, 45.29961
871.3688, 45.60615
871.8510, 45.82199
872.3331, 45.74860
872.8152, 45.48209
873.2973, 45.60527
873.7794, 46.08731
874.2615, 46.54840
874.7437, 46.77128
875.2258, 46.85047
875.7079, 46.80657
876.1900, 46.67384
876.6721, 46.61449
877.1542, 46.68109
877.6364, 46.81514
878.1185, 47.04728
878.6006, 47.32353
879.0827, 47.38056
879.5648, 47.22049
880.0469, 47.27172
880.5291, 47.83815
881.0112, 48.48738
881.4933, 48.64201
881.9754, 48.46830
882.4575, 48.30817
882.9396, 48.21018
883.4218, 48.23717
883.9039, 48.59845
884.3860, 48.98816
884.8681, 48.88624
885.3502, 48.16695
885.8323, 47.77179
886.3145, 47.88035
886.7966, 48.18584
887.2787, 48.31926
887.7608, 48.35752
888.2429, 48.45459
888.7250, 48.67706
889.2072, 48.84112
889.6893, 48.83882
890.1714, 48.76180
890.6535, 48.70140
891.1356, 48.69706
891.6177, 48.53894
892.0999, 48.18386
892.5820, 47.82229
893.0641, 47.63783
893.5462, 47.56966
894.0283, 47.47714
894.5104, 47.35292
894.9926, 47.19614
895.4747, 47.00420
895.9568, 46.78162
896.4389, 46.50398
896.9210, 46.17507
897.4031, 45.93087
897.8853, 45.81505
898.3674, 45.67088
898.8495, 45.38949
899.3316, 45.05368
899.8137, 44.97274
900.2958, 45.08657
900.7780, 45.09240
901.2601, 44.71778
901.7422, 44.29356
902.2243, 43.99469
902.7064, 43.80620
903.1885, 43.70530
903.6707, 43.75812
904.1528, 43.76283
904.6349, 43.70194
905.1170, 43.56398
905.5991, 43.29517
906.0812, 42.92010
906.5634, 42.53806
907.0455, 42.14056
907.5276, 41.84053
908.0097, 41.86937
908.4918, 41.97840
908.9739, 41.86865
909.4561, 41.28991
909.9382, 40.92561
910.4203, 40.89436
910.9024, 40.92339
911.3845, 40.74230
911.8666, 40.38634
912.3488, 40.22302
912.8309, 40.26766
913.3130, 40.43291
913.7951, 40.84634
914.2772, 41.21175
914.7593, 41.21405
915.2415, 40.84009
915.7236, 40.47427
916.2057, 40.02144
916.6878, 39.81708
917.1699, 40.09735
917.6520, 40.69345
918.1342, 40.82280
918.6163, 40.51914
919.0984, 40.20845
919.5805, 40.09475
920.0626, 40.06057
920.5447, 40.04194
921.0269, 40.01234
921.5090, 39.91519
921.9911, 39.59465
922.4732, 39.40257
922.9553, 39.39159
923.4374, 39.50707
923.9196, 39.70586
924.4017, 39.98141
924.8838, 40.21114
925.3659, 40.39947
925.8480, 40.42254
926.3301, 39.95856
926.8123, 39.37289
927.2944, 39.08625
927.7765, 39.24392
928.2586, 39.42582
928.7407, 39.66529
929.2228, 39.80107
929.7050, 39.68502
930.1871, 39.33870
930.6692, 39.12520
931.1513, 39.04283
931.6334, 39.02886
932.1155, 39.02220
932.5977, 39.07790
933.0798, 39.33092
933.5619, 39.71727
934.0440, 39.93249
934.5261, 39.79693
935.0082, 39.62365
935.4904, 39.42931
935.9725, 39.27002
936.4546, 39.30644
936.9367, 39.51960
937.4188, 39.72382
937.9009, 39.86722
938.3831, 39.98142
938.8652, 40.10529
939.3473, 40.21703
939.8294, 40.28860
940.3115, 40.33702
940.7936, 40.28696
941.2758, 40.05455
941.7579, 39.84790
942.2400, 39.95962
942.7221, 40.32022
943.2042, 40.24676
943.6863, 39.70628
944.1685, 39.21354
944.6506, 39.16927
945.1327, 39.32484
945.6148, 39.53590
946.0969, 39.78367
946.5790, 39.92046
947.0612, 39.89669
947.5433, 39.83390
948.0254, 39.72512
948.5075, 39.63770
948.9896, 39.81860
949.4717, 40.22249
949.9539, 40.62601
950.4360, 40.98648
950.9181, 41.24670
951.4002, 41.37054
951.8823, 41.37285
952.3644, 41.25611
952.8466, 40.86684
953.3287, 40.70378
953.8108, 40.82966
954.2929, 41.09840
954.7750, 41.41526
955.2571, 41.73570
955.7393, 41.84047
956.2214, 41.70184
956.7035, 41.70627
957.1856, 42.23888
957.6677, 42.88990
958.1498, 43.38963
958.6320, 43.71728
959.1141, 44.02714
959.5962, 44.31224
960.0783, 44.61067
960.5604, 44.99884
961.0425, 45.35928
961.5247, 45.26005
962.0068, 44.90300
962.4889, 44.89599
962.9710, 45.78984
963.4531, 46.75818
963.9352, 47.59327
964.4174, 48.27498
964.8995, 48.77572
965.3816, 49.06144
965.8637, 49.30178
966.3458, 49.48357
966.8279, 49.75767
967.3101, 50.52654
967.7922, 51.39855
968.2743, 51.57878
968.7564, 50.92104
969.2385, 50.59597
969.7206, 51.29407
970.2028, 52.18813
970.6849, 53.02005
971.1670, 53.74134
971.6491, 53.82154
972.1312, 53.24386
972.6133, 52.89855
973.0955, 53.44788
973.5776, 54.20048
974.0597, 54.27773
974.5418, 53.95846
975.0239, 53.80948
975.5060, 54.31543
975.9882, 54.54794
976.4703, 54.35974
976.9524, 53.93280
977.4345, 53.48353
977.9166, 53.00250
978.3987, 52.39216
978.8809, 51.63116
979.3630, 50.98320
979.8451, 50.92069
980.3272, 50.89027
980.8093, 50.28833
981.2914, 49.01295
981.7736, 48.26682
982.2557, 48.31893
982.7377, 48.36511
983.2198, 48.04958
983.7020, 47.52007
984.1841, 47.17797
984.6662, 46.97953
985.1483, 46.76241
985.6304, 46.51413
986.1125, 46.15074
986.5947, 45.41230
987.0768, 44.63680
987.5589, 44.33579
988.0410, 44.72016
988.5231, 44.79432
989.0052, 44.46185
989.4874, 44.01331
989.9695, 43.71891
990.4516, 43.51411
990.9337, 43.26733
991.4158, 42.97298
991.8979, 42.76936
992.3801, 42.78725
992.8622, 42.83268
993.3443, 42.85462
993.8264, 42.84168
994.3085, 42.72346
994.7906, 42.50231
995.2728, 42.29559
995.7549, 42.18062
996.2370, 42.03463
996.7191, 41.59266
997.2012, 41.08730
997.6833, 40.86554
998.1655, 41.32309
998.6476, 41.51617
999.1297, 41.34987
999.6118, 41.03576
1000.094, 40.63618
1000.576, 40.23132
1001.058, 40.37797
1001.540, 41.03930
1002.022, 41.53910
1002.505, 41.28877
1002.987, 40.87993
1003.469, 40.63583
1003.951, 40.54637
1004.433, 40.51784
1004.915, 40.56793
1005.397, 40.60703
1005.879, 40.60773
1006.361, 40.60542
1006.844, 40.66604
1007.326, 40.75895
1007.808, 40.82578
1008.290, 40.45004
1008.772, 40.71413
1009.254, 40.89379
1009.736, 40.99353
1010.218, 40.77406
1010.701, 40.96693
1011.183, 40.99447
1011.665, 41.01523
1012.147, 41.26598
1012.629, 41.09293
1013.111, 41.34003
1013.593, 41.41941
1014.075, 41.57556
1014.557, 41.56548
1015.040, 41.60689
1015.522, 41.81443
1016.004, 41.92990
1016.486, 41.90069
1016.968, 42.06171
1017.450, 41.88285
1017.932, 42.00224
1018.414, 42.58039
1018.896, 42.76408
1019.379, 42.54377
1019.861, 42.22680
1020.343, 41.94230
1020.825, 41.70897
1021.307, 41.79676
1021.789, 42.25692
1022.271, 42.51188
1022.753, 42.15178
1023.236, 41.72290
1023.718, 42.12526
1024.200, 42.93394
1024.682, 43.39791
1025.164, 43.01017
1025.646, 42.72970
1026.128, 42.66430
1026.610, 42.67752
1027.093, 42.62831
1027.575, 42.54257
1028.057, 42.59745
1028.539, 42.79399
1029.021, 43.05004
1029.503, 43.36256
1029.985, 43.66533
1030.467, 43.91055
1030.949, 44.10721
1031.432, 44.32877
1031.914, 44.61641
1032.396, 44.71369
1032.878, 44.49923
1033.360, 44.26321
1033.842, 44.46186
1034.324, 44.88894
1034.806, 45.22060
1035.288, 45.37664
1035.771, 45.53255
1036.253, 45.80347
1036.735, 45.99569
1037.217, 45.96212
1037.699, 45.76594
1038.181, 45.84958
1038.663, 46.17266
1039.145, 46.40561
1039.628, 46.29936
1040.110, 46.14204
1040.592, 46.20354
1041.074, 46.30945
1041.556, 46.13802
1042.038, 45.51588
1042.520, 45.13871
1043.002, 45.05847
1043.484, 45.16032
1043.967, 45.50893
1044.449, 45.88228
1044.931, 45.86333
1045.413, 45.46599
1045.895, 45.12374
1046.377, 44.99645
1046.859, 44.93642
1047.341, 44.91084
1047.823, 44.91585
1048.306, 44.93618
1048.788, 44.97599
1049.270, 45.09457
1049.752, 45.34912
1050.234, 45.50334
1050.716, 45.25068
1051.198, 44.89809
1051.680, 44.73557
1052.163, 44.78962
1052.645, 44.89069
1053.127, 45.06373
1053.609, 45.16490
1054.091, 45.10029
1054.573, 44.93150
1055.055, 44.82316
1055.537, 44.68517
1056.020, 44.30775
1056.502, 43.14553
1056.984, 42.43718
1057.466, 42.44672
1057.948, 42.74343
1058.430, 42.97333
1058.912, 43.11279
1059.394, 42.94934
1059.876, 42.48745
1060.359, 42.04179
1060.841, 41.80280
1061.323, 41.65519
1061.805, 41.53902
1062.287, 41.46013
1062.769, 41.46006
1063.251, 41.55101
1063.733, 41.62269
1064.215, 41.62989
1064.698, 41.69221
1065.180, 42.11205
1065.662, 42.58885
1066.144, 42.66258
1066.626, 42.14948
1067.108, 41.95252
1067.590, 42.32671
1068.072, 42.66209
1068.555, 42.63890
1069.037, 42.40234
1069.519, 42.37835
1070.001, 42.51083
1070.483, 42.60505
1070.965, 42.53781
1071.447, 42.49149
1071.929, 42.63294
1072.411, 42.75514
1072.894, 42.62772
1073.376, 42.22070
1073.858, 41.97607
1074.340, 41.90321
1074.822, 41.98884
1075.304, 42.42066
1075.786, 42.83750
1076.268, 42.79150
1076.750, 42.46470
1077.233, 42.52178
1077.715, 43.23784
1078.197, 43.67650
1078.679, 43.69049
1079.161, 43.47616
1079.643, 43.07787
1080.125, 42.69952
1080.607, 42.76489
1081.090, 43.33237
1081.572, 43.82550
1082.054, 44.16158
1082.536, 44.25425
1083.018, 43.98138
1083.500, 43.51109
1083.982, 43.29546
1084.464, 43.30741
1084.946, 43.42089
1085.429, 43.62531
1085.911, 43.83772
1086.393, 44.01977
1086.875, 44.18147
1087.357, 44.30858
1087.839, 44.39187
1088.321, 44.68262
1088.803, 45.19867
1089.286, 45.60704
1089.768, 45.63050
1090.250, 45.56254
1090.732, 45.66011
1091.214, 45.89695
1091.696, 46.24194
1092.178, 46.90281
1092.660, 47.20626
1093.142, 47.06435
1093.625, 46.78093
1094.107, 46.51717
1094.589, 46.35666
1095.071, 46.58330
1095.553, 47.12251
1096.035, 47.49361
1096.517, 47.34563
1096.999, 47.21644
1097.481, 47.30445
1097.964, 47.39548
1098.446, 47.10352
1098.928, 46.48832
1099.410, 45.80287
1099.892, 45.08391
1100.374, 44.50407
1100.856, 44.41063
1101.338, 44.26710
1101.821, 43.60234
1102.303, 42.58926
1102.785, 42.12820
1103.267, 42.23902
1103.749, 42.36584
1104.231, 42.36818
1104.713, 42.24201
1105.195, 41.91475
1105.677, 41.49585
1106.160, 41.07706
1106.642, 40.63428
1107.124, 40.42879
1107.606, 40.54295
1108.088, 40.56517
1108.570, 40.18095
1109.052, 39.67360
1109.534, 39.50943
1110.016, 39.59394
1110.499, 39.72836
1110.981, 39.98854
1111.463, 40.05220
1111.945, 39.81819
1112.427, 39.53921
1112.909, 39.44864
1113.391, 39.48347
1113.873, 39.42937
1114.356, 39.28333
1114.838, 39.06317
1115.320, 38.55885
1115.802, 38.25719
1116.284, 38.47578
1116.766, 38.84719
1117.248, 38.81655
1117.730, 38.41964
1118.213, 38.24466
1118.695, 38.34975
1119.177, 38.47414
1119.659, 38.46404
1120.141, 38.37554
1120.623, 38.12856
1121.105, 37.83531
1121.587, 37.97620
1122.069, 38.62970
1122.552, 38.89891
1123.034, 38.54778
1123.516, 38.00262
1123.998, 37.47300
1124.480, 37.13680
1124.962, 37.31410
1125.444, 38.10039
1125.926, 38.40083
1126.408, 38.09375
1126.891, 37.68882
1127.373, 37.31373
1127.855, 37.03419
1128.337, 37.05526
1128.819, 37.21109
1129.301, 37.21105
1129.783, 36.91835
1130.265, 36.69118
1130.748, 36.57998
1131.230, 36.49770
1131.712, 36.38651
1132.194, 36.27375
1132.676, 36.29450
1133.158, 36.38243
1133.640, 36.33520
1134.122, 35.81248
1134.604, 35.56504
1135.087, 35.94684
1135.569, 36.43830
1136.051, 36.60642
1136.533, 36.49456
1137.015, 36.45792
1137.497, 36.48692
1137.979, 36.48463
1138.461, 36.44783
1138.943, 36.31048
1139.426, 35.96721
1139.908, 35.54872
1140.390, 35.17943
1140.872, 34.86412
1141.354, 34.76972
1141.836, 34.90916
1142.318, 35.11840
1142.800, 35.31441
1143.283, 35.49892
1143.765, 35.70848
1144.247, 35.89944
1144.729, 35.94627
1145.211, 35.83622
1145.693, 35.68345
1146.175, 35.50599
1146.657, 35.28869
1147.140, 35.00623
1147.622, 34.68559
1148.104, 34.27671
1148.586, 33.81602
1149.068, 33.70874
1149.550, 34.04602
1150.032, 34.41210
1150.514, 34.73433
1150.996, 34.94159
1151.479, 34.93856
1151.961, 34.75716
1152.443, 34.38802
1152.925, 33.79328
1153.407, 33.33421
1153.889, 33.03512
1154.371, 32.86312
1154.853, 32.83279
1155.335, 32.88126
1155.818, 32.89913
1156.300, 32.91012
1156.782, 32.98838
1157.264, 33.24853
1157.746, 33.21156
1158.228, 32.61464
1158.710, 32.15589
1159.192, 32.29968
1159.675, 32.77748
1160.157, 32.89005
1160.639, 32.74887
1161.121, 32.66319
1161.603, 32.86964
1162.085, 32.87361
1162.567, 32.38643
1163.049, 31.94287
1163.531, 32.06749
1164.014, 32.55100
1164.496, 32.22099
1164.978, 31.28473
1165.460, 30.63048
1165.942, 30.89935
1166.424, 31.23697
1166.906, 31.46850
1167.388, 31.59036
1167.870, 31.56217
1168.353, 31.40400
1168.835, 31.28436
1169.317, 31.20877
1169.799, 31.17718
1170.281, 31.23162
1170.763, 31.28025
1171.245, 31.28315
1171.727, 31.25647
1172.210, 31.23568
1172.692, 31.21571
1173.174, 31.02337
1173.656, 30.66001
1174.138, 30.42232
1174.620, 30.72425
1175.102, 30.98769
1175.584, 30.76861
1176.067, 30.32661
1176.549, 30.12247
1177.031, 30.15881
1177.513, 30.29168
1177.995, 30.51061
1178.477, 30.66771
1178.959, 30.61078
1179.441, 30.48260
1179.923, 30.34675
1180.406, 30.22364
1180.888, 30.18072
1181.370, 30.22483
1181.852, 30.16842
1182.334, 29.94975
1182.816, 29.82898
1183.298, 30.18068
1183.780, 30.60669
1184.262, 30.77821
1184.745, 30.71185
1185.227, 30.57602
1185.709, 30.36661
1186.191, 30.12665
1186.673, 29.85046
1187.155, 29.61951
1187.637, 29.47898
1188.119, 29.44415
1188.602, 29.58042
1189.084, 29.87268
1189.566, 30.07181
1190.048, 30.18071
1190.530, 30.15444
1191.012, 29.93375
1191.494, 29.70058
1191.976, 29.71295
1192.458, 29.78318
1192.941, 29.65194
1193.423, 29.27590
1193.905, 29.20846
1194.387, 29.49463
1194.869, 29.75756
1195.351, 29.84838
1195.833, 29.84248
1196.315, 29.73283
1196.797, 29.62575
1197.280, 29.67599
1197.762, 29.92700
1198.244, 30.13454
1198.726, 30.31939
1199.208, 30.29811
1199.690, 29.83510
1200.172, 29.35768
1200.654, 29.43834
1201.137, 29.77596
1201.619, 29.96505
1202.101, 29.96481
1202.583, 29.73286
1203.065, 29.21563
1203.547, 28.84910
1204.029, 28.99191
1204.511, 29.27216
1204.994, 29.21984
1205.476, 29.02794
1205.958, 29.03135
1206.440, 29.35505
1206.922, 29.55920
1207.404, 29.64079
1207.886, 29.64098
1208.368, 29.55340
1208.850, 29.42869
1209.333, 29.26868
1209.815, 29.12985
1210.297, 29.14264
1210.779, 29.40956
1211.261, 29.50266
1211.743, 29.39515
1212.225, 29.30033
1212.707, 29.41200
1213.189, 29.57453
1213.672, 29.65397
1214.154, 29.65109
1214.636, 29.54753
1215.118, 29.24685
1215.600, 29.21529
1216.082, 29.49466
1216.564, 29.79354
1217.046, 29.91905
1217.529, 29.92482
1218.011, 29.85910
1218.493, 29.71497
1218.975, 29.43845
1219.457, 28.91223
1219.939, 28.79360
1220.421, 29.15997
1220.903, 29.51353
1221.385, 29.35138
1221.868, 29.08585
1222.350, 29.10292
1222.832, 29.30352
1223.314, 29.41640
1223.796, 29.41253
1224.278, 29.42301
1224.760, 29.45853
1225.242, 29.47974
1225.724, 29.41825
1226.207, 29.36430
1226.689, 29.42401
1227.171, 29.54475
1227.653, 29.57956
1228.135, 29.50721
1228.617, 29.49491
1229.099, 29.55657
1229.581, 29.65562
1230.064, 29.89262
1230.546, 30.03152
1231.028, 29.75259
1231.510, 29.27591
1231.992, 29.11567
1232.474, 29.29238
1232.956, 29.56157
1233.438, 29.90422
1233.921, 30.23545
1234.403, 30.57635
1234.885, 30.79859
1235.367, 30.78405
1235.849, 30.59139
1236.331, 30.26406
1236.813, 29.80039
1237.295, 29.62185
1237.777, 29.76635
1238.260, 29.89731
1238.742, 29.73552
1239.224, 29.53220
1239.706, 29.42391
1240.188, 29.37623
1240.670, 29.30975
1241.152, 29.23660
1241.634, 29.36634
1242.116, 29.71371
1242.599, 29.90491
1243.081, 29.46552
1243.563, 29.09424
1244.045, 29.10464
1244.527, 29.34964
1245.009, 29.68640
1245.491, 30.06091
1245.973, 30.11935
1246.456, 29.84046
1246.938, 29.64041
1247.420, 29.83875
1247.902, 30.03070
1248.384, 30.12655
1248.866, 30.10293
1249.348, 29.81723
1249.830, 29.38712
1250.313, 29.28442
1250.795, 29.52335
1251.277, 29.68823
1251.759, 29.43525
1252.241, 29.32418
1252.723, 29.51846
1253.205, 29.83386
1253.687, 30.06643
1254.169, 30.19123
1254.651, 30.09167
1255.134, 29.79000
1255.616, 29.59251
1256.098, 29.67380
1256.580, 29.72820
1257.062, 29.69186
1257.544, 29.64466
1258.026, 29.72316
1258.508, 29.84164
1258.991, 29.87149
1259.473, 29.80627
1259.955, 29.66945
1260.437, 29.37625
1260.919, 29.26133
1261.401, 29.39791
1261.883, 29.64188
1262.365, 29.99371
1262.848, 30.25145
1263.330, 30.04504
1263.812, 29.47614
1264.294, 29.25582
1264.776, 29.53201
1265.258, 29.59180
1265.740, 29.29789
1266.222, 29.05781
1266.704, 29.42273
1267.187, 29.73799
1267.669, 29.91344
1268.151, 29.95660
1268.633, 29.47120
1269.115, 29.66832
1269.597, 29.59192
1270.079, 29.50431
1270.561, 29.79749
1271.043, 29.38897
1271.526, 29.67611
1272.008, 29.68555
1272.490, 29.82210
1272.972, 29.68343
1273.454, 29.62977
1273.936, 29.85140
1274.418, 29.66756
1274.900, 29.78993
1275.383, 29.75180
1275.865, 29.68287
1276.347, 29.61863
1276.829, 29.57313
1277.311, 29.57121
1277.793, 29.60528
1278.275, 29.64999
1278.757, 29.70162
1279.239, 29.74625
1279.722, 29.82435
1280.204, 29.80771
1280.686, 29.60720
1281.168, 29.43044
1281.650, 29.62756
1282.132, 29.99254
1282.614, 30.07349
1283.096, 29.88931
1283.578, 29.70045
1284.061, 29.53189
1284.543, 29.43563
1285.025, 29.41679
1285.507, 29.47026
1285.989, 29.66079
1286.471, 29.87145
1286.953, 29.93585
1287.435, 29.88898
1287.917, 29.86563
1288.400, 29.87688
1288.882, 29.90755
1289.364, 29.95534
1289.846, 30.03813
1290.328, 30.29466
1290.810, 30.47024
1291.292, 30.18745
##END=



