##NAMES=Magnesio-fluoro-hastingsite
##RRUFFID=R141099
##IDEAL CHEMISTRY=NaCa_2_(Mg_4_Fe^3+^)(Si_6_Al_2_)O_22_F_2_
##LOCALITY=Mt. Vesuvius, Naples, Campania, Italy
##OWNER=RRUFF
##SOURCE=Ch. and H. Sch√§fer
##DESCRIPTION=Prismatic brown crystals
##STATUS=The identification of this mineral has been confirmed only by single crystal X-ray diffraction.
##URL=rruff.info/R141099
8.930109e+001, 0.000000e+000
8.978320e+001, 1.234483e+002
9.026532e+001, 1.233946e+002
9.074744e+001, 1.234127e+002
9.122955e+001, 1.233146e+002
9.171167e+001, 1.237473e+002
9.219379e+001, 1.259983e+002
9.267590e+001, 1.298088e+002
9.315802e+001, 1.329265e+002
9.364014e+001, 1.336292e+002
9.412225e+001, 1.323736e+002
9.460437e+001, 1.301353e+002
9.508649e+001, 1.264771e+002
9.556860e+001, 1.223741e+002
9.605072e+001, 1.206603e+002
9.653284e+001, 1.216436e+002
9.701495e+001, 1.227854e+002
9.749707e+001, 1.211401e+002
9.797919e+001, 1.167987e+002
9.846130e+001, 1.129598e+002
9.894342e+001, 1.105426e+002
9.942554e+001, 1.094428e+002
9.990765e+001, 1.088596e+002
1.003898e+002, 1.088588e+002
1.008719e+002, 1.091760e+002
1.013540e+002, 1.095776e+002
1.018361e+002, 1.102411e+002
1.023182e+002, 1.104071e+002
1.028004e+002, 1.096301e+002
1.032825e+002, 1.075687e+002
1.037646e+002, 1.061277e+002
1.042467e+002, 1.053481e+002
1.047288e+002, 1.051338e+002
1.052109e+002, 1.052818e+002
1.056931e+002, 1.057638e+002
1.061752e+002, 1.066118e+002
1.066573e+002, 1.078045e+002
1.071394e+002, 1.089202e+002
1.076215e+002, 1.110497e+002
1.081036e+002, 1.150646e+002
1.085858e+002, 1.204098e+002
1.090679e+002, 1.240124e+002
1.095500e+002, 1.256169e+002
1.100321e+002, 1.258116e+002
1.105142e+002, 1.249185e+002
1.109963e+002, 1.215114e+002
1.114785e+002, 1.186573e+002
1.119606e+002, 1.166644e+002
1.124427e+002, 1.155119e+002
1.129248e+002, 1.149638e+002
1.134069e+002, 1.152090e+002
1.138890e+002, 1.159073e+002
1.143712e+002, 1.167909e+002
1.148533e+002, 1.177189e+002
1.153354e+002, 1.188903e+002
1.158175e+002, 1.204555e+002
1.162996e+002, 1.224741e+002
1.167817e+002, 1.244397e+002
1.172639e+002, 1.263930e+002
1.177460e+002, 1.281616e+002
1.182281e+002, 1.295241e+002
1.187102e+002, 1.303743e+002
1.191923e+002, 1.308236e+002
1.196744e+002, 1.309054e+002
1.201566e+002, 1.306077e+002
1.206387e+002, 1.300194e+002
1.211208e+002, 1.289289e+002
1.216029e+002, 1.275776e+002
1.220850e+002, 1.264660e+002
1.225671e+002, 1.257160e+002
1.230493e+002, 1.253821e+002
1.235314e+002, 1.255631e+002
1.240135e+002, 1.263492e+002
1.244956e+002, 1.274579e+002
1.249777e+002, 1.292721e+002
1.254598e+002, 1.314144e+002
1.259420e+002, 1.324154e+002
1.264241e+002, 1.305199e+002
1.269062e+002, 1.269173e+002
1.273883e+002, 1.237152e+002
1.278704e+002, 1.212400e+002
1.283525e+002, 1.194967e+002
1.288347e+002, 1.186259e+002
1.293168e+002, 1.186050e+002
1.297989e+002, 1.190349e+002
1.302810e+002, 1.199428e+002
1.307631e+002, 1.211345e+002
1.312452e+002, 1.218090e+002
1.317274e+002, 1.215755e+002
1.322095e+002, 1.207853e+002
1.326916e+002, 1.204725e+002
1.331737e+002, 1.207103e+002
1.336558e+002, 1.209047e+002
1.341379e+002, 1.203144e+002
1.346201e+002, 1.189550e+002
1.351022e+002, 1.177977e+002
1.355843e+002, 1.171438e+002
1.360664e+002, 1.169472e+002
1.365485e+002, 1.169443e+002
1.370306e+002, 1.171950e+002
1.375128e+002, 1.174978e+002
1.379949e+002, 1.174962e+002
1.384770e+002, 1.170570e+002
1.389591e+002, 1.169746e+002
1.394412e+002, 1.175236e+002
1.399233e+002, 1.187217e+002
1.404055e+002, 1.203744e+002
1.408876e+002, 1.229213e+002
1.413697e+002, 1.254687e+002
1.418518e+002, 1.264566e+002
1.423339e+002, 1.253758e+002
1.428160e+002, 1.238785e+002
1.432982e+002, 1.224646e+002
1.437803e+002, 1.210716e+002
1.442624e+002, 1.200159e+002
1.447445e+002, 1.194029e+002
1.452266e+002, 1.190975e+002
1.457087e+002, 1.187986e+002
1.461909e+002, 1.183602e+002
1.466730e+002, 1.181085e+002
1.471551e+002, 1.181780e+002
1.476372e+002, 1.186932e+002
1.481193e+002, 1.193383e+002
1.486014e+002, 1.204240e+002
1.490836e+002, 1.216853e+002
1.495657e+002, 1.222214e+002
1.500478e+002, 1.212550e+002
1.505299e+002, 1.201799e+002
1.510120e+002, 1.195971e+002
1.514941e+002, 1.198430e+002
1.519763e+002, 1.201843e+002
1.524584e+002, 1.206694e+002
1.529405e+002, 1.212619e+002
1.534226e+002, 1.217922e+002
1.539047e+002, 1.222431e+002
1.543868e+002, 1.226299e+002
1.548690e+002, 1.229606e+002
1.553511e+002, 1.227916e+002
1.558332e+002, 1.230385e+002
1.563153e+002, 1.242670e+002
1.567974e+002, 1.262916e+002
1.572795e+002, 1.276123e+002
1.577617e+002, 1.274200e+002
1.582438e+002, 1.266673e+002
1.587259e+002, 1.260425e+002
1.592080e+002, 1.256615e+002
1.596901e+002, 1.254687e+002
1.601722e+002, 1.255615e+002
1.606544e+002, 1.259197e+002
1.611365e+002, 1.261545e+002
1.616186e+002, 1.260591e+002
1.621007e+002, 1.258062e+002
1.625828e+002, 1.255523e+002
1.630649e+002, 1.252339e+002
1.635471e+002, 1.250188e+002
1.640292e+002, 1.251837e+002
1.645113e+002, 1.257357e+002
1.649934e+002, 1.258676e+002
1.654755e+002, 1.247824e+002
1.659576e+002, 1.231409e+002
1.664398e+002, 1.217764e+002
1.669219e+002, 1.211452e+002
1.674040e+002, 1.207807e+002
1.678861e+002, 1.203793e+002
1.683682e+002, 1.199159e+002
1.688503e+002, 1.195590e+002
1.693325e+002, 1.194986e+002
1.698146e+002, 1.196083e+002
1.702967e+002, 1.196837e+002
1.707788e+002, 1.193818e+002
1.712609e+002, 1.191498e+002
1.717430e+002, 1.195528e+002
1.722252e+002, 1.207060e+002
1.727073e+002, 1.217754e+002
1.731894e+002, 1.220386e+002
1.736715e+002, 1.217111e+002
1.741536e+002, 1.212770e+002
1.746357e+002, 1.207247e+002
1.751179e+002, 1.202906e+002
1.756000e+002, 1.203558e+002
1.760821e+002, 1.210214e+002
1.765642e+002, 1.217873e+002
1.770463e+002, 1.220586e+002
1.775284e+002, 1.220031e+002
1.780106e+002, 1.221311e+002
1.784927e+002, 1.229673e+002
1.789748e+002, 1.241099e+002
1.794569e+002, 1.248201e+002
1.799390e+002, 1.249727e+002
1.804211e+002, 1.249359e+002
1.809033e+002, 1.250889e+002
1.813854e+002, 1.254183e+002
1.818675e+002, 1.258498e+002
1.823496e+002, 1.264434e+002
1.828317e+002, 1.271035e+002
1.833138e+002, 1.276495e+002
1.837960e+002, 1.280706e+002
1.842781e+002, 1.283351e+002
1.847602e+002, 1.283020e+002
1.852423e+002, 1.280047e+002
1.857244e+002, 1.277308e+002
1.862065e+002, 1.276398e+002
1.866887e+002, 1.277102e+002
1.871708e+002, 1.279417e+002
1.876529e+002, 1.284461e+002
1.881350e+002, 1.288717e+002
1.886171e+002, 1.284810e+002
1.890992e+002, 1.272892e+002
1.895814e+002, 1.260172e+002
1.900635e+002, 1.252102e+002
1.905456e+002, 1.247684e+002
1.910277e+002, 1.240539e+002
1.915098e+002, 1.229221e+002
1.919919e+002, 1.215946e+002
1.924741e+002, 1.205606e+002
1.929562e+002, 1.198347e+002
1.934383e+002, 1.191678e+002
1.939204e+002, 1.183753e+002
1.944025e+002, 1.174696e+002
1.948846e+002, 1.166518e+002
1.953668e+002, 1.159099e+002
1.958489e+002, 1.153070e+002
1.963310e+002, 1.151046e+002
1.968131e+002, 1.153629e+002
1.972952e+002, 1.155623e+002
1.977773e+002, 1.152710e+002
1.982595e+002, 1.144723e+002
1.987416e+002, 1.138112e+002
1.992237e+002, 1.133771e+002
1.997058e+002, 1.131229e+002
2.001879e+002, 1.129598e+002
2.006700e+002, 1.129084e+002
2.011522e+002, 1.128522e+002
2.016343e+002, 1.126824e+002
2.021164e+002, 1.123798e+002
2.025985e+002, 1.121783e+002
2.030806e+002, 1.121422e+002
2.035627e+002, 1.122074e+002
2.040449e+002, 1.121503e+002
2.045270e+002, 1.119323e+002
2.050091e+002, 1.117165e+002
2.054912e+002, 1.116064e+002
2.059733e+002, 1.116057e+002
2.064554e+002, 1.116927e+002
2.069376e+002, 1.118886e+002
2.074197e+002, 1.121633e+002
2.079018e+002, 1.124111e+002
2.083839e+002, 1.126278e+002
2.088660e+002, 1.128310e+002
2.093481e+002, 1.130369e+002
2.098303e+002, 1.132572e+002
2.103124e+002, 1.134203e+002
2.107945e+002, 1.134496e+002
2.112766e+002, 1.134286e+002
2.117587e+002, 1.137499e+002
2.122408e+002, 1.145589e+002
2.127230e+002, 1.154089e+002
2.132051e+002, 1.159707e+002
2.136872e+002, 1.161138e+002
2.141693e+002, 1.164371e+002
2.146514e+002, 1.170915e+002
2.151335e+002, 1.179709e+002
2.156157e+002, 1.185225e+002
2.160978e+002, 1.186019e+002
2.165799e+002, 1.186211e+002
2.170620e+002, 1.188578e+002
2.175441e+002, 1.193876e+002
2.180262e+002, 1.199028e+002
2.185084e+002, 1.203181e+002
2.189905e+002, 1.206994e+002
2.194726e+002, 1.213950e+002
2.199547e+002, 1.226217e+002
2.204368e+002, 1.238151e+002
2.209189e+002, 1.245786e+002
2.214011e+002, 1.247562e+002
2.218832e+002, 1.249198e+002
2.223653e+002, 1.250322e+002
2.228474e+002, 1.251644e+002
2.233295e+002, 1.256953e+002
2.238116e+002, 1.268324e+002
2.242938e+002, 1.280225e+002
2.247759e+002, 1.289299e+002
2.252580e+002, 1.294546e+002
2.257401e+002, 1.299171e+002
2.262222e+002, 1.303402e+002
2.267043e+002, 1.307169e+002
2.271865e+002, 1.310278e+002
2.276686e+002, 1.312141e+002
2.281507e+002, 1.314105e+002
2.286328e+002, 1.317028e+002
2.291149e+002, 1.321565e+002
2.295970e+002, 1.325513e+002
2.300792e+002, 1.328722e+002
2.305613e+002, 1.331254e+002
2.310434e+002, 1.333023e+002
2.315255e+002, 1.333097e+002
2.320076e+002, 1.333785e+002
2.324897e+002, 1.336707e+002
2.329719e+002, 1.343914e+002
2.334540e+002, 1.348647e+002
2.339361e+002, 1.349617e+002
2.344182e+002, 1.348039e+002
2.349003e+002, 1.348184e+002
2.353824e+002, 1.350671e+002
2.358646e+002, 1.353997e+002
2.363467e+002, 1.357538e+002
2.368288e+002, 1.361619e+002
2.373109e+002, 1.365292e+002
2.377930e+002, 1.369315e+002
2.382751e+002, 1.372769e+002
2.387573e+002, 1.372346e+002
2.392394e+002, 1.365104e+002
2.397215e+002, 1.358160e+002
2.402036e+002, 1.355071e+002
2.406857e+002, 1.358797e+002
2.411678e+002, 1.359543e+002
2.416500e+002, 1.356300e+002
2.421321e+002, 1.350347e+002
2.426142e+002, 1.344795e+002
2.430963e+002, 1.339836e+002
2.435784e+002, 1.335049e+002
2.440605e+002, 1.330693e+002
2.445427e+002, 1.328185e+002
2.450248e+002, 1.322249e+002
2.455069e+002, 1.311370e+002
2.459890e+002, 1.297649e+002
2.464711e+002, 1.285640e+002
2.469532e+002, 1.274890e+002
2.474354e+002, 1.266493e+002
2.479175e+002, 1.261949e+002
2.483996e+002, 1.264044e+002
2.488817e+002, 1.260499e+002
2.493638e+002, 1.248173e+002
2.498459e+002, 1.232020e+002
2.503281e+002, 1.221656e+002
2.508102e+002, 1.220762e+002
2.512923e+002, 1.219226e+002
2.517744e+002, 1.212904e+002
2.522565e+002, 1.199947e+002
2.527386e+002, 1.190436e+002
2.532208e+002, 1.185580e+002
2.537029e+002, 1.183289e+002
2.541850e+002, 1.180338e+002
2.546671e+002, 1.176667e+002
2.551492e+002, 1.172364e+002
2.556313e+002, 1.167171e+002
2.561135e+002, 1.160792e+002
2.565956e+002, 1.155573e+002
2.570777e+002, 1.151891e+002
2.575598e+002, 1.149024e+002
2.580419e+002, 1.145961e+002
2.585240e+002, 1.142375e+002
2.590062e+002, 1.139399e+002
2.594883e+002, 1.137655e+002
2.599704e+002, 1.137329e+002
2.604525e+002, 1.135710e+002
2.609346e+002, 1.132380e+002
2.614167e+002, 1.128315e+002
2.618989e+002, 1.124498e+002
2.623810e+002, 1.120812e+002
2.628631e+002, 1.117846e+002
2.633452e+002, 1.115892e+002
2.638273e+002, 1.114940e+002
2.643094e+002, 1.114373e+002
2.647916e+002, 1.114775e+002
2.652737e+002, 1.114679e+002
2.657558e+002, 1.111945e+002
2.662379e+002, 1.105029e+002
2.667200e+002, 1.100832e+002
2.672021e+002, 1.101623e+002
2.676843e+002, 1.106721e+002
2.681664e+002, 1.109273e+002
2.686485e+002, 1.108663e+002
2.691306e+002, 1.106764e+002
2.696127e+002, 1.104633e+002
2.700948e+002, 1.101772e+002
2.705770e+002, 1.101105e+002
2.710591e+002, 1.104147e+002
2.715412e+002, 1.109666e+002
2.720233e+002, 1.111403e+002
2.725054e+002, 1.108263e+002
2.729875e+002, 1.104188e+002
2.734697e+002, 1.101904e+002
2.739518e+002, 1.101563e+002
2.744339e+002, 1.101874e+002
2.749160e+002, 1.102716e+002
2.753981e+002, 1.104094e+002
2.758802e+002, 1.106479e+002
2.763624e+002, 1.110281e+002
2.768445e+002, 1.113362e+002
2.773266e+002, 1.113577e+002
2.778087e+002, 1.110595e+002
2.782908e+002, 1.110183e+002
2.787729e+002, 1.113681e+002
2.792551e+002, 1.118984e+002
2.797372e+002, 1.120733e+002
2.802193e+002, 1.118359e+002
2.807014e+002, 1.116222e+002
2.811835e+002, 1.117445e+002
2.816656e+002, 1.121951e+002
2.821478e+002, 1.124067e+002
2.826299e+002, 1.123285e+002
2.831120e+002, 1.120610e+002
2.835941e+002, 1.116816e+002
2.840762e+002, 1.111757e+002
2.845583e+002, 1.108428e+002
2.850405e+002, 1.109430e+002
2.855226e+002, 1.114095e+002
2.860047e+002, 1.115730e+002
2.864868e+002, 1.113651e+002
2.869689e+002, 1.110697e+002
2.874510e+002, 1.111228e+002
2.879332e+002, 1.115042e+002
2.884153e+002, 1.118143e+002
2.888974e+002, 1.119039e+002
2.893795e+002, 1.117956e+002
2.898616e+002, 1.114766e+002
2.903438e+002, 1.109066e+002
2.908259e+002, 1.104053e+002
2.913080e+002, 1.103766e+002
2.917901e+002, 1.107589e+002
2.922722e+002, 1.111903e+002
2.927543e+002, 1.115973e+002
2.932365e+002, 1.119532e+002
2.937186e+002, 1.122038e+002
2.942007e+002, 1.123474e+002
2.946828e+002, 1.123636e+002
2.951649e+002, 1.121041e+002
2.956470e+002, 1.116787e+002
2.961292e+002, 1.114602e+002
2.966113e+002, 1.116319e+002
2.970934e+002, 1.119657e+002
2.975755e+002, 1.120857e+002
2.980576e+002, 1.120104e+002
2.985397e+002, 1.119312e+002
2.990219e+002, 1.120124e+002
2.995040e+002, 1.121916e+002
2.999861e+002, 1.123396e+002
3.004682e+002, 1.124405e+002
3.009503e+002, 1.124866e+002
3.014324e+002, 1.124098e+002
3.019146e+002, 1.122490e+002
3.023967e+002, 1.121615e+002
3.028788e+002, 1.123854e+002
3.033609e+002, 1.127013e+002
3.038430e+002, 1.127578e+002
3.043251e+002, 1.124607e+002
3.048073e+002, 1.120807e+002
3.052894e+002, 1.117641e+002
3.057715e+002, 1.115484e+002
3.062536e+002, 1.115174e+002
3.067357e+002, 1.118702e+002
3.072178e+002, 1.123482e+002
3.077000e+002, 1.127151e+002
3.081821e+002, 1.129555e+002
3.086642e+002, 1.130401e+002
3.091463e+002, 1.128163e+002
3.096284e+002, 1.124420e+002
3.101105e+002, 1.121611e+002
3.105927e+002, 1.121655e+002
3.110748e+002, 1.122389e+002
3.115569e+002, 1.122525e+002
3.120390e+002, 1.122011e+002
3.125211e+002, 1.120803e+002
3.130032e+002, 1.118549e+002
3.134854e+002, 1.115724e+002
3.139675e+002, 1.112862e+002
3.144496e+002, 1.109089e+002
3.149317e+002, 1.106302e+002
3.154138e+002, 1.105956e+002
3.158959e+002, 1.107696e+002
3.163781e+002, 1.109252e+002
3.168602e+002, 1.110171e+002
3.173423e+002, 1.110234e+002
3.178244e+002, 1.109111e+002
3.183065e+002, 1.105074e+002
3.187886e+002, 1.102221e+002
3.192708e+002, 1.103245e+002
3.197529e+002, 1.106681e+002
3.202350e+002, 1.108406e+002
3.207171e+002, 1.106324e+002
3.211992e+002, 1.102855e+002
3.216813e+002, 1.098622e+002
3.221635e+002, 1.091948e+002
3.226456e+002, 1.088514e+002
3.231277e+002, 1.093116e+002
3.236098e+002, 1.101045e+002
3.240919e+002, 1.104451e+002
3.245740e+002, 1.096535e+002
3.250562e+002, 1.088957e+002
3.255383e+002, 1.085620e+002
3.260204e+002, 1.087872e+002
3.265025e+002, 1.089590e+002
3.269846e+002, 1.090461e+002
3.274667e+002, 1.090596e+002
3.279489e+002, 1.090119e+002
3.284310e+002, 1.087992e+002
3.289131e+002, 1.086471e+002
3.293952e+002, 1.086354e+002
3.298773e+002, 1.087711e+002
3.303594e+002, 1.087766e+002
3.308416e+002, 1.085458e+002
3.313237e+002, 1.082755e+002
3.318058e+002, 1.081087e+002
3.322879e+002, 1.081203e+002
3.327700e+002, 1.081056e+002
3.332521e+002, 1.080387e+002
3.337343e+002, 1.079294e+002
3.342164e+002, 1.078154e+002
3.346985e+002, 1.076506e+002
3.351806e+002, 1.075518e+002
3.356627e+002, 1.075938e+002
3.361448e+002, 1.078234e+002
3.366270e+002, 1.080478e+002
3.371091e+002, 1.082598e+002
3.375912e+002, 1.084630e+002
3.380733e+002, 1.086611e+002
3.385554e+002, 1.088396e+002
3.390375e+002, 1.090550e+002
3.395197e+002, 1.093430e+002
3.400018e+002, 1.097063e+002
3.404839e+002, 1.101078e+002
3.409660e+002, 1.106236e+002
3.414481e+002, 1.109958e+002
3.419302e+002, 1.107662e+002
3.424124e+002, 1.098799e+002
3.428945e+002, 1.091029e+002
3.433766e+002, 1.086431e+002
3.438587e+002, 1.084723e+002
3.443408e+002, 1.084893e+002
3.448229e+002, 1.087137e+002
3.453051e+002, 1.089924e+002
3.457872e+002, 1.092220e+002
3.462693e+002, 1.093966e+002
3.467514e+002, 1.094592e+002
3.472335e+002, 1.093423e+002
3.477156e+002, 1.091798e+002
3.481978e+002, 1.092927e+002
3.486799e+002, 1.096579e+002
3.491620e+002, 1.099743e+002
3.496441e+002, 1.099741e+002
3.501262e+002, 1.097808e+002
3.506083e+002, 1.096837e+002
3.510905e+002, 1.097235e+002
3.515726e+002, 1.098405e+002
3.520547e+002, 1.099795e+002
3.525368e+002, 1.101404e+002
3.530189e+002, 1.103237e+002
3.535010e+002, 1.105745e+002
3.539832e+002, 1.108258e+002
3.544653e+002, 1.109885e+002
3.549474e+002, 1.110578e+002
3.554295e+002, 1.110926e+002
3.559116e+002, 1.109863e+002
3.563937e+002, 1.109062e+002
3.568759e+002, 1.111055e+002
3.573580e+002, 1.120283e+002
3.578401e+002, 1.129687e+002
3.583222e+002, 1.133995e+002
3.588043e+002, 1.133901e+002
3.592864e+002, 1.133292e+002
3.597686e+002, 1.133437e+002
3.602507e+002, 1.134389e+002
3.607328e+002, 1.136372e+002
3.612149e+002, 1.140562e+002
3.616970e+002, 1.143890e+002
3.621791e+002, 1.145397e+002
3.626613e+002, 1.145138e+002
3.631434e+002, 1.143246e+002
3.636255e+002, 1.137305e+002
3.641076e+002, 1.131682e+002
3.645897e+002, 1.128831e+002
3.650718e+002, 1.130209e+002
3.655540e+002, 1.130380e+002
3.660361e+002, 1.127228e+002
3.665182e+002, 1.122762e+002
3.670003e+002, 1.119396e+002
3.674824e+002, 1.119272e+002
3.679645e+002, 1.118368e+002
3.684467e+002, 1.115310e+002
3.689288e+002, 1.110013e+002
3.694109e+002, 1.105875e+002
3.698930e+002, 1.102858e+002
3.703751e+002, 1.101061e+002
3.708572e+002, 1.100764e+002
3.713394e+002, 1.104047e+002
3.718215e+002, 1.105333e+002
3.723036e+002, 1.103790e+002
3.727857e+002, 1.099971e+002
3.732678e+002, 1.095801e+002
3.737499e+002, 1.091232e+002
3.742321e+002, 1.086297e+002
3.747142e+002, 1.080664e+002
3.751963e+002, 1.073601e+002
3.756784e+002, 1.068875e+002
3.761605e+002, 1.066974e+002
3.766426e+002, 1.066819e+002
3.771248e+002, 1.067216e+002
3.776069e+002, 1.068406e+002
3.780890e+002, 1.068672e+002
3.785711e+002, 1.067194e+002
3.790532e+002, 1.064220e+002
3.795353e+002, 1.062143e+002
3.800175e+002, 1.061354e+002
3.804996e+002, 1.059402e+002
3.809817e+002, 1.052343e+002
3.814638e+002, 1.041076e+002
3.819459e+002, 1.033011e+002
3.824280e+002, 1.030270e+002
3.829102e+002, 1.030794e+002
3.833923e+002, 1.030830e+002
3.838744e+002, 1.030494e+002
3.843565e+002, 1.031030e+002
3.848386e+002, 1.035177e+002
3.853207e+002, 1.040463e+002
3.858029e+002, 1.041248e+002
3.862850e+002, 1.036521e+002
3.867671e+002, 1.029771e+002
3.872492e+002, 1.023434e+002
3.877313e+002, 1.017748e+002
3.882134e+002, 1.013391e+002
3.886956e+002, 1.012657e+002
3.891777e+002, 1.012156e+002
3.896598e+002, 1.007811e+002
3.901419e+002, 9.998838e+001
3.906240e+002, 9.931799e+001
3.911061e+002, 9.925963e+001
3.915883e+002, 9.938909e+001
3.920704e+002, 9.924062e+001
3.925525e+002, 9.842580e+001
3.930346e+002, 9.767562e+001
3.935167e+002, 9.737900e+001
3.939988e+002, 9.740906e+001
3.944810e+002, 9.740241e+001
3.949631e+002, 9.727157e+001
3.954452e+002, 9.704282e+001
3.959273e+002, 9.670204e+001
3.964094e+002, 9.619253e+001
3.968915e+002, 9.574714e+001
3.973737e+002, 9.546008e+001
3.978558e+002, 9.524131e+001
3.983379e+002, 9.497987e+001
3.988200e+002, 9.460925e+001
3.993021e+002, 9.425113e+001
3.997842e+002, 9.391741e+001
4.002664e+002, 9.360737e+001
4.007485e+002, 9.334444e+001
4.012306e+002, 9.316096e+001
4.017127e+002, 9.299380e+001
4.021948e+002, 9.279748e+001
4.026769e+002, 9.252881e+001
4.031591e+002, 9.234240e+001
4.036412e+002, 9.235139e+001
4.041233e+002, 9.240030e+001
4.046054e+002, 9.200253e+001
4.050875e+002, 9.093877e+001
4.055696e+002, 9.009116e+001
4.060518e+002, 8.992097e+001
4.065339e+002, 9.045425e+001
4.070160e+002, 9.077942e+001
4.074981e+002, 9.090231e+001
4.079802e+002, 9.079899e+001
4.084623e+002, 9.028178e+001
4.089445e+002, 8.936315e+001
4.094266e+002, 8.875649e+001
4.099087e+002, 8.873478e+001
4.103908e+002, 8.907042e+001
4.108729e+002, 8.926389e+001
4.113550e+002, 8.931852e+001
4.118372e+002, 8.930301e+001
4.123193e+002, 8.919629e+001
4.128014e+002, 8.906171e+001
4.132835e+002, 8.908458e+001
4.137656e+002, 8.933071e+001
4.142477e+002, 8.956584e+001
4.147299e+002, 8.945190e+001
4.152120e+002, 8.912157e+001
4.156941e+002, 8.889819e+001
4.161762e+002, 8.899460e+001
4.166583e+002, 8.922043e+001
4.171404e+002, 8.943599e+001
4.176226e+002, 8.963531e+001
4.181047e+002, 8.978136e+001
4.185868e+002, 8.982436e+001
4.190689e+002, 8.981666e+001
4.195510e+002, 8.980122e+001
4.200331e+002, 8.970415e+001
4.205153e+002, 8.971613e+001
4.209974e+002, 9.003889e+001
4.214795e+002, 9.053711e+001
4.219616e+002, 9.085360e+001
4.224437e+002, 9.063160e+001
4.229258e+002, 9.044230e+001
4.234080e+002, 9.056985e+001
4.238901e+002, 9.116143e+001
4.243722e+002, 9.161172e+001
4.248543e+002, 9.175826e+001
4.253364e+002, 9.180140e+001
4.258185e+002, 9.193769e+001
4.263007e+002, 9.227177e+001
4.267828e+002, 9.255062e+001
4.272649e+002, 9.273019e+001
4.277470e+002, 9.282162e+001
4.282291e+002, 9.290519e+001
4.287112e+002, 9.299620e+001
4.291934e+002, 9.304926e+001
4.296755e+002, 9.301630e+001
4.301576e+002, 9.286211e+001
4.306397e+002, 9.281057e+001
4.311218e+002, 9.289957e+001
4.316039e+002, 9.303906e+001
4.320861e+002, 9.308414e+001
4.325682e+002, 9.302879e+001
4.330503e+002, 9.296748e+001
4.335324e+002, 9.296786e+001
4.340145e+002, 9.298155e+001
4.344966e+002, 9.277213e+001
4.349788e+002, 9.233121e+001
4.354609e+002, 9.194943e+001
4.359430e+002, 9.195968e+001
4.364251e+002, 9.222413e+001
4.369072e+002, 9.235807e+001
4.373893e+002, 9.228468e+001
4.378715e+002, 9.208617e+001
4.383536e+002, 9.187495e+001
4.388357e+002, 9.161755e+001
4.393178e+002, 9.122068e+001
4.397999e+002, 9.031448e+001
4.402820e+002, 8.944538e+001
4.407642e+002, 8.924630e+001
4.412463e+002, 8.974967e+001
4.417284e+002, 9.018257e+001
4.422105e+002, 9.010033e+001
4.426926e+002, 8.975217e+001
4.431747e+002, 8.937508e+001
4.436569e+002, 8.900568e+001
4.441390e+002, 8.864452e+001
4.446211e+002, 8.827898e+001
4.451032e+002, 8.791995e+001
4.455853e+002, 8.761129e+001
4.460674e+002, 8.737781e+001
4.465496e+002, 8.717982e+001
4.470317e+002, 8.702058e+001
4.475138e+002, 8.693516e+001
4.479959e+002, 8.677499e+001
4.484780e+002, 8.655659e+001
4.489601e+002, 8.625557e+001
4.494423e+002, 8.580775e+001
4.499244e+002, 8.503432e+001
4.504065e+002, 8.450282e+001
4.508886e+002, 8.432445e+001
4.513707e+002, 8.445147e+001
4.518528e+002, 8.475817e+001
4.523350e+002, 8.537306e+001
4.528171e+002, 8.577415e+001
4.532992e+002, 8.555578e+001
4.537813e+002, 8.470383e+001
4.542634e+002, 8.414167e+001
4.547455e+002, 8.391114e+001
4.552277e+002, 8.387768e+001
4.557098e+002, 8.393660e+001
4.561919e+002, 8.406529e+001
4.566740e+002, 8.411132e+001
4.571561e+002, 8.398253e+001
4.576382e+002, 8.377722e+001
4.581204e+002, 8.368011e+001
4.586025e+002, 8.367639e+001
4.590846e+002, 8.366271e+001
4.595667e+002, 8.352360e+001
4.600488e+002, 8.335195e+001
4.605309e+002, 8.327961e+001
4.610131e+002, 8.334244e+001
4.614952e+002, 8.342699e+001
4.619773e+002, 8.354560e+001
4.624594e+002, 8.361487e+001
4.629415e+002, 8.351249e+001
4.634236e+002, 8.286736e+001
4.639058e+002, 8.234495e+001
4.643879e+002, 8.233761e+001
4.648700e+002, 8.278885e+001
4.653521e+002, 8.311522e+001
4.658342e+002, 8.317079e+001
4.663163e+002, 8.306628e+001
4.667985e+002, 8.285261e+001
4.672806e+002, 8.246706e+001
4.677627e+002, 8.209299e+001
4.682448e+002, 8.168860e+001
4.687269e+002, 8.131967e+001
4.692090e+002, 8.108231e+001
4.696912e+002, 8.104404e+001
4.701733e+002, 8.101008e+001
4.706554e+002, 8.093382e+001
4.711375e+002, 8.082133e+001
4.716196e+002, 8.073080e+001
4.721017e+002, 8.066179e+001
4.725839e+002, 8.061494e+001
4.730660e+002, 8.057228e+001
4.735481e+002, 8.053362e+001
4.740302e+002, 8.063572e+001
4.745123e+002, 8.095219e+001
4.749944e+002, 8.124312e+001
4.754766e+002, 8.101245e+001
4.759587e+002, 8.036121e+001
4.764408e+002, 7.993911e+001
4.769229e+002, 8.017033e+001
4.774050e+002, 8.069228e+001
4.778871e+002, 8.087871e+001
4.783693e+002, 8.076531e+001
4.788514e+002, 8.066940e+001
4.793335e+002, 8.087517e+001
4.798156e+002, 8.119974e+001
4.802977e+002, 8.141978e+001
4.807798e+002, 8.147586e+001
4.812620e+002, 8.149183e+001
4.817441e+002, 8.148829e+001
4.822262e+002, 8.149983e+001
4.827083e+002, 8.157775e+001
4.831904e+002, 8.176958e+001
4.836725e+002, 8.199943e+001
4.841547e+002, 8.225782e+001
4.846368e+002, 8.253788e+001
4.851189e+002, 8.278615e+001
4.856010e+002, 8.304431e+001
4.860831e+002, 8.322719e+001
4.865652e+002, 8.326025e+001
4.870474e+002, 8.291743e+001
4.875295e+002, 8.294057e+001
4.880116e+002, 8.359582e+001
4.884937e+002, 8.441958e+001
4.889758e+002, 8.470483e+001
4.894579e+002, 8.422855e+001
4.899401e+002, 8.390919e+001
4.904222e+002, 8.404126e+001
4.909043e+002, 8.449082e+001
4.913864e+002, 8.454605e+001
4.918685e+002, 8.413217e+001
4.923506e+002, 8.384509e+001
4.928328e+002, 8.427769e+001
4.933149e+002, 8.523035e+001
4.937970e+002, 8.574968e+001
4.942791e+002, 8.571557e+001
4.947612e+002, 8.550291e+001
4.952433e+002, 8.544353e+001
4.957255e+002, 8.554012e+001
4.962076e+002, 8.580833e+001
4.966897e+002, 8.642315e+001
4.971718e+002, 8.704781e+001
4.976539e+002, 8.731588e+001
4.981360e+002, 8.729766e+001
4.986182e+002, 8.726817e+001
4.991003e+002, 8.727711e+001
4.995824e+002, 8.739080e+001
5.000645e+002, 8.769422e+001
5.005466e+002, 8.825449e+001
5.010287e+002, 8.874900e+001
5.015109e+002, 8.901744e+001
5.019930e+002, 8.920506e+001
5.024751e+002, 8.945327e+001
5.029572e+002, 8.981487e+001
5.034393e+002, 9.019558e+001
5.039214e+002, 9.059675e+001
5.044036e+002, 9.100638e+001
5.048857e+002, 9.140388e+001
5.053678e+002, 9.183581e+001
5.058499e+002, 9.217879e+001
5.063320e+002, 9.233587e+001
5.068141e+002, 9.228280e+001
5.072963e+002, 9.243025e+001
5.077784e+002, 9.282187e+001
5.082605e+002, 9.330608e+001
5.087426e+002, 9.377331e+001
5.092247e+002, 9.421856e+001
5.097068e+002, 9.453164e+001
5.101890e+002, 9.462263e+001
5.106711e+002, 9.470118e+001
5.111532e+002, 9.522095e+001
5.116353e+002, 9.608542e+001
5.121174e+002, 9.681898e+001
5.125995e+002, 9.707339e+001
5.130817e+002, 9.712257e+001
5.135638e+002, 9.731425e+001
5.140459e+002, 9.764741e+001
5.145280e+002, 9.791788e+001
5.150101e+002, 9.795189e+001
5.154922e+002, 9.788645e+001
5.159744e+002, 9.783125e+001
5.164565e+002, 9.774007e+001
5.169386e+002, 9.780054e+001
5.174207e+002, 9.824313e+001
5.179028e+002, 9.884434e+001
5.183849e+002, 9.923728e+001
5.188671e+002, 9.911498e+001
5.193492e+002, 9.904620e+001
5.198313e+002, 9.918810e+001
5.203134e+002, 9.952094e+001
5.207955e+002, 9.977302e+001
5.212776e+002, 9.991886e+001
5.217598e+002, 1.000199e+002
5.222419e+002, 1.000818e+002
5.227240e+002, 1.000720e+002
5.232061e+002, 1.001941e+002
5.236882e+002, 1.004591e+002
5.241703e+002, 1.008413e+002
5.246525e+002, 1.014090e+002
5.251346e+002, 1.021405e+002
5.256167e+002, 1.026102e+002
5.260988e+002, 1.025922e+002
5.265809e+002, 1.023733e+002
5.270630e+002, 1.024956e+002
5.275452e+002, 1.029089e+002
5.280273e+002, 1.033207e+002
5.285094e+002, 1.035561e+002
5.289915e+002, 1.036990e+002
5.294736e+002, 1.038100e+002
5.299557e+002, 1.038902e+002
5.304379e+002, 1.040588e+002
5.309200e+002, 1.044534e+002
5.314021e+002, 1.049403e+002
5.318842e+002, 1.053952e+002
5.323663e+002, 1.058477e+002
5.328484e+002, 1.061758e+002
5.333306e+002, 1.062464e+002
5.338127e+002, 1.061762e+002
5.342948e+002, 1.062096e+002
5.347769e+002, 1.064141e+002
5.352590e+002, 1.066741e+002
5.357411e+002, 1.070215e+002
5.362233e+002, 1.074482e+002
5.367054e+002, 1.076434e+002
5.371875e+002, 1.075122e+002
5.376696e+002, 1.073344e+002
5.381517e+002, 1.073068e+002
5.386339e+002, 1.074469e+002
5.391160e+002, 1.075392e+002
5.395981e+002, 1.075936e+002
5.400802e+002, 1.075401e+002
5.405623e+002, 1.072112e+002
5.410444e+002, 1.066587e+002
5.415266e+002, 1.061728e+002
5.420087e+002, 1.058687e+002
5.424908e+002, 1.056459e+002
5.429729e+002, 1.052875e+002
5.434550e+002, 1.048652e+002
5.439371e+002, 1.046542e+002
5.444193e+002, 1.050434e+002
5.449014e+002, 1.055526e+002
5.453835e+002, 1.057775e+002
5.458656e+002, 1.056736e+002
5.463477e+002, 1.054893e+002
5.468298e+002, 1.052731e+002
5.473120e+002, 1.050465e+002
5.477941e+002, 1.048273e+002
5.482762e+002, 1.045613e+002
5.487583e+002, 1.043806e+002
5.492404e+002, 1.044495e+002
5.497225e+002, 1.045627e+002
5.502047e+002, 1.043286e+002
5.506868e+002, 1.034627e+002
5.511689e+002, 1.028078e+002
5.516510e+002, 1.026512e+002
5.521331e+002, 1.028980e+002
5.526152e+002, 1.029273e+002
5.530974e+002, 1.027127e+002
5.535795e+002, 1.024186e+002
5.540616e+002, 1.021521e+002
5.545437e+002, 1.019028e+002
5.550258e+002, 1.015736e+002
5.555079e+002, 1.011427e+002
5.559901e+002, 1.007542e+002
5.564722e+002, 1.006048e+002
5.569543e+002, 1.006014e+002
5.574364e+002, 1.005529e+002
5.579185e+002, 1.004092e+002
5.584006e+002, 1.001937e+002
5.588828e+002, 9.980478e+001
5.593649e+002, 9.935537e+001
5.598470e+002, 9.909893e+001
5.603291e+002, 9.929646e+001
5.608112e+002, 9.956157e+001
5.612933e+002, 9.976171e+001
5.617755e+002, 9.988706e+001
5.622576e+002, 9.988905e+001
5.627397e+002, 9.969041e+001
5.632218e+002, 9.941848e+001
5.637039e+002, 9.912067e+001
5.641860e+002, 9.875586e+001
5.646682e+002, 9.847271e+001
5.651503e+002, 9.828081e+001
5.656324e+002, 9.815794e+001
5.661145e+002, 9.809724e+001
5.665966e+002, 9.810978e+001
5.670787e+002, 9.809982e+001
5.675609e+002, 9.806784e+001
5.680430e+002, 9.798045e+001
5.685251e+002, 9.770944e+001
5.690072e+002, 9.728056e+001
5.694893e+002, 9.691281e+001
5.699714e+002, 9.671111e+001
5.704536e+002, 9.664513e+001
5.709357e+002, 9.671074e+001
5.714178e+002, 9.689725e+001
5.718999e+002, 9.707686e+001
5.723820e+002, 9.719815e+001
5.728641e+002, 9.725481e+001
5.733463e+002, 9.722177e+001
5.738284e+002, 9.704567e+001
5.743105e+002, 9.691128e+001
5.747926e+002, 9.684349e+001
5.752747e+002, 9.685720e+001
5.757568e+002, 9.697956e+001
5.762390e+002, 9.764082e+001
5.767211e+002, 9.782051e+001
5.772032e+002, 9.716947e+001
5.776853e+002, 9.597328e+001
5.781674e+002, 9.523454e+001
5.786495e+002, 9.504075e+001
5.791317e+002, 9.505967e+001
5.796138e+002, 9.525334e+001
5.800959e+002, 9.557491e+001
5.805780e+002, 9.556276e+001
5.810601e+002, 9.518667e+001
5.815422e+002, 9.481526e+001
5.820244e+002, 9.486831e+001
5.825065e+002, 9.515609e+001
5.829886e+002, 9.518787e+001
5.834707e+002, 9.487302e+001
5.839528e+002, 9.444627e+001
5.844349e+002, 9.404922e+001
5.849171e+002, 9.369331e+001
5.853992e+002, 9.339607e+001
5.858813e+002, 9.321158e+001
5.863634e+002, 9.303300e+001
5.868455e+002, 9.271472e+001
5.873276e+002, 9.235852e+001
5.878098e+002, 9.225974e+001
5.882919e+002, 9.293356e+001
5.887740e+002, 9.339900e+001
5.892561e+002, 9.331121e+001
5.897382e+002, 9.265910e+001
5.902203e+002, 9.208147e+001
5.907025e+002, 9.160752e+001
5.911846e+002, 9.116575e+001
5.916667e+002, 9.063625e+001
5.921488e+002, 8.998559e+001
5.926309e+002, 8.982980e+001
5.931130e+002, 9.030385e+001
5.935952e+002, 9.084499e+001
5.940773e+002, 9.065444e+001
5.945594e+002, 8.992040e+001
5.950415e+002, 8.940026e+001
5.955236e+002, 8.937463e+001
5.960057e+002, 8.946038e+001
5.964879e+002, 8.914416e+001
5.969700e+002, 8.860578e+001
5.974521e+002, 8.827010e+001
5.979342e+002, 8.868743e+001
5.984163e+002, 8.904809e+001
5.988984e+002, 8.875935e+001
5.993806e+002, 8.790040e+001
5.998627e+002, 8.730424e+001
6.003448e+002, 8.733128e+001
6.008269e+002, 8.752072e+001
6.013090e+002, 8.766923e+001
6.017911e+002, 8.777546e+001
6.022733e+002, 8.784236e+001
6.027554e+002, 8.788705e+001
6.032375e+002, 8.786810e+001
6.037196e+002, 8.770223e+001
6.042017e+002, 8.736072e+001
6.046838e+002, 8.717657e+001
6.051660e+002, 8.722285e+001
6.056481e+002, 8.735940e+001
6.061302e+002, 8.738513e+001
6.066123e+002, 8.730820e+001
6.070944e+002, 8.715244e+001
6.075765e+002, 8.679488e+001
6.080587e+002, 8.649400e+001
6.085408e+002, 8.664322e+001
6.090229e+002, 8.712762e+001
6.095050e+002, 8.754183e+001
6.099871e+002, 8.769228e+001
6.104692e+002, 8.768977e+001
6.109514e+002, 8.752261e+001
6.114335e+002, 8.717518e+001
6.119156e+002, 8.699668e+001
6.123977e+002, 8.718906e+001
6.128798e+002, 8.747208e+001
6.133619e+002, 8.769341e+001
6.138441e+002, 8.789172e+001
6.143262e+002, 8.791074e+001
6.148083e+002, 8.763970e+001
6.152904e+002, 8.734105e+001
6.157725e+002, 8.738326e+001
6.162546e+002, 8.778822e+001
6.167368e+002, 8.817999e+001
6.172189e+002, 8.851739e+001
6.177010e+002, 8.876257e+001
6.181831e+002, 8.883024e+001
6.186652e+002, 8.874181e+001
6.191473e+002, 8.857771e+001
6.196295e+002, 8.814025e+001
6.201116e+002, 8.780894e+001
6.205937e+002, 8.813851e+001
6.210758e+002, 8.898798e+001
6.215579e+002, 8.966301e+001
6.220400e+002, 8.964266e+001
6.225222e+002, 8.947609e+001
6.230043e+002, 8.948503e+001
6.234864e+002, 8.974148e+001
6.239685e+002, 8.992562e+001
6.244506e+002, 8.987271e+001
6.249327e+002, 8.984861e+001
6.254149e+002, 9.005717e+001
6.258970e+002, 9.062711e+001
6.263791e+002, 9.102993e+001
6.268612e+002, 9.122330e+001
6.273433e+002, 9.128742e+001
6.278254e+002, 9.129178e+001
6.283076e+002, 9.124216e+001
6.287897e+002, 9.127148e+001
6.292718e+002, 9.143486e+001
6.297539e+002, 9.165793e+001
6.302360e+002, 9.181554e+001
6.307181e+002, 9.193055e+001
6.312003e+002, 9.207297e+001
6.316824e+002, 9.231645e+001
6.321645e+002, 9.257217e+001
6.326466e+002, 9.274857e+001
6.331287e+002, 9.286329e+001
6.336108e+002, 9.302514e+001
6.340930e+002, 9.324260e+001
6.345751e+002, 9.354366e+001
6.350572e+002, 9.400016e+001
6.355393e+002, 9.469494e+001
6.360214e+002, 9.510156e+001
6.365035e+002, 9.500364e+001
6.369857e+002, 9.488164e+001
6.374678e+002, 9.517280e+001
6.379499e+002, 9.597497e+001
6.384320e+002, 9.642990e+001
6.389141e+002, 9.640813e+001
6.393962e+002, 9.623838e+001
6.398784e+002, 9.635183e+001
6.403605e+002, 9.669762e+001
6.408426e+002, 9.707762e+001
6.413247e+002, 9.748332e+001
6.418068e+002, 9.781165e+001
6.422889e+002, 9.781929e+001
6.427711e+002, 9.766762e+001
6.432532e+002, 9.772337e+001
6.437353e+002, 9.834914e+001
6.442174e+002, 9.902781e+001
6.446995e+002, 9.949226e+001
6.451816e+002, 9.977413e+001
6.456638e+002, 1.001412e+002
6.461459e+002, 1.007456e+002
6.466280e+002, 1.013240e+002
6.471101e+002, 1.017640e+002
6.475922e+002, 1.020461e+002
6.480743e+002, 1.024898e+002
6.485565e+002, 1.031501e+002
6.490386e+002, 1.038195e+002
6.495207e+002, 1.042922e+002
6.500028e+002, 1.045962e+002
6.504849e+002, 1.049836e+002
6.509670e+002, 1.054702e+002
6.514492e+002, 1.060217e+002
6.519313e+002, 1.066168e+002
6.524134e+002, 1.072444e+002
6.528955e+002, 1.078871e+002
6.533776e+002, 1.085957e+002
6.538597e+002, 1.092216e+002
6.543419e+002, 1.094716e+002
6.548240e+002, 1.096308e+002
6.553061e+002, 1.101318e+002
6.557882e+002, 1.115581e+002
6.562703e+002, 1.128057e+002
6.567524e+002, 1.134675e+002
6.572346e+002, 1.137770e+002
6.577167e+002, 1.144565e+002
6.581988e+002, 1.157115e+002
6.586809e+002, 1.168656e+002
6.591630e+002, 1.176230e+002
6.596451e+002, 1.180837e+002
6.601273e+002, 1.188639e+002
6.606094e+002, 1.199867e+002
6.610915e+002, 1.211565e+002
6.615736e+002, 1.222355e+002
6.620557e+002, 1.232166e+002
6.625378e+002, 1.240446e+002
6.630200e+002, 1.247171e+002
6.635021e+002, 1.254055e+002
6.639842e+002, 1.261596e+002
6.644663e+002, 1.270290e+002
6.649484e+002, 1.280906e+002
6.654305e+002, 1.294699e+002
6.659127e+002, 1.307255e+002
6.663948e+002, 1.317229e+002
6.668769e+002, 1.325586e+002
6.673590e+002, 1.333515e+002
6.678411e+002, 1.341716e+002
6.683232e+002, 1.347839e+002
6.688054e+002, 1.351319e+002
6.692875e+002, 1.353021e+002
6.697696e+002, 1.354453e+002
6.702517e+002, 1.355629e+002
6.707338e+002, 1.355497e+002
6.712159e+002, 1.353157e+002
6.716981e+002, 1.350112e+002
6.721802e+002, 1.349813e+002
6.726623e+002, 1.351292e+002
6.731444e+002, 1.351078e+002
6.736265e+002, 1.346304e+002
6.741086e+002, 1.340036e+002
6.745908e+002, 1.334851e+002
6.750729e+002, 1.330461e+002
6.755550e+002, 1.324347e+002
6.760371e+002, 1.312974e+002
6.765192e+002, 1.302256e+002
6.770013e+002, 1.295706e+002
6.774835e+002, 1.294089e+002
6.779656e+002, 1.287825e+002
6.784477e+002, 1.274921e+002
6.789298e+002, 1.260879e+002
6.794119e+002, 1.249722e+002
6.798940e+002, 1.241339e+002
6.803762e+002, 1.232542e+002
6.808583e+002, 1.223083e+002
6.813404e+002, 1.213299e+002
6.818225e+002, 1.203377e+002
6.823046e+002, 1.193325e+002
6.827867e+002, 1.182690e+002
6.832689e+002, 1.171128e+002
6.837510e+002, 1.160168e+002
6.842331e+002, 1.151604e+002
6.847152e+002, 1.144257e+002
6.851973e+002, 1.136836e+002
6.856794e+002, 1.128427e+002
6.861616e+002, 1.120491e+002
6.866437e+002, 1.113856e+002
6.871258e+002, 1.107683e+002
6.876079e+002, 1.100317e+002
6.880900e+002, 1.090845e+002
6.885721e+002, 1.082849e+002
6.890543e+002, 1.077541e+002
6.895364e+002, 1.074136e+002
6.900185e+002, 1.070649e+002
6.905006e+002, 1.067057e+002
6.909827e+002, 1.062601e+002
6.914648e+002, 1.056659e+002
6.919470e+002, 1.049687e+002
6.924291e+002, 1.041300e+002
6.929112e+002, 1.031999e+002
6.933933e+002, 1.024595e+002
6.938754e+002, 1.022275e+002
6.943575e+002, 1.021003e+002
6.948397e+002, 1.017897e+002
6.953218e+002, 1.012518e+002
6.958039e+002, 1.008317e+002
6.962860e+002, 1.007116e+002
6.967681e+002, 1.005907e+002
6.972502e+002, 1.003089e+002
6.977324e+002, 9.983076e+001
6.982145e+002, 9.936335e+001
6.986966e+002, 9.888936e+001
6.991787e+002, 9.847667e+001
6.996608e+002, 9.822250e+001
7.001429e+002, 9.809772e+001
7.006251e+002, 9.796204e+001
7.011072e+002, 9.780501e+001
7.015893e+002, 9.758586e+001
7.020714e+002, 9.717487e+001
7.025535e+002, 9.670171e+001
7.030356e+002, 9.636839e+001
7.035178e+002, 9.634126e+001
7.039999e+002, 9.627489e+001
7.044820e+002, 9.584740e+001
7.049641e+002, 9.535335e+001
7.054462e+002, 9.527593e+001
7.059283e+002, 9.610365e+001
7.064105e+002, 9.658681e+001
7.068926e+002, 9.647238e+001
7.073747e+002, 9.598168e+001
7.078568e+002, 9.560404e+001
7.083389e+002, 9.533794e+001
7.088210e+002, 9.519393e+001
7.093032e+002, 9.522549e+001
7.097853e+002, 9.533483e+001
7.102674e+002, 9.532767e+001
7.107495e+002, 9.522148e+001
7.112316e+002, 9.508896e+001
7.117137e+002, 9.488396e+001
7.121959e+002, 9.473781e+001
7.126780e+002, 9.482201e+001
7.131601e+002, 9.509360e+001
7.136422e+002, 9.523225e+001
7.141243e+002, 9.494597e+001
7.146064e+002, 9.470724e+001
7.150886e+002, 9.474120e+001
7.155707e+002, 9.505927e+001
7.160528e+002, 9.525071e+001
7.165349e+002, 9.530137e+001
7.170170e+002, 9.526644e+001
7.174991e+002, 9.510813e+001
7.179813e+002, 9.486475e+001
7.184634e+002, 9.484808e+001
7.189455e+002, 9.507094e+001
7.194276e+002, 9.540470e+001
7.199097e+002, 9.585286e+001
7.203918e+002, 9.629652e+001
7.208740e+002, 9.653460e+001
7.213561e+002, 9.650479e+001
7.218382e+002, 9.649449e+001
7.223203e+002, 9.672691e+001
7.228024e+002, 9.698824e+001
7.232845e+002, 9.708504e+001
7.237667e+002, 9.684769e+001
7.242488e+002, 9.670165e+001
7.247309e+002, 9.660719e+001
7.252130e+002, 9.664450e+001
7.256951e+002, 9.702388e+001
7.261772e+002, 9.779112e+001
7.266594e+002, 9.811858e+001
7.271415e+002, 9.776884e+001
7.276236e+002, 9.725213e+001
7.281057e+002, 9.727625e+001
7.285878e+002, 9.769607e+001
7.290699e+002, 9.814545e+001
7.295521e+002, 9.856700e+001
7.300342e+002, 9.888339e+001
7.305163e+002, 9.897341e+001
7.309984e+002, 9.893515e+001
7.314805e+002, 9.894323e+001
7.319626e+002, 9.889041e+001
7.324448e+002, 9.908926e+001
7.329269e+002, 9.980937e+001
7.334090e+002, 1.007649e+002
7.338911e+002, 1.010698e+002
7.343732e+002, 1.005212e+002
7.348553e+002, 1.001505e+002
7.353375e+002, 1.003210e+002
7.358196e+002, 1.008491e+002
7.363017e+002, 1.013249e+002
7.367838e+002, 1.017439e+002
7.372659e+002, 1.020769e+002
7.377480e+002, 1.022751e+002
7.382302e+002, 1.024038e+002
7.387123e+002, 1.024754e+002
7.391944e+002, 1.025167e+002
7.396765e+002, 1.026511e+002
7.401586e+002, 1.030565e+002
7.406407e+002, 1.034393e+002
7.411229e+002, 1.035802e+002
7.416050e+002, 1.035010e+002
7.420871e+002, 1.037743e+002
7.425692e+002, 1.045478e+002
7.430513e+002, 1.053315e+002
7.435334e+002, 1.059040e+002
7.440156e+002, 1.062711e+002
7.444977e+002, 1.064076e+002
7.449798e+002, 1.063148e+002
7.454619e+002, 1.062178e+002
7.459440e+002, 1.062637e+002
7.464261e+002, 1.064203e+002
7.469083e+002, 1.066459e+002
7.473904e+002, 1.069360e+002
7.478725e+002, 1.073214e+002
7.483546e+002, 1.079733e+002
7.488367e+002, 1.086041e+002
7.493188e+002, 1.089724e+002
7.498010e+002, 1.089200e+002
7.502831e+002, 1.091430e+002
7.507652e+002, 1.098230e+002
7.512473e+002, 1.104974e+002
7.517294e+002, 1.107809e+002
7.522115e+002, 1.106762e+002
7.526937e+002, 1.105283e+002
7.531758e+002, 1.103397e+002
7.536579e+002, 1.102275e+002
7.541400e+002, 1.103629e+002
7.546221e+002, 1.106402e+002
7.551042e+002, 1.109184e+002
7.555864e+002, 1.112030e+002
7.560685e+002, 1.113478e+002
7.565506e+002, 1.109748e+002
7.570327e+002, 1.105751e+002
7.575148e+002, 1.106602e+002
7.579969e+002, 1.120442e+002
7.584791e+002, 1.127015e+002
7.589612e+002, 1.122443e+002
7.594433e+002, 1.114891e+002
7.599254e+002, 1.115123e+002
7.604075e+002, 1.123557e+002
7.608896e+002, 1.130119e+002
7.613718e+002, 1.133408e+002
7.618539e+002, 1.133910e+002
7.623360e+002, 1.130363e+002
7.628181e+002, 1.124740e+002
7.633002e+002, 1.121373e+002
7.637823e+002, 1.122817e+002
7.642645e+002, 1.124405e+002
7.647466e+002, 1.122306e+002
7.652287e+002, 1.119113e+002
7.657108e+002, 1.118745e+002
7.661929e+002, 1.125826e+002
7.666750e+002, 1.130078e+002
7.671572e+002, 1.129917e+002
7.676393e+002, 1.127068e+002
7.681214e+002, 1.123997e+002
7.686035e+002, 1.120556e+002
7.690856e+002, 1.119834e+002
7.695677e+002, 1.123791e+002
7.700499e+002, 1.128562e+002
7.705320e+002, 1.126784e+002
7.710141e+002, 1.120925e+002
7.714962e+002, 1.117339e+002
7.719783e+002, 1.121869e+002
7.724604e+002, 1.126056e+002
7.729426e+002, 1.124899e+002
7.734247e+002, 1.120185e+002
7.739068e+002, 1.115981e+002
7.743889e+002, 1.111676e+002
7.748710e+002, 1.109651e+002
7.753531e+002, 1.111178e+002
7.758353e+002, 1.114871e+002
7.763174e+002, 1.116849e+002
7.767995e+002, 1.117061e+002
7.772816e+002, 1.116491e+002
7.777637e+002, 1.115336e+002
7.782458e+002, 1.113799e+002
7.787280e+002, 1.111578e+002
7.792101e+002, 1.109166e+002
7.796922e+002, 1.108142e+002
7.801743e+002, 1.111107e+002
7.806564e+002, 1.113844e+002
7.811385e+002, 1.114415e+002
7.816207e+002, 1.112971e+002
7.821028e+002, 1.110276e+002
7.825849e+002, 1.105652e+002
7.830670e+002, 1.100880e+002
7.835491e+002, 1.095408e+002
7.840313e+002, 1.090373e+002
7.845134e+002, 1.091708e+002
7.849955e+002, 1.099542e+002
7.854776e+002, 1.105359e+002
7.859597e+002, 1.103974e+002
7.864418e+002, 1.099075e+002
7.869240e+002, 1.096075e+002
7.874061e+002, 1.094598e+002
7.878882e+002, 1.093311e+002
7.883703e+002, 1.091905e+002
7.888524e+002, 1.090227e+002
7.893345e+002, 1.087653e+002
7.898167e+002, 1.084496e+002
7.902988e+002, 1.083232e+002
7.907809e+002, 1.085349e+002
7.912630e+002, 1.086688e+002
7.917451e+002, 1.085740e+002
7.922272e+002, 1.082946e+002
7.927094e+002, 1.079855e+002
7.931915e+002, 1.076519e+002
7.936736e+002, 1.073482e+002
7.941557e+002, 1.070582e+002
7.946378e+002, 1.068480e+002
7.951199e+002, 1.068742e+002
7.956021e+002, 1.070818e+002
7.960842e+002, 1.072221e+002
7.965663e+002, 1.071727e+002
7.970484e+002, 1.070452e+002
7.975305e+002, 1.068281e+002
7.980126e+002, 1.065481e+002
7.984948e+002, 1.064306e+002
7.989769e+002, 1.065477e+002
7.994590e+002, 1.066524e+002
7.999411e+002, 1.066341e+002
8.004232e+002, 1.065256e+002
8.009053e+002, 1.064773e+002
8.013875e+002, 1.064772e+002
8.018696e+002, 1.064012e+002
8.023517e+002, 1.059936e+002
8.028338e+002, 1.056033e+002
8.033159e+002, 1.056366e+002
8.037980e+002, 1.060316e+002
8.042802e+002, 1.063861e+002
8.047623e+002, 1.067820e+002
8.052444e+002, 1.068777e+002
8.057265e+002, 1.064164e+002
8.062086e+002, 1.054917e+002
8.066907e+002, 1.049649e+002
8.071729e+002, 1.049093e+002
8.076550e+002, 1.049305e+002
8.081371e+002, 1.048490e+002
8.086192e+002, 1.047033e+002
8.091013e+002, 1.045870e+002
8.095834e+002, 1.044992e+002
8.100656e+002, 1.044336e+002
8.105477e+002, 1.042644e+002
8.110298e+002, 1.042230e+002
8.115119e+002, 1.046525e+002
8.119940e+002, 1.054535e+002
8.124761e+002, 1.058296e+002
8.129583e+002, 1.053771e+002
8.134404e+002, 1.048417e+002
8.139225e+002, 1.043822e+002
8.144046e+002, 1.040213e+002
8.148867e+002, 1.038938e+002
8.153688e+002, 1.040075e+002
8.158510e+002, 1.042202e+002
8.163331e+002, 1.045829e+002
8.168152e+002, 1.049256e+002
8.172973e+002, 1.049027e+002
8.177794e+002, 1.045870e+002
8.182615e+002, 1.042708e+002
8.187437e+002, 1.040612e+002
8.192258e+002, 1.039233e+002
8.197079e+002, 1.038911e+002
8.201900e+002, 1.039343e+002
8.206721e+002, 1.038483e+002
8.211542e+002, 1.035386e+002
8.216364e+002, 1.033098e+002
8.221185e+002, 1.032970e+002
8.226006e+002, 1.034210e+002
8.230827e+002, 1.034033e+002
8.235648e+002, 1.032619e+002
8.240469e+002, 1.031383e+002
8.245291e+002, 1.030369e+002
8.250112e+002, 1.030444e+002
8.254933e+002, 1.034435e+002
8.259754e+002, 1.040462e+002
8.264575e+002, 1.042622e+002
8.269396e+002, 1.033561e+002
8.274218e+002, 1.026759e+002
8.279039e+002, 1.026530e+002
8.283860e+002, 1.031041e+002
8.288681e+002, 1.034559e+002
8.293502e+002, 1.037228e+002
8.298323e+002, 1.038071e+002
8.303145e+002, 1.036155e+002
8.307966e+002, 1.032958e+002
8.312787e+002, 1.031176e+002
8.317608e+002, 1.030493e+002
8.322429e+002, 1.029994e+002
8.327250e+002, 1.029658e+002
8.332072e+002, 1.028962e+002
8.336893e+002, 1.027217e+002
8.341714e+002, 1.024909e+002
8.346535e+002, 1.023353e+002
8.351356e+002, 1.022872e+002
8.356177e+002, 1.022645e+002
8.360999e+002, 1.022391e+002
8.365820e+002, 1.022449e+002
8.370641e+002, 1.023768e+002
8.375462e+002, 1.026250e+002
8.380283e+002, 1.028983e+002
8.385104e+002, 1.032546e+002
8.389926e+002, 1.034628e+002
8.394747e+002, 1.030358e+002
8.399568e+002, 1.023277e+002
8.404389e+002, 1.019518e+002
8.409210e+002, 1.024126e+002
8.414031e+002, 1.028739e+002
8.418853e+002, 1.031966e+002
8.423674e+002, 1.033952e+002
8.428495e+002, 1.034507e+002
8.433316e+002, 1.033191e+002
8.438137e+002, 1.032657e+002
8.442958e+002, 1.033474e+002
8.447780e+002, 1.034822e+002
8.452601e+002, 1.036144e+002
8.457422e+002, 1.036993e+002
8.462243e+002, 1.036023e+002
8.467064e+002, 1.031965e+002
8.471885e+002, 1.028354e+002
8.476707e+002, 1.028468e+002
8.481528e+002, 1.029583e+002
8.486349e+002, 1.028298e+002
8.491170e+002, 1.020761e+002
8.495991e+002, 1.017767e+002
8.500812e+002, 1.021288e+002
8.505634e+002, 1.026572e+002
8.510455e+002, 1.027640e+002
8.515276e+002, 1.025245e+002
8.520097e+002, 1.025717e+002
8.524918e+002, 1.030305e+002
8.529739e+002, 1.034674e+002
8.534561e+002, 1.035094e+002
8.539382e+002, 1.032980e+002
8.544203e+002, 1.029057e+002
8.549024e+002, 1.021759e+002
8.553845e+002, 1.018624e+002
8.558666e+002, 1.025480e+002
8.563488e+002, 1.032956e+002
8.568309e+002, 1.034349e+002
8.573130e+002, 1.028581e+002
8.577951e+002, 1.025272e+002
8.582772e+002, 1.024702e+002
8.587593e+002, 1.024914e+002
8.592415e+002, 1.024936e+002
8.597236e+002, 1.024306e+002
8.602057e+002, 1.021622e+002
8.606878e+002, 1.016811e+002
8.611699e+002, 1.012960e+002
8.616520e+002, 1.011383e+002
8.621342e+002, 1.011365e+002
8.626163e+002, 1.012627e+002
8.630984e+002, 1.015089e+002
8.635805e+002, 1.019172e+002
8.640626e+002, 1.026195e+002
8.645447e+002, 1.030934e+002
8.650269e+002, 1.029331e+002
8.655090e+002, 1.023282e+002
8.659911e+002, 1.018891e+002
8.664732e+002, 1.016116e+002
8.669553e+002, 1.014509e+002
8.674374e+002, 1.014701e+002
8.679196e+002, 1.015220e+002
8.684017e+002, 1.015132e+002
8.688838e+002, 1.014442e+002
8.693659e+002, 1.013412e+002
8.698480e+002, 1.011094e+002
8.703301e+002, 1.010094e+002
8.708123e+002, 1.011566e+002
8.712944e+002, 1.014680e+002
8.717765e+002, 1.017248e+002
8.722586e+002, 1.019111e+002
8.727407e+002, 1.018785e+002
8.732228e+002, 1.014205e+002
8.737050e+002, 1.008714e+002
8.741871e+002, 1.005156e+002
8.746692e+002, 1.003389e+002
8.751513e+002, 1.003066e+002
8.756334e+002, 1.006171e+002
8.761155e+002, 1.008143e+002
8.765977e+002, 1.008111e+002
8.770798e+002, 1.006653e+002
8.775619e+002, 1.004764e+002
8.780440e+002, 1.002472e+002
8.785261e+002, 9.989946e+001
8.790082e+002, 9.932642e+001
8.794904e+002, 9.887901e+001
8.799725e+002, 9.922988e+001
8.804546e+002, 9.996709e+001
8.809367e+002, 1.003491e+002
8.814188e+002, 1.000240e+002
8.819009e+002, 9.965263e+001
8.823831e+002, 9.939516e+001
8.828652e+002, 9.924411e+001
8.833473e+002, 9.923401e+001
8.838294e+002, 9.948303e+001
8.843115e+002, 9.935268e+001
8.847936e+002, 9.872774e+001
8.852758e+002, 9.807731e+001
8.857579e+002, 9.791231e+001
8.862400e+002, 9.808022e+001
8.867221e+002, 9.829536e+001
8.872042e+002, 9.853285e+001
8.876863e+002, 9.861861e+001
8.881685e+002, 9.823196e+001
8.886506e+002, 9.782761e+001
8.891327e+002, 9.780238e+001
8.896148e+002, 9.825466e+001
8.900969e+002, 9.836333e+001
8.905790e+002, 9.799111e+001
8.910612e+002, 9.762558e+001
8.915433e+002, 9.762711e+001
8.920254e+002, 9.786341e+001
8.925075e+002, 9.778184e+001
8.929896e+002, 9.742718e+001
8.934717e+002, 9.717191e+001
8.939539e+002, 9.731233e+001
8.944360e+002, 9.756618e+001
8.949181e+002, 9.792005e+001
8.954002e+002, 9.828175e+001
8.958823e+002, 9.806837e+001
8.963644e+002, 9.678984e+001
8.968466e+002, 9.586702e+001
8.973287e+002, 9.581017e+001
8.978108e+002, 9.624439e+001
8.982929e+002, 9.609216e+001
8.987750e+002, 9.545994e+001
8.992571e+002, 9.503357e+001
8.997393e+002, 9.520020e+001
9.002214e+002, 9.548062e+001
9.007035e+002, 9.550804e+001
9.011856e+002, 9.536513e+001
9.016677e+002, 9.519027e+001
9.021498e+002, 9.496606e+001
9.026320e+002, 9.476893e+001
9.031141e+002, 9.458964e+001
9.035962e+002, 9.445016e+001
9.040783e+002, 9.443564e+001
9.045604e+002, 9.452560e+001
9.050425e+002, 9.442015e+001
9.055247e+002, 9.404565e+001
9.060068e+002, 9.366411e+001
9.064889e+002, 9.353225e+001
9.069710e+002, 9.352748e+001
9.074531e+002, 9.352235e+001
9.079352e+002, 9.350008e+001
9.084174e+002, 9.346797e+001
9.088995e+002, 9.351735e+001
9.093816e+002, 9.345215e+001
9.098637e+002, 9.305648e+001
9.103458e+002, 9.232742e+001
9.108279e+002, 9.210658e+001
9.113101e+002, 9.240345e+001
9.117922e+002, 9.269618e+001
9.122743e+002, 9.257103e+001
9.127564e+002, 9.226346e+001
9.132385e+002, 9.194257e+001
9.137206e+002, 9.164612e+001
9.142028e+002, 9.155454e+001
9.146849e+002, 9.197434e+001
9.151670e+002, 9.231880e+001
9.156491e+002, 9.240720e+001
9.161312e+002, 9.229251e+001
9.166133e+002, 9.212177e+001
9.170955e+002, 9.189230e+001
9.175776e+002, 9.184095e+001
9.180597e+002, 9.216055e+001
9.185418e+002, 9.253963e+001
9.190239e+002, 9.259168e+001
9.195060e+002, 9.241619e+001
9.199882e+002, 9.220599e+001
9.204703e+002, 9.195537e+001
9.209524e+002, 9.176124e+001
9.214345e+002, 9.162836e+001
9.219166e+002, 9.156313e+001
9.223987e+002, 9.159797e+001
9.228809e+002, 9.174045e+001
9.233630e+002, 9.184075e+001
9.238451e+002, 9.187937e+001
9.243272e+002, 9.188660e+001
9.248093e+002, 9.190015e+001
9.252914e+002, 9.189928e+001
9.257736e+002, 9.182491e+001
9.262557e+002, 9.163939e+001
9.267378e+002, 9.157914e+001
9.272199e+002, 9.194158e+001
9.277020e+002, 9.222768e+001
9.281841e+002, 9.212710e+001
9.286663e+002, 9.164185e+001
9.291484e+002, 9.146089e+001
9.296305e+002, 9.159969e+001
9.301126e+002, 9.167555e+001
9.305947e+002, 9.129460e+001
9.310768e+002, 9.080753e+001
9.315590e+002, 9.071069e+001
9.320411e+002, 9.092256e+001
9.325232e+002, 9.108348e+001
9.330053e+002, 9.090850e+001
9.334874e+002, 9.088332e+001
9.339695e+002, 9.127266e+001
9.344517e+002, 9.181845e+001
9.349338e+002, 9.180064e+001
9.354159e+002, 9.120512e+001
9.358980e+002, 9.080521e+001
9.363801e+002, 9.085664e+001
9.368622e+002, 9.107420e+001
9.373444e+002, 9.123646e+001
9.378265e+002, 9.130433e+001
9.383086e+002, 9.120872e+001
9.387907e+002, 9.083592e+001
9.392728e+002, 9.048437e+001
9.397549e+002, 9.017175e+001
9.402371e+002, 8.992966e+001
9.407192e+002, 8.976205e+001
9.412013e+002, 8.966684e+001
9.416834e+002, 8.979481e+001
9.421655e+002, 9.016145e+001
9.426476e+002, 9.051159e+001
9.431298e+002, 9.065719e+001
9.436119e+002, 9.065083e+001
9.440940e+002, 9.050748e+001
9.445761e+002, 9.023656e+001
9.450582e+002, 9.000319e+001
9.455403e+002, 8.986251e+001
9.460225e+002, 8.974615e+001
9.465046e+002, 8.963300e+001
9.469867e+002, 8.952903e+001
9.474688e+002, 8.945248e+001
9.479509e+002, 8.940493e+001
9.484330e+002, 8.939366e+001
9.489152e+002, 8.943007e+001
9.493973e+002, 8.949263e+001
9.498794e+002, 8.963742e+001
9.503615e+002, 8.977608e+001
9.508436e+002, 8.975178e+001
9.513257e+002, 8.913938e+001
9.518079e+002, 8.896087e+001
9.522900e+002, 8.949411e+001
9.527721e+002, 9.017421e+001
9.532542e+002, 9.024451e+001
9.537363e+002, 8.979837e+001
9.542184e+002, 8.953996e+001
9.547006e+002, 8.955506e+001
9.551827e+002, 8.968195e+001
9.556648e+002, 8.981714e+001
9.561469e+002, 8.998662e+001
9.566290e+002, 9.023331e+001
9.571111e+002, 9.057758e+001
9.575933e+002, 9.085882e+001
9.580754e+002, 9.110854e+001
9.585575e+002, 9.121619e+001
9.590396e+002, 9.104855e+001
9.595217e+002, 9.072720e+001
9.600038e+002, 9.072816e+001
9.604860e+002, 9.098951e+001
9.609681e+002, 9.118993e+001
9.614502e+002, 9.101035e+001
9.619323e+002, 9.086802e+001
9.624144e+002, 9.100602e+001
9.628965e+002, 9.136103e+001
9.633787e+002, 9.178574e+001
9.638608e+002, 9.229225e+001
9.643429e+002, 9.285262e+001
9.648250e+002, 9.354103e+001
9.653071e+002, 9.410552e+001
9.657892e+002, 9.414336e+001
9.662714e+002, 9.378929e+001
9.667535e+002, 9.334445e+001
9.672356e+002, 9.285153e+001
9.677177e+002, 9.236845e+001
9.681998e+002, 9.187551e+001
9.686819e+002, 9.145290e+001
9.691641e+002, 9.118584e+001
9.696462e+002, 9.108270e+001
9.701283e+002, 9.091265e+001
9.706104e+002, 9.065263e+001
9.710925e+002, 9.044267e+001
9.715746e+002, 9.042332e+001
9.720568e+002, 9.047096e+001
9.725389e+002, 9.034209e+001
9.730210e+002, 9.008094e+001
9.735031e+002, 8.983777e+001
9.739852e+002, 8.959251e+001
9.744673e+002, 8.948158e+001
9.749495e+002, 8.966251e+001
9.754316e+002, 8.993178e+001
9.759137e+002, 8.990034e+001
9.763958e+002, 8.954699e+001
9.768779e+002, 8.931735e+001
9.773600e+002, 8.930997e+001
9.778422e+002, 8.934640e+001
9.783243e+002, 8.924955e+001
9.788064e+002, 8.907397e+001
9.792885e+002, 8.885648e+001
9.797706e+002, 8.856522e+001
9.802527e+002, 8.844164e+001
9.807349e+002, 8.859928e+001
9.812170e+002, 8.882414e+001
9.816991e+002, 8.903051e+001
9.821812e+002, 8.920958e+001
9.826633e+002, 8.923701e+001
9.831454e+002, 8.913151e+001
9.836276e+002, 8.911365e+001
9.841097e+002, 8.951426e+001
9.845918e+002, 8.986590e+001
9.850739e+002, 8.961717e+001
9.855560e+002, 8.904510e+001
9.860381e+002, 8.893796e+001
9.865203e+002, 8.965333e+001
9.870024e+002, 9.017944e+001
9.874845e+002, 9.037704e+001
9.879666e+002, 9.036806e+001
9.884487e+002, 9.023291e+001
9.889308e+002, 9.004159e+001
9.894130e+002, 9.001568e+001
9.898951e+002, 9.021159e+001
9.903772e+002, 9.042845e+001
9.908593e+002, 9.055283e+001
9.913414e+002, 9.065218e+001
9.918235e+002, 9.076855e+001
9.923057e+002, 9.090319e+001
9.927878e+002, 9.107372e+001
9.932699e+002, 9.128379e+001
9.937520e+002, 9.151955e+001
9.942341e+002, 9.186684e+001
9.947162e+002, 9.216493e+001
9.951984e+002, 9.197274e+001
9.956805e+002, 9.149444e+001
9.961626e+002, 9.129354e+001
9.966447e+002, 9.193713e+001
9.971268e+002, 9.242263e+001
9.976089e+002, 9.247524e+001
9.980911e+002, 9.232037e+001
9.985732e+002, 9.222956e+001
9.990553e+002, 9.220242e+001
9.995374e+002, 9.234061e+001
1.000020e+003, 9.267475e+001
1.000502e+003, 9.298719e+001
1.000984e+003, 9.306680e+001
1.001466e+003, 9.302864e+001
1.001948e+003, 9.295102e+001
1.002430e+003, 9.283497e+001
1.002912e+003, 9.281876e+001
1.003394e+003, 9.293185e+001
1.003876e+003, 9.310520e+001
1.004359e+003, 9.335744e+001
1.004841e+003, 9.362125e+001
1.005323e+003, 9.365689e+001
1.005805e+003, 9.350709e+001
1.006287e+003, 9.333956e+001
1.006769e+003, 9.317941e+001
1.007251e+003, 9.308289e+001
1.007733e+003, 9.302697e+001
1.008216e+003, 9.308461e+001
1.008698e+003, 9.340367e+001
1.009180e+003, 9.417825e+001
1.009662e+003, 9.440672e+001
1.010144e+003, 9.394817e+001
1.010626e+003, 9.338820e+001
1.011108e+003, 9.336919e+001
1.011590e+003, 9.359771e+001
1.012072e+003, 9.360947e+001
1.012555e+003, 9.338577e+001
1.013037e+003, 9.324380e+001
1.013519e+003, 9.333503e+001
1.014001e+003, 9.348879e+001
1.014483e+003, 9.370403e+001
1.014965e+003, 9.391959e+001
1.015447e+003, 9.388459e+001
1.015929e+003, 9.362485e+001
1.016411e+003, 9.341241e+001
1.016894e+003, 9.334459e+001
1.017376e+003, 9.333394e+001
1.017858e+003, 9.336462e+001
1.018340e+003, 9.338055e+001
1.018822e+003, 9.329700e+001
1.019304e+003, 9.300856e+001
1.019786e+003, 9.288257e+001
1.020268e+003, 9.296825e+001
1.020751e+003, 9.308839e+001
1.021233e+003, 9.313001e+001
1.021715e+003, 9.309686e+001
1.022197e+003, 9.293111e+001
1.022679e+003, 9.267155e+001
1.023161e+003, 9.254479e+001
1.023643e+003, 9.291713e+001
1.024125e+003, 9.315855e+001
1.024607e+003, 9.290072e+001
1.025090e+003, 9.238462e+001
1.025572e+003, 9.211195e+001
1.026054e+003, 9.209801e+001
1.026536e+003, 9.205615e+001
1.027018e+003, 9.191194e+001
1.027500e+003, 9.181282e+001
1.027982e+003, 9.199239e+001
1.028464e+003, 9.226326e+001
1.028947e+003, 9.242006e+001
1.029429e+003, 9.242592e+001
1.029911e+003, 9.230858e+001
1.030393e+003, 9.201608e+001
1.030875e+003, 9.171748e+001
1.031357e+003, 9.145901e+001
1.031839e+003, 9.127831e+001
1.032321e+003, 9.142496e+001
1.032803e+003, 9.180116e+001
1.033286e+003, 9.199389e+001
1.033768e+003, 9.159243e+001
1.034250e+003, 9.119809e+001
1.034732e+003, 9.107919e+001
1.035214e+003, 9.112392e+001
1.035696e+003, 9.118628e+001
1.036178e+003, 9.128825e+001
1.036660e+003, 9.124673e+001
1.037143e+003, 9.102044e+001
1.037625e+003, 9.082796e+001
1.038107e+003, 9.096205e+001
1.038589e+003, 9.118720e+001
1.039071e+003, 9.116303e+001
1.039553e+003, 9.088657e+001
1.040035e+003, 9.074179e+001
1.040517e+003, 9.102019e+001
1.041000e+003, 9.108851e+001
1.041482e+003, 9.065601e+001
1.041964e+003, 9.002361e+001
1.042446e+003, 9.004935e+001
1.042928e+003, 9.054898e+001
1.043410e+003, 9.074140e+001
1.043892e+003, 9.030998e+001
1.044374e+003, 8.980145e+001
1.044856e+003, 8.946249e+001
1.045339e+003, 8.926916e+001
1.045821e+003, 8.924097e+001
1.046303e+003, 8.943040e+001
1.046785e+003, 8.933711e+001
1.047267e+003, 8.893468e+001
1.047749e+003, 8.849131e+001
1.048231e+003, 8.823734e+001
1.048713e+003, 8.801480e+001
1.049195e+003, 8.752075e+001
1.049677e+003, 8.688383e+001
1.050160e+003, 8.648865e+001
1.050642e+003, 8.669275e+001
1.051124e+003, 8.679903e+001
1.051606e+003, 8.670151e+001
1.052088e+003, 8.652436e+001
1.052570e+003, 8.644788e+001
1.053052e+003, 8.643684e+001
1.053534e+003, 8.638110e+001
1.054017e+003, 8.626968e+001
1.054499e+003, 8.603284e+001
1.054981e+003, 8.544981e+001
1.055463e+003, 8.488933e+001
1.055945e+003, 8.467015e+001
1.056427e+003, 8.470340e+001
1.056909e+003, 8.442851e+001
1.057391e+003, 8.381211e+001
1.057874e+003, 8.328166e+001
1.058356e+003, 8.299191e+001
1.058838e+003, 8.283491e+001
1.059320e+003, 8.268198e+001
1.059802e+003, 8.257714e+001
1.060284e+003, 8.259559e+001
1.060766e+003, 8.287327e+001
1.061248e+003, 8.297903e+001
1.061730e+003, 8.284270e+001
1.062213e+003, 8.264706e+001
1.062695e+003, 8.251144e+001
1.063177e+003, 8.242170e+001
1.063659e+003, 8.238485e+001
1.064141e+003, 8.236329e+001
1.064623e+003, 8.218188e+001
1.065105e+003, 8.156229e+001
1.065587e+003, 8.098007e+001
1.066070e+003, 8.063734e+001
1.066552e+003, 8.042734e+001
1.067034e+003, 8.020356e+001
1.067516e+003, 7.996415e+001
1.067998e+003, 7.977141e+001
1.068480e+003, 7.963182e+001
1.068962e+003, 7.956209e+001
1.069444e+003, 7.974168e+001
1.069927e+003, 7.987955e+001
1.070409e+003, 7.959696e+001
1.070891e+003, 7.888528e+001
1.071373e+003, 7.857376e+001
1.071855e+003, 7.889816e+001
1.072337e+003, 7.900728e+001
1.072819e+003, 7.856807e+001
1.073301e+003, 7.788181e+001
1.073783e+003, 7.737846e+001
1.074266e+003, 7.705939e+001
1.074748e+003, 7.697000e+001
1.075230e+003, 7.728941e+001
1.075712e+003, 7.735986e+001
1.076194e+003, 7.674634e+001
1.076676e+003, 7.612846e+001
1.077158e+003, 7.593970e+001
1.077640e+003, 7.613162e+001
1.078122e+003, 7.619687e+001
1.078604e+003, 7.614774e+001
1.079087e+003, 7.609036e+001
1.079569e+003, 7.620434e+001
1.080051e+003, 7.620114e+001
1.080533e+003, 7.573588e+001
1.081015e+003, 7.510065e+001
1.081497e+003, 7.486411e+001
1.081979e+003, 7.518567e+001
1.082461e+003, 7.511525e+001
1.082944e+003, 7.452518e+001
1.083426e+003, 7.393856e+001
1.083908e+003, 7.390961e+001
1.084390e+003, 7.413891e+001
1.084872e+003, 7.434426e+001
1.085354e+003, 7.449039e+001
1.085836e+003, 7.444357e+001
1.086318e+003, 7.406817e+001
1.086801e+003, 7.374081e+001
1.087283e+003, 7.356963e+001
1.087765e+003, 7.346070e+001
1.088247e+003, 7.323839e+001
1.088729e+003, 7.293763e+001
1.089211e+003, 7.264723e+001
1.089693e+003, 7.238024e+001
1.090175e+003, 7.214455e+001
1.090657e+003, 7.191151e+001
1.091140e+003, 7.174950e+001
1.091622e+003, 7.173103e+001
1.092104e+003, 7.182362e+001
1.092586e+003, 7.172436e+001
1.093068e+003, 7.145318e+001
1.093550e+003, 7.126587e+001
1.094032e+003, 7.138411e+001
1.094514e+003, 7.146211e+001
1.094997e+003, 7.112181e+001
1.095479e+003, 7.065176e+001
1.095961e+003, 7.046201e+001
1.096443e+003, 7.069891e+001
1.096925e+003, 7.073722e+001
1.097407e+003, 7.055581e+001
1.097889e+003, 7.029747e+001
1.098371e+003, 7.001578e+001
1.098854e+003, 6.976347e+001
1.099336e+003, 6.966675e+001
1.099818e+003, 6.966881e+001
1.100300e+003, 6.954469e+001
1.100782e+003, 6.907079e+001
1.101264e+003, 6.878673e+001
1.101746e+003, 6.882370e+001
1.102228e+003, 6.894505e+001
1.102710e+003, 6.877927e+001
1.103193e+003, 6.846162e+001
1.103675e+003, 6.834417e+001
1.104157e+003, 6.846917e+001
1.104639e+003, 6.859354e+001
1.105121e+003, 6.874462e+001
1.105603e+003, 6.870361e+001
1.106085e+003, 6.831843e+001
1.106567e+003, 6.772930e+001
1.107049e+003, 6.737196e+001
1.107531e+003, 6.722170e+001
1.108014e+003, 6.712971e+001
1.108496e+003, 6.707079e+001
1.108978e+003, 6.699425e+001
1.109460e+003, 6.685446e+001
1.109942e+003, 6.668639e+001
1.110424e+003, 6.653126e+001
1.110906e+003, 6.639189e+001
1.111388e+003, 6.614402e+001
1.111871e+003, 6.577320e+001
1.112353e+003, 6.550760e+001
1.112835e+003, 6.554166e+001
1.113317e+003, 6.563551e+001
1.113799e+003, 6.558828e+001
1.114281e+003, 6.540284e+001
1.114763e+003, 6.505416e+001
1.115245e+003, 6.422401e+001
1.115728e+003, 6.399525e+001
1.116210e+003, 6.455215e+001
1.116692e+003, 6.510480e+001
1.117174e+003, 6.482651e+001
1.117656e+003, 6.417974e+001
1.118138e+003, 6.412515e+001
1.118620e+003, 6.450018e+001
1.119102e+003, 6.455466e+001
1.119584e+003, 6.354074e+001
1.120067e+003, 6.288275e+001
1.120549e+003, 6.289074e+001
1.121031e+003, 6.318187e+001
1.121513e+003, 6.329190e+001
1.121995e+003, 6.325098e+001
1.122477e+003, 6.314050e+001
1.122959e+003, 6.296997e+001
1.123441e+003, 6.281404e+001
1.123924e+003, 6.272499e+001
1.124406e+003, 6.264645e+001
1.124888e+003, 6.256970e+001
1.125370e+003, 6.247863e+001
1.125852e+003, 6.232511e+001
1.126334e+003, 6.211184e+001
1.126816e+003, 6.185829e+001
1.127298e+003, 6.155629e+001
1.127781e+003, 6.128939e+001
1.128263e+003, 6.112722e+001
1.128745e+003, 6.102278e+001
1.129227e+003, 6.092614e+001
1.129709e+003, 6.083741e+001
1.130191e+003, 6.091370e+001
1.130673e+003, 6.117559e+001
1.131155e+003, 6.127113e+001
1.131637e+003, 6.097627e+001
1.132120e+003, 6.060318e+001
1.132602e+003, 6.049516e+001
1.133084e+003, 6.050991e+001
1.133566e+003, 6.043459e+001
1.134048e+003, 6.016074e+001
1.134530e+003, 6.009915e+001
1.135012e+003, 6.029917e+001
1.135494e+003, 6.051081e+001
1.135976e+003, 6.059794e+001
1.136458e+003, 6.057965e+001
1.136941e+003, 6.043569e+001
1.137423e+003, 6.021519e+001
1.137905e+003, 6.003805e+001
1.138387e+003, 5.997524e+001
1.138869e+003, 5.990385e+001
1.139351e+003, 5.982676e+001
1.139833e+003, 5.972248e+001
1.140315e+003, 5.949184e+001
1.140798e+003, 5.924229e+001
1.141280e+003, 5.930566e+001
1.141762e+003, 5.963399e+001
1.142244e+003, 5.985256e+001
1.142726e+003, 5.967495e+001
1.143208e+003, 5.954552e+001
1.143690e+003, 5.956347e+001
1.144172e+003, 5.967516e+001
1.144655e+003, 5.984247e+001
1.145137e+003, 6.003505e+001
1.145619e+003, 6.012236e+001
1.146101e+003, 6.008706e+001
1.146583e+003, 6.005938e+001
1.147065e+003, 6.019987e+001
1.147547e+003, 6.025999e+001
1.148029e+003, 6.006232e+001
1.148511e+003, 5.973871e+001
1.148994e+003, 5.974681e+001
1.149476e+003, 6.003045e+001
1.149958e+003, 6.002166e+001
1.150440e+003, 5.951466e+001
1.150922e+003, 5.908456e+001
1.151404e+003, 5.932131e+001
1.151886e+003, 5.964555e+001
1.152368e+003, 5.955570e+001
1.152851e+003, 5.911137e+001
1.153333e+003, 5.897157e+001
1.153815e+003, 5.913729e+001
1.154297e+003, 5.925653e+001
1.154779e+003, 5.917090e+001
1.155261e+003, 5.905091e+001
1.155743e+003, 5.904662e+001
1.156225e+003, 5.909843e+001
1.156708e+003, 5.916081e+001
1.157190e+003, 5.925228e+001
1.157672e+003, 5.918284e+001
1.158154e+003, 5.893850e+001
1.158636e+003, 5.865081e+001
1.159118e+003, 5.829599e+001
1.159600e+003, 5.804803e+001
1.160082e+003, 5.826790e+001
1.160564e+003, 5.868366e+001
1.161047e+003, 5.879802e+001
1.161529e+003, 5.833062e+001
1.162011e+003, 5.808655e+001
1.162493e+003, 5.809272e+001
1.162975e+003, 5.822015e+001
1.163457e+003, 5.849491e+001
1.163939e+003, 5.874528e+001
1.164421e+003, 5.861106e+001
1.164903e+003, 5.824297e+001
1.165385e+003, 5.811043e+001
1.165868e+003, 5.853723e+001
1.166350e+003, 5.879351e+001
1.166832e+003, 5.881379e+001
1.167314e+003, 5.868018e+001
1.167796e+003, 5.835982e+001
1.168278e+003, 5.800073e+001
1.168760e+003, 5.786077e+001
1.169242e+003, 5.794118e+001
1.169725e+003, 5.814543e+001
1.170207e+003, 5.865694e+001
1.170689e+003, 5.898508e+001
1.171171e+003, 5.906356e+001
1.171653e+003, 5.891703e+001
1.172135e+003, 5.833733e+001
1.172617e+003, 5.762449e+001
1.173099e+003, 5.757353e+001
1.173582e+003, 5.825560e+001
1.174064e+003, 5.874253e+001
1.174546e+003, 5.846474e+001
1.175028e+003, 5.824282e+001
1.175510e+003, 5.831447e+001
1.175992e+003, 5.851811e+001
1.176474e+003, 5.854014e+001
1.176956e+003, 5.842405e+001
1.177438e+003, 5.826353e+001
1.177921e+003, 5.805895e+001
1.178403e+003, 5.796740e+001
1.178885e+003, 5.819833e+001
1.179367e+003, 5.838573e+001
1.179849e+003, 5.835418e+001
1.180331e+003, 5.819738e+001
1.180813e+003, 5.825812e+001
1.181295e+003, 5.845467e+001
1.181778e+003, 5.843604e+001
1.182260e+003, 5.800962e+001
1.182742e+003, 5.771830e+001
1.183224e+003, 5.801238e+001
1.183706e+003, 5.830107e+001
1.184188e+003, 5.822556e+001
1.184670e+003, 5.786949e+001
1.185152e+003, 5.766159e+001
1.185635e+003, 5.759585e+001
1.186117e+003, 5.765358e+001
1.186599e+003, 5.793670e+001
1.187081e+003, 5.811161e+001
1.187563e+003, 5.784430e+001
1.188045e+003, 5.755116e+001
1.188527e+003, 5.756861e+001
1.189009e+003, 5.786692e+001
1.189491e+003, 5.808403e+001
1.189974e+003, 5.821845e+001
1.190456e+003, 5.825391e+001
1.190938e+003, 5.805362e+001
1.191420e+003, 5.792730e+001
1.191902e+003, 5.815141e+001
1.192384e+003, 5.843399e+001
1.192866e+003, 5.847218e+001
1.193348e+003, 5.825972e+001
1.193830e+003, 5.809064e+001
1.194313e+003, 5.796743e+001
1.194795e+003, 5.791201e+001
1.195277e+003, 5.794019e+001
1.195759e+003, 5.803645e+001
1.196241e+003, 5.841623e+001
1.196723e+003, 5.871751e+001
1.197205e+003, 5.834452e+001
1.197687e+003, 5.726565e+001
1.198169e+003, 5.681829e+001
1.198652e+003, 5.704683e+001
1.199134e+003, 5.744139e+001
1.199616e+003, 5.781502e+001
1.200098e+003, 5.808317e+001
1.200580e+003, 5.817046e+001
1.201062e+003, 5.812349e+001
1.201544e+003, 5.798838e+001
1.202026e+003, 5.776075e+001
1.202509e+003, 5.764006e+001
1.202991e+003, 5.764521e+001
1.203473e+003, 5.762902e+001
1.203955e+003, 5.735930e+001
1.204437e+003, 5.715539e+001
1.204919e+003, 5.730206e+001
1.205401e+003, 5.764493e+001
1.205883e+003, 5.785542e+001
1.206365e+003, 5.793287e+001
1.206848e+003, 5.793469e+001
1.207330e+003, 5.786351e+001
1.207812e+003, 5.779679e+001
1.208294e+003, 5.784535e+001
1.208776e+003, 5.787091e+001
1.209258e+003, 5.769392e+001
1.209740e+003, 5.742950e+001
1.210222e+003, 5.743244e+001
1.210705e+003, 5.770673e+001
1.211187e+003, 5.797037e+001
1.211669e+003, 5.819079e+001
1.212151e+003, 5.824937e+001
1.212633e+003, 5.790934e+001
1.213115e+003, 5.749616e+001
1.213597e+003, 5.722310e+001
1.214079e+003, 5.708301e+001
1.214562e+003, 5.707766e+001
1.215044e+003, 5.720411e+001
1.215526e+003, 5.732361e+001
1.216008e+003, 5.740328e+001
1.216490e+003, 5.748112e+001
1.216972e+003, 5.762696e+001
1.217454e+003, 5.774535e+001
1.217936e+003, 5.771800e+001
1.218418e+003, 5.759368e+001
1.218901e+003, 5.766485e+001
1.219383e+003, 5.791802e+001
1.219865e+003, 5.805236e+001
1.220347e+003, 5.796988e+001
1.220829e+003, 5.779901e+001
1.221311e+003, 5.749029e+001
1.221793e+003, 5.726392e+001
1.222275e+003, 5.730943e+001
1.222757e+003, 5.758450e+001
1.223240e+003, 5.783833e+001
1.223722e+003, 5.806051e+001
1.224204e+003, 5.807642e+001
1.224686e+003, 5.773971e+001
1.225168e+003, 5.744958e+001
1.225650e+003, 5.757185e+001
1.226132e+003, 5.775970e+001
1.226614e+003, 5.772174e+001
1.227096e+003, 5.749469e+001
1.227579e+003, 5.740886e+001
1.228061e+003, 5.745447e+001
1.228543e+003, 5.756189e+001
1.229025e+003, 5.776514e+001
1.229507e+003, 5.787693e+001
1.229989e+003, 5.767167e+001
1.230471e+003, 5.743103e+001
1.230953e+003, 5.740275e+001
1.231436e+003, 5.754900e+001
1.231918e+003, 5.745672e+001
1.232400e+003, 5.717558e+001
1.232882e+003, 5.706792e+001
1.233364e+003, 5.744860e+001
1.233846e+003, 5.771694e+001
1.234328e+003, 5.740476e+001
1.234810e+003, 5.703019e+001
1.235292e+003, 5.699239e+001
1.235775e+003, 5.724054e+001
1.236257e+003, 5.737702e+001
1.236739e+003, 5.740969e+001
1.237221e+003, 5.737577e+001
1.237703e+003, 5.717362e+001
1.238185e+003, 5.710171e+001
1.238667e+003, 5.747198e+001
1.239149e+003, 5.781313e+001
1.239632e+003, 5.770898e+001
1.240114e+003, 5.726971e+001
1.240596e+003, 5.714074e+001
1.241078e+003, 5.727892e+001
1.241560e+003, 5.750092e+001
1.242042e+003, 5.789146e+001
1.242524e+003, 5.809682e+001
1.243006e+003, 5.793880e+001
1.243489e+003, 5.770124e+001
1.243971e+003, 5.759845e+001
1.244453e+003, 5.760046e+001
1.244935e+003, 5.756225e+001
1.245417e+003, 5.751556e+001
1.245899e+003, 5.758008e+001
1.246381e+003, 5.807932e+001
1.246863e+003, 5.826235e+001
1.247345e+003, 5.791061e+001
1.247828e+003, 5.746813e+001
1.248310e+003, 5.727603e+001
1.248792e+003, 5.729847e+001
1.249274e+003, 5.752769e+001
1.249756e+003, 5.789340e+001
1.250238e+003, 5.816398e+001
1.250720e+003, 5.828360e+001
1.251202e+003, 5.822872e+001
1.251684e+003, 5.794640e+001
1.252167e+003, 5.762761e+001
1.252649e+003, 5.742059e+001
1.253131e+003, 5.729905e+001
1.253613e+003, 5.719753e+001
1.254095e+003, 5.713345e+001
1.254577e+003, 5.717213e+001
1.255059e+003, 5.742674e+001
1.255541e+003, 5.761151e+001
1.256023e+003, 5.772363e+001
1.256506e+003, 5.771980e+001
1.256988e+003, 5.739476e+001
1.257470e+003, 5.704545e+001
1.257952e+003, 5.720268e+001
1.258434e+003, 5.769024e+001
1.258916e+003, 5.794411e+001
1.259398e+003, 5.781119e+001
1.259880e+003, 5.771425e+001
1.260363e+003, 5.767654e+001
1.260845e+003, 5.768348e+001
1.261327e+003, 5.782716e+001
1.261809e+003, 5.792134e+001
1.262291e+003, 5.765596e+001
1.262773e+003, 5.720492e+001
1.263255e+003, 5.707479e+001
1.263737e+003, 5.741174e+001
1.264219e+003, 5.735751e+001
1.264702e+003, 5.682318e+001
1.265184e+003, 5.638726e+001
1.265666e+003, 5.651820e+001
1.266148e+003, 5.690093e+001
1.266630e+003, 5.749427e+001
1.267112e+003, 5.809023e+001
1.267594e+003, 5.827735e+001
1.268076e+003, 5.803238e+001
1.268559e+003, 5.773379e+001
1.269041e+003, 5.740844e+001
1.269523e+003, 5.715758e+001
1.270005e+003, 5.714718e+001
1.270487e+003, 5.712374e+001
1.270969e+003, 5.682533e+001
1.271451e+003, 5.649475e+001
1.271933e+003, 5.652387e+001
1.272416e+003, 5.687492e+001
1.272898e+003, 5.702678e+001
1.273380e+003, 5.696508e+001
1.273862e+003, 5.694286e+001
1.274344e+003, 5.718282e+001
1.274826e+003, 5.739457e+001
1.275308e+003, 5.751595e+001
1.275790e+003, 5.752293e+001
1.276272e+003, 5.724720e+001
1.276755e+003, 5.683491e+001
1.277237e+003, 5.698171e+001
1.277719e+003, 5.762019e+001
1.278201e+003, 5.801815e+001
1.278683e+003, 5.761802e+001
1.279165e+003, 5.725591e+001
1.279647e+003, 5.706733e+001
1.280129e+003, 5.699934e+001
1.280611e+003, 5.704586e+001
1.281094e+003, 5.714130e+001
1.281576e+003, 5.712000e+001
1.282058e+003, 5.700629e+001
1.282540e+003, 5.696117e+001
1.283022e+003, 5.706819e+001
1.283504e+003, 5.717613e+001
1.283986e+003, 5.728490e+001
1.284468e+003, 5.734021e+001
1.284950e+003, 5.721525e+001
1.285433e+003, 5.705503e+001
1.285915e+003, 5.710275e+001
1.286397e+003, 5.729153e+001
1.286879e+003, 5.732121e+001
1.287361e+003, 5.711154e+001
1.287843e+003, 5.697798e+001
1.288325e+003, 5.694667e+001
1.288807e+003, 5.701165e+001
1.289290e+003, 5.727551e+001
1.289772e+003, 5.753439e+001
1.290254e+003, 5.757458e+001
1.290736e+003, 5.747950e+001
1.291218e+003, 5.747229e+001
1.291700e+003, 5.756200e+001
1.292182e+003, 5.763598e+001
1.292664e+003, 5.768551e+001
1.293146e+003, 5.763948e+001
1.293629e+003, 5.731500e+001
1.294111e+003, 5.702618e+001
1.294593e+003, 5.697125e+001
1.295075e+003, 5.704804e+001
1.295557e+003, 5.716934e+001
1.296039e+003, 5.732575e+001
1.296521e+003, 5.746196e+001
1.297003e+003, 5.756524e+001
1.297486e+003, 5.756771e+001
1.297968e+003, 5.734341e+001
1.298450e+003, 5.714397e+001
1.298932e+003, 5.703864e+001
1.299414e+003, 5.697785e+001
1.299896e+003, 5.689565e+001
1.300378e+003, 5.681961e+001
1.300860e+003, 5.682745e+001
1.301343e+003, 5.691684e+001
1.301825e+003, 5.705648e+001
##END=



