##NAMES=Magnesite
##RRUFFID=R040114
##IDEAL CHEMISTRY=MgCO_3_
##LOCALITY=Snarum, Norway
##OWNER=RRUFF
##SOURCE=University of Arizona Mineral Museum
##DESCRIPTION=Tan colored cleavage fragment
##STATUS=The identification of this mineral has been confirmed by X-ray diffraction and chemical analysis
##URL=rruff.info/R040114
##MEASURED CHEMISTRY=(Mg_0.98_Fe_0.01_)C_1.00_O_3_
151.1082, 206.4156
151.5903, 209.6683
152.0724, 220.7382
152.5545, 228.4707
153.0366, 229.4903
153.5188, 226.6935
154.0009, 225.7774
154.4830, 230.8364
154.9651, 235.4887
155.4472, 236.7006
155.9293, 230.6621
156.4115, 226.2397
156.8936, 225.8394
157.3757, 228.5824
157.8578, 231.3803
158.3399, 234.1145
158.8221, 236.1727
159.3042, 237.1763
159.7863, 235.4112
160.2684, 234.1640
160.7505, 235.0531
161.2326, 237.7734
161.7148, 239.9043
162.1969, 239.7021
162.6790, 238.7006
163.1611, 238.3833
163.6432, 240.9570
164.1253, 242.9736
164.6075, 241.6091
165.0896, 236.7272
165.5717, 233.2088
166.0538, 235.4249
166.5359, 240.4393
167.0180, 244.0495
167.5002, 242.4017
167.9823, 240.0443
168.4644, 241.0929
168.9465, 246.3873
169.4286, 251.3346
169.9107, 252.3264
170.3929, 250.4753
170.8750, 248.1459
171.3571, 245.1228
171.8392, 242.8669
172.3213, 243.3945
172.8034, 247.5521
173.2856, 252.5122
173.7677, 256.1414
174.2498, 258.5218
174.7319, 259.8855
175.2140, 259.2531
175.6961, 257.9552
176.1783, 258.3180
176.6604, 261.4986
177.1425, 265.1240
177.6246, 266.1945
178.1067, 264.9571
178.5888, 263.0754
179.0710, 261.3669
179.5531, 259.9152
180.0352, 259.0067
180.5173, 258.9505
180.9994, 259.2318
181.4815, 258.6933
181.9637, 257.3732
182.4458, 256.6072
182.9279, 258.1562
183.4100, 261.3812
183.8921, 263.8118
184.3742, 264.0775
184.8564, 263.3928
185.3385, 265.1202
185.8206, 269.4827
186.3027, 273.7304
186.7848, 274.9402
187.2669, 273.3949
187.7491, 271.2388
188.2312, 267.8994
188.7133, 264.4735
189.1954, 265.7816
189.6775, 272.4972
190.1596, 280.9260
190.6418, 286.8782
191.1239, 290.3650
191.6060, 293.1615
192.0881, 295.9698
192.5702, 298.7268
193.0524, 300.4650
193.5345, 300.6942
194.0166, 301.1571
194.4987, 304.4924
194.9808, 310.7834
195.4629, 318.7322
195.9451, 326.6945
196.4272, 334.8496
196.9093, 348.9631
197.3914, 371.0446
197.8735, 396.2122
198.3556, 415.1307
198.8378, 427.0964
199.3199, 436.9703
199.8020, 445.8732
200.2841, 453.3831
200.7662, 465.1940
201.2483, 482.1840
201.7305, 503.1440
202.2126, 523.3481
202.6947, 540.5922
203.1768, 565.3133
203.6589, 608.3101
204.1410, 673.1261
204.6232, 726.6573
205.1053, 760.6508
205.5874, 783.8004
206.0695, 824.7663
206.5516, 885.3956
207.0337, 959.0005
207.5159, 1042.211
207.9980, 1133.483
208.4801, 1233.153
208.9622, 1337.981
209.4443, 1451.234
209.9264, 1588.909
210.4086, 1752.110
210.8907, 1938.392
211.3728, 2161.833
211.8549, 2457.964
212.3370, 2680.526
212.8191, 2827.659
213.3013, 2890.186
213.7834, 2779.841
214.2655, 2437.401
214.7476, 2015.679
215.2297, 1637.786
215.7118, 1293.099
216.1940, 1013.024
216.6761, 810.5590
217.1582, 682.5090
217.6403, 584.7717
218.1224, 526.0867
218.6045, 487.4419
219.0867, 451.6388
219.5688, 417.9135
220.0509, 389.5149
220.5330, 367.9619
221.0151, 353.0289
221.4972, 342.2209
221.9794, 336.7110
222.4615, 333.9021
222.9436, 331.2036
223.4257, 329.0226
223.9078, 325.9980
224.3899, 321.3572
224.8721, 314.7580
225.3542, 310.4141
225.8363, 309.4712
226.3184, 309.6598
226.8005, 308.0451
227.2827, 303.1756
227.7648, 299.3834
228.2469, 298.6137
228.7290, 301.7739
229.2111, 300.3512
229.6932, 290.4649
230.1754, 279.1559
230.6575, 276.4501
231.1396, 288.4288
231.6217, 298.2837
232.1038, 301.0325
232.5859, 295.3243
233.0681, 289.4622
233.5502, 282.2417
234.0323, 275.7433
234.5144, 273.1989
234.9965, 276.5784
235.4786, 280.6658
235.9608, 284.2029
236.4429, 287.3079
236.9250, 288.9879
237.4071, 288.2104
237.8892, 286.6372
238.3713, 287.1937
238.8535, 291.8675
239.3356, 295.3230
239.8177, 295.4628
240.2998, 291.0548
240.7819, 288.0927
241.2640, 287.0457
241.7462, 287.1229
242.2283, 286.8626
242.7104, 285.5730
243.1925, 285.1000
243.6746, 286.3354
244.1567, 290.1302
244.6389, 292.6859
245.1210, 293.4835
245.6031, 293.3519
246.0852, 293.8768
246.5673, 295.9190
247.0494, 297.1292
247.5316, 296.2616
248.0137, 292.0764
248.4958, 290.2433
248.9779, 292.2679
249.4600, 295.8082
249.9421, 296.0445
250.4243, 290.4405
250.9064, 286.0881
251.3885, 286.0344
251.8706, 292.0641
252.3527, 296.4797
252.8348, 298.9728
253.3170, 300.0469
253.7991, 300.4351
254.2812, 299.5931
254.7633, 299.1259
255.2454, 300.2846
255.7275, 304.5662
256.2097, 304.2719
256.6918, 296.5016
257.1739, 286.1508
257.6560, 282.9064
258.1381, 290.1747
258.6202, 297.5372
259.1024, 300.9342
259.5845, 299.2707
260.0666, 297.8844
260.5487, 296.2998
261.0308, 295.3627
261.5129, 297.1491
261.9951, 303.2025
262.4772, 308.2423
262.9593, 309.6988
263.4414, 306.5197
263.9235, 304.7792
264.4056, 304.5234
264.8878, 305.6558
265.3699, 308.7953
265.8520, 315.5138
266.3341, 319.7842
266.8162, 317.8322
267.2983, 307.8823
267.7805, 303.7410
268.2626, 307.3422
268.7447, 314.6611
269.2268, 319.0344
269.7089, 320.1217
270.1910, 319.4572
270.6732, 316.8789
271.1553, 311.9933
271.6374, 309.3358
272.1195, 309.3143
272.6016, 310.9230
273.0837, 312.9315
273.5659, 315.6007
274.0480, 317.3870
274.5301, 317.3153
275.0122, 315.2910
275.4943, 314.1971
275.9764, 314.2316
276.4586, 314.8238
276.9407, 315.2831
277.4228, 315.6420
277.9049, 315.5134
278.3870, 313.7593
278.8691, 310.6016
279.3513, 311.8541
279.8334, 318.5477
280.3155, 327.0013
280.7976, 333.0606
281.2798, 336.7058
281.7619, 337.1455
282.2440, 331.6962
282.7261, 321.7610
283.2082, 319.0853
283.6903, 324.9345
284.1725, 333.3871
284.6546, 336.6682
285.1367, 334.9762
285.6188, 334.3412
286.1009, 337.9974
286.5830, 344.5401
287.0652, 347.7026
287.5473, 347.1618
288.0294, 345.0080
288.5115, 342.8927
288.9936, 340.9050
289.4757, 339.8439
289.9579, 340.1758
290.4400, 341.5647
290.9221, 343.0909
291.4042, 344.7368
291.8863, 346.7399
292.3684, 349.3459
292.8506, 352.5171
293.3327, 356.1897
293.8148, 360.9873
294.2969, 365.9282
294.7790, 369.0599
295.2611, 370.3875
295.7433, 370.9424
296.2254, 371.2592
296.7075, 371.4928
297.1896, 371.9569
297.6717, 372.1421
298.1538, 373.1291
298.6360, 376.8024
299.1181, 383.0613
299.6002, 390.3098
300.0823, 399.7195
300.5644, 409.0514
301.0465, 413.6309
301.5287, 409.4843
302.0108, 403.5527
302.4929, 403.3680
302.9750, 408.4031
303.4571, 415.6348
303.9392, 423.5577
304.4214, 432.3078
304.9035, 442.3894
305.3856, 454.1642
305.8677, 466.5469
306.3498, 477.0544
306.8319, 486.7523
307.3141, 499.7095
307.7962, 520.1223
308.2783, 543.9256
308.7604, 566.5562
309.2425, 583.9691
309.7246, 606.0142
310.2068, 637.8554
310.6889, 679.2322
311.1710, 729.6429
311.6531, 780.6804
312.1352, 845.6966
312.6173, 934.0996
313.0995, 1047.032
313.5816, 1181.348
314.0637, 1342.144
314.5458, 1523.659
315.0279, 1716.111
315.5100, 1935.819
315.9922, 2150.363
316.4743, 2340.058
316.9564, 2497.501
317.4385, 2651.419
317.9206, 2797.542
318.4027, 2948.911
318.8849, 3123.751
319.3670, 3328.151
319.8491, 3555.799
320.3312, 3802.797
320.8133, 4068.473
321.2954, 4362.089
321.7776, 4685.056
322.2597, 5038.758
322.7418, 5424.669
323.2239, 5874.379
323.7060, 6325.013
324.1881, 6750.568
324.6703, 7145.138
325.1524, 7584.407
325.6345, 8042.309
326.1166, 8558.657
326.5987, 9169.239
327.0808, 9869.609
327.5630, 10671.60
328.0451, 11685.62
328.5272, 12889.60
329.0093, 13827.11
329.4914, 14675.54
329.9735, 15080.56
330.4557, 14779.57
330.9378, 13469.48
331.4199, 11953.90
331.9020, 10143.65
332.3841, 8145.197
332.8662, 6469.947
333.3484, 5168.555
333.8305, 4138.458
334.3126, 3334.940
334.7947, 2807.970
335.2768, 2381.761
335.7589, 2063.799
336.2411, 1834.052
336.7232, 1638.917
337.2053, 1483.846
337.6874, 1351.722
338.1695, 1233.611
338.6516, 1130.074
339.1338, 1045.684
339.6159, 984.1598
340.0980, 937.2498
340.5801, 894.6844
341.0622, 856.4177
341.5443, 818.0438
342.0265, 773.2614
342.5086, 724.3507
342.9907, 691.0364
343.4728, 675.8040
343.9549, 667.5447
344.4370, 652.6782
344.9192, 632.1278
345.4013, 614.0641
345.8834, 602.9033
346.3655, 596.0787
346.8476, 587.7996
347.3297, 578.1116
347.8119, 566.8826
348.2940, 551.8219
348.7761, 534.8590
349.2582, 522.3534
349.7403, 517.7070
350.2225, 516.3479
350.7046, 512.2606
351.1867, 505.5781
351.6688, 497.6053
352.1509, 486.0290
352.6331, 474.5757
353.1152, 469.9923
353.5973, 477.5034
354.0794, 485.1923
354.5615, 480.8004
355.0436, 467.4856
355.5258, 454.8584
356.0079, 448.5446
356.4900, 445.0378
356.9721, 441.6622
357.4542, 438.3373
357.9363, 434.0252
358.4185, 426.0282
358.9006, 416.8710
359.3827, 410.9214
359.8648, 414.0963
360.3469, 417.5775
360.8290, 415.3482
361.3112, 405.6298
361.7933, 399.6268
362.2754, 405.2308
362.7575, 414.7121
363.2396, 419.6896
363.7217, 413.6162
364.2039, 407.4488
364.6860, 404.1510
365.1681, 403.8197
365.6502, 403.3427
366.1323, 403.8282
366.6144, 403.1760
367.0966, 399.8703
367.5787, 387.9385
368.0608, 380.7502
368.5429, 381.8409
369.0250, 389.1996
369.5071, 392.3881
369.9893, 388.7083
370.4714, 384.0083
370.9535, 381.2669
371.4356, 382.2390
371.9177, 380.9294
372.3998, 375.4692
372.8820, 368.5930
373.3641, 367.2256
373.8462, 373.9443
374.3283, 379.4677
374.8104, 379.5131
375.2925, 373.4941
375.7747, 368.8157
376.2568, 365.5376
376.7389, 363.3992
377.2210, 362.2791
377.7031, 362.2302
378.1852, 362.3866
378.6674, 362.0991
379.1495, 361.8198
379.6316, 364.2817
380.1137, 369.8123
380.5958, 374.9319
381.0779, 376.0805
381.5601, 373.8502
382.0422, 371.0314
382.5243, 367.9407
383.0064, 364.9034
383.4885, 361.9438
383.9706, 359.2097
384.4528, 357.9863
384.9349, 360.7268
385.4170, 365.1394
385.8991, 367.2786
386.3812, 366.1422
386.8633, 364.1115
387.3455, 362.8878
387.8276, 362.4484
388.3097, 362.7337
388.7918, 365.4525
389.2739, 367.7704
389.7560, 366.5339
390.2382, 361.1200
390.7203, 356.8069
391.2024, 358.0420
391.6845, 361.4037
392.1666, 362.9628
392.6487, 358.8503
393.1309, 355.0914
393.6130, 354.1621
394.0951, 355.9155
394.5772, 358.2615
395.0593, 362.3910
395.5414, 365.8603
396.0236, 367.0954
396.5057, 364.7323
396.9878, 361.4823
397.4699, 357.6136
397.9520, 353.0327
398.4341, 347.3195
398.9163, 335.0130
399.3984, 327.2940
399.8805, 329.5542
400.3626, 347.2586
400.8447, 358.6129
401.3268, 361.7759
401.8090, 359.9285
402.2911, 356.8560
402.7732, 351.2426
403.2553, 348.0949
403.7374, 349.9930
404.2195, 356.4550
404.7017, 357.8643
405.1838, 352.6011
405.6659, 346.6516
406.1480, 346.0094
406.6301, 350.7534
407.1122, 354.8978
407.5944, 357.5511
408.0765, 358.8047
408.5586, 358.9015
409.0407, 357.8452
409.5228, 355.3912
410.0049, 349.8920
410.4871, 342.8643
410.9692, 338.6918
411.4513, 338.0949
411.9334, 339.2276
412.4155, 341.0053
412.8976, 342.9526
413.3798, 343.6670
413.8619, 340.4917
414.3440, 336.9521
414.8261, 337.6280
415.3082, 342.5836
415.7903, 346.7393
416.2725, 345.0219
416.7546, 341.3464
417.2367, 340.1786
417.7188, 345.4958
418.2009, 350.7891
418.6830, 352.8559
419.1652, 352.3815
419.6473, 351.7958
420.1294, 351.9076
420.6115, 352.1300
421.0937, 352.3376
421.5758, 353.2652
422.0579, 352.5243
422.5400, 347.8103
423.0221, 341.6553
423.5042, 338.1501
423.9864, 340.1110
424.4685, 341.7246
424.9506, 341.2744
425.4327, 338.4686
425.9148, 337.5142
426.3969, 339.0770
426.8791, 341.7285
427.3612, 344.5627
427.8433, 348.1811
428.3254, 350.0550
428.8075, 349.6624
429.2896, 347.3258
429.7718, 343.6060
430.2539, 338.0619
430.7360, 333.4035
431.2181, 331.6711
431.7002, 332.6607
432.1823, 333.4805
432.6645, 334.0306
433.1466, 334.2676
433.6287, 332.9034
434.1108, 330.6547
434.5929, 331.3240
435.0750, 339.6803
435.5572, 350.5488
436.0393, 353.9901
436.5214, 350.2932
437.0035, 345.5853
437.4856, 344.9264
437.9677, 346.1852
438.4499, 346.4001
438.9320, 344.5545
439.4141, 341.9429
439.8962, 338.3207
440.3783, 334.5513
440.8604, 332.7550
441.3426, 336.3629
441.8247, 340.3489
442.3068, 341.3949
442.7889, 338.2999
443.2710, 336.3341
443.7531, 338.2370
444.2353, 341.4643
444.7174, 343.2354
445.1995, 341.2762
445.6816, 339.8730
446.1637, 339.6593
446.6458, 340.5941
447.1280, 342.4793
447.6101, 346.9226
448.0922, 350.5481
448.5743, 351.0186
449.0564, 346.1299
449.5385, 344.3042
450.0207, 347.1805
450.5028, 351.9137
450.9849, 352.5376
451.4670, 348.0693
451.9491, 344.4941
452.4312, 344.7421
452.9134, 348.1470
453.3955, 349.0575
453.8776, 347.1365
454.3597, 345.1145
454.8418, 346.5128
455.3239, 350.3383
455.8061, 352.2752
456.2882, 350.8353
456.7703, 347.9143
457.2524, 344.8667
457.7345, 342.2541
458.2166, 342.3633
458.6988, 351.6687
459.1809, 361.8531
459.6630, 361.9559
460.1451, 349.4019
460.6272, 337.7542
461.1093, 337.5410
461.5915, 342.6638
462.0736, 345.5661
462.5557, 338.5419
463.0378, 333.9694
463.5199, 339.3782
464.0020, 352.9986
464.4842, 361.4866
464.9663, 357.5649
465.4484, 351.0542
465.9305, 347.2281
466.4126, 349.1453
466.8947, 348.5600
467.3769, 343.4522
467.8590, 336.7363
468.3411, 333.1923
468.8232, 333.9832
469.3053, 335.7582
469.7874, 337.9470
470.2696, 340.4967
470.7517, 342.3885
471.2338, 343.5212
471.7159, 344.2982
472.1980, 345.2741
472.6801, 346.4197
473.1623, 346.1686
473.6444, 343.7255
474.1265, 340.9218
474.6086, 341.0988
475.0907, 343.9280
475.5728, 347.2816
476.0550, 351.0172
476.5371, 354.2282
477.0192, 355.5179
477.5013, 354.8557
477.9834, 352.3615
478.4655, 344.4408
478.9477, 335.8754
479.4298, 333.2918
479.9119, 343.2336
480.3940, 353.7589
480.8761, 358.6762
481.3582, 359.2504
481.8404, 359.0162
482.3225, 358.5422
482.8046, 357.9968
483.2867, 357.5506
483.7688, 357.4231
484.2509, 356.6788
484.7331, 353.8089
485.2152, 351.0363
485.6973, 350.5033
486.1794, 353.6988
486.6615, 356.6072
487.1436, 358.6591
487.6258, 360.0082
488.1079, 361.6783
488.5900, 364.2674
489.0721, 365.4745
489.5542, 362.9103
490.0363, 356.5055
490.5185, 354.0246
491.0006, 356.5763
491.4827, 360.0814
491.9648, 357.5983
492.4470, 350.6024
492.9291, 347.4811
493.4112, 353.0504
493.8933, 362.3957
494.3754, 369.0972
494.8575, 373.1461
495.3397, 374.0969
495.8218, 368.7935
496.3039, 361.6360
496.7860, 357.7890
497.2681, 358.7234
497.7502, 359.9078
498.2324, 358.2147
498.7145, 355.5142
499.1966, 354.3174
499.6787, 356.6995
500.1608, 359.3671
500.6429, 362.2706
501.1251, 365.1882
501.6072, 365.1458
502.0893, 357.6412
502.5714, 350.9413
503.0535, 349.0468
503.5356, 353.9145
504.0178, 359.2665
504.4999, 366.5303
504.9820, 372.9079
505.4641, 373.1980
505.9462, 365.9469
506.4283, 360.3300
506.9105, 359.8346
507.3926, 362.8140
507.8747, 362.0421
508.3568, 357.2819
508.8389, 353.0905
509.3210, 354.0880
509.8032, 358.2261
510.2853, 359.5137
510.7674, 356.7325
511.2495, 353.1133
511.7316, 351.6089
512.2137, 351.7309
512.6959, 352.4936
513.1780, 353.9633
513.6601, 355.5331
514.1422, 356.8620
514.6243, 357.9546
515.1064, 358.8808
515.5886, 359.1037
516.0707, 359.5681
516.5528, 360.9631
517.0349, 364.1502
517.5170, 366.6680
517.9991, 367.9025
518.4813, 368.4753
518.9634, 369.2901
519.4455, 371.6342
519.9276, 371.9091
520.4097, 368.6306
520.8918, 362.5245
521.3740, 357.6682
521.8561, 353.8036
522.3382, 352.0443
522.8203, 354.5548
523.3024, 360.9061
523.7845, 363.5746
524.2667, 361.5796
524.7488, 358.0770
525.2309, 357.3579
525.7130, 358.4629
526.1951, 357.9047
526.6772, 352.4489
527.1594, 346.6638
527.6415, 346.9828
528.1236, 352.1270
528.6057, 356.4980
529.0878, 355.3777
529.5699, 353.2332
530.0521, 354.1826
530.5342, 360.0224
531.0163, 363.1822
531.4984, 357.2811
531.9805, 349.1945
532.4626, 346.2041
532.9448, 355.2427
533.4269, 362.3319
533.9090, 366.2274
534.3911, 367.0780
534.8732, 365.0192
535.3553, 358.5916
535.8375, 351.8578
536.3196, 345.7274
536.8017, 339.9082
537.2838, 340.1497
537.7659, 347.8986
538.2480, 356.9507
538.7302, 360.6389
539.2123, 359.5602
539.6944, 357.3548
540.1765, 354.2485
540.6586, 351.3959
541.1407, 349.8622
541.6229, 349.8002
542.1050, 351.6957
542.5871, 359.8770
543.0692, 367.4766
543.5513, 366.4010
544.0334, 356.3446
544.5156, 348.1829
544.9977, 348.5374
545.4798, 352.0024
545.9619, 354.3098
546.4440, 353.2541
546.9261, 353.1044
547.4083, 354.8621
547.8904, 357.8214
548.3725, 360.9496
548.8546, 366.3886
549.3367, 368.3070
549.8188, 363.5710
550.3010, 353.1321
550.7831, 348.7726
551.2652, 351.8694
551.7473, 356.4633
552.2294, 358.4080
552.7115, 357.9568
553.1937, 357.3913
553.6758, 356.8192
554.1579, 356.4370
554.6400, 356.7367
555.1221, 357.4506
555.6042, 357.8956
556.0864, 358.8399
556.5685, 358.3896
557.0506, 352.2477
557.5327, 342.4653
558.0148, 336.8058
558.4969, 343.7383
558.9791, 352.4397
559.4612, 355.9899
559.9433, 352.6541
560.4254, 349.4442
560.9075, 346.2838
561.3896, 344.5846
561.8718, 345.5492
562.3539, 350.8517
562.8360, 356.2563
563.3181, 362.8376
563.8002, 368.6337
564.2823, 367.5200
564.7645, 357.4690
565.2466, 349.7519
565.7287, 349.9795
566.2108, 356.2989
566.6929, 359.7561
567.1750, 360.2536
567.6572, 359.4631
568.1393, 358.0479
568.6214, 356.4631
569.1035, 355.7210
569.5856, 356.0679
570.0677, 356.8679
570.5499, 358.4238
571.0320, 359.9165
571.5141, 360.0678
571.9962, 355.8473
572.4783, 352.7459
572.9604, 354.5684
573.4426, 360.0360
573.9247, 362.4990
574.4068, 357.5553
574.8889, 352.4122
575.3710, 349.5815
575.8531, 349.1812
576.3353, 351.0652
576.8174, 357.1187
577.2995, 362.6325
577.7816, 362.0480
578.2637, 354.5594
578.7458, 349.6422
579.2280, 348.8350
579.7101, 350.8672
580.1922, 354.8559
580.6743, 360.2357
581.1564, 363.8156
581.6385, 361.6901
582.1207, 358.2312
582.6028, 360.9623
583.0849, 368.8144
583.5670, 373.6198
584.0491, 366.3467
584.5313, 356.7838
585.0134, 353.0490
585.4955, 358.3534
585.9776, 362.9592
586.4597, 364.3623
586.9418, 363.8026
587.4240, 362.5653
587.9061, 359.2862
588.3882, 357.6931
588.8703, 359.3139
589.3524, 362.5692
589.8345, 362.1205
590.3167, 356.6390
590.7988, 352.6210
591.2809, 353.9037
591.7630, 359.1474
592.2451, 361.1353
592.7272, 359.7601
593.2094, 357.7485
593.6915, 357.4680
594.1736, 358.1445
594.6557, 357.9843
595.1378, 356.3006
595.6199, 355.5043
596.1021, 357.8097
596.5842, 362.0423
597.0663, 366.5455
597.5485, 372.9576
598.0306, 377.1719
598.5127, 376.9996
598.9948, 373.2884
599.4769, 369.7425
599.9590, 366.1353
600.4412, 363.2474
600.9233, 361.4713
601.4054, 360.8637
601.8875, 360.0746
602.3696, 358.6012
602.8517, 358.2083
603.3339, 361.2012
603.8160, 367.2532
604.2981, 371.8072
604.7802, 374.2717
605.2623, 375.3110
605.7444, 375.7995
606.2266, 375.5183
606.7087, 373.8093
607.1908, 368.8795
607.6729, 364.0264
608.1550, 361.3987
608.6371, 360.9173
609.1193, 362.2334
609.6014, 368.5733
610.0835, 373.7949
610.5656, 374.1475
611.0477, 368.5980
611.5298, 364.6421
612.0120, 363.0042
612.4941, 362.5749
612.9762, 362.8494
613.4583, 364.1887
613.9404, 364.7956
614.4225, 364.2708
614.9047, 363.5742
615.3868, 364.1469
615.8689, 365.9187
616.3510, 368.1279
616.8331, 371.4392
617.3152, 373.9156
617.7974, 370.2810
618.2795, 362.5608
618.7616, 358.4022
619.2437, 366.1671
619.7258, 376.0064
620.2079, 380.3420
620.6901, 378.7665
621.1722, 376.8853
621.6543, 377.1006
622.1364, 377.3165
622.6185, 375.8738
623.1006, 370.5581
623.5828, 368.4717
624.0649, 371.3283
624.5470, 375.8423
625.0291, 378.0802
625.5112, 377.6838
625.9933, 376.6884
626.4755, 374.9041
626.9576, 373.4782
627.4397, 376.0741
627.9218, 382.0041
628.4039, 386.0199
628.8860, 383.4077
629.3682, 378.5052
629.8503, 378.1130
630.3324, 381.5251
630.8145, 383.2833
631.2966, 378.3408
631.7787, 371.8952
632.2609, 367.5005
632.7430, 365.8502
633.2251, 365.3329
633.7072, 365.0864
634.1893, 366.2513
634.6714, 370.1126
635.1536, 379.0171
635.6357, 385.5127
636.1178, 389.0114
636.5999, 389.8557
637.0820, 388.0852
637.5641, 383.6114
638.0463, 378.6269
638.5284, 373.1193
639.0105, 368.1261
639.4926, 366.1790
639.9747, 366.8360
640.4568, 367.5726
640.9390, 366.0616
641.4211, 364.4411
641.9032, 365.6938
642.3853, 370.0103
642.8674, 371.9384
643.3495, 365.5544
643.8317, 358.5254
644.3138, 356.2631
644.7959, 362.2826
645.2780, 367.6613
645.7601, 372.3441
646.2422, 376.4191
646.7244, 380.1311
647.2065, 383.5760
647.6886, 385.9987
648.1707, 387.2157
648.6528, 387.3772
649.1349, 386.0644
649.6171, 383.6020
650.0992, 382.2358
650.5813, 384.5946
651.0634, 387.6397
651.5455, 386.5952
652.0276, 382.3693
652.5098, 379.8950
652.9919, 384.3884
653.4740, 389.4445
653.9561, 390.2325
654.4382, 385.1009
654.9203, 383.0872
655.4025, 389.0769
655.8846, 395.4373
656.3667, 396.4526
656.8488, 388.9969
657.3309, 386.0321
657.8130, 389.2492
658.2952, 394.7392
658.7773, 397.2113
659.2594, 396.8623
659.7415, 395.5441
660.2236, 392.9960
660.7057, 390.9498
661.1879, 392.1342
661.6700, 395.8862
662.1521, 400.3652
662.6342, 407.4947
663.1163, 412.6317
663.5984, 411.7484
664.0806, 405.5289
664.5627, 399.9595
665.0448, 396.0424
665.5269, 393.6077
666.0090, 392.4230
666.4911, 392.3896
666.9733, 395.1486
667.4554, 402.9273
667.9375, 409.0811
668.4196, 405.3896
668.9017, 392.3969
669.3839, 388.6745
669.8660, 397.1935
670.3481, 408.8114
670.8302, 412.9804
671.3123, 412.2138
671.7944, 412.0790
672.2766, 415.4154
672.7587, 417.9893
673.2408, 415.3773
673.7229, 410.2173
674.2050, 407.6230
674.6871, 410.8228
675.1693, 414.8249
675.6514, 418.9920
676.1335, 423.0531
676.6156, 425.4924
677.0977, 426.0263
677.5798, 425.5579
678.0620, 424.1735
678.5441, 421.9987
679.0262, 420.3162
679.5083, 419.1128
679.9904, 418.3953
680.4725, 418.2552
680.9547, 418.5725
681.4368, 419.1963
681.9189, 420.1259
682.4010, 421.1548
682.8831, 422.2171
683.3652, 423.2653
683.8474, 424.1808
684.3295, 424.1573
684.8116, 425.2552
685.2937, 429.5854
685.7758, 434.3878
686.2579, 435.7787
686.7401, 432.4167
687.2222, 429.2251
687.7043, 426.8121
688.1864, 425.3425
688.6685, 425.3583
689.1506, 426.8147
689.6328, 429.0392
690.1149, 432.9968
690.5970, 436.7431
691.0791, 436.7330
691.5612, 433.6021
692.0433, 430.6186
692.5255, 428.7495
693.0076, 428.1684
693.4897, 429.0125
693.9718, 431.3123
694.4539, 434.8328
694.9360, 441.8494
695.4182, 447.9046
695.9003, 449.9379
696.3824, 446.0157
696.8645, 447.0312
697.3466, 454.7376
697.8287, 462.7809
698.3109, 462.9027
698.7930, 456.8092
699.2751, 453.8939
699.7572, 456.3820
700.2393, 460.2118
700.7214, 459.9487
701.2036, 458.3747
701.6857, 460.2435
702.1678, 473.3954
702.6499, 483.0957
703.1320, 479.3849
703.6141, 468.2709
704.0963, 465.1229
704.5784, 475.9065
705.0605, 486.6794
705.5426, 494.9674
706.0247, 500.9718
706.5068, 504.8488
706.9890, 506.2984
707.4711, 508.3160
707.9532, 513.5234
708.4353, 520.1886
708.9174, 523.0920
709.3995, 522.6069
709.8817, 522.2468
710.3638, 523.2106
710.8459, 526.1577
711.3280, 532.1161
711.8101, 541.5256
712.2922, 551.1927
712.7744, 560.8798
713.2565, 570.0942
713.7386, 578.5437
714.2207, 585.6959
714.7028, 593.4456
715.1849, 601.8124
715.6671, 610.8796
716.1492, 620.1827
716.6313, 629.9227
717.1134, 644.1529
717.5955, 664.2920
718.0776, 686.3226
718.5598, 703.7095
719.0419, 719.3826
719.5240, 739.0586
720.0061, 768.7516
720.4882, 798.2713
720.9703, 822.9203
721.4525, 844.1880
721.9346, 865.5658
722.4167, 887.0797
722.8988, 909.5082
723.3809, 931.6738
723.8630, 955.0102
724.3452, 986.5963
724.8273, 1027.427
725.3094, 1068.482
725.7915, 1104.563
726.2736, 1137.830
726.7557, 1173.546
727.2379, 1211.595
727.7200, 1251.080
728.2021, 1291.992
728.6842, 1333.520
729.1663, 1375.638
729.6484, 1418.160
730.1306, 1460.578
730.6127, 1503.969
731.0948, 1546.124
731.5769, 1585.814
732.0590, 1622.620
732.5411, 1660.216
733.0233, 1698.762
733.5054, 1737.744
733.9875, 1781.714
734.4696, 1828.101
734.9517, 1852.833
735.4338, 1850.546
735.9160, 1844.019
736.3981, 1860.573
736.8802, 1886.517
737.3623, 1902.155
737.8444, 1902.980
738.3266, 1891.330
738.8087, 1861.881
739.2908, 1822.412
739.7729, 1785.115
740.2551, 1758.352
740.7372, 1719.111
741.2193, 1661.720
741.7014, 1593.030
742.1835, 1525.683
742.6656, 1459.950
743.1478, 1397.123
743.6299, 1337.543
744.1120, 1280.440
744.5941, 1223.772
745.0762, 1168.695
745.5583, 1116.944
746.0405, 1070.821
746.5226, 1027.588
747.0047, 986.6006
747.4868, 947.6326
747.9689, 910.6409
748.4510, 877.4943
748.9332, 844.1987
749.4153, 808.0525
749.8974, 769.9865
750.3795, 740.2593
750.8616, 719.8613
751.3438, 700.8925
751.8259, 676.2039
752.3080, 649.8639
752.7901, 632.6808
753.2722, 624.4844
753.7543, 615.8043
754.2365, 599.5565
754.7186, 580.7270
755.2007, 561.9204
755.6828, 542.0936
756.1649, 529.8849
756.6470, 536.1884
757.1292, 541.9938
757.6113, 534.4020
758.0934, 508.6306
758.5755, 491.6384
759.0576, 484.7849
759.5397, 481.7060
760.0219, 476.1620
760.5040, 468.8841
760.9861, 462.5132
761.4682, 457.7275
761.9503, 452.7100
762.4324, 443.8835
762.9146, 434.8896
763.3967, 430.2191
763.8788, 434.8656
764.3609, 437.5079
764.8430, 434.8709
765.3251, 430.1276
765.8073, 426.8878
766.2894, 425.8169
766.7715, 423.3238
767.2536, 418.1484
767.7357, 412.8373
768.2178, 413.0897
768.7000, 417.3179
769.1821, 418.8462
769.6642, 414.8618
770.1463, 408.5036
770.6284, 401.1567
771.1105, 393.5582
771.5927, 387.1335
772.0748, 379.2885
772.5569, 376.3815
773.0390, 383.4428
773.5211, 395.7136
774.0032, 400.7626
774.4854, 396.7851
774.9675, 392.2220
775.4496, 389.1817
775.9317, 387.5290
776.4138, 387.4283
776.8959, 388.6146
777.3781, 389.6426
777.8602, 390.9416
778.3423, 390.8008
778.8244, 386.5734
779.3065, 379.3225
779.7886, 373.5500
780.2708, 369.0074
780.7529, 368.1512
781.2350, 373.9875
781.7171, 385.1372
782.1992, 387.3429
782.6813, 378.1811
783.1635, 369.6270
783.6456, 368.0161
784.1277, 371.6833
784.6098, 376.3676
785.0919, 381.7825
785.5740, 385.3373
786.0562, 383.6892
786.5383, 380.7229
787.0204, 379.9653
787.5025, 381.6101
787.9846, 382.3596
788.4667, 381.2952
788.9489, 379.2142
789.4310, 375.7241
789.9131, 370.6029
790.3952, 369.6136
790.8773, 373.7847
791.3594, 377.3247
791.8416, 374.0302
792.3237, 367.0013
792.8058, 365.6579
793.2879, 370.3313
793.7700, 373.6743
794.2521, 367.1563
794.7343, 359.4557
795.2164, 358.8914
795.6985, 368.8993
796.1806, 374.3245
796.6627, 368.5152
797.1448, 363.3844
797.6270, 368.7176
798.1091, 387.1408
798.5912, 393.4312
799.0733, 385.9450
799.5554, 374.5301
800.0375, 366.4125
800.5197, 361.8613
801.0018, 362.4664
801.4839, 369.0378
801.9660, 375.7078
802.4481, 380.9020
802.9302, 383.4118
803.4124, 381.6274
803.8945, 371.3913
804.3766, 365.8414
804.8587, 366.4788
805.3408, 369.8310
805.8229, 374.4874
806.3051, 380.3993
806.7872, 378.1172
807.2693, 365.4311
807.7514, 353.1082
808.2335, 354.0947
808.7156, 361.9580
809.1978, 366.6627
809.6799, 364.9269
810.1620, 364.0210
810.6441, 369.7657
811.1262, 376.1611
811.6083, 376.8238
812.0905, 366.8566
812.5726, 362.8214
813.0547, 367.1149
813.5368, 373.4177
814.0189, 372.7260
814.5010, 366.7867
814.9832, 367.3910
815.4653, 378.0514
815.9474, 387.3961
816.4295, 382.6309
816.9116, 371.3828
817.3937, 363.2539
817.8759, 362.7912
818.3580, 361.2559
818.8401, 352.1090
819.3222, 344.3524
819.8043, 348.2856
820.2864, 367.9197
820.7686, 380.7257
821.2507, 384.2042
821.7328, 381.7734
822.2149, 374.5303
822.6970, 365.0401
823.1791, 360.1743
823.6613, 362.6142
824.1434, 366.2185
824.6255, 366.3033
825.1076, 365.6131
825.5897, 367.2019
826.0718, 377.5474
826.5540, 381.0894
827.0361, 374.4221
827.5182, 364.8982
828.0003, 361.6941
828.4824, 364.7487
828.9645, 366.6365
829.4467, 366.1766
829.9288, 364.7331
830.4109, 362.4142
830.8930, 360.6008
831.3751, 361.8993
831.8572, 369.0887
832.3394, 374.5634
832.8215, 374.3698
833.3036, 371.8307
833.7857, 370.9408
834.2678, 373.0642
834.7499, 372.3253
835.2321, 367.1311
835.7142, 361.9176
836.1963, 363.9155
836.6784, 370.8347
837.1605, 373.3563
837.6426, 368.5251
838.1248, 364.4931
838.6069, 370.0728
839.0890, 378.7324
839.5711, 383.0638
840.0532, 378.6237
840.5353, 375.1799
841.0175, 374.2913
841.4996, 373.6581
841.9817, 369.6078
842.4638, 361.7444
842.9459, 361.3362
843.4280, 370.7759
843.9102, 380.7654
844.3923, 380.1302
844.8744, 373.5039
845.3565, 367.9468
845.8386, 364.5612
846.3207, 363.3474
846.8029, 367.2511
847.2850, 371.4261
847.7671, 371.1812
848.2492, 363.0732
848.7313, 360.0624
849.2134, 363.1555
849.6956, 368.8480
850.1777, 375.5057
850.6598, 381.9897
851.1419, 383.4236
851.6240, 378.7845
852.1061, 373.7276
852.5883, 370.7273
853.0704, 370.4040
853.5525, 374.4582
854.0346, 386.5059
854.5167, 391.6501
854.9988, 385.2812
855.4810, 376.9742
855.9631, 373.3232
856.4452, 374.3870
856.9273, 376.6284
857.4094, 380.0521
857.8915, 383.3138
858.3737, 385.9478
858.8558, 387.3210
859.3379, 386.0561
859.8200, 381.8141
860.3021, 377.9236
860.7842, 375.2123
861.2664, 373.7194
861.7485, 373.9165
862.2306, 376.1866
862.7127, 375.8551
863.1948, 372.3438
863.6769, 368.7650
864.1591, 367.0076
864.6412, 366.8861
865.1233, 367.7614
865.6054, 369.6662
866.0875, 373.1790
866.5696, 382.5765
867.0518, 390.4464
867.5339, 391.1508
868.0160, 383.9091
868.4981, 377.8227
868.9802, 371.4956
869.4623, 369.4455
869.9445, 376.0078
870.4266, 388.4875
870.9087, 394.0243
871.3908, 393.1429
871.8729, 390.8015
872.3550, 388.6522
872.8372, 387.4567
873.3193, 388.5818
873.8014, 391.5258
874.2835, 393.4324
874.7656, 394.7533
875.2477, 393.3226
875.7299, 386.8708
876.2120, 377.6057
876.6941, 374.6039
877.1762, 377.8513
877.6583, 381.6507
878.1404, 383.1785
878.6226, 384.3033
879.1047, 389.4077
879.5869, 396.1152
880.0690, 398.4453
880.5511, 386.8388
881.0332, 379.0122
881.5153, 383.7802
881.9974, 394.4833
882.4796, 397.4586
882.9617, 391.4162
883.4438, 384.4787
883.9259, 377.7144
884.4080, 372.7430
884.8901, 373.7459
885.3723, 378.4943
885.8544, 381.8552
886.3365, 382.1946
886.8186, 380.5393
887.3007, 374.4841
887.7828, 367.9029
888.2650, 366.5093
888.7471, 373.0445
889.2292, 377.2632
889.7113, 377.6083
890.1934, 377.0999
890.6755, 380.1957
891.1577, 385.7066
891.6398, 390.5678
892.1219, 394.6385
892.6040, 395.5014
893.0861, 388.9225
893.5682, 379.8151
894.0504, 372.4167
894.5325, 366.2825
895.0146, 365.2147
895.4967, 370.7802
895.9788, 378.4979
896.4609, 386.3190
896.9431, 393.4763
897.4252, 392.1759
897.9073, 381.8736
898.3894, 375.5374
898.8715, 390.2396
899.3536, 407.8894
899.8358, 411.3388
900.3179, 397.5445
900.8000, 388.6241
901.2821, 390.2273
901.7642, 391.9720
902.2463, 388.0255
902.7285, 379.8161
903.2106, 379.2303
903.6927, 385.9537
904.1748, 391.5132
904.6569, 389.2798
905.1390, 384.4712
905.6212, 382.4417
906.1033, 382.5818
906.5854, 381.6292
907.0675, 376.2346
907.5496, 372.6490
908.0317, 372.4723
908.5139, 375.0366
908.9960, 379.4093
909.4781, 385.5846
909.9602, 388.9383
910.4423, 386.6099
910.9244, 382.6599
911.4066, 380.9258
911.8887, 381.3275
912.3708, 383.7210
912.8529, 392.5281
913.3350, 397.4552
913.8171, 394.4099
914.2993, 388.3449
914.7814, 385.8987
915.2635, 387.3765
915.7456, 388.2838
916.2277, 387.8004
916.7098, 387.4464
917.1920, 390.1387
917.6741, 393.6523
918.1562, 394.0566
918.6383, 389.0663
919.1204, 386.3966
919.6025, 392.8182
920.0847, 398.6616
920.5668, 396.1840
921.0489, 383.2215
921.5310, 378.2016
922.0131, 381.8583
922.4952, 387.3528
922.9774, 389.5053
923.4595, 389.8136
923.9416, 391.0378
924.4237, 393.1118
924.9058, 392.8863
925.3879, 384.7655
925.8701, 378.6533
926.3522, 379.7808
926.8343, 386.9129
927.3164, 389.1165
927.7985, 385.6558
928.2806, 384.3205
928.7628, 390.7965
929.2449, 399.4477
929.7270, 400.5898
930.2091, 396.5887
930.6912, 393.8876
931.1733, 396.6410
931.6555, 399.3094
932.1376, 399.9152
932.6197, 399.5559
933.1018, 400.5107
933.5839, 403.3010
934.0660, 402.7160
934.5482, 396.5284
935.0303, 390.6956
935.5124, 396.4245
935.9945, 406.9056
936.4766, 409.1658
936.9587, 396.1071
937.4409, 386.2535
937.9230, 389.1779
938.4051, 394.8159
938.8872, 394.9093
939.3693, 387.7586
939.8514, 385.6474
940.3336, 389.1635
940.8157, 393.6696
941.2978, 396.2562
941.7799, 396.9544
942.2620, 395.0499
942.7441, 390.7343
943.2263, 387.1912
943.7084, 384.7033
944.1905, 384.5031
944.6726, 387.8472
945.1547, 393.9382
945.6368, 397.5775
946.1190, 398.6620
946.6011, 399.5982
947.0832, 402.2312
947.5653, 404.4545
948.0474, 402.4463
948.5295, 397.8926
949.0117, 394.7155
949.4938, 394.1400
949.9759, 395.4135
950.4580, 399.4324
950.9401, 404.3159
951.4222, 407.2603
951.9044, 408.2650
952.3865, 408.3392
952.8686, 407.5653
953.3507, 406.2673
953.8328, 404.5121
954.3149, 402.5704
954.7971, 400.3307
955.2792, 396.9566
955.7613, 396.8715
956.2434, 404.2554
956.7255, 410.7437
957.2076, 410.2914
957.6898, 403.1808
958.1719, 399.8755
958.6540, 400.3204
959.1361, 402.4752
959.6182, 407.2930
960.1003, 411.3331
960.5825, 410.8575
961.0646, 406.4651
961.5467, 402.1749
962.0288, 396.8949
962.5109, 394.7229
962.9930, 397.3108
963.4752, 403.0515
963.9573, 409.3312
964.4394, 415.5810
964.9215, 418.2113
965.4036, 414.3228
965.8857, 409.9145
966.3679, 409.2185
966.8500, 411.1476
967.3321, 414.4763
967.8142, 421.8269
968.2963, 424.9478
968.7784, 422.3173
969.2606, 418.4063
969.7427, 418.2021
970.2248, 420.5265
970.7069, 420.8789
971.1890, 418.9416
971.6711, 417.0363
972.1533, 417.6612
972.6354, 418.0296
973.1175, 415.0734
973.5996, 408.9457
974.0817, 407.8148
974.5638, 413.1705
975.0460, 418.2559
975.5281, 420.2319
976.0102, 420.2398
976.4923, 420.0131
976.9744, 419.8554
977.4565, 420.6584
977.9387, 424.0738
978.4208, 427.0378
978.9029, 428.5543
979.3850, 428.9431
979.8671, 428.4133
980.3492, 426.7322
980.8314, 425.4398
981.3135, 424.6509
981.7956, 424.4996
982.2777, 425.7946
982.7598, 427.5118
983.2419, 427.8717
983.7241, 426.3544
984.2062, 425.7299
984.6883, 428.6897
985.1704, 430.7366
985.6525, 429.1491
986.1346, 424.5081
986.6168, 423.8169
987.0989, 426.9177
987.5810, 428.8689
988.0631, 424.3421
988.5452, 419.4519
989.0273, 421.5530
989.5095, 427.8430
989.9916, 431.0459
990.4737, 427.1033
990.9558, 424.0877
991.4379, 422.9317
991.9200, 423.1089
992.4022, 423.6410
992.8843, 424.7668
993.3664, 428.3659
993.8485, 435.4308
994.3306, 440.6182
994.8127, 438.9285
995.2949, 434.6077
995.7770, 430.6269
996.2591, 426.7544
996.7412, 427.1980
997.2233, 433.2457
997.7054, 438.8963
998.1876, 440.2342
998.6697, 438.7198
999.1518, 436.6338
999.6339, 434.4184
1000.116, 433.7872
1000.598, 437.3692
1001.080, 440.5197
1001.562, 441.9021
1002.044, 441.7522
1002.527, 439.6799
1003.009, 435.4050
1003.491, 433.7327
1003.973, 435.8962
1004.455, 439.4133
1004.937, 441.8913
1005.419, 443.9102
1005.901, 446.3083
1006.384, 449.5481
1006.866, 451.6240
1007.348, 450.9999
1007.830, 451.2538
1008.312, 455.7147
1008.794, 462.9614
1009.276, 463.9012
1009.758, 459.1141
1010.240, 453.5556
1010.723, 447.2592
1011.205, 443.9237
1011.687, 448.3125
1012.169, 457.3020
1012.651, 462.5336
1013.133, 463.4866
1013.615, 461.0003
1014.097, 453.7155
1014.580, 446.9802
1015.062, 450.1264
1015.544, 458.6856
1016.026, 464.5403
1016.508, 466.1942
1016.990, 464.8264
1017.472, 455.3839
1017.954, 448.3766
1018.436, 450.9236
1018.919, 462.4118
1019.401, 470.2509
1019.883, 474.4394
1020.365, 475.3657
1020.847, 470.7214
1021.329, 465.0255
1021.811, 462.6539
1022.293, 462.7878
1022.776, 463.3073
1023.258, 462.1233
1023.740, 464.4689
1024.222, 472.0853
1024.704, 481.3653
1025.186, 488.3959
1025.668, 492.9138
1026.150, 491.9826
1026.632, 484.5558
1027.115, 480.8741
1027.597, 491.3910
1028.079, 504.1976
1028.561, 511.2787
1029.043, 512.7845
1029.525, 513.7059
1030.007, 513.8854
1030.489, 514.6371
1030.972, 516.5279
1031.454, 519.3663
1031.936, 524.9558
1032.418, 531.0626
1032.900, 532.8500
1033.382, 521.4775
1033.864, 516.4440
1034.346, 522.0578
1034.828, 531.2042
1035.311, 535.7814
1035.793, 536.5721
1036.275, 537.9384
1036.757, 540.2407
1037.239, 544.7217
1037.721, 556.2429
1038.203, 566.8483
1038.685, 569.8743
1039.167, 565.9252
1039.650, 563.3089
1040.132, 562.3810
1040.614, 560.7804
1041.096, 555.9434
1041.578, 553.1221
1042.060, 563.3110
1042.542, 581.1160
1043.024, 596.6576
1043.507, 606.3279
1043.989, 614.6518
1044.471, 623.5150
1044.953, 630.3439
1045.435, 631.3817
1045.917, 627.4502
1046.399, 630.0352
1046.881, 639.1789
1047.364, 651.1324
1047.846, 668.5367
1048.328, 683.1046
1048.810, 686.7699
1049.292, 682.1717
1049.774, 681.4873
1050.256, 684.4702
1050.738, 693.8145
1051.220, 712.3640
1051.703, 731.1922
1052.185, 733.6645
1052.667, 728.3734
1053.149, 729.7965
1053.631, 741.6432
1054.113, 756.2368
1054.595, 775.5831
1055.077, 792.6059
1055.559, 803.7299
1056.042, 809.3036
1056.524, 808.2852
1057.006, 802.3994
1057.488, 805.7451
1057.970, 838.6469
1058.452, 870.1388
1058.934, 874.9485
1059.416, 866.9883
1059.899, 873.7477
1060.381, 901.7526
1060.863, 922.1452
1061.345, 931.0303
1061.827, 939.0614
1062.309, 957.3944
1062.791, 982.1548
1063.273, 1007.608
1063.755, 1033.444
1064.238, 1060.986
1064.720, 1093.268
1065.202, 1123.932
1065.684, 1148.723
1066.166, 1172.047
1066.648, 1208.825
1067.130, 1255.543
1067.612, 1297.724
1068.094, 1326.457
1068.577, 1360.060
1069.059, 1411.917
1069.541, 1473.016
1070.023, 1534.934
1070.505, 1597.503
1070.987, 1663.527
1071.469, 1734.235
1071.951, 1804.174
1072.434, 1866.503
1072.916, 1929.070
1073.398, 1998.783
1073.880, 2077.510
1074.362, 2170.100
1074.844, 2288.500
1075.326, 2404.219
1075.808, 2511.461
1076.291, 2621.281
1076.773, 2744.865
1077.255, 2885.004
1077.737, 3047.703
1078.219, 3232.021
1078.701, 3434.736
1079.183, 3649.218
1079.665, 3884.604
1080.147, 4144.898
1080.630, 4429.167
1081.112, 4731.258
1081.594, 5052.186
1082.076, 5425.040
1082.558, 5872.642
1083.040, 6356.894
1083.522, 6833.917
1084.004, 7331.266
1084.486, 7886.734
1084.969, 8516.409
1085.451, 9179.941
1085.933, 9868.402
1086.415, 10602.12
1086.897, 11409.87
1087.379, 12264.39
1087.861, 13120.62
1088.343, 13980.52
1088.826, 14860.61
1089.308, 15783.40
1089.790, 16693.29
1090.272, 17593.43
1090.754, 18458.92
1091.236, 19279.40
1091.718, 20035.96
1092.200, 20652.39
1092.682, 21114.44
1093.165, 21404.29
1093.647, 21514.56
1094.129, 21436.13
1094.611, 21156.65
1095.093, 20691.52
1095.575, 20074.16
1096.057, 19301.00
1096.539, 18453.65
1097.022, 17564.42
1097.504, 16646.90
1097.986, 15689.18
1098.468, 14726.58
1098.950, 13820.61
1099.432, 12979.56
1099.914, 12172.20
1100.396, 11406.89
1100.879, 10693.84
1101.361, 10047.83
1101.843, 9462.514
1102.325, 8924.607
1102.807, 8425.016
1103.289, 7942.333
1103.771, 7439.385
1104.253, 6988.629
1104.735, 6605.971
1105.218, 6260.225
1105.700, 5915.470
1106.182, 5571.463
1106.664, 5240.076
1107.146, 4918.449
1107.628, 4618.010
1108.110, 4345.638
1108.592, 4091.890
1109.074, 3858.026
1109.557, 3638.438
1110.039, 3421.291
1110.521, 3204.802
1111.003, 2996.455
1111.485, 2798.062
1111.967, 2616.580
1112.449, 2467.710
1112.931, 2338.382
1113.414, 2213.260
1113.896, 2090.208
1114.378, 1976.818
1114.860, 1873.308
1115.342, 1778.707
1115.824, 1695.617
1116.306, 1618.443
1116.788, 1536.759
1117.271, 1454.469
1117.753, 1379.016
1118.235, 1318.130
1118.717, 1256.219
1119.199, 1186.654
1119.681, 1125.510
1120.163, 1096.507
1120.645, 1087.571
1121.127, 1061.122
1121.609, 1017.247
1122.092, 976.3996
1122.574, 952.4567
1123.056, 929.1869
1123.538, 899.1630
1124.020, 867.9017
1124.502, 848.1215
1124.984, 838.2928
1125.466, 825.0333
1125.949, 805.8837
1126.431, 785.9798
1126.913, 769.0386
1127.395, 752.6559
1127.877, 734.6575
1128.359, 715.3971
1128.841, 697.0882
1129.323, 679.4376
1129.806, 667.6976
1130.288, 665.5670
1130.770, 666.2152
1131.252, 664.7156
1131.734, 660.8732
1132.216, 654.0897
1132.698, 643.4123
1133.180, 632.9744
1133.662, 622.6558
1134.145, 613.3424
1134.627, 605.2389
1135.109, 598.6105
1135.591, 595.4741
1136.073, 594.1255
1136.555, 590.3377
1137.037, 577.4136
1137.519, 570.8311
1138.001, 573.3956
1138.484, 578.4009
1138.966, 579.7531
1139.448, 577.9301
1139.930, 572.7604
1140.412, 564.7674
1140.894, 558.7261
1141.376, 556.9413
1141.858, 557.2485
1142.341, 560.8787
1142.823, 564.2078
1143.305, 560.1293
1143.787, 549.7600
1144.269, 536.1346
1144.751, 518.9024
1145.233, 508.2715
1145.715, 516.2026
1146.198, 526.2839
1146.680, 529.9303
1147.162, 528.0693
1147.644, 523.5714
1148.126, 516.8074
1148.608, 513.4603
1149.090, 516.8593
1149.572, 519.8676
1150.054, 515.3404
1150.536, 509.1031
1151.019, 506.7666
1151.501, 508.6716
1151.983, 511.6295
1152.465, 515.7706
1152.947, 518.0881
1153.429, 515.3649
1153.911, 511.8917
1154.393, 512.3575
1154.876, 514.7366
1155.358, 515.6664
1155.840, 515.7474
1156.322, 510.8329
1156.804, 499.4834
1157.286, 490.6299
1157.768, 494.3050
1158.250, 502.6254
1158.733, 505.9198
1159.215, 505.1104
1159.697, 505.0350
1160.179, 508.3566
1160.661, 507.8178
1161.143, 501.4560
1161.625, 494.2462
1162.107, 492.4713
1162.589, 493.4532
1163.072, 492.3265
1163.554, 488.9229
1164.036, 487.3720
1164.518, 490.6536
1165.000, 492.3450
1165.482, 490.1058
1165.964, 486.8585
1166.446, 489.2345
1166.928, 494.4225
1167.411, 495.4420
1167.893, 490.2126
1168.375, 486.7869
1168.857, 491.5049
1169.339, 493.4942
1169.821, 486.9461
1170.303, 475.9822
1170.785, 472.6945
1171.268, 475.3461
1171.750, 478.5201
1172.232, 481.6384
1172.714, 482.0968
1173.196, 474.3780
1173.678, 468.1006
1174.160, 470.2581
1174.642, 479.1628
1175.125, 484.0700
1175.607, 485.3056
1176.089, 484.3836
1176.571, 480.0073
1177.053, 476.3191
1177.535, 474.2086
1178.017, 474.4497
1178.499, 479.0842
1178.981, 488.0440
1179.464, 492.1210
1179.946, 491.3813
1180.428, 488.5235
1180.910, 481.9068
1181.392, 477.2870
1181.874, 478.7477
1182.356, 483.6889
1182.838, 489.3815
1183.320, 496.0760
1183.803, 495.0238
1184.285, 485.2478
1184.767, 478.2755
1185.249, 488.2724
1185.731, 498.7565
1186.213, 496.5058
1186.695, 485.8415
1187.177, 479.3672
1187.660, 477.3112
1188.142, 476.2516
1188.624, 475.8135
1189.106, 474.9727
1189.588, 471.3320
1190.070, 468.1524
1190.552, 468.0261
1191.034, 470.9386
1191.516, 476.9677
1191.999, 487.0003
1192.481, 490.8519
1192.963, 484.4553
1193.445, 477.0982
1193.927, 480.2108
1194.409, 485.5955
1194.891, 483.3517
1195.373, 472.6617
1195.855, 469.9988
1196.338, 476.4651
1196.820, 481.0186
1197.302, 478.1618
1197.784, 474.0943
1198.266, 478.0190
1198.748, 483.4793
1199.230, 480.1542
1199.712, 463.9418
1200.195, 462.2352
1200.677, 477.4323
1201.159, 490.1989
1201.641, 487.8422
1202.123, 480.7428
1202.605, 482.0864
1203.087, 486.3599
1203.569, 483.6844
1204.052, 468.7710
1204.534, 460.2409
1205.016, 458.5070
1205.498, 460.3054
1205.980, 466.1235
1206.462, 472.0215
1206.944, 472.1986
1207.426, 469.1517
1207.908, 469.0307
1208.391, 474.9177
1208.873, 475.4514
1209.355, 468.9519
1209.837, 463.6465
1210.319, 469.0331
1210.801, 477.4944
1211.283, 479.5106
1211.765, 476.9823
1212.247, 477.9313
1212.730, 485.4827
1213.212, 487.8383
1213.694, 482.8486
1214.176, 477.0254
1214.658, 475.5561
1215.140, 477.4756
1215.622, 483.6763
1216.104, 492.8257
1216.587, 497.3998
1217.069, 496.1084
1217.551, 493.1965
1218.033, 488.8008
1218.515, 485.3241
1218.997, 486.7592
1219.479, 489.6982
1219.961, 490.6999
1220.443, 489.3698
1220.926, 485.5859
1221.408, 478.0385
1221.890, 473.6504
1222.372, 474.2036
1222.854, 477.8354
1223.336, 486.3117
1223.818, 494.0775
1224.300, 493.3345
1224.782, 482.7892
1225.265, 476.0165
1225.747, 473.3711
1226.229, 473.4738
1226.711, 476.9386
1227.193, 480.1210
1227.675, 475.4672
1228.157, 469.8575
1228.639, 473.2873
1229.122, 488.0712
1229.604, 494.9216
1230.086, 493.0435
1230.568, 488.2132
1231.050, 480.5419
1231.532, 475.3307
1232.014, 483.2324
1232.496, 494.6221
1232.979, 496.4247
1233.461, 486.3515
1233.943, 480.6053
1234.425, 479.5275
1234.907, 480.0058
1235.389, 481.9565
1235.871, 482.6032
1236.353, 476.8019
1236.835, 469.3277
1237.318, 466.7144
1237.800, 469.5059
1238.282, 474.1310
1238.764, 480.6992
1239.246, 486.2083
1239.728, 489.9847
1240.210, 490.6239
1240.692, 482.4658
1241.175, 472.8195
1241.657, 472.4291
1242.139, 483.5464
1242.621, 489.8972
1243.103, 491.5169
1243.585, 490.1735
1244.067, 484.8568
1244.549, 479.2773
1245.031, 474.4638
1245.514, 471.8587
1245.996, 473.8102
1246.478, 480.9992
1246.960, 484.1031
1247.442, 483.1553
1247.924, 481.9537
1248.406, 483.6348
1248.888, 484.9735
1249.370, 483.1657
1249.853, 480.5659
1250.335, 480.2506
1250.817, 482.1575
1251.299, 484.8967
1251.781, 488.2977
1252.263, 490.9858
1252.745, 491.8009
1253.227, 492.1000
1253.710, 493.5679
1254.192, 493.9687
1254.674, 488.5404
1255.156, 478.7301
1255.638, 475.5533
1256.120, 479.2462
1256.602, 484.3038
1257.084, 491.3319
1257.567, 494.1670
1258.049, 488.8369
1258.531, 481.3749
1259.013, 480.7192
1259.495, 485.0423
1259.977, 487.3121
1260.459, 487.2921
1260.941, 488.8366
1261.423, 498.2019
1261.906, 502.6153
1262.388, 497.6259
1262.870, 489.3931
1263.352, 486.1499
1263.834, 486.7435
1264.316, 490.0826
1264.798, 495.5367
1265.280, 497.5481
1265.762, 491.5241
1266.245, 486.3896
1266.727, 483.2621
1267.209, 482.5896
1267.691, 487.3432
1268.173, 493.8352
1268.655, 495.3559
1269.137, 491.6604
1269.619, 489.0101
1270.102, 487.8051
1270.584, 488.9050
1271.066, 493.2300
1271.548, 497.3823
1272.030, 497.3413
1272.512, 494.4516
1272.994, 488.4116
1273.476, 480.0426
1273.958, 477.7518
1274.441, 482.6709
1274.923, 489.6762
1275.405, 498.5723
1275.887, 504.8626
1276.369, 501.6046
1276.851, 495.2438
1277.333, 492.0533
1277.815, 491.6449
1278.297, 488.5879
1278.780, 482.6273
1279.262, 480.6029
1279.744, 484.7579
1280.226, 488.9704
1280.708, 486.5623
1281.190, 484.0235
1281.672, 487.3377
1282.154, 494.1654
1282.637, 495.1167
1283.119, 490.9367
1283.601, 488.4337
1284.083, 488.9470
1284.565, 491.9135
1285.047, 501.7934
1285.529, 508.3688
1286.011, 505.7667
1286.494, 497.4140
1286.976, 492.5684
1287.458, 490.3807
1287.940, 488.4482
1288.422, 486.4804
1288.904, 482.9563
1289.386, 471.3369
1289.868, 467.0844
1290.350, 478.1451
1290.833, 495.4450
1291.315, 500.1950
1291.797, 497.7432
1292.279, 499.6440
1292.761, 509.1270
1293.243, 511.6621
1293.725, 503.0682
1294.207, 495.0070
1294.689, 491.0359
1295.172, 489.8647
##END=



