##NAMES=Magnesio-fluoro-hastingsite
##RRUFFID=R141082
##IDEAL CHEMISTRY=NaCa_2_(Mg_4_Fe^3+^)(Si_6_Al_2_)O_22_F_2_
##LOCALITY=Caspar quarry, Bellerberg volcano, Mayen, Eifel, Germany
##OWNER=RRUFF
##SOURCE=Ch. and H. Sch√§fer
##DESCRIPTION=Euhedral brown crystal embedded in matrix
##STATUS=The identification of this mineral has been confirmed only by single crystal X-ray diffraction.
##URL=rruff.info/R141082
8.806445e+001, 1.111980e+003
8.854657e+001, 1.077598e+003
8.902869e+001, 1.065703e+003
8.951080e+001, 1.086603e+003
8.999292e+001, 1.125288e+003
9.047504e+001, 1.168336e+003
9.095715e+001, 1.213265e+003
9.143927e+001, 1.258665e+003
9.192139e+001, 1.303161e+003
9.240350e+001, 1.346726e+003
9.288562e+001, 1.389298e+003
9.336774e+001, 1.421337e+003
9.384985e+001, 1.433514e+003
9.433197e+001, 1.426138e+003
9.481409e+001, 1.419015e+003
9.529620e+001, 1.407399e+003
9.577832e+001, 1.396024e+003
9.626044e+001, 1.385773e+003
9.674255e+001, 1.376729e+003
9.722467e+001, 1.368666e+003
9.770679e+001, 1.361276e+003
9.818890e+001, 1.354722e+003
9.867102e+001, 1.348713e+003
9.915314e+001, 1.343276e+003
9.963525e+001, 1.338424e+003
1.001174e+002, 1.334119e+003
1.005995e+002, 1.330159e+003
1.010816e+002, 1.325972e+003
1.015637e+002, 1.320445e+003
1.020458e+002, 1.315629e+003
1.025280e+002, 1.311334e+003
1.030101e+002, 1.307557e+003
1.034922e+002, 1.304334e+003
1.039743e+002, 1.301696e+003
1.044564e+002, 1.299588e+003
1.049385e+002, 1.298127e+003
1.054207e+002, 1.297990e+003
1.059028e+002, 1.297598e+003
1.063849e+002, 1.295862e+003
1.068670e+002, 1.292796e+003
1.073491e+002, 1.289439e+003
1.078312e+002, 1.286653e+003
1.083134e+002, 1.284417e+003
1.087955e+002, 1.282556e+003
1.092776e+002, 1.281314e+003
1.097597e+002, 1.280344e+003
1.102418e+002, 1.279096e+003
1.107239e+002, 1.277361e+003
1.112061e+002, 1.275630e+003
1.116882e+002, 1.274333e+003
1.121703e+002, 1.273394e+003
1.126524e+002, 1.272633e+003
1.131345e+002, 1.272055e+003
1.136166e+002, 1.271637e+003
1.140988e+002, 1.270995e+003
1.145809e+002, 1.269804e+003
1.150630e+002, 1.268581e+003
1.155451e+002, 1.267734e+003
1.160272e+002, 1.267227e+003
1.165093e+002, 1.266611e+003
1.169915e+002, 1.265204e+003
1.174736e+002, 1.262475e+003
1.179557e+002, 1.260303e+003
1.184378e+002, 1.259085e+003
1.189199e+002, 1.258157e+003
1.194020e+002, 1.256996e+003
1.198842e+002, 1.255438e+003
1.203663e+002, 1.253750e+003
1.208484e+002, 1.252551e+003
1.213305e+002, 1.252257e+003
1.218126e+002, 1.252023e+003
1.222947e+002, 1.252151e+003
1.227769e+002, 1.252240e+003
1.232590e+002, 1.251777e+003
1.237411e+002, 1.250474e+003
1.242232e+002, 1.248457e+003
1.247053e+002, 1.246229e+003
1.251874e+002, 1.243363e+003
1.256696e+002, 1.240788e+003
1.261517e+002, 1.238786e+003
1.266338e+002, 1.237345e+003
1.271159e+002, 1.236432e+003
1.275980e+002, 1.236396e+003
1.280801e+002, 1.236802e+003
1.285623e+002, 1.236238e+003
1.290444e+002, 1.233612e+003
1.295265e+002, 1.230735e+003
1.300086e+002, 1.229622e+003
1.304907e+002, 1.230620e+003
1.309728e+002, 1.231668e+003
1.314550e+002, 1.231255e+003
1.319371e+002, 1.230083e+003
1.324192e+002, 1.229031e+003
1.329013e+002, 1.228403e+003
1.333834e+002, 1.228150e+003
1.338655e+002, 1.228188e+003
1.343477e+002, 1.228821e+003
1.348298e+002, 1.229293e+003
1.353119e+002, 1.229450e+003
1.357940e+002, 1.229250e+003
1.362761e+002, 1.228563e+003
1.367582e+002, 1.227042e+003
1.372404e+002, 1.224645e+003
1.377225e+002, 1.223376e+003
1.382046e+002, 1.224586e+003
1.386867e+002, 1.225806e+003
1.391688e+002, 1.226461e+003
1.396509e+002, 1.226452e+003
1.401331e+002, 1.225850e+003
1.406152e+002, 1.224644e+003
1.410973e+002, 1.222553e+003
1.415794e+002, 1.220923e+003
1.420615e+002, 1.219841e+003
1.425436e+002, 1.219048e+003
1.430258e+002, 1.218541e+003
1.435079e+002, 1.218260e+003
1.439900e+002, 1.217883e+003
1.444721e+002, 1.216870e+003
1.449542e+002, 1.214603e+003
1.454363e+002, 1.213397e+003
1.459185e+002, 1.214383e+003
1.464006e+002, 1.216055e+003
1.468827e+002, 1.216570e+003
1.473648e+002, 1.215297e+003
1.478469e+002, 1.213202e+003
1.483290e+002, 1.211723e+003
1.488112e+002, 1.210746e+003
1.492933e+002, 1.210328e+003
1.497754e+002, 1.210950e+003
1.502575e+002, 1.212211e+003
1.507396e+002, 1.212939e+003
1.512217e+002, 1.212688e+003
1.517039e+002, 1.211812e+003
1.521860e+002, 1.210757e+003
1.526681e+002, 1.209475e+003
1.531502e+002, 1.208379e+003
1.536323e+002, 1.207676e+003
1.541144e+002, 1.207365e+003
1.545966e+002, 1.207704e+003
1.550787e+002, 1.209853e+003
1.555608e+002, 1.212036e+003
1.560429e+002, 1.213072e+003
1.565250e+002, 1.212722e+003
1.570071e+002, 1.211374e+003
1.574893e+002, 1.209255e+003
1.579714e+002, 1.205697e+003
1.584535e+002, 1.203227e+003
1.589356e+002, 1.202551e+003
1.594177e+002, 1.202808e+003
1.598998e+002, 1.203616e+003
1.603820e+002, 1.204813e+003
1.608641e+002, 1.206071e+003
1.613462e+002, 1.206543e+003
1.618283e+002, 1.205216e+003
1.623104e+002, 1.204511e+003
1.627925e+002, 1.205349e+003
1.632747e+002, 1.206634e+003
1.637568e+002, 1.207152e+003
1.642389e+002, 1.206286e+003
1.647210e+002, 1.204357e+003
1.652031e+002, 1.202674e+003
1.656852e+002, 1.201312e+003
1.661674e+002, 1.200123e+003
1.666495e+002, 1.199218e+003
1.671316e+002, 1.198469e+003
1.676137e+002, 1.197627e+003
1.680958e+002, 1.196502e+003
1.685779e+002, 1.195205e+003
1.690601e+002, 1.194410e+003
1.695422e+002, 1.194782e+003
1.700243e+002, 1.194879e+003
1.705064e+002, 1.193827e+003
1.709885e+002, 1.191892e+003
1.714706e+002, 1.190130e+003
1.719528e+002, 1.189170e+003
1.724349e+002, 1.188965e+003
1.729170e+002, 1.188928e+003
1.733991e+002, 1.189440e+003
1.738812e+002, 1.189811e+003
1.743633e+002, 1.189329e+003
1.748455e+002, 1.187968e+003
1.753276e+002, 1.186702e+003
1.758097e+002, 1.186332e+003
1.762918e+002, 1.186427e+003
1.767739e+002, 1.186176e+003
1.772560e+002, 1.184942e+003
1.777382e+002, 1.183630e+003
1.782203e+002, 1.183885e+003
1.787024e+002, 1.186371e+003
1.791845e+002, 1.188213e+003
1.796666e+002, 1.187201e+003
1.801487e+002, 1.184827e+003
1.806309e+002, 1.182899e+003
1.811130e+002, 1.182177e+003
1.815951e+002, 1.182389e+003
1.820772e+002, 1.182842e+003
1.825593e+002, 1.183704e+003
1.830414e+002, 1.184533e+003
1.835236e+002, 1.185465e+003
1.840057e+002, 1.186217e+003
1.844878e+002, 1.186260e+003
1.849699e+002, 1.185037e+003
1.854520e+002, 1.182902e+003
1.859341e+002, 1.182203e+003
1.864163e+002, 1.184970e+003
1.868984e+002, 1.186951e+003
1.873805e+002, 1.186828e+003
1.878626e+002, 1.185272e+003
1.883447e+002, 1.183471e+003
1.888268e+002, 1.182236e+003
1.893090e+002, 1.181555e+003
1.897911e+002, 1.180806e+003
1.902732e+002, 1.179566e+003
1.907553e+002, 1.178693e+003
1.912374e+002, 1.178655e+003
1.917195e+002, 1.179202e+003
1.922017e+002, 1.179726e+003
1.926838e+002, 1.179727e+003
1.931659e+002, 1.179164e+003
1.936480e+002, 1.179185e+003
1.941301e+002, 1.180433e+003
1.946122e+002, 1.181516e+003
1.950944e+002, 1.181961e+003
1.955765e+002, 1.181735e+003
1.960586e+002, 1.180839e+003
1.965407e+002, 1.179095e+003
1.970228e+002, 1.176471e+003
1.975049e+002, 1.174832e+003
1.979871e+002, 1.174100e+003
1.984692e+002, 1.174255e+003
1.989513e+002, 1.175902e+003
1.994334e+002, 1.178828e+003
1.999155e+002, 1.181347e+003
2.003976e+002, 1.181925e+003
2.008798e+002, 1.180634e+003
2.013619e+002, 1.179787e+003
2.018440e+002, 1.179539e+003
2.023261e+002, 1.179719e+003
2.028082e+002, 1.180408e+003
2.032903e+002, 1.181633e+003
2.037725e+002, 1.182685e+003
2.042546e+002, 1.182949e+003
2.047367e+002, 1.182586e+003
2.052188e+002, 1.182024e+003
2.057009e+002, 1.180947e+003
2.061830e+002, 1.179882e+003
2.066652e+002, 1.179599e+003
2.071473e+002, 1.180240e+003
2.076294e+002, 1.181161e+003
2.081115e+002, 1.182378e+003
2.085936e+002, 1.183541e+003
2.090757e+002, 1.183936e+003
2.095579e+002, 1.182396e+003
2.100400e+002, 1.180275e+003
2.105221e+002, 1.180731e+003
2.110042e+002, 1.185133e+003
2.114863e+002, 1.188991e+003
2.119685e+002, 1.189648e+003
2.124506e+002, 1.188478e+003
2.129327e+002, 1.187336e+003
2.134148e+002, 1.186975e+003
2.138969e+002, 1.187310e+003
2.143790e+002, 1.188177e+003
2.148612e+002, 1.190054e+003
2.153433e+002, 1.191682e+003
2.158254e+002, 1.192499e+003
2.163075e+002, 1.192859e+003
2.167896e+002, 1.193190e+003
2.172717e+002, 1.193641e+003
2.177539e+002, 1.194307e+003
2.182360e+002, 1.195683e+003
2.187181e+002, 1.198792e+003
2.192002e+002, 1.201252e+003
2.196823e+002, 1.202229e+003
2.201644e+002, 1.202308e+003
2.206466e+002, 1.202193e+003
2.211287e+002, 1.202232e+003
2.216108e+002, 1.202515e+003
2.220929e+002, 1.203597e+003
2.225750e+002, 1.206997e+003
2.230571e+002, 1.209523e+003
2.235393e+002, 1.210158e+003
2.240214e+002, 1.209678e+003
2.245035e+002, 1.209217e+003
2.249856e+002, 1.209463e+003
2.254677e+002, 1.210264e+003
2.259498e+002, 1.210657e+003
2.264320e+002, 1.210506e+003
2.269141e+002, 1.210079e+003
2.273962e+002, 1.209244e+003
2.278783e+002, 1.208186e+003
2.283604e+002, 1.207161e+003
2.288425e+002, 1.206311e+003
2.293247e+002, 1.205615e+003
2.298068e+002, 1.204938e+003
2.302889e+002, 1.204219e+003
2.307710e+002, 1.203582e+003
2.312531e+002, 1.203048e+003
2.317352e+002, 1.202612e+003
2.322174e+002, 1.202365e+003
2.326995e+002, 1.202414e+003
2.331816e+002, 1.202560e+003
2.336637e+002, 1.201857e+003
2.341458e+002, 1.198709e+003
2.346279e+002, 1.196670e+003
2.351101e+002, 1.197828e+003
2.355922e+002, 1.200680e+003
2.360743e+002, 1.202047e+003
2.365564e+002, 1.200141e+003
2.370385e+002, 1.196175e+003
2.375206e+002, 1.194224e+003
2.380028e+002, 1.195427e+003
2.384849e+002, 1.196373e+003
2.389670e+002, 1.195781e+003
2.394491e+002, 1.194100e+003
2.399312e+002, 1.192196e+003
2.404133e+002, 1.190262e+003
2.408955e+002, 1.188612e+003
2.413776e+002, 1.187988e+003
2.418597e+002, 1.188686e+003
2.423418e+002, 1.189456e+003
2.428239e+002, 1.189824e+003
2.433060e+002, 1.189868e+003
2.437882e+002, 1.189798e+003
2.442703e+002, 1.189681e+003
2.447524e+002, 1.189478e+003
2.452345e+002, 1.189132e+003
2.457166e+002, 1.188632e+003
2.461987e+002, 1.188076e+003
2.466809e+002, 1.187455e+003
2.471630e+002, 1.186803e+003
2.476451e+002, 1.186241e+003
2.481272e+002, 1.185826e+003
2.486093e+002, 1.185484e+003
2.490914e+002, 1.185230e+003
2.495736e+002, 1.185085e+003
2.500557e+002, 1.184626e+003
2.505378e+002, 1.183157e+003
2.510199e+002, 1.181055e+003
2.515020e+002, 1.179989e+003
2.519841e+002, 1.180848e+003
2.524663e+002, 1.182039e+003
2.529484e+002, 1.182126e+003
2.534305e+002, 1.181201e+003
2.539126e+002, 1.180028e+003
2.543947e+002, 1.178769e+003
2.548768e+002, 1.177547e+003
2.553590e+002, 1.177090e+003
2.558411e+002, 1.178115e+003
2.563232e+002, 1.179026e+003
2.568053e+002, 1.178449e+003
2.572874e+002, 1.176774e+003
2.577695e+002, 1.175397e+003
2.582516e+002, 1.175287e+003
2.587338e+002, 1.176245e+003
2.592159e+002, 1.177289e+003
2.596980e+002, 1.178789e+003
2.601801e+002, 1.179758e+003
2.606622e+002, 1.179411e+003
2.611443e+002, 1.178214e+003
2.616265e+002, 1.177193e+003
2.621086e+002, 1.177029e+003
2.625907e+002, 1.177546e+003
2.630728e+002, 1.177979e+003
2.635549e+002, 1.178460e+003
2.640370e+002, 1.178607e+003
2.645192e+002, 1.177935e+003
2.650013e+002, 1.176922e+003
2.654834e+002, 1.176381e+003
2.659655e+002, 1.176884e+003
2.664476e+002, 1.178089e+003
2.669297e+002, 1.178820e+003
2.674119e+002, 1.179033e+003
2.678940e+002, 1.178766e+003
2.683761e+002, 1.177564e+003
2.688582e+002, 1.176126e+003
2.693403e+002, 1.175367e+003
2.698224e+002, 1.175805e+003
2.703046e+002, 1.177018e+003
2.707867e+002, 1.177798e+003
2.712688e+002, 1.177665e+003
2.717509e+002, 1.177987e+003
2.722330e+002, 1.179317e+003
2.727151e+002, 1.181043e+003
2.731973e+002, 1.182606e+003
2.736794e+002, 1.183788e+003
2.741615e+002, 1.184650e+003
2.746436e+002, 1.185256e+003
2.751257e+002, 1.185226e+003
2.756078e+002, 1.185708e+003
2.760900e+002, 1.187355e+003
2.765721e+002, 1.189170e+003
2.770542e+002, 1.190115e+003
2.775363e+002, 1.189947e+003
2.780184e+002, 1.189530e+003
2.785005e+002, 1.190539e+003
2.789827e+002, 1.194287e+003
2.794648e+002, 1.196468e+003
2.799469e+002, 1.195548e+003
2.804290e+002, 1.194198e+003
2.809111e+002, 1.194373e+003
2.813932e+002, 1.196319e+003
2.818754e+002, 1.198742e+003
2.823575e+002, 1.199761e+003
2.828396e+002, 1.198377e+003
2.833217e+002, 1.198536e+003
2.838038e+002, 1.201623e+003
2.842859e+002, 1.204902e+003
2.847681e+002, 1.206878e+003
2.852502e+002, 1.207525e+003
2.857323e+002, 1.207700e+003
2.862144e+002, 1.208223e+003
2.866965e+002, 1.209102e+003
2.871786e+002, 1.210318e+003
2.876608e+002, 1.212611e+003
2.881429e+002, 1.214532e+003
2.886250e+002, 1.215234e+003
2.891071e+002, 1.214998e+003
2.895892e+002, 1.214726e+003
2.900714e+002, 1.215175e+003
2.905535e+002, 1.216358e+003
2.910356e+002, 1.217306e+003
2.915177e+002, 1.217985e+003
2.919998e+002, 1.218472e+003
2.924819e+002, 1.218592e+003
2.929641e+002, 1.218547e+003
2.934462e+002, 1.218760e+003
2.939283e+002, 1.219555e+003
2.944104e+002, 1.220764e+003
2.948925e+002, 1.221260e+003
2.953746e+002, 1.219863e+003
2.958568e+002, 1.219037e+003
2.963389e+002, 1.219748e+003
2.968210e+002, 1.221064e+003
2.973031e+002, 1.221673e+003
2.977852e+002, 1.220937e+003
2.982673e+002, 1.219243e+003
2.987495e+002, 1.217752e+003
2.992316e+002, 1.216220e+003
2.997137e+002, 1.215231e+003
3.001958e+002, 1.214967e+003
3.006779e+002, 1.215158e+003
3.011600e+002, 1.215643e+003
3.016422e+002, 1.216341e+003
3.021243e+002, 1.217084e+003
3.026064e+002, 1.217577e+003
3.030885e+002, 1.217833e+003
3.035706e+002, 1.217754e+003
3.040527e+002, 1.217043e+003
3.045349e+002, 1.216226e+003
3.050170e+002, 1.215706e+003
3.054991e+002, 1.215547e+003
3.059812e+002, 1.215549e+003
3.064633e+002, 1.215456e+003
3.069454e+002, 1.215189e+003
3.074276e+002, 1.215139e+003
3.079097e+002, 1.215455e+003
3.083918e+002, 1.215832e+003
3.088739e+002, 1.216031e+003
3.093560e+002, 1.216109e+003
3.098381e+002, 1.216367e+003
3.103203e+002, 1.217132e+003
3.108024e+002, 1.218471e+003
3.112845e+002, 1.219238e+003
3.117666e+002, 1.218750e+003
3.122487e+002, 1.218480e+003
3.127308e+002, 1.219065e+003
3.132130e+002, 1.220272e+003
3.136951e+002, 1.221514e+003
3.141772e+002, 1.222406e+003
3.146593e+002, 1.223022e+003
3.151414e+002, 1.223874e+003
3.156235e+002, 1.224981e+003
3.161057e+002, 1.226295e+003
3.165878e+002, 1.228269e+003
3.170699e+002, 1.230311e+003
3.175520e+002, 1.231436e+003
3.180341e+002, 1.231187e+003
3.185162e+002, 1.230274e+003
3.189984e+002, 1.230531e+003
3.194805e+002, 1.233372e+003
3.199626e+002, 1.235600e+003
3.204447e+002, 1.236991e+003
3.209268e+002, 1.237871e+003
3.214089e+002, 1.238344e+003
3.218911e+002, 1.238510e+003
3.223732e+002, 1.238757e+003
3.228553e+002, 1.239717e+003
3.233374e+002, 1.241920e+003
3.238195e+002, 1.243524e+003
3.243016e+002, 1.244037e+003
3.247838e+002, 1.244415e+003
3.252659e+002, 1.245299e+003
3.257480e+002, 1.246686e+003
3.262301e+002, 1.248115e+003
3.267122e+002, 1.249135e+003
3.271943e+002, 1.249688e+003
3.276765e+002, 1.250241e+003
3.281586e+002, 1.251001e+003
3.286407e+002, 1.251540e+003
3.291228e+002, 1.251512e+003
3.296049e+002, 1.251120e+003
3.300870e+002, 1.250754e+003
3.305692e+002, 1.250637e+003
3.310513e+002, 1.250815e+003
3.315334e+002, 1.251624e+003
3.320155e+002, 1.254096e+003
3.324976e+002, 1.256079e+003
3.329797e+002, 1.257152e+003
3.334619e+002, 1.257608e+003
3.339440e+002, 1.257826e+003
3.344261e+002, 1.257980e+003
3.349082e+002, 1.258008e+003
3.353904e+002, 1.257753e+003
3.358725e+002, 1.257171e+003
3.363546e+002, 1.256361e+003
3.368367e+002, 1.255307e+003
3.373188e+002, 1.254079e+003
3.378009e+002, 1.252397e+003
3.382831e+002, 1.250365e+003
3.387652e+002, 1.248800e+003
3.392473e+002, 1.249008e+003
3.397294e+002, 1.251936e+003
3.402115e+002, 1.253659e+003
3.406936e+002, 1.253630e+003
3.411758e+002, 1.253056e+003
3.416579e+002, 1.252307e+003
3.421400e+002, 1.251507e+003
3.426221e+002, 1.250692e+003
3.431042e+002, 1.249761e+003
3.435863e+002, 1.248712e+003
3.440685e+002, 1.248888e+003
3.445506e+002, 1.252149e+003
3.450327e+002, 1.254788e+003
3.455148e+002, 1.255863e+003
3.459969e+002, 1.255789e+003
3.464790e+002, 1.255214e+003
3.469612e+002, 1.254449e+003
3.474433e+002, 1.253592e+003
3.479254e+002, 1.252923e+003
3.484075e+002, 1.252299e+003
3.488896e+002, 1.252157e+003
3.493717e+002, 1.252775e+003
3.498539e+002, 1.253709e+003
3.503360e+002, 1.254822e+003
3.508181e+002, 1.256005e+003
3.513002e+002, 1.256734e+003
3.517823e+002, 1.255867e+003
3.522644e+002, 1.252449e+003
3.527466e+002, 1.250598e+003
3.532287e+002, 1.252104e+003
3.537108e+002, 1.253916e+003
3.541929e+002, 1.254500e+003
3.546750e+002, 1.253850e+003
3.551571e+002, 1.252837e+003
3.556393e+002, 1.252197e+003
3.561214e+002, 1.251926e+003
3.566035e+002, 1.251621e+003
3.570856e+002, 1.251631e+003
3.575677e+002, 1.251152e+003
3.580498e+002, 1.249508e+003
3.585320e+002, 1.247269e+003
3.590141e+002, 1.245398e+003
3.594962e+002, 1.244443e+003
3.599783e+002, 1.244150e+003
3.604604e+002, 1.243874e+003
3.609425e+002, 1.243586e+003
3.614247e+002, 1.243378e+003
3.619068e+002, 1.243577e+003
3.623889e+002, 1.243700e+003
3.628710e+002, 1.243191e+003
3.633531e+002, 1.241875e+003
3.638352e+002, 1.240364e+003
3.643174e+002, 1.239352e+003
3.647995e+002, 1.238865e+003
3.652816e+002, 1.238582e+003
3.657637e+002, 1.238774e+003
3.662458e+002, 1.238855e+003
3.667279e+002, 1.238495e+003
3.672101e+002, 1.237687e+003
3.676922e+002, 1.236546e+003
3.681743e+002, 1.235025e+003
3.686564e+002, 1.233203e+003
3.691385e+002, 1.231391e+003
3.696206e+002, 1.229414e+003
3.701028e+002, 1.227804e+003
3.705849e+002, 1.227109e+003
3.710670e+002, 1.226944e+003
3.715491e+002, 1.226638e+003
3.720312e+002, 1.225835e+003
3.725133e+002, 1.224893e+003
3.729955e+002, 1.224324e+003
3.734776e+002, 1.224159e+003
3.739597e+002, 1.224117e+003
3.744418e+002, 1.224568e+003
3.749239e+002, 1.224755e+003
3.754060e+002, 1.223460e+003
3.758882e+002, 1.220159e+003
3.763703e+002, 1.217189e+003
3.768524e+002, 1.216300e+003
3.773345e+002, 1.217133e+003
3.778166e+002, 1.218441e+003
3.782987e+002, 1.220465e+003
3.787809e+002, 1.221904e+003
3.792630e+002, 1.220830e+003
3.797451e+002, 1.217579e+003
3.802272e+002, 1.214668e+003
3.807093e+002, 1.212727e+003
3.811914e+002, 1.211672e+003
3.816736e+002, 1.211625e+003
3.821557e+002, 1.212623e+003
3.826378e+002, 1.213864e+003
3.831199e+002, 1.214949e+003
3.836020e+002, 1.215789e+003
3.840841e+002, 1.216178e+003
3.845663e+002, 1.216104e+003
3.850484e+002, 1.215589e+003
3.855305e+002, 1.214192e+003
3.860126e+002, 1.212283e+003
3.864947e+002, 1.211086e+003
3.869768e+002, 1.211203e+003
3.874590e+002, 1.212097e+003
3.879411e+002, 1.212742e+003
3.884232e+002, 1.213270e+003
3.889053e+002, 1.213270e+003
3.893874e+002, 1.211916e+003
3.898695e+002, 1.210344e+003
3.903517e+002, 1.210104e+003
3.908338e+002, 1.211431e+003
3.913159e+002, 1.212990e+003
3.917980e+002, 1.213420e+003
3.922801e+002, 1.212557e+003
3.927622e+002, 1.211759e+003
3.932444e+002, 1.211129e+003
3.937265e+002, 1.210467e+003
3.942086e+002, 1.209643e+003
3.946907e+002, 1.208705e+003
3.951728e+002, 1.207792e+003
3.956549e+002, 1.207011e+003
3.961371e+002, 1.206279e+003
3.966192e+002, 1.205280e+003
3.971013e+002, 1.203545e+003
3.975834e+002, 1.202128e+003
3.980655e+002, 1.201143e+003
3.985476e+002, 1.200493e+003
3.990298e+002, 1.200265e+003
3.995119e+002, 1.200409e+003
3.999940e+002, 1.200475e+003
4.004761e+002, 1.199792e+003
4.009582e+002, 1.198036e+003
4.014403e+002, 1.196680e+003
4.019225e+002, 1.195898e+003
4.024046e+002, 1.195294e+003
4.028867e+002, 1.194842e+003
4.033688e+002, 1.194424e+003
4.038509e+002, 1.193789e+003
4.043330e+002, 1.192718e+003
4.048152e+002, 1.191325e+003
4.052973e+002, 1.190275e+003
4.057794e+002, 1.189831e+003
4.062615e+002, 1.189341e+003
4.067436e+002, 1.188542e+003
4.072257e+002, 1.187709e+003
4.077079e+002, 1.187239e+003
4.081900e+002, 1.187233e+003
4.086721e+002, 1.187217e+003
4.091542e+002, 1.186518e+003
4.096363e+002, 1.185036e+003
4.101184e+002, 1.183383e+003
4.106006e+002, 1.180963e+003
4.110827e+002, 1.179001e+003
4.115648e+002, 1.178492e+003
4.120469e+002, 1.179074e+003
4.125290e+002, 1.179459e+003
4.130111e+002, 1.178668e+003
4.134933e+002, 1.177078e+003
4.139754e+002, 1.175971e+003
4.144575e+002, 1.175599e+003
4.149396e+002, 1.175056e+003
4.154217e+002, 1.173347e+003
4.159038e+002, 1.171440e+003
4.163860e+002, 1.170653e+003
4.168681e+002, 1.171584e+003
4.173502e+002, 1.172676e+003
4.178323e+002, 1.172347e+003
4.183144e+002, 1.170747e+003
4.187965e+002, 1.169101e+003
4.192787e+002, 1.167420e+003
4.197608e+002, 1.166215e+003
4.202429e+002, 1.166549e+003
4.207250e+002, 1.168245e+003
4.212071e+002, 1.168865e+003
4.216892e+002, 1.166318e+003
4.221714e+002, 1.162799e+003
4.226535e+002, 1.161704e+003
4.231356e+002, 1.163283e+003
4.236177e+002, 1.164490e+003
4.240998e+002, 1.163001e+003
4.245819e+002, 1.159517e+003
4.250641e+002, 1.157361e+003
4.255462e+002, 1.157295e+003
4.260283e+002, 1.157562e+003
4.265104e+002, 1.157407e+003
4.269925e+002, 1.157065e+003
4.274746e+002, 1.157031e+003
4.279568e+002, 1.157490e+003
4.284389e+002, 1.158171e+003
4.289210e+002, 1.158729e+003
4.294031e+002, 1.159309e+003
4.298852e+002, 1.159220e+003
4.303673e+002, 1.157795e+003
4.308495e+002, 1.156235e+003
4.313316e+002, 1.155536e+003
4.318137e+002, 1.155544e+003
4.322958e+002, 1.155272e+003
4.327779e+002, 1.153906e+003
4.332600e+002, 1.151681e+003
4.337422e+002, 1.150544e+003
4.342243e+002, 1.151699e+003
4.347064e+002, 1.152534e+003
4.351885e+002, 1.152779e+003
4.356706e+002, 1.152521e+003
4.361527e+002, 1.151640e+003
4.366349e+002, 1.150181e+003
4.371170e+002, 1.148745e+003
4.375991e+002, 1.148272e+003
4.380812e+002, 1.149099e+003
4.385633e+002, 1.149648e+003
4.390454e+002, 1.149967e+003
4.395276e+002, 1.149946e+003
4.400097e+002, 1.149700e+003
4.404918e+002, 1.149071e+003
4.409739e+002, 1.147533e+003
4.414560e+002, 1.144377e+003
4.419381e+002, 1.140595e+003
4.424203e+002, 1.139384e+003
4.429024e+002, 1.141980e+003
4.433845e+002, 1.143885e+003
4.438666e+002, 1.143296e+003
4.443487e+002, 1.141729e+003
4.448308e+002, 1.140148e+003
4.453130e+002, 1.138732e+003
4.457951e+002, 1.137681e+003
4.462772e+002, 1.137354e+003
4.467593e+002, 1.137599e+003
4.472414e+002, 1.137607e+003
4.477235e+002, 1.137187e+003
4.482057e+002, 1.136741e+003
4.486878e+002, 1.136691e+003
4.491699e+002, 1.136854e+003
4.496520e+002, 1.136793e+003
4.501341e+002, 1.136459e+003
4.506162e+002, 1.135799e+003
4.510984e+002, 1.134527e+003
4.515805e+002, 1.132768e+003
4.520626e+002, 1.131291e+003
4.525447e+002, 1.130348e+003
4.530268e+002, 1.129923e+003
4.535089e+002, 1.130161e+003
4.539911e+002, 1.131196e+003
4.544732e+002, 1.132051e+003
4.549553e+002, 1.132554e+003
4.554374e+002, 1.132740e+003
4.559195e+002, 1.132489e+003
4.564016e+002, 1.131855e+003
4.568838e+002, 1.131351e+003
4.573659e+002, 1.131475e+003
4.578480e+002, 1.132156e+003
4.583301e+002, 1.132085e+003
4.588122e+002, 1.130559e+003
4.592943e+002, 1.129240e+003
4.597765e+002, 1.128634e+003
4.602586e+002, 1.128431e+003
4.607407e+002, 1.128304e+003
4.612228e+002, 1.128121e+003
4.617049e+002, 1.127754e+003
4.621870e+002, 1.126901e+003
4.626692e+002, 1.125163e+003
4.631513e+002, 1.124270e+003
4.636334e+002, 1.125198e+003
4.641155e+002, 1.125982e+003
4.645976e+002, 1.125669e+003
4.650797e+002, 1.124554e+003
4.655619e+002, 1.123428e+003
4.660440e+002, 1.122775e+003
4.665261e+002, 1.122408e+003
4.670082e+002, 1.121676e+003
4.674903e+002, 1.120159e+003
4.679724e+002, 1.119431e+003
4.684546e+002, 1.120806e+003
4.689367e+002, 1.122492e+003
4.694188e+002, 1.123156e+003
4.699009e+002, 1.122687e+003
4.703830e+002, 1.121925e+003
4.708651e+002, 1.121503e+003
4.713473e+002, 1.121299e+003
4.718294e+002, 1.120865e+003
4.723115e+002, 1.120118e+003
4.727936e+002, 1.119289e+003
4.732757e+002, 1.118425e+003
4.737578e+002, 1.117598e+003
4.742400e+002, 1.116983e+003
4.747221e+002, 1.116763e+003
4.752042e+002, 1.116501e+003
4.756863e+002, 1.115608e+003
4.761684e+002, 1.114416e+003
4.766505e+002, 1.114032e+003
4.771327e+002, 1.114899e+003
4.776148e+002, 1.116116e+003
4.780969e+002, 1.116563e+003
4.785790e+002, 1.116134e+003
4.790611e+002, 1.115633e+003
4.795432e+002, 1.114940e+003
4.800254e+002, 1.114343e+003
4.805075e+002, 1.114350e+003
4.809896e+002, 1.114651e+003
4.814717e+002, 1.114153e+003
4.819538e+002, 1.112144e+003
4.824359e+002, 1.109439e+003
4.829181e+002, 1.108393e+003
4.834002e+002, 1.110658e+003
4.838823e+002, 1.112235e+003
4.843644e+002, 1.112722e+003
4.848465e+002, 1.112812e+003
4.853286e+002, 1.113009e+003
4.858108e+002, 1.113328e+003
4.862929e+002, 1.113467e+003
4.867750e+002, 1.113108e+003
4.872571e+002, 1.112326e+003
4.877392e+002, 1.111835e+003
4.882213e+002, 1.111921e+003
4.887035e+002, 1.111807e+003
4.891856e+002, 1.110964e+003
4.896677e+002, 1.110001e+003
4.901498e+002, 1.109642e+003
4.906319e+002, 1.110058e+003
4.911140e+002, 1.110571e+003
4.915962e+002, 1.110449e+003
4.920783e+002, 1.109773e+003
4.925604e+002, 1.109255e+003
4.930425e+002, 1.109026e+003
4.935246e+002, 1.108850e+003
4.940067e+002, 1.108603e+003
4.944889e+002, 1.108283e+003
4.949710e+002, 1.107857e+003
4.954531e+002, 1.107198e+003
4.959352e+002, 1.106573e+003
4.964173e+002, 1.106234e+003
4.968994e+002, 1.106120e+003
4.973816e+002, 1.106043e+003
4.978637e+002, 1.105995e+003
4.983458e+002, 1.105794e+003
4.988279e+002, 1.105020e+003
4.993100e+002, 1.103409e+003
4.997921e+002, 1.102635e+003
5.002743e+002, 1.103505e+003
5.007564e+002, 1.104639e+003
5.012385e+002, 1.105257e+003
5.017206e+002, 1.105355e+003
5.022027e+002, 1.105075e+003
5.026848e+002, 1.104468e+003
5.031670e+002, 1.103692e+003
5.036491e+002, 1.103252e+003
5.041312e+002, 1.103553e+003
5.046133e+002, 1.103521e+003
5.050954e+002, 1.102903e+003
5.055775e+002, 1.102151e+003
5.060597e+002, 1.101378e+003
5.065418e+002, 1.100722e+003
5.070239e+002, 1.100540e+003
5.075060e+002, 1.101292e+003
5.079881e+002, 1.102678e+003
5.084702e+002, 1.103218e+003
5.089524e+002, 1.102600e+003
5.094345e+002, 1.101838e+003
5.099166e+002, 1.101080e+003
5.103987e+002, 1.100438e+003
5.108808e+002, 1.100100e+003
5.113629e+002, 1.100095e+003
5.118451e+002, 1.100061e+003
5.123271e+002, 1.099889e+003
5.128093e+002, 1.099480e+003
5.132914e+002, 1.098297e+003
5.137735e+002, 1.096070e+003
5.142556e+002, 1.094271e+003
5.147377e+002, 1.094134e+003
5.152198e+002, 1.095253e+003
5.157020e+002, 1.096072e+003
5.161841e+002, 1.096648e+003
5.166662e+002, 1.096778e+003
5.171483e+002, 1.095935e+003
5.176304e+002, 1.094705e+003
5.181125e+002, 1.094163e+003
5.185947e+002, 1.094559e+003
5.190768e+002, 1.095141e+003
5.195589e+002, 1.095120e+003
5.200410e+002, 1.094457e+003
5.205231e+002, 1.093529e+003
5.210052e+002, 1.091944e+003
5.214874e+002, 1.090578e+003
5.219695e+002, 1.089228e+003
5.224516e+002, 1.088426e+003
5.229337e+002, 1.089317e+003
5.234158e+002, 1.092233e+003
5.238979e+002, 1.095554e+003
5.243801e+002, 1.096736e+003
5.248622e+002, 1.095333e+003
5.253443e+002, 1.094115e+003
5.258264e+002, 1.093072e+003
5.263085e+002, 1.092338e+003
5.267906e+002, 1.092117e+003
5.272728e+002, 1.092212e+003
5.277549e+002, 1.092284e+003
5.282370e+002, 1.092254e+003
5.287191e+002, 1.092014e+003
5.292012e+002, 1.091177e+003
5.296833e+002, 1.089816e+003
5.301655e+002, 1.089122e+003
5.306476e+002, 1.089672e+003
5.311297e+002, 1.090508e+003
5.316118e+002, 1.090468e+003
5.320939e+002, 1.089684e+003
5.325760e+002, 1.089089e+003
5.330582e+002, 1.089025e+003
5.335403e+002, 1.089076e+003
5.340224e+002, 1.088895e+003
5.345045e+002, 1.088563e+003
5.349866e+002, 1.088354e+003
5.354688e+002, 1.088397e+003
5.359509e+002, 1.088609e+003
5.364330e+002, 1.088863e+003
5.369151e+002, 1.089288e+003
5.373972e+002, 1.089436e+003
5.378793e+002, 1.089314e+003
5.383615e+002, 1.088942e+003
5.388436e+002, 1.088224e+003
5.393257e+002, 1.087270e+003
5.398078e+002, 1.086191e+003
5.402899e+002, 1.084992e+003
5.407720e+002, 1.083999e+003
5.412542e+002, 1.084248e+003
5.417363e+002, 1.086430e+003
5.422184e+002, 1.087478e+003
5.427005e+002, 1.085851e+003
5.431826e+002, 1.083838e+003
5.436647e+002, 1.082736e+003
5.441469e+002, 1.082426e+003
5.446290e+002, 1.082115e+003
5.451111e+002, 1.081527e+003
5.455932e+002, 1.080626e+003
5.460753e+002, 1.078986e+003
5.465574e+002, 1.076667e+003
5.470396e+002, 1.075359e+003
5.475217e+002, 1.076090e+003
5.480038e+002, 1.077614e+003
5.484859e+002, 1.078004e+003
5.489680e+002, 1.077254e+003
5.494501e+002, 1.076162e+003
5.499323e+002, 1.074225e+003
5.504144e+002, 1.072528e+003
5.508965e+002, 1.072320e+003
5.513786e+002, 1.073191e+003
5.518607e+002, 1.073608e+003
5.523428e+002, 1.072726e+003
5.528250e+002, 1.071024e+003
5.533071e+002, 1.069731e+003
5.537892e+002, 1.069558e+003
5.542713e+002, 1.068461e+003
5.547534e+002, 1.064977e+003
5.552355e+002, 1.062010e+003
5.557177e+002, 1.061668e+003
5.561998e+002, 1.063282e+003
5.566819e+002, 1.064779e+003
5.571640e+002, 1.064921e+003
5.576461e+002, 1.064224e+003
5.581282e+002, 1.063808e+003
5.586104e+002, 1.063752e+003
5.590925e+002, 1.063446e+003
5.595746e+002, 1.062479e+003
5.600567e+002, 1.061476e+003
5.605388e+002, 1.061154e+003
5.610209e+002, 1.061387e+003
5.615031e+002, 1.061243e+003
5.619852e+002, 1.059735e+003
5.624673e+002, 1.058149e+003
5.629494e+002, 1.058082e+003
5.634315e+002, 1.059237e+003
5.639136e+002, 1.060016e+003
5.643958e+002, 1.059675e+003
5.648779e+002, 1.058950e+003
5.653600e+002, 1.059202e+003
5.658421e+002, 1.061158e+003
5.663242e+002, 1.061931e+003
5.668063e+002, 1.060470e+003
5.672885e+002, 1.058841e+003
5.677706e+002, 1.058364e+003
5.682527e+002, 1.058607e+003
5.687348e+002, 1.058423e+003
5.692169e+002, 1.057234e+003
5.696990e+002, 1.055636e+003
5.701812e+002, 1.054823e+003
5.706633e+002, 1.055000e+003
5.711454e+002, 1.055159e+003
5.716275e+002, 1.055473e+003
5.721096e+002, 1.055482e+003
5.725917e+002, 1.054617e+003
5.730739e+002, 1.053301e+003
5.735560e+002, 1.052550e+003
5.740381e+002, 1.052995e+003
5.745202e+002, 1.053715e+003
5.750023e+002, 1.053614e+003
5.754844e+002, 1.052837e+003
5.759666e+002, 1.052175e+003
5.764487e+002, 1.051823e+003
5.769308e+002, 1.051634e+003
5.774129e+002, 1.051493e+003
5.778950e+002, 1.051398e+003
5.783771e+002, 1.051241e+003
5.788593e+002, 1.051375e+003
5.793414e+002, 1.051059e+003
5.798235e+002, 1.049243e+003
5.803056e+002, 1.046967e+003
5.807877e+002, 1.046123e+003
5.812698e+002, 1.047206e+003
5.817520e+002, 1.048812e+003
5.822341e+002, 1.049142e+003
5.827162e+002, 1.048045e+003
5.831984e+002, 1.047119e+003
5.836805e+002, 1.046623e+003
5.841626e+002, 1.045975e+003
5.846447e+002, 1.044507e+003
5.851268e+002, 1.043026e+003
5.856089e+002, 1.042640e+003
5.860911e+002, 1.043650e+003
5.865732e+002, 1.045077e+003
5.870553e+002, 1.046539e+003
5.875374e+002, 1.047735e+003
5.880195e+002, 1.047149e+003
5.885016e+002, 1.044306e+003
5.889838e+002, 1.041483e+003
5.894659e+002, 1.040088e+003
5.899480e+002, 1.039805e+003
5.904301e+002, 1.039515e+003
5.909122e+002, 1.039006e+003
5.913943e+002, 1.038910e+003
5.918765e+002, 1.040066e+003
5.923586e+002, 1.041350e+003
5.928407e+002, 1.041298e+003
5.933228e+002, 1.039964e+003
5.938049e+002, 1.038721e+003
5.942870e+002, 1.038649e+003
5.947692e+002, 1.039390e+003
5.952513e+002, 1.039182e+003
5.957334e+002, 1.037082e+003
5.962155e+002, 1.035722e+003
5.966976e+002, 1.035884e+003
5.971797e+002, 1.036360e+003
5.976619e+002, 1.036225e+003
5.981440e+002, 1.035593e+003
5.986261e+002, 1.035314e+003
5.991082e+002, 1.036240e+003
5.995903e+002, 1.037507e+003
6.000724e+002, 1.037269e+003
6.005546e+002, 1.035510e+003
6.010367e+002, 1.034271e+003
6.015188e+002, 1.034454e+003
6.020009e+002, 1.035000e+003
6.024830e+002, 1.034240e+003
6.029651e+002, 1.032200e+003
6.034473e+002, 1.031217e+003
6.039294e+002, 1.032623e+003
6.044115e+002, 1.034202e+003
6.048936e+002, 1.034474e+003
6.053757e+002, 1.033924e+003
6.058578e+002, 1.033690e+003
6.063400e+002, 1.034186e+003
6.068221e+002, 1.034816e+003
6.073042e+002, 1.034710e+003
6.077863e+002, 1.033753e+003
6.082684e+002, 1.032865e+003
6.087505e+002, 1.031956e+003
6.092327e+002, 1.031269e+003
6.097148e+002, 1.030997e+003
6.101969e+002, 1.030944e+003
6.106790e+002, 1.030936e+003
6.111611e+002, 1.030937e+003
6.116432e+002, 1.030719e+003
6.121254e+002, 1.029986e+003
6.126075e+002, 1.028870e+003
6.130896e+002, 1.027730e+003
6.135717e+002, 1.026559e+003
6.140538e+002, 1.025579e+003
6.145359e+002, 1.024960e+003
6.150181e+002, 1.024605e+003
6.155002e+002, 1.024228e+003
6.159823e+002, 1.023712e+003
6.164644e+002, 1.023399e+003
6.169465e+002, 1.023511e+003
6.174286e+002, 1.023729e+003
6.179108e+002, 1.023759e+003
6.183929e+002, 1.023629e+003
6.188750e+002, 1.023601e+003
6.193571e+002, 1.023872e+003
6.198392e+002, 1.024203e+003
6.203214e+002, 1.023920e+003
6.208035e+002, 1.022824e+003
6.212856e+002, 1.021730e+003
6.217677e+002, 1.020617e+003
6.222498e+002, 1.019643e+003
6.227319e+002, 1.018818e+003
6.232141e+002, 1.018201e+003
6.236962e+002, 1.017940e+003
6.241783e+002, 1.018205e+003
6.246604e+002, 1.018656e+003
6.251425e+002, 1.019083e+003
6.256246e+002, 1.019433e+003
6.261068e+002, 1.019545e+003
6.265889e+002, 1.019397e+003
6.270710e+002, 1.018868e+003
6.275531e+002, 1.017658e+003
6.280352e+002, 1.015833e+003
6.285173e+002, 1.014994e+003
6.289995e+002, 1.015754e+003
6.294816e+002, 1.016562e+003
6.299637e+002, 1.017189e+003
6.304458e+002, 1.017655e+003
6.309279e+002, 1.017894e+003
6.314100e+002, 1.017964e+003
6.318922e+002, 1.018141e+003
6.323743e+002, 1.018718e+003
6.328564e+002, 1.019521e+003
6.333385e+002, 1.019860e+003
6.338206e+002, 1.019608e+003
6.343027e+002, 1.019383e+003
6.347849e+002, 1.019384e+003
6.352670e+002, 1.019445e+003
6.357491e+002, 1.019216e+003
6.362312e+002, 1.018772e+003
6.367133e+002, 1.018936e+003
6.371954e+002, 1.020894e+003
6.376776e+002, 1.022728e+003
6.381597e+002, 1.022671e+003
6.386418e+002, 1.021292e+003
6.391239e+002, 1.019950e+003
6.396060e+002, 1.019100e+003
6.400881e+002, 1.018589e+003
6.405703e+002, 1.018206e+003
6.410524e+002, 1.017928e+003
6.415345e+002, 1.018164e+003
6.420166e+002, 1.019807e+003
6.424987e+002, 1.020922e+003
6.429808e+002, 1.020974e+003
6.434630e+002, 1.020411e+003
6.439451e+002, 1.019394e+003
6.444272e+002, 1.018086e+003
6.449093e+002, 1.017315e+003
6.453914e+002, 1.018096e+003
6.458735e+002, 1.019816e+003
6.463557e+002, 1.021040e+003
6.468378e+002, 1.021753e+003
6.473199e+002, 1.022036e+003
6.478020e+002, 1.021746e+003
6.482841e+002, 1.021285e+003
6.487662e+002, 1.021340e+003
6.492484e+002, 1.022002e+003
6.497305e+002, 1.022595e+003
6.502126e+002, 1.022926e+003
6.506947e+002, 1.023309e+003
6.511768e+002, 1.023898e+003
6.516589e+002, 1.024667e+003
6.521411e+002, 1.025604e+003
6.526232e+002, 1.026687e+003
6.531053e+002, 1.027748e+003
6.535874e+002, 1.028622e+003
6.540695e+002, 1.029312e+003
6.545516e+002, 1.029414e+003
6.550338e+002, 1.028116e+003
6.555159e+002, 1.027858e+003
6.559980e+002, 1.031151e+003
6.564801e+002, 1.035326e+003
6.569622e+002, 1.037206e+003
6.574443e+002, 1.036276e+003
6.579265e+002, 1.035545e+003
6.584086e+002, 1.036730e+003
6.588907e+002, 1.038521e+003
6.593728e+002, 1.039470e+003
6.598549e+002, 1.039677e+003
6.603370e+002, 1.039880e+003
6.608192e+002, 1.040404e+003
6.613013e+002, 1.041192e+003
6.617834e+002, 1.042166e+003
6.622655e+002, 1.043427e+003
6.627476e+002, 1.044514e+003
6.632297e+002, 1.044977e+003
6.637119e+002, 1.045780e+003
6.641940e+002, 1.047950e+003
6.646761e+002, 1.050329e+003
6.651582e+002, 1.051197e+003
6.656403e+002, 1.050104e+003
6.661224e+002, 1.048622e+003
6.666046e+002, 1.048058e+003
6.670867e+002, 1.048076e+003
6.675688e+002, 1.047988e+003
6.680509e+002, 1.047759e+003
6.685330e+002, 1.047091e+003
6.690151e+002, 1.045708e+003
6.694973e+002, 1.044002e+003
6.699794e+002, 1.042826e+003
6.704615e+002, 1.042683e+003
6.709436e+002, 1.041663e+003
6.714257e+002, 1.039055e+003
6.719078e+002, 1.036257e+003
6.723900e+002, 1.033994e+003
6.728721e+002, 1.032036e+003
6.733542e+002, 1.029805e+003
6.738363e+002, 1.027112e+003
6.743184e+002, 1.024515e+003
6.748005e+002, 1.022716e+003
6.752827e+002, 1.021644e+003
6.757648e+002, 1.020776e+003
6.762469e+002, 1.020274e+003
6.767290e+002, 1.019324e+003
6.772111e+002, 1.017311e+003
6.776932e+002, 1.014740e+003
6.781754e+002, 1.012538e+003
6.786575e+002, 1.010796e+003
6.791396e+002, 1.008922e+003
6.796217e+002, 1.006546e+003
6.801038e+002, 1.004182e+003
6.805859e+002, 1.001950e+003
6.810681e+002, 1.000083e+003
6.815502e+002, 9.992204e+002
6.820323e+002, 9.995827e+002
6.825144e+002, 1.000340e+003
6.829965e+002, 1.000380e+003
6.834786e+002, 9.996902e+002
6.839608e+002, 9.984388e+002
6.844429e+002, 9.962112e+002
6.849250e+002, 9.941701e+002
6.854071e+002, 9.928642e+002
6.858892e+002, 9.919412e+002
6.863713e+002, 9.910081e+002
6.868535e+002, 9.900116e+002
6.873356e+002, 9.893116e+002
6.878177e+002, 9.894387e+002
6.882998e+002, 9.896534e+002
6.887819e+002, 9.892197e+002
6.892640e+002, 9.882047e+002
6.897462e+002, 9.868229e+002
6.902283e+002, 9.851379e+002
6.907104e+002, 9.835931e+002
6.911925e+002, 9.829316e+002
6.916746e+002, 9.833286e+002
6.921567e+002, 9.829821e+002
6.926389e+002, 9.808032e+002
6.931210e+002, 9.793846e+002
6.936031e+002, 9.798030e+002
6.940852e+002, 9.810003e+002
6.945673e+002, 9.821075e+002
6.950494e+002, 9.829582e+002
6.955316e+002, 9.833324e+002
6.960137e+002, 9.828813e+002
6.964958e+002, 9.820186e+002
6.969779e+002, 9.814340e+002
6.974600e+002, 9.809787e+002
6.979421e+002, 9.797557e+002
6.984243e+002, 9.773777e+002
6.989064e+002, 9.748041e+002
6.993885e+002, 9.732495e+002
6.998706e+002, 9.727950e+002
7.003527e+002, 9.723111e+002
7.008348e+002, 9.717557e+002
7.013170e+002, 9.712255e+002
7.017991e+002, 9.707267e+002
7.022812e+002, 9.702720e+002
7.027633e+002, 9.698913e+002
7.032454e+002, 9.695745e+002
7.037275e+002, 9.692567e+002
7.042097e+002, 9.689188e+002
7.046918e+002, 9.685341e+002
7.051739e+002, 9.680486e+002
7.056560e+002, 9.674684e+002
7.061381e+002, 9.667763e+002
7.066202e+002, 9.658998e+002
7.071024e+002, 9.652892e+002
7.075845e+002, 9.654972e+002
7.080666e+002, 9.665013e+002
7.085487e+002, 9.671078e+002
7.090308e+002, 9.672999e+002
7.095129e+002, 9.671251e+002
7.099951e+002, 9.661937e+002
7.104772e+002, 9.651893e+002
7.109593e+002, 9.646541e+002
7.114414e+002, 9.645993e+002
7.119235e+002, 9.648152e+002
7.124056e+002, 9.653255e+002
7.128878e+002, 9.657581e+002
7.133699e+002, 9.654005e+002
7.138520e+002, 9.643723e+002
7.143341e+002, 9.635778e+002
7.148162e+002, 9.632408e+002
7.152983e+002, 9.628652e+002
7.157805e+002, 9.619704e+002
7.162626e+002, 9.607020e+002
7.167447e+002, 9.598771e+002
7.172268e+002, 9.594796e+002
7.177089e+002, 9.595248e+002
7.181910e+002, 9.606863e+002
7.186732e+002, 9.617237e+002
7.191553e+002, 9.615586e+002
7.196374e+002, 9.605349e+002
7.201195e+002, 9.596978e+002
7.206016e+002, 9.595760e+002
7.210837e+002, 9.596334e+002
7.215659e+002, 9.591084e+002
7.220480e+002, 9.581115e+002
7.225301e+002, 9.572505e+002
7.230122e+002, 9.565786e+002
7.234943e+002, 9.560223e+002
7.239764e+002, 9.554354e+002
7.244586e+002, 9.550042e+002
7.249407e+002, 9.553381e+002
7.254228e+002, 9.572032e+002
7.259049e+002, 9.579066e+002
7.263870e+002, 9.558849e+002
7.268691e+002, 9.540909e+002
7.273513e+002, 9.544584e+002
7.278334e+002, 9.560844e+002
7.283155e+002, 9.574737e+002
7.287976e+002, 9.581016e+002
7.292797e+002, 9.580273e+002
7.297618e+002, 9.569420e+002
7.302440e+002, 9.552002e+002
7.307261e+002, 9.540816e+002
7.312082e+002, 9.536388e+002
7.316903e+002, 9.535480e+002
7.321724e+002, 9.537635e+002
7.326545e+002, 9.541267e+002
7.331367e+002, 9.544320e+002
7.336188e+002, 9.546855e+002
7.341009e+002, 9.548232e+002
7.345830e+002, 9.548942e+002
7.350651e+002, 9.547942e+002
7.355472e+002, 9.542626e+002
7.360294e+002, 9.536647e+002
7.365115e+002, 9.534987e+002
7.369936e+002, 9.537707e+002
7.374757e+002, 9.539805e+002
7.379578e+002, 9.536768e+002
7.384399e+002, 9.531415e+002
7.389221e+002, 9.530912e+002
7.394042e+002, 9.534666e+002
7.398863e+002, 9.532181e+002
7.403684e+002, 9.518954e+002
7.408505e+002, 9.506570e+002
7.413326e+002, 9.507161e+002
7.418148e+002, 9.519203e+002
7.422969e+002, 9.525114e+002
7.427790e+002, 9.522115e+002
7.432611e+002, 9.517365e+002
7.437432e+002, 9.506920e+002
7.442253e+002, 9.499006e+002
7.447075e+002, 9.502072e+002
7.451896e+002, 9.512937e+002
7.456717e+002, 9.521640e+002
7.461538e+002, 9.523038e+002
7.466359e+002, 9.522704e+002
7.471180e+002, 9.528821e+002
7.476002e+002, 9.538932e+002
7.480823e+002, 9.544319e+002
7.485644e+002, 9.543989e+002
7.490465e+002, 9.539012e+002
7.495286e+002, 9.528206e+002
7.500107e+002, 9.515878e+002
7.504929e+002, 9.512735e+002
7.509750e+002, 9.525016e+002
7.514571e+002, 9.531042e+002
7.519392e+002, 9.526478e+002
7.524213e+002, 9.521014e+002
7.529034e+002, 9.516415e+002
7.533856e+002, 9.514158e+002
7.538677e+002, 9.516959e+002
7.543498e+002, 9.525127e+002
7.548319e+002, 9.533107e+002
7.553140e+002, 9.540219e+002
7.557961e+002, 9.542744e+002
7.562783e+002, 9.528497e+002
7.567604e+002, 9.501714e+002
7.572425e+002, 9.487774e+002
7.577246e+002, 9.495807e+002
7.582067e+002, 9.512794e+002
7.586888e+002, 9.524576e+002
7.591710e+002, 9.531161e+002
7.596531e+002, 9.532989e+002
7.601352e+002, 9.525261e+002
7.606173e+002, 9.519974e+002
7.610994e+002, 9.521406e+002
7.615815e+002, 9.523531e+002
7.620637e+002, 9.520338e+002
7.625458e+002, 9.513657e+002
7.630279e+002, 9.511639e+002
7.635100e+002, 9.521803e+002
7.639921e+002, 9.529460e+002
7.644742e+002, 9.517485e+002
7.649564e+002, 9.496370e+002
7.654385e+002, 9.486487e+002
7.659206e+002, 9.489245e+002
7.664027e+002, 9.492855e+002
7.668848e+002, 9.489755e+002
7.673669e+002, 9.483253e+002
7.678491e+002, 9.482497e+002
7.683312e+002, 9.491754e+002
7.688133e+002, 9.490157e+002
7.692954e+002, 9.467717e+002
7.697775e+002, 9.448007e+002
7.702596e+002, 9.445046e+002
7.707418e+002, 9.448863e+002
7.712239e+002, 9.446063e+002
7.717060e+002, 9.434540e+002
7.721881e+002, 9.424005e+002
7.726702e+002, 9.414039e+002
7.731523e+002, 9.410164e+002
7.736345e+002, 9.424678e+002
7.741166e+002, 9.446896e+002
7.745987e+002, 9.452826e+002
7.750808e+002, 9.437181e+002
7.755629e+002, 9.418923e+002
7.760450e+002, 9.418326e+002
7.765272e+002, 9.430331e+002
7.770093e+002, 9.429591e+002
7.774914e+002, 9.413515e+002
7.779735e+002, 9.398600e+002
7.784556e+002, 9.387890e+002
7.789377e+002, 9.380309e+002
7.794199e+002, 9.374835e+002
7.799020e+002, 9.371686e+002
7.803841e+002, 9.371791e+002
7.808662e+002, 9.379371e+002
7.813483e+002, 9.383907e+002
7.818304e+002, 9.379365e+002
7.823126e+002, 9.373672e+002
7.827947e+002, 9.374548e+002
7.832768e+002, 9.379813e+002
7.837589e+002, 9.381766e+002
7.842410e+002, 9.376754e+002
7.847231e+002, 9.371456e+002
7.852053e+002, 9.376971e+002
7.856874e+002, 9.389280e+002
7.861695e+002, 9.390482e+002
7.866516e+002, 9.379127e+002
7.871337e+002, 9.370128e+002
7.876158e+002, 9.370342e+002
7.880980e+002, 9.375750e+002
7.885801e+002, 9.381619e+002
7.890622e+002, 9.389416e+002
7.895443e+002, 9.388015e+002
7.900264e+002, 9.370052e+002
7.905085e+002, 9.352784e+002
7.909907e+002, 9.337334e+002
7.914728e+002, 9.326031e+002
7.919549e+002, 9.322000e+002
7.924370e+002, 9.324397e+002
7.929191e+002, 9.328708e+002
7.934012e+002, 9.333725e+002
7.938834e+002, 9.338145e+002
7.943655e+002, 9.340460e+002
7.948476e+002, 9.341203e+002
7.953297e+002, 9.342784e+002
7.958118e+002, 9.344884e+002
7.962939e+002, 9.341979e+002
7.967761e+002, 9.330031e+002
7.972582e+002, 9.312480e+002
7.977403e+002, 9.296597e+002
7.982224e+002, 9.280650e+002
7.987045e+002, 9.274174e+002
7.991866e+002, 9.285912e+002
7.996688e+002, 9.293832e+002
8.001509e+002, 9.280182e+002
8.006330e+002, 9.261229e+002
8.011151e+002, 9.258700e+002
8.015972e+002, 9.275311e+002
8.020793e+002, 9.288459e+002
8.025615e+002, 9.290329e+002
8.030436e+002, 9.288713e+002
8.035257e+002, 9.286939e+002
8.040078e+002, 9.285524e+002
8.044899e+002, 9.286359e+002
8.049720e+002, 9.288736e+002
8.054542e+002, 9.287146e+002
8.059363e+002, 9.276000e+002
8.064184e+002, 9.260339e+002
8.069005e+002, 9.250852e+002
8.073826e+002, 9.247391e+002
8.078647e+002, 9.249374e+002
8.083469e+002, 9.258605e+002
8.088290e+002, 9.263984e+002
8.093111e+002, 9.256488e+002
8.097932e+002, 9.240221e+002
8.102753e+002, 9.227821e+002
8.107574e+002, 9.220311e+002
8.112396e+002, 9.214578e+002
8.117217e+002, 9.207976e+002
8.122038e+002, 9.206053e+002
8.126859e+002, 9.216500e+002
8.131680e+002, 9.230535e+002
8.136501e+002, 9.235711e+002
8.141323e+002, 9.230007e+002
8.146144e+002, 9.222871e+002
8.150965e+002, 9.221589e+002
8.155786e+002, 9.220811e+002
8.160607e+002, 9.213746e+002
8.165428e+002, 9.202176e+002
8.170250e+002, 9.189503e+002
8.175071e+002, 9.176992e+002
8.179892e+002, 9.168359e+002
8.184713e+002, 9.166961e+002
8.189534e+002, 9.171288e+002
8.194355e+002, 9.176965e+002
8.199177e+002, 9.185381e+002
8.203998e+002, 9.188214e+002
8.208819e+002, 9.182213e+002
8.213640e+002, 9.174367e+002
8.218461e+002, 9.167083e+002
8.223282e+002, 9.161458e+002
8.228104e+002, 9.160162e+002
8.232925e+002, 9.164863e+002
8.237746e+002, 9.167877e+002
8.242567e+002, 9.167955e+002
8.247388e+002, 9.165897e+002
8.252209e+002, 9.160438e+002
8.257031e+002, 9.154045e+002
8.261852e+002, 9.151021e+002
8.266673e+002, 9.151621e+002
8.271494e+002, 9.151039e+002
8.276315e+002, 9.145888e+002
8.281136e+002, 9.137051e+002
8.285958e+002, 9.123058e+002
8.290779e+002, 9.105956e+002
8.295600e+002, 9.097032e+002
8.300421e+002, 9.098630e+002
8.305242e+002, 9.100887e+002
8.310063e+002, 9.095974e+002
8.314885e+002, 9.087341e+002
8.319706e+002, 9.086247e+002
8.324527e+002, 9.096553e+002
8.329348e+002, 9.104142e+002
8.334169e+002, 9.111861e+002
8.338990e+002, 9.112743e+002
8.343812e+002, 9.094511e+002
8.348633e+002, 9.073508e+002
8.353454e+002, 9.074460e+002
8.358275e+002, 9.100314e+002
8.363096e+002, 9.115914e+002
8.367917e+002, 9.101158e+002
8.372739e+002, 9.081982e+002
8.377560e+002, 9.070624e+002
8.382381e+002, 9.066927e+002
8.387202e+002, 9.074591e+002
8.392023e+002, 9.090320e+002
8.396844e+002, 9.098970e+002
8.401666e+002, 9.089142e+002
8.406487e+002, 9.071065e+002
8.411308e+002, 9.062806e+002
8.416129e+002, 9.062847e+002
8.420950e+002, 9.059937e+002
8.425771e+002, 9.052497e+002
8.430593e+002, 9.047884e+002
8.435414e+002, 9.051503e+002
8.440235e+002, 9.057274e+002
8.445056e+002, 9.053248e+002
8.449877e+002, 9.036575e+002
8.454698e+002, 9.024796e+002
8.459520e+002, 9.021645e+002
8.464341e+002, 9.018617e+002
8.469162e+002, 9.014340e+002
8.473983e+002, 9.009045e+002
8.478804e+002, 9.000856e+002
8.483625e+002, 8.991249e+002
8.488447e+002, 8.987352e+002
8.493268e+002, 8.993648e+002
8.498089e+002, 9.002608e+002
8.502910e+002, 9.013336e+002
8.507731e+002, 9.022240e+002
8.512552e+002, 9.025206e+002
8.517374e+002, 9.022302e+002
8.522195e+002, 9.014140e+002
8.527016e+002, 9.000971e+002
8.531837e+002, 8.987972e+002
8.536658e+002, 8.981969e+002
8.541479e+002, 8.981973e+002
8.546301e+002, 8.985162e+002
8.551122e+002, 8.991653e+002
8.555943e+002, 8.992048e+002
8.560764e+002, 8.982411e+002
8.565585e+002, 8.967971e+002
8.570406e+002, 8.952478e+002
8.575228e+002, 8.936871e+002
8.580049e+002, 8.932192e+002
8.584870e+002, 8.944837e+002
8.589691e+002, 8.957853e+002
8.594512e+002, 8.976874e+002
8.599333e+002, 8.988930e+002
8.604155e+002, 8.983156e+002
8.608976e+002, 8.966838e+002
8.613797e+002, 8.953475e+002
8.618618e+002, 8.945680e+002
8.623439e+002, 8.939500e+002
8.628260e+002, 8.932132e+002
8.633082e+002, 8.926858e+002
8.637903e+002, 8.928167e+002
8.642724e+002, 8.932693e+002
8.647545e+002, 8.935000e+002
8.652366e+002, 8.933737e+002
8.657188e+002, 8.929938e+002
8.662009e+002, 8.923354e+002
8.666830e+002, 8.916524e+002
8.671651e+002, 8.915623e+002
8.676472e+002, 8.919359e+002
8.681293e+002, 8.920078e+002
8.686115e+002, 8.916584e+002
8.690936e+002, 8.909603e+002
8.695757e+002, 8.898093e+002
8.700578e+002, 8.887177e+002
8.705399e+002, 8.889196e+002
8.710220e+002, 8.909479e+002
8.715042e+002, 8.915117e+002
8.719863e+002, 8.895272e+002
8.724684e+002, 8.878260e+002
8.729505e+002, 8.875339e+002
8.734326e+002, 8.877053e+002
8.739147e+002, 8.877059e+002
8.743969e+002, 8.874902e+002
8.748790e+002, 8.868953e+002
8.753611e+002, 8.853395e+002
8.758432e+002, 8.842015e+002
8.763253e+002, 8.843937e+002
8.768074e+002, 8.848497e+002
8.772896e+002, 8.845071e+002
8.777717e+002, 8.836633e+002
8.782538e+002, 8.831833e+002
8.787359e+002, 8.833805e+002
8.792180e+002, 8.838984e+002
8.797001e+002, 8.848624e+002
8.801823e+002, 8.856909e+002
8.806644e+002, 8.848552e+002
8.811465e+002, 8.828174e+002
8.816286e+002, 8.817556e+002
8.821107e+002, 8.822175e+002
8.825928e+002, 8.829601e+002
8.830750e+002, 8.829075e+002
8.835571e+002, 8.822724e+002
8.840392e+002, 8.818326e+002
8.845213e+002, 8.816898e+002
8.850034e+002, 8.811596e+002
8.854855e+002, 8.801985e+002
8.859677e+002, 8.787424e+002
8.864498e+002, 8.759850e+002
8.869319e+002, 8.733022e+002
8.874140e+002, 8.735615e+002
8.878961e+002, 8.775096e+002
8.883782e+002, 8.794382e+002
8.888604e+002, 8.775992e+002
8.893425e+002, 8.758066e+002
8.898246e+002, 8.750919e+002
8.903067e+002, 8.748714e+002
8.907888e+002, 8.747833e+002
8.912709e+002, 8.747027e+002
8.917531e+002, 8.744689e+002
8.922352e+002, 8.740419e+002
8.927173e+002, 8.733984e+002
8.931994e+002, 8.720651e+002
8.936815e+002, 8.708425e+002
8.941636e+002, 8.709894e+002
8.946458e+002, 8.720276e+002
8.951279e+002, 8.724813e+002
8.956100e+002, 8.719300e+002
8.960921e+002, 8.713497e+002
8.965742e+002, 8.717965e+002
8.970563e+002, 8.727806e+002
8.975385e+002, 8.729738e+002
8.980206e+002, 8.724234e+002
8.985027e+002, 8.718264e+002
8.989848e+002, 8.713121e+002
8.994669e+002, 8.705403e+002
8.999490e+002, 8.691369e+002
9.004312e+002, 8.676164e+002
9.009133e+002, 8.672120e+002
9.013954e+002, 8.682050e+002
9.018775e+002, 8.690339e+002
9.023596e+002, 8.697535e+002
9.028417e+002, 8.702242e+002
9.033239e+002, 8.704387e+002
9.038060e+002, 8.703572e+002
9.042881e+002, 8.699633e+002
9.047702e+002, 8.692552e+002
9.052523e+002, 8.681990e+002
9.057344e+002, 8.660078e+002
9.062166e+002, 8.646370e+002
9.066987e+002, 8.652660e+002
9.071808e+002, 8.661944e+002
9.076629e+002, 8.661359e+002
9.081450e+002, 8.654932e+002
9.086271e+002, 8.652277e+002
9.091093e+002, 8.655748e+002
9.095914e+002, 8.658323e+002
9.100735e+002, 8.652060e+002
9.105556e+002, 8.645101e+002
9.110377e+002, 8.649047e+002
9.115198e+002, 8.658382e+002
9.120020e+002, 8.661951e+002
9.124841e+002, 8.658043e+002
9.129662e+002, 8.649524e+002
9.134483e+002, 8.637582e+002
9.139304e+002, 8.626467e+002
9.144125e+002, 8.625724e+002
9.148947e+002, 8.633416e+002
9.153768e+002, 8.631860e+002
9.158589e+002, 8.619785e+002
9.163410e+002, 8.612618e+002
9.168231e+002, 8.616777e+002
9.173052e+002, 8.624929e+002
9.177874e+002, 8.629456e+002
9.182695e+002, 8.630469e+002
9.187516e+002, 8.628254e+002
9.192337e+002, 8.620540e+002
9.197158e+002, 8.615239e+002
9.201979e+002, 8.615644e+002
9.206801e+002, 8.615282e+002
9.211622e+002, 8.609580e+002
9.216443e+002, 8.601229e+002
9.221264e+002, 8.593849e+002
9.226085e+002, 8.587164e+002
9.230906e+002, 8.584049e+002
9.235728e+002, 8.585070e+002
9.240549e+002, 8.589407e+002
9.245370e+002, 8.601241e+002
9.250191e+002, 8.612708e+002
9.255012e+002, 8.616553e+002
9.259833e+002, 8.613195e+002
9.264655e+002, 8.605462e+002
9.269476e+002, 8.592361e+002
9.274297e+002, 8.583478e+002
9.279118e+002, 8.590156e+002
9.283939e+002, 8.600751e+002
9.288760e+002, 8.602369e+002
9.293582e+002, 8.597084e+002
9.298403e+002, 8.590707e+002
9.303224e+002, 8.585126e+002
9.308045e+002, 8.580320e+002
9.312866e+002, 8.576307e+002
9.317687e+002, 8.573109e+002
9.322509e+002, 8.571097e+002
9.327330e+002, 8.570059e+002
9.332151e+002, 8.568217e+002
9.336972e+002, 8.565583e+002
9.341793e+002, 8.566765e+002
9.346614e+002, 8.574925e+002
9.351436e+002, 8.581614e+002
9.356257e+002, 8.572736e+002
9.361078e+002, 8.549534e+002
9.365899e+002, 8.537379e+002
9.370720e+002, 8.538870e+002
9.375541e+002, 8.541307e+002
9.380363e+002, 8.542567e+002
9.385184e+002, 8.543212e+002
9.390005e+002, 8.543707e+002
9.394826e+002, 8.543754e+002
9.399647e+002, 8.542507e+002
9.404468e+002, 8.539155e+002
9.409290e+002, 8.536492e+002
9.414111e+002, 8.534979e+002
9.418932e+002, 8.533414e+002
9.423753e+002, 8.533360e+002
9.428574e+002, 8.531632e+002
9.433395e+002, 8.521619e+002
9.438217e+002, 8.506379e+002
9.443038e+002, 8.501461e+002
9.447859e+002, 8.517970e+002
9.452680e+002, 8.530318e+002
9.457501e+002, 8.524083e+002
9.462322e+002, 8.515462e+002
9.467144e+002, 8.518094e+002
9.471965e+002, 8.526517e+002
9.476786e+002, 8.531014e+002
9.481607e+002, 8.529302e+002
9.486428e+002, 8.523636e+002
9.491249e+002, 8.510426e+002
9.496071e+002, 8.500432e+002
9.500892e+002, 8.511106e+002
9.505713e+002, 8.529451e+002
9.510534e+002, 8.531046e+002
9.515355e+002, 8.517639e+002
9.520176e+002, 8.508465e+002
9.524998e+002, 8.512045e+002
9.529819e+002, 8.518117e+002
9.534640e+002, 8.512234e+002
9.539461e+002, 8.500123e+002
9.544282e+002, 8.500275e+002
9.549103e+002, 8.511317e+002
9.553925e+002, 8.524542e+002
9.558746e+002, 8.538209e+002
9.563567e+002, 8.544952e+002
9.568388e+002, 8.539061e+002
9.573209e+002, 8.525087e+002
9.578030e+002, 8.511459e+002
9.582852e+002, 8.497610e+002
9.587673e+002, 8.491223e+002
9.592494e+002, 8.493757e+002
9.597315e+002, 8.498824e+002
9.602136e+002, 8.506986e+002
9.606957e+002, 8.511487e+002
9.611779e+002, 8.502881e+002
9.616600e+002, 8.485325e+002
9.621421e+002, 8.481898e+002
9.626242e+002, 8.506329e+002
9.631063e+002, 8.517532e+002
9.635884e+002, 8.502087e+002
9.640706e+002, 8.489926e+002
9.645527e+002, 8.496523e+002
9.650348e+002, 8.509027e+002
9.655169e+002, 8.512223e+002
9.659990e+002, 8.506545e+002
9.664811e+002, 8.504721e+002
9.669633e+002, 8.514399e+002
9.674454e+002, 8.519633e+002
9.679275e+002, 8.513434e+002
9.684096e+002, 8.505016e+002
9.688917e+002, 8.499879e+002
9.693738e+002, 8.497145e+002
9.698560e+002, 8.494117e+002
9.703381e+002, 8.490356e+002
9.708202e+002, 8.488972e+002
9.713023e+002, 8.494200e+002
9.717844e+002, 8.499147e+002
9.722665e+002, 8.497799e+002
9.727487e+002, 8.494643e+002
9.732308e+002, 8.496719e+002
9.737129e+002, 8.501870e+002
9.741950e+002, 8.500974e+002
9.746771e+002, 8.490560e+002
9.751592e+002, 8.481633e+002
9.756414e+002, 8.486361e+002
9.761235e+002, 8.496703e+002
9.766056e+002, 8.503710e+002
9.770877e+002, 8.506503e+002
9.775698e+002, 8.499323e+002
9.780519e+002, 8.484340e+002
9.785341e+002, 8.479210e+002
9.790162e+002, 8.495305e+002
9.794983e+002, 8.515536e+002
9.799804e+002, 8.511563e+002
9.804625e+002, 8.490782e+002
9.809446e+002, 8.481670e+002
9.814268e+002, 8.484000e+002
9.819089e+002, 8.490662e+002
9.823910e+002, 8.499839e+002
9.828731e+002, 8.505444e+002
9.833552e+002, 8.501921e+002
9.838373e+002, 8.493428e+002
9.843195e+002, 8.490576e+002
9.848016e+002, 8.493654e+002
9.852837e+002, 8.495934e+002
9.857658e+002, 8.496863e+002
9.862479e+002, 8.499495e+002
9.867300e+002, 8.506016e+002
9.872122e+002, 8.511131e+002
9.876943e+002, 8.508858e+002
9.881764e+002, 8.500779e+002
9.886585e+002, 8.495867e+002
9.891406e+002, 8.495919e+002
9.896227e+002, 8.493241e+002
9.901049e+002, 8.482546e+002
9.905870e+002, 8.478393e+002
9.910691e+002, 8.489869e+002
9.915512e+002, 8.507795e+002
9.920333e+002, 8.522906e+002
9.925154e+002, 8.535067e+002
9.929976e+002, 8.541670e+002
9.934797e+002, 8.538268e+002
9.939618e+002, 8.536155e+002
9.944439e+002, 8.537482e+002
9.949260e+002, 8.538460e+002
9.954081e+002, 8.536272e+002
9.958903e+002, 8.533235e+002
9.963724e+002, 8.532160e+002
9.968545e+002, 8.533262e+002
9.973366e+002, 8.536429e+002
9.978187e+002, 8.543248e+002
9.983008e+002, 8.549865e+002
9.987830e+002, 8.555425e+002
9.992651e+002, 8.560158e+002
9.997472e+002, 8.564597e+002
1.000229e+003, 8.568172e+002
1.000711e+003, 8.570101e+002
1.001194e+003, 8.570207e+002
1.001676e+003, 8.568280e+002
1.002158e+003, 8.562736e+002
1.002640e+003, 8.556952e+002
1.003122e+003, 8.552050e+002
1.003604e+003, 8.548591e+002
1.004086e+003, 8.546898e+002
1.004568e+003, 8.547196e+002
1.005050e+003, 8.551368e+002
1.005533e+003, 8.559825e+002
1.006015e+003, 8.564432e+002
1.006497e+003, 8.556537e+002
1.006979e+003, 8.545140e+002
1.007461e+003, 8.536791e+002
1.007943e+003, 8.531957e+002
1.008425e+003, 8.534111e+002
1.008907e+003, 8.540449e+002
1.009390e+003, 8.540775e+002
1.009872e+003, 8.530784e+002
1.010354e+003, 8.519833e+002
1.010836e+003, 8.516304e+002
1.011318e+003, 8.518078e+002
1.011800e+003, 8.525840e+002
1.012282e+003, 8.535140e+002
1.012764e+003, 8.531832e+002
1.013246e+003, 8.516790e+002
1.013729e+003, 8.507616e+002
1.014211e+003, 8.513729e+002
1.014693e+003, 8.524133e+002
1.015175e+003, 8.525690e+002
1.015657e+003, 8.519835e+002
1.016139e+003, 8.509379e+002
1.016621e+003, 8.495153e+002
1.017103e+003, 8.479153e+002
1.017586e+003, 8.462537e+002
1.018068e+003, 8.454926e+002
1.018550e+003, 8.463161e+002
1.019032e+003, 8.475649e+002
1.019514e+003, 8.470898e+002
1.019996e+003, 8.452187e+002
1.020478e+003, 8.443243e+002
1.020960e+003, 8.443856e+002
1.021442e+003, 8.447692e+002
1.021925e+003, 8.453665e+002
1.022407e+003, 8.455981e+002
1.022889e+003, 8.449639e+002
1.023371e+003, 8.440795e+002
1.023853e+003, 8.443702e+002
1.024335e+003, 8.458505e+002
1.024817e+003, 8.462388e+002
1.025299e+003, 8.453954e+002
1.025781e+003, 8.444641e+002
1.026264e+003, 8.436983e+002
1.026746e+003, 8.428976e+002
1.027228e+003, 8.417956e+002
1.027710e+003, 8.407675e+002
1.028192e+003, 8.408052e+002
1.028674e+003, 8.420746e+002
1.029156e+003, 8.431536e+002
1.029638e+003, 8.441950e+002
1.030120e+003, 8.443849e+002
1.030603e+003, 8.430340e+002
1.031085e+003, 8.418658e+002
1.031567e+003, 8.423027e+002
1.032049e+003, 8.438464e+002
1.032531e+003, 8.452783e+002
1.033013e+003, 8.467927e+002
1.033495e+003, 8.472920e+002
1.033977e+003, 8.463737e+002
1.034460e+003, 8.452758e+002
1.034942e+003, 8.440296e+002
1.035424e+003, 8.431102e+002
1.035906e+003, 8.431624e+002
1.036388e+003, 8.437338e+002
1.036870e+003, 8.434469e+002
1.037352e+003, 8.418699e+002
1.037834e+003, 8.409558e+002
1.038317e+003, 8.409918e+002
1.038799e+003, 8.412604e+002
1.039281e+003, 8.416183e+002
1.039763e+003, 8.421354e+002
1.040245e+003, 8.432286e+002
1.040727e+003, 8.444814e+002
1.041209e+003, 8.446447e+002
1.041691e+003, 8.432797e+002
1.042173e+003, 8.422172e+002
1.042656e+003, 8.415198e+002
1.043138e+003, 8.410643e+002
1.043620e+003, 8.408096e+002
1.044102e+003, 8.407892e+002
1.044584e+003, 8.412468e+002
1.045066e+003, 8.419201e+002
1.045548e+003, 8.421267e+002
1.046030e+003, 8.417128e+002
1.046512e+003, 8.412659e+002
1.046995e+003, 8.407820e+002
1.047477e+003, 8.403616e+002
1.047959e+003, 8.398693e+002
1.048441e+003, 8.396023e+002
1.048923e+003, 8.400223e+002
1.049405e+003, 8.408027e+002
1.049887e+003, 8.411213e+002
1.050369e+003, 8.407745e+002
1.050852e+003, 8.405468e+002
1.051334e+003, 8.408525e+002
1.051816e+003, 8.409569e+002
1.052298e+003, 8.402553e+002
1.052780e+003, 8.395739e+002
1.053262e+003, 8.398148e+002
1.053744e+003, 8.405436e+002
1.054226e+003, 8.405896e+002
1.054708e+003, 8.396249e+002
1.055191e+003, 8.391700e+002
1.055673e+003, 8.403855e+002
1.056155e+003, 8.411963e+002
1.056637e+003, 8.401086e+002
1.057119e+003, 8.389115e+002
1.057601e+003, 8.393763e+002
1.058083e+003, 8.408037e+002
1.058565e+003, 8.415908e+002
1.059047e+003, 8.414210e+002
1.059530e+003, 8.408954e+002
1.060012e+003, 8.396962e+002
1.060494e+003, 8.388468e+002
1.060976e+003, 8.390324e+002
1.061458e+003, 8.395198e+002
1.061940e+003, 8.397698e+002
1.062422e+003, 8.398336e+002
1.062904e+003, 8.399562e+002
1.063387e+003, 8.401841e+002
1.063869e+003, 8.402028e+002
1.064351e+003, 8.397949e+002
1.064833e+003, 8.392892e+002
1.065315e+003, 8.385179e+002
1.065797e+003, 8.380058e+002
1.066279e+003, 8.385919e+002
1.066761e+003, 8.395934e+002
1.067244e+003, 8.395476e+002
1.067726e+003, 8.382987e+002
1.068208e+003, 8.376782e+002
1.068690e+003, 8.392781e+002
1.069172e+003, 8.405143e+002
1.069654e+003, 8.396509e+002
1.070136e+003, 8.384918e+002
1.070618e+003, 8.386208e+002
1.071100e+003, 8.394175e+002
1.071583e+003, 8.396825e+002
1.072065e+003, 8.392761e+002
1.072547e+003, 8.389936e+002
1.073029e+003, 8.394081e+002
1.073511e+003, 8.395574e+002
1.073993e+003, 8.386413e+002
1.074475e+003, 8.376277e+002
1.074957e+003, 8.373350e+002
1.075439e+003, 8.373993e+002
1.075922e+003, 8.370770e+002
1.076404e+003, 8.364149e+002
1.076886e+003, 8.363524e+002
1.077368e+003, 8.375779e+002
1.077850e+003, 8.386780e+002
1.078332e+003, 8.387390e+002
1.078814e+003, 8.387101e+002
1.079297e+003, 8.394490e+002
1.079779e+003, 8.404131e+002
1.080261e+003, 8.408648e+002
1.080743e+003, 8.407787e+002
1.081225e+003, 8.404973e+002
1.081707e+003, 8.400713e+002
1.082189e+003, 8.396772e+002
1.082671e+003, 8.388817e+002
1.083153e+003, 8.387213e+002
1.083635e+003, 8.404896e+002
1.084118e+003, 8.428234e+002
1.084600e+003, 8.446776e+002
1.085082e+003, 8.455956e+002
1.085564e+003, 8.444978e+002
1.086046e+003, 8.405716e+002
1.086528e+003, 8.374935e+002
1.087010e+003, 8.372562e+002
1.087492e+003, 8.377714e+002
1.087975e+003, 8.380999e+002
1.088457e+003, 8.384276e+002
1.088939e+003, 8.392120e+002
1.089421e+003, 8.401517e+002
1.089903e+003, 8.404677e+002
1.090385e+003, 8.399509e+002
1.090867e+003, 8.392386e+002
1.091349e+003, 8.380797e+002
1.091832e+003, 8.374147e+002
1.092314e+003, 8.381225e+002
1.092796e+003, 8.390992e+002
1.093278e+003, 8.393152e+002
1.093760e+003, 8.391182e+002
1.094242e+003, 8.394635e+002
1.094724e+003, 8.404880e+002
1.095206e+003, 8.408577e+002
1.095688e+003, 8.391956e+002
1.096171e+003, 8.381222e+002
1.096653e+003, 8.391258e+002
1.097135e+003, 8.404272e+002
1.097617e+003, 8.406747e+002
1.098099e+003, 8.404844e+002
1.098581e+003, 8.410652e+002
1.099063e+003, 8.424117e+002
1.099545e+003, 8.430527e+002
1.100027e+003, 8.420919e+002
1.100510e+003, 8.413190e+002
1.100992e+003, 8.410917e+002
1.101474e+003, 8.412728e+002
1.101956e+003, 8.421384e+002
1.102438e+003, 8.431215e+002
1.102920e+003, 8.435795e+002
1.103402e+003, 8.435452e+002
1.103884e+003, 8.433569e+002
1.104367e+003, 8.425720e+002
1.104849e+003, 8.428730e+002
1.105331e+003, 8.459553e+002
1.105813e+003, 8.483961e+002
1.106295e+003, 8.484333e+002
1.106777e+003, 8.476466e+002
1.107259e+003, 8.474813e+002
1.107741e+003, 8.476767e+002
1.108224e+003, 8.472123e+002
1.108706e+003, 8.457323e+002
1.109188e+003, 8.447242e+002
1.109670e+003, 8.443338e+002
1.110152e+003, 8.444091e+002
1.110634e+003, 8.456257e+002
1.111116e+003, 8.465814e+002
1.111598e+003, 8.457849e+002
1.112080e+003, 8.443083e+002
1.112563e+003, 8.443467e+002
1.113045e+003, 8.461475e+002
1.113527e+003, 8.474153e+002
1.114009e+003, 8.482663e+002
1.114491e+003, 8.483920e+002
1.114973e+003, 8.471605e+002
1.115455e+003, 8.459888e+002
1.115937e+003, 8.450970e+002
1.116419e+003, 8.450374e+002
1.116902e+003, 8.470631e+002
1.117384e+003, 8.508672e+002
1.117866e+003, 8.527108e+002
1.118348e+003, 8.515418e+002
1.118830e+003, 8.508576e+002
1.119312e+003, 8.509073e+002
1.119794e+003, 8.511829e+002
1.120276e+003, 8.516384e+002
1.120759e+003, 8.520331e+002
1.121241e+003, 8.521143e+002
1.121723e+003, 8.519630e+002
1.122205e+003, 8.518729e+002
1.122687e+003, 8.518397e+002
1.123169e+003, 8.518423e+002
1.123651e+003, 8.518407e+002
1.124133e+003, 8.519710e+002
1.124615e+003, 8.522263e+002
1.125098e+003, 8.527383e+002
1.125580e+003, 8.536202e+002
1.126062e+003, 8.547894e+002
1.126544e+003, 8.561764e+002
1.127026e+003, 8.577608e+002
1.127508e+003, 8.585658e+002
1.127990e+003, 8.584846e+002
1.128472e+003, 8.586520e+002
1.128954e+003, 8.593301e+002
1.129437e+003, 8.594359e+002
1.129919e+003, 8.582691e+002
1.130401e+003, 8.572581e+002
1.130883e+003, 8.583702e+002
1.131365e+003, 8.608751e+002
1.131847e+003, 8.616965e+002
1.132329e+003, 8.609363e+002
1.132811e+003, 8.605978e+002
1.133294e+003, 8.608173e+002
1.133776e+003, 8.607777e+002
1.134258e+003, 8.602037e+002
1.134740e+003, 8.601006e+002
1.135222e+003, 8.613801e+002
1.135704e+003, 8.633585e+002
1.136186e+003, 8.650117e+002
1.136668e+003, 8.661783e+002
1.137151e+003, 8.656828e+002
1.137633e+003, 8.639951e+002
1.138115e+003, 8.635428e+002
1.138597e+003, 8.647193e+002
1.139079e+003, 8.663443e+002
1.139561e+003, 8.677803e+002
1.140043e+003, 8.688383e+002
1.140525e+003, 8.690784e+002
1.141007e+003, 8.689297e+002
1.141490e+003, 8.691589e+002
1.141972e+003, 8.696569e+002
1.142454e+003, 8.701981e+002
1.142936e+003, 8.707628e+002
1.143418e+003, 8.715543e+002
1.143900e+003, 8.725644e+002
1.144382e+003, 8.730313e+002
1.144864e+003, 8.719542e+002
1.145346e+003, 8.709160e+002
1.145829e+003, 8.718333e+002
1.146311e+003, 8.736091e+002
1.146793e+003, 8.751874e+002
1.147275e+003, 8.763821e+002
1.147757e+003, 8.769471e+002
1.148239e+003, 8.769781e+002
1.148721e+003, 8.769987e+002
1.149203e+003, 8.772303e+002
1.149686e+003, 8.775744e+002
1.150168e+003, 8.782039e+002
1.150650e+003, 8.786718e+002
1.151132e+003, 8.783276e+002
1.151614e+003, 8.778994e+002
1.152096e+003, 8.783219e+002
1.152578e+003, 8.793492e+002
1.153060e+003, 8.803250e+002
1.153542e+003, 8.811149e+002
1.154025e+003, 8.812482e+002
1.154507e+003, 8.792998e+002
1.154989e+003, 8.784197e+002
1.155471e+003, 8.807236e+002
1.155953e+003, 8.833405e+002
1.156435e+003, 8.843459e+002
1.156917e+003, 8.845432e+002
1.157399e+003, 8.852042e+002
1.157881e+003, 8.863165e+002
1.158364e+003, 8.869697e+002
1.158846e+003, 8.864683e+002
1.159328e+003, 8.866605e+002
1.159810e+003, 8.885099e+002
1.160292e+003, 8.899170e+002
1.160774e+003, 8.899386e+002
1.161256e+003, 8.896981e+002
1.161738e+003, 8.901699e+002
1.162221e+003, 8.909769e+002
1.162703e+003, 8.911628e+002
1.163185e+003, 8.906268e+002
1.163667e+003, 8.903298e+002
1.164149e+003, 8.902967e+002
1.164631e+003, 8.904180e+002
1.165113e+003, 8.905851e+002
1.165595e+003, 8.912268e+002
1.166078e+003, 8.926987e+002
1.166560e+003, 8.944344e+002
1.167042e+003, 8.958303e+002
1.167524e+003, 8.968125e+002
1.168006e+003, 8.968259e+002
1.168488e+003, 8.958122e+002
1.168970e+003, 8.955084e+002
1.169452e+003, 8.960168e+002
1.169934e+003, 8.967260e+002
1.170417e+003, 8.974664e+002
1.170899e+003, 8.980922e+002
1.171381e+003, 8.984459e+002
1.171863e+003, 8.989496e+002
1.172345e+003, 9.006415e+002
1.172827e+003, 9.030038e+002
1.173309e+003, 9.042687e+002
1.173791e+003, 9.045352e+002
1.174273e+003, 9.038111e+002
1.174756e+003, 9.024154e+002
1.175238e+003, 9.016721e+002
1.175720e+003, 9.021024e+002
1.176202e+003, 9.033461e+002
1.176684e+003, 9.055399e+002
1.177166e+003, 9.074982e+002
1.177648e+003, 9.072169e+002
1.178130e+003, 9.061373e+002
1.178613e+003, 9.068168e+002
1.179095e+003, 9.082316e+002
1.179577e+003, 9.076967e+002
1.180059e+003, 9.052868e+002
1.180541e+003, 9.035378e+002
1.181023e+003, 9.035741e+002
1.181505e+003, 9.041946e+002
1.181987e+003, 9.052538e+002
1.182469e+003, 9.059599e+002
1.182952e+003, 9.051903e+002
1.183434e+003, 9.043376e+002
1.183916e+003, 9.050993e+002
1.184398e+003, 9.067144e+002
1.184880e+003, 9.071982e+002
1.185362e+003, 9.063422e+002
1.185844e+003, 9.067348e+002
1.186326e+003, 9.110494e+002
1.186808e+003, 9.134258e+002
1.187291e+003, 9.109781e+002
1.187773e+003, 9.087023e+002
1.188255e+003, 9.090408e+002
1.188737e+003, 9.103188e+002
1.189219e+003, 9.111310e+002
1.189701e+003, 9.115175e+002
1.190183e+003, 9.115132e+002
1.190665e+003, 9.108864e+002
1.191148e+003, 9.111474e+002
1.191630e+003, 9.127073e+002
1.192112e+003, 9.139827e+002
1.192594e+003, 9.145729e+002
1.193076e+003, 9.153372e+002
1.193558e+003, 9.168798e+002
1.194040e+003, 9.183485e+002
1.194522e+003, 9.186271e+002
1.195005e+003, 9.179351e+002
1.195487e+003, 9.170237e+002
1.195969e+003, 9.159221e+002
1.196451e+003, 9.153248e+002
1.196933e+003, 9.152587e+002
1.197415e+003, 9.154942e+002
1.197897e+003, 9.159639e+002
1.198379e+003, 9.166121e+002
1.198861e+003, 9.174133e+002
1.199344e+003, 9.183124e+002
1.199826e+003, 9.193351e+002
1.200308e+003, 9.203445e+002
1.200790e+003, 9.211173e+002
1.201272e+003, 9.216412e+002
1.201754e+003, 9.216398e+002
1.202236e+003, 9.213963e+002
1.202718e+003, 9.217843e+002
1.203200e+003, 9.230034e+002
1.203683e+003, 9.245286e+002
1.204165e+003, 9.263181e+002
1.204647e+003, 9.275760e+002
1.205129e+003, 9.267485e+002
1.205611e+003, 9.261490e+002
1.206093e+003, 9.282204e+002
1.206575e+003, 9.313316e+002
1.207057e+003, 9.336100e+002
1.207540e+003, 9.350207e+002
1.208022e+003, 9.363948e+002
1.208504e+003, 9.379893e+002
1.208986e+003, 9.381354e+002
1.209468e+003, 9.343936e+002
1.209950e+003, 9.322130e+002
1.210432e+003, 9.339902e+002
1.210914e+003, 9.361666e+002
1.211396e+003, 9.367286e+002
1.211879e+003, 9.370016e+002
1.212361e+003, 9.386064e+002
1.212843e+003, 9.410531e+002
1.213325e+003, 9.422435e+002
1.213807e+003, 9.417195e+002
1.214289e+003, 9.422292e+002
1.214771e+003, 9.441195e+002
1.215253e+003, 9.455198e+002
1.215735e+003, 9.458259e+002
1.216218e+003, 9.469211e+002
1.216700e+003, 9.500300e+002
1.217182e+003, 9.533214e+002
1.217664e+003, 9.544254e+002
1.218146e+003, 9.540938e+002
1.218628e+003, 9.547654e+002
1.219110e+003, 9.561951e+002
1.219592e+003, 9.570244e+002
1.220075e+003, 9.573452e+002
1.220557e+003, 9.581304e+002
1.221039e+003, 9.595358e+002
1.221521e+003, 9.609660e+002
1.222003e+003, 9.620926e+002
1.222485e+003, 9.630525e+002
1.222967e+003, 9.639144e+002
1.223449e+003, 9.647537e+002
1.223932e+003, 9.657793e+002
1.224414e+003, 9.667420e+002
1.224896e+003, 9.669394e+002
1.225378e+003, 9.669708e+002
1.225860e+003, 9.683467e+002
1.226342e+003, 9.710167e+002
1.226824e+003, 9.729293e+002
1.227306e+003, 9.731343e+002
1.227788e+003, 9.732564e+002
1.228271e+003, 9.732388e+002
1.228753e+003, 9.740447e+002
1.229235e+003, 9.769203e+002
1.229717e+003, 9.799572e+002
1.230199e+003, 9.815671e+002
1.230681e+003, 9.823128e+002
1.231163e+003, 9.831804e+002
1.231645e+003, 9.841740e+002
1.232127e+003, 9.856824e+002
1.232610e+003, 9.878536e+002
1.233092e+003, 9.901064e+002
1.233574e+003, 9.924968e+002
1.234056e+003, 9.946533e+002
1.234538e+003, 9.963737e+002
1.235020e+003, 9.984361e+002
1.235502e+003, 1.001572e+003
1.235984e+003, 1.004652e+003
1.236467e+003, 1.005327e+003
1.236949e+003, 1.004412e+003
1.237431e+003, 1.005322e+003
1.237913e+003, 1.007775e+003
1.238395e+003, 1.010732e+003
1.238877e+003, 1.013942e+003
1.239359e+003, 1.016964e+003
1.239841e+003, 1.019691e+003
1.240323e+003, 1.022559e+003
1.240806e+003, 1.025876e+003
1.241288e+003, 1.029186e+003
1.241770e+003, 1.032053e+003
1.242252e+003, 1.034692e+003
1.242734e+003, 1.036832e+003
1.243216e+003, 1.039268e+003
1.243698e+003, 1.043387e+003
1.244180e+003, 1.048416e+003
1.244662e+003, 1.052756e+003
1.245145e+003, 1.056104e+003
1.245627e+003, 1.058587e+003
1.246109e+003, 1.059197e+003
1.246591e+003, 1.060850e+003
1.247073e+003, 1.065288e+003
1.247555e+003, 1.069130e+003
1.248037e+003, 1.070184e+003
1.248519e+003, 1.071554e+003
1.249002e+003, 1.075686e+003
1.249484e+003, 1.081332e+003
1.249966e+003, 1.086355e+003
1.250448e+003, 1.090757e+003
1.250930e+003, 1.094660e+003
1.251412e+003, 1.098051e+003
1.251894e+003, 1.100599e+003
1.252376e+003, 1.102189e+003
1.252859e+003, 1.106247e+003
1.253341e+003, 1.113764e+003
1.253823e+003, 1.120840e+003
1.254305e+003, 1.124719e+003
1.254787e+003, 1.127634e+003
1.255269e+003, 1.132826e+003
1.255751e+003, 1.139031e+003
1.256233e+003, 1.144055e+003
1.256715e+003, 1.148332e+003
1.257198e+003, 1.152283e+003
1.257680e+003, 1.156398e+003
1.258162e+003, 1.161927e+003
1.258644e+003, 1.168790e+003
1.259126e+003, 1.175061e+003
1.259608e+003, 1.179863e+003
1.260090e+003, 1.184189e+003
1.260572e+003, 1.188678e+003
1.261054e+003, 1.192575e+003
1.261537e+003, 1.194395e+003
1.262019e+003, 1.196621e+003
1.262501e+003, 1.201314e+003
1.262983e+003, 1.207583e+003
1.263465e+003, 1.214475e+003
1.263947e+003, 1.221679e+003
1.264429e+003, 1.226919e+003
1.264911e+003, 1.229119e+003
1.265394e+003, 1.233094e+003
1.265876e+003, 1.239285e+003
1.266358e+003, 1.245390e+003
1.266840e+003, 1.250911e+003
1.267322e+003, 1.255973e+003
1.267804e+003, 1.260607e+003
1.268286e+003, 1.265279e+003
1.268768e+003, 1.270698e+003
1.269250e+003, 1.276207e+003
1.269733e+003, 1.279802e+003
1.270215e+003, 1.282526e+003
1.270697e+003, 1.287434e+003
1.271179e+003, 1.293686e+003
1.271661e+003, 1.298611e+003
1.272143e+003, 1.302096e+003
1.272625e+003, 1.305764e+003
1.273107e+003, 1.310229e+003
1.273589e+003, 1.314933e+003
1.274072e+003, 1.319701e+003
1.274554e+003, 1.324378e+003
1.275036e+003, 1.328585e+003
1.275518e+003, 1.333012e+003
1.276000e+003, 1.338684e+003
1.276482e+003, 1.344316e+003
1.276964e+003, 1.348287e+003
1.277446e+003, 1.351167e+003
1.277929e+003, 1.354293e+003
1.278411e+003, 1.357625e+003
1.278893e+003, 1.361765e+003
1.279375e+003, 1.366886e+003
1.279857e+003, 1.372293e+003
1.280339e+003, 1.377951e+003
1.280821e+003, 1.383905e+003
1.281303e+003, 1.390350e+003
1.281786e+003, 1.396684e+003
1.282268e+003, 1.402332e+003
##END=



