##NAMES=Magnesite
##RRUFFID=R040114
##IDEAL CHEMISTRY=MgCO_3_
##LOCALITY=Snarum, Norway
##OWNER=RRUFF
##SOURCE=University of Arizona Mineral Museum
##DESCRIPTION=Tan colored cleavage fragment
##STATUS=The identification of this mineral has been confirmed by X-ray diffraction and chemical analysis
##URL=rruff.info/R040114
##MEASURED CHEMISTRY=(Mg_0.98_Fe_0.01_)C_1.00_O_3_
115.2340, 92.09917
115.7161, 98.13897
116.1982, 98.40106
116.6804, 99.02686
117.1625, 108.3699
117.6446, 128.1476
118.1267, 143.1037
118.6088, 142.2901
119.0909, 136.0008
119.5731, 132.0839
120.0552, 132.8223
120.5373, 136.0081
121.0194, 137.7779
121.5015, 136.5187
121.9836, 138.6178
122.4658, 149.0191
122.9479, 162.1786
123.4300, 172.5762
123.9121, 177.6391
124.3942, 179.9349
124.8763, 185.3668
125.3585, 194.3675
125.8406, 206.4041
126.3227, 222.2811
126.8048, 240.2142
127.2869, 258.1676
127.7690, 274.8195
128.2512, 291.0721
128.7333, 309.7552
129.2154, 328.3459
129.6975, 353.3698
130.1796, 386.6627
130.6617, 426.5714
131.1439, 472.7795
131.6260, 526.5250
132.1081, 585.0051
132.5902, 626.0184
133.0723, 633.6680
133.5544, 638.9031
134.0366, 646.2676
134.5187, 655.1865
135.0008, 663.8315
135.4829, 671.0876
135.9650, 676.9075
136.4471, 679.6917
136.9293, 681.7443
137.4114, 678.8529
137.8935, 669.9761
138.3756, 655.1065
138.8577, 633.0154
139.3398, 601.1574
139.8220, 559.2881
140.3041, 532.4866
140.7862, 528.3383
141.2683, 528.1880
141.7504, 523.0616
142.2325, 514.4273
142.7147, 509.6567
143.1968, 514.7905
143.6789, 530.2648
144.1610, 545.7830
144.6431, 558.0699
145.1252, 573.0070
145.6074, 597.2374
146.0895, 629.2047
146.5716, 657.9882
147.0537, 672.9860
147.5358, 674.1883
148.0179, 685.9458
148.5001, 710.0449
148.9822, 742.9819
149.4643, 788.7222
149.9464, 846.4030
150.4285, 898.0797
150.9106, 930.9186
151.3928, 943.5641
151.8749, 942.3571
152.3570, 921.0107
152.8391, 889.8439
153.3212, 854.5717
153.8033, 815.3621
154.2855, 780.3676
154.7676, 758.2484
155.2497, 746.4177
155.7318, 733.9119
156.2139, 717.9415
156.6960, 701.0348
157.1782, 685.0728
157.6603, 669.7600
158.1424, 658.0356
158.6245, 652.5375
159.1066, 652.5127
159.5887, 657.4923
160.0709, 674.6312
160.5530, 694.0399
161.0351, 699.5475
161.5172, 687.8044
161.9993, 673.2994
162.4814, 666.9767
162.9636, 665.3149
163.4457, 661.9099
163.9278, 650.3303
164.4099, 636.8638
164.8920, 635.3011
165.3741, 650.5341
165.8563, 663.9001
166.3384, 660.2642
166.8205, 647.2200
167.3026, 637.3048
167.7847, 637.0707
168.2668, 642.6715
168.7490, 645.9778
169.2311, 646.7002
169.7132, 645.6500
170.1953, 641.1587
170.6774, 635.5972
171.1595, 633.1464
171.6417, 637.9911
172.1238, 646.2285
172.6059, 647.1038
173.0880, 636.3809
173.5701, 626.7204
174.0522, 622.9492
174.5344, 623.7339
175.0165, 627.9627
175.4986, 636.7990
175.9807, 647.6985
176.4628, 653.9911
176.9449, 655.6187
177.4271, 652.0649
177.9092, 638.9712
178.3913, 622.4230
178.8734, 611.2594
179.3555, 611.1795
179.8376, 617.8483
180.3197, 617.9327
180.8019, 607.1202
181.2840, 597.1582
181.7661, 590.9263
182.2482, 587.7510
182.7303, 587.0511
183.2124, 588.7446
183.6946, 592.4005
184.1767, 597.1235
184.6588, 604.3336
185.1409, 609.9731
185.6230, 612.1437
186.1051, 612.7078
186.5873, 613.9008
187.0694, 616.8691
187.5515, 620.7404
188.0336, 623.4490
188.5157, 625.5787
188.9978, 625.1593
189.4800, 619.6896
189.9621, 612.7845
190.4442, 607.7402
190.9263, 605.9583
191.4084, 607.3900
191.8905, 612.6761
192.3727, 626.2292
192.8548, 635.6365
193.3369, 634.2313
193.8190, 630.5393
194.3011, 633.4346
194.7832, 646.5130
195.2654, 665.2044
195.7475, 679.1794
196.2296, 684.2655
196.7117, 692.7082
197.1938, 708.1752
197.6759, 725.9556
198.1581, 742.0157
198.6402, 755.0326
199.1223, 766.2463
199.6044, 777.7668
200.0865, 789.1999
200.5686, 801.9088
201.0508, 815.8754
201.5329, 830.9874
202.0150, 846.7064
202.4971, 863.0578
202.9792, 880.8084
203.4613, 901.3780
203.9435, 925.6287
204.4256, 950.8615
204.9077, 974.4566
205.3898, 1000.479
205.8719, 1030.265
206.3540, 1064.724
206.8362, 1105.883
207.3183, 1156.765
207.8004, 1217.188
208.2825, 1287.996
208.7646, 1360.398
209.2467, 1448.100
209.7289, 1559.390
210.2110, 1694.690
210.6931, 1850.573
211.1752, 2031.684
211.6573, 2256.466
212.1395, 2433.141
212.6216, 2593.736
213.1037, 2683.678
213.5858, 2663.820
214.0679, 2540.836
214.5500, 2349.730
215.0322, 2112.917
215.5143, 1819.004
215.9964, 1559.923
216.4785, 1331.234
216.9606, 1139.466
217.4427, 992.5301
217.9249, 886.1409
218.4070, 808.7397
218.8891, 753.0496
219.3712, 719.4775
219.8533, 693.1378
220.3354, 679.7098
220.8176, 668.4542
221.2997, 657.3697
221.7818, 646.2856
222.2639, 635.3928
222.7460, 624.7381
223.2281, 614.3931
223.7103, 606.0101
224.1924, 598.6583
224.6745, 594.6924
225.1566, 598.6945
225.6387, 605.5741
226.1208, 607.3913
226.6030, 599.0472
227.0851, 583.4189
227.5672, 572.7308
228.0493, 571.3890
228.5314, 569.2994
229.0135, 562.9060
229.4957, 555.5599
229.9778, 551.0706
230.4599, 551.1636
230.9420, 554.8315
231.4241, 560.0436
231.9062, 569.1502
232.3884, 575.5577
232.8705, 578.4238
233.3526, 578.7039
233.8347, 576.9570
234.3168, 573.4111
234.7989, 568.5414
235.2811, 562.6480
235.7632, 553.8819
236.2453, 548.6427
236.7274, 549.8511
237.2095, 552.5840
237.6916, 553.0268
238.1738, 550.7117
238.6559, 548.6187
239.1380, 551.0800
239.6201, 559.8861
240.1022, 566.6224
240.5843, 571.0070
241.0665, 573.2586
241.5486, 573.3884
242.0307, 571.3901
242.5128, 567.1650
242.9949, 559.0107
243.4770, 546.0931
243.9592, 539.3419
244.4413, 545.5365
244.9234, 551.8021
245.4055, 553.2280
245.8876, 550.7358
246.3697, 547.3618
246.8519, 544.2269
247.3340, 541.8033
247.8161, 545.1313
248.2982, 561.5812
248.7803, 573.8339
249.2624, 574.6818
249.7446, 568.0418
250.2267, 559.8859
250.7088, 552.5384
251.1909, 546.6522
251.6730, 544.4186
252.1551, 547.4413
252.6373, 550.9753
253.1194, 552.9837
253.6015, 554.8270
254.0836, 558.5353
254.5657, 565.3250
255.0478, 572.3602
255.5300, 575.3568
256.0121, 574.0583
256.4942, 569.5641
256.9763, 556.9436
257.4584, 544.2289
257.9406, 537.7207
258.4227, 538.8668
258.9048, 543.1999
259.3869, 547.2151
259.8690, 551.0101
260.3511, 551.9274
260.8333, 545.6144
261.3154, 539.7140
261.7975, 539.9453
262.2796, 546.3004
262.7617, 554.4951
263.2438, 563.9586
263.7260, 573.6188
264.2081, 576.4309
264.6902, 568.4471
265.1723, 558.2880
265.6544, 551.1670
266.1365, 546.8884
266.6187, 545.2499
267.1008, 548.5345
267.5829, 553.9650
268.0650, 555.0626
268.5471, 550.4731
269.0292, 545.4944
269.5114, 542.9336
269.9935, 542.5494
270.4756, 544.6543
270.9577, 552.2562
271.4398, 559.9847
271.9219, 560.2025
272.4041, 552.6376
272.8862, 547.2079
273.3683, 551.0911
273.8504, 559.1564
274.3325, 561.2631
274.8146, 554.4108
275.2968, 546.1921
275.7789, 540.8554
276.2610, 538.1958
276.7431, 537.6873
277.2252, 539.9404
277.7073, 543.2269
278.1895, 544.5203
278.6716, 543.4671
279.1537, 542.5865
279.6358, 542.9573
280.1179, 544.0488
280.6000, 544.5961
281.0822, 544.1240
281.5643, 544.3701
282.0464, 548.4528
282.5285, 556.9225
283.0106, 561.8804
283.4927, 559.0469
283.9749, 554.4706
284.4570, 554.0510
284.9391, 558.0503
285.4212, 562.3960
285.9033, 563.5892
286.3854, 561.6988
286.8676, 561.6971
287.3497, 566.0590
287.8318, 569.7388
288.3139, 570.7397
288.7960, 569.1201
289.2781, 564.7792
289.7603, 557.1712
290.2424, 547.6154
290.7245, 541.9111
291.2066, 541.6997
291.6887, 542.9721
292.1708, 545.5307
292.6530, 549.1248
293.1351, 553.7767
293.6172, 559.4622
294.0993, 565.4586
294.5814, 570.5038
295.0635, 574.6788
295.5457, 577.5546
296.0278, 579.8451
296.5099, 580.4398
296.9920, 576.9792
297.4741, 570.1535
297.9562, 564.1270
298.4384, 563.2761
298.9205, 568.2277
299.4026, 574.2017
299.8847, 585.3943
300.3668, 593.4142
300.8489, 593.0193
301.3310, 587.1758
301.8131, 582.2145
302.2953, 582.2886
302.7774, 586.6100
303.2595, 591.0809
303.7416, 594.5051
304.2237, 600.0454
304.7058, 610.2061
305.1880, 621.7558
305.6701, 631.0003
306.1522, 636.5201
306.6343, 640.4061
307.1164, 645.7126
307.5985, 652.2263
308.0807, 660.9059
308.5628, 671.2527
309.0449, 684.4280
309.5270, 700.2032
310.0091, 719.0184
310.4912, 743.3991
310.9734, 775.1364
311.4555, 814.2443
311.9376, 859.9232
312.4197, 908.9233
312.9018, 970.1116
313.3839, 1045.423
313.8661, 1135.263
314.3482, 1241.042
314.8303, 1371.937
315.3124, 1515.489
315.7945, 1651.865
316.2766, 1781.173
316.7588, 1901.743
317.2409, 2010.451
317.7230, 2108.800
318.2051, 2199.203
318.6872, 2281.479
319.1693, 2355.613
319.6515, 2413.020
320.1336, 2458.957
320.6157, 2518.417
321.0978, 2600.321
321.5799, 2698.012
322.0620, 2801.236
322.5442, 2906.392
323.0263, 3028.499
323.5084, 3167.768
323.9905, 3328.557
324.4726, 3509.055
324.9547, 3709.961
325.4369, 3953.826
325.9190, 4264.405
326.4011, 4649.047
326.8832, 5065.725
327.3653, 5535.128
327.8474, 6018.013
328.3296, 6544.419
328.8117, 7074.165
329.2938, 7514.559
329.7759, 7824.386
330.2580, 7986.224
330.7401, 7909.136
331.2223, 7512.322
331.7044, 6971.959
332.1865, 6198.638
332.6686, 5337.319
333.1507, 4514.193
333.6328, 3776.973
334.1150, 3136.269
334.5971, 2607.554
335.0792, 2210.541
335.5613, 1886.061
336.0434, 1648.694
336.5255, 1461.468
337.0077, 1319.421
337.4898, 1214.267
337.9719, 1130.805
338.4540, 1059.741
338.9361, 1000.477
339.4182, 947.3261
339.9004, 898.3298
340.3825, 859.9874
340.8646, 841.3901
341.3467, 830.3692
341.8288, 809.8538
342.3109, 771.6956
342.7931, 729.9534
343.2752, 707.1007
343.7573, 705.7769
344.2394, 704.5360
344.7215, 698.6771
345.2036, 690.7607
345.6858, 682.7043
346.1679, 674.5977
346.6500, 666.0012
347.1321, 656.1546
347.6142, 645.6224
348.0963, 635.6827
348.5785, 626.2073
349.0606, 618.0779
349.5427, 612.4609
350.0248, 608.8112
350.5069, 605.7455
350.9890, 604.3045
351.4712, 602.3322
351.9533, 596.4869
352.4354, 587.8580
352.9175, 582.7624
353.3996, 585.4269
353.8817, 592.0141
354.3639, 591.7098
354.8460, 580.6403
355.3281, 572.3906
355.8102, 572.2867
356.2923, 575.5394
356.7744, 576.2899
357.2566, 573.3749
357.7387, 569.9048
358.2208, 569.7198
358.7029, 574.0704
359.1850, 574.4843
359.6671, 568.7526
360.1493, 561.9314
360.6314, 556.0549
361.1135, 550.8752
361.5956, 544.8411
362.0777, 536.6861
362.5598, 528.1069
363.0420, 525.7077
363.5241, 535.4895
364.0062, 541.8734
364.4883, 541.4639
364.9704, 538.2891
365.4525, 535.2803
365.9347, 533.2318
366.4168, 531.7968
366.8989, 529.9814
367.3810, 527.5585
367.8631, 528.8128
368.3452, 538.4918
368.8274, 546.3229
369.3095, 544.8542
369.7916, 537.6691
370.2737, 533.7332
370.7558, 539.8549
371.2379, 549.4712
371.7201, 550.2487
372.2022, 541.1432
372.6843, 533.4066
373.1664, 533.2628
373.6485, 536.2932
374.1306, 535.1575
374.6128, 528.1426
375.0949, 522.3809
375.5770, 523.5532
376.0591, 528.2833
376.5412, 528.9653
377.0233, 523.5645
377.5055, 518.0178
377.9876, 519.2003
378.4697, 528.0347
378.9518, 532.7656
379.4339, 531.7910
379.9160, 527.9874
380.3982, 520.8754
380.8803, 512.1471
381.3624, 506.4473
381.8445, 506.6367
382.3266, 510.3215
382.8087, 510.1729
383.2909, 500.6750
383.7730, 494.5161
384.2551, 493.7410
384.7372, 495.2054
385.2193, 496.9262
385.7014, 498.2693
386.1836, 498.9313
386.6657, 498.3394
387.1478, 496.3772
387.6299, 495.4775
388.1120, 496.6581
388.5941, 497.7659
389.0763, 497.8223
389.5584, 497.4118
390.0405, 497.0618
390.5226, 496.5226
391.0047, 497.5542
391.4868, 505.5584
391.9690, 522.0312
392.4511, 530.4568
392.9332, 521.1976
393.4153, 506.6686
393.8974, 498.5387
394.3795, 496.9308
394.8617, 496.9326
395.3438, 497.5946
395.8259, 497.8416
396.3080, 494.7360
396.7901, 487.7571
397.2722, 482.5108
397.7544, 483.8079
398.2365, 490.2483
398.7186, 493.7133
399.2007, 490.5154
399.6828, 488.4980
400.1649, 493.3163
400.6471, 500.7020
401.1292, 502.8914
401.6113, 497.3058
402.0934, 488.4333
402.5755, 482.7048
403.0576, 480.8633
403.5398, 480.3014
404.0219, 481.5835
404.5040, 483.4229
404.9861, 485.9542
405.4682, 488.5045
405.9503, 489.3488
406.4325, 487.0142
406.9146, 483.0401
407.3967, 483.8383
407.8788, 494.5820
408.3609, 499.2771
408.8430, 486.8748
409.3252, 472.9601
409.8073, 472.5107
410.2894, 486.8840
410.7715, 500.5226
411.2536, 496.5597
411.7357, 479.2536
412.2179, 471.3992
412.7000, 477.1726
413.1821, 485.9413
413.6642, 493.1042
414.1463, 497.8597
414.6284, 497.3362
415.1106, 486.4592
415.5927, 475.7281
416.0748, 474.1025
416.5569, 479.0412
417.0390, 482.3627
417.5211, 480.9310
418.0033, 478.2516
418.4854, 479.9616
418.9675, 488.2184
419.4496, 493.4374
419.9317, 495.4009
420.4138, 494.0970
420.8960, 487.4274
421.3781, 477.1794
421.8602, 468.0967
422.3423, 463.0728
422.8244, 461.8889
423.3065, 463.9059
423.7887, 473.8938
424.2708, 479.5069
424.7529, 476.4193
425.2350, 470.9370
425.7171, 468.0956
426.1992, 468.6138
426.6814, 470.0350
427.1635, 470.2582
427.6456, 469.3429
428.1277, 467.8583
428.6098, 465.3605
429.0919, 463.1556
429.5741, 461.2043
430.0562, 460.1290
430.5383, 461.2119
431.0204, 465.4113
431.5025, 470.3985
431.9846, 476.0263
432.4668, 481.1470
432.9489, 480.8472
433.4310, 472.9417
433.9131, 462.3722
434.3952, 453.8328
434.8773, 447.2358
435.3595, 445.8780
435.8416, 456.0954
436.3237, 466.1005
436.8058, 468.3168
437.2879, 464.3515
437.7701, 458.9702
438.2522, 454.4843
438.7343, 450.8890
439.2164, 447.9934
439.6985, 443.8444
440.1806, 444.1949
440.6628, 451.8080
441.1449, 461.1524
441.6270, 470.3939
442.1091, 478.3247
442.5912, 482.6681
443.0733, 480.4814
443.5555, 473.8093
444.0376, 471.1320
444.5197, 474.3622
445.0018, 476.2191
445.4839, 472.6306
445.9660, 466.9177
446.4482, 461.9391
446.9303, 458.0215
447.4124, 455.1556
447.8945, 453.9419
448.3766, 453.6620
448.8587, 452.2933
449.3409, 449.3930
449.8230, 447.9176
450.3051, 450.7986
450.7872, 457.4890
451.2693, 461.9686
451.7514, 462.9586
452.2336, 463.4163
452.7157, 464.4178
453.1978, 465.4204
453.6799, 465.6031
454.1620, 464.7425
454.6441, 463.2221
455.1263, 461.4044
455.6084, 459.1058
456.0905, 457.5632
456.5726, 456.5591
457.0547, 456.6235
457.5368, 459.9925
458.0190, 464.0551
458.5011, 464.2414
458.9832, 458.1351
459.4653, 449.8750
459.9474, 444.9452
460.4295, 443.3851
460.9117, 443.9951
461.3938, 448.0985
461.8759, 452.2134
462.3580, 452.9289
462.8401, 450.8264
463.3222, 448.8047
463.8044, 448.1838
464.2865, 447.5445
464.7686, 444.7300
465.2507, 440.5692
465.7328, 438.5743
466.2149, 440.4888
466.6971, 444.6077
467.1792, 447.7518
467.6613, 450.4177
468.1434, 450.7581
468.6255, 446.2826
469.1076, 441.6853
469.5898, 439.1303
470.0719, 439.0148
470.5540, 442.2378
471.0361, 450.1923
471.5182, 459.6486
472.0003, 459.9896
472.4825, 446.5349
472.9646, 436.7369
473.4467, 437.3824
473.9288, 440.7612
474.4109, 442.6249
474.8930, 442.6322
475.3752, 441.7646
475.8573, 440.4370
476.3394, 438.6533
476.8215, 434.8978
477.3036, 429.1163
477.7857, 428.6006
478.2679, 439.8868
478.7500, 456.3667
479.2321, 461.0427
479.7142, 449.0675
480.1963, 439.4794
480.6784, 436.0066
481.1606, 436.3762
481.6427, 440.7372
482.1248, 447.6043
482.6069, 451.7900
483.0890, 449.0122
483.5711, 440.7815
484.0533, 435.3066
484.5354, 432.5175
485.0175, 432.9040
485.4996, 439.9005
485.9817, 447.3108
486.4638, 449.9454
486.9460, 447.4490
487.4281, 443.2993
487.9102, 438.7096
488.3923, 434.6191
488.8744, 434.6179
489.3565, 439.4569
489.8387, 444.1252
490.3208, 445.7382
490.8029, 445.7784
491.2850, 447.9635
491.7671, 454.2538
492.2492, 457.0719
492.7314, 449.2922
493.2135, 439.2435
493.6956, 438.5266
494.1777, 446.8873
494.6598, 452.8470
495.1419, 446.7426
495.6241, 431.3562
496.1062, 424.8182
496.5883, 436.0653
497.0704, 443.9070
497.5525, 445.2962
498.0346, 443.3186
498.5168, 439.2928
498.9989, 434.1023
499.4810, 429.9612
499.9631, 428.7604
500.4452, 430.0622
500.9273, 432.7548
501.4095, 437.4349
501.8916, 441.0060
502.3737, 442.1529
502.8558, 441.3016
503.3379, 438.9251
503.8200, 434.4368
504.3022, 430.9884
504.7843, 430.2195
505.2664, 430.8559
505.7485, 431.2923
506.2306, 431.5392
506.7127, 433.1370
507.1949, 437.5724
507.6770, 443.5526
508.1591, 445.3033
508.6412, 438.4696
509.1233, 433.6819
509.6054, 432.7352
510.0876, 432.9819
510.5697, 433.1760
511.0518, 432.8167
511.5339, 431.0716
512.0161, 426.3845
512.4982, 420.4978
512.9803, 418.5630
513.4624, 421.1938
513.9445, 424.1511
514.4266, 425.8906
514.9088, 427.3463
515.3909, 430.2909
515.8730, 435.0109
516.3551, 437.6787
516.8372, 436.7277
517.3193, 433.5435
517.8015, 427.7843
518.2836, 420.6213
518.7657, 416.0604
519.2478, 416.4257
519.7299, 419.8563
520.2120, 421.9180
520.6942, 421.6221
521.1763, 421.8363
521.6584, 423.8539
522.1405, 425.1269
522.6226, 423.5736
523.1047, 420.1382
523.5869, 417.3920
524.0690, 416.7960
524.5511, 417.2791
525.0332, 417.4304
525.5153, 417.2454
525.9974, 415.4014
526.4796, 409.5328
526.9617, 405.2717
527.4438, 412.0087
527.9259, 427.9930
528.4080, 436.4426
528.8901, 426.3824
529.3723, 416.7080
529.8544, 422.9012
530.3365, 436.7439
530.8186, 439.8922
531.3007, 426.4078
531.7828, 409.0933
532.2650, 406.7075
532.7471, 422.8248
533.2292, 431.5047
533.7113, 426.7470
534.1934, 421.1404
534.6755, 418.3505
535.1577, 417.0593
535.6398, 415.1325
536.1219, 411.8564
536.6040, 408.8261
537.0861, 406.6876
537.5682, 405.9554
538.0504, 410.0113
538.5325, 420.2256
539.0146, 427.1824
539.4967, 421.8666
539.9788, 407.8808
540.4609, 403.3322
540.9431, 417.7868
541.4252, 427.4290
541.9073, 423.9176
542.3894, 415.7572
542.8715, 409.7494
543.3536, 407.3214
543.8358, 408.3639
544.3179, 413.6984
544.8000, 421.5330
545.2821, 423.2179
545.7642, 415.7893
546.2463, 410.3817
546.7285, 413.2737
547.2106, 416.6035
547.6926, 412.6672
548.1747, 402.1003
548.6569, 394.6136
549.1390, 398.2876
549.6211, 404.4762
550.1032, 401.7776
550.5853, 392.5304
551.0674, 388.1371
551.5496, 393.5834
552.0317, 403.6225
552.5138, 410.1639
552.9959, 413.3351
553.4780, 412.3324
553.9601, 402.1424
554.4423, 393.7450
554.9244, 392.9164
555.4065, 396.3606
555.8886, 398.7328
556.3707, 398.0740
556.8528, 396.1217
557.3350, 394.4840
557.8171, 393.2468
558.2992, 393.1921
558.7813, 394.5509
559.2634, 396.6816
559.7455, 400.2022
560.2277, 403.9992
560.7098, 404.5548
561.1919, 398.8125
561.6740, 395.1466
562.1561, 399.3228
562.6382, 404.9500
563.1204, 404.1829
563.6025, 397.2458
564.0846, 390.3398
564.5667, 387.8101
565.0488, 389.0694
565.5309, 392.2814
566.0131, 399.2439
566.4952, 403.6033
566.9773, 402.0453
567.4594, 399.2885
567.9415, 399.0369
568.4236, 400.4874
568.9058, 399.3368
569.3879, 389.9857
569.8700, 380.6365
570.3521, 380.8425
570.8342, 388.1895
571.3163, 395.1001
571.7985, 399.4193
572.2806, 400.9700
572.7627, 398.8983
573.2448, 392.4612
573.7269, 389.4296
574.2090, 393.0341
574.6912, 395.9715
575.1733, 397.1429
575.6554, 396.3277
576.1375, 391.9918
576.6196, 384.3529
577.1017, 378.3497
577.5839, 378.7535
578.0660, 384.3625
578.5481, 392.9303
579.0302, 405.3134
579.5123, 412.1419
579.9944, 406.7095
580.4766, 395.3342
580.9587, 390.7286
581.4408, 394.6756
581.9229, 396.4374
582.4050, 392.0093
582.8871, 387.2705
583.3693, 386.9714
583.8514, 389.3791
584.3335, 389.0772
584.8156, 383.5386
585.2977, 378.3225
585.7798, 385.3569
586.2620, 406.6693
586.7441, 414.8173
587.2262, 400.3207
587.7083, 386.1239
588.1904, 388.7821
588.6725, 399.4015
589.1547, 403.0705
589.6368, 395.1190
590.1189, 387.3660
590.6010, 385.4735
591.0831, 386.9849
591.5652, 390.4592
592.0474, 394.7563
592.5295, 395.7523
593.0116, 390.2264
593.4937, 380.8512
593.9758, 375.9704
594.4579, 377.4455
594.9401, 379.0423
595.4222, 381.6841
595.9043, 383.0126
596.3864, 380.2510
596.8685, 375.2427
597.3506, 372.7059
597.8328, 375.0325
598.3149, 379.1035
598.7970, 383.7429
599.2791, 387.7990
599.7612, 387.3105
600.2433, 381.4948
600.7255, 375.6376
601.2076, 374.4225
601.6897, 377.1437
602.1718, 378.0001
602.6539, 373.7370
603.1360, 372.1013
603.6182, 375.5587
604.1003, 380.3123
604.5824, 384.6605
605.0645, 387.7922
605.5466, 388.2117
606.0287, 384.4342
606.5109, 378.3522
606.9930, 370.9034
607.4751, 362.8368
607.9572, 361.2345
608.4393, 369.1341
608.9214, 378.9265
609.4036, 383.1994
609.8857, 381.9116
610.3678, 379.9186
610.8499, 376.6427
611.3320, 373.4758
611.8141, 368.7258
612.2963, 365.4937
612.7784, 368.9786
613.2605, 378.2115
613.7426, 385.1059
614.2247, 381.9098
614.7068, 373.4137
615.1890, 372.6381
615.6711, 380.0497
616.1532, 384.2707
616.6353, 380.7676
617.1174, 375.2197
617.5995, 374.8155
618.0817, 379.6809
618.5638, 380.2557
619.0459, 369.7658
619.5280, 362.3364
620.0101, 366.9622
620.4922, 375.9616
620.9744, 378.5252
621.4565, 373.3709
621.9386, 368.8617
622.4207, 374.0817
622.9028, 385.2971
623.3849, 386.3716
623.8671, 375.1662
624.3492, 366.4333
624.8313, 365.6835
625.3134, 368.0475
625.7955, 367.1673
626.2776, 363.2757
626.7598, 362.5483
627.2419, 368.1124
627.7240, 374.5637
628.2061, 381.6551
628.6882, 386.8896
629.1703, 384.3036
629.6525, 373.9241
630.1346, 365.5490
630.6167, 370.2705
631.0988, 385.0254
631.5809, 392.4301
632.0630, 391.1649
632.5452, 387.5766
633.0273, 381.8427
633.5094, 376.2161
633.9915, 373.8959
634.4736, 374.6542
634.9557, 373.6450
635.4379, 368.0844
635.9200, 362.4634
636.4021, 357.9807
636.8842, 355.5807
637.3663, 358.3174
637.8484, 366.0143
638.3306, 372.1275
638.8127, 368.8762
639.2948, 358.5773
639.7769, 356.2509
640.2590, 364.2914
640.7411, 371.8776
641.2233, 376.5545
641.7054, 378.8652
642.1875, 378.7546
642.6696, 376.4605
643.1517, 374.9635
643.6339, 375.3560
644.1160, 376.1831
644.5981, 376.2373
645.0802, 376.3710
645.5623, 378.7326
646.0444, 383.2999
646.5266, 386.7148
647.0087, 385.5642
647.4908, 380.8264
647.9729, 376.7344
648.4550, 372.9905
648.9371, 371.4061
649.4193, 374.2018
649.9014, 377.4183
650.3835, 376.4386
650.8656, 372.0201
651.3477, 369.5876
651.8298, 369.7023
652.3120, 372.3674
652.7941, 380.8915
653.2762, 390.3668
653.7583, 393.3955
654.2404, 389.5156
654.7225, 384.7210
655.2047, 384.2294
655.6868, 386.0060
656.1689, 382.1356
656.6510, 371.0191
657.1331, 364.3045
657.6152, 365.7069
658.0974, 370.3273
658.5795, 375.2866
659.0616, 380.1156
659.5437, 382.3386
660.0258, 379.2191
660.5079, 376.6082
660.9901, 377.1786
661.4722, 378.7979
661.9543, 378.2053
662.4364, 376.0645
662.9185, 377.0318
663.4006, 385.0892
663.8828, 395.5830
664.3649, 397.0324
664.8470, 389.0416
665.3291, 385.5610
665.8112, 390.3774
666.2933, 396.0008
666.7755, 396.2501
667.2576, 392.6972
667.7397, 392.5387
668.2218, 400.7705
668.7039, 404.2807
669.1860, 396.0318
669.6682, 385.8524
670.1503, 379.6112
670.6324, 378.3555
671.1145, 383.3175
671.5966, 395.8556
672.0787, 409.3282
672.5609, 414.3228
673.0430, 411.6761
673.5251, 406.3529
674.0072, 398.0001
674.4893, 391.7262
674.9714, 390.5714
675.4536, 393.5428
675.9357, 398.5383
676.4178, 408.7114
676.8999, 413.9408
677.3820, 411.3172
677.8641, 406.3926
678.3463, 399.9926
678.8284, 393.9902
679.3105, 391.1610
679.7926, 392.3890
680.2747, 395.3498
680.7568, 398.2502
681.2390, 401.1646
681.7211, 404.8745
682.2032, 409.2424
682.6853, 411.2071
683.1674, 408.9132
683.6495, 405.3609
684.1317, 405.4563
684.6138, 410.2533
685.0959, 413.1099
685.5780, 415.0694
686.0601, 413.7884
686.5422, 402.0188
687.0244, 390.7852
687.5065, 394.8737
687.9886, 414.4330
688.4707, 430.2055
688.9528, 427.6891
689.4349, 418.5767
689.9171, 414.9801
690.3992, 415.9038
690.8813, 418.7723
691.3634, 422.7965
691.8455, 426.4001
692.3276, 427.9383
692.8098, 427.6104
693.2919, 427.1511
693.7740, 426.7784
694.2561, 425.6859
694.7382, 418.8278
695.2203, 415.7543
695.7025, 427.7735
696.1846, 449.8429
696.6667, 462.6728
697.1488, 456.5416
697.6309, 447.6822
698.1130, 441.0089
698.5952, 438.5862
699.0773, 446.8118
699.5594, 462.9938
700.0415, 473.8705
700.5236, 470.7080
701.0057, 460.7393
701.4879, 459.8481
701.9700, 468.6668
702.4521, 472.8422
702.9342, 469.8455
703.4163, 465.2420
703.8984, 460.4973
704.3806, 457.1212
704.8627, 458.9769
705.3448, 467.8287
705.8269, 476.4153
706.3090, 484.8687
706.7911, 491.7199
707.2733, 495.2921
707.7554, 496.9397
708.2375, 498.5963
708.7196, 500.9287
709.2017, 504.0526
709.6838, 507.8366
710.1660, 512.5554
710.6481, 519.3039
711.1302, 527.9787
711.6123, 536.3572
712.0944, 543.3827
712.5765, 551.2018
713.0587, 563.5063
713.5408, 580.8627
714.0229, 590.5198
714.5050, 586.4344
714.9871, 582.6748
715.4692, 576.0963
715.9514, 574.8074
716.4335, 589.1346
716.9156, 615.8211
717.3977, 638.5776
717.8798, 646.9367
718.3619, 654.8772
718.8441, 674.3217
719.3262, 700.6219
719.8083, 726.9428
720.2904, 751.8351
720.7725, 774.5530
721.2546, 793.9644
721.7368, 813.0418
722.2189, 840.7086
722.7010, 879.2234
723.1831, 909.1336
723.6652, 921.4810
724.1473, 940.1765
724.6295, 983.5612
725.1116, 1040.294
725.5937, 1086.157
726.0758, 1116.542
726.5579, 1151.169
727.0400, 1198.806
727.5222, 1246.524
728.0043, 1285.308
728.4864, 1319.691
728.9685, 1356.740
729.4506, 1398.502
729.9327, 1443.808
730.4149, 1492.888
730.8970, 1543.995
731.3791, 1591.691
731.8612, 1636.772
732.3433, 1688.703
732.8254, 1751.845
733.3076, 1813.366
733.7897, 1859.750
734.2718, 1891.976
734.7539, 1925.338
735.2360, 1964.525
735.7181, 1997.143
736.2003, 2020.126
736.6824, 2038.160
737.1645, 2056.629
737.6466, 2072.479
738.1287, 2077.004
738.6108, 2066.418
739.0930, 2047.889
739.5751, 2026.903
740.0572, 1999.161
740.5393, 1958.493
741.0214, 1906.467
741.5035, 1848.822
741.9857, 1788.666
742.4678, 1724.308
742.9499, 1649.097
743.4320, 1564.747
743.9141, 1495.430
744.3962, 1444.169
744.8784, 1392.594
745.3605, 1333.646
745.8426, 1269.865
746.3247, 1203.070
746.8068, 1131.813
747.2889, 1070.199
747.7711, 1023.091
748.2532, 978.1041
748.7353, 931.5160
749.2174, 886.1410
749.6995, 842.1891
750.1816, 801.4726
750.6638, 770.5804
751.1459, 757.6877
751.6280, 746.2798
752.1101, 718.8206
752.5922, 682.8051
753.0743, 652.1014
753.5565, 628.1588
754.0386, 606.4623
754.5207, 584.4300
755.0028, 563.5355
755.4849, 547.1750
755.9670, 535.9384
756.4492, 523.3935
756.9313, 507.8035
757.4134, 495.1285
757.8955, 490.3202
758.3776, 487.9748
758.8597, 477.9504
759.3419, 458.9254
759.8240, 447.2458
760.3061, 452.2337
760.7882, 455.1692
761.2703, 448.6015
761.7524, 436.7473
762.2346, 421.8895
762.7167, 406.0404
763.1988, 394.3159
763.6809, 390.9372
764.1630, 390.5768
764.6451, 387.7120
765.1273, 382.9356
765.6094, 376.8594
766.0915, 369.9505
766.5736, 365.2858
767.0557, 365.0906
767.5378, 366.8210
768.0200, 364.3969
768.5021, 356.6851
768.9842, 351.8523
769.4663, 350.9494
769.9484, 350.9997
770.4305, 351.4119
770.9127, 351.6215
771.3948, 350.8309
771.8769, 349.0296
772.3590, 346.6457
772.8411, 341.0856
773.3232, 338.1349
773.8054, 343.7540
774.2875, 350.6363
774.7696, 350.7924
775.2517, 344.1370
775.7338, 335.3128
776.2159, 325.2570
776.6981, 317.4979
777.1802, 318.0023
777.6623, 323.3389
778.1444, 325.8322
778.6265, 324.6616
779.1086, 321.6237
779.5908, 317.4841
780.0729, 313.7975
780.5550, 313.8543
781.0371, 318.1108
781.5192, 321.7510
782.0013, 325.1764
782.4835, 326.8655
782.9656, 325.4662
783.4477, 322.7707
783.9298, 320.9444
784.4119, 319.9987
784.8940, 319.2512
785.3762, 319.4380
785.8583, 318.8348
786.3404, 315.6245
786.8225, 312.5065
787.3046, 311.7942
787.7867, 313.3124
788.2689, 316.0738
788.7510, 320.5555
789.2331, 323.2416
789.7152, 319.4344
790.1973, 312.8169
790.6794, 308.1161
791.1616, 306.1499
791.6437, 309.0821
792.1258, 317.8726
792.6079, 326.2095
793.0900, 324.2854
793.5721, 313.5297
794.0543, 308.7633
794.5364, 310.9683
795.0185, 312.9536
795.5006, 312.7737
795.9827, 311.4908
796.4648, 309.9822
796.9470, 308.2618
797.4291, 306.5387
797.9112, 302.4024
798.3933, 301.8128
798.8754, 309.0302
799.3575, 315.8964
799.8397, 317.8559
800.3218, 316.0554
800.8039, 312.7045
801.2860, 307.9932
801.7681, 304.0252
802.2502, 302.3484
802.7324, 301.4442
803.2145, 300.4391
803.6966, 299.0082
804.1787, 296.1898
804.6608, 292.0589
805.1429, 288.4677
805.6251, 286.3428
806.1072, 286.6501
806.5893, 293.0662
807.0714, 304.5752
807.5535, 314.0123
808.0356, 320.3282
808.5178, 321.4618
808.9999, 315.2320
809.4820, 304.6295
809.9641, 297.0755
810.4462, 292.6628
810.9283, 291.1100
811.4105, 294.6177
811.8926, 297.3901
812.3747, 296.5770
812.8568, 294.3074
813.3389, 292.8330
813.8210, 292.1872
814.3032, 291.9520
814.7853, 291.2630
815.2674, 292.0065
815.7495, 296.2664
816.2316, 301.1091
816.7137, 304.4190
817.1959, 305.8524
817.6780, 305.4474
818.1601, 303.0894
818.6422, 299.5143
819.1243, 293.3630
819.6064, 287.4806
820.0886, 287.1223
820.5707, 291.2103
821.0528, 295.4970
821.5349, 298.3897
822.0170, 299.3400
822.4991, 296.8979
822.9813, 292.4872
823.4634, 293.4418
823.9455, 300.2170
824.4276, 302.2213
824.9097, 296.0514
825.3918, 289.6764
825.8740, 289.2306
826.3561, 293.0786
826.8382, 296.0064
827.3203, 299.5843
827.8024, 298.4713
828.2845, 285.0896
828.7667, 276.3824
829.2488, 283.7408
829.7309, 295.8030
830.2130, 297.1318
830.6951, 286.9687
831.1772, 282.8495
831.6594, 296.0790
832.1415, 307.4525
832.6236, 307.6095
833.1057, 302.6712
833.5878, 298.0478
834.0699, 294.3664
834.5521, 290.0500
835.0342, 283.8268
835.5163, 280.0172
835.9984, 285.9454
836.4805, 295.0957
836.9626, 294.8410
837.4448, 287.6388
837.9269, 285.3293
838.4090, 291.6972
838.8911, 300.0912
839.3732, 304.1743
839.8553, 304.0899
840.3375, 298.2455
840.8196, 286.4041
841.3017, 282.5760
841.7838, 290.9741
842.2659, 298.9790
842.7480, 298.0070
843.2302, 290.7822
843.7123, 283.4572
844.1944, 273.7646
844.6765, 271.9910
845.1586, 285.1603
845.6407, 295.7694
846.1229, 295.4631
846.6050, 291.6467
847.0871, 291.5947
847.5692, 295.0681
848.0513, 297.4041
848.5334, 298.7525
849.0156, 297.8411
849.4977, 291.2289
849.9798, 284.9933
850.4619, 285.6482
850.9440, 290.0015
851.4261, 289.6111
851.9083, 281.4479
852.3904, 275.4527
852.8725, 282.8629
853.3546, 291.6942
853.8367, 285.5897
854.3188, 272.1571
854.8010, 268.6258
855.2831, 277.3100
855.7652, 287.2971
856.2473, 291.0131
856.7294, 290.2544
857.2115, 285.5532
857.6937, 278.8503
858.1758, 280.9773
858.6579, 292.5074
859.1400, 299.8127
859.6221, 296.0464
860.1042, 289.0630
860.5864, 290.7453
861.0685, 300.5961
861.5506, 304.5983
862.0327, 301.3871
862.5148, 297.3004
862.9969, 292.3720
863.4791, 289.5534
863.9612, 292.4029
864.4433, 298.8724
864.9254, 301.3817
865.4075, 297.0895
865.8896, 294.7781
866.3718, 297.1837
866.8539, 298.2067
867.3360, 294.5029
867.8181, 289.0898
868.3002, 284.4618
868.7823, 281.0651
869.2645, 281.0103
869.7466, 287.3875
870.2287, 293.8853
870.7108, 298.9377
871.1929, 302.3739
871.6750, 303.6552
872.1572, 303.2753
872.6393, 301.7249
873.1214, 299.0580
873.6035, 297.9073
874.0856, 301.8085
874.5677, 306.8596
875.0499, 309.6101
875.5320, 309.8185
876.0141, 305.8773
876.4962, 298.5334
876.9783, 293.0984
877.4604, 293.4987
877.9426, 296.2938
878.4247, 295.9753
878.9068, 293.3221
879.3889, 290.4008
879.8710, 287.6508
880.3531, 288.8643
880.8353, 295.8747
881.3174, 302.4702
881.7995, 300.6453
882.2816, 292.0780
882.7637, 287.6994
883.2458, 288.1706
883.7280, 287.8710
884.2101, 285.5251
884.6922, 283.5067
885.1743, 283.2156
885.6564, 284.4444
886.1385, 287.1146
886.6207, 292.1918
887.1028, 294.1890
887.5849, 290.9410
888.0670, 288.0825
888.5491, 286.6887
889.0313, 286.6161
889.5134, 288.4450
889.9955, 291.6032
890.4776, 293.4258
890.9597, 292.6076
891.4418, 292.4841
891.9240, 294.6632
892.4061, 296.3865
892.8882, 296.0313
893.3703, 294.4280
893.8524, 292.9711
894.3345, 291.7506
894.8167, 289.3279
895.2988, 282.1825
895.7809, 277.2906
896.2630, 280.8413
896.7451, 286.6145
897.2272, 287.7392
897.7094, 285.3855
898.1915, 284.5009
898.6736, 286.8644
899.1557, 289.2139
899.6378, 288.5498
900.1199, 286.7416
900.6021, 285.5387
901.0842, 285.1629
901.5663, 286.1115
902.0484, 288.3299
902.5305, 291.7163
903.0126, 296.6635
903.4948, 299.8162
903.9769, 293.9892
904.4590, 282.6622
904.9411, 276.5462
905.4232, 275.8514
905.9053, 279.1414
906.3875, 285.8712
906.8696, 291.1574
907.3517, 289.5911
907.8338, 284.1569
908.3159, 286.3746
908.7980, 296.3531
909.2802, 296.8768
909.7623, 284.5873
910.2444, 275.1698
910.7265, 276.8276
911.2086, 283.3272
911.6907, 285.8463
912.1729, 284.4293
912.6550, 282.7459
913.1371, 279.2774
913.6192, 281.3177
914.1013, 295.3908
914.5834, 304.7921
915.0656, 294.4716
915.5477, 274.4742
916.0298, 268.5152
916.5119, 281.2631
916.9940, 290.6166
917.4761, 296.5733
917.9583, 299.1085
918.4404, 296.9817
918.9225, 292.5363
919.4046, 285.6543
919.8867, 277.8452
920.3688, 274.5581
920.8510, 277.4909
921.3331, 282.0374
921.8152, 291.5974
922.2973, 297.9551
922.7794, 294.1234
923.2615, 287.1399
923.7437, 285.5026
924.2258, 289.2915
924.7079, 292.6266
925.1900, 293.6173
925.6721, 294.0999
926.1542, 293.8606
926.6364, 294.2987
927.1185, 298.2858
927.6006, 303.0455
928.0827, 303.2386
928.5648, 298.0484
929.0469, 292.7802
929.5291, 289.3462
930.0112, 288.1183
930.4933, 290.8152
930.9754, 294.8976
931.4575, 297.5965
931.9396, 298.7109
932.4218, 298.6255
932.9039, 297.5118
933.3860, 296.2361
933.8681, 295.1446
934.3502, 294.6328
934.8323, 294.9969
935.3145, 296.4142
935.7966, 300.7792
936.2787, 306.9722
936.7608, 308.6918
937.2429, 302.2994
937.7250, 294.9910
938.2072, 296.4738
938.6893, 303.1902
939.1714, 309.1635
939.6535, 313.0124
940.1356, 307.8483
940.6177, 293.2808
941.0999, 280.9154
941.5820, 279.0749
942.0641, 283.2876
942.5462, 285.4276
943.0283, 286.3993
943.5104, 292.4301
943.9926, 303.1099
944.4747, 309.8519
944.9568, 309.9797
945.4389, 306.5920
945.9210, 302.1352
946.4031, 297.0256
946.8853, 290.9861
947.3674, 284.0610
947.8495, 286.7698
948.3316, 300.9363
948.8137, 311.0361
949.2958, 310.8878
949.7780, 305.0550
950.2601, 297.3987
950.7422, 289.3088
951.2243, 289.6057
951.7064, 300.3659
952.1885, 304.9894
952.6707, 299.5467
953.1528, 297.5190
953.6349, 307.1643
954.1170, 319.0120
954.5991, 319.6881
955.0812, 309.8199
955.5634, 303.5222
956.0455, 301.9963
956.5276, 300.3019
957.0097, 297.1476
957.4918, 295.3928
957.9739, 297.9239
958.4561, 301.2585
958.9382, 299.1923
959.4203, 291.1482
959.9024, 285.8101
960.3845, 283.6495
960.8666, 283.3513
961.3488, 285.9908
961.8309, 288.7346
962.3130, 290.0454
962.7951, 290.1934
963.2772, 289.3644
963.7593, 286.9921
964.2415, 286.6737
964.7236, 288.7771
965.2057, 292.4049
965.6878, 300.6186
966.1699, 307.2047
966.6520, 306.4282
967.1342, 301.5237
967.6163, 300.3497
968.0984, 304.8108
968.5805, 306.0392
969.0626, 299.0247
969.5447, 294.8786
970.0269, 299.8245
970.5090, 305.5095
970.9911, 303.9161
971.4732, 298.2075
971.9553, 297.2198
972.4374, 302.6253
972.9196, 309.6624
973.4017, 323.2392
973.8838, 331.3208
974.3659, 326.0723
974.8480, 316.5459
975.3301, 309.6794
975.8123, 305.4424
976.2944, 302.2511
976.7765, 299.9706
977.2586, 298.3414
977.7407, 296.5819
978.2228, 296.3575
978.7050, 298.4326
979.1871, 302.3737
979.6692, 309.6284
980.1513, 318.3617
980.6334, 322.5944
981.1155, 319.8892
981.5977, 316.2355
982.0798, 309.7741
982.5619, 307.0494
983.0440, 315.6106
983.5261, 326.5917
984.0082, 329.9188
984.4904, 326.4394
984.9725, 323.4356
985.4546, 323.7437
985.9367, 321.8405
986.4188, 310.3815
986.9009, 302.1720
987.3831, 308.7008
987.8652, 319.8901
988.3473, 323.3548
988.8294, 319.6289
989.3115, 317.3368
989.7936, 319.8675
990.2758, 321.6500
990.7579, 318.8932
991.2400, 316.3047
991.7221, 318.6058
992.2042, 321.7054
992.6863, 319.2380
993.1685, 312.2713
993.6506, 308.3852
994.1327, 311.2311
994.6148, 314.0367
995.0969, 312.4471
995.5790, 311.2517
996.0612, 316.9195
996.5433, 322.8428
997.0254, 317.8230
997.5075, 304.1603
997.9896, 296.9664
998.4717, 303.4471
998.9539, 310.6643
999.4360, 314.1600
999.9181, 314.7214
1000.400, 310.0218
1000.882, 304.5438
1001.364, 304.9346
1001.847, 310.2292
1002.329, 313.0939
1002.811, 310.0606
1003.293, 307.3454
1003.775, 306.0741
1004.257, 308.0448
1004.739, 318.4622
1005.221, 330.2723
1005.703, 333.7941
1006.186, 329.9031
1006.668, 326.6475
1007.150, 326.6381
1007.632, 327.7194
1008.114, 329.6084
1008.596, 331.4883
1009.078, 333.1467
1009.560, 334.2725
1010.043, 334.4911
1010.525, 333.8593
1011.007, 332.7424
1011.489, 331.2694
1011.971, 329.2280
1012.453, 325.0607
1012.935, 321.9528
1013.417, 322.6251
1013.899, 324.8514
1014.382, 325.1824
1014.864, 324.6874
1015.346, 328.5370
1015.828, 339.8279
1016.310, 348.0749
1016.792, 348.0599
1017.274, 345.3611
1017.756, 340.6099
1018.239, 336.5944
1018.721, 337.4566
1019.203, 341.3098
1019.685, 341.4193
1020.167, 334.9141
1020.649, 331.4504
1021.131, 337.4438
1021.613, 343.0971
1022.095, 343.7751
1022.578, 342.1622
1023.060, 338.7825
1023.542, 335.6894
1024.024, 338.6529
1024.506, 350.5696
1024.988, 356.2813
1025.470, 344.3545
1025.952, 335.3807
1026.435, 339.5780
1026.917, 347.3722
1027.399, 351.8058
1027.881, 353.5389
1028.363, 355.0941
1028.845, 356.8298
1029.327, 358.0093
1029.809, 358.0786
1030.292, 358.1588
1030.774, 358.7534
1031.256, 359.2527
1031.738, 358.0523
1032.220, 356.9532
1032.702, 359.7379
1033.184, 367.0413
1033.666, 372.8034
1034.148, 374.7667
1034.630, 377.5377
1035.113, 382.5715
1035.595, 387.8241
1036.077, 393.1091
1036.559, 397.4136
1037.041, 398.7489
1037.523, 397.0018
1038.005, 396.0858
1038.487, 395.1353
1038.970, 396.4671
1039.452, 400.5946
1039.934, 406.6353
1040.416, 416.4049
1040.898, 425.9720
1041.380, 429.8403
1041.862, 428.6542
1042.344, 429.5844
1042.826, 432.2293
1043.309, 438.1493
1043.791, 450.0807
1044.273, 460.2677
1044.755, 465.5290
1045.237, 468.3726
1045.719, 470.5836
1046.201, 472.7817
1046.683, 478.0562
1047.166, 487.6189
1047.648, 496.3983
1048.130, 504.5533
1048.612, 511.3383
1049.094, 516.4744
1049.576, 519.9704
1050.058, 520.7467
1050.540, 521.2772
1051.022, 529.0440
1051.505, 545.0612
1051.987, 558.3486
1052.469, 568.8685
1052.951, 575.3157
1053.433, 576.1487
1053.915, 580.3459
1054.397, 595.0721
1054.879, 613.2950
1055.361, 621.6488
1055.844, 621.0865
1056.326, 621.7167
1056.808, 623.5756
1057.290, 633.6695
1057.772, 653.2626
1058.254, 675.5109
1058.736, 697.1086
1059.218, 716.0258
1059.701, 728.5795
1060.183, 736.9203
1060.665, 747.3409
1061.147, 760.1156
1061.629, 777.6616
1062.111, 799.5673
1062.593, 819.6905
1063.075, 835.8289
1063.557, 853.5878
1064.040, 878.4897
1064.522, 907.6187
1065.004, 936.7614
1065.486, 965.2999
1065.968, 988.7042
1066.450, 1009.997
1066.932, 1040.547
1067.414, 1082.736
1067.896, 1129.143
1068.379, 1174.863
1068.861, 1221.656
1069.343, 1274.025
1069.825, 1326.714
1070.307, 1365.272
1070.789, 1401.587
1071.271, 1463.259
1071.753, 1548.847
1072.236, 1632.097
1072.718, 1700.857
1073.200, 1771.067
1073.682, 1853.335
1074.164, 1943.606
1074.646, 2040.462
1075.128, 2142.414
1075.610, 2246.960
1076.093, 2355.337
1076.575, 2469.031
1077.057, 2588.298
1077.539, 2725.419
1078.021, 2880.682
1078.503, 3061.043
1078.985, 3277.375
1079.467, 3512.024
1079.949, 3745.349
1080.432, 3991.562
1080.914, 4276.419
1081.396, 4601.224
1081.878, 4948.576
1082.360, 5304.038
1082.842, 5702.307
1083.324, 6146.178
1083.806, 6635.323
1084.288, 7172.804
1084.771, 7751.875
1085.253, 8364.557
1085.735, 9006.465
1086.217, 9661.868
1086.699, 10306.98
1087.181, 11024.68
1087.663, 11833.83
1088.145, 12675.47
1088.628, 13542.22
1089.110, 14423.47
1089.592, 15322.53
1090.074, 16225.83
1090.556, 17116.47
1091.038, 17996.20
1091.520, 18780.77
1092.002, 19466.41
1092.484, 20065.33
1092.967, 20592.68
1093.449, 20946.20
1093.931, 21076.30
1094.413, 21011.99
1094.895, 20788.84
1095.377, 20406.79
1095.859, 19847.13
1096.341, 19124.06
1096.823, 18340.59
1097.306, 17510.10
1097.788, 16640.01
1098.270, 15737.19
1098.752, 14835.53
1099.234, 13963.64
1099.716, 13119.42
1100.198, 12284.84
1100.680, 11483.52
1101.163, 10766.97
1101.645, 10124.29
1102.127, 9529.934
1102.609, 8977.104
1103.091, 8450.167
1103.573, 7946.450
1104.055, 7466.377
1104.537, 7007.776
1105.020, 6580.304
1105.502, 6200.667
1105.984, 5852.028
1106.466, 5519.915
1106.948, 5198.143
1107.430, 4878.598
1107.912, 4559.905
1108.394, 4267.803
1108.876, 4028.256
1109.359, 3792.875
1109.841, 3533.898
1110.323, 3286.248
1110.805, 3073.960
1111.287, 2884.596
1111.769, 2704.989
1112.251, 2534.276
1112.733, 2373.262
1113.215, 2221.959
1113.698, 2083.347
1114.180, 1960.100
1114.662, 1846.501
1115.144, 1744.504
1115.626, 1645.148
1116.108, 1537.598
1116.590, 1433.592
1117.072, 1356.979
1117.555, 1307.812
1118.037, 1248.683
1118.519, 1175.888
1119.001, 1115.690
1119.483, 1073.308
1119.965, 1028.402
1120.447, 971.6089
1120.929, 914.2413
1121.411, 867.3301
1121.894, 830.7164
1122.376, 809.4871
1122.858, 799.3312
1123.340, 774.6938
1123.822, 738.0938
1124.304, 707.8804
1124.786, 688.2065
1125.268, 674.3162
1125.750, 663.8983
1126.233, 652.3938
1126.715, 632.8499
1127.197, 610.9555
1127.679, 594.8997
1128.161, 581.8043
1128.643, 566.1997
1129.125, 549.3282
1129.607, 535.1619
1130.090, 524.9487
1130.572, 519.9330
1131.054, 526.8780
1131.536, 528.1012
1132.018, 505.9704
1132.500, 484.3156
1132.982, 482.5992
1133.464, 488.3373
1133.947, 487.2344
1134.429, 479.0163
1134.911, 467.4475
1135.393, 450.0354
1135.875, 439.4716
1136.357, 441.6743
1136.839, 443.8969
1137.321, 447.2812
1137.803, 444.9302
1138.286, 428.5852
1138.768, 409.6070
1139.250, 406.2676
1139.732, 416.1808
1140.214, 415.3935
1140.696, 401.8082
1141.178, 393.9735
1141.660, 393.4793
1142.142, 394.3444
1142.625, 394.7515
1143.107, 394.7878
1143.589, 394.6021
1144.071, 393.6404
1144.553, 391.4887
1145.035, 387.6077
1145.517, 377.6082
1145.999, 364.9228
1146.482, 361.6871
1146.964, 367.0395
1147.446, 370.2355
1147.928, 367.3397
1148.410, 363.4781
1148.892, 362.6441
1149.374, 362.0237
1149.856, 357.7375
1150.339, 353.7897
1150.821, 356.5281
1151.303, 360.9060
1151.785, 357.6020
1152.267, 348.0381
1152.749, 342.9921
1153.231, 346.3503
1153.713, 349.1721
1154.195, 350.5386
1154.677, 349.5477
1155.160, 342.1151
1155.642, 336.5347
1156.124, 340.1297
1156.606, 346.7200
1157.088, 347.2376
1157.570, 342.1822
1158.052, 336.7258
1158.534, 329.3065
1159.017, 329.8005
1159.499, 340.4146
1159.981, 349.0222
1160.463, 352.1985
1160.945, 350.4681
1161.427, 343.5167
1161.909, 335.5815
1162.391, 334.9255
1162.874, 338.6781
1163.356, 336.2442
1163.838, 329.9828
1164.320, 327.6192
1164.802, 329.2576
1165.284, 331.5370
1165.766, 333.1846
1166.248, 333.9453
1166.730, 334.0553
1167.213, 332.1806
1167.695, 324.6385
1168.177, 317.3063
1168.659, 315.1663
1169.141, 316.6236
1169.623, 321.6297
1170.105, 327.7362
1170.587, 328.3004
1171.069, 321.1531
1171.552, 317.0597
1172.034, 320.6842
1172.516, 323.0792
1172.998, 323.1456
1173.480, 321.1946
1173.962, 315.1521
1174.444, 310.3565
1174.926, 313.4377
1175.409, 321.4336
1175.891, 323.4094
1176.373, 318.6760
1176.855, 318.1877
1177.337, 322.0539
1177.819, 325.4857
1178.301, 327.5562
1178.783, 327.5106
1179.266, 324.9726
1179.748, 323.2919
1180.230, 327.1887
1180.712, 331.8572
1181.194, 327.9948
1181.676, 320.4407
1182.158, 317.1138
1182.640, 317.0376
1183.122, 317.5258
1183.604, 317.7919
1184.087, 317.2566
1184.569, 315.5276
1185.051, 314.4182
1185.533, 315.5038
1186.015, 316.3630
1186.497, 316.9609
1186.979, 315.9284
1187.461, 308.4885
1187.944, 301.3802
1188.426, 305.4761
1188.908, 318.7147
1189.390, 328.4659
1189.872, 334.9746
1190.354, 336.8872
1190.836, 333.4253
1191.318, 328.1936
1191.801, 321.3884
1192.283, 317.3383
1192.765, 318.7708
1193.247, 322.1719
1193.729, 323.3777
1194.211, 322.9393
1194.693, 322.0912
1195.175, 320.7484
1195.657, 317.8615
1196.140, 314.4483
1196.622, 313.8619
1197.104, 316.0782
1197.586, 317.4171
1198.068, 316.0511
1198.550, 315.8477
1199.032, 321.4423
1199.514, 326.0176
1199.996, 325.1547
1200.479, 322.3087
1200.961, 320.1981
1201.443, 317.8987
1201.925, 312.3424
1202.407, 304.5640
1202.889, 302.6574
1203.371, 308.9644
1203.853, 313.9908
1204.336, 318.2706
1204.818, 318.6361
1205.300, 312.8872
1205.782, 311.3665
1206.264, 320.5936
1206.746, 329.9183
1207.228, 325.5468
1207.710, 314.1960
1208.193, 314.0406
1208.675, 320.3092
1209.157, 317.8137
1209.639, 309.6175
1210.121, 307.3428
1210.603, 311.5317
1211.085, 314.6311
1211.567, 313.6424
1212.049, 311.7691
1212.531, 310.3688
1213.014, 309.4452
1213.496, 309.3178
1213.978, 309.3140
1214.460, 309.6586
1214.942, 309.3543
1215.424, 305.2571
1215.906, 299.6509
1216.388, 301.6838
1216.871, 313.7553
1217.353, 317.9512
1217.835, 311.8465
1218.317, 308.5172
1218.799, 310.2644
1219.281, 310.5465
1219.763, 306.3209
1220.245, 304.7260
1220.728, 313.1609
1221.210, 324.4598
1221.692, 326.1827
1222.174, 321.4106
1222.656, 314.8468
1223.138, 307.6208
1223.620, 300.2315
1224.102, 294.2343
1224.584, 293.5968
1225.067, 298.9936
1225.549, 305.7760
1226.031, 314.5000
1226.513, 319.2412
1226.995, 315.3422
##END=



