##NAMES=Malachite
##RRUFFID=R050508
##IDEAL CHEMISTRY=Cu^2+^_2_CO_3_(OH)_2_
##LOCALITY=Kambova, Kantanga, Zaire
##OWNER=RRUFF
##SOURCE=University of Arizona Mineral Museum
##DESCRIPTION=Green short bladed crystals
##STATUS=The identification of this mineral has been confirmed by X-ray diffraction and chemical analysis
##URL=rruff.info/R050508
##MEASURED CHEMISTRY=Cu_2.00_(CO_3_)(OH)_2_
95.22955, 19.65106
95.71167, 18.88711
96.19379, 18.34124
96.67590, 18.13567
97.15803, 17.86556
97.64014, 17.40049
98.12226, 16.84366
98.60438, 16.38712
99.08649, 16.13323
99.56861, 15.96068
100.0507, 15.68091
100.5328, 15.26051
101.0150, 14.79135
101.4971, 14.30199
101.9792, 13.78217
102.4613, 13.36862
102.9434, 13.19415
103.4255, 13.10518
103.9077, 12.99868
104.3898, 12.84133
104.8719, 12.66002
105.3540, 12.50942
105.8361, 12.40315
106.3182, 12.30262
106.8004, 12.23585
107.2825, 12.15861
107.7646, 12.00213
108.2467, 11.71202
108.7288, 11.30606
109.2109, 11.03717
109.6931, 11.03024
110.1752, 11.02925
110.6573, 10.95921
111.1394, 10.83499
111.6215, 10.71274
112.1037, 10.64004
112.5858, 10.62309
113.0679, 10.63539
113.5500, 10.72498
114.0321, 10.80836
114.5142, 10.81727
114.9964, 10.74099
115.4785, 10.63328
115.9606, 10.55361
116.4427, 10.50012
116.9248, 10.44390
117.4069, 10.40149
117.8891, 10.35043
118.3712, 10.23085
118.8533, 9.993298
119.3354, 9.744230
119.8175, 9.557957
120.2996, 9.432941
120.7818, 9.390971
121.2639, 9.499211
121.7460, 9.766104
122.2281, 9.948485
122.7102, 9.939025
123.1923, 9.869149
123.6745, 9.801309
124.1566, 9.746196
124.6387, 9.676473
125.1208, 9.540362
125.6029, 9.277940
126.0850, 9.078109
126.5672, 8.978704
127.0493, 8.921755
127.5314, 8.851384
128.0135, 8.746230
128.4956, 8.638861
128.9778, 8.620683
129.4599, 8.893381
129.9420, 9.031570
130.4241, 8.913987
130.9062, 8.656915
131.3883, 8.432767
131.8705, 8.337804
132.3526, 8.347394
132.8347, 8.317801
133.3168, 8.197259
133.7989, 8.097590
134.2810, 8.080716
134.7632, 8.133791
135.2453, 8.187923
135.7274, 8.201536
136.2095, 8.179406
136.6916, 8.151683
137.1737, 8.127805
137.6559, 8.093901
138.1380, 8.027103
138.6201, 7.919077
139.1022, 7.817058
139.5843, 7.767418
140.0664, 7.741274
140.5486, 7.697832
141.0307, 7.613782
141.5128, 7.501384
141.9949, 7.392821
142.4770, 7.266651
142.9591, 7.181205
143.4413, 7.167370
143.9234, 7.205295
144.4055, 7.263546
144.8876, 7.337917
145.3697, 7.429164
145.8518, 7.426285
146.3340, 7.175027
146.8161, 6.961042
147.2982, 6.886760
147.7803, 6.933645
148.2624, 7.022435
148.7445, 7.078986
149.2267, 7.099701
149.7088, 7.096047
150.1909, 7.087149
150.6730, 7.046426
151.1551, 6.928307
151.6372, 6.740670
152.1194, 6.562795
152.6015, 6.500580
153.0836, 6.631122
153.5657, 6.465304
154.0478, 6.705358
154.5300, 6.834931
155.0121, 6.859964
155.4942, 6.467339
155.9763, 6.614032
156.4584, 6.544591
156.9405, 6.466288
157.4227, 6.688886
157.9048, 6.357008
158.3869, 6.574837
158.8690, 6.573233
159.3511, 6.672057
159.8332, 6.553413
160.3154, 6.501935
160.7975, 6.667999
161.2796, 6.713610
161.7617, 6.569932
162.2438, 6.675140
162.7259, 6.335666
163.2081, 6.386405
163.6902, 6.605507
164.1723, 6.472763
164.6544, 6.581947
165.1365, 6.598992
165.6186, 6.197300
166.1008, 6.523831
166.5829, 6.535431
167.0650, 6.223663
167.5471, 6.525245
168.0292, 6.330623
168.5113, 6.214037
168.9935, 6.050834
169.4756, 5.998548
169.9577, 6.153521
170.4398, 6.234855
170.9219, 6.171521
171.4040, 6.065517
171.8862, 6.007232
172.3683, 6.028957
172.8504, 6.090127
173.3325, 6.094030
173.8146, 5.978729
174.2967, 5.874048
174.7789, 5.781814
175.2610, 5.702304
175.7431, 5.631848
176.2252, 5.567230
176.7073, 5.517149
177.1894, 5.513925
177.6716, 5.625893
178.1537, 5.696458
178.6358, 5.678935
179.1179, 5.600542
179.6000, 5.506386
180.0822, 5.410573
180.5643, 5.325087
181.0464, 5.287761
181.5285, 5.333713
182.0106, 5.367625
182.4927, 5.336327
182.9749, 5.251142
183.4570, 5.161949
183.9391, 5.088892
184.4212, 5.029703
184.9033, 4.973916
185.3854, 4.914953
185.8676, 4.870015
186.3497, 4.871730
186.8318, 4.922388
187.3139, 4.937142
187.7960, 4.821783
188.2781, 4.675476
188.7603, 4.611429
189.2424, 4.665811
189.7245, 4.774578
190.2066, 4.873400
190.6887, 4.976973
191.1708, 5.013507
191.6530, 4.897045
192.1351, 4.732630
192.6172, 4.606554
193.0993, 4.550637
193.5814, 4.542213
194.0635, 4.537367
194.5457, 4.529782
195.0278, 4.540406
195.5099, 4.589853
195.9920, 4.649069
196.4741, 4.689557
196.9562, 4.698339
197.4384, 4.683693
197.9205, 4.671194
198.4026, 4.687407
198.8847, 4.665319
199.3668, 4.525785
199.8489, 4.369846
200.3311, 4.332216
200.8132, 4.484801
201.2953, 4.761958
201.7774, 4.902011
202.2595, 4.742518
202.7417, 4.617500
203.2238, 4.578289
203.7059, 4.589077
204.1880, 4.591240
204.6701, 4.551589
205.1522, 4.488249
205.6344, 4.485205
206.1165, 4.631701
206.5986, 4.730285
207.0807, 4.707526
207.5628, 4.609433
208.0449, 4.518563
208.5271, 4.475466
209.0092, 4.474537
209.4913, 4.495100
209.9734, 4.557714
210.4555, 4.612546
210.9376, 4.636839
211.4198, 4.638768
211.9019, 4.646310
212.3840, 4.684679
212.8661, 4.725430
213.3482, 4.687841
213.8303, 4.504672
214.3125, 4.355100
214.7946, 4.379898
215.2767, 4.545480
215.7588, 4.667038
216.2409, 4.650613
216.7230, 4.546484
217.2052, 4.463140
217.6873, 4.410735
218.1694, 4.360667
218.6515, 4.276295
219.1336, 4.159923
219.6157, 4.083189
220.0979, 4.092844
220.5800, 4.146237
221.0621, 4.201307
221.5442, 4.257411
222.0263, 4.299942
222.5084, 4.306388
222.9906, 4.272620
223.4727, 4.248404
223.9548, 4.260156
224.4369, 4.281178
224.9190, 4.296602
225.4011, 4.304230
225.8833, 4.297745
226.3654, 4.260670
226.8475, 4.182324
227.3296, 4.125911
227.8117, 4.142707
228.2939, 4.161337
228.7760, 4.122550
229.2581, 4.017464
229.7402, 3.907701
230.2223, 3.878526
230.7044, 3.952245
231.1866, 4.037599
231.6687, 4.183928
232.1508, 4.297820
232.6329, 4.294034
233.1150, 4.167787
233.5971, 4.008407
234.0793, 3.949806
234.5614, 4.055192
235.0435, 4.105219
235.5256, 4.033697
236.0077, 3.958127
236.4898, 3.958235
236.9720, 4.043755
237.4541, 4.163479
237.9362, 4.249172
238.4183, 4.287569
238.9004, 4.320207
239.3825, 4.363630
239.8647, 4.390635
240.3468, 4.376565
240.8289, 4.321891
241.3110, 4.250676
241.7931, 4.188592
242.2752, 4.126955
242.7574, 4.108606
243.2395, 4.163786
243.7216, 4.232574
244.2037, 4.290139
244.6858, 4.327050
245.1679, 4.330698
245.6501, 4.282102
246.1322, 4.161640
246.6143, 4.066450
247.0964, 3.961171
247.5785, 3.903350
248.0606, 3.962646
248.5428, 4.129253
249.0249, 4.306844
249.5070, 4.408072
249.9891, 4.422582
250.4712, 4.379974
250.9533, 4.199742
251.4355, 4.027879
251.9176, 3.977147
252.3997, 4.044992
252.8818, 4.134564
253.3639, 4.162048
253.8461, 4.126838
254.3282, 4.134188
254.8103, 4.251058
255.2924, 4.357024
255.7745, 4.339347
256.2566, 4.208889
256.7387, 4.101752
257.2209, 4.130724
257.7030, 4.272108
258.1851, 4.340854
258.6672, 4.281794
259.1493, 4.194772
259.6314, 4.148809
260.1136, 4.140158
260.5957, 4.124450
261.0778, 4.060596
261.5599, 3.976798
262.0420, 3.954513
262.5241, 4.041337
263.0063, 4.134188
263.4884, 4.153198
263.9705, 4.106402
264.4526, 4.068709
264.9348, 4.099083
265.4169, 4.141191
265.8990, 4.085748
266.3811, 3.883859
266.8632, 3.686759
267.3453, 3.615926
267.8275, 3.656522
268.3096, 3.690316
268.7917, 3.667845
269.2738, 3.625814
269.7559, 3.609959
270.2380, 3.621526
270.7202, 3.656134
271.2023, 3.735687
271.6844, 3.848282
272.1665, 3.913699
272.6486, 3.912018
273.1307, 3.848042
273.6129, 3.705214
274.0950, 3.484543
274.5771, 3.313362
275.0592, 3.305168
275.5413, 3.431305
276.0234, 3.525641
276.5056, 3.558073
276.9877, 3.558298
277.4698, 3.553040
277.9519, 3.541097
278.4340, 3.516545
278.9161, 3.450819
279.3983, 3.362709
279.8804, 3.346308
280.3625, 3.457428
280.8446, 3.561963
281.3267, 3.562244
281.8088, 3.494149
282.2910, 3.442712
282.7731, 3.476371
283.2552, 3.560795
283.7373, 3.573748
284.2194, 3.473166
284.7015, 3.378989
285.1837, 3.365297
285.6658, 3.389738
286.1479, 3.384826
286.6300, 3.305167
287.1121, 3.192418
287.5942, 3.144276
288.0764, 3.181711
288.5585, 3.236809
289.0406, 3.311883
289.5227, 3.379331
290.0048, 3.399465
290.4869, 3.350118
290.9691, 3.278366
291.4512, 3.284662
291.9333, 3.418396
292.4154, 3.470717
292.8975, 3.281423
293.3796, 3.052928
293.8618, 2.943936
294.3439, 2.994709
294.8260, 3.120460
295.3081, 3.232380
295.7902, 3.341650
296.2723, 3.382983
296.7545, 3.263691
297.2366, 3.129280
297.7187, 3.064849
298.2008, 3.076105
298.6829, 3.109177
299.1650, 3.101773
299.6472, 3.045653
300.1293, 3.027628
300.6114, 3.112648
301.0935, 3.183530
301.5756, 3.172221
302.0577, 3.096034
302.5399, 3.022766
303.0220, 3.010684
303.5041, 3.056727
303.9862, 3.092789
304.4683, 3.124072
304.9504, 3.136888
305.4326, 3.112246
305.9147, 3.067925
306.3968, 3.037116
306.8789, 3.043693
307.3610, 3.077022
307.8431, 3.090535
308.3253, 3.072775
308.8074, 3.051944
309.2895, 3.033714
309.7716, 3.018099
310.2537, 3.004242
310.7358, 2.991173
311.2180, 2.982002
311.7001, 2.987068
312.1822, 3.020297
312.6643, 3.036118
313.1465, 3.010630
313.6286, 2.975441
314.1107, 2.949547
314.5928, 2.939205
315.0749, 2.951240
315.5570, 3.012127
316.0392, 3.153367
316.5213, 3.226746
317.0034, 3.148361
317.4855, 3.051460
317.9676, 2.997943
318.4497, 2.997278
318.9319, 3.033909
319.4140, 3.116908
319.8961, 3.259149
320.3782, 3.318940
320.8603, 3.206974
321.3424, 3.091036
321.8246, 3.034986
322.3067, 3.027621
322.7888, 3.029073
323.2709, 3.009566
323.7530, 2.973761
324.2351, 2.957624
324.7173, 2.973384
325.1994, 2.993069
325.6815, 3.025260
326.1636, 3.051199
326.6457, 3.036232
327.1278, 2.953763
327.6100, 2.846115
328.0921, 2.825516
328.5742, 2.944611
329.0563, 3.037857
329.5384, 3.057796
330.0205, 3.043617
330.5027, 3.029923
330.9848, 3.026547
331.4669, 3.013931
331.9490, 2.944643
332.4311, 2.787882
332.9132, 2.710492
333.3954, 2.850300
333.8775, 2.993844
334.3596, 3.008425
334.8417, 2.896008
335.3238, 2.764639
335.8059, 2.720825
336.2881, 2.765957
336.7702, 2.785512
337.2523, 2.737066
337.7344, 2.709044
338.2165, 2.763302
338.6986, 2.868789
339.1808, 2.950518
339.6629, 2.949943
340.1450, 2.893744
340.6271, 2.888744
341.1092, 2.971306
341.5913, 3.034572
342.0735, 3.027400
342.5556, 2.983923
343.0377, 2.941101
343.5198, 2.909873
344.0019, 2.800503
344.4840, 2.908447
344.9662, 2.965905
345.4483, 2.975593
345.9304, 2.794429
346.4125, 2.859711
346.8946, 2.826229
347.3767, 2.788697
347.8589, 2.888664
348.3410, 2.735258
348.8231, 2.833047
349.3052, 2.830563
349.7873, 2.873971
350.2694, 2.818004
350.7516, 2.792730
351.2337, 2.866864
351.7158, 2.885956
352.1979, 2.818549
352.6800, 2.864875
353.1621, 2.707998
353.6443, 2.729433
354.1264, 2.827802
354.6085, 2.684975
355.0906, 2.598987
355.5727, 2.572323
356.0548, 2.668335
356.5370, 2.796497
357.0191, 2.819884
357.5012, 2.726855
357.9833, 2.658540
358.4654, 2.695304
358.9475, 2.774760
359.4297, 2.828163
359.9118, 2.851190
360.3939, 2.841712
360.8760, 2.774376
361.3581, 2.664570
361.8402, 2.588540
362.3224, 2.563467
362.8045, 2.580061
363.2866, 2.659044
363.7687, 2.790418
364.2509, 2.857894
364.7330, 2.751773
365.2151, 2.572724
365.6972, 2.497447
366.1793, 2.551960
366.6614, 2.640909
367.1436, 2.712542
367.6257, 2.762420
368.1078, 2.776677
368.5899, 2.729826
369.0720, 2.666259
369.5541, 2.602832
370.0363, 2.545492
370.5184, 2.546201
371.0005, 2.660757
371.4826, 2.819412
371.9647, 2.859020
372.4468, 2.735856
372.9290, 2.619935
373.4111, 2.584265
373.8932, 2.598847
374.3753, 2.610980
374.8574, 2.606767
375.3395, 2.599575
375.8217, 2.611801
376.3038, 2.648421
376.7859, 2.656898
377.2680, 2.611771
377.7501, 2.550340
378.2322, 2.504609
378.7144, 2.475518
379.1965, 2.441649
379.6786, 2.377267
380.1607, 2.291789
380.6428, 2.281155
381.1249, 2.418504
381.6071, 2.538436
382.0892, 2.579210
382.5713, 2.562019
383.0534, 2.524846
383.5355, 2.482404
384.0176, 2.438903
384.4998, 2.402216
384.9819, 2.359524
385.4640, 2.347812
385.9461, 2.381828
386.4282, 2.438618
386.9103, 2.516899
387.3925, 2.606788
387.8746, 2.668742
388.3567, 2.653555
388.8388, 2.545681
389.3209, 2.473241
389.8030, 2.478799
390.2852, 2.470091
390.7673, 2.384817
391.2494, 2.260088
391.7315, 2.172956
392.2136, 2.169856
392.6957, 2.232700
393.1779, 2.291698
393.6600, 2.326329
394.1421, 2.388345
394.6242, 2.541948
395.1063, 2.689758
395.5884, 2.723877
396.0706, 2.626362
396.5527, 2.488124
397.0348, 2.432959
397.5169, 2.487381
397.9990, 2.520239
398.4811, 2.491643
398.9633, 2.477366
399.4454, 2.540188
399.9275, 2.645243
400.4096, 2.697572
400.8917, 2.610659
401.3738, 2.431180
401.8560, 2.371222
402.3381, 2.505377
402.8202, 2.618842
403.3023, 2.645722
403.7844, 2.622845
404.2665, 2.580260
404.7487, 2.525354
405.2308, 2.469170
405.7129, 2.418415
406.1950, 2.371316
406.6771, 2.357434
407.1592, 2.398451
407.6414, 2.459546
408.1235, 2.533261
408.6056, 2.610699
409.0877, 2.650364
409.5698, 2.599763
410.0519, 2.498593
410.5341, 2.444017
411.0162, 2.448411
411.4983, 2.460766
411.9804, 2.441786
412.4626, 2.412883
412.9447, 2.412502
413.4268, 2.459080
413.9089, 2.514347
414.3910, 2.545819
414.8731, 2.558565
415.3553, 2.578255
415.8374, 2.616020
416.3195, 2.659141
416.8016, 2.685224
417.2837, 2.692719
417.7658, 2.710787
418.2480, 2.781404
418.7301, 2.848535
419.2122, 2.817762
419.6943, 2.686050
420.1764, 2.589753
420.6585, 2.655542
421.1407, 2.863041
421.6228, 2.965636
422.1049, 2.870587
422.5870, 2.784460
423.0691, 2.824073
423.5512, 2.923285
424.0334, 2.951991
424.5155, 2.856265
424.9976, 2.696291
425.4797, 2.582259
425.9618, 2.523920
426.4439, 2.500944
426.9261, 2.541326
427.4082, 2.593973
427.8903, 2.619444
428.3724, 2.619800
428.8545, 2.625617
429.3366, 2.664464
429.8188, 2.734234
430.3009, 2.782799
430.7830, 2.800300
431.2651, 2.805538
431.7472, 2.822373
432.2293, 2.820047
432.7115, 2.739463
433.1936, 2.562336
433.6757, 2.368593
434.1578, 2.302493
434.6399, 2.408449
435.1220, 2.484714
435.6042, 2.483744
436.0863, 2.477570
436.5684, 2.510691
437.0505, 2.571187
437.5326, 2.612565
438.0147, 2.597922
438.4969, 2.541115
438.9790, 2.490216
439.4611, 2.446964
439.9432, 2.405412
440.4253, 2.344207
440.9074, 2.291662
441.3896, 2.291208
441.8717, 2.361802
442.3538, 2.426859
442.8359, 2.387423
443.3180, 2.268914
443.8001, 2.240343
444.2823, 2.378182
444.7644, 2.531278
445.2465, 2.531312
445.7286, 2.412079
446.2107, 2.314693
446.6928, 2.299256
447.1750, 2.308399
447.6571, 2.276061
448.1392, 2.207024
448.6213, 2.156947
449.1034, 2.155540
449.5855, 2.192724
450.0677, 2.246119
450.5498, 2.339228
451.0319, 2.397799
451.5140, 2.396440
451.9961, 2.353146
452.4782, 2.272180
452.9604, 2.159677
453.4425, 2.061229
453.9246, 2.025776
454.4067, 2.059603
454.8888, 2.093505
455.3709, 2.125713
455.8531, 2.159652
456.3352, 2.193264
456.8173, 2.230071
457.2994, 2.281535
457.7815, 2.353032
458.2636, 2.426537
458.7458, 2.465032
459.2279, 2.464287
459.7100, 2.434186
460.1921, 2.323822
460.6742, 2.231053
461.1564, 2.241554
461.6385, 2.330788
462.1206, 2.393981
462.6027, 2.339738
463.0848, 2.194794
463.5670, 2.098434
464.0491, 2.065349
464.5312, 2.053560
465.0133, 2.028337
465.4954, 2.025838
465.9775, 2.109166
466.4597, 2.301078
466.9418, 2.471990
467.4239, 2.477230
467.9060, 2.341995
468.3881, 2.236351
468.8702, 2.187437
469.3524, 2.166073
469.8345, 2.148242
470.3166, 2.137330
470.7987, 2.147953
471.2808, 2.207890
471.7629, 2.272061
472.2451, 2.287587
472.7272, 2.266221
473.2093, 2.275142
473.6914, 2.354158
474.1735, 2.456643
474.6556, 2.486317
475.1378, 2.424612
475.6199, 2.367207
476.1020, 2.333369
476.5841, 2.306102
477.0662, 2.271645
477.5483, 2.228693
478.0305, 2.177637
478.5126, 2.115153
478.9947, 2.046059
479.4768, 2.015472
479.9589, 2.051199
480.4410, 2.092108
480.9232, 2.136995
481.4053, 2.180058
481.8874, 2.224060
482.3695, 2.265988
482.8516, 2.283646
483.3337, 2.237302
483.8159, 2.113095
484.2980, 2.044217
484.7801, 2.075510
485.2622, 2.114426
485.7443, 2.130837
486.2264, 2.133024
486.7086, 2.137108
487.1907, 2.150828
487.6728, 2.165277
488.1549, 2.166720
488.6370, 2.154431
489.1191, 2.140102
489.6013, 2.123205
490.0834, 2.108617
490.5655, 2.098690
491.0476, 2.093732
491.5297, 2.096160
492.0118, 2.119172
492.4940, 2.143267
492.9761, 2.130757
493.4582, 2.084245
493.9403, 2.065732
494.4224, 2.115645
494.9045, 2.205871
495.3867, 2.262079
495.8688, 2.268734
496.3509, 2.287329
496.8330, 2.366956
497.3151, 2.445652
497.7972, 2.443214
498.2794, 2.358955
498.7615, 2.264768
499.2436, 2.223391
499.7257, 2.231218
500.2078, 2.219599
500.6899, 2.162196
501.1721, 2.117171
501.6542, 2.096066
502.1363, 2.090858
502.6184, 2.096727
503.1005, 2.110548
503.5826, 2.123161
504.0648, 2.117147
504.5469, 2.087669
505.0290, 2.089866
505.5111, 2.152715
505.9932, 2.212174
506.4753, 2.250835
506.9575, 2.267998
507.4396, 2.259632
507.9217, 2.219169
508.4038, 2.170025
508.8859, 2.139040
509.3680, 2.125711
509.8502, 2.122752
510.3323, 2.132267
510.8144, 2.145883
511.2965, 2.158889
511.7787, 2.170286
512.2607, 2.172219
512.7429, 2.141431
513.2250, 2.117257
513.7071, 2.146945
514.1892, 2.217101
514.6713, 2.268217
515.1534, 2.272130
515.6356, 2.248993
516.1177, 2.238709
516.5998, 2.251442
517.0819, 2.253953
517.5640, 2.224802
518.0461, 2.202062
518.5283, 2.230389
519.0104, 2.291742
519.4925, 2.321993
519.9746, 2.275214
520.4567, 2.176155
520.9388, 2.114228
521.4210, 2.085136
521.9031, 2.105137
522.3852, 2.237439
522.8673, 2.366562
523.3494, 2.398547
523.8315, 2.338084
524.3137, 2.264587
524.7958, 2.238932
525.2779, 2.248182
525.7600, 2.244377
526.2421, 2.220241
526.7242, 2.210557
527.2064, 2.239282
527.6885, 2.286890
528.1706, 2.341619
528.6527, 2.412987
529.1348, 2.432070
529.6169, 2.312831
530.0991, 2.136660
530.5812, 2.035798
531.0633, 2.026180
531.5454, 2.063935
532.0275, 2.127517
532.5096, 2.210958
532.9918, 2.270892
533.4739, 2.312570
533.9560, 2.328397
534.4381, 2.291620
534.9202, 2.241569
535.4024, 2.236717
535.8845, 2.278723
536.3666, 2.297672
536.8488, 2.207767
537.3309, 2.009394
537.8130, 1.926821
538.2951, 2.068346
538.7772, 2.187820
539.2593, 2.204388
539.7415, 2.184349
540.2236, 2.209934
540.7057, 2.300297
541.1878, 2.383339
541.6699, 2.378064
542.1520, 2.296353
542.6342, 2.218788
543.1163, 2.149334
543.5984, 2.087491
544.0805, 2.014153
544.5626, 1.952788
545.0447, 1.957101
545.5269, 2.068810
546.0090, 2.180927
546.4911, 2.228673
546.9732, 2.234481
547.4553, 2.245502
547.9374, 2.272145
548.4196, 2.280746
548.9017, 2.231090
549.3838, 2.120837
549.8659, 2.058453
550.3480, 2.057998
550.8301, 2.078926
551.3123, 2.131944
551.7944, 2.190508
552.2765, 2.224540
552.7586, 2.225778
553.2407, 2.204304
553.7228, 2.166689
554.2050, 2.111151
554.6871, 2.073493
555.1692, 2.069612
555.6513, 2.061300
556.1334, 2.019108
556.6155, 1.971391
557.0977, 1.955797
557.5798, 1.983916
558.0619, 2.031977
558.5440, 2.096119
559.0261, 2.164626
559.5082, 2.183605
559.9904, 2.133404
560.4725, 2.091440
560.9546, 2.143559
561.4367, 2.256428
561.9188, 2.266667
562.4009, 2.049949
562.8831, 1.884973
563.3652, 1.919147
563.8473, 2.048456
564.3294, 2.138495
564.8115, 2.157892
565.2936, 2.134374
565.7758, 2.089937
566.2579, 2.024276
566.7400, 1.983566
567.2221, 2.003962
567.7042, 2.005989
568.1863, 1.965761
568.6685, 1.906994
569.1506, 1.838911
569.6327, 1.770023
570.1148, 1.737057
570.5969, 1.804994
571.0790, 1.951265
571.5612, 2.023313
572.0433, 1.993706
572.5254, 1.964267
573.0075, 2.000082
573.4896, 2.061660
573.9717, 2.087276
574.4539, 2.061906
574.9360, 2.037835
575.4181, 2.064559
575.9002, 2.095931
576.3823, 2.046088
576.8644, 1.914597
577.3466, 1.802719
577.8287, 1.784898
578.3108, 1.843353
578.7929, 1.890730
579.2750, 1.920604
579.7571, 1.947371
580.2393, 1.972672
580.7214, 1.994223
581.2035, 2.009273
581.6856, 2.018427
582.1677, 2.026759
582.6498, 2.041052
583.1320, 2.054218
583.6141, 2.033919
584.0962, 1.962829
584.5783, 1.918142
585.0604, 1.944720
585.5425, 1.987799
586.0247, 1.995010
586.5068, 1.968746
586.9889, 1.957693
587.4710, 2.007211
587.9531, 2.067029
588.4352, 2.066557
588.9174, 2.016441
589.3995, 1.985438
589.8816, 2.004818
590.3637, 2.054295
590.8458, 2.105817
591.3279, 2.182338
591.8101, 2.186319
592.2922, 2.044667
592.7743, 1.903702
593.2564, 1.829297
593.7385, 1.815990
594.2206, 1.855216
594.7028, 1.943709
595.1849, 2.037147
595.6670, 2.045527
596.1491, 1.950259
596.6312, 1.912702
597.1133, 1.994277
597.5955, 2.067956
598.0776, 2.041421
598.5597, 1.964028
599.0418, 1.937610
599.5239, 2.016599
600.0060, 2.088392
600.4882, 2.028638
600.9703, 1.897146
601.4524, 1.855788
601.9345, 1.938993
602.4166, 2.034209
602.8987, 2.042575
603.3809, 1.970240
603.8630, 1.906953
604.3451, 1.830811
604.8272, 1.789848
605.3093, 1.802110
605.7914, 1.848020
606.2736, 1.930123
606.7557, 2.033952
607.2378, 2.105616
607.7199, 2.088864
608.2020, 2.006524
608.6841, 1.977443
609.1663, 2.024810
609.6484, 2.058499
610.1305, 2.041269
610.6126, 2.006399
611.0947, 1.978893
611.5768, 1.960106
612.0590, 1.947669
612.5411, 1.934855
613.0232, 1.931609
613.5053, 1.952518
613.9874, 1.994301
614.4695, 2.045887
614.9517, 2.106803
615.4338, 2.157845
615.9159, 2.161953
616.3980, 2.089769
616.8801, 2.073361
617.3622, 2.199026
617.8444, 2.282414
618.3265, 2.197327
618.8086, 2.033337
619.2907, 1.940201
619.7728, 1.971392
620.2549, 2.045870
620.7371, 2.065671
621.2192, 2.032284
621.7013, 1.974663
622.1834, 1.867376
622.6655, 1.797391
623.1476, 1.861496
623.6298, 1.981100
624.1119, 2.013283
624.5940, 1.901120
625.0761, 1.839525
625.5582, 1.999839
626.0403, 2.214668
626.5225, 2.240713
627.0046, 2.084151
627.4867, 1.948110
627.9688, 1.967075
628.4509, 2.090499
628.9330, 2.152937
629.4152, 2.122112
629.8973, 2.086561
630.3794, 2.028430
630.8615, 1.985682
631.3436, 2.003434
631.8257, 2.053224
632.3079, 2.059686
632.7900, 1.975370
633.2721, 1.862558
633.7542, 1.805351
634.2364, 1.799836
634.7185, 1.811803
635.2006, 1.833851
635.6827, 1.876417
636.1649, 1.963781
636.6470, 2.085357
637.1291, 2.160378
637.6112, 2.154156
638.0933, 2.142352
638.5754, 2.147328
639.0576, 2.160240
639.5397, 2.180272
640.0218, 2.201113
640.5039, 2.197156
640.9860, 2.141310
641.4681, 2.048911
641.9503, 1.998535
642.4324, 2.011052
642.9145, 2.013152
643.3966, 1.963380
643.8787, 1.919143
644.3608, 1.926636
644.8430, 1.978029
645.3251, 2.026761
645.8072, 2.072964
646.2893, 2.090487
646.7714, 2.008321
647.2535, 1.871195
647.7357, 1.853743
648.2178, 2.015414
648.6999, 2.185485
649.1820, 2.153250
649.6641, 1.902208
650.1462, 1.794241
650.6284, 1.985240
651.1105, 2.117087
651.5926, 2.056032
652.0747, 1.939973
652.5568, 1.908925
653.0389, 1.980213
653.5211, 2.079762
654.0032, 2.166654
654.4853, 2.228965
654.9674, 2.221345
655.4495, 2.137444
655.9316, 2.053430
656.4138, 1.986891
656.8959, 1.941478
657.3780, 1.931891
657.8601, 1.956807
658.3422, 1.971400
658.8243, 1.958610
659.3065, 1.945563
659.7886, 1.942943
660.2707, 1.951510
660.7528, 1.980531
661.2349, 2.028846
661.7170, 2.064780
662.1992, 2.042547
662.6813, 1.966680
663.1634, 1.952661
663.6455, 2.043004
664.1276, 2.111192
664.6097, 2.075457
665.0919, 2.026646
665.5740, 2.065670
666.0561, 2.193338
666.5382, 2.276090
667.0203, 2.213385
667.5024, 2.106502
667.9846, 2.064828
668.4667, 2.073829
668.9488, 2.068009
669.4309, 2.022195
669.9130, 1.973667
670.3951, 1.976486
670.8773, 2.041133
671.3594, 2.071709
671.8415, 2.035379
672.3236, 2.002812
672.8057, 1.986074
673.2878, 1.981987
673.7700, 1.985393
674.2521, 1.996016
674.7342, 2.020045
675.2163, 2.081449
675.6984, 2.152580
676.1805, 2.163880
676.6627, 2.118088
677.1448, 2.096758
677.6269, 2.138664
678.1090, 2.197658
678.5911, 2.205502
679.0732, 2.147744
679.5554, 2.121652
680.0375, 2.167453
680.5196, 2.197773
681.0017, 2.158060
681.4838, 2.094643
681.9659, 2.071006
682.4481, 2.098741
682.9302, 2.135792
683.4123, 2.142138
683.8944, 2.125806
684.3765, 2.116513
684.8586, 2.113036
685.3408, 2.126940
685.8229, 2.175295
686.3050, 2.228034
686.7871, 2.246485
687.2692, 2.232213
687.7513, 2.207361
688.2335, 2.147290
688.7156, 2.106984
689.1977, 2.143105
689.6798, 2.208329
690.1619, 2.215965
690.6440, 2.152579
691.1262, 2.096983
691.6083, 2.139778
692.0904, 2.259354
692.5725, 2.297576
693.0546, 2.233376
693.5367, 2.147721
694.0189, 2.034932
694.5010, 1.933307
694.9831, 1.868588
695.4652, 1.842442
695.9473, 1.862713
696.4294, 1.979203
696.9116, 2.095824
697.3937, 2.151735
697.8758, 2.159803
698.3579, 2.129575
698.8400, 2.069613
699.3221, 2.025721
699.8043, 2.049814
700.2864, 2.126168
700.7685, 2.126043
701.2506, 1.989039
701.7327, 1.904016
702.2148, 1.966607
702.6970, 2.044375
703.1791, 2.035966
703.6612, 1.964098
704.1433, 1.933942
704.6254, 2.008672
705.1075, 2.105294
705.5897, 2.169492
706.0718, 2.202670
706.5539, 2.187353
707.0360, 2.126346
707.5181, 2.100460
708.0002, 2.189410
708.4824, 2.354243
708.9645, 2.391202
709.4466, 2.202843
709.9287, 2.072826
710.4108, 2.050115
710.8929, 2.066738
711.3751, 2.094853
711.8572, 2.131627
712.3393, 2.184844
712.8214, 2.277242
713.3035, 2.334744
713.7856, 2.244363
714.2678, 2.084035
714.7499, 2.032782
715.2320, 2.109468
715.7141, 2.200899
716.1962, 2.235914
716.6783, 2.225393
717.1605, 2.200142
717.6426, 2.155607
718.1247, 2.105018
718.6068, 2.004591
719.0889, 1.944011
719.5710, 1.989773
720.0532, 2.095504
720.5353, 2.187167
721.0174, 2.244644
721.4995, 2.267920
721.9816, 2.234509
722.4637, 2.174572
722.9459, 2.149511
723.4280, 2.161393
723.9101, 2.179806
724.3922, 2.190454
724.8743, 2.197612
725.3564, 2.212061
725.8386, 2.245509
726.3207, 2.243657
726.8028, 2.162752
727.2849, 2.098128
727.7670, 2.086634
728.2491, 2.103173
728.7313, 2.121318
729.2134, 2.134786
729.6955, 2.139082
730.1776, 2.123418
730.6597, 2.100848
731.1418, 2.084273
731.6240, 2.077246
732.1061, 2.105643
732.5882, 2.182810
733.0704, 2.265755
733.5525, 2.301775
734.0346, 2.289047
734.5167, 2.273332
734.9988, 2.243561
735.4810, 2.225639
735.9631, 2.250721
736.4452, 2.268689
736.9273, 2.219548
737.4094, 2.117242
737.8915, 2.043344
738.3737, 2.046457
738.8558, 2.087896
739.3379, 2.148589
739.8200, 2.212083
740.3021, 2.212257
740.7842, 2.136602
741.2664, 2.075412
741.7485, 2.106052
742.2306, 2.206852
742.7127, 2.271604
743.1948, 2.282662
743.6769, 2.289056
744.1591, 2.292505
744.6412, 2.293079
745.1233, 2.281899
745.6054, 2.269501
746.0875, 2.281968
746.5696, 2.335241
747.0518, 2.379941
747.5339, 2.370397
748.0160, 2.330316
748.4981, 2.292874
748.9802, 2.263050
749.4623, 2.248737
749.9445, 2.254334
750.4266, 2.275329
750.9087, 2.308662
751.3908, 2.366183
751.8729, 2.379160
752.3550, 2.322651
752.8372, 2.253115
753.3193, 2.146662
753.8014, 2.061362
754.2835, 2.079390
754.7656, 2.206808
755.2477, 2.324024
755.7299, 2.413357
756.2120, 2.435156
756.6941, 2.283452
757.1762, 2.042629
757.6583, 1.923133
758.1404, 1.978926
758.6226, 2.101833
759.1047, 2.194103
759.5868, 2.254485
760.0689, 2.269971
760.5510, 2.214451
761.0331, 2.183214
761.5153, 2.197463
761.9974, 2.238668
762.4795, 2.329887
762.9616, 2.438357
763.4437, 2.452354
763.9258, 2.280911
764.4080, 2.133754
764.8901, 2.142513
765.3722, 2.209581
765.8543, 2.222862
766.3364, 2.183345
766.8185, 2.150512
767.3007, 2.157181
767.7828, 2.180247
768.2649, 2.170942
768.7470, 2.126647
769.2291, 2.127321
769.7112, 2.192108
770.1934, 2.260905
770.6755, 2.315231
771.1576, 2.349723
771.6397, 2.351235
772.1218, 2.315073
772.6039, 1.997962
773.0861, 2.355061
773.5682, 2.556823
774.0503, 2.611596
774.5324, 2.079129
775.0145, 2.304960
775.4966, 2.226900
775.9788, 2.136379
776.4609, 2.468937
776.9430, 2.021883
777.4251, 2.347731
777.9072, 2.365052
778.3893, 2.523577
778.8715, 2.376336
779.3536, 2.323535
779.8357, 2.576601
780.3178, 2.660307
780.7999, 2.477866
781.2820, 2.645367
781.7642, 2.187633
782.2463, 2.278552
782.7284, 2.606190
783.2105, 2.439123
783.6926, 2.612216
784.1747, 2.655756
784.6569, 2.110541
785.1390, 2.589232
785.6211, 2.625117
786.1032, 2.206336
786.5853, 2.649944
787.0674, 2.293844
787.5496, 2.223191
788.0317, 2.367355
788.5138, 2.287580
788.9959, 2.560871
789.4780, 2.494028
789.9601, 2.396795
790.4423, 2.432184
790.9244, 2.091765
791.4065, 2.448544
791.8886, 2.329078
792.3707, 2.446343
792.8528, 2.617265
793.3350, 2.377330
793.8171, 2.463283
794.2992, 2.546489
794.7813, 2.632703
795.2634, 2.672187
795.7455, 2.546858
796.2277, 2.287465
796.7098, 2.077290
797.1919, 2.027596
797.6740, 2.083998
798.1561, 2.143739
798.6382, 2.205535
799.1204, 2.324383
799.6025, 2.551541
800.0846, 2.693429
800.5667, 2.615800
801.0488, 2.423563
801.5309, 2.299213
802.0131, 2.244295
802.4952, 2.221419
802.9773, 2.241472
803.4594, 2.276303
803.9415, 2.339200
804.4236, 2.395761
804.9058, 2.391623
805.3879, 2.330595
805.8700, 2.282263
806.3521, 2.303285
806.8342, 2.348047
807.3163, 2.330516
807.7985, 2.272903
808.2806, 2.275928
808.7627, 2.358523
809.2448, 2.464524
809.7269, 2.564548
810.2090, 2.642802
810.6912, 2.648704
811.1733, 2.559510
811.6554, 2.450843
812.1375, 2.225556
812.6196, 2.095822
813.1017, 2.225757
813.5839, 2.455432
814.0660, 2.581642
814.5481, 2.576091
815.0302, 2.503979
815.5123, 2.294439
815.9944, 2.122142
816.4766, 2.163965
816.9587, 2.331986
817.4408, 2.491419
817.9229, 2.596511
818.4050, 2.602911
818.8871, 2.446389
819.3693, 2.215631
819.8514, 2.174515
820.3335, 2.333673
820.8156, 2.422658
821.2977, 2.381257
821.7798, 2.324080
822.2620, 2.331587
822.7441, 2.377499
823.2262, 2.382372
823.7083, 2.317643
824.1904, 2.278450
824.6725, 2.289279
825.1547, 2.301676
825.6368, 2.278389
826.1189, 2.251271
826.6010, 2.279420
827.0831, 2.366311
827.5652, 2.425211
828.0474, 2.361813
828.5295, 2.270677
829.0116, 2.277951
829.4937, 2.347656
829.9758, 2.377531
830.4579, 2.350013
830.9401, 2.342261
831.4222, 2.421783
831.9044, 2.544202
832.3865, 2.565763
832.8686, 2.459595
833.3507, 2.385896
833.8328, 2.359391
834.3149, 2.361431
834.7971, 2.386856
835.2792, 2.433410
835.7613, 2.513183
836.2434, 2.647851
836.7255, 2.691716
837.2076, 2.537293
837.6898, 2.381421
838.1719, 2.289374
838.6540, 2.266836
839.1361, 2.352020
839.6182, 2.521098
840.1003, 2.651481
840.5825, 2.663155
841.0646, 2.600135
841.5467, 2.491611
842.0288, 2.359151
842.5109, 2.276670
842.9930, 2.253136
843.4752, 2.255478
843.9573, 2.265896
844.4394, 2.280627
844.9215, 2.288796
845.4036, 2.284314
845.8857, 2.306231
846.3679, 2.370308
846.8500, 2.433520
847.3321, 2.501971
847.8142, 2.545923
848.2963, 2.511033
848.7784, 2.403663
849.2606, 2.351231
849.7427, 2.422575
850.2248, 2.497022
850.7069, 2.539364
851.1890, 2.553144
851.6711, 2.537633
852.1533, 2.497685
852.6354, 2.432043
853.1175, 2.331966
853.5996, 2.265922
854.0817, 2.374482
854.5638, 2.564566
855.0460, 2.543555
855.5281, 2.322564
856.0102, 2.189715
856.4923, 2.265697
856.9744, 2.424126
857.4565, 2.511215
857.9387, 2.528059
858.4208, 2.488309
858.9029, 2.341399
859.3850, 2.262156
859.8671, 2.328939
860.3492, 2.424358
860.8314, 2.459345
861.3135, 2.455207
861.7956, 2.472722
862.2777, 2.536189
862.7598, 2.577365
863.2419, 2.575737
863.7241, 2.549097
864.2062, 2.494120
864.6883, 2.428356
865.1704, 2.368371
865.6525, 2.322171
866.1346, 2.313581
866.6168, 2.400786
867.0989, 2.505147
867.5810, 2.478322
868.0631, 2.360848
868.5452, 2.285158
869.0273, 2.278548
869.5095, 2.334659
869.9916, 2.462807
870.4737, 2.605750
870.9558, 2.594100
871.4379, 2.386933
871.9200, 2.262512
872.4022, 2.263655
872.8843, 2.272938
873.3664, 2.236854
873.8485, 2.183011
874.3306, 2.155156
874.8127, 2.154455
875.2949, 2.139827
875.7770, 2.049599
876.2591, 2.021851
876.7412, 2.158103
877.2233, 2.323808
877.7054, 2.412486
878.1876, 2.424271
878.6697, 2.390858
879.1518, 2.312582
879.6339, 2.246445
880.1160, 2.249755
880.5981, 2.285331
881.0803, 2.308075
881.5624, 2.315249
882.0445, 2.314844
882.5266, 2.308697
883.0087, 2.280037
883.4908, 2.200439
883.9730, 2.092807
884.4551, 2.058881
884.9372, 2.103805
885.4193, 2.135283
885.9014, 2.137000
886.3835, 2.117551
886.8657, 2.064313
887.3478, 2.009452
887.8299, 2.051242
888.3120, 2.265580
888.7941, 2.372391
889.2762, 2.295223
889.7584, 2.204485
890.2405, 2.124468
890.7226, 2.072879
891.2047, 2.088009
891.6868, 2.158776
892.1689, 2.189090
892.6511, 2.106012
893.1332, 2.031958
893.6153, 2.049198
894.0974, 2.091791
894.5795, 2.084257
895.0616, 2.037420
895.5438, 2.000834
896.0259, 1.994771
896.5080, 2.011361
896.9901, 2.058141
897.4722, 2.115566
897.9543, 2.136514
898.4365, 2.124194
898.9186, 2.096925
899.4007, 2.059697
899.8828, 2.027072
900.3649, 2.014160
900.8470, 2.011708
901.3292, 1.973418
901.8113, 1.876128
902.2934, 1.872601
902.7755, 2.035317
903.2576, 2.153130
903.7397, 2.085284
904.2219, 1.938339
904.7040, 1.894914
905.1861, 1.977190
905.6682, 1.995032
906.1503, 1.874627
906.6324, 1.783559
907.1146, 1.750656
907.5967, 1.771988
908.0788, 1.898119
908.5609, 2.071326
909.0430, 2.134072
909.5251, 2.017044
910.0073, 1.869665
910.4894, 1.747025
910.9715, 1.661479
911.4536, 1.634396
911.9357, 1.651384
912.4178, 1.692249
912.9000, 1.746568
913.3821, 1.790605
913.8642, 1.798219
914.3463, 1.795236
914.8284, 1.841509
915.3105, 1.922043
915.7927, 1.965240
916.2748, 1.962072
916.7569, 1.955120
917.2390, 1.970318
917.7211, 1.978661
918.2032, 1.919575
918.6854, 1.788148
919.1675, 1.738748
919.6496, 1.798396
920.1317, 1.858107
920.6138, 1.893962
921.0959, 1.917181
921.5781, 1.952355
922.0602, 1.984858
922.5423, 1.935751
923.0244, 1.690190
923.5065, 1.579651
923.9886, 1.740029
924.4708, 1.898248
924.9529, 1.931824
925.4350, 1.896227
925.9171, 1.853005
926.3992, 1.813997
926.8813, 1.793521
927.3635, 1.818022
927.8456, 1.837707
928.3277, 1.802826
928.8098, 1.763308
929.2919, 1.783194
929.7740, 1.848991
930.2562, 1.905776
930.7383, 1.931045
931.2205, 1.956877
931.7026, 2.046738
932.1847, 2.141898
932.6668, 2.122408
933.1489, 2.008917
933.6310, 1.851746
934.1132, 1.673316
934.5953, 1.587139
935.0774, 1.690047
935.5595, 1.892624
936.0416, 1.978093
936.5237, 1.945440
937.0059, 1.956054
937.4880, 2.027759
937.9701, 2.083583
938.4522, 2.099737
938.9343, 2.067412
939.4164, 1.953236
939.8986, 1.768387
940.3807, 1.718407
940.8628, 1.913412
941.3449, 2.025694
941.8270, 1.973586
942.3091, 1.893322
942.7913, 1.844854
943.2734, 1.819478
943.7555, 1.811549
944.2376, 1.826187
944.7197, 1.811040
945.2018, 1.714083
945.6840, 1.640559
946.1661, 1.636513
946.6482, 1.668014
947.1303, 1.712992
947.6124, 1.764281
948.0945, 1.815083
948.5767, 1.864578
949.0588, 1.906829
949.5409, 1.969882
950.0230, 1.996821
950.5051, 1.871216
950.9872, 1.688115
951.4694, 1.649543
951.9515, 1.773876
952.4336, 1.895362
952.9157, 1.898670
953.3978, 1.846250
953.8799, 1.799235
954.3621, 1.774393
954.8442, 1.851903
955.3263, 2.013362
955.8084, 2.097332
956.2905, 2.039685
956.7726, 1.934179
957.2548, 1.883557
957.7369, 1.876892
958.2190, 1.868176
958.7011, 1.857699
959.1832, 1.838596
959.6653, 1.809840
960.1475, 1.768766
960.6296, 1.707097
961.1117, 1.644564
961.5938, 1.618494
962.0759, 1.632262
962.5580, 1.649685
963.0402, 1.673439
963.5223, 1.694287
964.0044, 1.698878
964.4865, 1.713972
964.9686, 1.778309
965.4507, 1.867545
965.9329, 1.905347
966.4150, 1.878281
966.8971, 1.836279
967.3792, 1.730982
967.8613, 1.674293
968.3434, 1.763359
968.8256, 1.878550
969.3077, 1.885363
969.7898, 1.800852
970.2719, 1.753290
970.7540, 1.803543
971.2361, 1.837581
971.7183, 1.764643
972.2004, 1.699282
972.6825, 1.767980
973.1646, 1.890223
973.6467, 1.925193
974.1288, 1.852679
974.6110, 1.765731
975.0931, 1.715069
975.5752, 1.677777
976.0573, 1.608537
976.5394, 1.552850
977.0215, 1.618664
977.5037, 1.761248
977.9858, 1.806190
978.4679, 1.698081
978.9500, 1.586946
979.4321, 1.637171
979.9142, 1.764976
980.3964, 1.794642
980.8785, 1.755680
981.3606, 1.761602
981.8427, 1.823955
982.3248, 1.878636
982.8069, 1.892218
983.2891, 1.868637
983.7712, 1.797845
984.2533, 1.692934
984.7354, 1.652025
985.2175, 1.676539
985.6996, 1.723350
986.1818, 1.789916
986.6639, 1.830972
987.1460, 1.808802
987.6281, 1.753057
988.1102, 1.733338
988.5923, 1.757123
989.0745, 1.757681
989.5566, 1.723371
990.0387, 1.700794
990.5208, 1.706227
991.0029, 1.721936
991.4850, 1.736922
991.9672, 1.748497
992.4493, 1.743928
992.9314, 1.701403
993.4135, 1.695632
993.8956, 1.753783
994.3777, 1.812213
994.8599, 1.863563
995.3420, 1.897080
995.8241, 1.892147
996.3062, 1.856996
996.7883, 1.839548
997.2704, 1.848953
997.7526, 1.866525
998.2347, 1.919946
998.7168, 1.946974
999.1989, 1.899878
999.6810, 1.819416
1000.163, 1.737918
1000.645, 1.667218
1001.127, 1.656830
1001.609, 1.777984
1002.092, 1.870019
1002.574, 1.857709
1003.056, 1.802371
1003.538, 1.734451
1004.020, 1.665179
1004.502, 1.592224
1004.984, 1.522017
1005.466, 1.503707
1005.949, 1.612264
1006.431, 1.711705
1006.913, 1.671929
1007.395, 1.590375
1007.877, 1.588044
1008.359, 1.642740
1008.841, 1.666986
1009.323, 1.637916
1009.805, 1.621773
1010.288, 1.685200
1010.770, 1.769555
1011.252, 1.815002
1011.734, 1.824828
1012.216, 1.781620
1012.698, 1.706466
1013.180, 1.682852
1013.662, 1.741914
1014.145, 1.796106
1014.627, 1.733003
1015.109, 1.624578
1015.591, 1.631876
1016.073, 1.716888
1016.555, 1.753871
1017.037, 1.730495
1017.519, 1.705029
1018.001, 1.707003
1018.484, 1.701957
1018.966, 1.620286
1019.448, 1.505637
1019.930, 1.552214
1020.412, 1.735549
1020.894, 1.814092
1021.376, 1.747846
1021.858, 1.701739
1022.341, 1.775801
1022.823, 1.882548
1023.305, 1.880592
1023.787, 1.780535
1024.269, 1.669191
1024.751, 1.541481
1025.233, 1.511046
1025.715, 1.613716
1026.198, 1.718062
1026.680, 1.740066
1027.162, 1.715534
1027.644, 1.708345
1028.126, 1.718586
1028.608, 1.749486
1029.090, 1.813057
1029.572, 1.831516
1030.054, 1.767694
1030.536, 1.718290
1031.019, 1.755290
1031.501, 1.842994
1031.983, 1.911095
1032.465, 1.963132
1032.947, 1.957656
1033.429, 1.862032
1033.911, 1.798876
1034.393, 1.826008
1034.876, 1.830580
1035.358, 1.693225
1035.840, 1.503671
1036.322, 1.490727
1036.804, 1.711222
1037.286, 1.833188
1037.768, 1.803710
1038.250, 1.769145
1038.733, 1.734760
1039.215, 1.736368
1039.697, 1.835699
1040.179, 1.979713
1040.661, 2.029068
1041.143, 1.956670
1041.625, 1.890942
1042.107, 1.801667
1042.589, 1.760935
1043.072, 1.837746
1043.554, 1.915126
1044.036, 1.901111
1044.518, 1.828269
1045.000, 1.773201
1045.482, 1.737226
1045.964, 1.724694
1046.446, 1.749420
1046.928, 1.779585
1047.411, 1.824517
1047.893, 1.855920
1048.375, 1.826940
1048.857, 1.774268
1049.339, 1.796523
1049.821, 1.927309
1050.303, 2.005842
1050.785, 1.972330
1051.268, 1.929844
1051.750, 1.899867
1052.232, 1.883405
1052.714, 1.903689
1053.196, 1.931760
1053.678, 1.884013
1054.160, 1.724363
1054.642, 1.659791
1055.125, 1.833375
1055.607, 1.985664
1056.089, 2.008427
1056.571, 1.982859
1057.053, 1.958935
1057.535, 1.945819
1058.017, 1.961024
1058.499, 2.014216
1058.981, 2.019551
1059.464, 1.880375
1059.946, 1.780249
1060.428, 1.841452
1060.910, 1.929502
1061.392, 1.924702
1061.874, 1.859062
1062.356, 1.811635
1062.838, 1.797802
1063.320, 1.804165
1063.803, 1.851222
1064.285, 1.884749
1064.767, 1.857000
1065.249, 1.826893
1065.731, 1.864811
1066.213, 1.932052
1066.695, 1.938439
1067.177, 1.867637
1067.660, 1.815929
1068.142, 1.848415
1068.624, 1.873403
1069.106, 1.821254
1069.588, 1.768806
1070.070, 1.807507
1070.552, 1.883108
1071.034, 1.879648
1071.516, 1.781236
1071.999, 1.702443
1072.481, 1.687923
1072.963, 1.707210
1073.445, 1.783329
1073.927, 1.852131
1074.409, 1.835723
1074.891, 1.786309
1075.373, 1.806939
1075.855, 1.904428
1076.338, 1.967955
1076.820, 1.924970
1077.302, 1.886159
1077.784, 1.940002
1078.266, 1.983884
1078.748, 1.888776
1079.230, 1.755683
1079.713, 1.772538
1080.195, 1.933742
1080.677, 2.027907
1081.159, 1.950778
1081.641, 1.847350
1082.123, 1.746181
1082.605, 1.684808
1083.087, 1.711299
1083.569, 1.782316
1084.052, 1.844982
1084.534, 1.893183
1085.016, 1.946297
1085.498, 2.027486
1085.980, 2.064848
1086.462, 2.005262
1086.944, 1.915513
1087.426, 1.803713
1087.908, 1.711067
1088.391, 1.696462
1088.873, 1.743962
1089.355, 1.785485
1089.837, 1.803108
1090.319, 1.807500
1090.801, 1.780240
1091.283, 1.768095
1091.765, 1.804773
1092.248, 1.863496
1092.730, 1.941782
1093.212, 2.013410
1093.694, 2.007482
1094.176, 1.893339
1094.658, 1.820423
1095.140, 1.893790
1095.622, 1.953277
1096.104, 1.921182
1096.587, 1.849126
1097.069, 1.763392
1097.551, 1.680563
1098.033, 1.616607
1098.515, 1.573281
1098.997, 1.582831
1099.479, 1.739745
1099.961, 1.833937
1100.443, 1.731534
1100.926, 1.605997
1101.408, 1.583764
1101.890, 1.619905
1102.372, 1.634223
1102.854, 1.618527
1103.336, 1.608368
1103.818, 1.627670
1104.300, 1.629273
1104.783, 1.564864
1105.265, 1.523153
1105.747, 1.585063
1106.229, 1.675471
1106.711, 1.694191
1107.193, 1.645909
1107.675, 1.613787
1108.157, 1.634659
1108.640, 1.620552
1109.122, 1.487705
1109.604, 1.408448
1110.086, 1.503821
1110.568, 1.639400
1111.050, 1.694625
1111.532, 1.678945
1112.014, 1.642213
1112.496, 1.576793
1112.979, 1.517444
1113.461, 1.432799
1113.943, 1.399677
1114.425, 1.496737
1114.907, 1.590127
1115.389, 1.556311
1115.871, 1.460585
1116.353, 1.457192
1116.835, 1.568304
1117.318, 1.639304
1117.800, 1.642751
1118.282, 1.658715
1118.764, 1.729298
1119.246, 1.767423
1119.728, 1.710475
1120.210, 1.605467
1120.692, 1.509722
1121.175, 1.424530
1121.657, 1.436602
1122.139, 1.598528
1122.621, 1.716797
1123.103, 1.786929
1123.585, 1.778970
1124.067, 1.649605
1124.549, 1.494265
1125.031, 1.416229
1125.514, 1.404795
1125.996, 1.414142
1126.478, 1.449988
1126.960, 1.476443
1127.442, 1.493362
1127.924, 1.490876
1128.406, 1.456166
1128.888, 1.448358
1129.370, 1.529951
1129.853, 1.635735
1130.335, 1.585194
1130.817, 1.378905
1131.299, 1.362727
1131.781, 1.548965
1132.263, 1.645872
1132.745, 1.590757
1133.227, 1.522512
1133.710, 1.520614
1134.192, 1.457695
1134.674, 1.574918
1135.156, 1.641658
1135.638, 1.660626
1136.120, 1.488741
1136.602, 1.563303
1137.084, 1.539100
1137.567, 1.510852
1138.049, 1.620099
1138.531, 1.475974
1139.013, 1.583041
1139.495, 1.589837
1139.977, 1.642525
1140.459, 1.595838
1140.941, 1.579845
1141.423, 1.663258
1141.906, 1.691634
1142.388, 1.633507
1142.870, 1.689112
1143.352, 1.541515
1143.834, 1.572231
1144.316, 1.679880
1144.798, 1.626750
1145.280, 1.684172
1145.762, 1.699489
1146.245, 1.523465
1146.727, 1.680207
1147.209, 1.693036
1147.691, 1.558100
1148.173, 1.703439
1148.655, 1.588873
1149.137, 1.567078
1149.619, 1.615098
1150.102, 1.569885
1150.584, 1.562106
1151.066, 1.586357
1151.548, 1.625047
1152.030, 1.670169
1152.512, 1.700684
1152.994, 1.709724
1153.476, 1.697353
1153.958, 1.652191
1154.441, 1.598161
1154.923, 1.535444
1155.405, 1.484220
1155.887, 1.480033
1156.369, 1.508314
1156.851, 1.502897
1157.333, 1.429703
1157.815, 1.408315
1158.297, 1.531712
1158.780, 1.619091
1159.262, 1.582144
1159.744, 1.520475
1160.226, 1.494929
1160.708, 1.499170
1161.190, 1.516334
1161.672, 1.545298
1162.154, 1.601679
1162.637, 1.742452
1163.119, 1.802362
1163.601, 1.747356
1164.083, 1.641706
1164.565, 1.450798
1165.047, 1.313888
1165.529, 1.415719
1166.011, 1.674480
1166.494, 1.744128
1166.976, 1.572662
1167.458, 1.476904
1167.940, 1.469555
1168.422, 1.476743
1168.904, 1.482083
1169.386, 1.493644
1169.868, 1.519445
1170.350, 1.541659
1170.833, 1.516954
1171.315, 1.465737
1171.797, 1.544332
1172.279, 1.732046
1172.761, 1.774444
1173.243, 1.654020
1173.725, 1.549402
1174.207, 1.529739
1174.689, 1.543299
1175.172, 1.545459
1175.654, 1.545325
1176.136, 1.569381
1176.618, 1.598206
1177.100, 1.570637
1177.582, 1.511604
1178.064, 1.494943
1178.547, 1.531469
1179.029, 1.596529
1179.511, 1.681088
1179.993, 1.742205
1180.475, 1.722427
1180.957, 1.683871
1181.439, 1.726941
1181.921, 1.758228
1182.403, 1.594823
1182.885, 1.342840
1183.368, 1.263570
1183.850, 1.398288
1184.332, 1.526405
1184.814, 1.562021
1185.296, 1.566511
1185.778, 1.551401
1186.260, 1.527619
1186.742, 1.464644
1187.225, 1.425335
1187.707, 1.516232
1188.189, 1.689097
1188.671, 1.759226
1189.153, 1.676613
1189.635, 1.620102
1190.117, 1.645830
1190.599, 1.627916
1191.082, 1.514747
1191.564, 1.396857
1192.046, 1.290991
1192.528, 1.246526
1193.010, 1.362569
1193.492, 1.606644
1193.974, 1.695912
1194.456, 1.596875
1194.938, 1.511143
1195.421, 1.441058
1195.903, 1.435301
1196.385, 1.517973
1196.867, 1.598590
1197.349, 1.607654
1197.831, 1.583838
1198.313, 1.601584
1198.795, 1.647954
1199.277, 1.655540
1199.760, 1.632600
1200.242, 1.627360
1200.724, 1.640087
1201.206, 1.615325
1201.688, 1.538717
1202.170, 1.509485
1202.652, 1.635106
1203.134, 1.781393
1203.617, 1.761594
1204.099, 1.669410
1204.581, 1.628601
1205.063, 1.623327
1205.545, 1.609671
1206.027, 1.584858
1206.509, 1.565827
1206.991, 1.557135
1207.474, 1.575414
1207.956, 1.667246
1208.438, 1.738710
1208.920, 1.738817
1209.402, 1.701728
1209.884, 1.616256
1210.366, 1.533889
1210.848, 1.555421
1211.330, 1.669286
1211.813, 1.698311
1212.295, 1.541974
1212.777, 1.467635
1213.259, 1.525839
1213.741, 1.595897
1214.223, 1.667741
1214.705, 1.709737
1215.187, 1.689093
1215.669, 1.639290
1216.152, 1.625601
1216.634, 1.643856
1217.116, 1.615881
1217.598, 1.535803
1218.080, 1.487194
1218.562, 1.479458
1219.044, 1.469964
1219.526, 1.442990
1220.009, 1.440932
1220.491, 1.501699
1220.973, 1.589431
1221.455, 1.655416
1221.937, 1.693987
1222.419, 1.672889
1222.901, 1.616886
1223.383, 1.591342
1223.865, 1.599201
1224.348, 1.624710
1224.830, 1.656778
1225.312, 1.634912
1225.794, 1.458687
1226.276, 1.327187
1226.758, 1.454886
1227.240, 1.630554
1227.722, 1.657026
1228.204, 1.621545
1228.687, 1.663323
1229.169, 1.761649
1229.651, 1.793680
1230.133, 1.721226
1230.615, 1.674869
1231.097, 1.724722
1231.579, 1.732295
1232.061, 1.628484
1232.544, 1.530016
1233.026, 1.485034
1233.508, 1.476565
1233.990, 1.491375
1234.472, 1.524172
1234.954, 1.553296
1235.436, 1.578793
1235.918, 1.599585
1236.401, 1.615002
1236.883, 1.635651
1237.365, 1.664258
1237.847, 1.678727
1238.329, 1.666277
1238.811, 1.654727
1239.293, 1.679564
1239.775, 1.720912
1240.257, 1.744816
1240.740, 1.749703
1241.222, 1.726692
1241.704, 1.682889
1242.186, 1.626664
1242.668, 1.568846
1243.150, 1.545334
1243.632, 1.574621
1244.114, 1.597860
1244.596, 1.566725
1245.079, 1.528726
1245.561, 1.494124
1246.043, 1.485268
1246.525, 1.543853
1247.007, 1.626572
1247.489, 1.674868
1247.971, 1.684766
1248.453, 1.670308
1248.936, 1.624201
1249.418, 1.572288
1249.900, 1.484888
1250.382, 1.454859
1250.864, 1.535210
1251.346, 1.597703
1251.828, 1.556208
1252.310, 1.494585
1252.792, 1.529795
1253.275, 1.633573
1253.757, 1.686002
1254.239, 1.692009
1254.721, 1.715590
1255.203, 1.756565
1255.685, 1.800301
1256.167, 1.835835
1256.649, 1.793984
1257.131, 1.637483
1257.614, 1.501061
1258.096, 1.564844
1258.578, 1.658884
1259.060, 1.544575
1259.542, 1.377800
1260.024, 1.343539
1260.506, 1.406495
1260.988, 1.505378
1261.471, 1.612879
1261.953, 1.681729
1262.435, 1.694750
1262.917, 1.690367
1263.399, 1.656752
1263.881, 1.637918
1264.363, 1.667416
1264.845, 1.686874
1265.328, 1.647545
1265.810, 1.606105
1266.292, 1.630034
1266.774, 1.704339
1267.256, 1.780105
1267.738, 1.865007
1268.220, 1.850449
1268.702, 1.732129
1269.184, 1.663287
1269.667, 1.670017
1270.149, 1.657929
1270.631, 1.584210
1271.113, 1.532816
1271.595, 1.597741
1272.077, 1.693341
1272.559, 1.674544
1273.041, 1.617355
1273.523, 1.649586
1274.006, 1.721545
1274.488, 1.729232
1274.970, 1.683624
1275.452, 1.662721
1275.934, 1.687544
1276.416, 1.718339
1276.898, 1.758786
1277.380, 1.775111
1277.863, 1.719755
1278.345, 1.686008
1278.827, 1.755809
1279.309, 1.827520
1279.791, 1.811639
1280.273, 1.742985
1280.755, 1.690700
1281.237, 1.655358
1281.719, 1.710929
1282.202, 1.871792
1282.684, 1.891592
##END=



