##NAMES=Malayaite
##RRUFFID=R061131
##IDEAL CHEMISTRY=CaSn^4+^O(SiO_4_)
##LOCALITY=Humpolec, Czech Republic
##OWNER=RRUFF
##SOURCE=Michael Scott
##DESCRIPTION=Pale tan colored grains disseminated through the rock
##STATUS=The identification of this mineral is confirmed by single-crystal X-ray diffraction and chemical analysis.
##URL=rruff.info/R061131
##MEASURED CHEMISTRY=(Ca_1.01_Fe_0.01_)(Sn_0.99_Ti_0.01_)Si_0.99_O_5_
139.0922, 1884.250
139.5743, 1869.885
140.0565, 1855.656
140.5386, 1840.047
141.0207, 1829.696
141.5028, 1824.953
141.9849, 1825.584
142.4670, 1831.709
142.9492, 1846.675
143.4313, 1862.345
143.9134, 1872.918
144.3955, 1873.308
144.8776, 1878.257
145.3597, 1890.669
145.8419, 1910.058
146.3240, 1928.624
146.8061, 1945.287
147.2882, 1961.768
147.7703, 1979.215
148.2524, 1996.896
148.7346, 2016.664
149.2167, 2040.468
149.6988, 2070.653
150.1809, 2094.683
150.6630, 2107.092
151.1452, 2115.055
151.6273, 2127.188
152.1094, 2146.296
152.5915, 2167.468
153.0736, 2189.559
153.5557, 2212.760
154.0379, 2235.645
154.5200, 2259.403
155.0021, 2282.835
155.4842, 2303.673
155.9663, 2321.287
156.4484, 2336.401
156.9306, 2348.822
157.4127, 2354.634
157.8948, 2363.206
158.3769, 2375.553
158.8590, 2392.128
159.3411, 2414.516
159.8233, 2452.847
160.3054, 2492.327
160.7875, 2522.449
161.2696, 2526.439
161.7517, 2533.167
162.2338, 2555.930
162.7160, 2593.588
163.1981, 2631.698
163.6802, 2662.784
164.1623, 2691.198
164.6444, 2721.576
165.1265, 2759.146
165.6087, 2796.743
166.0908, 2827.898
166.5729, 2851.992
167.0550, 2878.464
167.5371, 2916.406
168.0192, 2960.208
168.5014, 3000.959
168.9835, 3032.089
169.4656, 3059.466
169.9477, 3088.426
170.4298, 3120.547
170.9119, 3150.147
171.3941, 3168.744
171.8762, 3180.595
172.3583, 3196.916
172.8404, 3230.402
173.3225, 3269.751
173.8046, 3300.722
174.2868, 3320.866
174.7689, 3332.529
175.2510, 3333.026
175.7331, 3324.801
176.2152, 3319.227
176.6973, 3326.157
177.1795, 3340.675
177.6616, 3354.358
178.1437, 3367.920
178.6258, 3376.706
179.1079, 3367.994
179.5900, 3343.333
180.0722, 3323.573
180.5543, 3327.901
181.0364, 3350.699
181.5185, 3375.861
182.0006, 3401.341
182.4827, 3425.025
182.9649, 3442.845
183.4470, 3454.444
183.9291, 3464.625
184.4112, 3477.965
184.8933, 3494.000
185.3754, 3509.619
185.8576, 3520.724
186.3397, 3530.681
186.8218, 3552.439
187.3039, 3587.594
187.7860, 3626.051
188.2681, 3653.512
188.7503, 3670.942
189.2324, 3693.601
189.7145, 3731.035
190.1966, 3780.645
190.6787, 3826.360
191.1608, 3867.077
191.6430, 3906.078
192.1251, 3949.141
192.6072, 3996.188
193.0893, 4043.929
193.5714, 4091.381
194.0535, 4138.814
194.5357, 4183.239
195.0178, 4223.231
195.4999, 4261.159
195.9820, 4301.102
196.4641, 4342.672
196.9462, 4387.846
197.4284, 4441.352
197.9105, 4503.710
198.3926, 4556.781
198.8747, 4598.167
199.3568, 4629.711
199.8389, 4655.172
200.3211, 4673.498
200.8032, 4690.089
201.2853, 4709.369
201.7674, 4731.993
202.2495, 4751.450
202.7316, 4765.828
203.2138, 4776.458
203.6959, 4791.715
204.1780, 4816.249
204.6601, 4832.607
205.1422, 4822.091
205.6243, 4778.432
206.1065, 4739.783
206.5886, 4714.185
207.0707, 4700.173
207.5528, 4685.240
208.0349, 4673.092
208.5170, 4652.875
208.9992, 4609.965
209.4813, 4535.841
209.9634, 4468.297
210.4455, 4417.264
210.9276, 4382.796
211.4097, 4341.629
211.8919, 4290.528
212.3740, 4237.252
212.8561, 4190.730
213.3382, 4154.023
213.8203, 4115.531
214.3024, 4071.300
214.7846, 4020.873
215.2667, 3972.763
215.7488, 3927.031
216.2309, 3883.097
216.7130, 3838.885
217.1951, 3792.364
217.6773, 3750.157
218.1594, 3716.337
218.6415, 3693.961
219.1236, 3659.734
219.6057, 3605.224
220.0878, 3544.994
220.5700, 3504.694
221.0521, 3491.664
221.5342, 3483.738
222.0163, 3475.103
222.4984, 3468.392
222.9805, 3450.528
223.4627, 3416.463
223.9448, 3374.347
224.4269, 3341.735
224.9090, 3323.583
225.3911, 3305.906
225.8732, 3282.273
226.3554, 3248.949
226.8375, 3220.380
227.3196, 3197.570
227.8017, 3179.598
228.2838, 3165.005
228.7659, 3156.984
229.2481, 3147.576
229.7302, 3132.570
230.2123, 3107.295
230.6944, 3087.085
231.1765, 3072.464
231.6587, 3063.174
232.1408, 3059.254
232.6229, 3064.041
233.1050, 3069.544
233.5871, 3072.191
234.0692, 3072.330
234.5514, 3068.587
235.0335, 3058.763
235.5156, 3045.136
235.9977, 3035.806
236.4798, 3033.697
236.9619, 3031.832
237.4441, 3026.519
237.9262, 3016.760
238.4083, 3005.489
238.8904, 2991.930
239.3725, 2976.851
239.8546, 2963.646
240.3368, 2952.037
240.8189, 2942.665
241.3010, 2935.825
241.7831, 2931.219
242.2652, 2930.137
242.7473, 2935.285
243.2295, 2944.734
243.7116, 2946.759
244.1937, 2937.966
244.6758, 2926.164
245.1579, 2915.816
245.6400, 2905.886
246.1222, 2899.850
246.6043, 2900.036
247.0864, 2905.073
247.5685, 2904.453
248.0506, 2892.310
248.5327, 2882.209
249.0149, 2885.562
249.4970, 2914.401
249.9791, 2930.087
250.4612, 2923.116
250.9433, 2896.972
251.4254, 2882.931
251.9076, 2886.886
252.3897, 2895.000
252.8718, 2896.704
253.3539, 2887.081
253.8360, 2882.118
254.3181, 2882.419
254.8003, 2888.553
255.2824, 2907.263
255.7645, 2947.426
256.2466, 2987.508
256.7287, 3008.921
257.2108, 3002.391
257.6930, 3001.074
258.1751, 3010.569
258.6572, 3029.630
259.1393, 3047.551
259.6214, 3064.910
260.1035, 3079.706
260.5857, 3088.500
261.0678, 3086.910
261.5499, 3092.812
262.0320, 3113.767
262.5141, 3146.546
262.9962, 3161.129
263.4784, 3153.476
263.9605, 3134.476
264.4426, 3111.859
264.9247, 3084.964
265.4068, 3056.095
265.8889, 3025.726
266.3711, 2993.784
266.8532, 2956.196
267.3353, 2909.868
267.8174, 2864.384
268.2995, 2824.673
268.7816, 2789.476
269.2638, 2767.583
269.7459, 2764.427
270.2280, 2776.372
270.7101, 2781.555
271.1922, 2777.865
271.6743, 2772.212
272.1565, 2770.237
272.6386, 2772.424
273.1207, 2775.293
273.6028, 2778.246
274.0849, 2781.418
274.5670, 2786.093
275.0492, 2792.982
275.5313, 2799.195
276.0134, 2800.365
276.4955, 2795.414
276.9776, 2797.646
277.4597, 2813.034
277.9419, 2836.151
278.4240, 2843.469
278.9061, 2831.632
279.3882, 2818.156
279.8703, 2816.997
280.3524, 2828.313
280.8346, 2843.820
281.3167, 2863.781
281.7988, 2886.004
282.2809, 2902.733
282.7630, 2913.132
283.2451, 2923.813
283.7273, 2941.444
284.2094, 2965.389
284.6915, 2986.098
285.1736, 3001.216
285.6557, 3012.865
286.1378, 3026.063
286.6200, 3040.871
287.1021, 3056.329
287.5842, 3073.089
288.0663, 3090.446
288.5484, 3104.069
289.0305, 3112.479
289.5127, 3117.825
289.9948, 3123.083
290.4769, 3128.303
290.9590, 3136.777
291.4411, 3152.826
291.9232, 3174.627
292.4054, 3196.128
292.8875, 3218.748
293.3696, 3236.921
293.8517, 3235.811
294.3338, 3217.553
294.8159, 3202.643
295.2981, 3209.794
295.7802, 3231.052
296.2623, 3245.325
296.7444, 3248.740
297.2265, 3246.414
297.7086, 3242.924
298.1908, 3238.799
298.6729, 3236.583
299.1550, 3238.165
299.6371, 3242.698
300.1192, 3249.400
300.6013, 3259.054
301.0835, 3268.001
301.5656, 3267.621
302.0477, 3261.830
302.5298, 3263.609
303.0119, 3284.621
303.4940, 3315.916
303.9762, 3343.744
304.4583, 3364.107
304.9404, 3391.001
305.4225, 3441.221
305.9046, 3507.474
306.3867, 3573.863
306.8689, 3632.257
307.3510, 3686.580
307.8331, 3736.336
308.3152, 3779.851
308.7973, 3830.183
309.2794, 3898.427
309.7616, 3978.932
310.2437, 4063.117
310.7258, 4149.386
311.2079, 4235.187
311.6900, 4318.851
312.1721, 4398.559
312.6543, 4481.063
313.1364, 4571.839
313.6185, 4667.309
314.1006, 4761.274
314.5827, 4839.646
315.0648, 4925.621
315.5470, 5033.758
316.0291, 5164.014
316.5112, 5300.347
316.9933, 5441.919
317.4754, 5583.036
317.9576, 5717.817
318.4397, 5843.834
318.9218, 5963.952
319.4039, 6083.290
319.8860, 6202.097
320.3681, 6301.996
320.8503, 6380.789
321.3324, 6438.528
321.8145, 6475.256
322.2966, 6484.662
322.7787, 6479.716
323.2608, 6470.542
323.7430, 6454.370
324.2251, 6401.817
324.7072, 6292.972
325.1893, 6157.146
325.6714, 6012.054
326.1535, 5852.529
326.6357, 5691.078
327.1178, 5526.501
327.5999, 5359.042
328.0820, 5195.425
328.5641, 5033.131
329.0462, 4877.406
329.5284, 4730.810
330.0105, 4590.362
330.4926, 4463.328
330.9747, 4348.283
331.4568, 4246.150
331.9389, 4161.328
332.4211, 4107.623
332.9032, 4053.301
333.3853, 3980.279
333.8674, 3869.343
334.3495, 3793.416
334.8316, 3763.924
335.3138, 3761.529
335.7959, 3749.253
336.2780, 3725.516
336.7601, 3695.871
337.2422, 3659.863
337.7243, 3615.083
338.2065, 3581.764
338.6886, 3561.646
339.1707, 3549.785
339.6528, 3539.902
340.1349, 3531.944
340.6170, 3525.716
341.0992, 3521.468
341.5813, 3519.038
342.0634, 3517.088
342.5455, 3516.377
343.0276, 3513.483
343.5097, 3500.509
343.9919, 3477.847
344.4740, 3464.668
344.9561, 3467.470
345.4382, 3483.137
345.9203, 3505.303
346.4024, 3534.676
346.8846, 3562.144
347.3667, 3573.998
347.8488, 3575.705
348.3309, 3589.071
348.8130, 3622.522
349.2951, 3666.184
349.7773, 3704.341
350.2594, 3737.476
350.7415, 3769.672
351.2236, 3804.332
351.7057, 3840.388
352.1878, 3874.548
352.6700, 3904.038
353.1521, 3936.732
353.6342, 3984.276
354.1163, 4042.426
354.5984, 4097.589
355.0806, 4148.777
355.5627, 4189.806
356.0448, 4211.612
356.5269, 4209.456
357.0090, 4202.603
357.4911, 4200.631
357.9733, 4203.179
358.4554, 4209.604
358.9375, 4217.520
359.4196, 4230.803
359.9017, 4251.980
360.3839, 4281.259
360.8660, 4316.733
361.3481, 4365.102
361.8302, 4416.646
362.3123, 4460.456
362.7944, 4487.393
363.2766, 4511.956
363.7587, 4545.073
364.2408, 4586.527
364.7229, 4607.096
365.2050, 4602.081
365.6871, 4573.465
366.1693, 4522.770
366.6514, 4440.478
367.1335, 4347.040
367.6156, 4239.141
368.0977, 4118.769
368.5798, 4003.205
369.0620, 3894.778
369.5441, 3789.530
370.0262, 3684.529
370.5083, 3564.921
370.9904, 3472.187
371.4725, 3418.988
371.9547, 3389.046
372.4368, 3339.984
372.9189, 3258.740
373.4010, 3183.313
373.8831, 3130.405
374.3652, 3105.033
374.8474, 3076.966
375.3295, 3043.951
375.8116, 3011.129
376.2937, 2985.129
376.7758, 2966.711
377.2579, 2953.641
377.7401, 2947.992
378.2222, 2948.263
378.7043, 2940.469
379.1864, 2923.288
379.6685, 2904.042
380.1506, 2890.884
380.6328, 2883.261
381.1149, 2874.868
381.5970, 2862.595
382.0791, 2849.775
382.5612, 2845.482
383.0433, 2849.312
383.5255, 2852.611
384.0076, 2842.560
384.4897, 2827.498
384.9718, 2828.832
385.4539, 2855.948
385.9360, 2887.565
386.4182, 2897.658
386.9003, 2891.367
387.3824, 2886.364
387.8645, 2895.654
388.3466, 2909.712
388.8287, 2917.979
389.3109, 2918.534
389.7930, 2918.354
390.2751, 2920.202
390.7572, 2924.699
391.2393, 2932.768
391.7214, 2951.774
392.2036, 2968.766
392.6857, 2975.008
393.1678, 2970.134
393.6499, 2966.832
394.1320, 2977.771
394.6141, 2988.252
395.0963, 2985.692
395.5784, 2953.500
396.0605, 2922.810
396.5426, 2902.736
397.0247, 2890.920
397.5068, 2874.332
397.9890, 2833.277
398.4711, 2801.434
398.9532, 2795.923
399.4353, 2842.287
399.9174, 2872.612
400.3995, 2878.886
400.8817, 2871.215
401.3638, 2870.799
401.8459, 2884.758
402.3280, 2894.123
402.8101, 2891.991
403.2922, 2876.959
403.7744, 2859.457
404.2565, 2836.362
404.7386, 2815.368
405.2207, 2806.617
405.7028, 2812.299
406.1849, 2816.620
406.6671, 2814.574
407.1492, 2808.209
407.6313, 2807.015
408.1134, 2811.243
408.5955, 2818.725
409.0776, 2829.426
409.5598, 2842.479
410.0419, 2853.511
410.5240, 2861.804
411.0061, 2867.818
411.4882, 2869.014
411.9703, 2867.011
412.4525, 2870.635
412.9346, 2889.377
413.4167, 2915.545
413.8988, 2938.311
414.3809, 2956.737
414.8630, 2970.637
415.3452, 2978.782
415.8273, 2982.254
416.3094, 2982.749
416.7915, 2975.652
417.2736, 2969.979
417.7557, 2971.234
418.2379, 2979.433
418.7200, 2992.994
419.2021, 3015.769
419.6842, 3041.295
420.1663, 3064.358
420.6484, 3083.746
421.1306, 3100.546
421.6127, 3111.083
422.0948, 3118.467
422.5769, 3132.517
423.0590, 3163.915
423.5411, 3194.531
424.0233, 3216.778
424.5054, 3227.416
424.9875, 3236.870
425.4696, 3243.805
425.9517, 3250.144
426.4338, 3258.294
426.9160, 3267.310
427.3981, 3279.990
427.8802, 3298.478
428.3623, 3322.415
428.8444, 3341.773
429.3265, 3355.269
429.8087, 3366.930
430.2908, 3379.689
430.7729, 3393.441
431.2550, 3409.341
431.7371, 3428.681
432.2192, 3449.012
432.7014, 3462.874
433.1835, 3470.348
433.6656, 3479.755
434.1477, 3497.837
434.6298, 3521.780
435.1119, 3541.793
435.5941, 3556.755
436.0762, 3571.758
436.5583, 3596.039
437.0404, 3624.996
437.5225, 3647.439
438.0046, 3654.692
438.4868, 3656.020
438.9689, 3657.229
439.4510, 3659.097
439.9331, 3668.444
440.4152, 3694.246
440.8973, 3727.094
441.3795, 3757.863
441.8616, 3781.357
442.3437, 3807.930
442.8258, 3842.985
443.3079, 3884.059
443.7900, 3925.667
444.2722, 3964.543
444.7543, 4004.704
445.2364, 4046.014
445.7185, 4085.528
446.2006, 4136.588
446.6827, 4197.887
447.1649, 4272.643
447.6470, 4364.549
448.1291, 4484.250
448.6112, 4602.290
449.0933, 4708.003
449.5754, 4806.214
450.0576, 4935.714
450.5397, 5107.760
451.0218, 5288.726
451.5039, 5456.194
451.9860, 5606.888
452.4681, 5779.623
452.9503, 5979.169
453.4324, 6200.769
453.9145, 6440.452
454.3966, 6699.370
454.8787, 6976.792
455.3608, 7279.581
455.8430, 7601.923
456.3251, 7929.754
456.8072, 8261.583
457.2893, 8606.892
457.7714, 8975.938
458.2535, 9361.827
458.7357, 9743.195
459.2178, 10122.12
459.6999, 10490.18
460.1820, 10854.22
460.6641, 11209.62
461.1462, 11546.03
461.6284, 11879.28
462.1105, 12181.06
462.5926, 12445.64
463.0747, 12685.31
463.5568, 12827.94
464.0389, 12860.18
464.5211, 12777.19
465.0032, 12571.48
465.4853, 12198.79
465.9674, 11750.10
466.4495, 11217.22
466.9316, 10608.65
467.4138, 10011.33
467.8959, 9413.479
468.3780, 8839.462
468.8601, 8297.194
469.3422, 7773.243
469.8243, 7317.555
470.3065, 6939.768
470.7886, 6620.532
471.2707, 6341.779
471.7528, 6108.279
472.2349, 5885.460
472.7170, 5652.641
473.1992, 5419.177
473.6813, 5240.410
474.1634, 5119.945
474.6455, 5017.131
475.1276, 4888.930
475.6097, 4747.645
476.0919, 4641.704
476.5740, 4587.847
477.0561, 4551.491
477.5382, 4491.535
478.0203, 4414.480
478.5024, 4339.936
478.9846, 4272.633
479.4667, 4215.760
479.9488, 4178.738
480.4309, 4162.624
480.9130, 4140.299
481.3951, 4089.019
481.8773, 4028.961
482.3594, 3979.368
482.8415, 3949.684
483.3236, 3925.960
483.8057, 3906.557
484.2878, 3891.114
484.7700, 3878.039
485.2521, 3872.308
485.7342, 3864.059
486.2163, 3848.029
486.6984, 3818.877
487.1805, 3803.146
487.6627, 3808.823
488.1448, 3819.740
488.6269, 3815.762
489.1090, 3791.103
489.5911, 3774.867
490.0732, 3775.524
490.5554, 3787.359
491.0375, 3789.625
491.5196, 3781.344
492.0017, 3774.062
492.4838, 3780.032
492.9659, 3793.607
493.4481, 3791.354
493.9302, 3769.005
494.4123, 3744.635
494.8944, 3738.942
495.3765, 3746.516
495.8586, 3754.576
496.3408, 3756.611
496.8229, 3758.427
497.3050, 3768.370
497.7871, 3784.005
498.2692, 3792.633
498.7513, 3780.042
499.2335, 3763.095
499.7156, 3753.256
500.1977, 3753.297
500.6798, 3758.054
501.1619, 3773.384
501.6440, 3790.779
502.1262, 3798.337
502.6083, 3785.082
503.0904, 3773.279
503.5725, 3766.654
504.0546, 3764.904
504.5367, 3764.910
505.0189, 3766.823
505.5010, 3770.219
505.9831, 3775.762
506.4652, 3784.250
506.9473, 3788.766
507.4294, 3787.647
507.9116, 3784.997
508.3937, 3791.520
508.8758, 3806.035
509.3579, 3808.162
509.8400, 3782.954
510.3221, 3743.845
510.8043, 3718.141
511.2864, 3705.448
511.7685, 3698.066
512.2506, 3693.657
512.7327, 3690.068
513.2148, 3684.036
513.6970, 3673.952
514.1791, 3664.594
514.6612, 3665.246
515.1433, 3667.416
515.6254, 3657.504
516.1075, 3608.568
516.5897, 3568.500
517.0718, 3561.644
517.5539, 3587.399
518.0360, 3600.440
518.5181, 3586.845
519.0002, 3565.909
519.4824, 3546.849
519.9645, 3526.879
520.4466, 3514.827
520.9287, 3514.147
521.4108, 3518.431
521.8929, 3516.707
522.3751, 3507.324
522.8572, 3500.110
523.3393, 3499.281
523.8214, 3502.677
524.3035, 3500.866
524.7856, 3493.673
525.2678, 3486.076
525.7499, 3482.649
526.2320, 3481.694
526.7141, 3478.466
527.1962, 3471.799
527.6783, 3465.722
528.1605, 3463.862
528.6426, 3465.388
529.1247, 3468.738
529.6068, 3474.868
530.0889, 3481.247
530.5710, 3486.560
531.0532, 3490.815
531.5353, 3494.799
532.0174, 3497.860
532.4995, 3501.356
532.9816, 3506.172
533.4637, 3513.572
533.9459, 3519.577
534.4280, 3521.156
534.9101, 3523.063
535.3922, 3531.826
535.8743, 3552.014
536.3564, 3568.475
536.8386, 3579.323
537.3207, 3584.265
537.8028, 3579.763
538.2849, 3563.852
538.7670, 3550.497
539.2491, 3547.585
539.7313, 3554.247
540.2134, 3570.391
540.6955, 3598.077
541.1776, 3620.256
541.6597, 3610.616
542.1418, 3583.015
542.6240, 3567.534
543.1061, 3582.122
543.5882, 3600.378
544.0703, 3599.556
544.5524, 3585.185
545.0345, 3573.000
545.5167, 3566.656
545.9988, 3567.020
546.4809, 3576.511
546.9630, 3596.780
547.4451, 3615.415
547.9272, 3634.395
548.4094, 3648.647
548.8915, 3653.011
549.3736, 3634.948
549.8557, 3630.531
550.3378, 3646.457
550.8199, 3674.810
551.3021, 3698.917
551.7842, 3718.365
552.2663, 3735.152
552.7484, 3746.640
553.2305, 3755.824
553.7126, 3779.594
554.1948, 3818.653
554.6769, 3861.671
555.1590, 3899.043
555.6411, 3933.626
556.1232, 3969.093
556.6053, 4003.807
557.0875, 4047.659
557.5696, 4112.241
558.0517, 4192.126
558.5338, 4275.461
559.0159, 4352.129
559.4980, 4438.257
559.9802, 4544.742
560.4623, 4669.762
560.9444, 4794.304
561.4265, 4910.285
561.9086, 5030.703
562.3907, 5159.495
562.8729, 5300.043
563.3550, 5442.578
563.8371, 5589.330
564.3192, 5735.692
564.8013, 5874.848
565.2834, 6002.995
565.7656, 6149.647
566.2477, 6329.607
566.7298, 6522.889
567.2119, 6687.085
567.6940, 6824.693
568.1761, 6965.195
568.6583, 7135.378
569.1404, 7316.487
569.6225, 7486.028
570.1046, 7640.226
570.5867, 7768.663
571.0688, 7872.533
571.5510, 7940.558
572.0331, 7959.951
572.5152, 7930.234
572.9973, 7847.468
573.4794, 7701.273
573.9615, 7501.732
574.4437, 7271.514
574.9258, 6984.499
575.4079, 6694.183
575.8900, 6407.466
576.3721, 6123.257
576.8542, 5854.721
577.3364, 5601.319
577.8185, 5364.612
578.3006, 5147.836
578.7827, 4949.410
579.2648, 4782.888
579.7469, 4648.631
580.2291, 4539.907
580.7112, 4455.945
581.1933, 4392.228
581.6754, 4328.553
582.1575, 4258.579
582.6396, 4190.230
583.1218, 4131.654
583.6039, 4082.281
584.0860, 4040.663
584.5681, 4012.826
585.0502, 3986.573
585.5323, 3949.303
586.0145, 3900.841
586.4966, 3866.514
586.9787, 3868.262
587.4608, 3875.674
587.9429, 3868.622
588.4250, 3833.805
588.9072, 3809.923
589.3893, 3800.772
589.8714, 3799.469
590.3535, 3797.108
590.8356, 3793.914
591.3177, 3788.661
591.7999, 3781.424
592.2820, 3771.660
592.7641, 3754.426
593.2462, 3730.238
593.7283, 3712.324
594.2104, 3715.126
594.6926, 3726.874
595.1747, 3723.905
595.6568, 3705.060
596.1389, 3694.673
596.6210, 3724.048
597.1031, 3763.995
597.5853, 3783.708
598.0674, 3767.998
598.5495, 3747.431
599.0316, 3721.094
599.5137, 3697.419
599.9958, 3691.467
600.4780, 3722.424
600.9601, 3746.415
601.4423, 3753.082
601.9244, 3745.820
602.4065, 3744.625
602.8886, 3751.186
603.3707, 3758.635
603.8528, 3762.816
604.3350, 3764.151
604.8171, 3769.458
605.2992, 3779.779
605.7813, 3786.457
606.2634, 3774.616
606.7455, 3754.003
607.2277, 3746.097
607.7098, 3760.393
608.1919, 3777.338
608.6740, 3782.400
609.1561, 3779.235
609.6382, 3774.291
610.1204, 3757.340
610.6025, 3751.531
611.0846, 3775.947
611.5667, 3825.583
612.0488, 3850.444
612.5309, 3825.973
613.0131, 3803.805
613.4952, 3808.772
613.9773, 3846.819
614.4594, 3865.028
614.9415, 3858.872
615.4236, 3844.688
615.9058, 3835.750
616.3879, 3832.293
616.8700, 3838.604
617.3521, 3858.415
617.8342, 3879.599
618.3163, 3879.718
618.7985, 3868.441
619.2806, 3869.581
619.7627, 3908.867
620.2448, 3951.187
620.7269, 3971.330
621.2090, 3972.815
621.6912, 3973.132
622.1733, 3976.220
622.6554, 3981.017
623.1375, 3987.378
623.6196, 3995.728
624.1017, 4003.294
624.5839, 4007.191
625.0660, 4013.700
625.5481, 4028.860
626.0302, 4054.486
626.5123, 4078.482
626.9944, 4100.740
627.4766, 4119.225
627.9587, 4128.250
628.4408, 4129.584
628.9229, 4133.887
629.4050, 4147.525
629.8871, 4162.576
630.3693, 4165.815
630.8514, 4161.448
631.3335, 4163.504
631.8156, 4191.154
632.2977, 4217.908
632.7798, 4225.757
633.2620, 4213.281
633.7441, 4198.945
634.2262, 4181.802
634.7083, 4167.324
635.1904, 4160.260
635.6725, 4168.745
636.1547, 4162.097
636.6368, 4135.697
637.1189, 4100.993
637.6010, 4069.507
638.0831, 4041.091
638.5652, 4020.846
639.0474, 4012.648
639.5295, 4007.682
640.0116, 3987.093
640.4937, 3956.093
640.9758, 3932.704
641.4579, 3930.921
641.9401, 3937.108
642.4222, 3942.673
642.9043, 3946.979
643.3864, 3946.985
643.8685, 3938.591
644.3506, 3927.960
644.8328, 3917.941
645.3149, 3908.850
645.7970, 3900.073
646.2791, 3889.260
646.7612, 3881.379
647.2433, 3882.083
647.7255, 3893.712
648.2076, 3901.353
648.6897, 3903.395
649.1718, 3901.592
649.6539, 3897.643
650.1360, 3891.817
650.6182, 3885.613
651.1003, 3879.064
651.5824, 3872.936
652.0645, 3868.589
652.5466, 3865.590
653.0287, 3862.721
653.5109, 3857.832
653.9930, 3854.247
654.4751, 3854.559
654.9572, 3858.883
655.4393, 3862.056
655.9214, 3866.154
656.4036, 3866.244
656.8857, 3858.862
657.3678, 3841.475
657.8499, 3828.092
658.3320, 3819.319
658.8141, 3813.462
659.2963, 3809.149
659.7784, 3806.292
660.2605, 3804.218
660.7426, 3802.854
661.2247, 3802.042
661.7068, 3802.979
662.1890, 3804.264
662.6711, 3802.832
663.1532, 3789.709
663.6353, 3780.830
664.1174, 3792.263
664.5995, 3816.208
665.0817, 3827.118
665.5638, 3807.259
666.0459, 3785.019
666.5280, 3767.851
667.0101, 3755.768
667.4922, 3751.651
667.9744, 3759.410
668.4565, 3766.504
668.9386, 3763.237
669.4207, 3750.383
669.9028, 3744.589
670.3849, 3747.402
670.8671, 3749.596
671.3492, 3736.088
671.8313, 3716.286
672.3134, 3709.650
672.7955, 3725.174
673.2776, 3741.702
673.7598, 3743.543
674.2419, 3738.161
674.7240, 3736.453
675.2061, 3750.213
675.6882, 3757.491
676.1703, 3749.749
676.6525, 3732.710
677.1346, 3721.067
677.6167, 3715.628
678.0988, 3713.791
678.5809, 3714.185
679.0630, 3717.530
679.5452, 3731.631
680.0273, 3756.633
680.5094, 3774.813
680.9915, 3767.272
681.4736, 3747.069
681.9557, 3735.622
682.4379, 3734.130
682.9200, 3738.929
683.4021, 3750.762
683.8842, 3765.851
684.3663, 3781.794
684.8484, 3800.298
685.3306, 3814.288
685.8127, 3824.515
686.2948, 3828.657
686.7769, 3822.223
687.2590, 3797.948
687.7411, 3783.955
688.2233, 3784.873
688.7054, 3795.553
689.1875, 3808.792
689.6696, 3824.079
690.1517, 3835.990
690.6339, 3841.552
691.1160, 3843.457
691.5981, 3843.681
692.0802, 3843.041
692.5623, 3844.288
693.0444, 3851.983
693.5266, 3859.248
694.0087, 3861.882
694.4908, 3859.808
694.9729, 3857.063
695.4550, 3854.545
695.9371, 3851.168
696.4193, 3846.807
696.9014, 3841.757
697.3835, 3832.816
697.8656, 3818.865
698.3477, 3804.335
698.8298, 3792.611
699.3120, 3783.702
699.7941, 3778.793
700.2762, 3778.629
700.7583, 3778.880
701.2404, 3774.712
701.7225, 3768.371
702.2047, 3763.463
702.6868, 3764.231
703.1689, 3761.638
703.6510, 3747.029
704.1331, 3727.897
704.6152, 3718.146
705.0974, 3730.557
705.5795, 3733.417
706.0616, 3715.988
706.5437, 3687.917
707.0258, 3680.968
707.5079, 3697.838
707.9901, 3711.065
708.4722, 3703.012
708.9543, 3686.509
709.4364, 3699.150
709.9185, 3735.869
710.4006, 3761.004
710.8828, 3738.022
711.3649, 3704.326
711.8470, 3691.585
712.3291, 3702.293
712.8112, 3716.135
713.2933, 3734.391
713.7755, 3748.052
714.2576, 3751.383
714.7397, 3741.886
715.2218, 3730.998
715.7039, 3717.168
716.1860, 3705.133
716.6682, 3700.308
717.1503, 3702.194
717.6324, 3705.350
718.1145, 3709.158
718.5966, 3713.824
719.0787, 3722.156
719.5609, 3731.007
720.0430, 3734.500
720.5251, 3726.501
721.0072, 3719.546
721.4893, 3717.083
721.9714, 3720.241
722.4536, 3731.355
722.9357, 3766.332
723.4178, 3788.020
723.8999, 3787.980
724.3820, 3771.842
724.8641, 3752.758
725.3463, 3728.818
725.8284, 3716.233
726.3105, 3726.363
726.7926, 3748.722
727.2747, 3757.470
727.7568, 3754.686
728.2390, 3752.781
728.7211, 3760.044
729.2032, 3770.766
729.6853, 3779.172
730.1674, 3785.281
730.6495, 3795.843
731.1317, 3818.693
731.6138, 3841.441
732.0959, 3859.347
732.5780, 3873.282
733.0601, 3874.387
733.5422, 3857.268
734.0244, 3840.552
734.5065, 3840.379
734.9886, 3854.815
735.4707, 3871.581
735.9528, 3889.908
736.4349, 3908.956
736.9171, 3930.873
737.3992, 3951.705
737.8813, 3965.657
738.3634, 3970.092
738.8455, 3970.774
739.3276, 3969.870
739.8098, 3966.468
740.2919, 3958.939
740.7740, 3942.406
741.2561, 3930.258
741.7382, 3922.881
742.2203, 3921.019
742.7025, 3930.066
743.1846, 3950.068
743.6667, 3960.019
744.1488, 3949.326
744.6309, 3932.943
745.1130, 3937.134
745.5952, 3953.981
746.0773, 3962.076
746.5594, 3943.208
747.0415, 3920.792
747.5236, 3906.637
748.0057, 3899.315
748.4879, 3891.102
748.9700, 3876.024
749.4521, 3866.943
749.9342, 3870.814
750.4163, 3884.683
750.8984, 3884.180
751.3806, 3867.600
751.8627, 3849.452
752.3448, 3835.918
752.8269, 3827.260
753.3090, 3826.977
753.7911, 3834.058
754.2733, 3837.683
754.7554, 3825.441
755.2375, 3810.895
755.7196, 3805.353
756.2017, 3811.299
756.6838, 3815.151
757.1660, 3810.757
757.6481, 3807.204
758.1302, 3809.680
758.6123, 3819.427
759.0944, 3828.916
759.5765, 3838.573
760.0587, 3846.286
760.5408, 3852.552
761.0229, 3855.244
761.5050, 3844.149
761.9871, 3815.422
762.4692, 3790.613
762.9514, 3794.258
763.4335, 3807.930
763.9156, 3810.035
764.3977, 3783.979
764.8798, 3768.400
765.3619, 3775.781
765.8441, 3793.016
766.3262, 3807.873
766.8083, 3821.583
767.2904, 3827.262
767.7725, 3821.926
768.2546, 3812.779
768.7368, 3810.462
769.2189, 3813.797
769.7010, 3818.426
770.1831, 3823.137
770.6652, 3828.489
771.1473, 3837.809
771.6295, 3847.569
772.1116, 3851.687
772.5937, 3846.060
773.0758, 3837.069
773.5579, 3822.047
774.0400, 3805.577
774.5222, 3799.213
775.0043, 3806.672
775.4864, 3810.385
775.9685, 3803.478
776.4506, 3791.955
776.9327, 3790.404
777.4149, 3797.190
777.8970, 3804.038
778.3791, 3811.682
778.8612, 3813.658
779.3433, 3797.536
779.8254, 3769.621
780.3076, 3752.804
780.7897, 3762.886
781.2718, 3775.785
781.7539, 3783.218
782.2360, 3786.473
782.7181, 3796.940
783.2003, 3819.098
783.6824, 3831.270
784.1645, 3817.430
784.6466, 3787.511
785.1287, 3770.571
785.6108, 3766.282
786.0930, 3773.140
786.5751, 3804.813
787.0572, 3836.277
787.5393, 3842.263
788.0214, 3822.858
788.5035, 3811.818
788.9857, 3824.239
789.4678, 3840.505
789.9499, 3855.132
790.4320, 3868.656
790.9141, 3866.115
791.3962, 3843.596
791.8784, 3823.850
792.3605, 3826.216
792.8426, 3843.147
793.3247, 3854.561
793.8068, 3859.653
794.2889, 3864.002
794.7711, 3872.016
795.2532, 3880.486
795.7353, 3887.980
796.2174, 3895.187
796.6995, 3895.657
797.1816, 3882.407
797.6638, 3869.231
798.1459, 3864.660
798.6280, 3869.669
799.1101, 3875.461
799.5922, 3882.325
800.0743, 3888.144
800.5565, 3890.127
801.0386, 3889.878
801.5207, 3890.873
802.0028, 3893.743
802.4849, 3895.596
802.9670, 3891.936
803.4492, 3888.283
803.9313, 3889.453
804.4134, 3898.411
804.8955, 3907.200
805.3776, 3917.082
805.8597, 3925.058
806.3419, 3928.599
806.8240, 3927.745
807.3061, 3923.405
807.7882, 3915.776
808.2703, 3903.771
808.7524, 3883.403
809.2346, 3858.936
809.7167, 3836.353
810.1988, 3816.735
810.6809, 3800.289
811.1630, 3783.942
811.6451, 3772.831
812.1273, 3772.885
812.6094, 3794.286
813.0915, 3803.498
813.5736, 3798.283
814.0557, 3784.241
814.5378, 3761.889
815.0200, 3734.447
815.5021, 3723.625
815.9842, 3735.347
816.4663, 3749.755
816.9484, 3747.398
817.4305, 3736.910
817.9127, 3728.198
818.3948, 3721.543
818.8769, 3720.886
819.3590, 3733.427
819.8411, 3748.140
820.3232, 3755.086
820.8054, 3753.183
821.2875, 3746.623
821.7696, 3733.705
822.2517, 3722.448
822.7338, 3725.099
823.2159, 3737.139
823.6981, 3746.536
824.1802, 3749.702
824.6623, 3753.232
825.1444, 3769.165
825.6265, 3784.324
826.1086, 3784.150
826.5908, 3736.444
827.0729, 3718.677
827.5550, 3745.507
828.0371, 3786.594
828.5192, 3804.441
829.0013, 3799.144
829.4835, 3798.290
829.9656, 3806.893
830.4477, 3815.016
830.9298, 3806.456
831.4119, 3791.272
831.8940, 3785.223
832.3762, 3793.087
832.8583, 3808.376
833.3404, 3839.894
833.8225, 3871.365
834.3046, 3883.899
834.7867, 3863.779
835.2689, 3864.337
835.7510, 3893.984
836.2331, 3931.887
836.7152, 3949.649
837.1973, 3952.591
837.6794, 3959.847
838.1616, 3975.529
838.6437, 3992.686
839.1258, 4000.410
839.6079, 4008.962
840.0900, 4030.984
840.5721, 4082.140
841.0543, 4121.521
841.5364, 4143.754
842.0185, 4156.764
842.5006, 4168.314
842.9827, 4178.544
843.4648, 4180.851
843.9470, 4172.047
844.4291, 4168.313
844.9112, 4192.560
845.3933, 4231.966
845.8754, 4267.009
846.3575, 4294.454
846.8397, 4315.002
847.3218, 4326.345
847.8039, 4332.751
848.2860, 4336.783
848.7681, 4332.898
849.2502, 4344.608
849.7324, 4377.890
850.2145, 4411.792
850.6966, 4420.860
851.1787, 4412.142
851.6608, 4415.009
852.1429, 4434.271
852.6251, 4446.564
853.1072, 4422.042
853.5893, 4389.441
854.0714, 4376.738
854.5535, 4396.633
855.0356, 4409.480
855.5178, 4412.730
855.9999, 4408.526
856.4820, 4394.292
856.9641, 4369.814
857.4462, 4361.737
857.9283, 4372.057
858.4105, 4382.841
858.8926, 4377.714
859.3747, 4363.930
859.8568, 4349.955
860.3389, 4336.857
860.8210, 4323.759
861.3032, 4309.536
861.7853, 4295.889
862.2674, 4281.373
862.7495, 4264.579
863.2316, 4267.513
863.7137, 4296.318
864.1959, 4317.543
864.6780, 4295.477
865.1601, 4250.392
865.6422, 4232.537
866.1243, 4241.969
866.6064, 4254.690
867.0886, 4263.059
867.5707, 4263.887
868.0528, 4250.308
868.5349, 4221.102
869.0170, 4207.273
869.4991, 4217.771
869.9813, 4225.601
870.4634, 4214.559
870.9455, 4191.008
871.4276, 4185.703
871.9097, 4197.194
872.3918, 4209.494
872.8740, 4216.949
873.3561, 4217.691
873.8382, 4207.381
874.3203, 4187.735
874.8024, 4168.727
875.2845, 4156.654
875.7667, 4139.779
876.2488, 4110.482
876.7309, 4074.738
877.2130, 4059.335
877.6951, 4064.549
878.1772, 4071.668
878.6594, 4076.149
879.1415, 4074.465
879.6236, 4054.270
880.1057, 4023.961
880.5878, 4005.167
881.0699, 4019.851
881.5521, 4031.560
882.0342, 4021.663
882.5163, 4003.897
882.9984, 4010.611
883.4805, 4048.971
883.9626, 4070.703
884.4448, 4058.799
884.9269, 4036.624
885.4090, 4041.424
885.8911, 4065.117
886.3732, 4089.405
886.8553, 4110.769
887.3375, 4127.267
887.8196, 4135.725
888.3017, 4139.451
888.7838, 4143.002
889.2659, 4146.107
889.7480, 4150.896
890.2302, 4159.179
890.7123, 4165.506
891.1944, 4159.104
891.6765, 4144.647
892.1586, 4137.037
892.6407, 4139.466
893.1229, 4146.647
893.6050, 4169.147
894.0871, 4186.084
894.5692, 4174.108
895.0513, 4105.620
895.5334, 4071.586
896.0156, 4084.879
896.4977, 4109.332
896.9798, 4117.926
897.4619, 4111.851
897.9440, 4094.740
898.4261, 4066.781
898.9083, 4045.999
899.3904, 4057.963
899.8725, 4075.648
900.3546, 4073.083
900.8367, 4046.108
901.3188, 4024.371
901.8010, 4014.917
902.2831, 4005.187
902.7652, 3988.556
903.2473, 3966.373
903.7294, 3949.561
904.2115, 3938.147
904.6937, 3932.792
905.1758, 3938.849
905.6579, 3947.427
906.1400, 3949.329
906.6221, 3945.763
907.1042, 3942.496
907.5864, 3943.245
908.0685, 3941.987
908.5506, 3937.979
909.0327, 3930.766
909.5148, 3916.717
909.9969, 3895.844
910.4791, 3880.488
910.9612, 3878.872
911.4433, 3878.195
911.9254, 3856.915
912.4075, 3825.976
912.8896, 3805.867
913.3718, 3811.786
913.8539, 3818.625
914.3360, 3823.279
914.8181, 3825.785
915.3002, 3826.327
915.7823, 3824.985
916.2645, 3818.789
916.7466, 3805.591
917.2287, 3795.326
917.7108, 3803.639
918.1929, 3820.600
918.6750, 3833.142
919.1572, 3840.771
919.6393, 3835.657
920.1214, 3794.995
920.6035, 3757.586
921.0856, 3752.198
921.5677, 3784.970
922.0499, 3801.216
922.5320, 3799.232
923.0141, 3793.456
923.4962, 3795.125
923.9783, 3800.796
924.4604, 3805.603
924.9426, 3809.388
925.4247, 3813.886
925.9068, 3818.326
926.3889, 3825.436
926.8710, 3838.153
927.3531, 3855.096
927.8353, 3865.468
928.3174, 3869.182
928.7995, 3866.458
929.2816, 3851.442
929.7637, 3835.762
930.2459, 3842.765
930.7280, 3864.653
931.2101, 3879.410
931.6923, 3871.862
932.1744, 3863.737
932.6565, 3859.635
933.1386, 3859.666
933.6207, 3866.424
934.1028, 3881.917
934.5850, 3888.569
935.0671, 3881.479
935.5492, 3869.987
936.0313, 3865.112
936.5134, 3864.619
936.9955, 3864.206
937.4777, 3861.142
937.9598, 3863.335
938.4419, 3881.190
938.9240, 3899.328
939.4061, 3905.341
939.8882, 3895.896
940.3704, 3893.543
940.8525, 3898.563
941.3346, 3908.545
941.8167, 3926.031
942.2988, 3944.796
942.7809, 3955.820
943.2631, 3958.834
943.7452, 3960.347
944.2273, 3958.010
944.7094, 3960.052
945.1915, 3971.451
945.6736, 3990.170
946.1558, 4003.978
946.6379, 4012.738
947.1200, 4016.813
947.6021, 4013.458
948.0842, 4008.855
948.5663, 4008.099
949.0485, 4012.823
949.5306, 4026.712
950.0127, 4071.505
950.4948, 4098.381
950.9769, 4087.939
951.4590, 4063.830
951.9412, 4060.892
952.4233, 4079.699
952.9054, 4096.917
953.3875, 4109.225
953.8696, 4119.189
954.3517, 4130.583
954.8339, 4140.870
955.3160, 4145.731
955.7981, 4142.102
956.2802, 4142.982
956.7623, 4155.068
957.2444, 4166.879
957.7266, 4169.091
958.2087, 4162.704
958.6908, 4173.654
959.1729, 4201.719
959.6550, 4226.590
960.1371, 4229.012
960.6193, 4226.499
961.1014, 4239.126
961.5835, 4263.052
962.0656, 4275.481
962.5477, 4262.979
963.0298, 4253.073
963.5120, 4252.897
963.9941, 4257.629
964.4762, 4254.235
964.9583, 4244.243
965.4404, 4238.554
965.9225, 4242.805
966.4047, 4246.777
966.8868, 4238.145
967.3689, 4226.286
967.8510, 4224.256
968.3331, 4254.154
968.8152, 4251.327
969.2974, 4200.770
969.7795, 4148.820
970.2616, 4145.817
970.7437, 4177.693
971.2258, 4192.513
971.7079, 4187.237
972.1901, 4175.455
972.6722, 4162.206
973.1543, 4148.658
973.6364, 4134.060
974.1185, 4118.814
974.6006, 4110.613
975.0828, 4110.866
975.5649, 4113.425
976.0470, 4116.910
976.5291, 4120.098
977.0112, 4119.206
977.4933, 4115.952
977.9755, 4115.080
978.4576, 4121.738
978.9397, 4127.281
979.4218, 4130.975
979.9039, 4130.662
980.3860, 4121.506
980.8682, 4100.568
981.3503, 4089.445
981.8324, 4090.937
982.3145, 4098.404
982.7966, 4104.696
983.2787, 4112.652
983.7609, 4128.960
984.2430, 4155.735
984.7251, 4175.194
985.2072, 4178.171
985.6893, 4176.135
986.1714, 4172.825
986.6536, 4168.460
987.1357, 4164.411
987.6178, 4160.760
988.0999, 4158.773
988.5820, 4155.741
989.0641, 4157.813
989.5463, 4179.241
990.0284, 4209.461
990.5105, 4223.654
990.9926, 4202.127
991.4747, 4187.143
991.9568, 4183.286
992.4390, 4186.435
992.9211, 4192.557
993.4032, 4200.797
993.8853, 4207.553
994.3674, 4212.262
994.8495, 4215.581
995.3317, 4219.244
995.8138, 4220.897
996.2959, 4215.942
996.7780, 4202.594
997.2601, 4205.206
997.7422, 4231.243
998.2244, 4245.958
998.7065, 4221.134
999.1886, 4177.199
999.6707, 4155.459
1000.153, 4152.483
1000.635, 4157.257
1001.117, 4181.071
1001.599, 4192.564
1002.081, 4168.516
1002.563, 4132.694
1003.046, 4123.916
1003.528, 4144.294
1004.010, 4160.159
1004.492, 4166.698
1004.974, 4166.827
1005.456, 4156.483
1005.938, 4145.439
1006.420, 4148.567
1006.902, 4172.693
1007.385, 4183.049
1007.867, 4167.723
1008.349, 4151.101
1008.831, 4145.068
1009.313, 4147.983
1009.795, 4154.349
1010.277, 4163.027
1010.759, 4167.072
1011.242, 4160.017
1011.724, 4149.693
1012.206, 4139.115
1012.688, 4129.024
1013.170, 4121.459
1013.652, 4118.251
1014.134, 4111.740
1014.616, 4100.144
1015.098, 4087.768
1015.581, 4077.104
1016.063, 4070.686
1016.545, 4077.646
1017.027, 4101.790
1017.509, 4114.823
1017.991, 4093.313
1018.473, 4069.814
1018.955, 4060.948
1019.438, 4065.261
1019.920, 4068.242
1020.402, 4069.880
1020.884, 4071.743
1021.366, 4076.550
1021.848, 4079.890
1022.330, 4075.833
1022.812, 4067.308
1023.294, 4060.257
1023.777, 4058.178
1024.259, 4053.049
1024.741, 4042.069
1025.223, 4032.082
1025.705, 4032.240
1026.187, 4040.097
1026.669, 4048.813
1027.151, 4057.627
1027.633, 4063.338
1028.116, 4065.679
1028.598, 4062.623
1029.080, 4049.153
1029.562, 4027.687
1030.044, 4018.632
1030.526, 4023.392
1031.008, 4028.747
1031.490, 4028.430
1031.973, 4027.688
1032.455, 4034.820
1032.937, 4046.381
1033.419, 4056.308
1033.901, 4062.267
1034.383, 4067.186
1034.865, 4072.120
1035.347, 4075.112
1035.829, 4070.432
1036.312, 4061.061
1036.794, 4072.067
1037.276, 4103.218
1037.758, 4121.187
1038.240, 4082.007
1038.722, 4041.607
1039.204, 4043.322
1039.686, 4078.641
1040.168, 4093.902
1040.651, 4084.833
1041.133, 4074.565
1041.615, 4066.786
1042.097, 4066.336
1042.579, 4092.003
1043.061, 4126.521
1043.543, 4137.062
1044.025, 4104.093
1044.508, 4079.076
1044.990, 4073.239
1045.472, 4075.737
1045.954, 4083.299
1046.436, 4094.659
1046.918, 4092.151
1047.400, 4077.314
1047.882, 4065.221
1048.365, 4070.619
1048.847, 4076.574
1049.329, 4067.559
1049.811, 4051.178
1050.293, 4049.187
1050.775, 4065.992
1051.257, 4083.068
1051.739, 4098.544
1052.221, 4110.942
1052.703, 4116.762
1053.186, 4118.965
1053.668, 4121.903
1054.150, 4126.243
1054.632, 4131.458
1055.114, 4138.618
1055.596, 4145.285
1056.078, 4151.181
1056.560, 4155.633
1057.043, 4154.780
1057.525, 4149.222
1058.007, 4142.720
1058.489, 4133.541
1058.971, 4128.619
1059.453, 4133.228
1059.935, 4144.456
1060.417, 4158.599
1060.900, 4177.075
1061.382, 4192.242
1061.864, 4203.935
1062.346, 4211.996
1062.828, 4214.256
1063.310, 4214.121
1063.792, 4214.970
1064.274, 4217.428
1064.756, 4224.414
1065.239, 4243.156
1065.721, 4258.039
1066.203, 4266.275
1066.685, 4268.208
1067.167, 4261.768
1067.649, 4249.261
1068.131, 4240.580
1068.613, 4238.533
1069.095, 4238.590
1069.578, 4242.657
1070.060, 4243.844
1070.542, 4234.426
1071.024, 4213.323
1071.506, 4205.975
1071.988, 4213.176
1072.470, 4222.836
1072.952, 4229.201
1073.435, 4233.335
1073.917, 4234.329
1074.399, 4234.302
1074.881, 4238.252
1075.363, 4253.426
1075.845, 4260.903
1076.327, 4255.751
1076.809, 4250.384
1077.292, 4262.275
1077.774, 4284.063
1078.256, 4296.272
1078.738, 4297.509
1079.220, 4298.142
1079.702, 4305.126
1080.184, 4310.171
1080.666, 4307.743
1081.148, 4301.703
1081.630, 4307.467
1082.113, 4323.911
1082.595, 4328.565
1083.077, 4311.768
1083.559, 4291.761
1084.041, 4275.700
1084.523, 4269.786
1085.005, 4286.282
1085.487, 4334.085
1085.970, 4356.278
1086.452, 4349.683
1086.934, 4331.274
1087.416, 4301.998
1087.898, 4273.813
1088.380, 4275.432
1088.862, 4293.603
1089.344, 4292.641
1089.827, 4234.258
1090.309, 4193.637
1090.791, 4182.426
1091.273, 4186.473
1091.755, 4191.680
1092.237, 4198.051
1092.719, 4207.532
1093.201, 4219.948
1093.683, 4226.426
1094.166, 4213.863
1094.648, 4202.119
1095.130, 4204.353
1095.612, 4214.921
1096.094, 4213.993
1096.576, 4201.425
1097.058, 4196.313
1097.540, 4205.436
1098.023, 4216.983
1098.505, 4221.710
1098.987, 4221.149
1099.469, 4213.578
1099.951, 4194.699
1100.433, 4197.983
1100.915, 4229.956
1101.397, 4260.287
1101.880, 4272.809
1102.362, 4273.288
1102.844, 4269.806
1103.326, 4262.648
1103.808, 4252.413
1104.290, 4230.609
1104.772, 4218.813
1105.254, 4219.860
1105.736, 4229.342
1106.219, 4249.183
1106.701, 4274.049
1107.183, 4276.732
1107.665, 4258.543
1108.147, 4245.961
1108.629, 4265.835
1109.111, 4280.925
1109.593, 4270.675
1110.075, 4246.382
1110.558, 4227.767
1111.040, 4215.013
1111.522, 4214.564
1112.004, 4228.911
1112.486, 4247.197
1112.968, 4260.054
1113.450, 4272.536
1113.932, 4290.677
1114.415, 4314.720
1114.897, 4331.769
1115.379, 4341.947
1115.861, 4343.376
1116.343, 4333.274
1116.825, 4317.547
1117.307, 4301.010
1117.789, 4285.667
1118.271, 4274.415
1118.754, 4266.171
1119.236, 4268.671
1119.718, 4288.895
1120.200, 4304.929
1120.682, 4294.941
1121.164, 4270.483
1121.646, 4263.302
1122.128, 4271.034
1122.610, 4284.892
1123.093, 4318.969
1123.575, 4333.551
1124.057, 4309.870
1124.539, 4275.828
1125.021, 4267.364
1125.503, 4280.816
1125.985, 4295.915
1126.467, 4310.843
1126.950, 4321.812
1127.432, 4323.068
1127.914, 4322.963
1128.396, 4325.301
1128.878, 4330.117
1129.360, 4338.716
1129.842, 4351.188
1130.324, 4363.362
1130.807, 4377.023
1131.289, 4377.883
1131.771, 4338.908
1132.253, 4290.565
1132.735, 4261.239
1133.217, 4253.800
1133.699, 4254.317
1134.181, 4264.681
1134.663, 4272.091
1135.146, 4268.395
1135.628, 4263.264
1136.110, 4274.724
1136.592, 4291.853
1137.074, 4296.457
1137.556, 4271.311
1138.038, 4262.837
1138.520, 4275.337
1139.002, 4294.650
1139.485, 4319.336
1139.967, 4340.162
1140.449, 4324.798
1140.931, 4287.418
1141.413, 4274.015
1141.895, 4333.771
1142.377, 4373.533
1142.859, 4373.763
1143.342, 4359.908
1143.824, 4357.781
1144.306, 4365.881
1144.788, 4382.048
1145.270, 4404.985
1145.752, 4423.441
1146.234, 4428.856
1146.716, 4431.115
1147.198, 4432.371
1147.681, 4434.283
1148.163, 4444.057
1148.645, 4459.436
1149.127, 4459.939
1149.609, 4440.671
1150.091, 4418.427
1150.573, 4397.268
1151.055, 4384.297
1151.537, 4387.567
1152.020, 4403.297
1152.502, 4411.041
1152.984, 4410.894
1153.466, 4417.252
1153.948, 4440.008
1154.430, 4456.417
1154.912, 4430.063
1155.394, 4397.125
1155.877, 4398.161
1156.359, 4435.113
1156.841, 4491.469
1157.323, 4571.392
1157.805, 4632.060
1158.287, 4639.167
1158.769, 4628.592
1159.251, 4637.827
1159.734, 4657.677
1160.216, 4672.356
1160.698, 4677.687
1161.180, 4684.365
1161.662, 4694.690
1162.144, 4696.559
1162.626, 4669.325
1163.108, 4634.812
1163.590, 4631.581
1164.073, 4649.402
1164.555, 4652.823
1165.037, 4620.254
1165.519, 4598.830
1166.001, 4596.807
1166.483, 4595.550
1166.965, 4565.689
1167.447, 4525.598
1167.929, 4514.393
1168.412, 4531.299
1168.894, 4543.157
1169.376, 4536.647
1169.858, 4527.627
1170.340, 4516.210
1170.822, 4508.108
1171.304, 4517.823
1171.786, 4537.232
1172.269, 4545.218
1172.751, 4538.403
1173.233, 4527.450
1173.715, 4508.813
1174.197, 4496.301
1174.679, 4496.951
1175.161, 4504.558
1175.643, 4498.529
1176.125, 4485.487
1176.608, 4489.992
1177.090, 4524.873
1177.572, 4551.951
1178.054, 4549.720
1178.536, 4539.111
1179.018, 4529.125
1179.500, 4520.051
1179.982, 4513.018
1180.464, 4508.010
1180.947, 4505.055
1181.429, 4504.817
1181.911, 4505.313
1182.393, 4513.360
1182.875, 4514.542
1183.357, 4490.138
1183.839, 4443.051
1184.321, 4436.695
1184.804, 4466.841
1185.286, 4499.350
1185.768, 4521.615
1186.250, 4533.862
1186.732, 4530.743
1187.214, 4520.755
1187.696, 4510.368
1188.178, 4499.021
1188.661, 4510.946
1189.143, 4545.745
1189.625, 4571.057
1190.107, 4560.390
1190.589, 4538.375
1191.071, 4507.470
1191.553, 4481.134
1192.035, 4489.113
1192.517, 4534.388
1193.000, 4548.943
1193.482, 4525.555
1193.964, 4504.265
1194.446, 4522.927
1194.928, 4549.412
1195.410, 4564.008
1195.892, 4567.346
1196.374, 4560.727
1196.856, 4542.738
1197.339, 4539.328
1197.821, 4556.572
1198.303, 4573.559
1198.785, 4571.063
1199.267, 4561.234
1199.749, 4550.301
1200.231, 4540.330
1200.713, 4541.220
1201.196, 4553.939
1201.678, 4565.023
1202.160, 4571.570
1202.642, 4573.349
1203.124, 4560.569
1203.606, 4549.883
1204.088, 4561.584
1204.570, 4594.612
1205.052, 4618.313
1205.535, 4632.227
1206.017, 4638.384
1206.499, 4637.449
1206.981, 4628.707
1207.463, 4601.373
1207.945, 4572.068
1208.427, 4561.345
1208.909, 4570.462
1209.391, 4581.502
1209.874, 4594.856
1210.356, 4606.661
1210.838, 4616.302
1211.320, 4622.016
1211.802, 4618.144
1212.284, 4611.431
1212.766, 4611.935
1213.248, 4621.782
1213.731, 4625.306
1214.213, 4621.889
1214.695, 4620.665
1215.177, 4631.513
1215.659, 4641.652
1216.141, 4631.083
1216.623, 4615.556
1217.105, 4623.305
1217.588, 4667.937
1218.070, 4679.250
1218.552, 4654.784
1219.034, 4629.092
1219.516, 4626.244
1219.998, 4632.245
1220.480, 4634.028
1220.962, 4636.441
1221.444, 4651.245
1221.927, 4684.743
1222.409, 4697.029
1222.891, 4685.186
1223.373, 4670.075
1223.855, 4661.431
1224.337, 4661.691
1224.819, 4678.194
1225.301, 4704.290
1225.783, 4724.556
1226.266, 4739.501
1226.748, 4742.760
1227.230, 4733.125
1227.712, 4721.219
1228.194, 4714.082
1228.676, 4709.498
1229.158, 4707.750
1229.640, 4706.875
1230.123, 4698.850
1230.605, 4681.421
1231.087, 4683.197
1231.569, 4708.885
1232.051, 4736.756
1232.533, 4753.231
1233.015, 4760.957
1233.497, 4758.970
1233.979, 4749.947
1234.462, 4739.531
1234.944, 4727.637
1235.426, 4719.924
1235.908, 4717.460
1236.390, 4717.095
1236.872, 4716.086
1237.354, 4716.468
1237.836, 4719.372
1238.318, 4724.879
1238.801, 4736.335
1239.283, 4753.260
1239.765, 4762.730
1240.247, 4761.976
1240.729, 4754.964
1241.211, 4733.949
1241.693, 4718.251
1242.175, 4721.213
1242.658, 4738.556
1243.140, 4764.250
1243.622, 4794.505
1244.104, 4794.038
1244.586, 4747.667
1245.068, 4706.436
1245.550, 4705.901
1246.032, 4718.655
1246.515, 4730.925
1246.997, 4741.924
1247.479, 4747.882
1247.961, 4749.832
1248.443, 4754.621
1248.925, 4766.554
1249.407, 4770.663
1249.889, 4742.142
1250.371, 4724.113
1250.854, 4745.462
1251.336, 4789.735
1251.818, 4793.978
1252.300, 4769.391
1252.782, 4757.002
1253.264, 4774.050
1253.746, 4784.951
1254.228, 4772.993
1254.710, 4757.438
1255.193, 4743.409
1255.675, 4735.032
1256.157, 4749.017
1256.639, 4778.234
1257.121, 4806.552
1257.603, 4837.038
1258.085, 4842.326
1258.567, 4802.202
1259.050, 4768.956
1259.532, 4775.292
1260.014, 4803.862
1260.496, 4819.771
1260.978, 4824.158
1261.460, 4817.756
1261.942, 4789.995
1262.424, 4781.263
1262.906, 4801.205
1263.389, 4818.477
1263.871, 4811.037
1264.353, 4794.078
1264.835, 4790.543
1265.317, 4797.452
1265.799, 4810.291
1266.281, 4831.956
1266.763, 4850.800
1267.245, 4867.510
1267.728, 4876.521
1268.210, 4870.977
1268.692, 4859.678
1269.174, 4848.642
1269.656, 4841.269
1270.138, 4846.557
1270.620, 4872.425
1271.102, 4874.658
1271.585, 4851.573
1272.067, 4825.901
1272.549, 4804.046
1273.031, 4793.369
1273.513, 4803.314
1273.995, 4827.201
1274.477, 4859.159
1274.959, 4904.169
1275.442, 4906.218
1275.924, 4866.791
1276.406, 4833.414
1276.888, 4841.108
1277.370, 4854.569
1277.852, 4851.378
1278.334, 4844.724
1278.816, 4849.315
1279.298, 4864.826
1279.781, 4872.572
1280.263, 4874.077
1280.745, 4880.417
1281.227, 4910.458
1281.709, 4928.715
1282.191, 4911.659
1282.673, 4891.607
1283.155, 4901.215
1283.637, 4931.831
1284.120, 4939.641
1284.602, 4928.301
1285.084, 4914.248
1285.566, 4896.100
1286.048, 4889.707
1286.530, 4900.072
1287.012, 4915.197
1287.494, 4928.974
1287.977, 4938.319
1288.459, 4931.060
1288.941, 4913.408
1289.423, 4903.157
1289.905, 4915.890
1290.387, 4916.457
1290.869, 4899.764
1291.351, 4886.326
1291.833, 4895.976
1292.316, 4915.625
1292.798, 4935.888
1293.280, 4951.137
1293.762, 4944.842
1294.244, 4903.154
1294.726, 4893.079
1295.208, 4919.335
1295.690, 4943.089
1296.172, 4922.117
1296.655, 4902.262
1297.137, 4935.536
1297.619, 4986.933
1298.101, 4998.439
1298.583, 4965.812
1299.065, 4936.579
1299.547, 4912.187
1300.029, 4904.264
1300.512, 4938.224
1300.994, 4968.211
1301.476, 4967.315
1301.958, 4955.089
1302.440, 4944.408
1302.922, 4937.130
1303.404, 4954.684
1303.886, 4991.151
1304.369, 5014.751
1304.851, 4998.762
1305.333, 4985.817
1305.815, 4984.509
1306.297, 4986.590
1306.779, 4986.312
1307.261, 4983.367
1307.743, 4972.287
1308.225, 4957.884
1308.708, 4954.374
1309.190, 4969.822
1309.672, 4994.687
1310.154, 5034.998
1310.636, 5062.637
1311.118, 5043.339
1311.600, 5009.619
1312.082, 5002.368
1312.564, 5011.520
1313.047, 5016.227
1313.529, 5012.991
1314.011, 5012.376
1314.493, 5014.385
1314.975, 5020.703
1315.457, 5043.573
1315.939, 5058.912
1316.421, 5043.022
1316.904, 5014.173
##END=



