##NAMES=Malhmoodite
##RRUFFID=R200009
##IDEAL CHEMISTRY=Fe^2+^Zr^4+^(P^5+^O_4_)_2_&#183;4H_2_O
##LOCALITY=Scott's R.Q. mine, Custer Co., South Dakota, U.S.A.
##OWNER=RRUFF
##SOURCE=Tom Loomis
##DESCRIPTION=Yellowish flat lying plates, divergent groups on matrix.
##STATUS=The identification of this mineral has been confirmed by X-ray diffraction.
##URL=rruff.info/R200009
##MEASURED CHEMISTRY=Fe_1.06_(Zr_1.10_Hf_0.03_)_Σ1.13_[(P_1.85_As_0.02_)_Σ1.87_O_4_]_2_·4H_2_O. Microprobe also detected trace UO_2_.
8.813672e+001, 1.234581e+003
8.861884e+001, 1.246862e+003
8.910095e+001, 1.262226e+003
8.958307e+001, 1.285045e+003
9.006519e+001, 1.310071e+003
9.054730e+001, 1.331212e+003
9.102942e+001, 1.349640e+003
9.151154e+001, 1.365111e+003
9.199365e+001, 1.376518e+003
9.247577e+001, 1.385050e+003
9.295789e+001, 1.393377e+003
9.344000e+001, 1.403615e+003
9.392212e+001, 1.413813e+003
9.440424e+001, 1.421444e+003
9.488635e+001, 1.427740e+003
9.536847e+001, 1.432911e+003
9.585059e+001, 1.435894e+003
9.633270e+001, 1.436723e+003
9.681482e+001, 1.437988e+003
9.729694e+001, 1.439947e+003
9.777905e+001, 1.442764e+003
9.826117e+001, 1.450386e+003
9.874329e+001, 1.464181e+003
9.922540e+001, 1.481466e+003
9.970752e+001, 1.495761e+003
1.001896e+002, 1.506108e+003
1.006718e+002, 1.516404e+003
1.011539e+002, 1.529333e+003
1.016360e+002, 1.545600e+003
1.021181e+002, 1.561305e+003
1.026002e+002, 1.575183e+003
1.030823e+002, 1.587833e+003
1.035645e+002, 1.603795e+003
1.040466e+002, 1.624392e+003
1.045287e+002, 1.646722e+003
1.050108e+002, 1.668546e+003
1.054929e+002, 1.688148e+003
1.059750e+002, 1.710284e+003
1.064572e+002, 1.736809e+003
1.069393e+002, 1.768631e+003
1.074214e+002, 1.797250e+003
1.079035e+002, 1.820030e+003
1.083856e+002, 1.841354e+003
1.088677e+002, 1.865593e+003
1.093499e+002, 1.898010e+003
1.098320e+002, 1.928844e+003
1.103141e+002, 1.955067e+003
1.107962e+002, 1.974274e+003
1.112783e+002, 1.997823e+003
1.117604e+002, 2.029663e+003
1.122426e+002, 2.066033e+003
1.127247e+002, 2.100614e+003
1.132068e+002, 2.131679e+003
1.136889e+002, 2.161492e+003
1.141710e+002, 2.190587e+003
1.146531e+002, 2.218858e+003
1.151353e+002, 2.246769e+003
1.156174e+002, 2.274424e+003
1.160995e+002, 2.302025e+003
1.165816e+002, 2.330416e+003
1.170637e+002, 2.361414e+003
1.175458e+002, 2.392270e+003
1.180280e+002, 2.421513e+003
1.185101e+002, 2.448579e+003
1.189922e+002, 2.473851e+003
1.194743e+002, 2.496037e+003
1.199564e+002, 2.515891e+003
1.204385e+002, 2.536423e+003
1.209207e+002, 2.559993e+003
1.214028e+002, 2.584943e+003
1.218849e+002, 2.609305e+003
1.223670e+002, 2.632690e+003
1.228491e+002, 2.655345e+003
1.233312e+002, 2.677527e+003
1.238134e+002, 2.699226e+003
1.242955e+002, 2.719539e+003
1.247776e+002, 2.737510e+003
1.252597e+002, 2.753438e+003
1.257418e+002, 2.768023e+003
1.262239e+002, 2.779500e+003
1.267061e+002, 2.790370e+003
1.271882e+002, 2.805655e+003
1.276703e+002, 2.825952e+003
1.281524e+002, 2.845508e+003
1.286345e+002, 2.856386e+003
1.291166e+002, 2.860357e+003
1.295988e+002, 2.865454e+003
1.300809e+002, 2.876647e+003
1.305630e+002, 2.892206e+003
1.310451e+002, 2.906058e+003
1.315272e+002, 2.917589e+003
1.320093e+002, 2.928408e+003
1.324915e+002, 2.941218e+003
1.329736e+002, 2.955999e+003
1.334557e+002, 2.970703e+003
1.339378e+002, 2.983866e+003
1.344199e+002, 2.995549e+003
1.349020e+002, 3.006926e+003
1.353842e+002, 3.017675e+003
1.358663e+002, 3.028340e+003
1.363484e+002, 3.040680e+003
1.368305e+002, 3.054714e+003
1.373126e+002, 3.069749e+003
1.377947e+002, 3.085674e+003
1.382769e+002, 3.102831e+003
1.387590e+002, 3.118508e+003
1.392411e+002, 3.132619e+003
1.397232e+002, 3.144894e+003
1.402053e+002, 3.153172e+003
1.406874e+002, 3.156323e+003
1.411696e+002, 3.158187e+003
1.416517e+002, 3.161878e+003
1.421338e+002, 3.169224e+003
1.426159e+002, 3.174001e+003
1.430980e+002, 3.175227e+003
1.435801e+002, 3.173275e+003
1.440623e+002, 3.171214e+003
1.445444e+002, 3.169633e+003
1.450265e+002, 3.167640e+003
1.455086e+002, 3.164667e+003
1.459907e+002, 3.161256e+003
1.464728e+002, 3.156100e+003
1.469550e+002, 3.147968e+003
1.474371e+002, 3.136565e+003
1.479192e+002, 3.127942e+003
1.484013e+002, 3.122212e+003
1.488834e+002, 3.119163e+003
1.493655e+002, 3.118625e+003
1.498477e+002, 3.123670e+003
1.503298e+002, 3.127853e+003
1.508119e+002, 3.130023e+003
1.512940e+002, 3.129964e+003
1.517761e+002, 3.128904e+003
1.522583e+002, 3.125481e+003
1.527404e+002, 3.121555e+003
1.532225e+002, 3.119075e+003
1.537046e+002, 3.120300e+003
1.541867e+002, 3.121140e+003
1.546688e+002, 3.120259e+003
1.551510e+002, 3.117000e+003
1.556331e+002, 3.114597e+003
1.561152e+002, 3.114168e+003
1.565973e+002, 3.114847e+003
1.570794e+002, 3.115467e+003
1.575615e+002, 3.115475e+003
1.580437e+002, 3.115740e+003
1.585258e+002, 3.116880e+003
1.590079e+002, 3.119537e+003
1.594900e+002, 3.121392e+003
1.599721e+002, 3.119463e+003
1.604542e+002, 3.116452e+003
1.609364e+002, 3.117093e+003
1.614185e+002, 3.127959e+003
1.619006e+002, 3.139443e+003
1.623827e+002, 3.145558e+003
1.628648e+002, 3.142995e+003
1.633469e+002, 3.140445e+003
1.638291e+002, 3.142676e+003
1.643112e+002, 3.147833e+003
1.647933e+002, 3.151675e+003
1.652754e+002, 3.151182e+003
1.657575e+002, 3.149271e+003
1.662396e+002, 3.148011e+003
1.667218e+002, 3.147631e+003
1.672039e+002, 3.148397e+003
1.676860e+002, 3.150423e+003
1.681681e+002, 3.153751e+003
1.686502e+002, 3.158526e+003
1.691323e+002, 3.166110e+003
1.696145e+002, 3.174642e+003
1.700966e+002, 3.182049e+003
1.705787e+002, 3.186948e+003
1.710608e+002, 3.191979e+003
1.715429e+002, 3.200132e+003
1.720250e+002, 3.210757e+003
1.725072e+002, 3.220385e+003
1.729893e+002, 3.225693e+003
1.734714e+002, 3.229073e+003
1.739535e+002, 3.233957e+003
1.744356e+002, 3.242131e+003
1.749177e+002, 3.250990e+003
1.753999e+002, 3.258369e+003
1.758820e+002, 3.264268e+003
1.763641e+002, 3.268370e+003
1.768462e+002, 3.269136e+003
1.773283e+002, 3.268190e+003
1.778104e+002, 3.268711e+003
1.782926e+002, 3.272458e+003
1.787747e+002, 3.277409e+003
1.792568e+002, 3.280247e+003
1.797389e+002, 3.281121e+003
1.802210e+002, 3.282656e+003
1.807031e+002, 3.288301e+003
1.811853e+002, 3.296500e+003
1.816674e+002, 3.302882e+003
1.821495e+002, 3.305056e+003
1.826316e+002, 3.305211e+003
1.831137e+002, 3.307383e+003
1.835958e+002, 3.311594e+003
1.840780e+002, 3.316574e+003
1.845601e+002, 3.321350e+003
1.850422e+002, 3.325884e+003
1.855243e+002, 3.330539e+003
1.860064e+002, 3.335545e+003
1.864885e+002, 3.340643e+003
1.869707e+002, 3.344896e+003
1.874528e+002, 3.348281e+003
1.879349e+002, 3.351498e+003
1.884170e+002, 3.355631e+003
1.888991e+002, 3.360517e+003
1.893812e+002, 3.364650e+003
1.898634e+002, 3.367503e+003
1.903455e+002, 3.369305e+003
1.908276e+002, 3.370791e+003
1.913097e+002, 3.371954e+003
1.917918e+002, 3.373010e+003
1.922739e+002, 3.373917e+003
1.927561e+002, 3.374679e+003
1.932382e+002, 3.376189e+003
1.937203e+002, 3.379193e+003
1.942024e+002, 3.383206e+003
1.946845e+002, 3.385674e+003
1.951666e+002, 3.386296e+003
1.956488e+002, 3.385977e+003
1.961309e+002, 3.386066e+003
1.966130e+002, 3.386609e+003
1.970951e+002, 3.385718e+003
1.975772e+002, 3.382064e+003
1.980593e+002, 3.376019e+003
1.985415e+002, 3.371850e+003
1.990236e+002, 3.369943e+003
1.995057e+002, 3.369139e+003
1.999878e+002, 3.368384e+003
2.004699e+002, 3.367911e+003
2.009520e+002, 3.366589e+003
2.014342e+002, 3.363717e+003
2.019163e+002, 3.359448e+003
2.023984e+002, 3.356827e+003
2.028805e+002, 3.356430e+003
2.033626e+002, 3.356791e+003
2.038447e+002, 3.355646e+003
2.043269e+002, 3.352546e+003
2.048090e+002, 3.350146e+003
2.052911e+002, 3.348622e+003
2.057732e+002, 3.347842e+003
2.062553e+002, 3.352036e+003
2.067374e+002, 3.363050e+003
2.072196e+002, 3.375929e+003
2.077017e+002, 3.383209e+003
2.081838e+002, 3.383050e+003
2.086659e+002, 3.383343e+003
2.091480e+002, 3.386703e+003
2.096301e+002, 3.393328e+003
2.101123e+002, 3.399997e+003
2.105944e+002, 3.406924e+003
2.110765e+002, 3.413566e+003
2.115586e+002, 3.418927e+003
2.120407e+002, 3.422369e+003
2.125228e+002, 3.426327e+003
2.130050e+002, 3.432368e+003
2.134871e+002, 3.441101e+003
2.139692e+002, 3.445196e+003
2.144513e+002, 3.442901e+003
2.149334e+002, 3.437882e+003
2.154155e+002, 3.435213e+003
2.158977e+002, 3.435478e+003
2.163798e+002, 3.436794e+003
2.168619e+002, 3.439214e+003
2.173440e+002, 3.443212e+003
2.178261e+002, 3.444180e+003
2.183082e+002, 3.440281e+003
2.187904e+002, 3.435274e+003
2.192725e+002, 3.435023e+003
2.197546e+002, 3.442296e+003
2.202367e+002, 3.448446e+003
2.207188e+002, 3.451201e+003
2.212009e+002, 3.450536e+003
2.216831e+002, 3.446332e+003
2.221652e+002, 3.435174e+003
2.226473e+002, 3.423718e+003
2.231294e+002, 3.422111e+003
2.236115e+002, 3.435552e+003
2.240936e+002, 3.448405e+003
2.245758e+002, 3.456412e+003
2.250579e+002, 3.458830e+003
2.255400e+002, 3.461429e+003
2.260221e+002, 3.464586e+003
2.265042e+002, 3.467581e+003
2.269863e+002, 3.469095e+003
2.274685e+002, 3.467469e+003
2.279506e+002, 3.467448e+003
2.284327e+002, 3.470721e+003
2.289148e+002, 3.477892e+003
2.293969e+002, 3.483320e+003
2.298790e+002, 3.485196e+003
2.303612e+002, 3.486747e+003
2.308433e+002, 3.492306e+003
2.313254e+002, 3.504828e+003
2.318075e+002, 3.515942e+003
2.322896e+002, 3.523053e+003
2.327717e+002, 3.525518e+003
2.332539e+002, 3.530042e+003
2.337360e+002, 3.538941e+003
2.342181e+002, 3.547756e+003
2.347002e+002, 3.550970e+003
2.351823e+002, 3.544816e+003
2.356644e+002, 3.539932e+003
2.361466e+002, 3.538809e+003
2.366287e+002, 3.541752e+003
2.371108e+002, 3.545612e+003
2.375929e+002, 3.551169e+003
2.380750e+002, 3.557023e+003
2.385571e+002, 3.561719e+003
2.390393e+002, 3.565121e+003
2.395214e+002, 3.567700e+003
2.400035e+002, 3.568790e+003
2.404856e+002, 3.568171e+003
2.409677e+002, 3.571111e+003
2.414498e+002, 3.580087e+003
2.419320e+002, 3.590173e+003
2.424141e+002, 3.596426e+003
2.428962e+002, 3.596005e+003
2.433783e+002, 3.596858e+003
2.438604e+002, 3.600358e+003
2.443425e+002, 3.606424e+003
2.448247e+002, 3.613452e+003
2.453068e+002, 3.622683e+003
2.457889e+002, 3.631348e+003
2.462710e+002, 3.637089e+003
2.467531e+002, 3.638859e+003
2.472352e+002, 3.639594e+003
2.477174e+002, 3.639408e+003
2.481995e+002, 3.638386e+003
2.486816e+002, 3.637856e+003
2.491637e+002, 3.638198e+003
2.496458e+002, 3.638788e+003
2.501279e+002, 3.638877e+003
2.506101e+002, 3.637244e+003
2.510922e+002, 3.638259e+003
2.515743e+002, 3.643443e+003
2.520564e+002, 3.652275e+003
2.525385e+002, 3.659986e+003
2.530206e+002, 3.666966e+003
2.535028e+002, 3.672445e+003
2.539849e+002, 3.675079e+003
2.544670e+002, 3.672250e+003
2.549491e+002, 3.672958e+003
2.554312e+002, 3.679140e+003
2.559133e+002, 3.689583e+003
2.563955e+002, 3.698647e+003
2.568776e+002, 3.706164e+003
2.573597e+002, 3.712237e+003
2.578418e+002, 3.716685e+003
2.583239e+002, 3.718803e+003
2.588061e+002, 3.720801e+003
2.592882e+002, 3.722241e+003
2.597703e+002, 3.723717e+003
2.602524e+002, 3.727878e+003
2.607345e+002, 3.736480e+003
2.612166e+002, 3.744757e+003
2.616988e+002, 3.750258e+003
2.621809e+002, 3.752516e+003
2.626630e+002, 3.753341e+003
2.631451e+002, 3.751791e+003
2.636272e+002, 3.749509e+003
2.641093e+002, 3.751549e+003
2.645915e+002, 3.760242e+003
2.650736e+002, 3.768345e+003
2.655557e+002, 3.771969e+003
2.660378e+002, 3.769558e+003
2.665199e+002, 3.769045e+003
2.670020e+002, 3.770691e+003
2.674842e+002, 3.774242e+003
2.679663e+002, 3.779438e+003
2.684484e+002, 3.786793e+003
2.689305e+002, 3.794164e+003
2.694126e+002, 3.800540e+003
2.698947e+002, 3.805837e+003
2.703769e+002, 3.810499e+003
2.708590e+002, 3.813971e+003
2.713411e+002, 3.817350e+003
2.718232e+002, 3.822802e+003
2.723053e+002, 3.830928e+003
2.727874e+002, 3.838339e+003
2.732696e+002, 3.843341e+003
2.737517e+002, 3.845659e+003
2.742338e+002, 3.849615e+003
2.747159e+002, 3.855772e+003
2.751980e+002, 3.862385e+003
2.756801e+002, 3.867083e+003
2.761623e+002, 3.869762e+003
2.766444e+002, 3.871214e+003
2.771265e+002, 3.871114e+003
2.776086e+002, 3.869714e+003
2.780907e+002, 3.870846e+003
2.785728e+002, 3.875418e+003
2.790550e+002, 3.880229e+003
2.795371e+002, 3.880773e+003
2.800192e+002, 3.876635e+003
2.805013e+002, 3.874678e+003
2.809834e+002, 3.877073e+003
2.814655e+002, 3.883186e+003
2.819477e+002, 3.889982e+003
2.824298e+002, 3.897544e+003
2.829119e+002, 3.905121e+003
2.833940e+002, 3.911800e+003
2.838761e+002, 3.917573e+003
2.843582e+002, 3.923604e+003
2.848404e+002, 3.930161e+003
2.853225e+002, 3.937048e+003
2.858046e+002, 3.943679e+003
2.862867e+002, 3.949928e+003
2.867688e+002, 3.956275e+003
2.872509e+002, 3.963155e+003
2.877331e+002, 3.970488e+003
2.882152e+002, 3.977557e+003
2.886973e+002, 3.983908e+003
2.891794e+002, 3.990354e+003
2.896615e+002, 3.999021e+003
2.901436e+002, 4.009961e+003
2.906258e+002, 4.020602e+003
2.911079e+002, 4.029747e+003
2.915900e+002, 4.037370e+003
2.920721e+002, 4.043160e+003
2.925542e+002, 4.046802e+003
2.930363e+002, 4.049216e+003
2.935185e+002, 4.051520e+003
2.940006e+002, 4.053757e+003
2.944827e+002, 4.056028e+003
2.949648e+002, 4.058461e+003
2.954469e+002, 4.061012e+003
2.959290e+002, 4.063666e+003
2.964112e+002, 4.066538e+003
2.968933e+002, 4.069025e+003
2.973754e+002, 4.071302e+003
2.978575e+002, 4.072820e+003
2.983396e+002, 4.071533e+003
2.988217e+002, 4.063137e+003
2.993039e+002, 4.052109e+003
2.997860e+002, 4.047711e+003
3.002681e+002, 4.050558e+003
3.007502e+002, 4.053921e+003
3.012323e+002, 4.050426e+003
3.017144e+002, 4.042302e+003
3.021966e+002, 4.035080e+003
3.026787e+002, 4.031432e+003
3.031608e+002, 4.029454e+003
3.036429e+002, 4.027122e+003
3.041250e+002, 4.024445e+003
3.046071e+002, 4.021043e+003
3.050893e+002, 4.016507e+003
3.055714e+002, 4.011049e+003
3.060535e+002, 4.005171e+003
3.065356e+002, 3.999033e+003
3.070177e+002, 3.992439e+003
3.074998e+002, 3.984751e+003
3.079820e+002, 3.976206e+003
3.084641e+002, 3.968460e+003
3.089462e+002, 3.963493e+003
3.094283e+002, 3.959458e+003
3.099104e+002, 3.954505e+003
3.103925e+002, 3.948530e+003
3.108747e+002, 3.941088e+003
3.113568e+002, 3.929311e+003
3.118389e+002, 3.915462e+003
3.123210e+002, 3.905883e+003
3.128031e+002, 3.908421e+003
3.132852e+002, 3.913559e+003
3.137674e+002, 3.913717e+003
3.142495e+002, 3.906541e+003
3.147316e+002, 3.898035e+003
3.152137e+002, 3.890476e+003
3.156958e+002, 3.883706e+003
3.161779e+002, 3.877449e+003
3.166601e+002, 3.871164e+003
3.171422e+002, 3.865701e+003
3.176243e+002, 3.861543e+003
3.181064e+002, 3.858812e+003
3.185885e+002, 3.857159e+003
3.190706e+002, 3.857781e+003
3.195528e+002, 3.858995e+003
3.200349e+002, 3.858881e+003
3.205170e+002, 3.853858e+003
3.209991e+002, 3.850378e+003
3.214812e+002, 3.852144e+003
3.219633e+002, 3.859284e+003
3.224455e+002, 3.863109e+003
3.229276e+002, 3.857633e+003
3.234097e+002, 3.850490e+003
3.238918e+002, 3.847393e+003
3.243739e+002, 3.855177e+003
3.248560e+002, 3.860363e+003
3.253382e+002, 3.858405e+003
3.258203e+002, 3.850791e+003
3.263024e+002, 3.847749e+003
3.267845e+002, 3.853926e+003
3.272666e+002, 3.861871e+003
3.277487e+002, 3.868057e+003
3.282309e+002, 3.872173e+003
3.287130e+002, 3.874739e+003
3.291951e+002, 3.874904e+003
3.296772e+002, 3.873542e+003
3.301593e+002, 3.872789e+003
3.306414e+002, 3.872251e+003
3.311236e+002, 3.872818e+003
3.316057e+002, 3.874717e+003
3.320878e+002, 3.877795e+003
3.325699e+002, 3.883114e+003
3.330520e+002, 3.893165e+003
3.335341e+002, 3.903870e+003
3.340163e+002, 3.908519e+003
3.344984e+002, 3.902695e+003
3.349805e+002, 3.899568e+003
3.354626e+002, 3.903596e+003
3.359447e+002, 3.915250e+003
3.364268e+002, 3.923657e+003
3.369090e+002, 3.928434e+003
3.373911e+002, 3.930740e+003
3.378732e+002, 3.931088e+003
3.383553e+002, 3.928731e+003
3.388374e+002, 3.927491e+003
3.393195e+002, 3.928409e+003
3.398017e+002, 3.930827e+003
3.402838e+002, 3.931647e+003
3.407659e+002, 3.930303e+003
3.412480e+002, 3.929052e+003
3.417301e+002, 3.930077e+003
3.422122e+002, 3.933474e+003
3.426944e+002, 3.934674e+003
3.431765e+002, 3.932729e+003
3.436586e+002, 3.928987e+003
3.441407e+002, 3.926276e+003
3.446228e+002, 3.924644e+003
3.451049e+002, 3.922975e+003
3.455871e+002, 3.920516e+003
3.460692e+002, 3.917509e+003
3.465513e+002, 3.915244e+003
3.470334e+002, 3.913863e+003
3.475155e+002, 3.913184e+003
3.479977e+002, 3.914303e+003
3.484798e+002, 3.916552e+003
3.489619e+002, 3.916099e+003
3.494440e+002, 3.909095e+003
3.499261e+002, 3.899120e+003
3.504082e+002, 3.893137e+003
3.508904e+002, 3.891102e+003
3.513725e+002, 3.891470e+003
3.518546e+002, 3.893963e+003
3.523367e+002, 3.897732e+003
3.528188e+002, 3.901268e+003
3.533009e+002, 3.904909e+003
3.537831e+002, 3.907017e+003
3.542652e+002, 3.905179e+003
3.547473e+002, 3.899928e+003
3.552294e+002, 3.893811e+003
3.557115e+002, 3.887339e+003
3.561936e+002, 3.881377e+003
3.566758e+002, 3.877161e+003
3.571579e+002, 3.875475e+003
3.576400e+002, 3.874109e+003
3.581221e+002, 3.870892e+003
3.586042e+002, 3.867029e+003
3.590863e+002, 3.864765e+003
3.595685e+002, 3.865200e+003
3.600506e+002, 3.867592e+003
3.605327e+002, 3.872389e+003
3.610148e+002, 3.880009e+003
3.614969e+002, 3.886259e+003
3.619790e+002, 3.888136e+003
3.624612e+002, 3.888155e+003
3.629433e+002, 3.889019e+003
3.634254e+002, 3.891878e+003
3.639075e+002, 3.895107e+003
3.643896e+002, 3.898284e+003
3.648717e+002, 3.901311e+003
3.653539e+002, 3.904037e+003
3.658360e+002, 3.904988e+003
3.663181e+002, 3.906395e+003
3.668002e+002, 3.909666e+003
3.672823e+002, 3.920075e+003
3.677644e+002, 3.925711e+003
3.682466e+002, 3.921991e+003
3.687287e+002, 3.912657e+003
3.692108e+002, 3.908271e+003
3.696929e+002, 3.912736e+003
3.701750e+002, 3.918115e+003
3.706571e+002, 3.922221e+003
3.711393e+002, 3.925650e+003
3.716214e+002, 3.925894e+003
3.721035e+002, 3.921111e+003
3.725856e+002, 3.914622e+003
3.730677e+002, 3.910702e+003
3.735498e+002, 3.909989e+003
3.740320e+002, 3.910661e+003
3.745141e+002, 3.912703e+003
3.749962e+002, 3.916049e+003
3.754783e+002, 3.919505e+003
3.759604e+002, 3.923758e+003
3.764425e+002, 3.926710e+003
3.769247e+002, 3.925946e+003
3.774068e+002, 3.920865e+003
3.778889e+002, 3.916928e+003
3.783710e+002, 3.914761e+003
3.788531e+002, 3.914249e+003
3.793352e+002, 3.915486e+003
3.798174e+002, 3.918557e+003
3.802995e+002, 3.921884e+003
3.807816e+002, 3.924689e+003
3.812637e+002, 3.926932e+003
3.817458e+002, 3.928184e+003
3.822279e+002, 3.928135e+003
3.827101e+002, 3.927981e+003
3.831922e+002, 3.929736e+003
3.836743e+002, 3.932871e+003
3.841564e+002, 3.934950e+003
3.846385e+002, 3.934107e+003
3.851206e+002, 3.932034e+003
3.856028e+002, 3.931854e+003
3.860849e+002, 3.933507e+003
3.865670e+002, 3.935729e+003
3.870491e+002, 3.938630e+003
3.875312e+002, 3.941279e+003
3.880133e+002, 3.941896e+003
3.884955e+002, 3.939106e+003
3.889776e+002, 3.936025e+003
3.894597e+002, 3.935742e+003
3.899418e+002, 3.937539e+003
3.904239e+002, 3.939290e+003
3.909060e+002, 3.939921e+003
3.913882e+002, 3.940083e+003
3.918703e+002, 3.939979e+003
3.923524e+002, 3.939416e+003
3.928345e+002, 3.939810e+003
3.933166e+002, 3.942134e+003
3.937987e+002, 3.945712e+003
3.942809e+002, 3.949651e+003
3.947630e+002, 3.952855e+003
3.952451e+002, 3.957133e+003
3.957272e+002, 3.963878e+003
3.962093e+002, 3.972869e+003
3.966914e+002, 3.980731e+003
3.971736e+002, 3.986164e+003
3.976557e+002, 3.990620e+003
3.981378e+002, 3.994994e+003
3.986199e+002, 3.999470e+003
3.991020e+002, 4.003624e+003
3.995841e+002, 4.006369e+003
4.000663e+002, 4.008815e+003
4.005484e+002, 4.013719e+003
4.010305e+002, 4.022467e+003
4.015126e+002, 4.031911e+003
4.019947e+002, 4.040891e+003
4.024768e+002, 4.048929e+003
4.029590e+002, 4.058833e+003
4.034411e+002, 4.071862e+003
4.039232e+002, 4.085351e+003
4.044053e+002, 4.095794e+003
4.048874e+002, 4.101845e+003
4.053695e+002, 4.109703e+003
4.058517e+002, 4.120563e+003
4.063338e+002, 4.134227e+003
4.068159e+002, 4.150694e+003
4.072980e+002, 4.170437e+003
4.077801e+002, 4.190958e+003
4.082622e+002, 4.210626e+003
4.087444e+002, 4.229530e+003
4.092265e+002, 4.247202e+003
4.097086e+002, 4.263155e+003
4.101907e+002, 4.279134e+003
4.106728e+002, 4.299046e+003
4.111549e+002, 4.322142e+003
4.116371e+002, 4.343292e+003
4.121192e+002, 4.360403e+003
4.126013e+002, 4.373652e+003
4.130834e+002, 4.383908e+003
4.135655e+002, 4.391042e+003
4.140476e+002, 4.392791e+003
4.145298e+002, 4.385013e+003
4.150119e+002, 4.371084e+003
4.154940e+002, 4.355904e+003
4.159761e+002, 4.339014e+003
4.164582e+002, 4.324336e+003
4.169403e+002, 4.317662e+003
4.174225e+002, 4.316475e+003
4.179046e+002, 4.313525e+003
4.183867e+002, 4.303018e+003
4.188688e+002, 4.291019e+003
4.193509e+002, 4.281866e+003
4.198330e+002, 4.276343e+003
4.203152e+002, 4.272059e+003
4.207973e+002, 4.269786e+003
4.212794e+002, 4.267647e+003
4.217615e+002, 4.263456e+003
4.222436e+002, 4.250083e+003
4.227257e+002, 4.241562e+003
4.232079e+002, 4.244126e+003
4.236900e+002, 4.256757e+003
4.241721e+002, 4.265490e+003
4.246542e+002, 4.266674e+003
4.251363e+002, 4.265629e+003
4.256184e+002, 4.264353e+003
4.261006e+002, 4.258392e+003
4.265827e+002, 4.260707e+003
4.270648e+002, 4.275862e+003
4.275469e+002, 4.296964e+003
4.280290e+002, 4.310977e+003
4.285111e+002, 4.314342e+003
4.289933e+002, 4.318608e+003
4.294754e+002, 4.328271e+003
4.299575e+002, 4.343077e+003
4.304396e+002, 4.351694e+003
4.309217e+002, 4.352685e+003
4.314038e+002, 4.351851e+003
4.318860e+002, 4.354963e+003
4.323681e+002, 4.362103e+003
4.328502e+002, 4.366821e+003
4.333323e+002, 4.367759e+003
4.338144e+002, 4.366463e+003
4.342965e+002, 4.366132e+003
4.347787e+002, 4.366607e+003
4.352608e+002, 4.365901e+003
4.357429e+002, 4.364099e+003
4.362250e+002, 4.360132e+003
4.367071e+002, 4.350265e+003
4.371892e+002, 4.334008e+003
4.376714e+002, 4.317232e+003
4.381535e+002, 4.305923e+003
4.386356e+002, 4.297965e+003
4.391177e+002, 4.289897e+003
4.395998e+002, 4.281515e+003
4.400819e+002, 4.271646e+003
4.405641e+002, 4.257492e+003
4.410462e+002, 4.240569e+003
4.415283e+002, 4.226204e+003
4.420104e+002, 4.220218e+003
4.424925e+002, 4.215772e+003
4.429746e+002, 4.207769e+003
4.434568e+002, 4.194192e+003
4.439389e+002, 4.182175e+003
4.444210e+002, 4.174065e+003
4.449031e+002, 4.168616e+003
4.453852e+002, 4.164321e+003
4.458673e+002, 4.161126e+003
4.463495e+002, 4.158645e+003
4.468316e+002, 4.157969e+003
4.473137e+002, 4.158663e+003
4.477958e+002, 4.155530e+003
4.482779e+002, 4.145351e+003
4.487600e+002, 4.134623e+003
4.492422e+002, 4.126347e+003
4.497243e+002, 4.120304e+003
4.502064e+002, 4.117939e+003
4.506885e+002, 4.121732e+003
4.511706e+002, 4.127064e+003
4.516527e+002, 4.125236e+003
4.521349e+002, 4.114146e+003
4.526170e+002, 4.105481e+003
4.530991e+002, 4.103933e+003
4.535812e+002, 4.108014e+003
4.540633e+002, 4.107943e+003
4.545454e+002, 4.103196e+003
4.550276e+002, 4.099232e+003
4.555097e+002, 4.102061e+003
4.559918e+002, 4.110026e+003
4.564739e+002, 4.115075e+003
4.569560e+002, 4.116106e+003
4.574381e+002, 4.113756e+003
4.579203e+002, 4.105683e+003
4.584024e+002, 4.094250e+003
4.588845e+002, 4.087062e+003
4.593666e+002, 4.089915e+003
4.598488e+002, 4.097686e+003
4.603309e+002, 4.106084e+003
4.608130e+002, 4.114758e+003
4.612951e+002, 4.121355e+003
4.617772e+002, 4.123118e+003
4.622593e+002, 4.122507e+003
4.627415e+002, 4.121767e+003
4.632236e+002, 4.121335e+003
4.637057e+002, 4.121091e+003
4.641878e+002, 4.121361e+003
4.646699e+002, 4.121843e+003
4.651520e+002, 4.121913e+003
4.656342e+002, 4.119689e+003
4.661163e+002, 4.118813e+003
4.665984e+002, 4.121512e+003
4.670805e+002, 4.128603e+003
4.675626e+002, 4.132672e+003
4.680447e+002, 4.131307e+003
4.685269e+002, 4.128695e+003
4.690090e+002, 4.127854e+003
4.694911e+002, 4.130807e+003
4.699732e+002, 4.130830e+003
4.704553e+002, 4.125292e+003
4.709374e+002, 4.117857e+003
4.714196e+002, 4.117812e+003
4.719017e+002, 4.127369e+003
4.723838e+002, 4.136247e+003
4.728659e+002, 4.140833e+003
4.733480e+002, 4.141283e+003
4.738301e+002, 4.137690e+003
4.743123e+002, 4.129237e+003
4.747944e+002, 4.122173e+003
4.752765e+002, 4.124141e+003
4.757586e+002, 4.133061e+003
4.762407e+002, 4.139847e+003
4.767228e+002, 4.142508e+003
4.772050e+002, 4.143030e+003
4.776871e+002, 4.143622e+003
4.781692e+002, 4.144192e+003
4.786513e+002, 4.144458e+003
4.791334e+002, 4.143687e+003
4.796155e+002, 4.142837e+003
4.800977e+002, 4.142949e+003
4.805798e+002, 4.144021e+003
4.810619e+002, 4.145139e+003
4.815440e+002, 4.145214e+003
4.820261e+002, 4.145359e+003
4.825082e+002, 4.146704e+003
4.829904e+002, 4.150947e+003
4.834725e+002, 4.154282e+003
4.839546e+002, 4.154858e+003
4.844367e+002, 4.153870e+003
4.849188e+002, 4.153837e+003
4.854009e+002, 4.157065e+003
4.858831e+002, 4.159380e+003
4.863652e+002, 4.158458e+003
4.868473e+002, 4.153792e+003
4.873294e+002, 4.154475e+003
4.878115e+002, 4.164081e+003
4.882936e+002, 4.174878e+003
4.887758e+002, 4.181752e+003
4.892579e+002, 4.184552e+003
4.897400e+002, 4.183267e+003
4.902221e+002, 4.176371e+003
4.907042e+002, 4.167188e+003
4.911863e+002, 4.161998e+003
4.916685e+002, 4.160816e+003
4.921506e+002, 4.162419e+003
4.926327e+002, 4.167333e+003
4.931148e+002, 4.174517e+003
4.935969e+002, 4.180064e+003
4.940790e+002, 4.184042e+003
4.945612e+002, 4.187824e+003
4.950433e+002, 4.193662e+003
4.955254e+002, 4.199905e+003
4.960075e+002, 4.202946e+003
4.964896e+002, 4.201078e+003
4.969717e+002, 4.199158e+003
4.974539e+002, 4.201783e+003
4.979360e+002, 4.207377e+003
4.984181e+002, 4.213007e+003
4.989002e+002, 4.219406e+003
4.993823e+002, 4.223804e+003
4.998644e+002, 4.223566e+003
5.003466e+002, 4.219181e+003
5.008287e+002, 4.215734e+003
5.013108e+002, 4.215532e+003
5.017929e+002, 4.216215e+003
5.022750e+002, 4.216386e+003
5.027571e+002, 4.215204e+003
5.032393e+002, 4.214961e+003
5.037214e+002, 4.215066e+003
5.042035e+002, 4.216483e+003
5.046856e+002, 4.221132e+003
5.051677e+002, 4.232487e+003
5.056498e+002, 4.239876e+003
5.061320e+002, 4.240138e+003
5.066141e+002, 4.234763e+003
5.070962e+002, 4.231389e+003
5.075783e+002, 4.229906e+003
5.080604e+002, 4.230733e+003
5.085425e+002, 4.235267e+003
5.090247e+002, 4.242947e+003
5.095068e+002, 4.248892e+003
5.099889e+002, 4.253005e+003
5.104710e+002, 4.254793e+003
5.109531e+002, 4.251980e+003
5.114352e+002, 4.246224e+003
5.119174e+002, 4.242593e+003
5.123995e+002, 4.243762e+003
5.128816e+002, 4.246255e+003
5.133637e+002, 4.246548e+003
5.138458e+002, 4.245113e+003
5.143279e+002, 4.243370e+003
5.148101e+002, 4.242352e+003
5.152922e+002, 4.241215e+003
5.157743e+002, 4.238536e+003
5.162564e+002, 4.233892e+003
5.167385e+002, 4.232050e+003
5.172206e+002, 4.237234e+003
5.177028e+002, 4.244529e+003
5.181849e+002, 4.249955e+003
5.186670e+002, 4.251877e+003
5.191491e+002, 4.253096e+003
5.196312e+002, 4.251897e+003
5.201133e+002, 4.250381e+003
5.205955e+002, 4.253387e+003
5.210776e+002, 4.262889e+003
5.215597e+002, 4.273212e+003
5.220418e+002, 4.283881e+003
5.225239e+002, 4.294601e+003
5.230060e+002, 4.297427e+003
5.234882e+002, 4.289931e+003
5.239703e+002, 4.282998e+003
5.244524e+002, 4.287533e+003
5.249345e+002, 4.302070e+003
5.254166e+002, 4.311218e+003
5.258987e+002, 4.312894e+003
5.263809e+002, 4.310816e+003
5.268630e+002, 4.308114e+003
5.273451e+002, 4.305407e+003
5.278272e+002, 4.304764e+003
5.283093e+002, 4.308905e+003
5.287914e+002, 4.313917e+003
5.292736e+002, 4.316046e+003
5.297557e+002, 4.315643e+003
5.302378e+002, 4.313978e+003
5.307199e+002, 4.308613e+003
5.312020e+002, 4.304560e+003
5.316841e+002, 4.306527e+003
5.321663e+002, 4.316886e+003
5.326484e+002, 4.324830e+003
5.331305e+002, 4.326551e+003
5.336126e+002, 4.325169e+003
5.340947e+002, 4.323581e+003
5.345768e+002, 4.318524e+003
5.350590e+002, 4.318025e+003
5.355411e+002, 4.325050e+003
5.360232e+002, 4.336509e+003
5.365053e+002, 4.343544e+003
5.369874e+002, 4.344200e+003
5.374695e+002, 4.344937e+003
5.379517e+002, 4.348516e+003
5.384338e+002, 4.354557e+003
5.389159e+002, 4.357743e+003
5.393980e+002, 4.357694e+003
5.398801e+002, 4.356847e+003
5.403622e+002, 4.356771e+003
5.408444e+002, 4.357584e+003
5.413265e+002, 4.360155e+003
5.418086e+002, 4.365131e+003
5.422907e+002, 4.370095e+003
5.427728e+002, 4.371961e+003
5.432549e+002, 4.371809e+003
5.437371e+002, 4.371887e+003
5.442192e+002, 4.374198e+003
5.447013e+002, 4.376269e+003
5.451834e+002, 4.375050e+003
5.456655e+002, 4.371767e+003
5.461476e+002, 4.371295e+003
5.466298e+002, 4.378180e+003
5.471119e+002, 4.386354e+003
5.475940e+002, 4.393121e+003
5.480761e+002, 4.398589e+003
5.485582e+002, 4.401050e+003
5.490403e+002, 4.395866e+003
5.495225e+002, 4.390739e+003
5.500046e+002, 4.392332e+003
5.504867e+002, 4.404470e+003
5.509688e+002, 4.414964e+003
5.514509e+002, 4.423116e+003
5.519330e+002, 4.428728e+003
5.524152e+002, 4.430692e+003
5.528973e+002, 4.428543e+003
5.533794e+002, 4.426086e+003
5.538615e+002, 4.424557e+003
5.543436e+002, 4.423811e+003
5.548257e+002, 4.423431e+003
5.553079e+002, 4.423428e+003
5.557900e+002, 4.423777e+003
5.562721e+002, 4.423347e+003
5.567542e+002, 4.423627e+003
5.572363e+002, 4.428229e+003
5.577184e+002, 4.438421e+003
5.582006e+002, 4.447354e+003
5.586827e+002, 4.448290e+003
5.591648e+002, 4.445536e+003
5.596469e+002, 4.444563e+003
5.601290e+002, 4.449568e+003
5.606111e+002, 4.454029e+003
5.610933e+002, 4.455914e+003
5.615754e+002, 4.455676e+003
5.620575e+002, 4.454524e+003
5.625396e+002, 4.448849e+003
5.630217e+002, 4.446199e+003
5.635038e+002, 4.449382e+003
5.639860e+002, 4.458667e+003
5.644681e+002, 4.467171e+003
5.649502e+002, 4.475244e+003
5.654323e+002, 4.481870e+003
5.659144e+002, 4.485948e+003
5.663965e+002, 4.487363e+003
5.668787e+002, 4.488188e+003
5.673608e+002, 4.488279e+003
5.678429e+002, 4.488583e+003
5.683250e+002, 4.491334e+003
5.688071e+002, 4.495725e+003
5.692892e+002, 4.497872e+003
5.697714e+002, 4.495096e+003
5.702535e+002, 4.491408e+003
5.707356e+002, 4.492263e+003
5.712177e+002, 4.496579e+003
5.716998e+002, 4.500710e+003
5.721819e+002, 4.502920e+003
5.726641e+002, 4.504183e+003
5.731462e+002, 4.505634e+003
5.736283e+002, 4.507354e+003
5.741104e+002, 4.506773e+003
5.745925e+002, 4.501177e+003
5.750746e+002, 4.494338e+003
5.755568e+002, 4.488520e+003
5.760389e+002, 4.483161e+003
5.765210e+002, 4.480585e+003
5.770031e+002, 4.482451e+003
5.774852e+002, 4.485941e+003
5.779673e+002, 4.487274e+003
5.784495e+002, 4.485987e+003
5.789316e+002, 4.484348e+003
5.794137e+002, 4.482466e+003
5.798958e+002, 4.480910e+003
5.803779e+002, 4.481356e+003
5.808600e+002, 4.483811e+003
5.813422e+002, 4.486637e+003
5.818243e+002, 4.489143e+003
5.823064e+002, 4.491312e+003
5.827885e+002, 4.492625e+003
5.832706e+002, 4.493094e+003
5.837527e+002, 4.494288e+003
5.842349e+002, 4.499269e+003
5.847170e+002, 4.504521e+003
5.851991e+002, 4.505677e+003
5.856812e+002, 4.500411e+003
5.861633e+002, 4.495885e+003
5.866454e+002, 4.496586e+003
5.871276e+002, 4.499163e+003
5.876097e+002, 4.499552e+003
5.880918e+002, 4.492967e+003
5.885739e+002, 4.489241e+003
5.890560e+002, 4.491603e+003
5.895381e+002, 4.497633e+003
5.900203e+002, 4.499863e+003
5.905024e+002, 4.496761e+003
5.909845e+002, 4.493660e+003
5.914666e+002, 4.492972e+003
5.919487e+002, 4.494277e+003
5.924308e+002, 4.492850e+003
5.929130e+002, 4.488393e+003
5.933951e+002, 4.483931e+003
5.938772e+002, 4.481650e+003
5.943593e+002, 4.481239e+003
5.948414e+002, 4.481771e+003
5.953235e+002, 4.483065e+003
5.958057e+002, 4.485646e+003
5.962878e+002, 4.492778e+003
5.967699e+002, 4.500699e+003
5.972520e+002, 4.503294e+003
5.977341e+002, 4.494197e+003
5.982162e+002, 4.486076e+003
5.986984e+002, 4.486106e+003
5.991805e+002, 4.491366e+003
5.996626e+002, 4.495616e+003
6.001447e+002, 4.497618e+003
6.006268e+002, 4.498437e+003
6.011089e+002, 4.498857e+003
6.015911e+002, 4.498722e+003
6.020732e+002, 4.494928e+003
6.025553e+002, 4.484166e+003
6.030374e+002, 4.476046e+003
6.035195e+002, 4.476836e+003
6.040016e+002, 4.486962e+003
6.044838e+002, 4.494856e+003
6.049659e+002, 4.500422e+003
6.054480e+002, 4.504006e+003
6.059301e+002, 4.504124e+003
6.064122e+002, 4.502263e+003
6.068943e+002, 4.504474e+003
6.073765e+002, 4.513228e+003
6.078586e+002, 4.521815e+003
6.083407e+002, 4.522293e+003
6.088228e+002, 4.517755e+003
6.093049e+002, 4.513853e+003
6.097870e+002, 4.512320e+003
6.102692e+002, 4.512384e+003
6.107513e+002, 4.513784e+003
6.112334e+002, 4.516470e+003
6.117155e+002, 4.520285e+003
6.121976e+002, 4.528214e+003
6.126797e+002, 4.534162e+003
6.131619e+002, 4.535508e+003
6.136440e+002, 4.531950e+003
6.141261e+002, 4.529655e+003
6.146082e+002, 4.528537e+003
6.150903e+002, 4.528773e+003
6.155724e+002, 4.531345e+003
6.160546e+002, 4.536323e+003
6.165367e+002, 4.538071e+003
6.170188e+002, 4.535670e+003
6.175009e+002, 4.532821e+003
6.179830e+002, 4.534874e+003
6.184651e+002, 4.540069e+003
6.189473e+002, 4.543126e+003
6.194294e+002, 4.542108e+003
6.199115e+002, 4.539923e+003
6.203936e+002, 4.538393e+003
6.208757e+002, 4.537780e+003
6.213578e+002, 4.538532e+003
6.218400e+002, 4.545147e+003
6.223221e+002, 4.548985e+003
6.228042e+002, 4.542368e+003
6.232863e+002, 4.527797e+003
6.237684e+002, 4.522393e+003
6.242505e+002, 4.537689e+003
6.247327e+002, 4.551395e+003
6.252148e+002, 4.554733e+003
6.256969e+002, 4.546561e+003
6.261790e+002, 4.541298e+003
6.266611e+002, 4.539615e+003
6.271432e+002, 4.539085e+003
6.276254e+002, 4.538094e+003
6.281075e+002, 4.536622e+003
6.285896e+002, 4.534287e+003
6.290717e+002, 4.530914e+003
6.295538e+002, 4.527753e+003
6.300359e+002, 4.526258e+003
6.305181e+002, 4.526135e+003
6.310002e+002, 4.526732e+003
6.314823e+002, 4.528214e+003
6.319644e+002, 4.529979e+003
6.324465e+002, 4.532163e+003
6.329286e+002, 4.534339e+003
6.334108e+002, 4.535576e+003
6.338929e+002, 4.534547e+003
6.343750e+002, 4.533595e+003
6.348571e+002, 4.532514e+003
6.353392e+002, 4.531648e+003
6.358214e+002, 4.533795e+003
6.363035e+002, 4.540426e+003
6.367856e+002, 4.547382e+003
6.372677e+002, 4.553546e+003
6.377498e+002, 4.558771e+003
6.382319e+002, 4.558961e+003
6.387141e+002, 4.552905e+003
6.391962e+002, 4.547856e+003
6.396783e+002, 4.552351e+003
6.401604e+002, 4.563013e+003
6.406425e+002, 4.567782e+003
6.411246e+002, 4.565058e+003
6.416068e+002, 4.560069e+003
6.420889e+002, 4.556085e+003
6.425710e+002, 4.553586e+003
6.430531e+002, 4.553479e+003
6.435352e+002, 4.557781e+003
6.440173e+002, 4.561829e+003
6.444995e+002, 4.564328e+003
6.449816e+002, 4.565277e+003
6.454637e+002, 4.564664e+003
6.459458e+002, 4.558663e+003
6.464279e+002, 4.555661e+003
6.469100e+002, 4.557867e+003
6.473922e+002, 4.563889e+003
6.478743e+002, 4.568246e+003
6.483564e+002, 4.570355e+003
6.488385e+002, 4.572351e+003
6.493206e+002, 4.574733e+003
6.498027e+002, 4.577691e+003
6.502849e+002, 4.582768e+003
6.507670e+002, 4.589914e+003
6.512491e+002, 4.596643e+003
6.517312e+002, 4.602819e+003
6.522133e+002, 4.606745e+003
6.526954e+002, 4.604680e+003
6.531776e+002, 4.595830e+003
6.536597e+002, 4.587665e+003
6.541418e+002, 4.584487e+003
6.546239e+002, 4.584031e+003
6.551060e+002, 4.584198e+003
6.555881e+002, 4.584108e+003
6.560703e+002, 4.585489e+003
6.565524e+002, 4.588718e+003
6.570345e+002, 4.593359e+003
6.575166e+002, 4.599544e+003
6.579987e+002, 4.609403e+003
6.584808e+002, 4.614265e+003
6.589630e+002, 4.611335e+003
6.594451e+002, 4.604187e+003
6.599272e+002, 4.599981e+003
6.604093e+002, 4.598731e+003
6.608914e+002, 4.600905e+003
6.613735e+002, 4.609169e+003
6.618557e+002, 4.619078e+003
6.623378e+002, 4.624321e+003
6.628199e+002, 4.625192e+003
6.633020e+002, 4.622600e+003
6.637841e+002, 4.611548e+003
6.642662e+002, 4.601711e+003
6.647484e+002, 4.600140e+003
6.652305e+002, 4.607342e+003
6.657126e+002, 4.617683e+003
6.661947e+002, 4.636393e+003
6.666768e+002, 4.652257e+003
6.671589e+002, 4.658505e+003
6.676411e+002, 4.651770e+003
6.681232e+002, 4.648018e+003
6.686053e+002, 4.647278e+003
6.690874e+002, 4.648903e+003
6.695695e+002, 4.652516e+003
6.700516e+002, 4.657935e+003
6.705338e+002, 4.664993e+003
6.710159e+002, 4.674544e+003
6.714980e+002, 4.681747e+003
6.719801e+002, 4.677702e+003
6.724622e+002, 4.666803e+003
6.729443e+002, 4.659273e+003
6.734265e+002, 4.659619e+003
6.739086e+002, 4.662011e+003
6.743907e+002, 4.662993e+003
6.748728e+002, 4.663441e+003
6.753549e+002, 4.664858e+003
6.758370e+002, 4.672896e+003
6.763192e+002, 4.676642e+003
6.768013e+002, 4.669917e+003
6.772834e+002, 4.656595e+003
6.777655e+002, 4.650681e+003
6.782476e+002, 4.655032e+003
6.787297e+002, 4.660530e+003
6.792119e+002, 4.664384e+003
6.796940e+002, 4.666507e+003
6.801761e+002, 4.664857e+003
6.806582e+002, 4.659161e+003
6.811403e+002, 4.655802e+003
6.816224e+002, 4.661102e+003
6.821046e+002, 4.670767e+003
6.825867e+002, 4.677542e+003
6.830688e+002, 4.680947e+003
6.835509e+002, 4.682971e+003
6.840330e+002, 4.683443e+003
6.845151e+002, 4.683911e+003
6.849973e+002, 4.685790e+003
6.854794e+002, 4.689754e+003
6.859615e+002, 4.693792e+003
6.864436e+002, 4.699679e+003
6.869257e+002, 4.704263e+003
6.874078e+002, 4.704497e+003
6.878900e+002, 4.698124e+003
6.883721e+002, 4.694451e+003
6.888542e+002, 4.694842e+003
6.893363e+002, 4.697132e+003
6.898184e+002, 4.697742e+003
6.903005e+002, 4.697048e+003
6.907827e+002, 4.698282e+003
6.912648e+002, 4.703256e+003
6.917469e+002, 4.708642e+003
6.922290e+002, 4.710234e+003
6.927111e+002, 4.708837e+003
6.931932e+002, 4.706224e+003
6.936754e+002, 4.698737e+003
6.941575e+002, 4.694480e+003
6.946396e+002, 4.700030e+003
6.951217e+002, 4.712523e+003
6.956038e+002, 4.721532e+003
6.960859e+002, 4.724565e+003
6.965681e+002, 4.724678e+003
6.970502e+002, 4.721742e+003
6.975323e+002, 4.716194e+003
6.980144e+002, 4.712039e+003
6.984965e+002, 4.709361e+003
6.989786e+002, 4.708015e+003
6.994608e+002, 4.709740e+003
6.999429e+002, 4.713014e+003
7.004250e+002, 4.709363e+003
7.009071e+002, 4.699159e+003
7.013892e+002, 4.691881e+003
7.018713e+002, 4.696577e+003
7.023535e+002, 4.707016e+003
7.028356e+002, 4.717867e+003
7.033177e+002, 4.729054e+003
7.037998e+002, 4.735697e+003
7.042819e+002, 4.729837e+003
7.047640e+002, 4.722581e+003
7.052462e+002, 4.722989e+003
7.057283e+002, 4.735635e+003
7.062104e+002, 4.746575e+003
7.066925e+002, 4.756287e+003
7.071746e+002, 4.763390e+003
7.076567e+002, 4.765066e+003
7.081389e+002, 4.760930e+003
7.086210e+002, 4.759036e+003
7.091031e+002, 4.760568e+003
7.095852e+002, 4.764292e+003
7.100673e+002, 4.770586e+003
7.105494e+002, 4.777706e+003
7.110316e+002, 4.781278e+003
7.115137e+002, 4.777908e+003
7.119958e+002, 4.773671e+003
7.124779e+002, 4.772966e+003
7.129600e+002, 4.774236e+003
7.134421e+002, 4.774519e+003
7.139243e+002, 4.771923e+003
7.144064e+002, 4.769858e+003
7.148885e+002, 4.769187e+003
7.153706e+002, 4.769656e+003
7.158527e+002, 4.770383e+003
7.163348e+002, 4.771317e+003
7.168170e+002, 4.772734e+003
7.172991e+002, 4.774761e+003
7.177812e+002, 4.777249e+003
7.182633e+002, 4.780216e+003
7.187454e+002, 4.783481e+003
7.192275e+002, 4.785328e+003
7.197097e+002, 4.782009e+003
7.201918e+002, 4.778439e+003
7.206739e+002, 4.781238e+003
7.211560e+002, 4.789686e+003
7.216381e+002, 4.796927e+003
7.221202e+002, 4.800860e+003
7.226024e+002, 4.801841e+003
7.230845e+002, 4.797946e+003
7.235666e+002, 4.787774e+003
7.240487e+002, 4.786526e+003
7.245308e+002, 4.800293e+003
7.250129e+002, 4.813715e+003
7.254951e+002, 4.815969e+003
7.259772e+002, 4.806547e+003
7.264593e+002, 4.803130e+003
7.269414e+002, 4.806399e+003
7.274235e+002, 4.811390e+003
7.279056e+002, 4.813308e+003
7.283878e+002, 4.813713e+003
7.288699e+002, 4.816008e+003
7.293520e+002, 4.821079e+003
7.298341e+002, 4.825258e+003
7.303162e+002, 4.823465e+003
7.307983e+002, 4.821038e+003
7.312805e+002, 4.823259e+003
7.317626e+002, 4.834157e+003
7.322447e+002, 4.844381e+003
7.327268e+002, 4.856132e+003
7.332089e+002, 4.864658e+003
7.336910e+002, 4.862044e+003
7.341732e+002, 4.843956e+003
7.346553e+002, 4.837788e+003
7.351374e+002, 4.849463e+003
7.356195e+002, 4.867834e+003
7.361016e+002, 4.876458e+003
7.365837e+002, 4.877545e+003
7.370659e+002, 4.879013e+003
7.375480e+002, 4.883969e+003
7.380301e+002, 4.888513e+003
7.385122e+002, 4.889312e+003
7.389943e+002, 4.887317e+003
7.394764e+002, 4.884165e+003
7.399586e+002, 4.878601e+003
7.404407e+002, 4.874052e+003
7.409228e+002, 4.871922e+003
7.414049e+002, 4.871405e+003
7.418870e+002, 4.870912e+003
7.423691e+002, 4.870864e+003
7.428513e+002, 4.869741e+003
7.433334e+002, 4.866175e+003
7.438155e+002, 4.862272e+003
7.442976e+002, 4.865540e+003
7.447797e+002, 4.874978e+003
7.452618e+002, 4.881438e+003
7.457440e+002, 4.877400e+003
7.462261e+002, 4.870343e+003
7.467082e+002, 4.867834e+003
7.471903e+002, 4.869196e+003
7.476724e+002, 4.871893e+003
7.481545e+002, 4.873591e+003
7.486367e+002, 4.877543e+003
7.491188e+002, 4.887789e+003
7.496009e+002, 4.903355e+003
7.500830e+002, 4.910732e+003
7.505651e+002, 4.906218e+003
7.510472e+002, 4.901375e+003
7.515294e+002, 4.901544e+003
7.520115e+002, 4.905833e+003
7.524936e+002, 4.908405e+003
7.529757e+002, 4.909301e+003
7.534578e+002, 4.908771e+003
7.539399e+002, 4.903754e+003
7.544221e+002, 4.899107e+003
7.549042e+002, 4.903167e+003
7.553863e+002, 4.915752e+003
7.558684e+002, 4.927175e+003
7.563505e+002, 4.933506e+003
7.568326e+002, 4.936560e+003
7.573148e+002, 4.936337e+003
7.577969e+002, 4.931776e+003
7.582790e+002, 4.930276e+003
7.587611e+002, 4.931606e+003
7.592432e+002, 4.936185e+003
7.597253e+002, 4.946933e+003
7.602075e+002, 4.963932e+003
7.606896e+002, 4.969157e+003
7.611717e+002, 4.961542e+003
7.616538e+002, 4.951789e+003
7.621359e+002, 4.949323e+003
7.626180e+002, 4.950943e+003
7.631002e+002, 4.952072e+003
7.635823e+002, 4.952249e+003
7.640644e+002, 4.951321e+003
7.645465e+002, 4.947664e+003
7.650286e+002, 4.943962e+003
7.655107e+002, 4.942389e+003
7.659929e+002, 4.943375e+003
7.664750e+002, 4.946429e+003
7.669571e+002, 4.953087e+003
7.674392e+002, 4.959860e+003
7.679213e+002, 4.963205e+003
7.684034e+002, 4.963037e+003
7.688856e+002, 4.963205e+003
7.693677e+002, 4.963771e+003
7.698498e+002, 4.965774e+003
7.703319e+002, 4.972637e+003
7.708140e+002, 4.981083e+003
7.712961e+002, 4.984841e+003
7.717783e+002, 4.981302e+003
7.722604e+002, 4.977432e+003
7.727425e+002, 4.977437e+003
7.732246e+002, 4.978698e+003
7.737067e+002, 4.978448e+003
7.741888e+002, 4.974109e+003
7.746710e+002, 4.971892e+003
7.751531e+002, 4.971547e+003
7.756352e+002, 4.973747e+003
7.761173e+002, 4.981337e+003
7.765994e+002, 4.994312e+003
7.770815e+002, 5.000792e+003
7.775637e+002, 4.997848e+003
7.780458e+002, 4.992976e+003
7.785279e+002, 4.995322e+003
7.790100e+002, 5.002167e+003
7.794921e+002, 5.008813e+003
7.799742e+002, 5.014537e+003
7.804564e+002, 5.018399e+003
7.809385e+002, 5.018048e+003
7.814206e+002, 5.016260e+003
7.819027e+002, 5.016786e+003
7.823848e+002, 5.019543e+003
7.828669e+002, 5.025233e+003
7.833491e+002, 5.035681e+003
7.838312e+002, 5.046897e+003
7.843133e+002, 5.051210e+003
7.847954e+002, 5.049027e+003
7.852775e+002, 5.049549e+003
7.857596e+002, 5.055867e+003
7.862418e+002, 5.062837e+003
7.867239e+002, 5.062397e+003
7.872060e+002, 5.058421e+003
7.876881e+002, 5.058166e+003
7.881702e+002, 5.069221e+003
7.886523e+002, 5.077574e+003
7.891345e+002, 5.074792e+003
7.896166e+002, 5.067366e+003
7.900987e+002, 5.066372e+003
7.905808e+002, 5.074237e+003
7.910629e+002, 5.084331e+003
7.915450e+002, 5.097354e+003
7.920272e+002, 5.110284e+003
7.925093e+002, 5.115552e+003
7.929914e+002, 5.114327e+003
7.934735e+002, 5.114888e+003
7.939556e+002, 5.119550e+003
7.944377e+002, 5.126999e+003
7.949199e+002, 5.137325e+003
7.954020e+002, 5.149086e+003
7.958841e+002, 5.159376e+003
7.963662e+002, 5.165905e+003
7.968483e+002, 5.172189e+003
7.973304e+002, 5.179125e+003
7.978126e+002, 5.186073e+003
7.982947e+002, 5.191867e+003
7.987768e+002, 5.196169e+003
7.992589e+002, 5.200271e+003
7.997410e+002, 5.205073e+003
8.002231e+002, 5.208707e+003
8.007053e+002, 5.207717e+003
8.011874e+002, 5.202627e+003
8.016695e+002, 5.194705e+003
8.021516e+002, 5.181855e+003
8.026337e+002, 5.171037e+003
8.031158e+002, 5.170674e+003
8.035980e+002, 5.176186e+003
8.040801e+002, 5.179453e+003
8.045622e+002, 5.174958e+003
8.050443e+002, 5.172493e+003
8.055264e+002, 5.175646e+003
8.060085e+002, 5.180677e+003
8.064907e+002, 5.179918e+003
8.069728e+002, 5.172063e+003
8.074549e+002, 5.165677e+003
8.079370e+002, 5.161902e+003
8.084191e+002, 5.161419e+003
8.089012e+002, 5.167759e+003
8.093834e+002, 5.178299e+003
8.098655e+002, 5.186023e+003
8.103476e+002, 5.186476e+003
8.108297e+002, 5.185980e+003
8.113118e+002, 5.189833e+003
8.117939e+002, 5.194788e+003
8.122761e+002, 5.195152e+003
8.127582e+002, 5.184181e+003
8.132403e+002, 5.178041e+003
8.137224e+002, 5.180326e+003
8.142045e+002, 5.186563e+003
8.146866e+002, 5.188476e+003
8.151688e+002, 5.186182e+003
8.156509e+002, 5.183958e+003
8.161330e+002, 5.183113e+003
8.166151e+002, 5.182241e+003
8.170972e+002, 5.177229e+003
8.175793e+002, 5.171329e+003
8.180615e+002, 5.170710e+003
8.185436e+002, 5.183880e+003
8.190257e+002, 5.193938e+003
8.195078e+002, 5.192328e+003
8.199899e+002, 5.185065e+003
8.204720e+002, 5.181462e+003
8.209542e+002, 5.182682e+003
8.214363e+002, 5.184578e+003
8.219184e+002, 5.187070e+003
8.224005e+002, 5.189183e+003
8.228826e+002, 5.188484e+003
8.233647e+002, 5.185854e+003
8.238469e+002, 5.185544e+003
8.243290e+002, 5.189448e+003
8.248111e+002, 5.193764e+003
8.252932e+002, 5.194748e+003
8.257753e+002, 5.194446e+003
8.262574e+002, 5.195575e+003
8.267396e+002, 5.198560e+003
8.272217e+002, 5.203832e+003
8.277038e+002, 5.213108e+003
8.281859e+002, 5.223390e+003
8.286681e+002, 5.230736e+003
8.291502e+002, 5.234528e+003
8.296323e+002, 5.241414e+003
8.301144e+002, 5.253628e+003
8.305966e+002, 5.263595e+003
8.310787e+002, 5.257227e+003
8.315608e+002, 5.242856e+003
8.320429e+002, 5.237718e+003
8.325250e+002, 5.248672e+003
8.330071e+002, 5.259775e+003
8.334893e+002, 5.262820e+003
8.339714e+002, 5.261931e+003
8.344535e+002, 5.261506e+003
8.349356e+002, 5.262814e+003
8.354177e+002, 5.262732e+003
8.358998e+002, 5.261438e+003
8.363820e+002, 5.258776e+003
8.368641e+002, 5.252850e+003
8.373462e+002, 5.244879e+003
8.378283e+002, 5.242710e+003
8.383104e+002, 5.247733e+003
8.387925e+002, 5.255161e+003
8.392747e+002, 5.264657e+003
8.397568e+002, 5.272370e+003
8.402389e+002, 5.272913e+003
8.407210e+002, 5.262583e+003
8.412031e+002, 5.254948e+003
8.416852e+002, 5.252142e+003
8.421674e+002, 5.253171e+003
8.426495e+002, 5.258938e+003
8.431316e+002, 5.270914e+003
8.436137e+002, 5.275688e+003
8.440958e+002, 5.272367e+003
8.445779e+002, 5.266700e+003
8.450601e+002, 5.264070e+003
8.455422e+002, 5.262694e+003
8.460243e+002, 5.257796e+003
8.465064e+002, 5.249031e+003
8.469885e+002, 5.244475e+003
8.474706e+002, 5.253861e+003
8.479528e+002, 5.264782e+003
8.484349e+002, 5.268721e+003
8.489170e+002, 5.264521e+003
8.493991e+002, 5.261987e+003
8.498812e+002, 5.261686e+003
8.503633e+002, 5.261929e+003
8.508455e+002, 5.261124e+003
8.513276e+002, 5.259835e+003
8.518097e+002, 5.262151e+003
8.522918e+002, 5.267675e+003
8.527739e+002, 5.272106e+003
8.532560e+002, 5.270386e+003
8.537382e+002, 5.267827e+003
8.542203e+002, 5.268934e+003
8.547024e+002, 5.273576e+003
8.551845e+002, 5.278282e+003
8.556666e+002, 5.283269e+003
8.561487e+002, 5.286874e+003
8.566309e+002, 5.288189e+003
8.571130e+002, 5.287665e+003
8.575951e+002, 5.288053e+003
8.580772e+002, 5.289473e+003
8.585593e+002, 5.290293e+003
8.590414e+002, 5.290042e+003
8.595236e+002, 5.288701e+003
8.600057e+002, 5.283753e+003
8.604878e+002, 5.277435e+003
8.609699e+002, 5.276604e+003
8.614520e+002, 5.291162e+003
8.619341e+002, 5.304042e+003
8.624163e+002, 5.307703e+003
8.628984e+002, 5.305371e+003
8.633805e+002, 5.304700e+003
8.638626e+002, 5.305645e+003
8.643447e+002, 5.308540e+003
8.648268e+002, 5.314528e+003
8.653090e+002, 5.320621e+003
8.657911e+002, 5.319538e+003
8.662732e+002, 5.313656e+003
8.667553e+002, 5.310083e+003
8.672374e+002, 5.311813e+003
8.677195e+002, 5.315825e+003
8.682017e+002, 5.322196e+003
8.686838e+002, 5.329207e+003
8.691659e+002, 5.333838e+003
8.696480e+002, 5.335120e+003
8.701301e+002, 5.335962e+003
8.706122e+002, 5.336917e+003
8.710944e+002, 5.337138e+003
8.715765e+002, 5.334288e+003
8.720586e+002, 5.329275e+003
8.725407e+002, 5.327347e+003
8.730228e+002, 5.329861e+003
8.735049e+002, 5.333888e+003
8.739871e+002, 5.339190e+003
8.744692e+002, 5.343521e+003
8.749513e+002, 5.343636e+003
8.754334e+002, 5.335135e+003
8.759155e+002, 5.332182e+003
8.763976e+002, 5.339251e+003
8.768798e+002, 5.347858e+003
8.773619e+002, 5.350854e+003
8.778440e+002, 5.347947e+003
8.783261e+002, 5.348834e+003
8.788082e+002, 5.354158e+003
8.792903e+002, 5.358942e+003
8.797725e+002, 5.356366e+003
8.802546e+002, 5.352163e+003
8.807367e+002, 5.354833e+003
8.812188e+002, 5.365269e+003
8.817009e+002, 5.373231e+003
8.821830e+002, 5.372653e+003
8.826652e+002, 5.371165e+003
8.831473e+002, 5.372250e+003
8.836294e+002, 5.375839e+003
8.841115e+002, 5.380019e+003
8.845936e+002, 5.384878e+003
8.850757e+002, 5.389629e+003
8.855579e+002, 5.392979e+003
8.860400e+002, 5.396287e+003
8.865221e+002, 5.404374e+003
8.870042e+002, 5.415257e+003
8.874863e+002, 5.421096e+003
8.879684e+002, 5.411005e+003
8.884506e+002, 5.402311e+003
8.889327e+002, 5.404532e+003
8.894148e+002, 5.414173e+003
8.898969e+002, 5.419951e+003
8.903790e+002, 5.421735e+003
8.908611e+002, 5.419304e+003
8.913433e+002, 5.410698e+003
8.918254e+002, 5.400843e+003
8.923075e+002, 5.399696e+003
8.927896e+002, 5.405104e+003
8.932717e+002, 5.410603e+003
8.937538e+002, 5.414291e+003
8.942360e+002, 5.417095e+003
8.947181e+002, 5.419019e+003
8.952002e+002, 5.420588e+003
8.956823e+002, 5.422761e+003
8.961644e+002, 5.427499e+003
8.966465e+002, 5.428032e+003
8.971287e+002, 5.422211e+003
8.976108e+002, 5.415756e+003
8.980929e+002, 5.416898e+003
8.985750e+002, 5.423675e+003
8.990571e+002, 5.428895e+003
8.995392e+002, 5.431539e+003
9.000214e+002, 5.432322e+003
9.005035e+002, 5.427769e+003
9.009856e+002, 5.424132e+003
9.014677e+002, 5.428096e+003
9.019498e+002, 5.444087e+003
9.024319e+002, 5.453476e+003
9.029141e+002, 5.453285e+003
9.033962e+002, 5.451459e+003
9.038783e+002, 5.452881e+003
9.043604e+002, 5.457132e+003
9.048425e+002, 5.462095e+003
9.053246e+002, 5.467632e+003
9.058068e+002, 5.470817e+003
9.062889e+002, 5.467602e+003
9.067710e+002, 5.463086e+003
9.072531e+002, 5.460745e+003
9.077352e+002, 5.460793e+003
9.082173e+002, 5.462976e+003
9.086995e+002, 5.469227e+003
9.091816e+002, 5.474682e+003
9.096637e+002, 5.478162e+003
9.101458e+002, 5.479868e+003
9.106279e+002, 5.479614e+003
9.111100e+002, 5.477674e+003
9.115922e+002, 5.476394e+003
9.120743e+002, 5.476945e+003
9.125564e+002, 5.478106e+003
9.130385e+002, 5.477296e+003
9.135206e+002, 5.476619e+003
9.140027e+002, 5.479647e+003
9.144849e+002, 5.492035e+003
9.149670e+002, 5.501717e+003
9.154491e+002, 5.508442e+003
9.159312e+002, 5.511395e+003
9.164133e+002, 5.507030e+003
9.168954e+002, 5.495997e+003
9.173776e+002, 5.492173e+003
9.178597e+002, 5.497940e+003
9.183418e+002, 5.505602e+003
9.188239e+002, 5.508384e+003
9.193060e+002, 5.508828e+003
9.197881e+002, 5.510127e+003
9.202703e+002, 5.513521e+003
9.207524e+002, 5.513289e+003
9.212345e+002, 5.502166e+003
9.217166e+002, 5.495713e+003
9.221987e+002, 5.505362e+003
9.226808e+002, 5.529825e+003
9.231630e+002, 5.544184e+003
9.236451e+002, 5.548560e+003
9.241272e+002, 5.547369e+003
9.246093e+002, 5.538771e+003
9.250914e+002, 5.529870e+003
9.255735e+002, 5.528627e+003
9.260557e+002, 5.533874e+003
9.265378e+002, 5.539084e+003
9.270199e+002, 5.543003e+003
9.275020e+002, 5.546033e+003
9.279841e+002, 5.547372e+003
9.284662e+002, 5.548368e+003
9.289484e+002, 5.554217e+003
9.294305e+002, 5.564357e+003
9.299126e+002, 5.568729e+003
9.303947e+002, 5.561253e+003
9.308768e+002, 5.553347e+003
9.313589e+002, 5.559336e+003
9.318411e+002, 5.572027e+003
9.323232e+002, 5.580906e+003
9.328053e+002, 5.580023e+003
9.332874e+002, 5.580757e+003
9.337695e+002, 5.585126e+003
9.342516e+002, 5.590188e+003
9.347338e+002, 5.592300e+003
9.352159e+002, 5.591749e+003
9.356980e+002, 5.595630e+003
9.361801e+002, 5.604632e+003
9.366622e+002, 5.613565e+003
9.371443e+002, 5.616664e+003
9.376265e+002, 5.618454e+003
9.381086e+002, 5.625000e+003
9.385907e+002, 5.636932e+003
9.390728e+002, 5.642036e+003
9.395549e+002, 5.631400e+003
9.400370e+002, 5.623852e+003
9.405192e+002, 5.627782e+003
9.410013e+002, 5.640087e+003
9.414834e+002, 5.646297e+003
9.419655e+002, 5.646984e+003
9.424476e+002, 5.647890e+003
9.429297e+002, 5.652577e+003
9.434119e+002, 5.657943e+003
9.438940e+002, 5.661295e+003
9.443761e+002, 5.663449e+003
9.448582e+002, 5.666012e+003
9.453403e+002, 5.671008e+003
9.458224e+002, 5.673948e+003
9.463046e+002, 5.673498e+003
9.467867e+002, 5.672257e+003
9.472688e+002, 5.673733e+003
9.477509e+002, 5.677703e+003
9.482330e+002, 5.683284e+003
9.487151e+002, 5.690551e+003
9.491973e+002, 5.697374e+003
9.496794e+002, 5.701865e+003
9.501615e+002, 5.705067e+003
9.506436e+002, 5.706924e+003
9.511257e+002, 5.706104e+003
9.516078e+002, 5.711607e+003
9.520900e+002, 5.726720e+003
9.525721e+002, 5.741493e+003
9.530542e+002, 5.750463e+003
9.535363e+002, 5.754581e+003
9.540184e+002, 5.755773e+003
9.545005e+002, 5.754987e+003
9.549827e+002, 5.757738e+003
9.554648e+002, 5.770824e+003
9.559469e+002, 5.784954e+003
9.564290e+002, 5.794752e+003
9.569111e+002, 5.801174e+003
9.573932e+002, 5.807343e+003
9.578754e+002, 5.813213e+003
9.583575e+002, 5.818802e+003
9.588396e+002, 5.822822e+003
9.593217e+002, 5.828892e+003
9.598038e+002, 5.846396e+003
9.602859e+002, 5.870194e+003
9.607681e+002, 5.884919e+003
9.612502e+002, 5.884052e+003
9.617323e+002, 5.886176e+003
9.622144e+002, 5.906067e+003
9.626965e+002, 5.930065e+003
9.631786e+002, 5.946610e+003
9.636608e+002, 5.954218e+003
9.641429e+002, 5.960317e+003
9.646250e+002, 5.963579e+003
9.651071e+002, 5.971490e+003
9.655892e+002, 5.993573e+003
9.660714e+002, 6.022145e+003
9.665535e+002, 6.042405e+003
9.670356e+002, 6.055589e+003
9.675177e+002, 6.070024e+003
9.679998e+002, 6.091390e+003
9.684819e+002, 6.112503e+003
9.689641e+002, 6.129378e+003
9.694462e+002, 6.144614e+003
9.699283e+002, 6.164842e+003
9.704104e+002, 6.190328e+003
9.708925e+002, 6.217900e+003
9.713746e+002, 6.247435e+003
9.718568e+002, 6.277732e+003
9.723389e+002, 6.306342e+003
9.728210e+002, 6.335594e+003
9.733031e+002, 6.369604e+003
9.737852e+002, 6.411132e+003
9.742673e+002, 6.451997e+003
9.747495e+002, 6.486209e+003
9.752316e+002, 6.524700e+003
9.757137e+002, 6.577136e+003
9.761958e+002, 6.643855e+003
9.766779e+002, 6.700184e+003
9.771600e+002, 6.746377e+003
9.776422e+002, 6.795579e+003
9.781243e+002, 6.859701e+003
9.786064e+002, 6.929891e+003
9.790885e+002, 6.997486e+003
9.795706e+002, 7.063604e+003
9.800527e+002, 7.136688e+003
9.805349e+002, 7.219091e+003
9.810170e+002, 7.306112e+003
9.814991e+002, 7.397755e+003
9.819812e+002, 7.493517e+003
9.824633e+002, 7.591030e+003
9.829454e+002, 7.691552e+003
9.834276e+002, 7.800254e+003
9.839097e+002, 7.921088e+003
9.843918e+002, 8.046225e+003
9.848739e+002, 8.167353e+003
9.853560e+002, 8.293767e+003
9.858381e+002, 8.436995e+003
9.863203e+002, 8.602308e+003
9.868024e+002, 8.760638e+003
9.872845e+002, 8.908969e+003
9.877666e+002, 9.060655e+003
9.882487e+002, 9.233224e+003
9.887308e+002, 9.412894e+003
9.892130e+002, 9.575248e+003
9.896951e+002, 9.719037e+003
9.901772e+002, 9.847197e+003
9.906593e+002, 9.954850e+003
9.911414e+002, 1.005353e+004
9.916235e+002, 1.015659e+004
9.921057e+002, 1.025053e+004
9.925878e+002, 1.030596e+004
9.930699e+002, 1.032102e+004
9.935520e+002, 1.031591e+004
9.940341e+002, 1.029298e+004
9.945162e+002, 1.025742e+004
9.949984e+002, 1.021093e+004
9.954805e+002, 1.015733e+004
9.959626e+002, 1.010073e+004
9.964447e+002, 1.003991e+004
9.969268e+002, 9.982285e+003
9.974089e+002, 9.924013e+003
9.978911e+002, 9.876412e+003
9.983732e+002, 9.846011e+003
9.988553e+002, 9.832360e+003
9.993374e+002, 9.828982e+003
9.998195e+002, 9.836492e+003
1.000302e+003, 9.859481e+003
1.000784e+003, 9.901635e+003
1.001266e+003, 9.959501e+003
1.001748e+003, 1.003299e+004
1.002230e+003, 1.012111e+004
1.002712e+003, 1.021983e+004
1.003194e+003, 1.032519e+004
1.003676e+003, 1.044940e+004
1.004159e+003, 1.059929e+004
1.004641e+003, 1.075791e+004
1.005123e+003, 1.091513e+004
1.005605e+003, 1.106328e+004
1.006087e+003, 1.118774e+004
1.006569e+003, 1.128829e+004
1.007051e+003, 1.135698e+004
1.007533e+003, 1.140526e+004
1.008016e+003, 1.140600e+004
1.008498e+003, 1.134499e+004
1.008980e+003, 1.122431e+004
1.009462e+003, 1.106978e+004
1.009944e+003, 1.087897e+004
1.010426e+003, 1.067229e+004
1.010908e+003, 1.045855e+004
1.011390e+003, 1.023912e+004
1.011872e+003, 1.000590e+004
1.012355e+003, 9.768747e+003
1.012837e+003, 9.546384e+003
1.013319e+003, 9.349150e+003
1.013801e+003, 9.156668e+003
1.014283e+003, 8.964150e+003
1.014765e+003, 8.779929e+003
1.015247e+003, 8.612085e+003
1.015729e+003, 8.458050e+003
1.016211e+003, 8.310653e+003
1.016694e+003, 8.169301e+003
1.017176e+003, 8.039077e+003
1.017658e+003, 7.929178e+003
1.018140e+003, 7.826768e+003
1.018622e+003, 7.720518e+003
1.019104e+003, 7.611600e+003
1.019586e+003, 7.514222e+003
1.020068e+003, 7.429372e+003
1.020551e+003, 7.351928e+003
1.021033e+003, 7.280896e+003
1.021515e+003, 7.214999e+003
1.021997e+003, 7.154284e+003
1.022479e+003, 7.097435e+003
1.022961e+003, 7.041624e+003
1.023443e+003, 6.981190e+003
1.023925e+003, 6.932722e+003
1.024407e+003, 6.909443e+003
1.024890e+003, 6.890313e+003
1.025372e+003, 6.859042e+003
1.025854e+003, 6.815910e+003
1.026336e+003, 6.780756e+003
1.026818e+003, 6.753311e+003
1.027300e+003, 6.726130e+003
1.027782e+003, 6.689576e+003
1.028264e+003, 6.654903e+003
1.028746e+003, 6.633400e+003
1.029229e+003, 6.621922e+003
1.029711e+003, 6.606645e+003
1.030193e+003, 6.584809e+003
1.030675e+003, 6.563095e+003
1.031157e+003, 6.540837e+003
1.031639e+003, 6.523136e+003
1.032121e+003, 6.521475e+003
1.032603e+003, 6.528930e+003
1.033086e+003, 6.529456e+003
1.033568e+003, 6.519647e+003
1.034050e+003, 6.508061e+003
1.034532e+003, 6.496181e+003
1.035014e+003, 6.485801e+003
1.035496e+003, 6.477333e+003
1.035978e+003, 6.470984e+003
1.036460e+003, 6.469688e+003
1.036943e+003, 6.473367e+003
1.037425e+003, 6.476661e+003
1.037907e+003, 6.477445e+003
1.038389e+003, 6.476200e+003
1.038871e+003, 6.471626e+003
1.039353e+003, 6.465848e+003
1.039835e+003, 6.462618e+003
1.040317e+003, 6.462229e+003
1.040799e+003, 6.465883e+003
1.041281e+003, 6.475636e+003
1.041764e+003, 6.484832e+003
1.042246e+003, 6.486699e+003
1.042728e+003, 6.482929e+003
1.043210e+003, 6.475706e+003
1.043692e+003, 6.465749e+003
1.044174e+003, 6.460537e+003
1.044656e+003, 6.467938e+003
1.045138e+003, 6.476288e+003
1.045621e+003, 6.480660e+003
1.046103e+003, 6.482265e+003
1.046585e+003, 6.484128e+003
1.047067e+003, 6.486274e+003
1.047549e+003, 6.490618e+003
1.048031e+003, 6.498943e+003
1.048513e+003, 6.505129e+003
1.048995e+003, 6.500097e+003
1.049478e+003, 6.491025e+003
1.049960e+003, 6.486118e+003
1.050442e+003, 6.488036e+003
1.050924e+003, 6.489802e+003
1.051406e+003, 6.492753e+003
1.051888e+003, 6.491894e+003
1.052370e+003, 6.481663e+003
1.052852e+003, 6.466903e+003
1.053334e+003, 6.461490e+003
1.053817e+003, 6.462793e+003
1.054299e+003, 6.462284e+003
1.054781e+003, 6.456993e+003
1.055263e+003, 6.447829e+003
1.055745e+003, 6.430066e+003
1.056227e+003, 6.411909e+003
1.056709e+003, 6.404778e+003
1.057191e+003, 6.408891e+003
1.057673e+003, 6.404013e+003
1.058156e+003, 6.388177e+003
1.058638e+003, 6.373570e+003
1.059120e+003, 6.374605e+003
1.059602e+003, 6.377438e+003
1.060084e+003, 6.368978e+003
1.060566e+003, 6.349986e+003
1.061048e+003, 6.335592e+003
1.061530e+003, 6.327614e+003
1.062013e+003, 6.320669e+003
1.062495e+003, 6.313570e+003
1.062977e+003, 6.306687e+003
1.063459e+003, 6.299968e+003
1.063941e+003, 6.293969e+003
1.064423e+003, 6.289882e+003
1.064905e+003, 6.288626e+003
1.065387e+003, 6.286733e+003
1.065870e+003, 6.280280e+003
1.066352e+003, 6.275963e+003
1.066834e+003, 6.278638e+003
1.067316e+003, 6.286761e+003
1.067798e+003, 6.287278e+003
1.068280e+003, 6.281208e+003
1.068762e+003, 6.278058e+003
1.069244e+003, 6.287825e+003
1.069726e+003, 6.296518e+003
1.070208e+003, 6.292685e+003
1.070691e+003, 6.282667e+003
1.071173e+003, 6.277271e+003
1.071655e+003, 6.279004e+003
1.072137e+003, 6.275673e+003
1.072619e+003, 6.265371e+003
1.073101e+003, 6.257336e+003
1.073583e+003, 6.264535e+003
1.074065e+003, 6.276398e+003
1.074548e+003, 6.278231e+003
1.075030e+003, 6.270560e+003
1.075512e+003, 6.264089e+003
1.075994e+003, 6.262697e+003
1.076476e+003, 6.260362e+003
1.076958e+003, 6.253985e+003
1.077440e+003, 6.248604e+003
1.077922e+003, 6.257482e+003
1.078405e+003, 6.275293e+003
1.078887e+003, 6.284482e+003
1.079369e+003, 6.280859e+003
1.079851e+003, 6.273351e+003
1.080333e+003, 6.261995e+003
1.080815e+003, 6.252851e+003
1.081297e+003, 6.251126e+003
1.081779e+003, 6.255651e+003
1.082261e+003, 6.251725e+003
1.082744e+003, 6.239442e+003
1.083226e+003, 6.233984e+003
1.083708e+003, 6.246528e+003
1.084190e+003, 6.261590e+003
1.084672e+003, 6.263588e+003
1.085154e+003, 6.259185e+003
1.085636e+003, 6.258704e+003
1.086118e+003, 6.268189e+003
1.086601e+003, 6.268946e+003
1.087083e+003, 6.259274e+003
1.087565e+003, 6.247061e+003
1.088047e+003, 6.236773e+003
1.088529e+003, 6.229157e+003
1.089011e+003, 6.226893e+003
1.089493e+003, 6.228733e+003
1.089975e+003, 6.229259e+003
1.090458e+003, 6.223771e+003
1.090940e+003, 6.220994e+003
1.091422e+003, 6.223799e+003
1.091904e+003, 6.228404e+003
1.092386e+003, 6.228103e+003
1.092868e+003, 6.224483e+003
1.093350e+003, 6.225238e+003
1.093832e+003, 6.231427e+003
1.094314e+003, 6.236980e+003
1.094797e+003, 6.236847e+003
1.095279e+003, 6.236092e+003
1.095761e+003, 6.237300e+003
1.096243e+003, 6.240292e+003
1.096725e+003, 6.245438e+003
1.097207e+003, 6.252793e+003
1.097689e+003, 6.257242e+003
1.098171e+003, 6.255982e+003
1.098653e+003, 6.254827e+003
1.099136e+003, 6.263798e+003
1.099618e+003, 6.273676e+003
1.100100e+003, 6.271697e+003
1.100582e+003, 6.251350e+003
1.101064e+003, 6.245396e+003
1.101546e+003, 6.257538e+003
1.102028e+003, 6.270496e+003
1.102510e+003, 6.274784e+003
1.102993e+003, 6.274142e+003
1.103475e+003, 6.275352e+003
1.103957e+003, 6.277001e+003
1.104439e+003, 6.275870e+003
1.104921e+003, 6.265851e+003
1.105403e+003, 6.260920e+003
1.105885e+003, 6.264792e+003
1.106367e+003, 6.270000e+003
1.106849e+003, 6.269374e+003
1.107332e+003, 6.264194e+003
1.107814e+003, 6.258073e+003
1.108296e+003, 6.251647e+003
1.108778e+003, 6.248450e+003
1.109260e+003, 6.254462e+003
1.109742e+003, 6.259484e+003
1.110224e+003, 6.257878e+003
1.110706e+003, 6.253798e+003
1.111188e+003, 6.254649e+003
1.111671e+003, 6.260292e+003
1.112153e+003, 6.264508e+003
1.112635e+003, 6.266499e+003
1.113117e+003, 6.267600e+003
1.113599e+003, 6.266790e+003
1.114081e+003, 6.267352e+003
1.114563e+003, 6.273509e+003
1.115045e+003, 6.284267e+003
1.115528e+003, 6.289643e+003
1.116010e+003, 6.287922e+003
1.116492e+003, 6.291796e+003
1.116974e+003, 6.306779e+003
1.117456e+003, 6.323475e+003
1.117938e+003, 6.329737e+003
1.118420e+003, 6.330474e+003
1.118902e+003, 6.332045e+003
1.119385e+003, 6.335836e+003
1.119867e+003, 6.337646e+003
1.120349e+003, 6.335853e+003
1.120831e+003, 6.335519e+003
1.121313e+003, 6.340620e+003
1.121795e+003, 6.347560e+003
1.122277e+003, 6.347804e+003
1.122759e+003, 6.343920e+003
1.123241e+003, 6.342165e+003
1.123724e+003, 6.349366e+003
1.124206e+003, 6.351146e+003
1.124688e+003, 6.342720e+003
1.125170e+003, 6.333331e+003
1.125652e+003, 6.332204e+003
1.126134e+003, 6.337155e+003
1.126616e+003, 6.334944e+003
1.127098e+003, 6.326913e+003
1.127580e+003, 6.321331e+003
1.128063e+003, 6.323673e+003
1.128545e+003, 6.328273e+003
1.129027e+003, 6.333748e+003
1.129509e+003, 6.339473e+003
1.129991e+003, 6.344597e+003
1.130473e+003, 6.349034e+003
1.130955e+003, 6.352890e+003
1.131437e+003, 6.356037e+003
1.131920e+003, 6.359797e+003
1.132402e+003, 6.365073e+003
1.132884e+003, 6.371217e+003
1.133366e+003, 6.377344e+003
1.133848e+003, 6.383922e+003
1.134330e+003, 6.394237e+003
1.134812e+003, 6.409427e+003
1.135294e+003, 6.417607e+003
1.135776e+003, 6.414956e+003
1.136259e+003, 6.411277e+003
1.136741e+003, 6.418195e+003
1.137223e+003, 6.428351e+003
1.137705e+003, 6.434485e+003
1.138187e+003, 6.435461e+003
1.138669e+003, 6.434944e+003
1.139151e+003, 6.432264e+003
1.139633e+003, 6.430667e+003
1.140115e+003, 6.431360e+003
1.140598e+003, 6.433479e+003
1.141080e+003, 6.436011e+003
1.141562e+003, 6.439004e+003
1.142044e+003, 6.442733e+003
1.142526e+003, 6.447631e+003
1.143008e+003, 6.452166e+003
1.143490e+003, 6.457306e+003
1.143972e+003, 6.459761e+003
1.144455e+003, 6.456278e+003
1.144937e+003, 6.450077e+003
1.145419e+003, 6.449521e+003
1.145901e+003, 6.452493e+003
1.146383e+003, 6.453235e+003
1.146865e+003, 6.442948e+003
1.147347e+003, 6.442255e+003
1.147829e+003, 6.459188e+003
1.148312e+003, 6.478401e+003
1.148794e+003, 6.487570e+003
1.149276e+003, 6.488580e+003
1.149758e+003, 6.489190e+003
1.150240e+003, 6.489646e+003
1.150722e+003, 6.490882e+003
1.151204e+003, 6.492788e+003
1.151686e+003, 6.496426e+003
1.152168e+003, 6.504591e+003
1.152651e+003, 6.512479e+003
1.153133e+003, 6.513181e+003
1.153615e+003, 6.507634e+003
1.154097e+003, 6.506092e+003
1.154579e+003, 6.509058e+003
1.155061e+003, 6.511805e+003
1.155543e+003, 6.509218e+003
1.156025e+003, 6.507608e+003
1.156507e+003, 6.512016e+003
1.156990e+003, 6.519209e+003
1.157472e+003, 6.522167e+003
1.157954e+003, 6.520831e+003
1.158436e+003, 6.525112e+003
1.158918e+003, 6.536759e+003
1.159400e+003, 6.549288e+003
1.159882e+003, 6.558988e+003
1.160364e+003, 6.566199e+003
1.160847e+003, 6.571194e+003
1.161329e+003, 6.573897e+003
1.161811e+003, 6.573035e+003
1.162293e+003, 6.568288e+003
1.162775e+003, 6.563647e+003
1.163257e+003, 6.559823e+003
1.163739e+003, 6.557486e+003
1.164221e+003, 6.559017e+003
1.164703e+003, 6.561219e+003
1.165186e+003, 6.560003e+003
1.165668e+003, 6.554926e+003
1.166150e+003, 6.554501e+003
1.166632e+003, 6.559768e+003
1.167114e+003, 6.563694e+003
1.167596e+003, 6.562139e+003
1.168078e+003, 6.561595e+003
1.168560e+003, 6.576100e+003
1.169042e+003, 6.594112e+003
1.169525e+003, 6.598075e+003
1.170007e+003, 6.579284e+003
1.170489e+003, 6.570257e+003
1.170971e+003, 6.572086e+003
1.171453e+003, 6.579957e+003
1.171935e+003, 6.594534e+003
1.172417e+003, 6.609944e+003
1.172899e+003, 6.614768e+003
1.173382e+003, 6.614213e+003
1.173864e+003, 6.617833e+003
1.174346e+003, 6.630753e+003
1.174828e+003, 6.642146e+003
1.175310e+003, 6.651796e+003
1.175792e+003, 6.659880e+003
1.176274e+003, 6.669219e+003
1.176756e+003, 6.675675e+003
1.177239e+003, 6.665941e+003
1.177721e+003, 6.647207e+003
1.178203e+003, 6.637989e+003
1.178685e+003, 6.654159e+003
1.179167e+003, 6.666083e+003
1.179649e+003, 6.672101e+003
1.180131e+003, 6.674089e+003
1.180613e+003, 6.671747e+003
1.181095e+003, 6.667642e+003
1.181578e+003, 6.668412e+003
1.182060e+003, 6.673029e+003
1.182542e+003, 6.676005e+003
1.183024e+003, 6.671815e+003
1.183506e+003, 6.671157e+003
1.183988e+003, 6.676183e+003
1.184470e+003, 6.683849e+003
1.184952e+003, 6.691073e+003
1.185434e+003, 6.697941e+003
1.185917e+003, 6.706721e+003
1.186399e+003, 6.716486e+003
1.186881e+003, 6.719530e+003
1.187363e+003, 6.700518e+003
1.187845e+003, 6.690744e+003
1.188327e+003, 6.698478e+003
1.188809e+003, 6.715626e+003
1.189291e+003, 6.734524e+003
1.189774e+003, 6.752316e+003
1.190256e+003, 6.759060e+003
1.190738e+003, 6.753772e+003
1.191220e+003, 6.747931e+003
1.191702e+003, 6.746870e+003
1.192184e+003, 6.745449e+003
1.192666e+003, 6.741008e+003
1.193148e+003, 6.736622e+003
1.193630e+003, 6.738663e+003
1.194113e+003, 6.746104e+003
1.194595e+003, 6.756715e+003
1.195077e+003, 6.770642e+003
1.195559e+003, 6.780928e+003
1.196041e+003, 6.783700e+003
1.196523e+003, 6.782341e+003
1.197005e+003, 6.776609e+003
1.197487e+003, 6.769020e+003
1.197969e+003, 6.765549e+003
1.198452e+003, 6.766053e+003
1.198934e+003, 6.771055e+003
1.199416e+003, 6.781764e+003
1.199898e+003, 6.790149e+003
1.200380e+003, 6.790759e+003
1.200862e+003, 6.789582e+003
1.201344e+003, 6.789120e+003
1.201826e+003, 6.789160e+003
1.202309e+003, 6.788428e+003
1.202791e+003, 6.787566e+003
1.203273e+003, 6.790094e+003
1.203755e+003, 6.799642e+003
1.204237e+003, 6.804794e+003
1.204719e+003, 6.794354e+003
1.205201e+003, 6.784446e+003
1.205683e+003, 6.785043e+003
1.206166e+003, 6.793494e+003
1.206648e+003, 6.798900e+003
1.207130e+003, 6.800927e+003
1.207612e+003, 6.796952e+003
1.208094e+003, 6.780120e+003
1.208576e+003, 6.770341e+003
1.209058e+003, 6.782553e+003
1.209540e+003, 6.798691e+003
1.210022e+003, 6.807320e+003
1.210505e+003, 6.809995e+003
1.210987e+003, 6.816901e+003
1.211469e+003, 6.826965e+003
1.211951e+003, 6.834888e+003
1.212433e+003, 6.835863e+003
1.212915e+003, 6.838438e+003
1.213397e+003, 6.846508e+003
1.213879e+003, 6.856675e+003
1.214361e+003, 6.868192e+003
1.214844e+003, 6.880002e+003
1.215326e+003, 6.882860e+003
1.215808e+003, 6.878412e+003
1.216290e+003, 6.875208e+003
1.216772e+003, 6.876655e+003
1.217254e+003, 6.881094e+003
1.217736e+003, 6.890763e+003
1.218218e+003, 6.900159e+003
1.218701e+003, 6.903983e+003
1.219183e+003, 6.903140e+003
1.219665e+003, 6.905703e+003
1.220147e+003, 6.910310e+003
1.220629e+003, 6.909285e+003
1.221111e+003, 6.888531e+003
1.221593e+003, 6.875926e+003
1.222075e+003, 6.883958e+003
1.222557e+003, 6.897387e+003
1.223040e+003, 6.900459e+003
1.223522e+003, 6.895668e+003
1.224004e+003, 6.895143e+003
1.224486e+003, 6.898595e+003
1.224968e+003, 6.901700e+003
1.225450e+003, 6.901276e+003
1.225932e+003, 6.901807e+003
1.226414e+003, 6.904531e+003
1.226896e+003, 6.908227e+003
1.227379e+003, 6.911594e+003
1.227861e+003, 6.914655e+003
1.228343e+003, 6.917730e+003
1.228825e+003, 6.920764e+003
1.229307e+003, 6.923582e+003
1.229789e+003, 6.926146e+003
1.230271e+003, 6.928198e+003
1.230753e+003, 6.929160e+003
1.231236e+003, 6.930452e+003
1.231718e+003, 6.936382e+003
1.232200e+003, 6.943620e+003
1.232682e+003, 6.939100e+003
1.233164e+003, 6.924265e+003
1.233646e+003, 6.917026e+003
1.234128e+003, 6.931707e+003
1.234610e+003, 6.946025e+003
1.235093e+003, 6.956661e+003
1.235575e+003, 6.963542e+003
1.236057e+003, 6.964300e+003
1.236539e+003, 6.961773e+003
1.237021e+003, 6.961963e+003
1.237503e+003, 6.965263e+003
1.237985e+003, 6.970299e+003
1.238467e+003, 6.978819e+003
1.238949e+003, 6.985426e+003
1.239432e+003, 6.988810e+003
1.239914e+003, 6.990792e+003
1.240396e+003, 6.993605e+003
1.240878e+003, 6.996845e+003
1.241360e+003, 6.997954e+003
1.241842e+003, 6.997367e+003
1.242324e+003, 7.004310e+003
1.242806e+003, 7.025458e+003
1.243288e+003, 7.044134e+003
1.243771e+003, 7.057952e+003
1.244253e+003, 7.066611e+003
1.244735e+003, 7.068188e+003
1.245217e+003, 7.065364e+003
1.245699e+003, 7.060232e+003
1.246181e+003, 7.053544e+003
1.246663e+003, 7.053632e+003
1.247145e+003, 7.063730e+003
1.247628e+003, 7.072456e+003
1.248110e+003, 7.077325e+003
1.248592e+003, 7.080569e+003
1.249074e+003, 7.086226e+003
1.249556e+003, 7.090998e+003
1.250038e+003, 7.090926e+003
1.250520e+003, 7.085615e+003
1.251002e+003, 7.076534e+003
1.251484e+003, 7.060492e+003
1.251967e+003, 7.057177e+003
1.252449e+003, 7.073749e+003
1.252931e+003, 7.093302e+003
1.253413e+003, 7.097633e+003
1.253895e+003, 7.095434e+003
1.254377e+003, 7.093963e+003
1.254859e+003, 7.094084e+003
1.255341e+003, 7.097846e+003
1.255823e+003, 7.106146e+003
1.256306e+003, 7.109103e+003
1.256788e+003, 7.103484e+003
1.257270e+003, 7.096707e+003
1.257752e+003, 7.092198e+003
1.258234e+003, 7.092369e+003
1.258716e+003, 7.102256e+003
1.259198e+003, 7.119216e+003
1.259680e+003, 7.132316e+003
1.260163e+003, 7.141623e+003
1.260645e+003, 7.140350e+003
1.261127e+003, 7.124897e+003
1.261609e+003, 7.112552e+003
1.262091e+003, 7.122029e+003
1.262573e+003, 7.134144e+003
1.263055e+003, 7.135154e+003
1.263537e+003, 7.128425e+003
1.264020e+003, 7.126210e+003
1.264502e+003, 7.127903e+003
1.264984e+003, 7.127911e+003
1.265466e+003, 7.124208e+003
1.265948e+003, 7.124452e+003
1.266430e+003, 7.141484e+003
1.266912e+003, 7.153835e+003
1.267394e+003, 7.147950e+003
1.267876e+003, 7.132256e+003
1.268359e+003, 7.130177e+003
1.268841e+003, 7.138586e+003
1.269323e+003, 7.147353e+003
1.269805e+003, 7.154854e+003
1.270287e+003, 7.157387e+003
1.270769e+003, 7.144434e+003
1.271251e+003, 7.138135e+003
1.271733e+003, 7.149022e+003
1.272215e+003, 7.167084e+003
1.272698e+003, 7.169110e+003
1.273180e+003, 7.161515e+003
1.273662e+003, 7.159724e+003
1.274144e+003, 7.167752e+003
1.274626e+003, 7.169382e+003
1.275108e+003, 7.156526e+003
1.275590e+003, 7.148544e+003
1.276072e+003, 7.152737e+003
1.276555e+003, 7.162938e+003
1.277037e+003, 7.169988e+003
1.277519e+003, 7.175548e+003
1.278001e+003, 7.181674e+003
1.278483e+003, 7.188433e+003
1.278965e+003, 7.199592e+003
1.279447e+003, 7.218085e+003
1.279929e+003, 7.228790e+003
1.280411e+003, 7.225137e+003
1.280894e+003, 7.216867e+003
1.281376e+003, 7.213773e+003
1.281858e+003, 7.214110e+003
1.282340e+003, 7.215535e+003
1.282822e+003, 7.218064e+003
1.283304e+003, 7.226420e+003
1.283786e+003, 7.241647e+003
1.284268e+003, 7.251421e+003
1.284750e+003, 7.251897e+003
1.285233e+003, 7.248919e+003
1.285715e+003, 7.245636e+003
1.286197e+003, 7.243368e+003
1.286679e+003, 7.243496e+003
1.287161e+003, 7.245703e+003
1.287643e+003, 7.250256e+003
1.288125e+003, 7.256669e+003
1.288607e+003, 7.256155e+003
1.289090e+003, 7.245335e+003
1.289572e+003, 7.236688e+003
1.290054e+003, 7.238292e+003
1.290536e+003, 7.244491e+003
1.291018e+003, 7.252896e+003
1.291500e+003, 7.262425e+003
1.291982e+003, 7.270615e+003
1.292464e+003, 7.277307e+003
1.292947e+003, 7.281091e+003
1.293429e+003, 7.281022e+003
1.293911e+003, 7.284697e+003
1.294393e+003, 7.300635e+003
1.294875e+003, 7.313382e+003
1.295357e+003, 7.317491e+003
1.295839e+003, 7.316313e+003
1.296321e+003, 7.314083e+003
1.296803e+003, 7.313410e+003
1.297286e+003, 7.320987e+003
1.297768e+003, 7.338169e+003
1.298250e+003, 7.347560e+003
1.298732e+003, 7.343241e+003
1.299214e+003, 7.342659e+003
1.299696e+003, 7.352364e+003
1.300178e+003, 7.362674e+003
1.300660e+003, 7.366806e+003
##END=



