##NAMES=Malhmoodite
##RRUFFID=R200009
##IDEAL CHEMISTRY=Fe^2+^Zr^4+^(P^5+^O_4_)_2_&#183;4H_2_O
##LOCALITY=Scott's R.Q. mine, Custer Co., South Dakota, U.S.A.
##OWNER=RRUFF
##SOURCE=Tom Loomis
##DESCRIPTION=Yellowish flat lying plates, divergent groups on matrix.
##STATUS=The identification of this mineral has been confirmed by X-ray diffraction.
##URL=rruff.info/R200009
##MEASURED CHEMISTRY=Fe_1.06_(Zr_1.10_Hf_0.03_)_Σ1.13_[(P_1.85_As_0.02_)_Σ1.87_O_4_]_2_·4H_2_O. Microprobe also detected trace UO_2_.
8.758203e+001, 3.719178e+004
8.806415e+001, 3.507731e+004
8.854626e+001, 3.470243e+004
8.902838e+001, 3.667429e+004
8.951050e+001, 3.932934e+004
8.999261e+001, 4.218384e+004
9.047473e+001, 4.516409e+004
9.095685e+001, 4.819029e+004
9.143896e+001, 5.120601e+004
9.192108e+001, 5.421621e+004
9.240320e+001, 5.718190e+004
9.288531e+001, 5.938634e+004
9.336743e+001, 6.038044e+004
9.384955e+001, 6.041820e+004
9.433167e+001, 6.040337e+004
9.481378e+001, 6.011530e+004
9.529590e+001, 5.982171e+004
9.577802e+001, 5.956268e+004
9.626013e+001, 5.936296e+004
9.674225e+001, 5.923684e+004
9.722437e+001, 5.916875e+004
9.770648e+001, 5.909820e+004
9.818860e+001, 5.898733e+004
9.867072e+001, 5.889043e+004
9.915283e+001, 5.884465e+004
9.963495e+001, 5.884513e+004
1.001171e+002, 5.884415e+004
1.005992e+002, 5.876787e+004
1.010813e+002, 5.854829e+004
1.015634e+002, 5.840084e+004
1.020455e+002, 5.832096e+004
1.025277e+002, 5.828010e+004
1.030098e+002, 5.825704e+004
1.034919e+002, 5.824144e+004
1.039740e+002, 5.823421e+004
1.044561e+002, 5.824588e+004
1.049382e+002, 5.829305e+004
1.054204e+002, 5.832924e+004
1.059025e+002, 5.833688e+004
1.063846e+002, 5.832658e+004
1.068667e+002, 5.831558e+004
1.073488e+002, 5.831145e+004
1.078309e+002, 5.831466e+004
1.083131e+002, 5.833485e+004
1.087952e+002, 5.838839e+004
1.092773e+002, 5.843961e+004
1.097594e+002, 5.846464e+004
1.102415e+002, 5.846330e+004
1.107236e+002, 5.845483e+004
1.112058e+002, 5.844803e+004
1.116879e+002, 5.844511e+004
1.121700e+002, 5.845446e+004
1.126521e+002, 5.849961e+004
1.131342e+002, 5.855288e+004
1.136163e+002, 5.856664e+004
1.140985e+002, 5.853069e+004
1.145806e+002, 5.847031e+004
1.150627e+002, 5.838048e+004
1.155448e+002, 5.827882e+004
1.160269e+002, 5.820879e+004
1.165090e+002, 5.821773e+004
1.169912e+002, 5.830355e+004
1.174733e+002, 5.836001e+004
1.179554e+002, 5.835919e+004
1.184375e+002, 5.834649e+004
1.189196e+002, 5.833156e+004
1.194017e+002, 5.831814e+004
1.198839e+002, 5.831134e+004
1.203660e+002, 5.831794e+004
1.208481e+002, 5.834213e+004
1.213302e+002, 5.836622e+004
1.218123e+002, 5.839650e+004
1.222944e+002, 5.841998e+004
1.227766e+002, 5.842203e+004
1.232587e+002, 5.840014e+004
1.237408e+002, 5.836932e+004
1.242229e+002, 5.835882e+004
1.247050e+002, 5.839156e+004
1.251871e+002, 5.841419e+004
1.256693e+002, 5.842896e+004
1.261514e+002, 5.843219e+004
1.266335e+002, 5.841609e+004
1.271156e+002, 5.837521e+004
1.275977e+002, 5.831904e+004
1.280798e+002, 5.827836e+004
1.285620e+002, 5.827784e+004
1.290441e+002, 5.825423e+004
1.295262e+002, 5.815457e+004
1.300083e+002, 5.800042e+004
1.304904e+002, 5.788406e+004
1.309725e+002, 5.786290e+004
1.314547e+002, 5.791046e+004
1.319368e+002, 5.795939e+004
1.324189e+002, 5.801657e+004
1.329010e+002, 5.806352e+004
1.333831e+002, 5.806977e+004
1.338652e+002, 5.802453e+004
1.343474e+002, 5.799840e+004
1.348295e+002, 5.805670e+004
1.353116e+002, 5.814613e+004
1.357937e+002, 5.820866e+004
1.362758e+002, 5.821365e+004
1.367579e+002, 5.818368e+004
1.372401e+002, 5.817950e+004
1.377222e+002, 5.821930e+004
1.382043e+002, 5.825756e+004
1.386864e+002, 5.828036e+004
1.391685e+002, 5.829148e+004
1.396507e+002, 5.829639e+004
1.401328e+002, 5.829762e+004
1.406149e+002, 5.829521e+004
1.410970e+002, 5.829489e+004
1.415791e+002, 5.829039e+004
1.420612e+002, 5.829407e+004
1.425434e+002, 5.831392e+004
1.430255e+002, 5.834592e+004
1.435076e+002, 5.838061e+004
1.439897e+002, 5.841038e+004
1.444718e+002, 5.843634e+004
1.449539e+002, 5.844845e+004
1.454361e+002, 5.844477e+004
1.459182e+002, 5.843249e+004
1.464003e+002, 5.840870e+004
1.468824e+002, 5.837614e+004
1.473645e+002, 5.834943e+004
1.478466e+002, 5.834842e+004
1.483288e+002, 5.838596e+004
1.488109e+002, 5.840058e+004
1.492930e+002, 5.835705e+004
1.497751e+002, 5.830508e+004
1.502572e+002, 5.830908e+004
1.507393e+002, 5.838960e+004
1.512215e+002, 5.848486e+004
1.517036e+002, 5.849373e+004
1.521857e+002, 5.842040e+004
1.526678e+002, 5.836027e+004
1.531499e+002, 5.835515e+004
1.536320e+002, 5.838618e+004
1.541142e+002, 5.840727e+004
1.545963e+002, 5.840647e+004
1.550784e+002, 5.839372e+004
1.555605e+002, 5.838216e+004
1.560426e+002, 5.837209e+004
1.565247e+002, 5.835684e+004
1.570069e+002, 5.832360e+004
1.574890e+002, 5.827324e+004
1.579711e+002, 5.824321e+004
1.584532e+002, 5.825542e+004
1.589353e+002, 5.828269e+004
1.594174e+002, 5.831161e+004
1.598996e+002, 5.834007e+004
1.603817e+002, 5.836492e+004
1.608638e+002, 5.838509e+004
1.613459e+002, 5.840440e+004
1.618280e+002, 5.840414e+004
1.623102e+002, 5.836422e+004
1.627923e+002, 5.831603e+004
1.632744e+002, 5.827646e+004
1.637565e+002, 5.825100e+004
1.642386e+002, 5.823959e+004
1.647207e+002, 5.824457e+004
1.652029e+002, 5.828620e+004
1.656850e+002, 5.831048e+004
1.661671e+002, 5.830284e+004
1.666492e+002, 5.828339e+004
1.671313e+002, 5.826886e+004
1.676134e+002, 5.826659e+004
1.680956e+002, 5.827430e+004
1.685777e+002, 5.828545e+004
1.690598e+002, 5.830499e+004
1.695419e+002, 5.832267e+004
1.700240e+002, 5.833535e+004
1.705061e+002, 5.834652e+004
1.709883e+002, 5.836083e+004
1.714704e+002, 5.838067e+004
1.719525e+002, 5.840577e+004
1.724346e+002, 5.843512e+004
1.729167e+002, 5.848825e+004
1.733988e+002, 5.852468e+004
1.738810e+002, 5.851875e+004
1.743631e+002, 5.848485e+004
1.748452e+002, 5.846030e+004
1.753273e+002, 5.846640e+004
1.758094e+002, 5.849733e+004
1.762915e+002, 5.852649e+004
1.767737e+002, 5.855846e+004
1.772558e+002, 5.858429e+004
1.777379e+002, 5.858787e+004
1.782200e+002, 5.857244e+004
1.787021e+002, 5.857720e+004
1.791842e+002, 5.864417e+004
1.796664e+002, 5.873874e+004
1.801485e+002, 5.879172e+004
1.806306e+002, 5.877087e+004
1.811127e+002, 5.873238e+004
1.815948e+002, 5.874525e+004
1.820769e+002, 5.882049e+004
1.825591e+002, 5.888255e+004
1.830412e+002, 5.887453e+004
1.835233e+002, 5.883540e+004
1.840054e+002, 5.880375e+004
1.844875e+002, 5.879464e+004
1.849696e+002, 5.879618e+004
1.854518e+002, 5.878371e+004
1.859339e+002, 5.874540e+004
1.864160e+002, 5.872002e+004
1.868981e+002, 5.873842e+004
1.873802e+002, 5.877085e+004
1.878623e+002, 5.877841e+004
1.883445e+002, 5.873475e+004
1.888266e+002, 5.866265e+004
1.893087e+002, 5.864412e+004
1.897908e+002, 5.873698e+004
1.902729e+002, 5.880371e+004
1.907550e+002, 5.880730e+004
1.912372e+002, 5.876890e+004
1.917193e+002, 5.871322e+004
1.922014e+002, 5.865230e+004
1.926835e+002, 5.858959e+004
1.931656e+002, 5.854823e+004
1.936477e+002, 5.855211e+004
1.941299e+002, 5.855632e+004
1.946120e+002, 5.855146e+004
1.950941e+002, 5.854223e+004
1.955762e+002, 5.853798e+004
1.960583e+002, 5.854552e+004
1.965404e+002, 5.856386e+004
1.970226e+002, 5.857543e+004
1.975047e+002, 5.857423e+004
1.979868e+002, 5.857255e+004
1.984689e+002, 5.856314e+004
1.989510e+002, 5.855469e+004
1.994331e+002, 5.856987e+004
1.999153e+002, 5.863015e+004
2.003974e+002, 5.873263e+004
2.008795e+002, 5.878121e+004
2.013616e+002, 5.872627e+004
2.018437e+002, 5.867698e+004
2.023258e+002, 5.869772e+004
2.028080e+002, 5.877139e+004
2.032901e+002, 5.882636e+004
2.037722e+002, 5.880719e+004
2.042543e+002, 5.871804e+004
2.047364e+002, 5.865207e+004
2.052185e+002, 5.862801e+004
2.057007e+002, 5.860967e+004
2.061828e+002, 5.856934e+004
2.066649e+002, 5.850965e+004
2.071470e+002, 5.845993e+004
2.076291e+002, 5.843838e+004
2.081112e+002, 5.844715e+004
2.085934e+002, 5.847688e+004
2.090755e+002, 5.856065e+004
2.095576e+002, 5.864388e+004
2.100397e+002, 5.867573e+004
2.105218e+002, 5.865475e+004
2.110039e+002, 5.861548e+004
2.114861e+002, 5.855748e+004
2.119682e+002, 5.850075e+004
2.124503e+002, 5.848778e+004
2.129324e+002, 5.855652e+004
2.134145e+002, 5.865154e+004
2.138967e+002, 5.869881e+004
2.143788e+002, 5.868689e+004
2.148609e+002, 5.868001e+004
2.153430e+002, 5.873548e+004
2.158251e+002, 5.881363e+004
2.163072e+002, 5.886395e+004
2.167894e+002, 5.886089e+004
2.172715e+002, 5.883081e+004
2.177536e+002, 5.882036e+004
2.182357e+002, 5.883674e+004
2.187178e+002, 5.885212e+004
2.191999e+002, 5.885353e+004
2.196821e+002, 5.884774e+004
2.201642e+002, 5.884204e+004
2.206463e+002, 5.883965e+004
2.211284e+002, 5.883927e+004
2.216105e+002, 5.883793e+004
2.220926e+002, 5.883652e+004
2.225748e+002, 5.883382e+004
2.230569e+002, 5.883671e+004
2.235390e+002, 5.883698e+004
2.240211e+002, 5.882269e+004
2.245032e+002, 5.878622e+004
2.249853e+002, 5.873847e+004
2.254675e+002, 5.870672e+004
2.259496e+002, 5.868654e+004
2.264317e+002, 5.869520e+004
2.269138e+002, 5.876345e+004
2.273959e+002, 5.884810e+004
2.278780e+002, 5.889762e+004
2.283602e+002, 5.888498e+004
2.288423e+002, 5.883249e+004
2.293244e+002, 5.881444e+004
2.298065e+002, 5.886947e+004
2.302886e+002, 5.890529e+004
2.307707e+002, 5.888257e+004
2.312529e+002, 5.884424e+004
2.317350e+002, 5.884330e+004
2.322171e+002, 5.890554e+004
2.326992e+002, 5.900879e+004
2.331813e+002, 5.908277e+004
2.336634e+002, 5.910834e+004
2.341456e+002, 5.912243e+004
2.346277e+002, 5.912619e+004
2.351098e+002, 5.912070e+004
2.355919e+002, 5.911157e+004
2.360740e+002, 5.910170e+004
2.365561e+002, 5.908135e+004
2.370383e+002, 5.902081e+004
2.375204e+002, 5.883331e+004
2.380025e+002, 5.870932e+004
2.384846e+002, 5.869684e+004
2.389667e+002, 5.874241e+004
2.394488e+002, 5.878405e+004
2.399310e+002, 5.879622e+004
2.404131e+002, 5.879038e+004
2.408952e+002, 5.879479e+004
2.413773e+002, 5.881616e+004
2.418594e+002, 5.883958e+004
2.423415e+002, 5.886825e+004
2.428237e+002, 5.889688e+004
2.433058e+002, 5.892028e+004
2.437879e+002, 5.893688e+004
2.442700e+002, 5.894383e+004
2.447521e+002, 5.893247e+004
2.452342e+002, 5.888866e+004
2.457164e+002, 5.885446e+004
2.461985e+002, 5.883688e+004
2.466806e+002, 5.883130e+004
2.471627e+002, 5.883661e+004
2.476448e+002, 5.885437e+004
2.481269e+002, 5.887002e+004
2.486091e+002, 5.885164e+004
2.490912e+002, 5.878504e+004
2.495733e+002, 5.873851e+004
2.500554e+002, 5.874272e+004
2.505375e+002, 5.877032e+004
2.510196e+002, 5.878067e+004
2.515018e+002, 5.876249e+004
2.519839e+002, 5.872986e+004
2.524660e+002, 5.869791e+004
2.529481e+002, 5.866526e+004
2.534302e+002, 5.864720e+004
2.539123e+002, 5.865731e+004
2.543945e+002, 5.868246e+004
2.548766e+002, 5.870033e+004
2.553587e+002, 5.870414e+004
2.558408e+002, 5.871020e+004
2.563229e+002, 5.874570e+004
2.568051e+002, 5.880625e+004
2.572872e+002, 5.885725e+004
2.577693e+002, 5.889042e+004
2.582514e+002, 5.890727e+004
2.587335e+002, 5.890591e+004
2.592156e+002, 5.888129e+004
2.596978e+002, 5.885344e+004
2.601799e+002, 5.883602e+004
2.606620e+002, 5.882806e+004
2.611441e+002, 5.883650e+004
2.616262e+002, 5.887068e+004
2.621083e+002, 5.891925e+004
2.625905e+002, 5.896859e+004
2.630726e+002, 5.902047e+004
2.635547e+002, 5.906102e+004
2.640368e+002, 5.907445e+004
2.645189e+002, 5.906863e+004
2.650010e+002, 5.905527e+004
2.654832e+002, 5.903757e+004
2.659653e+002, 5.901541e+004
2.664474e+002, 5.898723e+004
2.669295e+002, 5.895200e+004
2.674116e+002, 5.891704e+004
2.678937e+002, 5.888547e+004
2.683759e+002, 5.885817e+004
2.688580e+002, 5.883516e+004
2.693401e+002, 5.880738e+004
2.698222e+002, 5.879291e+004
2.703043e+002, 5.882979e+004
2.707864e+002, 5.893280e+004
2.712686e+002, 5.902361e+004
2.717507e+002, 5.905913e+004
2.722328e+002, 5.906323e+004
2.727149e+002, 5.905274e+004
2.731970e+002, 5.902500e+004
2.736791e+002, 5.899876e+004
2.741613e+002, 5.900722e+004
2.746434e+002, 5.906011e+004
2.751255e+002, 5.909624e+004
2.756076e+002, 5.907227e+004
2.760897e+002, 5.903086e+004
2.765718e+002, 5.900372e+004
2.770540e+002, 5.899842e+004
2.775361e+002, 5.900540e+004
2.780182e+002, 5.901841e+004
2.785003e+002, 5.904011e+004
2.789824e+002, 5.905023e+004
2.794645e+002, 5.902951e+004
2.799467e+002, 5.900468e+004
2.804288e+002, 5.899234e+004
2.809109e+002, 5.899526e+004
2.813930e+002, 5.900845e+004
2.818751e+002, 5.903029e+004
2.823572e+002, 5.906195e+004
2.828394e+002, 5.908822e+004
2.833215e+002, 5.908252e+004
2.838036e+002, 5.909157e+004
2.842857e+002, 5.915459e+004
2.847678e+002, 5.926590e+004
2.852499e+002, 5.937800e+004
2.857321e+002, 5.944517e+004
2.862142e+002, 5.946575e+004
2.866963e+002, 5.948876e+004
2.871784e+002, 5.951985e+004
2.876605e+002, 5.954876e+004
2.881426e+002, 5.957470e+004
2.886248e+002, 5.959464e+004
2.891069e+002, 5.960128e+004
2.895890e+002, 5.958676e+004
2.900711e+002, 5.955194e+004
2.905532e+002, 5.951226e+004
2.910353e+002, 5.945854e+004
2.915175e+002, 5.941046e+004
2.919996e+002, 5.937234e+004
2.924817e+002, 5.934488e+004
2.929638e+002, 5.933141e+004
2.934459e+002, 5.934002e+004
2.939280e+002, 5.936239e+004
2.944102e+002, 5.935853e+004
2.948923e+002, 5.931134e+004
2.953744e+002, 5.926530e+004
2.958565e+002, 5.924024e+004
2.963386e+002, 5.922373e+004
2.968207e+002, 5.919633e+004
2.973029e+002, 5.914583e+004
2.977850e+002, 5.908932e+004
2.982671e+002, 5.907602e+004
2.987492e+002, 5.914430e+004
2.992313e+002, 5.917938e+004
2.997134e+002, 5.913293e+004
3.001956e+002, 5.905856e+004
3.006777e+002, 5.900566e+004
3.011598e+002, 5.899103e+004
3.016419e+002, 5.899474e+004
3.021240e+002, 5.897755e+004
3.026061e+002, 5.891934e+004
3.030883e+002, 5.889739e+004
3.035704e+002, 5.895647e+004
3.040525e+002, 5.902932e+004
3.045346e+002, 5.906956e+004
3.050167e+002, 5.906893e+004
3.054988e+002, 5.905318e+004
3.059810e+002, 5.905633e+004
3.064631e+002, 5.908588e+004
3.069452e+002, 5.909679e+004
3.074273e+002, 5.906798e+004
3.079094e+002, 5.903298e+004
3.083915e+002, 5.900157e+004
3.088737e+002, 5.897671e+004
3.093558e+002, 5.896118e+004
3.098379e+002, 5.895893e+004
3.103200e+002, 5.897027e+004
3.108021e+002, 5.898517e+004
3.112842e+002, 5.900784e+004
3.117664e+002, 5.902976e+004
3.122485e+002, 5.905669e+004
3.127306e+002, 5.908071e+004
3.132127e+002, 5.908639e+004
3.136948e+002, 5.906198e+004
3.141769e+002, 5.901068e+004
3.146591e+002, 5.894768e+004
3.151412e+002, 5.884709e+004
3.156233e+002, 5.877319e+004
3.161054e+002, 5.874730e+004
3.165875e+002, 5.875551e+004
3.170696e+002, 5.878610e+004
3.175518e+002, 5.883861e+004
3.180339e+002, 5.889494e+004
3.185160e+002, 5.890434e+004
3.189981e+002, 5.884159e+004
3.194802e+002, 5.878395e+004
3.199623e+002, 5.874734e+004
3.204445e+002, 5.872333e+004
3.209266e+002, 5.870690e+004
3.214087e+002, 5.869642e+004
3.218908e+002, 5.868980e+004
3.223729e+002, 5.868451e+004
3.228550e+002, 5.868135e+004
3.233372e+002, 5.867664e+004
3.238193e+002, 5.866977e+004
3.243014e+002, 5.866075e+004
3.247835e+002, 5.864457e+004
3.252656e+002, 5.862272e+004
3.257477e+002, 5.860681e+004
3.262299e+002, 5.861069e+004
3.267120e+002, 5.863573e+004
3.271941e+002, 5.865945e+004
3.276762e+002, 5.868429e+004
3.281583e+002, 5.870241e+004
3.286404e+002, 5.871201e+004
3.291226e+002, 5.871173e+004
3.296047e+002, 5.869846e+004
3.300868e+002, 5.866275e+004
3.305689e+002, 5.861040e+004
3.310510e+002, 5.858048e+004
3.315331e+002, 5.857244e+004
3.320153e+002, 5.859200e+004
3.324974e+002, 5.866946e+004
3.329795e+002, 5.876588e+004
3.334616e+002, 5.882368e+004
3.339437e+002, 5.881234e+004
3.344258e+002, 5.875550e+004
3.349080e+002, 5.870541e+004
3.353901e+002, 5.866873e+004
3.358722e+002, 5.862418e+004
3.363543e+002, 5.855743e+004
3.368365e+002, 5.848620e+004
3.373186e+002, 5.842065e+004
3.378007e+002, 5.836316e+004
3.382828e+002, 5.832538e+004
3.387649e+002, 5.833303e+004
3.392470e+002, 5.839506e+004
3.397292e+002, 5.843398e+004
3.402113e+002, 5.841212e+004
3.406934e+002, 5.837797e+004
3.411755e+002, 5.834977e+004
3.416576e+002, 5.833202e+004
3.421397e+002, 5.834080e+004
3.426219e+002, 5.840659e+004
3.431040e+002, 5.852105e+004
3.435861e+002, 5.860016e+004
3.440682e+002, 5.862092e+004
3.445503e+002, 5.862527e+004
3.450324e+002, 5.864937e+004
3.455146e+002, 5.867908e+004
3.459967e+002, 5.867759e+004
3.464788e+002, 5.859848e+004
3.469609e+002, 5.848363e+004
3.474430e+002, 5.844653e+004
3.479251e+002, 5.851837e+004
3.484073e+002, 5.858211e+004
3.488894e+002, 5.856683e+004
3.493715e+002, 5.851494e+004
3.498536e+002, 5.847658e+004
3.503357e+002, 5.847180e+004
3.508178e+002, 5.847324e+004
3.513000e+002, 5.844237e+004
3.517821e+002, 5.837748e+004
3.522642e+002, 5.832693e+004
3.527463e+002, 5.831907e+004
3.532284e+002, 5.832514e+004
3.537105e+002, 5.831376e+004
3.541927e+002, 5.828185e+004
3.546748e+002, 5.824904e+004
3.551569e+002, 5.822263e+004
3.556390e+002, 5.820504e+004
3.561211e+002, 5.821030e+004
3.566032e+002, 5.825269e+004
3.570854e+002, 5.829848e+004
3.575675e+002, 5.832179e+004
3.580496e+002, 5.832425e+004
3.585317e+002, 5.830548e+004
3.590138e+002, 5.825030e+004
3.594959e+002, 5.817896e+004
3.599781e+002, 5.811590e+004
3.604602e+002, 5.805936e+004
3.609423e+002, 5.803307e+004
3.614244e+002, 5.807392e+004
3.619065e+002, 5.815700e+004
3.623886e+002, 5.822032e+004
3.628708e+002, 5.825082e+004
3.633529e+002, 5.826378e+004
3.638350e+002, 5.825551e+004
3.643171e+002, 5.823216e+004
3.647992e+002, 5.824152e+004
3.652813e+002, 5.831913e+004
3.657635e+002, 5.842703e+004
3.662456e+002, 5.849179e+004
3.667277e+002, 5.850780e+004
3.672098e+002, 5.850236e+004
3.676919e+002, 5.847792e+004
3.681740e+002, 5.844061e+004
3.686562e+002, 5.839885e+004
3.691383e+002, 5.835282e+004
3.696204e+002, 5.831222e+004
3.701025e+002, 5.829460e+004
3.705846e+002, 5.830243e+004
3.710667e+002, 5.829482e+004
3.715489e+002, 5.824820e+004
3.720310e+002, 5.819660e+004
3.725131e+002, 5.817453e+004
3.729952e+002, 5.818221e+004
3.734773e+002, 5.819352e+004
3.739594e+002, 5.819026e+004
3.744416e+002, 5.817338e+004
3.749237e+002, 5.815586e+004
3.754058e+002, 5.813523e+004
3.758879e+002, 5.811711e+004
3.763700e+002, 5.809771e+004
3.768521e+002, 5.808285e+004
3.773343e+002, 5.808993e+004
3.778164e+002, 5.812966e+004
3.782985e+002, 5.818188e+004
3.787806e+002, 5.819816e+004
3.792627e+002, 5.814874e+004
3.797448e+002, 5.811257e+004
3.802270e+002, 5.809752e+004
3.807091e+002, 5.809613e+004
3.811912e+002, 5.810221e+004
3.816733e+002, 5.811415e+004
3.821554e+002, 5.813441e+004
3.826375e+002, 5.817119e+004
3.831197e+002, 5.823771e+004
3.836018e+002, 5.824695e+004
3.840839e+002, 5.815234e+004
3.845660e+002, 5.805643e+004
3.850481e+002, 5.800724e+004
3.855302e+002, 5.799548e+004
3.860124e+002, 5.798766e+004
3.864945e+002, 5.796105e+004
3.869766e+002, 5.792224e+004
3.874587e+002, 5.790627e+004
3.879408e+002, 5.793626e+004
3.884229e+002, 5.796320e+004
3.889051e+002, 5.797505e+004
3.893872e+002, 5.798505e+004
3.898693e+002, 5.801153e+004
3.903514e+002, 5.805920e+004
3.908335e+002, 5.811125e+004
3.913156e+002, 5.814364e+004
3.917978e+002, 5.816100e+004
3.922799e+002, 5.814497e+004
3.927620e+002, 5.806816e+004
3.932441e+002, 5.798387e+004
3.937262e+002, 5.790617e+004
3.942083e+002, 5.784319e+004
3.946905e+002, 5.780930e+004
3.951726e+002, 5.782388e+004
3.956547e+002, 5.788049e+004
3.961368e+002, 5.791161e+004
3.966189e+002, 5.790117e+004
3.971010e+002, 5.788652e+004
3.975832e+002, 5.788052e+004
3.980653e+002, 5.787738e+004
3.985474e+002, 5.787059e+004
3.990295e+002, 5.785809e+004
3.995116e+002, 5.783851e+004
3.999937e+002, 5.780110e+004
4.004759e+002, 5.773662e+004
4.009580e+002, 5.770322e+004
4.014401e+002, 5.774557e+004
4.019222e+002, 5.780272e+004
4.024043e+002, 5.784013e+004
4.028864e+002, 5.785380e+004
4.033686e+002, 5.784396e+004
4.038507e+002, 5.778898e+004
4.043328e+002, 5.770538e+004
4.048149e+002, 5.767125e+004
4.052970e+002, 5.770934e+004
4.057791e+002, 5.776051e+004
4.062613e+002, 5.778116e+004
4.067434e+002, 5.778501e+004
4.072255e+002, 5.780131e+004
4.077076e+002, 5.785068e+004
4.081897e+002, 5.790462e+004
4.086718e+002, 5.792358e+004
4.091540e+002, 5.790908e+004
4.096361e+002, 5.790795e+004
4.101182e+002, 5.794825e+004
4.106003e+002, 5.800587e+004
4.110824e+002, 5.803777e+004
4.115645e+002, 5.803868e+004
4.120467e+002, 5.803665e+004
4.125288e+002, 5.804463e+004
4.130109e+002, 5.805745e+004
4.134930e+002, 5.806779e+004
4.139751e+002, 5.807475e+004
4.144572e+002, 5.807399e+004
4.149394e+002, 5.805846e+004
4.154215e+002, 5.802731e+004
4.159036e+002, 5.800112e+004
4.163857e+002, 5.795877e+004
4.168678e+002, 5.794062e+004
4.173499e+002, 5.800437e+004
4.178321e+002, 5.812245e+004
4.183142e+002, 5.819759e+004
4.187963e+002, 5.817125e+004
4.192784e+002, 5.807187e+004
4.197605e+002, 5.799519e+004
4.202426e+002, 5.796567e+004
4.207248e+002, 5.792491e+004
4.212069e+002, 5.784822e+004
4.216890e+002, 5.776731e+004
4.221711e+002, 5.771983e+004
4.226532e+002, 5.771230e+004
4.231353e+002, 5.771617e+004
4.236175e+002, 5.769477e+004
4.240996e+002, 5.763707e+004
4.245817e+002, 5.761294e+004
4.250638e+002, 5.763281e+004
4.255459e+002, 5.767084e+004
4.260280e+002, 5.774088e+004
4.265102e+002, 5.781936e+004
4.269923e+002, 5.785908e+004
4.274744e+002, 5.782889e+004
4.279565e+002, 5.775445e+004
4.284386e+002, 5.772619e+004
4.289207e+002, 5.778692e+004
4.294029e+002, 5.781538e+004
4.298850e+002, 5.777514e+004
4.303671e+002, 5.771491e+004
4.308492e+002, 5.766872e+004
4.313313e+002, 5.764406e+004
4.318134e+002, 5.763430e+004
4.322956e+002, 5.763212e+004
4.327777e+002, 5.763721e+004
4.332598e+002, 5.766073e+004
4.337419e+002, 5.774147e+004
4.342241e+002, 5.778733e+004
4.347062e+002, 5.773139e+004
4.351883e+002, 5.761679e+004
4.356704e+002, 5.752639e+004
4.361525e+002, 5.750031e+004
4.366346e+002, 5.751047e+004
4.371168e+002, 5.751718e+004
4.375989e+002, 5.752061e+004
4.380810e+002, 5.752004e+004
4.385631e+002, 5.751459e+004
4.390452e+002, 5.750514e+004
4.395273e+002, 5.749470e+004
4.400095e+002, 5.748398e+004
4.404916e+002, 5.746490e+004
4.409737e+002, 5.741921e+004
4.414558e+002, 5.736467e+004
4.419379e+002, 5.734278e+004
4.424200e+002, 5.736249e+004
4.429022e+002, 5.739075e+004
4.433843e+002, 5.740609e+004
4.438664e+002, 5.740726e+004
4.443485e+002, 5.739355e+004
4.448306e+002, 5.735878e+004
4.453127e+002, 5.731496e+004
4.457949e+002, 5.725091e+004
4.462770e+002, 5.718231e+004
4.467591e+002, 5.715525e+004
4.472412e+002, 5.719295e+004
4.477233e+002, 5.726344e+004
4.482054e+002, 5.730847e+004
4.486876e+002, 5.732679e+004
4.491697e+002, 5.732054e+004
4.496518e+002, 5.726579e+004
4.501339e+002, 5.720446e+004
4.506160e+002, 5.717172e+004
4.510981e+002, 5.716630e+004
4.515803e+002, 5.716370e+004
4.520624e+002, 5.714491e+004
4.525445e+002, 5.711073e+004
4.530266e+002, 5.707168e+004
4.535087e+002, 5.699088e+004
4.539908e+002, 5.694904e+004
4.544730e+002, 5.697853e+004
4.549551e+002, 5.704344e+004
4.554372e+002, 5.711523e+004
4.559193e+002, 5.718127e+004
4.564014e+002, 5.722443e+004
4.568835e+002, 5.721059e+004
4.573657e+002, 5.712180e+004
4.578478e+002, 5.705517e+004
4.583299e+002, 5.699263e+004
4.588120e+002, 5.697509e+004
4.592941e+002, 5.706449e+004
4.597762e+002, 5.721298e+004
4.602584e+002, 5.730978e+004
4.607405e+002, 5.728398e+004
4.612226e+002, 5.718120e+004
4.617047e+002, 5.708828e+004
4.621868e+002, 5.700157e+004
4.626689e+002, 5.694239e+004
4.631511e+002, 5.694253e+004
4.636332e+002, 5.695894e+004
4.641153e+002, 5.694960e+004
4.645974e+002, 5.691064e+004
4.650795e+002, 5.686365e+004
4.655616e+002, 5.681482e+004
4.660438e+002, 5.676855e+004
4.665259e+002, 5.673042e+004
4.670080e+002, 5.669929e+004
4.674901e+002, 5.669161e+004
4.679722e+002, 5.673995e+004
4.684543e+002, 5.682630e+004
4.689365e+002, 5.686242e+004
4.694186e+002, 5.679448e+004
4.699007e+002, 5.672678e+004
4.703828e+002, 5.672425e+004
4.708649e+002, 5.676100e+004
4.713470e+002, 5.678093e+004
4.718292e+002, 5.676384e+004
4.723113e+002, 5.672613e+004
4.727934e+002, 5.669288e+004
4.732755e+002, 5.667035e+004
4.737576e+002, 5.663118e+004
4.742397e+002, 5.653519e+004
4.747219e+002, 5.645770e+004
4.752040e+002, 5.645428e+004
4.756861e+002, 5.650966e+004
4.761682e+002, 5.657746e+004
4.766503e+002, 5.663061e+004
4.771324e+002, 5.666532e+004
4.776146e+002, 5.666310e+004
4.780967e+002, 5.658278e+004
4.785788e+002, 5.653204e+004
4.790609e+002, 5.654391e+004
4.795430e+002, 5.657067e+004
4.800251e+002, 5.657964e+004
4.805073e+002, 5.656466e+004
4.809894e+002, 5.653349e+004
4.814715e+002, 5.648962e+004
4.819536e+002, 5.643443e+004
4.824357e+002, 5.638074e+004
4.829178e+002, 5.631715e+004
4.834000e+002, 5.627631e+004
4.838821e+002, 5.629048e+004
4.843642e+002, 5.632720e+004
4.848463e+002, 5.634618e+004
4.853284e+002, 5.633761e+004
4.858105e+002, 5.630491e+004
4.862927e+002, 5.622893e+004
4.867748e+002, 5.612196e+004
4.872569e+002, 5.606700e+004
4.877390e+002, 5.609430e+004
4.882211e+002, 5.615064e+004
4.887032e+002, 5.618934e+004
4.891854e+002, 5.621184e+004
4.896675e+002, 5.621430e+004
4.901496e+002, 5.617261e+004
4.906317e+002, 5.613002e+004
4.911138e+002, 5.612776e+004
4.915959e+002, 5.615713e+004
4.920781e+002, 5.618166e+004
4.925602e+002, 5.618410e+004
4.930423e+002, 5.617268e+004
4.935244e+002, 5.616474e+004
4.940065e+002, 5.616282e+004
4.944886e+002, 5.615993e+004
4.949708e+002, 5.615820e+004
4.954529e+002, 5.615306e+004
4.959350e+002, 5.613732e+004
4.964171e+002, 5.611309e+004
4.968992e+002, 5.608823e+004
4.973813e+002, 5.606631e+004
4.978635e+002, 5.605018e+004
4.983456e+002, 5.606239e+004
4.988277e+002, 5.613645e+004
4.993098e+002, 5.618697e+004
4.997919e+002, 5.621465e+004
5.002740e+002, 5.620733e+004
5.007562e+002, 5.613621e+004
5.012383e+002, 5.600489e+004
5.017204e+002, 5.587469e+004
5.022025e+002, 5.581180e+004
5.026846e+002, 5.581096e+004
5.031667e+002, 5.580745e+004
5.036489e+002, 5.580571e+004
5.041310e+002, 5.579316e+004
5.046131e+002, 5.576601e+004
5.050952e+002, 5.572479e+004
5.055773e+002, 5.565999e+004
5.060594e+002, 5.555036e+004
5.065416e+002, 5.546596e+004
5.070237e+002, 5.549570e+004
5.075058e+002, 5.560283e+004
5.079879e+002, 5.565302e+004
5.084700e+002, 5.560623e+004
5.089521e+002, 5.553005e+004
5.094343e+002, 5.549491e+004
5.099164e+002, 5.550108e+004
5.103985e+002, 5.549621e+004
5.108806e+002, 5.546185e+004
5.113627e+002, 5.543087e+004
5.118448e+002, 5.543089e+004
5.123270e+002, 5.544825e+004
5.128091e+002, 5.545366e+004
5.132912e+002, 5.543509e+004
5.137733e+002, 5.539338e+004
5.142554e+002, 5.532440e+004
5.147375e+002, 5.519135e+004
5.152197e+002, 5.512163e+004
5.157018e+002, 5.515122e+004
5.161839e+002, 5.520120e+004
5.166660e+002, 5.523252e+004
5.171481e+002, 5.524982e+004
5.176302e+002, 5.527749e+004
5.181124e+002, 5.533271e+004
5.185945e+002, 5.539777e+004
5.190766e+002, 5.542627e+004
5.195587e+002, 5.540982e+004
5.200408e+002, 5.538069e+004
5.205229e+002, 5.533754e+004
5.210051e+002, 5.528714e+004
5.214872e+002, 5.521810e+004
5.219693e+002, 5.513808e+004
5.224514e+002, 5.509204e+004
5.229335e+002, 5.514138e+004
5.234156e+002, 5.523054e+004
5.238978e+002, 5.524338e+004
5.243799e+002, 5.517466e+004
5.248620e+002, 5.512513e+004
5.253441e+002, 5.516280e+004
5.258262e+002, 5.523715e+004
5.263083e+002, 5.523989e+004
5.267905e+002, 5.515590e+004
5.272726e+002, 5.506471e+004
5.277547e+002, 5.496953e+004
5.282368e+002, 5.489195e+004
5.287189e+002, 5.486477e+004
5.292010e+002, 5.488603e+004
5.296832e+002, 5.491996e+004
5.301653e+002, 5.494166e+004
5.306474e+002, 5.495151e+004
5.311295e+002, 5.495452e+004
5.316116e+002, 5.495898e+004
5.320938e+002, 5.494279e+004
5.325759e+002, 5.487348e+004
5.330580e+002, 5.479993e+004
5.335401e+002, 5.476653e+004
5.340222e+002, 5.477801e+004
5.345043e+002, 5.480857e+004
5.349865e+002, 5.483915e+004
5.354686e+002, 5.486818e+004
5.359507e+002, 5.488029e+004
5.364328e+002, 5.487260e+004
5.369149e+002, 5.485309e+004
5.373970e+002, 5.481943e+004
5.378792e+002, 5.477977e+004
5.383613e+002, 5.474737e+004
5.388434e+002, 5.472709e+004
5.393255e+002, 5.469373e+004
5.398076e+002, 5.460900e+004
5.402897e+002, 5.449895e+004
5.407719e+002, 5.443901e+004
5.412540e+002, 5.444496e+004
5.417361e+002, 5.445914e+004
5.422182e+002, 5.443959e+004
5.427003e+002, 5.439384e+004
5.431824e+002, 5.436091e+004
5.436646e+002, 5.435260e+004
5.441467e+002, 5.434144e+004
5.446288e+002, 5.430985e+004
5.451109e+002, 5.427276e+004
5.455930e+002, 5.424991e+004
5.460751e+002, 5.424514e+004
5.465573e+002, 5.424959e+004
5.470394e+002, 5.425332e+004
5.475215e+002, 5.425556e+004
5.480036e+002, 5.427304e+004
5.484857e+002, 5.433339e+004
5.489678e+002, 5.437656e+004
5.494500e+002, 5.438650e+004
5.499321e+002, 5.437582e+004
5.504142e+002, 5.435243e+004
5.508963e+002, 5.432020e+004
5.513784e+002, 5.429330e+004
5.518605e+002, 5.430114e+004
5.523427e+002, 5.433854e+004
5.528248e+002, 5.431888e+004
5.533069e+002, 5.420144e+004
5.537890e+002, 5.410521e+004
5.542711e+002, 5.412294e+004
5.547532e+002, 5.419778e+004
5.552354e+002, 5.425221e+004
5.557175e+002, 5.427204e+004
5.561996e+002, 5.427482e+004
5.566817e+002, 5.426704e+004
5.571638e+002, 5.425132e+004
5.576459e+002, 5.423492e+004
5.581281e+002, 5.421948e+004
5.586102e+002, 5.419388e+004
5.590923e+002, 5.414524e+004
5.595744e+002, 5.407523e+004
5.600565e+002, 5.401923e+004
5.605386e+002, 5.398126e+004
5.610208e+002, 5.395027e+004
5.615029e+002, 5.393199e+004
5.619850e+002, 5.391496e+004
5.624671e+002, 5.388005e+004
5.629492e+002, 5.382673e+004
5.634313e+002, 5.377949e+004
5.639135e+002, 5.376645e+004
5.643956e+002, 5.378679e+004
5.648777e+002, 5.380167e+004
5.653598e+002, 5.382139e+004
5.658419e+002, 5.381800e+004
5.663240e+002, 5.376669e+004
5.668062e+002, 5.369953e+004
5.672883e+002, 5.365021e+004
5.677704e+002, 5.362620e+004
5.682525e+002, 5.361198e+004
5.687346e+002, 5.360360e+004
5.692167e+002, 5.359536e+004
5.696989e+002, 5.356359e+004
5.701810e+002, 5.350155e+004
5.706631e+002, 5.345490e+004
5.711452e+002, 5.345742e+004
5.716273e+002, 5.349655e+004
5.721094e+002, 5.352750e+004
5.725916e+002, 5.355360e+004
5.730737e+002, 5.356650e+004
5.735558e+002, 5.355484e+004
5.740379e+002, 5.353408e+004
5.745200e+002, 5.351341e+004
5.750021e+002, 5.349807e+004
5.754843e+002, 5.350339e+004
5.759664e+002, 5.354496e+004
5.764485e+002, 5.361426e+004
5.769306e+002, 5.366014e+004
5.774127e+002, 5.367544e+004
5.778948e+002, 5.367552e+004
5.783770e+002, 5.366341e+004
5.788591e+002, 5.363730e+004
5.793412e+002, 5.358107e+004
5.798233e+002, 5.350285e+004
5.803054e+002, 5.344455e+004
5.807875e+002, 5.344258e+004
5.812697e+002, 5.347984e+004
5.817518e+002, 5.352432e+004
5.822339e+002, 5.358032e+004
5.827161e+002, 5.360378e+004
5.831982e+002, 5.357130e+004
5.836803e+002, 5.350188e+004
5.841624e+002, 5.341616e+004
5.846445e+002, 5.330913e+004
5.851266e+002, 5.322859e+004
5.856088e+002, 5.321610e+004
5.860909e+002, 5.321385e+004
5.865730e+002, 5.316192e+004
5.870551e+002, 5.307317e+004
5.875372e+002, 5.300075e+004
5.880193e+002, 5.297318e+004
5.885015e+002, 5.297706e+004
5.889836e+002, 5.298423e+004
5.894657e+002, 5.300112e+004
5.899478e+002, 5.300808e+004
5.904299e+002, 5.299947e+004
5.909120e+002, 5.298772e+004
5.913942e+002, 5.297986e+004
5.918763e+002, 5.297305e+004
5.923584e+002, 5.295776e+004
5.928405e+002, 5.292611e+004
5.933226e+002, 5.289561e+004
5.938047e+002, 5.290368e+004
5.942869e+002, 5.294872e+004
5.947690e+002, 5.295430e+004
5.952511e+002, 5.288052e+004
5.957332e+002, 5.280987e+004
5.962153e+002, 5.283276e+004
5.966974e+002, 5.292119e+004
5.971796e+002, 5.298264e+004
5.976617e+002, 5.299530e+004
5.981438e+002, 5.298652e+004
5.986259e+002, 5.296806e+004
5.991080e+002, 5.293912e+004
5.995901e+002, 5.289139e+004
6.000723e+002, 5.282479e+004
6.005544e+002, 5.276389e+004
6.010365e+002, 5.273584e+004
6.015186e+002, 5.274170e+004
6.020007e+002, 5.275110e+004
6.024828e+002, 5.280134e+004
6.029650e+002, 5.280932e+004
6.034471e+002, 5.272953e+004
6.039292e+002, 5.262074e+004
6.044113e+002, 5.253655e+004
6.048934e+002, 5.248872e+004
6.053755e+002, 5.246161e+004
6.058577e+002, 5.244343e+004
6.063398e+002, 5.243523e+004
6.068219e+002, 5.244782e+004
6.073040e+002, 5.248786e+004
6.077861e+002, 5.250698e+004
6.082682e+002, 5.246695e+004
6.087504e+002, 5.240453e+004
6.092325e+002, 5.238570e+004
6.097146e+002, 5.241793e+004
6.101967e+002, 5.244687e+004
6.106788e+002, 5.247474e+004
6.111609e+002, 5.248031e+004
6.116431e+002, 5.242366e+004
6.121252e+002, 5.232464e+004
6.126073e+002, 5.225142e+004
6.130894e+002, 5.224076e+004
6.135715e+002, 5.226754e+004
6.140536e+002, 5.228105e+004
6.145358e+002, 5.229074e+004
6.150179e+002, 5.226404e+004
6.155000e+002, 5.213906e+004
6.159821e+002, 5.204075e+004
6.164642e+002, 5.204286e+004
6.169464e+002, 5.210657e+004
6.174285e+002, 5.215379e+004
6.179106e+002, 5.215256e+004
6.183927e+002, 5.213355e+004
6.188748e+002, 5.213277e+004
6.193569e+002, 5.214555e+004
6.198391e+002, 5.214748e+004
6.203212e+002, 5.213493e+004
6.208033e+002, 5.210785e+004
6.212854e+002, 5.205265e+004
6.217675e+002, 5.198088e+004
6.222496e+002, 5.195748e+004
6.227318e+002, 5.203799e+004
6.232139e+002, 5.209208e+004
6.236960e+002, 5.205921e+004
6.241781e+002, 5.199631e+004
6.246602e+002, 5.196046e+004
6.251423e+002, 5.195938e+004
6.256245e+002, 5.197786e+004
6.261066e+002, 5.200991e+004
6.265887e+002, 5.204393e+004
6.270708e+002, 5.202087e+004
6.275529e+002, 5.190764e+004
6.280350e+002, 5.181818e+004
6.285172e+002, 5.179405e+004
6.289993e+002, 5.178704e+004
6.294814e+002, 5.176211e+004
6.299635e+002, 5.172439e+004
6.304456e+002, 5.170780e+004
6.309277e+002, 5.174465e+004
6.314099e+002, 5.179574e+004
6.318920e+002, 5.182049e+004
6.323741e+002, 5.182247e+004
6.328562e+002, 5.181741e+004
6.333383e+002, 5.181178e+004
6.338204e+002, 5.179052e+004
6.343026e+002, 5.173029e+004
6.347847e+002, 5.162405e+004
6.352668e+002, 5.154516e+004
6.357489e+002, 5.148670e+004
6.362310e+002, 5.145828e+004
6.367131e+002, 5.148503e+004
6.371953e+002, 5.153166e+004
6.376774e+002, 5.156302e+004
6.381595e+002, 5.156895e+004
6.386416e+002, 5.155210e+004
6.391237e+002, 5.150840e+004
6.396058e+002, 5.144327e+004
6.400880e+002, 5.138054e+004
6.405701e+002, 5.131534e+004
6.410522e+002, 5.127426e+004
6.415343e+002, 5.128967e+004
6.420164e+002, 5.131752e+004
6.424985e+002, 5.129182e+004
6.429807e+002, 5.120805e+004
6.434628e+002, 5.114402e+004
6.439449e+002, 5.114582e+004
6.444270e+002, 5.115563e+004
6.449091e+002, 5.111078e+004
6.453912e+002, 5.103510e+004
6.458734e+002, 5.100479e+004
6.463555e+002, 5.105100e+004
6.468376e+002, 5.111770e+004
6.473197e+002, 5.111495e+004
6.478018e+002, 5.102755e+004
6.482839e+002, 5.095570e+004
6.487661e+002, 5.089476e+004
6.492482e+002, 5.085587e+004
6.497303e+002, 5.085805e+004
6.502124e+002, 5.087569e+004
6.506945e+002, 5.087202e+004
6.511766e+002, 5.083820e+004
6.516588e+002, 5.081406e+004
6.521409e+002, 5.085228e+004
6.526230e+002, 5.091468e+004
6.531051e+002, 5.091375e+004
6.535872e+002, 5.084634e+004
6.540693e+002, 5.077880e+004
6.545515e+002, 5.074298e+004
6.550336e+002, 5.073198e+004
6.555157e+002, 5.073129e+004
6.559978e+002, 5.074042e+004
6.564799e+002, 5.076351e+004
6.569620e+002, 5.083642e+004
6.574442e+002, 5.088769e+004
6.579263e+002, 5.087082e+004
6.584084e+002, 5.080655e+004
6.588905e+002, 5.072618e+004
6.593726e+002, 5.064289e+004
6.598547e+002, 5.057653e+004
6.603369e+002, 5.056923e+004
6.608190e+002, 5.061477e+004
6.613011e+002, 5.061361e+004
6.617832e+002, 5.053965e+004
6.622653e+002, 5.047826e+004
6.627474e+002, 5.048499e+004
6.632296e+002, 5.053206e+004
6.637117e+002, 5.056651e+004
6.641938e+002, 5.059076e+004
6.646759e+002, 5.059166e+004
6.651580e+002, 5.055598e+004
6.656401e+002, 5.050215e+004
6.661223e+002, 5.043764e+004
6.666044e+002, 5.036983e+004
6.670865e+002, 5.031628e+004
6.675686e+002, 5.028623e+004
6.680507e+002, 5.027094e+004
6.685328e+002, 5.025454e+004
6.690150e+002, 5.023733e+004
6.694971e+002, 5.021689e+004
6.699792e+002, 5.017916e+004
6.704613e+002, 5.015686e+004
6.709434e+002, 5.017659e+004
6.714255e+002, 5.021485e+004
6.719077e+002, 5.024083e+004
6.723898e+002, 5.025153e+004
6.728719e+002, 5.023291e+004
6.733540e+002, 5.014588e+004
6.738361e+002, 5.003823e+004
6.743182e+002, 4.998463e+004
6.748004e+002, 4.998788e+004
6.752825e+002, 5.001998e+004
6.757646e+002, 5.007114e+004
6.762467e+002, 5.012302e+004
6.767288e+002, 5.013171e+004
6.772109e+002, 5.007471e+004
6.776931e+002, 5.002631e+004
6.781752e+002, 4.997329e+004
6.786573e+002, 4.994131e+004
6.791394e+002, 4.995209e+004
6.796215e+002, 4.998771e+004
6.801036e+002, 5.002633e+004
6.805858e+002, 5.006209e+004
6.810679e+002, 5.007330e+004
6.815500e+002, 5.001735e+004
6.820321e+002, 4.992164e+004
6.825142e+002, 4.986699e+004
6.829963e+002, 4.986118e+004
6.834785e+002, 4.987051e+004
6.839606e+002, 4.988201e+004
6.844427e+002, 4.989015e+004
6.849248e+002, 4.988046e+004
6.854069e+002, 4.984032e+004
6.858890e+002, 4.981272e+004
6.863712e+002, 4.981841e+004
6.868533e+002, 4.981806e+004
6.873354e+002, 4.978762e+004
6.878175e+002, 4.973744e+004
6.882996e+002, 4.968906e+004
6.887817e+002, 4.965084e+004
6.892639e+002, 4.961096e+004
6.897460e+002, 4.955589e+004
6.902281e+002, 4.948696e+004
6.907102e+002, 4.940441e+004
6.911923e+002, 4.929944e+004
6.916744e+002, 4.922673e+004
6.921566e+002, 4.922814e+004
6.926387e+002, 4.926886e+004
6.931208e+002, 4.927864e+004
6.936029e+002, 4.924891e+004
6.940850e+002, 4.923013e+004
6.945671e+002, 4.923294e+004
6.950493e+002, 4.924588e+004
6.955314e+002, 4.927100e+004
6.960135e+002, 4.929816e+004
6.964956e+002, 4.930653e+004
6.969777e+002, 4.928945e+004
6.974598e+002, 4.926698e+004
6.979420e+002, 4.927438e+004
6.984241e+002, 4.930870e+004
6.989062e+002, 4.928832e+004
6.993883e+002, 4.918846e+004
6.998704e+002, 4.910325e+004
7.003525e+002, 4.907809e+004
7.008347e+002, 4.908592e+004
7.013168e+002, 4.908937e+004
7.017989e+002, 4.908742e+004
7.022810e+002, 4.909296e+004
7.027631e+002, 4.913742e+004
7.032452e+002, 4.916461e+004
7.037274e+002, 4.912038e+004
7.042095e+002, 4.903153e+004
7.046916e+002, 4.894227e+004
7.051737e+002, 4.887044e+004
7.056558e+002, 4.883405e+004
7.061379e+002, 4.886784e+004
7.066201e+002, 4.896502e+004
7.071022e+002, 4.899427e+004
7.075843e+002, 4.892005e+004
7.080664e+002, 4.886135e+004
7.085485e+002, 4.887463e+004
7.090306e+002, 4.890493e+004
7.095128e+002, 4.889983e+004
7.099949e+002, 4.886049e+004
7.104770e+002, 4.882485e+004
7.109591e+002, 4.881325e+004
7.114412e+002, 4.880188e+004
7.119233e+002, 4.878098e+004
7.124055e+002, 4.874646e+004
7.128876e+002, 4.867309e+004
7.133697e+002, 4.856263e+004
7.138518e+002, 4.848540e+004
7.143339e+002, 4.852162e+004
7.148160e+002, 4.864871e+004
7.152982e+002, 4.869229e+004
7.157803e+002, 4.861207e+004
7.162624e+002, 4.854295e+004
7.167445e+002, 4.851500e+004
7.172266e+002, 4.850498e+004
7.177087e+002, 4.849624e+004
7.181909e+002, 4.849069e+004
7.186730e+002, 4.849971e+004
7.191551e+002, 4.853718e+004
7.196372e+002, 4.857507e+004
7.201193e+002, 4.859767e+004
7.206014e+002, 4.860594e+004
7.210836e+002, 4.859522e+004
7.215657e+002, 4.856807e+004
7.220478e+002, 4.854639e+004
7.225299e+002, 4.854760e+004
7.230120e+002, 4.856482e+004
7.234941e+002, 4.857606e+004
7.239763e+002, 4.858665e+004
7.244584e+002, 4.857640e+004
7.249405e+002, 4.853209e+004
7.254226e+002, 4.847846e+004
7.259047e+002, 4.840501e+004
7.263868e+002, 4.833677e+004
7.268690e+002, 4.833488e+004
7.273511e+002, 4.844341e+004
7.278332e+002, 4.853411e+004
7.283153e+002, 4.851641e+004
7.287974e+002, 4.844382e+004
7.292795e+002, 4.837606e+004
7.297617e+002, 4.832304e+004
7.302438e+002, 4.829331e+004
7.307259e+002, 4.829348e+004
7.312080e+002, 4.830334e+004
7.316901e+002, 4.827757e+004
7.321722e+002, 4.820220e+004
7.326544e+002, 4.815079e+004
7.331365e+002, 4.814374e+004
7.336186e+002, 4.813182e+004
7.341007e+002, 4.807554e+004
7.345828e+002, 4.801271e+004
7.350649e+002, 4.800088e+004
7.355471e+002, 4.805270e+004
7.360292e+002, 4.808910e+004
7.365113e+002, 4.806643e+004
7.369934e+002, 4.801696e+004
7.374755e+002, 4.795802e+004
7.379576e+002, 4.790012e+004
7.384398e+002, 4.787017e+004
7.389219e+002, 4.787696e+004
7.394040e+002, 4.789718e+004
7.398861e+002, 4.790240e+004
7.403682e+002, 4.789270e+004
7.408503e+002, 4.788371e+004
7.413325e+002, 4.787613e+004
7.418146e+002, 4.786676e+004
7.422967e+002, 4.785380e+004
7.427788e+002, 4.783849e+004
7.432609e+002, 4.782064e+004
7.437430e+002, 4.780060e+004
7.442252e+002, 4.778216e+004
7.447073e+002, 4.776482e+004
7.451894e+002, 4.775098e+004
7.456715e+002, 4.775348e+004
7.461536e+002, 4.775641e+004
7.466357e+002, 4.773073e+004
7.471179e+002, 4.767466e+004
7.476000e+002, 4.761077e+004
7.480821e+002, 4.755351e+004
7.485642e+002, 4.750779e+004
7.490463e+002, 4.749718e+004
7.495284e+002, 4.753911e+004
7.500106e+002, 4.753652e+004
7.504927e+002, 4.744686e+004
7.509748e+002, 4.735196e+004
7.514569e+002, 4.731059e+004
7.519390e+002, 4.730392e+004
7.524211e+002, 4.729284e+004
7.529033e+002, 4.726885e+004
7.533854e+002, 4.724920e+004
7.538675e+002, 4.723821e+004
7.543496e+002, 4.723492e+004
7.548317e+002, 4.724651e+004
7.553138e+002, 4.726432e+004
7.557960e+002, 4.726570e+004
7.562781e+002, 4.724003e+004
7.567602e+002, 4.720179e+004
7.572423e+002, 4.716504e+004
7.577244e+002, 4.713044e+004
7.582065e+002, 4.712779e+004
7.586887e+002, 4.716827e+004
7.591708e+002, 4.720414e+004
7.596529e+002, 4.721721e+004
7.601350e+002, 4.721345e+004
7.606171e+002, 4.719764e+004
7.610992e+002, 4.716896e+004
7.615814e+002, 4.714690e+004
7.620635e+002, 4.713532e+004
7.625456e+002, 4.712990e+004
7.630277e+002, 4.713940e+004
7.635098e+002, 4.714866e+004
7.639919e+002, 4.713593e+004
7.644741e+002, 4.709989e+004
7.649562e+002, 4.705782e+004
7.654383e+002, 4.701984e+004
7.659204e+002, 4.698945e+004
7.664025e+002, 4.697788e+004
7.668846e+002, 4.698456e+004
7.673668e+002, 4.699548e+004
7.678489e+002, 4.701149e+004
7.683310e+002, 4.701786e+004
7.688131e+002, 4.700600e+004
7.692952e+002, 4.697377e+004
7.697773e+002, 4.690957e+004
7.702595e+002, 4.673468e+004
7.707416e+002, 4.664310e+004
7.712237e+002, 4.672516e+004
7.717058e+002, 4.681985e+004
7.721879e+002, 4.681723e+004
7.726700e+002, 4.674948e+004
7.731522e+002, 4.669720e+004
7.736343e+002, 4.669068e+004
7.741164e+002, 4.669843e+004
7.745985e+002, 4.669561e+004
7.750806e+002, 4.668375e+004
7.755627e+002, 4.666587e+004
7.760449e+002, 4.664241e+004
7.765270e+002, 4.661223e+004
7.770091e+002, 4.657346e+004
7.774912e+002, 4.653588e+004
7.779733e+002, 4.651586e+004
7.784554e+002, 4.651714e+004
7.789376e+002, 4.650731e+004
7.794197e+002, 4.648972e+004
7.799019e+002, 4.645596e+004
7.803840e+002, 4.638508e+004
7.808661e+002, 4.631166e+004
7.813482e+002, 4.626178e+004
7.818303e+002, 4.623770e+004
7.823124e+002, 4.623715e+004
7.827946e+002, 4.628214e+004
7.832767e+002, 4.632129e+004
7.837588e+002, 4.629832e+004
7.842409e+002, 4.624509e+004
7.847230e+002, 4.622638e+004
7.852051e+002, 4.624577e+004
7.856873e+002, 4.624632e+004
7.861694e+002, 4.618322e+004
7.866515e+002, 4.609619e+004
7.871336e+002, 4.610109e+004
7.876157e+002, 4.622496e+004
7.880978e+002, 4.629127e+004
7.885800e+002, 4.627026e+004
7.890621e+002, 4.622296e+004
7.895442e+002, 4.616612e+004
7.900263e+002, 4.611093e+004
7.905084e+002, 4.607680e+004
7.909905e+002, 4.606984e+004
7.914727e+002, 4.605946e+004
7.919548e+002, 4.604139e+004
7.924369e+002, 4.601482e+004
7.929190e+002, 4.596412e+004
7.934011e+002, 4.590973e+004
7.938832e+002, 4.588161e+004
7.943654e+002, 4.588747e+004
7.948475e+002, 4.592109e+004
7.953296e+002, 4.599402e+004
7.958117e+002, 4.607619e+004
7.962938e+002, 4.607150e+004
7.967759e+002, 4.598129e+004
7.972581e+002, 4.592043e+004
7.977402e+002, 4.592119e+004
7.982223e+002, 4.593258e+004
7.987044e+002, 4.590795e+004
7.991865e+002, 4.585583e+004
7.996686e+002, 4.582871e+004
8.001508e+002, 4.584416e+004
8.006329e+002, 4.585987e+004
8.011150e+002, 4.589721e+004
8.015971e+002, 4.591366e+004
8.020792e+002, 4.587281e+004
8.025613e+002, 4.579835e+004
8.030435e+002, 4.573073e+004
8.035256e+002, 4.568194e+004
8.040077e+002, 4.565018e+004
8.044898e+002, 4.563950e+004
8.049719e+002, 4.564325e+004
8.054540e+002, 4.566169e+004
8.059362e+002, 4.568749e+004
8.064183e+002, 4.569596e+004
8.069004e+002, 4.567852e+004
8.073825e+002, 4.563257e+004
8.078646e+002, 4.554723e+004
8.083467e+002, 4.542864e+004
8.088289e+002, 4.535913e+004
8.093110e+002, 4.535953e+004
8.097931e+002, 4.535240e+004
8.102752e+002, 4.531904e+004
8.107573e+002, 4.527548e+004
8.112394e+002, 4.521522e+004
8.117216e+002, 4.515363e+004
8.122037e+002, 4.514784e+004
8.126858e+002, 4.524334e+004
8.131679e+002, 4.532430e+004
8.136500e+002, 4.535253e+004
8.141321e+002, 4.534920e+004
8.146143e+002, 4.531536e+004
8.150964e+002, 4.526755e+004
8.155785e+002, 4.523870e+004
8.160606e+002, 4.524188e+004
8.165427e+002, 4.525442e+004
8.170248e+002, 4.524711e+004
8.175070e+002, 4.522777e+004
8.179891e+002, 4.522739e+004
8.184712e+002, 4.524618e+004
8.189533e+002, 4.526566e+004
8.194354e+002, 4.528394e+004
8.199175e+002, 4.528192e+004
8.203997e+002, 4.523234e+004
8.208818e+002, 4.513623e+004
8.213639e+002, 4.505609e+004
8.218460e+002, 4.499365e+004
8.223281e+002, 4.494596e+004
8.228102e+002, 4.491752e+004
8.232924e+002, 4.489897e+004
8.237745e+002, 4.488763e+004
8.242566e+002, 4.488150e+004
8.247387e+002, 4.487943e+004
8.252208e+002, 4.488680e+004
8.257029e+002, 4.488029e+004
8.261851e+002, 4.483170e+004
8.266672e+002, 4.477189e+004
8.271493e+002, 4.474348e+004
8.276314e+002, 4.473677e+004
8.281135e+002, 4.470872e+004
8.285956e+002, 4.464371e+004
8.290778e+002, 4.457771e+004
8.295599e+002, 4.456001e+004
8.300420e+002, 4.458094e+004
8.305241e+002, 4.456745e+004
8.310062e+002, 4.451015e+004
8.314883e+002, 4.448374e+004
8.319705e+002, 4.452300e+004
8.324526e+002, 4.456889e+004
8.329347e+002, 4.455727e+004
8.334168e+002, 4.449699e+004
8.338989e+002, 4.447583e+004
8.343810e+002, 4.451386e+004
8.348632e+002, 4.455752e+004
8.353453e+002, 4.463236e+004
8.358274e+002, 4.468234e+004
8.363095e+002, 4.465502e+004
8.367916e+002, 4.458181e+004
8.372737e+002, 4.452654e+004
8.377559e+002, 4.450895e+004
8.382380e+002, 4.449075e+004
8.387201e+002, 4.443615e+004
8.392022e+002, 4.436976e+004
8.396843e+002, 4.431859e+004
8.401664e+002, 4.428533e+004
8.406486e+002, 4.427570e+004
8.411307e+002, 4.429067e+004
8.416128e+002, 4.431756e+004
8.420949e+002, 4.434655e+004
8.425770e+002, 4.437381e+004
8.430591e+002, 4.438192e+004
8.435413e+002, 4.437006e+004
8.440234e+002, 4.433966e+004
8.445055e+002, 4.428034e+004
8.449876e+002, 4.422190e+004
8.454697e+002, 4.418542e+004
8.459518e+002, 4.416477e+004
8.464340e+002, 4.414077e+004
8.469161e+002, 4.410670e+004
8.473982e+002, 4.408803e+004
8.478803e+002, 4.409836e+004
8.483624e+002, 4.411335e+004
8.488445e+002, 4.413767e+004
8.493267e+002, 4.415098e+004
8.498088e+002, 4.411371e+004
8.502909e+002, 4.402727e+004
8.507730e+002, 4.395971e+004
8.512551e+002, 4.397468e+004
8.517372e+002, 4.401127e+004
8.522194e+002, 4.399993e+004
8.527015e+002, 4.395145e+004
8.531836e+002, 4.387939e+004
8.536657e+002, 4.379173e+004
8.541478e+002, 4.372934e+004
8.546299e+002, 4.372130e+004
8.551121e+002, 4.374669e+004
8.555942e+002, 4.376132e+004
8.560763e+002, 4.376474e+004
8.565584e+002, 4.375593e+004
8.570405e+002, 4.372855e+004
8.575226e+002, 4.370456e+004
8.580048e+002, 4.369198e+004
8.584869e+002, 4.368857e+004
8.589690e+002, 4.369306e+004
8.594511e+002, 4.370590e+004
8.599332e+002, 4.371685e+004
8.604153e+002, 4.374703e+004
8.608975e+002, 4.374729e+004
8.613796e+002, 4.366533e+004
8.618617e+002, 4.357895e+004
8.623438e+002, 4.356973e+004
8.628259e+002, 4.361732e+004
8.633080e+002, 4.364178e+004
8.637902e+002, 4.360879e+004
8.642723e+002, 4.355289e+004
8.647544e+002, 4.349021e+004
8.652365e+002, 4.342983e+004
8.657186e+002, 4.338465e+004
8.662007e+002, 4.335508e+004
8.666829e+002, 4.334138e+004
8.671650e+002, 4.334316e+004
8.676471e+002, 4.335194e+004
8.681292e+002, 4.336293e+004
8.686113e+002, 4.337082e+004
8.690934e+002, 4.333208e+004
8.695756e+002, 4.323459e+004
8.700577e+002, 4.318370e+004
8.705398e+002, 4.321840e+004
8.710219e+002, 4.326640e+004
8.715040e+002, 4.327568e+004
8.719861e+002, 4.325229e+004
8.724683e+002, 4.321597e+004
8.729504e+002, 4.313236e+004
8.734325e+002, 4.310196e+004
8.739146e+002, 4.320114e+004
8.743967e+002, 4.326827e+004
8.748788e+002, 4.321955e+004
8.753610e+002, 4.310764e+004
8.758431e+002, 4.298410e+004
8.763252e+002, 4.286237e+004
8.768073e+002, 4.278464e+004
8.772894e+002, 4.279100e+004
8.777715e+002, 4.282723e+004
8.782537e+002, 4.286526e+004
8.787358e+002, 4.289921e+004
8.792179e+002, 4.292296e+004
8.797000e+002, 4.293413e+004
8.801821e+002, 4.292312e+004
8.806642e+002, 4.288188e+004
8.811464e+002, 4.284177e+004
8.816285e+002, 4.286666e+004
8.821106e+002, 4.293918e+004
8.825927e+002, 4.295936e+004
8.830748e+002, 4.292190e+004
8.835569e+002, 4.285798e+004
8.840391e+002, 4.277223e+004
8.845212e+002, 4.269195e+004
8.850033e+002, 4.265320e+004
8.854854e+002, 4.265291e+004
8.859675e+002, 4.262303e+004
8.864496e+002, 4.253840e+004
8.869318e+002, 4.247445e+004
8.874139e+002, 4.244532e+004
8.878960e+002, 4.243486e+004
8.883781e+002, 4.245148e+004
8.888602e+002, 4.247564e+004
8.893423e+002, 4.246394e+004
8.898245e+002, 4.240048e+004
8.903066e+002, 4.235351e+004
8.907887e+002, 4.237182e+004
8.912708e+002, 4.238028e+004
8.917529e+002, 4.232639e+004
8.922350e+002, 4.223999e+004
8.927172e+002, 4.215180e+004
8.931993e+002, 4.207461e+004
8.936814e+002, 4.202469e+004
8.941635e+002, 4.201279e+004
8.946456e+002, 4.203048e+004
8.951277e+002, 4.208239e+004
8.956099e+002, 4.215180e+004
8.960920e+002, 4.220820e+004
8.965741e+002, 4.224478e+004
8.970562e+002, 4.223948e+004
8.975383e+002, 4.217986e+004
8.980204e+002, 4.211258e+004
8.985026e+002, 4.211612e+004
8.989847e+002, 4.218059e+004
8.994668e+002, 4.217037e+004
8.999489e+002, 4.206666e+004
9.004310e+002, 4.199312e+004
9.009131e+002, 4.198719e+004
9.013953e+002, 4.200679e+004
9.018774e+002, 4.202299e+004
9.023595e+002, 4.203443e+004
9.028416e+002, 4.203362e+004
9.033237e+002, 4.201621e+004
9.038058e+002, 4.199593e+004
9.042880e+002, 4.198579e+004
9.047701e+002, 4.195941e+004
9.052522e+002, 4.189723e+004
9.057343e+002, 4.181875e+004
9.062164e+002, 4.173704e+004
9.066985e+002, 4.165686e+004
9.071807e+002, 4.161467e+004
9.076628e+002, 4.166121e+004
9.081449e+002, 4.170418e+004
9.086270e+002, 4.168454e+004
9.091091e+002, 4.163944e+004
9.095912e+002, 4.160196e+004
9.100734e+002, 4.157893e+004
9.105555e+002, 4.157545e+004
9.110376e+002, 4.159449e+004
9.115197e+002, 4.161271e+004
9.120018e+002, 4.159501e+004
9.124839e+002, 4.156299e+004
9.129661e+002, 4.156369e+004
9.134482e+002, 4.159324e+004
9.139303e+002, 4.163565e+004
9.144124e+002, 4.168534e+004
9.148945e+002, 4.170727e+004
9.153766e+002, 4.166541e+004
9.158588e+002, 4.158379e+004
9.163409e+002, 4.154093e+004
9.168230e+002, 4.154259e+004
9.173051e+002, 4.152927e+004
9.177872e+002, 4.149473e+004
9.182693e+002, 4.144950e+004
9.187515e+002, 4.139591e+004
9.192336e+002, 4.133760e+004
9.197157e+002, 4.127636e+004
9.201978e+002, 4.120833e+004
9.206799e+002, 4.117242e+004
9.211620e+002, 4.120180e+004
9.216442e+002, 4.121713e+004
9.221263e+002, 4.120297e+004
9.226084e+002, 4.117603e+004
9.230905e+002, 4.112354e+004
9.235726e+002, 4.107140e+004
9.240547e+002, 4.109022e+004
9.245369e+002, 4.122186e+004
9.250190e+002, 4.130322e+004
9.255011e+002, 4.122753e+004
9.259832e+002, 4.113446e+004
9.264653e+002, 4.110765e+004
9.269474e+002, 4.112726e+004
9.274296e+002, 4.117407e+004
9.279117e+002, 4.123300e+004
9.283938e+002, 4.126686e+004
9.288759e+002, 4.124931e+004
9.293580e+002, 4.120891e+004
9.298401e+002, 4.117079e+004
9.303223e+002, 4.113489e+004
9.308044e+002, 4.109949e+004
9.312865e+002, 4.106588e+004
9.317686e+002, 4.103955e+004
9.322507e+002, 4.102265e+004
9.327328e+002, 4.101108e+004
9.332150e+002, 4.099720e+004
9.336971e+002, 4.098645e+004
9.341792e+002, 4.100814e+004
9.346613e+002, 4.106200e+004
9.351434e+002, 4.109989e+004
9.356255e+002, 4.111427e+004
9.361077e+002, 4.109920e+004
9.365898e+002, 4.104300e+004
9.370719e+002, 4.096842e+004
9.375540e+002, 4.092602e+004
9.380361e+002, 4.092154e+004
9.385182e+002, 4.092149e+004
9.390004e+002, 4.094210e+004
9.394825e+002, 4.093451e+004
9.399646e+002, 4.086373e+004
9.404467e+002, 4.078048e+004
9.409288e+002, 4.072752e+004
9.414109e+002, 4.070111e+004
9.418931e+002, 4.068848e+004
9.423752e+002, 4.070100e+004
9.428573e+002, 4.070558e+004
9.433394e+002, 4.068852e+004
9.438215e+002, 4.067361e+004
9.443036e+002, 4.067164e+004
9.447858e+002, 4.067996e+004
9.452679e+002, 4.070496e+004
9.457500e+002, 4.074206e+004
9.462321e+002, 4.074966e+004
9.467142e+002, 4.069253e+004
9.471964e+002, 4.062440e+004
9.476785e+002, 4.056756e+004
9.481606e+002, 4.052425e+004
9.486427e+002, 4.049611e+004
9.491248e+002, 4.048393e+004
9.496069e+002, 4.049367e+004
9.500891e+002, 4.052646e+004
9.505712e+002, 4.055825e+004
9.510533e+002, 4.056739e+004
9.515354e+002, 4.056117e+004
9.520175e+002, 4.055617e+004
9.524996e+002, 4.054548e+004
9.529818e+002, 4.049659e+004
9.534639e+002, 4.041131e+004
9.539460e+002, 4.034967e+004
9.544281e+002, 4.035066e+004
9.549102e+002, 4.038267e+004
9.553923e+002, 4.039230e+004
9.558745e+002, 4.038225e+004
9.563566e+002, 4.038361e+004
9.568387e+002, 4.039852e+004
9.573208e+002, 4.037465e+004
9.578029e+002, 4.028589e+004
9.582850e+002, 4.021334e+004
9.587672e+002, 4.024165e+004
9.592493e+002, 4.033732e+004
9.597314e+002, 4.036151e+004
9.602135e+002, 4.029172e+004
9.606956e+002, 4.022865e+004
9.611777e+002, 4.016439e+004
9.616599e+002, 4.013036e+004
9.621420e+002, 4.013896e+004
9.626241e+002, 4.018542e+004
9.631062e+002, 4.028718e+004
9.635883e+002, 4.044337e+004
9.640704e+002, 4.051356e+004
9.645526e+002, 4.043116e+004
9.650347e+002, 4.036485e+004
9.655168e+002, 4.033371e+004
9.659989e+002, 4.031686e+004
9.664810e+002, 4.031005e+004
9.669631e+002, 4.030728e+004
9.674453e+002, 4.030529e+004
9.679274e+002, 4.030451e+004
9.684095e+002, 4.028037e+004
9.688916e+002, 4.019182e+004
9.693737e+002, 4.012190e+004
9.698558e+002, 4.011585e+004
9.703380e+002, 4.013858e+004
9.708201e+002, 4.017597e+004
9.713022e+002, 4.020959e+004
9.717843e+002, 4.019504e+004
9.722664e+002, 4.011348e+004
9.727485e+002, 4.005916e+004
9.732307e+002, 4.012907e+004
9.737128e+002, 4.022534e+004
9.741949e+002, 4.023756e+004
9.746770e+002, 4.021366e+004
9.751591e+002, 4.024080e+004
9.756412e+002, 4.032516e+004
9.761234e+002, 4.041947e+004
9.766055e+002, 4.049900e+004
9.770876e+002, 4.056859e+004
9.775698e+002, 4.062832e+004
9.780519e+002, 4.068430e+004
9.785340e+002, 4.075156e+004
9.790161e+002, 4.082770e+004
9.794982e+002, 4.089922e+004
9.799803e+002, 4.096359e+004
9.804625e+002, 4.103968e+004
9.809446e+002, 4.114701e+004
9.814267e+002, 4.126007e+004
9.819088e+002, 4.132034e+004
9.823909e+002, 4.133245e+004
9.828730e+002, 4.133147e+004
9.833552e+002, 4.131853e+004
9.838373e+002, 4.135050e+004
9.843194e+002, 4.145148e+004
9.848015e+002, 4.158686e+004
9.852836e+002, 4.172498e+004
9.857657e+002, 4.186336e+004
9.862479e+002, 4.199402e+004
9.867300e+002, 4.212442e+004
9.872121e+002, 4.220570e+004
9.876942e+002, 4.222120e+004
9.881763e+002, 4.222507e+004
9.886584e+002, 4.223125e+004
9.891406e+002, 4.225548e+004
9.896227e+002, 4.232084e+004
9.901048e+002, 4.242756e+004
9.905869e+002, 4.254414e+004
9.910690e+002, 4.270464e+004
9.915511e+002, 4.280790e+004
9.920333e+002, 4.282903e+004
9.925154e+002, 4.280993e+004
9.929975e+002, 4.274595e+004
9.934796e+002, 4.266778e+004
9.939617e+002, 4.262708e+004
9.944438e+002, 4.262794e+004
9.949260e+002, 4.262045e+004
9.954081e+002, 4.259355e+004
9.958902e+002, 4.256878e+004
9.963723e+002, 4.255346e+004
9.968544e+002, 4.253854e+004
9.973365e+002, 4.250876e+004
9.978187e+002, 4.247764e+004
9.983008e+002, 4.247624e+004
9.987829e+002, 4.251261e+004
9.992650e+002, 4.253908e+004
9.997471e+002, 4.251745e+004
1.000229e+003, 4.251217e+004
1.000711e+003, 4.255660e+004
1.001193e+003, 4.262843e+004
1.001676e+003, 4.271634e+004
1.002158e+003, 4.281089e+004
1.002640e+003, 4.289913e+004
1.003122e+003, 4.297830e+004
1.003604e+003, 4.303859e+004
1.004086e+003, 4.306253e+004
1.004568e+003, 4.307813e+004
1.005050e+003, 4.310420e+004
1.005533e+003, 4.313832e+004
1.006015e+003, 4.319523e+004
1.006497e+003, 4.325663e+004
1.006979e+003, 4.326913e+004
1.007461e+003, 4.320961e+004
1.007943e+003, 4.309064e+004
1.008425e+003, 4.287954e+004
1.008907e+003, 4.264966e+004
1.009389e+003, 4.250944e+004
1.009872e+003, 4.242368e+004
1.010354e+003, 4.231791e+004
1.010836e+003, 4.217914e+004
1.011318e+003, 4.202382e+004
1.011800e+003, 4.185841e+004
1.012282e+003, 4.171024e+004
1.012764e+003, 4.164376e+004
1.013246e+003, 4.160548e+004
1.013729e+003, 4.146739e+004
1.014211e+003, 4.124930e+004
1.014693e+003, 4.102861e+004
1.015175e+003, 4.082843e+004
1.015657e+003, 4.066847e+004
1.016139e+003, 4.056639e+004
1.016621e+003, 4.048833e+004
1.017103e+003, 4.037634e+004
1.017585e+003, 4.023767e+004
1.018068e+003, 4.008996e+004
1.018550e+003, 3.994053e+004
1.019032e+003, 3.985659e+004
1.019514e+003, 3.985762e+004
1.019996e+003, 3.985966e+004
1.020478e+003, 3.979330e+004
1.020960e+003, 3.968886e+004
1.021442e+003, 3.962417e+004
1.021924e+003, 3.959645e+004
1.022407e+003, 3.951503e+004
1.022889e+003, 3.937295e+004
1.023371e+003, 3.925143e+004
1.023853e+003, 3.917624e+004
1.024335e+003, 3.912205e+004
1.024817e+003, 3.906580e+004
1.025299e+003, 3.901348e+004
1.025781e+003, 3.898645e+004
1.026264e+003, 3.898785e+004
1.026746e+003, 3.898915e+004
1.027228e+003, 3.899282e+004
1.027710e+003, 3.898218e+004
1.028192e+003, 3.895263e+004
1.028674e+003, 3.890261e+004
1.029156e+003, 3.882434e+004
1.029638e+003, 3.872892e+004
1.030120e+003, 3.865850e+004
1.030603e+003, 3.861310e+004
1.031085e+003, 3.859519e+004
1.031567e+003, 3.861041e+004
1.032049e+003, 3.864240e+004
1.032531e+003, 3.869877e+004
1.033013e+003, 3.874901e+004
1.033495e+003, 3.876127e+004
1.033977e+003, 3.874124e+004
1.034459e+003, 3.871815e+004
1.034942e+003, 3.869677e+004
1.035424e+003, 3.865962e+004
1.035906e+003, 3.859345e+004
1.036388e+003, 3.853311e+004
1.036870e+003, 3.848408e+004
1.037352e+003, 3.845292e+004
1.037834e+003, 3.845915e+004
1.038316e+003, 3.849170e+004
1.038799e+003, 3.848271e+004
1.039281e+003, 3.838309e+004
1.039763e+003, 3.833761e+004
1.040245e+003, 3.838346e+004
1.040727e+003, 3.843544e+004
1.041209e+003, 3.849191e+004
1.041691e+003, 3.852255e+004
1.042173e+003, 3.848446e+004
1.042656e+003, 3.839142e+004
1.043138e+003, 3.831493e+004
1.043620e+003, 3.824887e+004
1.044102e+003, 3.821672e+004
1.044584e+003, 3.825078e+004
1.045066e+003, 3.828048e+004
1.045548e+003, 3.828237e+004
1.046030e+003, 3.826640e+004
1.046512e+003, 3.823293e+004
1.046995e+003, 3.818947e+004
1.047477e+003, 3.816885e+004
1.047959e+003, 3.819912e+004
1.048441e+003, 3.819649e+004
1.048923e+003, 3.810932e+004
1.049405e+003, 3.803598e+004
1.049887e+003, 3.802552e+004
1.050369e+003, 3.804202e+004
1.050851e+003, 3.805816e+004
1.051334e+003, 3.806823e+004
1.051816e+003, 3.805936e+004
1.052298e+003, 3.801851e+004
1.052780e+003, 3.798872e+004
1.053262e+003, 3.798748e+004
1.053744e+003, 3.798933e+004
1.054226e+003, 3.797950e+004
1.054708e+003, 3.796883e+004
1.055191e+003, 3.797698e+004
1.055673e+003, 3.799443e+004
1.056155e+003, 3.798335e+004
1.056637e+003, 3.792246e+004
1.057119e+003, 3.787782e+004
1.057601e+003, 3.788952e+004
1.058083e+003, 3.789736e+004
1.058565e+003, 3.787962e+004
1.059047e+003, 3.783692e+004
1.059530e+003, 3.774691e+004
1.060012e+003, 3.763555e+004
1.060494e+003, 3.757987e+004
1.060976e+003, 3.761192e+004
1.061458e+003, 3.763571e+004
1.061940e+003, 3.760599e+004
1.062422e+003, 3.757329e+004
1.062904e+003, 3.756650e+004
1.063386e+003, 3.756800e+004
1.063869e+003, 3.756376e+004
1.064351e+003, 3.755109e+004
1.064833e+003, 3.752957e+004
1.065315e+003, 3.749976e+004
1.065797e+003, 3.745777e+004
1.066279e+003, 3.738296e+004
1.066761e+003, 3.731974e+004
1.067243e+003, 3.730459e+004
1.067726e+003, 3.730285e+004
1.068208e+003, 3.727904e+004
1.068690e+003, 3.724016e+004
1.069172e+003, 3.720873e+004
1.069654e+003, 3.719055e+004
1.070136e+003, 3.718177e+004
1.070618e+003, 3.720063e+004
1.071100e+003, 3.720400e+004
1.071583e+003, 3.713233e+004
1.072065e+003, 3.706572e+004
1.072547e+003, 3.711394e+004
1.073029e+003, 3.721643e+004
1.073511e+003, 3.722474e+004
1.073993e+003, 3.710628e+004
1.074475e+003, 3.700965e+004
1.074957e+003, 3.702209e+004
1.075439e+003, 3.704336e+004
1.075922e+003, 3.701797e+004
1.076404e+003, 3.698307e+004
1.076886e+003, 3.696800e+004
1.077368e+003, 3.697030e+004
1.077850e+003, 3.698620e+004
1.078332e+003, 3.701254e+004
1.078814e+003, 3.702396e+004
1.079296e+003, 3.700255e+004
1.079779e+003, 3.697398e+004
1.080261e+003, 3.695179e+004
1.080743e+003, 3.692661e+004
1.081225e+003, 3.688459e+004
1.081707e+003, 3.683800e+004
1.082189e+003, 3.680846e+004
1.082671e+003, 3.679720e+004
1.083153e+003, 3.678223e+004
1.083635e+003, 3.674196e+004
1.084118e+003, 3.672180e+004
1.084600e+003, 3.677027e+004
1.085082e+003, 3.681738e+004
1.085564e+003, 3.680902e+004
1.086046e+003, 3.676919e+004
1.086528e+003, 3.673548e+004
1.087010e+003, 3.670895e+004
1.087492e+003, 3.666043e+004
1.087974e+003, 3.655708e+004
1.088457e+003, 3.649260e+004
1.088939e+003, 3.654263e+004
1.089421e+003, 3.660235e+004
1.089903e+003, 3.661091e+004
1.090385e+003, 3.658921e+004
1.090867e+003, 3.656323e+004
1.091349e+003, 3.653368e+004
1.091831e+003, 3.648430e+004
1.092314e+003, 3.639870e+004
1.092796e+003, 3.634331e+004
1.093278e+003, 3.636681e+004
1.093760e+003, 3.639660e+004
1.094242e+003, 3.640725e+004
1.094724e+003, 3.639595e+004
1.095206e+003, 3.634219e+004
1.095688e+003, 3.626887e+004
1.096171e+003, 3.623413e+004
1.096653e+003, 3.625393e+004
1.097135e+003, 3.627416e+004
1.097617e+003, 3.628580e+004
1.098099e+003, 3.628554e+004
1.098581e+003, 3.626351e+004
1.099063e+003, 3.623744e+004
1.099545e+003, 3.622803e+004
1.100027e+003, 3.622280e+004
1.100510e+003, 3.619625e+004
1.100992e+003, 3.614479e+004
1.101474e+003, 3.608862e+004
1.101956e+003, 3.601242e+004
1.102438e+003, 3.596158e+004
1.102920e+003, 3.595118e+004
1.103402e+003, 3.596702e+004
1.103884e+003, 3.601970e+004
1.104366e+003, 3.608215e+004
1.104849e+003, 3.612063e+004
1.105331e+003, 3.613273e+004
1.105813e+003, 3.612815e+004
1.106295e+003, 3.608939e+004
1.106777e+003, 3.606343e+004
1.107259e+003, 3.609643e+004
1.107741e+003, 3.609513e+004
1.108223e+003, 3.598359e+004
1.108706e+003, 3.584152e+004
1.109188e+003, 3.575071e+004
1.109670e+003, 3.570607e+004
1.110152e+003, 3.566805e+004
1.110634e+003, 3.562512e+004
1.111116e+003, 3.560876e+004
1.111598e+003, 3.564238e+004
1.112080e+003, 3.567375e+004
1.112563e+003, 3.569252e+004
1.113045e+003, 3.569979e+004
1.113527e+003, 3.569430e+004
1.114009e+003, 3.567899e+004
1.114491e+003, 3.565929e+004
1.114973e+003, 3.563118e+004
1.115455e+003, 3.561859e+004
1.115937e+003, 3.564195e+004
1.116419e+003, 3.564526e+004
1.116901e+003, 3.560834e+004
1.117384e+003, 3.556237e+004
1.117866e+003, 3.551107e+004
1.118348e+003, 3.547413e+004
1.118830e+003, 3.549072e+004
1.119312e+003, 3.556227e+004
1.119794e+003, 3.561873e+004
1.120276e+003, 3.566594e+004
1.120758e+003, 3.567702e+004
1.121241e+003, 3.563184e+004
1.121723e+003, 3.558901e+004
1.122205e+003, 3.558196e+004
1.122687e+003, 3.557524e+004
1.123169e+003, 3.552084e+004
1.123651e+003, 3.543171e+004
1.124133e+003, 3.538569e+004
1.124615e+003, 3.539359e+004
1.125098e+003, 3.539700e+004
1.125580e+003, 3.539564e+004
1.126062e+003, 3.538704e+004
1.126544e+003, 3.537269e+004
1.127026e+003, 3.534286e+004
1.127508e+003, 3.528354e+004
1.127990e+003, 3.521498e+004
1.128472e+003, 3.519316e+004
1.128954e+003, 3.522024e+004
1.129437e+003, 3.521067e+004
1.129919e+003, 3.516015e+004
1.130401e+003, 3.514484e+004
1.130883e+003, 3.518330e+004
1.131365e+003, 3.521849e+004
1.131847e+003, 3.521507e+004
1.132329e+003, 3.519567e+004
1.132811e+003, 3.519259e+004
1.133293e+003, 3.520325e+004
1.133776e+003, 3.521498e+004
1.134258e+003, 3.522932e+004
1.134740e+003, 3.527377e+004
1.135222e+003, 3.534709e+004
1.135704e+003, 3.539118e+004
1.136186e+003, 3.538264e+004
1.136668e+003, 3.537018e+004
1.137150e+003, 3.540749e+004
1.137633e+003, 3.545665e+004
1.138115e+003, 3.542830e+004
1.138597e+003, 3.535096e+004
1.139079e+003, 3.531818e+004
1.139561e+003, 3.532171e+004
1.140043e+003, 3.529945e+004
1.140525e+003, 3.523978e+004
1.141007e+003, 3.517909e+004
1.141490e+003, 3.513936e+004
1.141972e+003, 3.511959e+004
1.142454e+003, 3.512678e+004
1.142936e+003, 3.514724e+004
1.143418e+003, 3.516023e+004
1.143900e+003, 3.516833e+004
1.144382e+003, 3.519295e+004
1.144864e+003, 3.522017e+004
1.145346e+003, 3.518382e+004
1.145828e+003, 3.506061e+004
1.146311e+003, 3.494863e+004
1.146793e+003, 3.493247e+004
1.147275e+003, 3.495082e+004
1.147757e+003, 3.494727e+004
1.148239e+003, 3.494675e+004
1.148721e+003, 3.499459e+004
1.149203e+003, 3.506271e+004
1.149685e+003, 3.509090e+004
1.150168e+003, 3.507078e+004
1.150650e+003, 3.504369e+004
1.151132e+003, 3.502007e+004
1.151614e+003, 3.501005e+004
1.152096e+003, 3.503154e+004
1.152578e+003, 3.505355e+004
1.153060e+003, 3.505234e+004
1.153542e+003, 3.504122e+004
1.154025e+003, 3.504050e+004
1.154507e+003, 3.504495e+004
1.154989e+003, 3.503070e+004
1.155471e+003, 3.498897e+004
1.155953e+003, 3.494924e+004
1.156435e+003, 3.491505e+004
1.156917e+003, 3.488855e+004
1.157399e+003, 3.486239e+004
1.157881e+003, 3.485292e+004
1.158364e+003, 3.489445e+004
1.158846e+003, 3.494934e+004
1.159328e+003, 3.495303e+004
1.159810e+003, 3.490250e+004
1.160292e+003, 3.484683e+004
1.160774e+003, 3.476804e+004
1.161256e+003, 3.472015e+004
1.161738e+003, 3.473664e+004
1.162220e+003, 3.473157e+004
1.162703e+003, 3.465180e+004
1.163185e+003, 3.456886e+004
1.163667e+003, 3.454897e+004
1.164149e+003, 3.458087e+004
1.164631e+003, 3.463364e+004
1.165113e+003, 3.471989e+004
1.165595e+003, 3.474103e+004
1.166077e+003, 3.467555e+004
1.166560e+003, 3.464323e+004
1.167042e+003, 3.467606e+004
1.167524e+003, 3.470947e+004
1.168006e+003, 3.470326e+004
1.168488e+003, 3.468519e+004
1.168970e+003, 3.470202e+004
1.169452e+003, 3.473945e+004
1.169934e+003, 3.471256e+004
1.170417e+003, 3.462790e+004
1.170899e+003, 3.458984e+004
1.171381e+003, 3.460515e+004
1.171863e+003, 3.461895e+004
1.172345e+003, 3.461251e+004
1.172827e+003, 3.460079e+004
1.173309e+003, 3.459609e+004
1.173791e+003, 3.459284e+004
1.174273e+003, 3.457704e+004
1.174755e+003, 3.455798e+004
1.175238e+003, 3.456354e+004
1.175720e+003, 3.458380e+004
1.176202e+003, 3.459025e+004
1.176684e+003, 3.457913e+004
1.177166e+003, 3.455926e+004
1.177648e+003, 3.453448e+004
1.178130e+003, 3.450469e+004
1.178612e+003, 3.447951e+004
1.179095e+003, 3.443781e+004
1.179577e+003, 3.432263e+004
1.180059e+003, 3.420680e+004
1.180541e+003, 3.418748e+004
1.181023e+003, 3.423517e+004
1.181505e+003, 3.429113e+004
1.181987e+003, 3.433739e+004
1.182469e+003, 3.435788e+004
1.182952e+003, 3.433352e+004
1.183434e+003, 3.431686e+004
1.183916e+003, 3.433688e+004
1.184398e+003, 3.436325e+004
1.184880e+003, 3.438099e+004
1.185362e+003, 3.439490e+004
1.185844e+003, 3.442264e+004
1.186326e+003, 3.444748e+004
1.186808e+003, 3.441715e+004
1.187291e+003, 3.431436e+004
1.187773e+003, 3.426834e+004
1.188255e+003, 3.434969e+004
1.188737e+003, 3.439730e+004
1.189219e+003, 3.437188e+004
1.189701e+003, 3.434245e+004
1.190183e+003, 3.434453e+004
1.190665e+003, 3.434957e+004
1.191147e+003, 3.432696e+004
1.191630e+003, 3.428153e+004
1.192112e+003, 3.422886e+004
1.192594e+003, 3.415930e+004
1.193076e+003, 3.413727e+004
1.193558e+003, 3.417298e+004
1.194040e+003, 3.420668e+004
1.194522e+003, 3.422766e+004
1.195004e+003, 3.422561e+004
1.195487e+003, 3.419098e+004
1.195969e+003, 3.414795e+004
1.196451e+003, 3.413369e+004
1.196933e+003, 3.413571e+004
1.197415e+003, 3.409451e+004
1.197897e+003, 3.402346e+004
1.198379e+003, 3.401232e+004
1.198861e+003, 3.405512e+004
1.199344e+003, 3.406517e+004
1.199826e+003, 3.401969e+004
1.200308e+003, 3.396105e+004
1.200790e+003, 3.391411e+004
1.201272e+003, 3.389083e+004
1.201754e+003, 3.393655e+004
1.202236e+003, 3.398916e+004
1.202718e+003, 3.392999e+004
1.203200e+003, 3.383097e+004
1.203682e+003, 3.382864e+004
1.204165e+003, 3.390229e+004
1.204647e+003, 3.394884e+004
1.205129e+003, 3.393960e+004
1.205611e+003, 3.391983e+004
1.206093e+003, 3.390293e+004
1.206575e+003, 3.389817e+004
1.207057e+003, 3.393838e+004
1.207539e+003, 3.396127e+004
1.208022e+003, 3.390104e+004
1.208504e+003, 3.381645e+004
1.208986e+003, 3.377355e+004
1.209468e+003, 3.377096e+004
1.209950e+003, 3.378658e+004
1.210432e+003, 3.382649e+004
1.210914e+003, 3.384877e+004
1.211396e+003, 3.385464e+004
1.211879e+003, 3.383459e+004
1.212361e+003, 3.376402e+004
1.212843e+003, 3.370340e+004
1.213325e+003, 3.368370e+004
1.213807e+003, 3.368883e+004
1.214289e+003, 3.370284e+004
1.214771e+003, 3.372284e+004
1.215253e+003, 3.373501e+004
1.215735e+003, 3.373882e+004
1.216218e+003, 3.373864e+004
1.216700e+003, 3.373461e+004
1.217182e+003, 3.372281e+004
1.217664e+003, 3.370162e+004
1.218146e+003, 3.368911e+004
1.218628e+003, 3.369591e+004
1.219110e+003, 3.371724e+004
1.219592e+003, 3.375289e+004
1.220074e+003, 3.379115e+004
1.220557e+003, 3.380646e+004
1.221039e+003, 3.380071e+004
1.221521e+003, 3.376580e+004
1.222003e+003, 3.371617e+004
1.222485e+003, 3.370828e+004
1.222967e+003, 3.374252e+004
1.223449e+003, 3.373814e+004
1.223931e+003, 3.364546e+004
1.224414e+003, 3.354575e+004
1.224896e+003, 3.350929e+004
1.225378e+003, 3.348422e+004
1.225860e+003, 3.341734e+004
1.226342e+003, 3.334984e+004
1.226824e+003, 3.334094e+004
1.227306e+003, 3.336063e+004
1.227788e+003, 3.333956e+004
1.228271e+003, 3.327182e+004
1.228753e+003, 3.322020e+004
1.229235e+003, 3.320729e+004
1.229717e+003, 3.319475e+004
1.230199e+003, 3.316922e+004
1.230681e+003, 3.315618e+004
1.231163e+003, 3.316381e+004
1.231645e+003, 3.318712e+004
1.232127e+003, 3.323295e+004
1.232609e+003, 3.328162e+004
1.233092e+003, 3.329074e+004
1.233574e+003, 3.326130e+004
1.234056e+003, 3.325800e+004
1.234538e+003, 3.328459e+004
1.235020e+003, 3.330331e+004
1.235502e+003, 3.331124e+004
1.235984e+003, 3.328508e+004
1.236466e+003, 3.321504e+004
1.236949e+003, 3.316223e+004
1.237431e+003, 3.317821e+004
1.237913e+003, 3.321447e+004
1.238395e+003, 3.318365e+004
1.238877e+003, 3.311891e+004
1.239359e+003, 3.310078e+004
1.239841e+003, 3.311327e+004
1.240323e+003, 3.312396e+004
1.240806e+003, 3.312569e+004
1.241288e+003, 3.311031e+004
1.241770e+003, 3.307845e+004
1.242252e+003, 3.305009e+004
1.242734e+003, 3.303464e+004
1.243216e+003, 3.303037e+004
1.243698e+003, 3.304020e+004
1.244180e+003, 3.305614e+004
1.244662e+003, 3.308800e+004
1.245145e+003, 3.310976e+004
1.245627e+003, 3.308301e+004
1.246109e+003, 3.302921e+004
1.246591e+003, 3.300511e+004
1.247073e+003, 3.301905e+004
1.247555e+003, 3.300036e+004
1.248037e+003, 3.290641e+004
1.248519e+003, 3.285512e+004
1.249001e+003, 3.287245e+004
1.249484e+003, 3.289008e+004
1.249966e+003, 3.288899e+004
1.250448e+003, 3.287304e+004
1.250930e+003, 3.284012e+004
1.251412e+003, 3.280607e+004
1.251894e+003, 3.280241e+004
1.252376e+003, 3.282584e+004
1.252858e+003, 3.286236e+004
1.253341e+003, 3.290619e+004
1.253823e+003, 3.289452e+004
1.254305e+003, 3.283136e+004
1.254787e+003, 3.278890e+004
1.255269e+003, 3.278937e+004
1.255751e+003, 3.281399e+004
1.256233e+003, 3.285397e+004
1.256715e+003, 3.288961e+004
1.257198e+003, 3.290305e+004
1.257680e+003, 3.289804e+004
1.258162e+003, 3.286289e+004
1.258644e+003, 3.282473e+004
1.259126e+003, 3.280866e+004
1.259608e+003, 3.282119e+004
1.260090e+003, 3.288446e+004
1.260572e+003, 3.299068e+004
1.261054e+003, 3.305205e+004
1.261536e+003, 3.303622e+004
1.262019e+003, 3.299376e+004
1.262501e+003, 3.288631e+004
1.262983e+003, 3.282011e+004
1.263465e+003, 3.285546e+004
1.263947e+003, 3.290465e+004
1.264429e+003, 3.292307e+004
1.264911e+003, 3.291106e+004
1.265393e+003, 3.286333e+004
1.265876e+003, 3.278705e+004
1.266358e+003, 3.272969e+004
1.266840e+003, 3.269161e+004
1.267322e+003, 3.267384e+004
1.267804e+003, 3.267647e+004
1.268286e+003, 3.269520e+004
1.268768e+003, 3.272742e+004
1.269250e+003, 3.274085e+004
1.269733e+003, 3.271772e+004
1.270215e+003, 3.268331e+004
1.270697e+003, 3.266670e+004
1.271179e+003, 3.265197e+004
1.271661e+003, 3.259754e+004
1.272143e+003, 3.254415e+004
1.272625e+003, 3.256765e+004
1.273107e+003, 3.262783e+004
1.273589e+003, 3.263573e+004
1.274072e+003, 3.259963e+004
1.274554e+003, 3.261332e+004
1.275036e+003, 3.271475e+004
1.275518e+003, 3.275904e+004
1.276000e+003, 3.265223e+004
1.276482e+003, 3.255197e+004
1.276964e+003, 3.249829e+004
1.277446e+003, 3.246982e+004
1.277929e+003, 3.244653e+004
1.278411e+003, 3.243983e+004
1.278893e+003, 3.246643e+004
1.279375e+003, 3.251527e+004
1.279857e+003, 3.255897e+004
1.280339e+003, 3.259837e+004
1.280821e+003, 3.259496e+004
1.281303e+003, 3.255204e+004
1.281786e+003, 3.252860e+004
1.282268e+003, 3.253111e+004
##END=



