##NAMES=Mammothite
##RRUFFID=R130100
##IDEAL CHEMISTRY=Pb^2+^_6_Cu^2+^_4_AlSb^5+^O_2_(S^6+^O_4_)_2_Cl_4_(OH)_16_
##LOCALITY=Rowley mine, Maricopa County, Arizona, USA
##OWNER=RRUFF
##SOURCE=Joe Ruiz
##DESCRIPTION=Blue bladed crystals, associated with blue cubes of boleite R130099, irregular masses of blue diaboleite, colorless paralaurionite, colorless gypsum in massive cerussite
##STATUS=The identification of this mineral has been confirmed by single-crystal X-ray diffraction.
##URL=rruff.info/R130100
8.975323e+001, 0.000000e+000
9.023535e+001, 1.323677e+002
9.071747e+001, 1.324285e+002
9.119958e+001, 1.319450e+002
9.168170e+001, 1.327832e+002
9.216382e+001, 1.329054e+002
9.264594e+001, 1.323782e+002
9.312805e+001, 1.316717e+002
9.361017e+001, 1.308776e+002
9.409229e+001, 1.293059e+002
9.457440e+001, 1.259382e+002
9.505651e+001, 1.235530e+002
9.553863e+001, 1.224619e+002
9.602074e+001, 1.221254e+002
9.650286e+001, 1.221556e+002
9.698498e+001, 1.223114e+002
9.746709e+001, 1.222925e+002
9.794921e+001, 1.221499e+002
9.843133e+001, 1.220277e+002
9.891344e+001, 1.217197e+002
9.939556e+001, 1.211138e+002
9.987768e+001, 1.202474e+002
1.003598e+002, 1.192611e+002
1.008419e+002, 1.182636e+002
1.013240e+002, 1.171624e+002
1.018061e+002, 1.157670e+002
1.022883e+002, 1.136389e+002
1.027704e+002, 1.114762e+002
1.032525e+002, 1.099829e+002
1.037346e+002, 1.092315e+002
1.042167e+002, 1.086806e+002
1.046988e+002, 1.080832e+002
1.051810e+002, 1.074022e+002
1.056631e+002, 1.065534e+002
1.061452e+002, 1.053890e+002
1.066273e+002, 1.040033e+002
1.071094e+002, 1.027929e+002
1.075915e+002, 1.018627e+002
1.080737e+002, 1.009872e+002
1.085558e+002, 1.000629e+002
1.090379e+002, 9.910474e+001
1.095200e+002, 9.817006e+001
1.100021e+002, 9.729621e+001
1.104842e+002, 9.647885e+001
1.109664e+002, 9.576906e+001
1.114485e+002, 9.520659e+001
1.119306e+002, 9.470599e+001
1.124127e+002, 9.426624e+001
1.128948e+002, 9.386942e+001
1.133769e+002, 9.345372e+001
1.138591e+002, 9.292209e+001
1.143412e+002, 9.206857e+001
1.148233e+002, 9.148319e+001
1.153054e+002, 9.167479e+001
1.157875e+002, 9.189562e+001
1.162696e+002, 9.131798e+001
1.167517e+002, 8.961696e+001
1.172339e+002, 8.726442e+001
1.177160e+002, 8.534084e+001
1.181981e+002, 8.383044e+001
1.186802e+002, 8.260963e+001
1.191623e+002, 8.179553e+001
1.196444e+002, 8.127166e+001
1.201266e+002, 8.072327e+001
1.206087e+002, 8.004409e+001
1.210908e+002, 7.921911e+001
1.215729e+002, 7.827340e+001
1.220550e+002, 7.717545e+001
1.225371e+002, 7.601144e+001
1.230193e+002, 7.482102e+001
1.235014e+002, 7.358520e+001
1.239835e+002, 7.245904e+001
1.244656e+002, 7.158953e+001
1.249477e+002, 7.085220e+001
1.254298e+002, 7.013451e+001
1.259120e+002, 6.937700e+001
1.263941e+002, 6.865554e+001
1.268762e+002, 6.817706e+001
1.273583e+002, 6.811391e+001
1.278404e+002, 6.801332e+001
1.283225e+002, 6.781045e+001
1.288047e+002, 6.748120e+001
1.292868e+002, 6.696801e+001
1.297689e+002, 6.619588e+001
1.302510e+002, 6.519622e+001
1.307331e+002, 6.443342e+001
1.312152e+002, 6.421003e+001
1.316974e+002, 6.394162e+001
1.321795e+002, 6.344939e+001
1.326616e+002, 6.278495e+001
1.331437e+002, 6.211075e+001
1.336258e+002, 6.156966e+001
1.341079e+002, 6.118752e+001
1.345901e+002, 6.076251e+001
1.350722e+002, 6.028930e+001
1.355543e+002, 5.978719e+001
1.360364e+002, 5.927713e+001
1.365185e+002, 5.875835e+001
1.370006e+002, 5.819962e+001
1.374828e+002, 5.755274e+001
1.379649e+002, 5.678176e+001
1.384470e+002, 5.611235e+001
1.389291e+002, 5.566239e+001
1.394112e+002, 5.527735e+001
1.398933e+002, 5.473867e+001
1.403755e+002, 5.396727e+001
1.408576e+002, 5.317491e+001
1.413397e+002, 5.260950e+001
1.418218e+002, 5.223945e+001
1.423039e+002, 5.206913e+001
1.427860e+002, 5.223804e+001
1.432681e+002, 5.264199e+001
1.437503e+002, 5.290030e+001
1.442324e+002, 5.288584e+001
1.447145e+002, 5.273599e+001
1.451966e+002, 5.252198e+001
1.456787e+002, 5.225017e+001
1.461608e+002, 5.209594e+001
1.466430e+002, 5.235889e+001
1.471251e+002, 5.312040e+001
1.476072e+002, 5.350005e+001
1.480893e+002, 5.281314e+001
1.485714e+002, 5.200995e+001
1.490535e+002, 5.162296e+001
1.495357e+002, 5.175933e+001
1.500178e+002, 5.213025e+001
1.504999e+002, 5.231839e+001
1.509820e+002, 5.225927e+001
1.514641e+002, 5.214410e+001
1.519462e+002, 5.190089e+001
1.524284e+002, 5.167080e+001
1.529105e+002, 5.158370e+001
1.533926e+002, 5.168534e+001
1.538747e+002, 5.189891e+001
1.543568e+002, 5.203601e+001
1.548389e+002, 5.212759e+001
1.553211e+002, 5.208119e+001
1.558032e+002, 5.176234e+001
1.562853e+002, 5.134338e+001
1.567674e+002, 5.103369e+001
1.572495e+002, 5.094023e+001
1.577316e+002, 5.101466e+001
1.582138e+002, 5.105751e+001
1.586959e+002, 5.106559e+001
1.591780e+002, 5.105169e+001
1.596601e+002, 5.110846e+001
1.601422e+002, 5.115351e+001
1.606243e+002, 5.099369e+001
1.611065e+002, 5.050850e+001
1.615886e+002, 4.972345e+001
1.620707e+002, 4.885122e+001
1.625528e+002, 4.773648e+001
1.630349e+002, 4.668960e+001
1.635170e+002, 4.592145e+001
1.639991e+002, 4.541084e+001
1.644813e+002, 4.498406e+001
1.649634e+002, 4.465625e+001
1.654455e+002, 4.429870e+001
1.659276e+002, 4.362199e+001
1.664097e+002, 4.227483e+001
1.668918e+002, 4.084536e+001
1.673740e+002, 4.010429e+001
1.678561e+002, 4.020163e+001
1.683382e+002, 4.027917e+001
1.688203e+002, 3.974677e+001
1.693024e+002, 3.891785e+001
1.697845e+002, 3.814937e+001
1.702667e+002, 3.759584e+001
1.707488e+002, 3.717440e+001
1.712309e+002, 3.669291e+001
1.717130e+002, 3.611485e+001
1.721951e+002, 3.554224e+001
1.726772e+002, 3.497596e+001
1.731594e+002, 3.444172e+001
1.736415e+002, 3.397927e+001
1.741236e+002, 3.362673e+001
1.746057e+002, 3.336498e+001
1.750878e+002, 3.307630e+001
1.755699e+002, 3.264483e+001
1.760521e+002, 3.232671e+001
1.765342e+002, 3.233430e+001
1.770163e+002, 3.249463e+001
1.774984e+002, 3.250133e+001
1.779805e+002, 3.210872e+001
1.784626e+002, 3.131178e+001
1.789448e+002, 3.062863e+001
1.794269e+002, 2.998153e+001
1.799090e+002, 2.951922e+001
1.803911e+002, 2.940015e+001
1.808732e+002, 2.952714e+001
1.813553e+002, 2.966315e+001
1.818375e+002, 2.959505e+001
1.823196e+002, 2.928678e+001
1.828017e+002, 2.913561e+001
1.832838e+002, 2.920863e+001
1.837659e+002, 2.933858e+001
1.842480e+002, 2.948360e+001
1.847301e+002, 2.962240e+001
1.852123e+002, 2.970646e+001
1.856944e+002, 2.967292e+001
1.861765e+002, 2.949751e+001
1.866586e+002, 2.943400e+001
1.871407e+002, 2.953043e+001
1.876228e+002, 2.969847e+001
1.881050e+002, 2.995101e+001
1.885871e+002, 3.027509e+001
1.890692e+002, 3.047075e+001
1.895513e+002, 3.024697e+001
1.900334e+002, 2.962173e+001
1.905155e+002, 2.922945e+001
1.909977e+002, 2.927013e+001
1.914798e+002, 2.951688e+001
1.919619e+002, 2.977488e+001
1.924440e+002, 3.004873e+001
1.929261e+002, 3.019448e+001
1.934082e+002, 2.987764e+001
1.938904e+002, 2.926134e+001
1.943725e+002, 2.888760e+001
1.948546e+002, 2.910880e+001
1.953367e+002, 2.965295e+001
1.958188e+002, 2.996897e+001
1.963009e+002, 2.994144e+001
1.967831e+002, 2.984049e+001
1.972652e+002, 2.985378e+001
1.977473e+002, 2.995367e+001
1.982294e+002, 3.007789e+001
1.987115e+002, 3.021870e+001
1.991936e+002, 3.036429e+001
1.996758e+002, 3.046082e+001
2.001579e+002, 3.049103e+001
2.006400e+002, 3.048917e+001
2.011221e+002, 3.051037e+001
2.016042e+002, 3.052423e+001
2.020863e+002, 3.045372e+001
2.025685e+002, 3.020765e+001
2.030506e+002, 2.979921e+001
2.035327e+002, 2.946334e+001
2.040148e+002, 2.924061e+001
2.044969e+002, 2.905936e+001
2.049790e+002, 2.885754e+001
2.054612e+002, 2.866967e+001
2.059433e+002, 2.858508e+001
2.064254e+002, 2.872032e+001
2.069075e+002, 2.909558e+001
2.073896e+002, 2.929398e+001
2.078717e+002, 2.926426e+001
2.083539e+002, 2.908992e+001
2.088360e+002, 2.871010e+001
2.093181e+002, 2.818859e+001
2.098002e+002, 2.767118e+001
2.102823e+002, 2.730289e+001
2.107644e+002, 2.712010e+001
2.112466e+002, 2.677782e+001
2.117287e+002, 2.588134e+001
2.122108e+002, 2.520291e+001
2.126929e+002, 2.519848e+001
2.131750e+002, 2.573655e+001
2.136571e+002, 2.633743e+001
2.141393e+002, 2.656635e+001
2.146214e+002, 2.637237e+001
2.151035e+002, 2.612751e+001
2.155856e+002, 2.574335e+001
2.160677e+002, 2.539647e+001
2.165498e+002, 2.519333e+001
2.170320e+002, 2.512031e+001
2.175141e+002, 2.507744e+001
2.179962e+002, 2.497127e+001
2.184783e+002, 2.478936e+001
2.189604e+002, 2.467058e+001
2.194425e+002, 2.470325e+001
2.199247e+002, 2.471967e+001
2.204068e+002, 2.457960e+001
2.208889e+002, 2.429692e+001
2.213710e+002, 2.403010e+001
2.218531e+002, 2.392300e+001
2.223352e+002, 2.399020e+001
2.228174e+002, 2.401618e+001
2.232995e+002, 2.403999e+001
2.237816e+002, 2.399625e+001
2.242637e+002, 2.380036e+001
2.247458e+002, 2.345615e+001
2.252279e+002, 2.309153e+001
2.257100e+002, 2.276987e+001
2.261922e+002, 2.251610e+001
2.266743e+002, 2.242294e+001
2.271564e+002, 2.265303e+001
2.276385e+002, 2.294956e+001
2.281206e+002, 2.307200e+001
2.286027e+002, 2.300590e+001
2.290849e+002, 2.288556e+001
2.295670e+002, 2.283028e+001
2.300491e+002, 2.279200e+001
2.305312e+002, 2.263553e+001
2.310133e+002, 2.218024e+001
2.314954e+002, 2.168480e+001
2.319776e+002, 2.148493e+001
2.324597e+002, 2.162188e+001
2.329418e+002, 2.176390e+001
2.334239e+002, 2.162626e+001
2.339060e+002, 2.137063e+001
2.343881e+002, 2.125933e+001
2.348703e+002, 2.147468e+001
2.353524e+002, 2.176353e+001
2.358345e+002, 2.172347e+001
2.363166e+002, 2.125782e+001
2.367987e+002, 2.086428e+001
2.372808e+002, 2.089529e+001
2.377630e+002, 2.111172e+001
2.382451e+002, 2.126889e+001
2.387272e+002, 2.129452e+001
2.392093e+002, 2.122485e+001
2.396914e+002, 2.109884e+001
2.401735e+002, 2.089186e+001
2.406557e+002, 2.070637e+001
2.411378e+002, 2.056848e+001
2.416199e+002, 2.047549e+001
2.421020e+002, 2.043962e+001
2.425841e+002, 2.047427e+001
2.430662e+002, 2.053971e+001
2.435484e+002, 2.058484e+001
2.440305e+002, 2.063796e+001
2.445126e+002, 2.058697e+001
2.449947e+002, 2.033001e+001
2.454768e+002, 2.000239e+001
2.459589e+002, 1.969933e+001
2.464410e+002, 1.944973e+001
2.469232e+002, 1.926757e+001
2.474053e+002, 1.918824e+001
2.478874e+002, 1.926087e+001
2.483695e+002, 1.932209e+001
2.488516e+002, 1.937671e+001
2.493337e+002, 1.939163e+001
2.498159e+002, 1.933331e+001
2.502980e+002, 1.919233e+001
2.507801e+002, 1.899658e+001
2.512622e+002, 1.878670e+001
2.517443e+002, 1.855659e+001
2.522264e+002, 1.832797e+001
2.527086e+002, 1.809437e+001
2.531907e+002, 1.786795e+001
2.536728e+002, 1.765096e+001
2.541549e+002, 1.744650e+001
2.546370e+002, 1.726303e+001
2.551191e+002, 1.710698e+001
2.556013e+002, 1.695645e+001
2.560834e+002, 1.689137e+001
2.565655e+002, 1.697433e+001
2.570476e+002, 1.708146e+001
2.575297e+002, 1.716227e+001
2.580118e+002, 1.719282e+001
2.584940e+002, 1.714122e+001
2.589761e+002, 1.693382e+001
2.594582e+002, 1.641156e+001
2.599403e+002, 1.615127e+001
2.604224e+002, 1.631760e+001
2.609045e+002, 1.655842e+001
2.613867e+002, 1.665826e+001
2.618688e+002, 1.659632e+001
2.623509e+002, 1.648613e+001
2.628330e+002, 1.645725e+001
2.633151e+002, 1.653356e+001
2.637972e+002, 1.661011e+001
2.642794e+002, 1.678517e+001
2.647615e+002, 1.688127e+001
2.652436e+002, 1.675626e+001
2.657257e+002, 1.643589e+001
2.662078e+002, 1.606781e+001
2.666899e+002, 1.578992e+001
2.671721e+002, 1.561003e+001
2.676542e+002, 1.549170e+001
2.681363e+002, 1.540581e+001
2.686184e+002, 1.539173e+001
2.691005e+002, 1.549651e+001
2.695826e+002, 1.569911e+001
2.700648e+002, 1.593361e+001
2.705469e+002, 1.615355e+001
2.710290e+002, 1.635854e+001
2.715111e+002, 1.650822e+001
2.719932e+002, 1.663479e+001
2.724753e+002, 1.668913e+001
2.729575e+002, 1.657094e+001
2.734396e+002, 1.635116e+001
2.739217e+002, 1.622473e+001
2.744038e+002, 1.634020e+001
2.748859e+002, 1.667002e+001
2.753680e+002, 1.686869e+001
2.758501e+002, 1.681245e+001
2.763322e+002, 1.679228e+001
2.768144e+002, 1.696992e+001
2.772965e+002, 1.725969e+001
2.777786e+002, 1.746033e+001
2.782607e+002, 1.745447e+001
2.787428e+002, 1.728937e+001
2.792249e+002, 1.716310e+001
2.797071e+002, 1.704223e+001
2.801892e+002, 1.698747e+001
2.806713e+002, 1.701448e+001
2.811534e+002, 1.711769e+001
2.816355e+002, 1.731830e+001
2.821176e+002, 1.764496e+001
2.825998e+002, 1.801150e+001
2.830819e+002, 1.817484e+001
2.835640e+002, 1.805394e+001
2.840461e+002, 1.792434e+001
2.845282e+002, 1.782093e+001
2.850103e+002, 1.774710e+001
2.854925e+002, 1.769404e+001
2.859746e+002, 1.765328e+001
2.864567e+002, 1.767066e+001
2.869388e+002, 1.787412e+001
2.874209e+002, 1.837976e+001
2.879030e+002, 1.866547e+001
2.883852e+002, 1.856543e+001
2.888673e+002, 1.823411e+001
2.893494e+002, 1.777737e+001
2.898315e+002, 1.720854e+001
2.903136e+002, 1.672662e+001
2.907957e+002, 1.661911e+001
2.912779e+002, 1.694320e+001
2.917600e+002, 1.721021e+001
2.922421e+002, 1.740066e+001
2.927242e+002, 1.749765e+001
2.932063e+002, 1.745218e+001
2.936884e+002, 1.726093e+001
2.941706e+002, 1.703298e+001
2.946527e+002, 1.685048e+001
2.951348e+002, 1.672008e+001
2.956169e+002, 1.665950e+001
2.960990e+002, 1.668435e+001
2.965811e+002, 1.676870e+001
2.970633e+002, 1.690794e+001
2.975454e+002, 1.709669e+001
2.980275e+002, 1.731097e+001
2.985096e+002, 1.757168e+001
2.989917e+002, 1.783985e+001
2.994738e+002, 1.793644e+001
2.999560e+002, 1.774442e+001
3.004381e+002, 1.749161e+001
3.009202e+002, 1.725469e+001
3.014023e+002, 1.705160e+001
3.018844e+002, 1.696396e+001
3.023665e+002, 1.706856e+001
3.028487e+002, 1.729579e+001
3.033308e+002, 1.743018e+001
3.038129e+002, 1.743854e+001
3.042950e+002, 1.742132e+001
3.047771e+002, 1.740632e+001
3.052592e+002, 1.739862e+001
3.057414e+002, 1.742597e+001
3.062235e+002, 1.751972e+001
3.067056e+002, 1.761408e+001
3.071877e+002, 1.756789e+001
3.076698e+002, 1.736267e+001
3.081519e+002, 1.713946e+001
3.086341e+002, 1.693732e+001
3.091162e+002, 1.674806e+001
3.095983e+002, 1.656562e+001
3.100804e+002, 1.639313e+001
3.105625e+002, 1.620932e+001
3.110446e+002, 1.595668e+001
3.115268e+002, 1.562506e+001
3.120089e+002, 1.539642e+001
3.124910e+002, 1.547870e+001
3.129731e+002, 1.560323e+001
3.134552e+002, 1.536478e+001
3.139373e+002, 1.469103e+001
3.144195e+002, 1.403057e+001
3.149016e+002, 1.383422e+001
3.153837e+002, 1.407640e+001
3.158658e+002, 1.423643e+001
3.163479e+002, 1.422720e+001
3.168300e+002, 1.415337e+001
3.173121e+002, 1.409475e+001
3.177943e+002, 1.405348e+001
3.182764e+002, 1.400573e+001
3.187585e+002, 1.394034e+001
3.192406e+002, 1.385298e+001
3.197227e+002, 1.373623e+001
3.202048e+002, 1.348039e+001
3.206870e+002, 1.330298e+001
3.211691e+002, 1.341530e+001
3.216512e+002, 1.372905e+001
3.221333e+002, 1.392727e+001
3.226154e+002, 1.384784e+001
3.230975e+002, 1.357740e+001
3.235797e+002, 1.332513e+001
3.240618e+002, 1.304392e+001
3.245439e+002, 1.286658e+001
3.250260e+002, 1.294770e+001
3.255081e+002, 1.314946e+001
3.259902e+002, 1.317602e+001
3.264724e+002, 1.290296e+001
3.269545e+002, 1.254873e+001
3.274366e+002, 1.249892e+001
3.279187e+002, 1.281953e+001
3.284008e+002, 1.300216e+001
3.288829e+002, 1.286429e+001
3.293651e+002, 1.258104e+001
3.298472e+002, 1.235260e+001
3.303293e+002, 1.221347e+001
3.308114e+002, 1.208704e+001
3.312935e+002, 1.188312e+001
3.317756e+002, 1.159465e+001
3.322578e+002, 1.138264e+001
3.327399e+002, 1.130226e+001
3.332220e+002, 1.126297e+001
3.337041e+002, 1.121717e+001
3.341862e+002, 1.115722e+001
3.346683e+002, 1.106144e+001
3.351505e+002, 1.090222e+001
3.356326e+002, 1.069401e+001
3.361147e+002, 1.054582e+001
3.365968e+002, 1.046548e+001
3.370789e+002, 1.042649e+001
3.375610e+002, 1.047247e+001
3.380432e+002, 1.055327e+001
3.385253e+002, 1.052408e+001
3.390074e+002, 1.029263e+001
3.394895e+002, 9.970198e+000
3.399716e+002, 9.875037e+000
3.404537e+002, 1.012010e+001
3.409359e+002, 1.034712e+001
3.414180e+002, 1.054562e+001
3.419001e+002, 1.066926e+001
3.423822e+002, 1.060970e+001
3.428643e+002, 1.033583e+001
3.433464e+002, 1.001519e+001
3.438286e+002, 9.892862e+000
3.443107e+002, 1.008231e+001
3.447928e+002, 1.014264e+001
3.452749e+002, 9.982799e+000
3.457570e+002, 9.754385e+000
3.462391e+002, 9.513752e+000
3.467213e+002, 9.295362e+000
3.472034e+002, 9.204850e+000
3.476855e+002, 9.364971e+000
3.481676e+002, 9.794422e+000
3.486497e+002, 1.008413e+001
3.491318e+002, 1.012269e+001
3.496140e+002, 1.015898e+001
3.500961e+002, 1.037031e+001
3.505782e+002, 1.066431e+001
3.510603e+002, 1.080279e+001
3.515424e+002, 1.063087e+001
3.520245e+002, 1.023178e+001
3.525067e+002, 9.960989e+000
3.529888e+002, 9.859756e+000
3.534709e+002, 9.834920e+000
3.539530e+002, 9.944060e+000
3.544351e+002, 1.009742e+001
3.549172e+002, 1.018966e+001
3.553994e+002, 1.018437e+001
3.558815e+002, 1.012378e+001
3.563636e+002, 1.007674e+001
3.568457e+002, 1.003892e+001
3.573278e+002, 1.002773e+001
3.578099e+002, 1.005680e+001
3.582920e+002, 1.009947e+001
3.587741e+002, 1.015135e+001
3.592563e+002, 1.020372e+001
3.597384e+002, 1.022802e+001
3.602205e+002, 1.018527e+001
3.607026e+002, 1.005868e+001
3.611847e+002, 1.003125e+001
3.616668e+002, 1.025480e+001
3.621490e+002, 1.041393e+001
3.626311e+002, 1.032936e+001
3.631132e+002, 1.010795e+001
3.635953e+002, 9.995060e+000
3.640774e+002, 1.016043e+001
3.645595e+002, 1.048478e+001
3.650417e+002, 1.043513e+001
3.655238e+002, 9.473700e+000
3.660059e+002, 8.882817e+000
3.664880e+002, 9.042615e+000
3.669701e+002, 9.505950e+000
3.674522e+002, 9.847081e+000
3.679344e+002, 9.926470e+000
3.684165e+002, 9.881191e+000
3.688986e+002, 9.945083e+000
3.693807e+002, 1.022499e+001
3.698628e+002, 1.031456e+001
3.703449e+002, 9.933804e+000
3.708271e+002, 9.594920e+000
3.713092e+002, 9.642121e+000
3.717913e+002, 1.002205e+001
3.722734e+002, 1.040087e+001
3.727555e+002, 1.047948e+001
3.732376e+002, 1.026700e+001
3.737198e+002, 1.004715e+001
3.742019e+002, 9.722011e+000
3.746840e+002, 9.521403e+000
3.751661e+002, 9.573517e+000
3.756482e+002, 9.777951e+000
3.761303e+002, 9.986718e+000
3.766125e+002, 1.013358e+001
3.770946e+002, 1.023365e+001
3.775767e+002, 1.031687e+001
3.780588e+002, 1.037708e+001
3.785409e+002, 1.043761e+001
3.790230e+002, 1.046349e+001
3.795052e+002, 1.051688e+001
3.799873e+002, 1.069735e+001
3.804694e+002, 1.102081e+001
3.809515e+002, 1.129300e+001
3.814336e+002, 1.126391e+001
3.819157e+002, 1.094107e+001
3.823979e+002, 1.069963e+001
3.828800e+002, 1.054246e+001
3.833621e+002, 1.054681e+001
3.838442e+002, 1.082619e+001
3.843263e+002, 1.130735e+001
3.848084e+002, 1.173520e+001
3.852906e+002, 1.193412e+001
3.857727e+002, 1.198828e+001
3.862548e+002, 1.210806e+001
3.867369e+002, 1.232906e+001
3.872190e+002, 1.248476e+001
3.877011e+002, 1.240913e+001
3.881833e+002, 1.222623e+001
3.886654e+002, 1.210705e+001
3.891475e+002, 1.209239e+001
3.896296e+002, 1.213150e+001
3.901117e+002, 1.217972e+001
3.905938e+002, 1.224070e+001
3.910760e+002, 1.235105e+001
3.915581e+002, 1.255548e+001
3.920402e+002, 1.277356e+001
3.925223e+002, 1.288111e+001
3.930044e+002, 1.287017e+001
3.934865e+002, 1.287845e+001
3.939687e+002, 1.302234e+001
3.944508e+002, 1.319866e+001
3.949329e+002, 1.320756e+001
3.954150e+002, 1.300564e+001
3.958971e+002, 1.280311e+001
3.963792e+002, 1.282383e+001
3.968614e+002, 1.303796e+001
3.973435e+002, 1.308912e+001
3.978256e+002, 1.276139e+001
3.983077e+002, 1.244228e+001
3.987898e+002, 1.244999e+001
3.992719e+002, 1.269964e+001
3.997540e+002, 1.287691e+001
4.002361e+002, 1.283014e+001
4.007183e+002, 1.260081e+001
4.012004e+002, 1.228307e+001
4.016825e+002, 1.174129e+001
4.021646e+002, 1.135834e+001
4.026467e+002, 1.130158e+001
4.031288e+002, 1.139166e+001
4.036110e+002, 1.147032e+001
4.040931e+002, 1.148951e+001
4.045752e+002, 1.138857e+001
4.050573e+002, 1.106411e+001
4.055394e+002, 1.043281e+001
4.060215e+002, 1.001891e+001
4.065037e+002, 9.950120e+000
4.069858e+002, 9.947958e+000
4.074679e+002, 9.900150e+000
4.079500e+002, 9.805081e+000
4.084321e+002, 9.680486e+000
4.089142e+002, 9.527512e+000
4.093964e+002, 9.374630e+000
4.098785e+002, 9.354323e+000
4.103606e+002, 9.688186e+000
4.108427e+002, 9.865742e+000
4.113248e+002, 9.737906e+000
4.118069e+002, 9.497126e+000
4.122891e+002, 9.330606e+000
4.127712e+002, 9.284921e+000
4.132533e+002, 9.272302e+000
4.137354e+002, 9.155699e+000
4.142175e+002, 8.875870e+000
4.146996e+002, 8.729480e+000
4.151818e+002, 8.785847e+000
4.156639e+002, 8.916852e+000
4.161460e+002, 9.155008e+000
4.166281e+002, 9.432709e+000
4.171102e+002, 9.609351e+000
4.175923e+002, 9.588380e+000
4.180745e+002, 9.409560e+000
4.185566e+002, 9.184014e+000
4.190387e+002, 8.844998e+000
4.195208e+002, 8.614162e+000
4.200029e+002, 8.660489e+000
4.204850e+002, 8.785367e+000
4.209672e+002, 8.785509e+000
4.214493e+002, 8.608517e+000
4.219314e+002, 8.426932e+000
4.224135e+002, 8.440020e+000
4.228956e+002, 8.637136e+000
4.233777e+002, 8.782377e+000
4.238599e+002, 8.762737e+000
4.243420e+002, 8.797031e+000
4.248241e+002, 9.118174e+000
4.253062e+002, 9.643400e+000
4.257883e+002, 1.007254e+001
4.262704e+002, 1.023077e+001
4.267526e+002, 1.024372e+001
4.272347e+002, 1.026070e+001
4.277168e+002, 1.027823e+001
4.281989e+002, 1.039156e+001
4.286810e+002, 1.072650e+001
4.291631e+002, 1.115211e+001
4.296453e+002, 1.138669e+001
4.301274e+002, 1.138865e+001
4.306095e+002, 1.129241e+001
4.310916e+002, 1.116320e+001
4.315737e+002, 1.098306e+001
4.320558e+002, 1.067898e+001
4.325380e+002, 1.021731e+001
4.330201e+002, 9.750687e+000
4.335022e+002, 9.460011e+000
4.339843e+002, 9.370837e+000
4.344664e+002, 9.302405e+000
4.349485e+002, 9.241335e+000
4.354307e+002, 9.205701e+000
4.359128e+002, 9.217553e+000
4.363949e+002, 9.267558e+000
4.368770e+002, 9.314860e+000
4.373591e+002, 9.327529e+000
4.378412e+002, 9.335752e+000
4.383234e+002, 9.456195e+000
4.388055e+002, 9.909299e+000
4.392876e+002, 1.019151e+001
4.397697e+002, 1.014431e+001
4.402518e+002, 9.981993e+000
4.407339e+002, 9.879634e+000
4.412160e+002, 9.884683e+000
4.416982e+002, 9.979823e+000
4.421803e+002, 1.016618e+001
4.426624e+002, 1.047362e+001
4.431445e+002, 1.065656e+001
4.436266e+002, 1.057558e+001
4.441087e+002, 1.051272e+001
4.445909e+002, 1.054298e+001
4.450730e+002, 1.065165e+001
4.455551e+002, 1.083392e+001
4.460372e+002, 1.110207e+001
4.465193e+002, 1.136127e+001
4.470014e+002, 1.136797e+001
4.474836e+002, 1.101378e+001
4.479657e+002, 1.073055e+001
4.484478e+002, 1.055573e+001
4.489299e+002, 1.050813e+001
4.494120e+002, 1.071283e+001
4.498941e+002, 1.112416e+001
4.503763e+002, 1.142225e+001
4.508584e+002, 1.130174e+001
4.513405e+002, 1.085321e+001
4.518226e+002, 1.043174e+001
4.523047e+002, 9.998021e+000
4.527868e+002, 9.711111e+000
4.532690e+002, 9.826208e+000
4.537511e+002, 1.011003e+001
4.542332e+002, 1.023377e+001
4.547153e+002, 1.010926e+001
4.551974e+002, 9.848266e+000
4.556795e+002, 9.455797e+000
4.561617e+002, 8.981507e+000
4.566438e+002, 8.633220e+000
4.571259e+002, 8.469589e+000
4.576080e+002, 8.453386e+000
4.580901e+002, 8.630539e+000
4.585722e+002, 9.007807e+000
4.590544e+002, 9.173061e+000
4.595365e+002, 8.890930e+000
4.600186e+002, 8.483075e+000
4.605007e+002, 8.199017e+000
4.609828e+002, 8.048909e+000
4.614649e+002, 7.984498e+000
4.619471e+002, 7.998761e+000
4.624292e+002, 8.052896e+000
4.629113e+002, 7.981552e+000
4.633934e+002, 7.608652e+000
4.638755e+002, 7.349126e+000
4.643576e+002, 7.276909e+000
4.648398e+002, 7.323426e+000
4.653219e+002, 7.458997e+000
4.658040e+002, 7.658139e+000
4.662861e+002, 7.847334e+000
4.667682e+002, 7.962122e+000
4.672503e+002, 8.015415e+000
4.677325e+002, 7.869281e+000
4.682146e+002, 7.138110e+000
4.686967e+002, 6.620680e+000
4.691788e+002, 6.660441e+000
4.696609e+002, 7.017503e+000
4.701430e+002, 7.346390e+000
4.706252e+002, 7.497679e+000
4.711073e+002, 7.528120e+000
4.715894e+002, 7.529154e+000
4.720715e+002, 7.499284e+000
4.725536e+002, 7.445940e+000
4.730357e+002, 7.319953e+000
4.735179e+002, 7.214767e+000
4.740000e+002, 7.210469e+000
4.744821e+002, 7.283368e+000
4.749642e+002, 7.329951e+000
4.754463e+002, 7.297010e+000
4.759284e+002, 7.193575e+000
4.764106e+002, 6.987315e+000
4.768927e+002, 6.641110e+000
4.773748e+002, 6.437322e+000
4.778569e+002, 6.592303e+000
4.783390e+002, 6.929522e+000
4.788211e+002, 7.171181e+000
4.793033e+002, 7.297737e+000
4.797854e+002, 7.360055e+000
4.802675e+002, 7.366016e+000
4.807496e+002, 7.328790e+000
4.812317e+002, 7.250153e+000
4.817138e+002, 7.126801e+000
4.821959e+002, 7.043296e+000
4.826780e+002, 7.096488e+000
4.831602e+002, 7.282482e+000
4.836423e+002, 7.375815e+000
4.841244e+002, 7.326657e+000
4.846065e+002, 7.245486e+000
4.850886e+002, 7.094914e+000
4.855707e+002, 6.960098e+000
4.860529e+002, 7.055073e+000
4.865350e+002, 7.455686e+000
4.870171e+002, 7.882583e+000
4.874992e+002, 7.819176e+000
4.879813e+002, 6.861896e+000
4.884634e+002, 6.539372e+000
4.889456e+002, 7.364833e+000
4.894277e+002, 8.223712e+000
4.899098e+002, 8.600188e+000
4.903919e+002, 8.568357e+000
4.908740e+002, 8.385168e+000
4.913561e+002, 8.181486e+000
4.918383e+002, 7.995099e+000
4.923204e+002, 7.964406e+000
4.928025e+002, 8.197045e+000
4.932846e+002, 8.287489e+000
4.937667e+002, 7.995225e+000
4.942488e+002, 7.643928e+000
4.947310e+002, 7.401065e+000
4.952131e+002, 7.294716e+000
4.956952e+002, 7.339711e+000
4.961773e+002, 7.677727e+000
4.966594e+002, 8.164854e+000
4.971415e+002, 8.366322e+000
4.976237e+002, 8.215772e+000
4.981058e+002, 8.056882e+000
4.985879e+002, 8.122908e+000
4.990700e+002, 8.281204e+000
4.995521e+002, 8.250871e+000
5.000342e+002, 7.901451e+000
5.005164e+002, 7.648908e+000
5.009985e+002, 7.796805e+000
5.014806e+002, 8.153852e+000
5.019627e+002, 8.396699e+000
5.024448e+002, 8.459233e+000
5.029269e+002, 8.395254e+000
5.034091e+002, 8.218497e+000
5.038912e+002, 7.922216e+000
5.043733e+002, 7.803906e+000
5.048554e+002, 8.024164e+000
5.053375e+002, 8.221565e+000
5.058196e+002, 8.254419e+000
5.063018e+002, 8.185966e+000
5.067839e+002, 8.088346e+000
5.072660e+002, 7.993759e+000
5.077481e+002, 7.960422e+000
5.082302e+002, 8.110038e+000
5.087123e+002, 8.549746e+000
5.091945e+002, 8.784332e+000
5.096766e+002, 8.602386e+000
5.101587e+002, 8.425579e+000
5.106408e+002, 8.392720e+000
5.111229e+002, 8.485515e+000
5.116050e+002, 8.666744e+000
5.120872e+002, 8.941379e+000
5.125693e+002, 9.218842e+000
5.130514e+002, 9.328518e+000
5.135335e+002, 9.254737e+000
5.140156e+002, 9.120553e+000
5.144977e+002, 8.797183e+000
5.149799e+002, 8.586297e+000
5.154620e+002, 8.854477e+000
5.159441e+002, 9.512700e+000
5.164262e+002, 9.966070e+000
5.169083e+002, 9.766749e+000
5.173904e+002, 9.342341e+000
5.178726e+002, 9.262979e+000
5.183547e+002, 9.513063e+000
5.188368e+002, 9.746005e+000
5.193189e+002, 9.767231e+000
5.198010e+002, 9.711012e+000
5.202831e+002, 9.913640e+000
5.207653e+002, 1.048212e+001
5.212474e+002, 1.094183e+001
5.217295e+002, 1.115141e+001
5.222116e+002, 1.126260e+001
5.226937e+002, 1.137935e+001
5.231758e+002, 1.152121e+001
5.236580e+002, 1.170334e+001
5.241401e+002, 1.194840e+001
5.246222e+002, 1.222466e+001
5.251043e+002, 1.236624e+001
5.255864e+002, 1.223209e+001
5.260685e+002, 1.215984e+001
5.265507e+002, 1.217628e+001
5.270328e+002, 1.226369e+001
5.275149e+002, 1.244903e+001
5.279970e+002, 1.270852e+001
5.284791e+002, 1.293610e+001
5.289612e+002, 1.304410e+001
5.294434e+002, 1.304029e+001
5.299255e+002, 1.295927e+001
5.304076e+002, 1.276951e+001
5.308897e+002, 1.257628e+001
5.313718e+002, 1.243866e+001
5.318539e+002, 1.231418e+001
5.323361e+002, 1.213422e+001
5.328182e+002, 1.187183e+001
5.333003e+002, 1.167627e+001
5.337824e+002, 1.174765e+001
5.342645e+002, 1.193522e+001
5.347466e+002, 1.188511e+001
5.352288e+002, 1.153889e+001
5.357109e+002, 1.113157e+001
5.361930e+002, 1.080981e+001
5.366751e+002, 1.057891e+001
5.371572e+002, 1.044831e+001
5.376393e+002, 1.059086e+001
5.381215e+002, 1.061347e+001
5.386036e+002, 1.027323e+001
5.390857e+002, 9.812082e+000
5.395678e+002, 9.539659e+000
5.400499e+002, 9.514205e+000
5.405320e+002, 9.581773e+000
5.410142e+002, 9.589606e+000
5.414963e+002, 9.536683e+000
5.419784e+002, 9.457978e+000
5.424604e+002, 9.365034e+000
5.429426e+002, 9.229159e+000
5.434247e+002, 8.961002e+000
5.439068e+002, 8.687593e+000
5.443889e+002, 8.583381e+000
5.448710e+002, 8.686146e+000
5.453531e+002, 8.818726e+000
5.458353e+002, 8.776920e+000
5.463174e+002, 8.575751e+000
5.467995e+002, 8.383869e+000
5.472816e+002, 8.182001e+000
5.477637e+002, 8.049825e+000
5.482458e+002, 8.129666e+000
5.487280e+002, 8.293251e+000
5.492101e+002, 8.319935e+000
5.496922e+002, 8.115671e+000
5.501743e+002, 7.894244e+000
5.506564e+002, 7.795736e+000
5.511385e+002, 7.775027e+000
5.516207e+002, 7.740782e+000
5.521028e+002, 7.674041e+000
5.525849e+002, 7.593247e+000
5.530670e+002, 7.511499e+000
5.535491e+002, 7.428628e+000
5.540313e+002, 7.368156e+000
5.545134e+002, 7.352139e+000
5.549955e+002, 7.328680e+000
5.554776e+002, 7.249106e+000
5.559597e+002, 7.169557e+000
5.564418e+002, 7.177495e+000
5.569240e+002, 7.286555e+000
5.574061e+002, 7.414193e+000
5.578882e+002, 7.476140e+000
5.583703e+002, 7.472879e+000
5.588524e+002, 7.380597e+000
5.593345e+002, 7.117141e+000
5.598167e+002, 6.882724e+000
5.602988e+002, 6.715425e+000
5.607809e+002, 6.622919e+000
5.612630e+002, 6.638172e+000
5.617451e+002, 6.779436e+000
5.622272e+002, 6.920175e+000
5.627094e+002, 6.903800e+000
5.631915e+002, 6.794816e+000
5.636736e+002, 6.846420e+000
5.641557e+002, 7.125862e+000
5.646378e+002, 7.366983e+000
5.651199e+002, 7.346014e+000
5.656021e+002, 7.126988e+000
5.660842e+002, 7.019746e+000
5.665663e+002, 7.126561e+000
5.670484e+002, 7.198698e+000
5.675305e+002, 7.131190e+000
5.680126e+002, 6.992120e+000
5.684948e+002, 6.826922e+000
5.689769e+002, 6.663545e+000
5.694590e+002, 6.595744e+000
5.699411e+002, 6.738184e+000
5.704232e+002, 7.071747e+000
5.709053e+002, 7.216066e+000
5.713875e+002, 6.994714e+000
5.718696e+002, 6.815354e+000
5.723517e+002, 6.706119e+000
5.728338e+002, 6.685357e+000
5.733159e+002, 6.833209e+000
5.737980e+002, 7.129251e+000
5.742802e+002, 7.360967e+000
5.747623e+002, 7.289402e+000
5.752444e+002, 6.993093e+000
5.757265e+002, 6.795615e+000
5.762086e+002, 6.707349e+000
5.766907e+002, 6.677057e+000
5.771729e+002, 6.707973e+000
5.776550e+002, 6.770120e+000
5.781371e+002, 6.827257e+000
5.786192e+002, 6.893035e+000
5.791013e+002, 6.888887e+000
5.795834e+002, 6.666697e+000
5.800656e+002, 6.429140e+000
5.805477e+002, 6.475616e+000
5.810298e+002, 6.777129e+000
5.815119e+002, 6.997585e+000
5.819940e+002, 6.902848e+000
5.824761e+002, 6.612387e+000
5.829583e+002, 6.540096e+000
5.834404e+002, 6.972555e+000
5.839225e+002, 7.186173e+000
5.844046e+002, 6.931868e+000
5.848867e+002, 6.667530e+000
5.853688e+002, 6.752418e+000
5.858510e+002, 7.110098e+000
5.863331e+002, 7.411737e+000
5.868152e+002, 7.438705e+000
5.872973e+002, 7.305490e+000
5.877794e+002, 7.263112e+000
5.882615e+002, 7.318441e+000
5.887437e+002, 7.421237e+000
5.892258e+002, 7.580413e+000
5.897079e+002, 7.762494e+000
5.901900e+002, 7.927352e+000
5.906721e+002, 8.080911e+000
5.911542e+002, 8.262444e+000
5.916364e+002, 8.587413e+000
5.921185e+002, 8.857076e+000
5.926006e+002, 8.828981e+000
5.930827e+002, 8.598649e+000
5.935648e+002, 8.457577e+000
5.940469e+002, 8.514127e+000
5.945291e+002, 8.666564e+000
5.950112e+002, 8.785900e+000
5.954933e+002, 8.886582e+000
5.959754e+002, 8.882376e+000
5.964575e+002, 8.592507e+000
5.969396e+002, 8.413927e+000
5.974218e+002, 8.576005e+000
5.979039e+002, 8.903720e+000
5.983860e+002, 9.175397e+000
5.988681e+002, 9.310366e+000
5.993502e+002, 9.297016e+000
5.998323e+002, 9.032755e+000
6.003145e+002, 8.533019e+000
6.007966e+002, 8.294290e+000
6.012787e+002, 8.467625e+000
6.017608e+002, 8.626217e+000
6.022429e+002, 8.478359e+000
6.027250e+002, 8.174267e+000
6.032072e+002, 7.929115e+000
6.036893e+002, 7.764061e+000
6.041714e+002, 7.667369e+000
6.046535e+002, 7.690116e+000
6.051356e+002, 7.751680e+000
6.056177e+002, 7.718980e+000
6.060999e+002, 7.585144e+000
6.065820e+002, 7.448802e+000
6.070641e+002, 7.377833e+000
6.075462e+002, 7.365117e+000
6.080283e+002, 7.377775e+000
6.085104e+002, 7.387263e+000
6.089926e+002, 7.468634e+000
6.094747e+002, 7.678449e+000
6.099568e+002, 7.914573e+000
6.104389e+002, 8.136966e+000
6.109210e+002, 8.322404e+000
6.114031e+002, 8.432061e+000
6.118853e+002, 8.432427e+000
6.123674e+002, 8.357017e+000
6.128495e+002, 8.246018e+000
6.133316e+002, 8.087826e+000
6.138137e+002, 8.038131e+000
6.142958e+002, 8.194729e+000
6.147780e+002, 8.393289e+000
6.152601e+002, 8.448724e+000
6.157422e+002, 8.388741e+000
6.162243e+002, 8.380589e+000
6.167064e+002, 8.581153e+000
6.171885e+002, 8.722049e+000
6.176707e+002, 8.522593e+000
6.181528e+002, 8.158237e+000
6.186349e+002, 7.983949e+000
6.191170e+002, 8.104939e+000
6.195991e+002, 8.403187e+000
6.200812e+002, 8.774989e+000
6.205634e+002, 9.241903e+000
6.210455e+002, 9.471203e+000
6.215276e+002, 9.289269e+000
6.220097e+002, 9.070353e+000
6.224918e+002, 8.789842e+000
6.229739e+002, 8.567917e+000
6.234561e+002, 8.579640e+000
6.239382e+002, 8.837233e+000
6.244203e+002, 9.088710e+000
6.249023e+002, 9.083815e+000
6.253845e+002, 8.922987e+000
6.258666e+002, 8.871852e+000
6.263487e+002, 8.940234e+000
6.268308e+002, 9.073693e+000
6.273129e+002, 9.273665e+000
6.277950e+002, 9.499900e+000
6.282772e+002, 9.678880e+000
6.287593e+002, 9.809237e+000
6.292414e+002, 9.913652e+000
6.297235e+002, 9.932465e+000
6.302056e+002, 9.982737e+000
6.306877e+002, 1.017266e+001
6.311699e+002, 1.045892e+001
6.316520e+002, 1.073219e+001
6.321341e+002, 1.094120e+001
6.326162e+002, 1.111826e+001
6.330983e+002, 1.132535e+001
6.335804e+002, 1.158107e+001
6.340626e+002, 1.177033e+001
6.345447e+002, 1.181647e+001
6.350268e+002, 1.189401e+001
6.355089e+002, 1.213656e+001
6.359910e+002, 1.243673e+001
6.364731e+002, 1.260955e+001
6.369553e+002, 1.257923e+001
6.374374e+002, 1.256472e+001
6.379195e+002, 1.275200e+001
6.384016e+002, 1.305222e+001
6.388837e+002, 1.333555e+001
6.393658e+002, 1.358004e+001
6.398480e+002, 1.368993e+001
6.403301e+002, 1.356034e+001
6.408122e+002, 1.329808e+001
6.412943e+002, 1.326512e+001
6.417764e+002, 1.380840e+001
6.422585e+002, 1.406616e+001
6.427407e+002, 1.387452e+001
6.432228e+002, 1.354501e+001
6.437049e+002, 1.322212e+001
6.441870e+002, 1.293100e+001
6.446691e+002, 1.267545e+001
6.451512e+002, 1.246516e+001
6.456334e+002, 1.226125e+001
6.461155e+002, 1.198122e+001
6.465976e+002, 1.162623e+001
6.470797e+002, 1.134981e+001
6.475618e+002, 1.122378e+001
6.480439e+002, 1.107604e+001
6.485261e+002, 1.071881e+001
6.490082e+002, 1.023373e+001
6.494903e+002, 9.894639e+000
6.499724e+002, 9.855681e+000
6.504545e+002, 9.757961e+000
6.509366e+002, 9.378195e+000
6.514188e+002, 8.909744e+000
6.519009e+002, 8.564528e+000
6.523830e+002, 8.375463e+000
6.528651e+002, 8.311345e+000
6.533472e+002, 8.367007e+000
6.538293e+002, 8.490789e+000
6.543115e+002, 8.474723e+000
6.547936e+002, 8.233572e+000
6.552757e+002, 8.059555e+000
6.557578e+002, 7.991736e+000
6.562399e+002, 8.005263e+000
6.567220e+002, 8.178143e+000
6.572042e+002, 8.430157e+000
6.576863e+002, 8.523547e+000
6.581684e+002, 8.305870e+000
6.586505e+002, 7.999526e+000
6.591326e+002, 7.787355e+000
6.596147e+002, 7.655366e+000
6.600969e+002, 7.571620e+000
6.605790e+002, 7.530768e+000
6.610611e+002, 7.507441e+000
6.615432e+002, 7.488295e+000
6.620253e+002, 7.467919e+000
6.625074e+002, 7.388841e+000
6.629896e+002, 7.085752e+000
6.634717e+002, 6.945655e+000
6.639538e+002, 7.160365e+000
6.644359e+002, 7.428371e+000
6.649180e+002, 7.495533e+000
6.654001e+002, 7.381224e+000
6.658823e+002, 7.270182e+000
6.663644e+002, 7.276529e+000
6.668465e+002, 7.350394e+000
6.673286e+002, 7.435995e+000
6.678107e+002, 7.529891e+000
6.682928e+002, 7.478617e+000
6.687750e+002, 7.178881e+000
6.692571e+002, 6.895065e+000
6.697392e+002, 6.917412e+000
6.702213e+002, 7.210778e+000
6.707034e+002, 7.377770e+000
6.711855e+002, 7.343107e+000
6.716677e+002, 7.266646e+000
6.721498e+002, 7.154864e+000
6.726319e+002, 7.052341e+000
6.731140e+002, 6.991939e+000
6.735961e+002, 6.987270e+000
6.740782e+002, 7.070260e+000
6.745604e+002, 7.290255e+000
6.750425e+002, 7.574678e+000
6.755246e+002, 7.680312e+000
6.760067e+002, 7.578326e+000
6.764888e+002, 7.411873e+000
6.769709e+002, 7.074708e+000
6.774531e+002, 6.834930e+000
6.779352e+002, 6.986684e+000
6.784173e+002, 7.416934e+000
6.788994e+002, 7.724353e+000
6.793815e+002, 7.857424e+000
6.798636e+002, 7.796019e+000
6.803458e+002, 7.285638e+000
6.808279e+002, 6.666115e+000
6.813100e+002, 6.560051e+000
6.817921e+002, 7.021907e+000
6.822742e+002, 7.530835e+000
6.827563e+002, 7.658636e+000
6.832385e+002, 7.482307e+000
6.837206e+002, 7.380965e+000
6.842027e+002, 7.383695e+000
6.846848e+002, 7.398066e+000
6.851669e+002, 7.461159e+000
6.856490e+002, 7.488825e+000
6.861312e+002, 7.381280e+000
6.866133e+002, 7.194508e+000
6.870954e+002, 7.098790e+000
6.875775e+002, 7.192430e+000
6.880596e+002, 7.336152e+000
6.885417e+002, 7.424002e+000
6.890239e+002, 7.464792e+000
6.895060e+002, 7.464358e+000
6.899881e+002, 7.425578e+000
6.904702e+002, 7.398524e+000
6.909523e+002, 7.425095e+000
6.914344e+002, 7.493925e+000
6.919166e+002, 7.548475e+000
6.923987e+002, 7.584947e+000
6.928808e+002, 7.612371e+000
6.933629e+002, 7.678090e+000
6.938450e+002, 7.693186e+000
6.943271e+002, 7.539028e+000
6.948093e+002, 7.292674e+000
6.952914e+002, 7.152656e+000
6.957735e+002, 7.221564e+000
6.962556e+002, 7.376172e+000
6.967377e+002, 7.496997e+000
6.972198e+002, 7.590067e+000
6.977020e+002, 7.692582e+000
6.981841e+002, 7.813760e+000
6.986662e+002, 7.879900e+000
6.991483e+002, 7.836784e+000
6.996304e+002, 7.700047e+000
7.001125e+002, 7.526599e+000
7.005947e+002, 7.176497e+000
7.010768e+002, 7.010867e+000
7.015589e+002, 7.229028e+000
7.020410e+002, 7.452141e+000
7.025231e+002, 7.402669e+000
7.030052e+002, 7.182411e+000
7.034874e+002, 7.055025e+000
7.039695e+002, 7.141784e+000
7.044516e+002, 7.280065e+000
7.049337e+002, 7.240369e+000
7.054158e+002, 7.070352e+000
7.058979e+002, 7.017290e+000
7.063801e+002, 7.118560e+000
7.068622e+002, 7.235048e+000
7.073442e+002, 7.284823e+000
7.078264e+002, 7.297204e+000
7.083085e+002, 7.359653e+000
7.087906e+002, 7.545741e+000
7.092727e+002, 7.592166e+000
7.097548e+002, 7.306935e+000
7.102369e+002, 7.047577e+000
7.107191e+002, 7.090750e+000
7.112012e+002, 7.293856e+000
7.116833e+002, 7.371248e+000
7.121654e+002, 7.221588e+000
7.126475e+002, 7.010507e+000
7.131296e+002, 6.914893e+000
7.136118e+002, 6.923164e+000
7.140939e+002, 6.971178e+000
7.145760e+002, 7.056826e+000
7.150581e+002, 7.183384e+000
7.155402e+002, 7.356729e+000
7.160223e+002, 7.566538e+000
7.165045e+002, 7.832467e+000
7.169866e+002, 8.194400e+000
7.174687e+002, 8.373364e+000
7.179508e+002, 8.231730e+000
7.184329e+002, 8.022900e+000
7.189150e+002, 7.797344e+000
7.193972e+002, 7.615771e+000
7.198793e+002, 7.592398e+000
7.203614e+002, 7.734745e+000
7.208435e+002, 7.863528e+000
7.213256e+002, 7.778979e+000
7.218077e+002, 7.544109e+000
7.222899e+002, 7.387374e+000
7.227720e+002, 7.301340e+000
7.232541e+002, 7.377875e+000
7.237362e+002, 7.766326e+000
7.242183e+002, 8.147404e+000
7.247004e+002, 8.048522e+000
7.251826e+002, 7.483493e+000
7.256647e+002, 7.227081e+000
7.261468e+002, 7.610369e+000
7.266289e+002, 7.959561e+000
7.271110e+002, 7.976448e+000
7.275931e+002, 7.864499e+000
7.280753e+002, 7.883829e+000
7.285574e+002, 8.040399e+000
7.290395e+002, 8.126711e+000
7.295216e+002, 7.968368e+000
7.300037e+002, 7.682679e+000
7.304858e+002, 7.536396e+000
7.309680e+002, 7.533590e+000
7.314501e+002, 7.575816e+000
7.319322e+002, 7.669777e+000
7.324143e+002, 7.745755e+000
7.328964e+002, 7.738548e+000
7.333785e+002, 7.662072e+000
7.338607e+002, 7.597781e+000
7.343428e+002, 7.527782e+000
7.348249e+002, 7.497690e+000
7.353070e+002, 7.548441e+000
7.357891e+002, 7.617087e+000
7.362712e+002, 7.692002e+000
7.367534e+002, 7.737261e+000
7.372355e+002, 7.656050e+000
7.377176e+002, 7.387855e+000
7.381997e+002, 7.088724e+000
7.386818e+002, 7.009685e+000
7.391639e+002, 7.126669e+000
7.396461e+002, 7.204071e+000
7.401282e+002, 7.215258e+000
7.406103e+002, 7.232665e+000
7.410924e+002, 7.340645e+000
7.415745e+002, 7.448503e+000
7.420566e+002, 7.296381e+000
7.425388e+002, 6.717454e+000
7.430209e+002, 6.469190e+000
7.435030e+002, 6.896252e+000
7.439851e+002, 7.373125e+000
7.444672e+002, 7.625208e+000
7.449493e+002, 7.688275e+000
7.454315e+002, 7.622848e+000
7.459136e+002, 7.458548e+000
7.463957e+002, 7.268036e+000
7.468778e+002, 7.089273e+000
7.473599e+002, 6.944968e+000
7.478420e+002, 6.949409e+000
7.483242e+002, 7.108186e+000
7.488063e+002, 7.152668e+000
7.492884e+002, 6.939321e+000
7.497705e+002, 6.711553e+000
7.502526e+002, 6.770019e+000
7.507347e+002, 7.133698e+000
7.512169e+002, 7.445912e+000
7.516990e+002, 7.741617e+000
7.521811e+002, 7.944970e+000
7.526632e+002, 8.085849e+000
7.531453e+002, 8.094661e+000
7.536274e+002, 7.782827e+000
7.541096e+002, 7.255510e+000
7.545917e+002, 6.919835e+000
7.550738e+002, 7.053554e+000
7.555559e+002, 7.384152e+000
7.560380e+002, 7.589418e+000
7.565201e+002, 7.668419e+000
7.570023e+002, 7.562655e+000
7.574844e+002, 7.247999e+000
7.579665e+002, 6.979676e+000
7.584486e+002, 6.940476e+000
7.589307e+002, 7.081443e+000
7.594128e+002, 7.241237e+000
7.598950e+002, 7.461519e+000
7.603771e+002, 7.624341e+000
7.608592e+002, 7.720168e+000
7.613413e+002, 7.772333e+000
7.618234e+002, 7.814459e+000
7.623055e+002, 7.812178e+000
7.627877e+002, 7.667148e+000
7.632698e+002, 7.343695e+000
7.637519e+002, 7.095143e+000
7.642340e+002, 7.199837e+000
7.647161e+002, 7.450615e+000
7.651982e+002, 7.466775e+000
7.656804e+002, 7.295326e+000
7.661625e+002, 7.327323e+000
7.666446e+002, 7.732941e+000
7.671267e+002, 8.132617e+000
7.676088e+002, 7.977369e+000
7.680909e+002, 7.230850e+000
7.685731e+002, 6.854183e+000
7.690552e+002, 7.080078e+000
7.695373e+002, 7.297035e+000
7.700194e+002, 7.329142e+000
7.705015e+002, 7.336373e+000
7.709836e+002, 7.465529e+000
7.714658e+002, 7.692474e+000
7.719479e+002, 7.859788e+000
7.724300e+002, 7.871201e+000
7.729121e+002, 7.862986e+000
7.733942e+002, 7.989666e+000
7.738763e+002, 8.131440e+000
7.743585e+002, 8.041723e+000
7.748406e+002, 7.736013e+000
7.753227e+002, 7.495063e+000
7.758048e+002, 7.507222e+000
7.762869e+002, 7.682316e+000
7.767690e+002, 7.815378e+000
7.772512e+002, 7.903046e+000
7.777333e+002, 7.977143e+000
7.782154e+002, 8.056944e+000
7.786975e+002, 8.089974e+000
7.791796e+002, 7.994835e+000
7.796617e+002, 7.857315e+000
7.801439e+002, 7.826146e+000
7.806260e+002, 7.924151e+000
7.811081e+002, 8.033459e+000
7.815902e+002, 8.159735e+000
7.820723e+002, 8.254380e+000
7.825544e+002, 8.304035e+000
7.830366e+002, 8.294198e+000
7.835187e+002, 8.154483e+000
7.840008e+002, 7.893973e+000
7.844829e+002, 7.703070e+000
7.849650e+002, 7.805717e+000
7.854471e+002, 8.081656e+000
7.859293e+002, 8.152893e+000
7.864114e+002, 8.016076e+000
7.868935e+002, 7.890011e+000
7.873756e+002, 7.833753e+000
7.878577e+002, 7.786765e+000
7.883398e+002, 7.694892e+000
7.888220e+002, 7.562744e+000
7.893040e+002, 7.432318e+000
7.897861e+002, 7.106423e+000
7.902682e+002, 7.064831e+000
7.907504e+002, 7.723822e+000
7.912325e+002, 8.325144e+000
7.917146e+002, 8.293972e+000
7.921967e+002, 7.837367e+000
7.926788e+002, 7.440807e+000
7.931609e+002, 7.273213e+000
7.936431e+002, 7.239173e+000
7.941252e+002, 7.298358e+000
7.946073e+002, 7.416288e+000
7.950894e+002, 7.540635e+000
7.955715e+002, 7.664660e+000
7.960536e+002, 7.779085e+000
7.965358e+002, 7.884389e+000
7.970179e+002, 7.932754e+000
7.975000e+002, 7.830410e+000
7.979821e+002, 7.562730e+000
7.984642e+002, 7.514818e+000
7.989464e+002, 7.875133e+000
7.994285e+002, 8.113358e+000
7.999106e+002, 8.024136e+000
8.003927e+002, 7.823097e+000
8.008748e+002, 7.612757e+000
8.013569e+002, 7.417768e+000
8.018391e+002, 7.322673e+000
8.023212e+002, 7.373857e+000
8.028033e+002, 7.493076e+000
8.032854e+002, 7.685267e+000
8.037675e+002, 7.894816e+000
8.042496e+002, 8.076745e+000
8.047318e+002, 8.212877e+000
8.052139e+002, 8.270090e+000
8.056960e+002, 8.226728e+000
8.061781e+002, 8.134516e+000
8.066602e+002, 8.077900e+000
8.071423e+002, 8.052642e+000
8.076245e+002, 7.991021e+000
8.081066e+002, 7.876965e+000
8.085887e+002, 7.800609e+000
8.090708e+002, 7.828049e+000
8.095529e+002, 7.876215e+000
8.100350e+002, 7.787821e+000
8.105172e+002, 7.511989e+000
8.109993e+002, 7.454396e+000
8.114814e+002, 7.850485e+000
8.119635e+002, 8.161830e+000
8.124456e+002, 8.200184e+000
8.129277e+002, 8.118672e+000
8.134099e+002, 8.038314e+000
8.138920e+002, 7.979771e+000
8.143741e+002, 7.934778e+000
8.148562e+002, 7.906693e+000
8.153383e+002, 7.874830e+000
8.158204e+002, 7.814049e+000
8.163026e+002, 7.734546e+000
8.167847e+002, 7.635692e+000
8.172668e+002, 7.528797e+000
8.177489e+002, 7.509435e+000
8.182310e+002, 7.643001e+000
8.187131e+002, 7.830037e+000
8.191953e+002, 7.857152e+000
8.196774e+002, 7.678936e+000
8.201595e+002, 7.642739e+000
8.206416e+002, 7.860834e+000
8.211237e+002, 8.006732e+000
8.216058e+002, 7.880223e+000
8.220880e+002, 7.676159e+000
8.225701e+002, 7.631006e+000
8.230522e+002, 7.739568e+000
8.235343e+002, 7.776565e+000
8.240164e+002, 7.595016e+000
8.244985e+002, 7.456438e+000
8.249807e+002, 7.499039e+000
8.254628e+002, 7.628101e+000
8.259449e+002, 7.775704e+000
8.264270e+002, 7.906207e+000
8.269091e+002, 7.965185e+000
8.273912e+002, 7.920655e+000
8.278734e+002, 7.799661e+000
8.283555e+002, 7.557046e+000
8.288376e+002, 7.262534e+000
8.293197e+002, 7.262019e+000
8.298018e+002, 7.586929e+000
8.302839e+002, 7.901192e+000
8.307661e+002, 8.051836e+000
8.312482e+002, 8.058376e+000
8.317303e+002, 7.926983e+000
8.322124e+002, 7.619193e+000
8.326945e+002, 7.459842e+000
8.331766e+002, 7.543788e+000
8.336588e+002, 7.643720e+000
8.341409e+002, 7.726939e+000
8.346230e+002, 7.790532e+000
8.351051e+002, 7.810392e+000
8.355872e+002, 7.803208e+000
8.360693e+002, 7.848845e+000
8.365515e+002, 8.018792e+000
8.370336e+002, 8.170344e+000
8.375157e+002, 8.255792e+000
8.379978e+002, 8.261708e+000
8.384799e+002, 8.099607e+000
8.389620e+002, 7.840474e+000
8.394442e+002, 7.711769e+000
8.399263e+002, 7.821432e+000
8.404084e+002, 8.022741e+000
8.408905e+002, 8.141077e+000
8.413726e+002, 8.178595e+000
8.418547e+002, 8.127902e+000
8.423369e+002, 7.983873e+000
8.428190e+002, 7.831084e+000
8.433011e+002, 7.682856e+000
8.437832e+002, 7.589877e+000
8.442653e+002, 7.627120e+000
8.447474e+002, 7.790545e+000
8.452296e+002, 7.906636e+000
8.457117e+002, 8.026937e+000
8.461938e+002, 8.018586e+000
8.466759e+002, 7.696630e+000
8.471580e+002, 7.410645e+000
8.476401e+002, 7.425813e+000
8.481223e+002, 7.637190e+000
8.486044e+002, 7.784383e+000
8.490865e+002, 7.788653e+000
8.495686e+002, 7.783758e+000
8.500507e+002, 7.894916e+000
8.505328e+002, 7.989801e+000
8.510150e+002, 7.875566e+000
8.514971e+002, 7.644185e+000
8.519792e+002, 7.528573e+000
8.524613e+002, 7.594418e+000
8.529434e+002, 7.722413e+000
8.534255e+002, 7.811681e+000
8.539077e+002, 7.859125e+000
8.543898e+002, 7.849974e+000
8.548719e+002, 7.784304e+000
8.553540e+002, 7.664248e+000
8.558361e+002, 7.461469e+000
8.563182e+002, 7.339657e+000
8.568004e+002, 7.453226e+000
8.572825e+002, 7.717654e+000
8.577646e+002, 7.859367e+000
8.582467e+002, 7.810172e+000
8.587288e+002, 7.784387e+000
8.592109e+002, 7.805880e+000
8.596931e+002, 7.822182e+000
8.601752e+002, 7.790284e+000
8.606573e+002, 7.757158e+000
8.611394e+002, 7.798897e+000
8.616215e+002, 7.917326e+000
8.621036e+002, 7.993873e+000
8.625858e+002, 7.979081e+000
8.630679e+002, 7.909736e+000
8.635500e+002, 7.728899e+000
8.640321e+002, 7.552912e+000
8.645142e+002, 7.576097e+000
8.649963e+002, 7.783462e+000
8.654785e+002, 8.012602e+000
8.659606e+002, 8.176688e+000
8.664427e+002, 8.258493e+000
8.669248e+002, 8.187794e+000
8.674069e+002, 8.001083e+000
8.678890e+002, 7.914079e+000
8.683712e+002, 7.943595e+000
8.688533e+002, 7.904262e+000
8.693354e+002, 7.695028e+000
8.698175e+002, 7.468379e+000
8.702996e+002, 7.436778e+000
8.707817e+002, 7.601936e+000
8.712639e+002, 7.735435e+000
8.717459e+002, 7.827640e+000
8.722280e+002, 7.905067e+000
8.727101e+002, 8.003745e+000
8.731923e+002, 8.057636e+000
8.736744e+002, 7.998791e+000
8.741565e+002, 7.867516e+000
8.746386e+002, 7.762047e+000
8.751207e+002, 7.705383e+000
8.756028e+002, 7.654062e+000
8.760850e+002, 7.547679e+000
8.765671e+002, 7.485232e+000
8.770492e+002, 7.622385e+000
8.775313e+002, 7.824121e+000
8.780134e+002, 7.812172e+000
8.784955e+002, 7.556183e+000
8.789777e+002, 7.356506e+000
8.794598e+002, 7.498069e+000
8.799419e+002, 7.769768e+000
8.804240e+002, 7.788204e+000
8.809061e+002, 7.634499e+000
8.813882e+002, 7.653403e+000
8.818704e+002, 7.884953e+000
8.823525e+002, 8.019578e+000
8.828346e+002, 7.855951e+000
8.833167e+002, 7.498141e+000
8.837988e+002, 7.128720e+000
8.842809e+002, 6.719151e+000
8.847631e+002, 6.517797e+000
8.852452e+002, 6.583231e+000
8.857273e+002, 6.718483e+000
8.862094e+002, 6.902814e+000
8.866915e+002, 7.078952e+000
8.871736e+002, 7.186893e+000
8.876558e+002, 7.227677e+000
8.881379e+002, 7.227260e+000
8.886200e+002, 7.184135e+000
8.891021e+002, 7.102986e+000
8.895842e+002, 6.922554e+000
8.900663e+002, 6.762301e+000
8.905485e+002, 6.701573e+000
8.910306e+002, 6.724646e+000
8.915127e+002, 6.814721e+000
8.919948e+002, 6.972944e+000
8.924769e+002, 7.068072e+000
8.929590e+002, 6.944438e+000
8.934412e+002, 6.776474e+000
8.939233e+002, 6.790307e+000
8.944054e+002, 6.894249e+000
8.948875e+002, 6.833117e+000
8.953696e+002, 6.593332e+000
8.958517e+002, 6.474039e+000
8.963339e+002, 6.726219e+000
8.968160e+002, 7.135211e+000
8.972981e+002, 7.267946e+000
8.977802e+002, 7.146081e+000
8.982623e+002, 6.945458e+000
8.987444e+002, 6.664452e+000
8.992266e+002, 6.543899e+000
8.997087e+002, 6.731996e+000
9.001908e+002, 7.043370e+000
9.006729e+002, 7.216703e+000
9.011550e+002, 7.250618e+000
9.016371e+002, 7.157166e+000
9.021193e+002, 6.751578e+000
9.026014e+002, 6.565444e+000
9.030835e+002, 6.946471e+000
9.035656e+002, 7.332145e+000
9.040477e+002, 7.336749e+000
9.045298e+002, 7.054314e+000
9.050120e+002, 6.687567e+000
9.054941e+002, 6.132802e+000
9.059762e+002, 5.855872e+000
9.064583e+002, 6.194243e+000
9.069404e+002, 6.605365e+000
9.074225e+002, 6.797075e+000
9.079047e+002, 6.842103e+000
9.083868e+002, 6.832181e+000
9.088689e+002, 6.804665e+000
9.093510e+002, 6.823275e+000
9.098331e+002, 6.928851e+000
9.103152e+002, 7.090762e+000
9.107974e+002, 7.330997e+000
9.112795e+002, 7.584174e+000
9.117616e+002, 7.702019e+000
9.122437e+002, 7.699800e+000
9.127258e+002, 7.752045e+000
9.132079e+002, 7.941638e+000
9.136901e+002, 8.079596e+000
9.141722e+002, 7.824234e+000
9.146543e+002, 7.286235e+000
9.151364e+002, 7.136905e+000
9.156185e+002, 7.389230e+000
9.161006e+002, 7.663816e+000
9.165828e+002, 7.871678e+000
9.170649e+002, 8.065457e+000
9.175470e+002, 8.299717e+000
9.180291e+002, 8.547488e+000
9.185112e+002, 8.705144e+000
9.189933e+002, 8.722882e+000
9.194755e+002, 8.781146e+000
9.199576e+002, 8.899858e+000
9.204397e+002, 9.031447e+000
9.209218e+002, 9.163456e+000
9.214039e+002, 9.295346e+000
9.218860e+002, 9.455082e+000
9.223682e+002, 9.635964e+000
9.228503e+002, 9.697184e+000
9.233324e+002, 9.437547e+000
9.238145e+002, 9.302197e+000
9.242966e+002, 9.482684e+000
9.247787e+002, 9.774282e+000
9.252609e+002, 1.004410e+001
9.257430e+002, 1.028845e+001
9.262251e+002, 1.053919e+001
9.267072e+002, 1.080638e+001
9.271893e+002, 1.105239e+001
9.276714e+002, 1.128635e+001
9.281536e+002, 1.145539e+001
9.286357e+002, 1.144022e+001
9.291178e+002, 1.134417e+001
9.295999e+002, 1.138222e+001
9.300820e+002, 1.156993e+001
9.305641e+002, 1.175173e+001
9.310463e+002, 1.182461e+001
9.315284e+002, 1.186361e+001
9.320105e+002, 1.206611e+001
9.324926e+002, 1.234007e+001
9.329747e+002, 1.221391e+001
9.334568e+002, 1.169393e+001
9.339390e+002, 1.132651e+001
9.344211e+002, 1.132495e+001
9.349032e+002, 1.145187e+001
9.353853e+002, 1.146949e+001
9.358674e+002, 1.137725e+001
9.363495e+002, 1.114945e+001
9.368317e+002, 1.074084e+001
9.373138e+002, 1.038088e+001
9.377959e+002, 1.005344e+001
9.382780e+002, 9.881063e+000
9.387601e+002, 1.004202e+001
9.392422e+002, 1.030799e+001
9.397244e+002, 1.025700e+001
9.402065e+002, 9.830713e+000
9.406886e+002, 9.432194e+000
9.411707e+002, 8.972594e+000
9.416528e+002, 8.658891e+000
9.421349e+002, 8.633265e+000
9.426171e+002, 8.673341e+000
9.430992e+002, 8.622286e+000
9.435813e+002, 8.504454e+000
9.440634e+002, 8.416179e+000
9.445455e+002, 8.400894e+000
9.450276e+002, 8.319095e+000
9.455098e+002, 8.015010e+000
9.459919e+002, 7.740507e+000
9.464740e+002, 7.641825e+000
9.469561e+002, 7.689245e+000
9.474382e+002, 7.890381e+000
9.479203e+002, 8.197351e+000
9.484025e+002, 8.449227e+000
9.488846e+002, 8.577740e+000
9.493667e+002, 8.575220e+000
9.498488e+002, 8.330801e+000
9.503309e+002, 8.010899e+000
9.508130e+002, 7.916136e+000
9.512952e+002, 7.986705e+000
9.517773e+002, 7.906611e+000
9.522594e+002, 7.591632e+000
9.527415e+002, 7.385984e+000
9.532236e+002, 7.693805e+000
9.537057e+002, 8.251664e+000
9.541878e+002, 8.388784e+000
9.546699e+002, 8.167977e+000
9.551520e+002, 7.996985e+000
9.556342e+002, 7.932813e+000
9.561163e+002, 7.888929e+000
9.565984e+002, 7.816191e+000
9.570805e+002, 7.752998e+000
9.575626e+002, 7.774663e+000
9.580447e+002, 7.878321e+000
9.585269e+002, 7.853560e+000
9.590090e+002, 7.618799e+000
9.594911e+002, 7.646767e+000
9.599732e+002, 8.182448e+000
9.604553e+002, 8.668982e+000
9.609374e+002, 8.653695e+000
9.614196e+002, 8.298697e+000
9.619017e+002, 8.045043e+000
9.623838e+002, 7.871574e+000
9.628659e+002, 7.867854e+000
9.633480e+002, 8.208576e+000
9.638301e+002, 8.482295e+000
9.643123e+002, 8.546284e+000
9.647944e+002, 8.527790e+000
9.652765e+002, 8.517710e+000
9.657586e+002, 8.518885e+000
9.662407e+002, 8.530491e+000
9.667228e+002, 8.573304e+000
9.672050e+002, 8.583995e+000
9.676871e+002, 8.408198e+000
9.681692e+002, 8.349194e+000
9.686513e+002, 8.795157e+000
9.691334e+002, 9.341825e+000
9.696155e+002, 9.330750e+000
9.700977e+002, 8.780269e+000
9.705798e+002, 8.482860e+000
9.710619e+002, 9.011030e+000
9.715440e+002, 9.514010e+000
9.720261e+002, 9.350452e+000
9.725082e+002, 8.973609e+000
9.729904e+002, 8.830194e+000
9.734725e+002, 8.891861e+000
9.739546e+002, 9.004302e+000
9.744367e+002, 9.112806e+000
9.749188e+002, 9.203844e+000
9.754009e+002, 9.234274e+000
9.758831e+002, 9.276416e+000
9.763652e+002, 9.511882e+000
9.768473e+002, 9.804928e+000
9.773294e+002, 9.786347e+000
9.778115e+002, 9.495177e+000
9.782936e+002, 9.389866e+000
9.787758e+002, 9.686328e+000
9.792579e+002, 9.981308e+000
9.797400e+002, 9.647808e+000
9.802221e+002, 8.953577e+000
9.807042e+002, 8.889345e+000
9.811863e+002, 9.367659e+000
9.816685e+002, 9.675573e+000
9.821506e+002, 9.671678e+000
9.826327e+002, 9.583740e+000
9.831148e+002, 9.556603e+000
9.835969e+002, 9.543967e+000
9.840790e+002, 9.409221e+000
9.845612e+002, 9.149446e+000
9.850433e+002, 9.296508e+000
9.855254e+002, 9.981182e+000
9.860075e+002, 1.022565e+001
9.864896e+002, 9.630591e+000
9.869717e+002, 9.008587e+000
9.874539e+002, 9.064895e+000
9.879360e+002, 9.556110e+000
9.884181e+002, 9.696867e+000
9.889002e+002, 9.336626e+000
9.893823e+002, 9.176318e+000
9.898644e+002, 9.403156e+000
9.903466e+002, 9.456630e+000
9.908287e+002, 8.997287e+000
9.913108e+002, 8.477197e+000
9.917929e+002, 8.354814e+000
9.922750e+002, 8.561708e+000
9.927571e+002, 8.691427e+000
9.932393e+002, 8.639236e+000
9.937214e+002, 8.698256e+000
9.942035e+002, 9.063861e+000
9.946856e+002, 9.312957e+000
9.951677e+002, 9.225840e+000
9.956498e+002, 8.980673e+000
9.961320e+002, 8.723249e+000
9.966141e+002, 8.477203e+000
9.970962e+002, 8.319410e+000
9.975783e+002, 8.229992e+000
9.980604e+002, 8.288100e+000
9.985425e+002, 8.677457e+000
9.990247e+002, 9.049056e+000
9.995068e+002, 9.143162e+000
9.999889e+002, 9.099613e+000
1.000471e+003, 9.154111e+000
1.000953e+003, 9.320236e+000
1.001435e+003, 9.384792e+000
1.001917e+003, 9.196343e+000
1.002399e+003, 8.982888e+000
1.002882e+003, 8.833616e+000
1.003364e+003, 8.746252e+000
1.003846e+003, 8.750373e+000
1.004328e+003, 8.803283e+000
1.004810e+003, 8.784402e+000
1.005292e+003, 8.687072e+000
1.005774e+003, 8.736974e+000
1.006256e+003, 9.215878e+000
1.006739e+003, 9.714374e+000
1.007221e+003, 9.823223e+000
1.007703e+003, 9.725964e+000
1.008185e+003, 9.631271e+000
1.008667e+003, 9.576992e+000
1.009149e+003, 9.585266e+000
1.009631e+003, 9.658840e+000
1.010113e+003, 9.739572e+000
1.010595e+003, 9.792789e+000
1.011078e+003, 9.805050e+000
1.011560e+003, 9.680924e+000
1.012042e+003, 9.521657e+000
1.012524e+003, 9.618358e+000
1.013006e+003, 9.941359e+000
1.013488e+003, 1.018334e+001
1.013970e+003, 1.021205e+001
1.014452e+003, 1.018511e+001
1.014935e+003, 1.029104e+001
1.015417e+003, 1.046361e+001
1.015899e+003, 1.056642e+001
1.016381e+003, 1.058912e+001
1.016863e+003, 1.041559e+001
1.017345e+003, 1.005839e+001
1.017827e+003, 9.837441e+000
1.018309e+003, 9.922235e+000
1.018791e+003, 1.013537e+001
1.019274e+003, 1.026396e+001
1.019756e+003, 1.030044e+001
1.020238e+003, 1.015800e+001
1.020720e+003, 9.847934e+000
1.021202e+003, 9.688619e+000
1.021684e+003, 9.744295e+000
1.022166e+003, 9.788571e+000
1.022648e+003, 9.703866e+000
1.023130e+003, 9.468664e+000
1.023613e+003, 9.001413e+000
1.024095e+003, 8.326607e+000
1.024577e+003, 7.877495e+000
1.025059e+003, 7.673386e+000
1.025541e+003, 7.579257e+000
1.026023e+003, 7.616981e+000
1.026505e+003, 7.527845e+000
1.026987e+003, 7.096964e+000
1.027469e+003, 6.557831e+000
1.027952e+003, 6.359720e+000
1.028434e+003, 6.517691e+000
1.028916e+003, 6.617059e+000
1.029398e+003, 6.650808e+000
1.029880e+003, 6.650175e+000
1.030362e+003, 6.616049e+000
1.030844e+003, 6.564417e+000
1.031326e+003, 6.524148e+000
1.031809e+003, 6.451248e+000
1.032291e+003, 6.240806e+000
1.032773e+003, 5.867393e+000
1.033255e+003, 5.564661e+000
1.033737e+003, 5.271384e+000
1.034219e+003, 5.206858e+000
1.034701e+003, 5.639512e+000
1.035183e+003, 5.955049e+000
1.035666e+003, 5.604368e+000
1.036148e+003, 4.946804e+000
1.036630e+003, 4.756875e+000
1.037112e+003, 5.131437e+000
1.037594e+003, 5.432055e+000
1.038076e+003, 5.672639e+000
1.038558e+003, 5.812043e+000
1.039040e+003, 5.785515e+000
1.039522e+003, 5.717969e+000
1.040005e+003, 5.713059e+000
1.040487e+003, 5.715573e+000
1.040969e+003, 5.571361e+000
1.041451e+003, 5.210779e+000
1.041933e+003, 5.069894e+000
1.042415e+003, 5.346826e+000
1.042897e+003, 5.576273e+000
1.043379e+003, 5.676354e+000
1.043861e+003, 5.700255e+000
1.044344e+003, 5.595167e+000
1.044826e+003, 5.467142e+000
1.045308e+003, 5.593288e+000
1.045790e+003, 6.076470e+000
1.046272e+003, 6.190474e+000
1.046754e+003, 5.353693e+000
1.047236e+003, 4.837611e+000
1.047718e+003, 5.308370e+000
1.048201e+003, 5.852196e+000
1.048683e+003, 5.773336e+000
1.049165e+003, 5.339598e+000
1.049647e+003, 5.083009e+000
1.050129e+003, 5.070368e+000
1.050611e+003, 5.148951e+000
1.051093e+003, 5.408671e+000
1.051575e+003, 5.593339e+000
1.052057e+003, 5.549920e+000
1.052540e+003, 5.479478e+000
1.053022e+003, 5.575335e+000
1.053504e+003, 5.731599e+000
1.053986e+003, 5.731814e+000
1.054468e+003, 5.542192e+000
1.054950e+003, 5.346748e+000
1.055432e+003, 5.063440e+000
1.055914e+003, 4.958724e+000
1.056396e+003, 5.293900e+000
1.056879e+003, 5.675529e+000
1.057361e+003, 5.848300e+000
1.057843e+003, 5.839659e+000
1.058325e+003, 5.696458e+000
1.058807e+003, 5.433000e+000
1.059289e+003, 5.228668e+000
1.059771e+003, 5.192815e+000
1.060253e+003, 5.157007e+000
1.060736e+003, 5.018392e+000
1.061218e+003, 4.893472e+000
1.061700e+003, 4.899131e+000
1.062182e+003, 4.967454e+000
1.062664e+003, 4.971765e+000
1.063146e+003, 4.897327e+000
1.063628e+003, 4.843534e+000
1.064110e+003, 4.845434e+000
1.064593e+003, 4.875585e+000
1.065075e+003, 4.923162e+000
1.065557e+003, 4.994235e+000
1.066039e+003, 5.157598e+000
1.066521e+003, 5.315339e+000
1.067003e+003, 5.253430e+000
1.067485e+003, 4.986599e+000
1.067967e+003, 4.892578e+000
1.068449e+003, 5.308362e+000
1.068932e+003, 5.577481e+000
1.069414e+003, 5.200553e+000
1.069896e+003, 4.775451e+000
1.070378e+003, 4.792290e+000
1.070860e+003, 5.026518e+000
1.071342e+003, 5.124548e+000
1.071824e+003, 5.055345e+000
1.072306e+003, 5.006580e+000
1.072788e+003, 5.057279e+000
1.073271e+003, 5.113933e+000
1.073753e+003, 5.151309e+000
1.074235e+003, 5.159819e+000
1.074717e+003, 5.140314e+000
1.075199e+003, 5.083063e+000
1.075681e+003, 4.893453e+000
1.076163e+003, 4.639346e+000
1.076645e+003, 4.647687e+000
1.077127e+003, 5.141468e+000
1.077610e+003, 5.544667e+000
1.078092e+003, 5.505690e+000
1.078574e+003, 5.378826e+000
1.079056e+003, 5.358082e+000
1.079538e+003, 5.419086e+000
1.080020e+003, 5.602289e+000
1.080502e+003, 5.823062e+000
1.080984e+003, 5.801818e+000
1.081467e+003, 5.389634e+000
1.081949e+003, 5.053613e+000
1.082431e+003, 5.013102e+000
1.082913e+003, 5.099454e+000
1.083395e+003, 5.332328e+000
1.083877e+003, 5.544156e+000
1.084359e+003, 5.538310e+000
1.084841e+003, 5.363806e+000
1.085323e+003, 5.173987e+000
1.085806e+003, 4.999717e+000
1.086288e+003, 4.906775e+000
1.086770e+003, 4.990474e+000
1.087252e+003, 5.078633e+000
1.087734e+003, 5.102958e+000
1.088216e+003, 5.072564e+000
1.088698e+003, 4.945531e+000
1.089180e+003, 4.789322e+000
1.089662e+003, 4.741056e+000
1.090145e+003, 4.828825e+000
1.090627e+003, 4.946173e+000
1.091109e+003, 5.007414e+000
1.091591e+003, 5.151664e+000
1.092073e+003, 5.651274e+000
1.092555e+003, 6.051505e+000
1.093037e+003, 5.839537e+000
1.093519e+003, 5.342437e+000
1.094002e+003, 5.161293e+000
1.094484e+003, 5.359889e+000
1.094966e+003, 5.484461e+000
1.095448e+003, 5.336530e+000
1.095930e+003, 5.176834e+000
1.096412e+003, 5.028399e+000
1.096894e+003, 4.961453e+000
1.097376e+003, 5.111640e+000
1.097859e+003, 5.313695e+000
1.098341e+003, 5.357889e+000
1.098823e+003, 5.233299e+000
1.099305e+003, 5.022889e+000
1.099787e+003, 4.594954e+000
1.100269e+003, 4.399373e+000
1.100751e+003, 4.761520e+000
1.101233e+003, 5.133681e+000
1.101715e+003, 5.248389e+000
1.102198e+003, 5.237147e+000
1.102680e+003, 5.248767e+000
1.103162e+003, 5.270154e+000
1.103644e+003, 5.183947e+000
1.104126e+003, 4.879291e+000
1.104608e+003, 4.768655e+000
1.105090e+003, 5.150050e+000
1.105572e+003, 5.443129e+000
1.106054e+003, 5.313836e+000
1.106537e+003, 5.139907e+000
1.107019e+003, 5.289558e+000
1.107501e+003, 5.621497e+000
1.107983e+003, 5.769038e+000
1.108465e+003, 5.685397e+000
1.108947e+003, 5.535398e+000
1.109429e+003, 5.179474e+000
1.109911e+003, 4.977346e+000
1.110394e+003, 5.108091e+000
1.110876e+003, 5.300051e+000
1.111358e+003, 5.391755e+000
1.111840e+003, 5.439228e+000
1.112322e+003, 5.542905e+000
1.112804e+003, 5.707538e+000
1.113286e+003, 5.845029e+000
1.113768e+003, 6.005984e+000
1.114250e+003, 6.050321e+000
1.114733e+003, 5.802019e+000
1.115215e+003, 5.666909e+000
1.115697e+003, 5.932265e+000
1.116179e+003, 6.286822e+000
1.116661e+003, 6.317385e+000
1.117143e+003, 6.093945e+000
1.117625e+003, 6.162491e+000
1.118107e+003, 6.827464e+000
1.118589e+003, 7.028666e+000
1.119072e+003, 6.448737e+000
1.119554e+003, 6.029990e+000
1.120036e+003, 6.121414e+000
1.120518e+003, 6.384976e+000
1.121000e+003, 6.564534e+000
1.121482e+003, 6.670337e+000
1.121964e+003, 6.713137e+000
1.122446e+003, 6.656133e+000
1.122929e+003, 6.780588e+000
1.123411e+003, 7.162209e+000
1.123893e+003, 7.490545e+000
1.124375e+003, 7.750861e+000
1.124857e+003, 7.751190e+000
1.125339e+003, 7.263914e+000
1.125821e+003, 6.677540e+000
1.126303e+003, 6.708412e+000
1.126786e+003, 7.311081e+000
1.127268e+003, 7.629685e+000
1.127750e+003, 7.626809e+000
1.128232e+003, 7.695719e+000
1.128714e+003, 7.917186e+000
1.129196e+003, 7.923765e+000
1.129678e+003, 7.500369e+000
1.130160e+003, 7.097588e+000
1.130642e+003, 7.276118e+000
1.131125e+003, 7.817699e+000
1.131607e+003, 7.888147e+000
1.132089e+003, 7.526891e+000
1.132571e+003, 7.488088e+000
1.133053e+003, 7.803728e+000
1.133535e+003, 7.971616e+000
1.134017e+003, 7.838667e+000
1.134499e+003, 7.687731e+000
1.134981e+003, 7.743373e+000
1.135464e+003, 7.884209e+000
1.135946e+003, 7.894800e+000
1.136428e+003, 7.801529e+000
1.136910e+003, 7.666915e+000
1.137392e+003, 7.519156e+000
1.137874e+003, 7.498767e+000
1.138356e+003, 7.617845e+000
1.138838e+003, 7.769967e+000
1.139321e+003, 7.901332e+000
1.139803e+003, 8.007200e+000
1.140285e+003, 8.147107e+000
1.140767e+003, 8.198216e+000
1.141249e+003, 7.824732e+000
1.141731e+003, 7.233474e+000
1.142213e+003, 6.895280e+000
1.142695e+003, 6.786786e+000
1.143177e+003, 6.614398e+000
1.143660e+003, 6.302980e+000
1.144142e+003, 6.078282e+000
1.144624e+003, 6.135943e+000
1.145106e+003, 6.256987e+000
1.145588e+003, 6.177029e+000
1.146070e+003, 6.056161e+000
1.146552e+003, 6.112169e+000
1.147034e+003, 6.275225e+000
1.147516e+003, 6.456376e+000
1.147999e+003, 6.592314e+000
1.148481e+003, 6.507367e+000
1.148963e+003, 6.077225e+000
1.149445e+003, 5.734909e+000
1.149927e+003, 5.823228e+000
1.150409e+003, 6.017749e+000
1.150891e+003, 6.225293e+000
1.151373e+003, 6.300360e+000
1.151856e+003, 5.918340e+000
1.152338e+003, 5.331410e+000
1.152820e+003, 5.161988e+000
1.153302e+003, 5.538149e+000
1.153784e+003, 5.858978e+000
1.154266e+003, 5.893152e+000
1.154748e+003, 5.883914e+000
1.155230e+003, 5.958639e+000
1.155713e+003, 5.962782e+000
1.156195e+003, 5.725008e+000
1.156677e+003, 5.408388e+000
1.157159e+003, 5.226457e+000
1.157641e+003, 5.174215e+000
1.158123e+003, 5.113269e+000
1.158605e+003, 4.977789e+000
1.159087e+003, 4.945400e+000
1.159569e+003, 5.131552e+000
1.160052e+003, 5.278983e+000
1.160534e+003, 5.330207e+000
1.161016e+003, 5.308301e+000
1.161498e+003, 5.203751e+000
1.161980e+003, 5.052159e+000
1.162462e+003, 4.928282e+000
1.162944e+003, 4.832227e+000
1.163426e+003, 4.760900e+000
1.163908e+003, 4.720976e+000
1.164391e+003, 4.677297e+000
1.164873e+003, 4.594230e+000
1.165355e+003, 4.614862e+000
1.165837e+003, 4.851933e+000
1.166319e+003, 5.100575e+000
1.166801e+003, 5.099850e+000
1.167283e+003, 4.927800e+000
1.167765e+003, 4.926047e+000
1.168247e+003, 5.103057e+000
1.168730e+003, 5.182868e+000
1.169212e+003, 5.151675e+000
1.169694e+003, 5.076468e+000
1.170176e+003, 4.972695e+000
1.170658e+003, 4.982849e+000
1.171140e+003, 5.228395e+000
1.171622e+003, 5.473875e+000
1.172104e+003, 5.256451e+000
1.172587e+003, 4.762271e+000
1.173069e+003, 4.641392e+000
1.173551e+003, 4.798887e+000
1.174033e+003, 4.876043e+000
1.174515e+003, 4.844777e+000
1.174997e+003, 4.853970e+000
1.175479e+003, 4.954735e+000
1.175961e+003, 5.038870e+000
1.176443e+003, 5.019434e+000
1.176926e+003, 4.934869e+000
1.177408e+003, 4.778947e+000
1.177890e+003, 4.628168e+000
1.178372e+003, 4.642895e+000
1.178854e+003, 4.730320e+000
1.179336e+003, 4.669465e+000
1.179818e+003, 4.469714e+000
1.180300e+003, 4.319496e+000
1.180782e+003, 4.286227e+000
1.181265e+003, 4.392023e+000
1.181747e+003, 4.847673e+000
1.182229e+003, 5.208686e+000
1.182711e+003, 5.041886e+000
1.183193e+003, 4.768404e+000
1.183675e+003, 4.845559e+000
1.184157e+003, 5.103736e+000
1.184639e+003, 5.144655e+000
1.185122e+003, 4.925692e+000
1.185604e+003, 4.789524e+000
1.186086e+003, 4.940620e+000
1.186568e+003, 4.973742e+000
1.187050e+003, 4.647254e+000
1.187532e+003, 4.407146e+000
1.188014e+003, 4.503506e+000
1.188496e+003, 4.717073e+000
1.188979e+003, 4.883591e+000
1.189461e+003, 4.993997e+000
1.189943e+003, 5.004676e+000
1.190425e+003, 4.885714e+000
1.190907e+003, 4.848776e+000
1.191389e+003, 4.932724e+000
1.191871e+003, 4.987622e+000
1.192353e+003, 4.979835e+000
1.192835e+003, 4.986380e+000
1.193318e+003, 5.081636e+000
1.193800e+003, 5.084245e+000
1.194282e+003, 4.707688e+000
1.194764e+003, 4.131912e+000
1.195246e+003, 4.132854e+000
1.195728e+003, 4.683853e+000
1.196210e+003, 5.139139e+000
1.196692e+003, 5.458151e+000
1.197174e+003, 5.440051e+000
1.197657e+003, 5.056375e+000
1.198139e+003, 4.729682e+000
1.198621e+003, 4.723266e+000
1.199103e+003, 4.883284e+000
1.199585e+003, 5.079478e+000
1.200067e+003, 5.241589e+000
1.200549e+003, 5.204297e+000
1.201031e+003, 5.033460e+000
1.201514e+003, 4.841184e+000
1.201996e+003, 4.659294e+000
1.202478e+003, 4.503778e+000
1.202960e+003, 4.391503e+000
1.203442e+003, 4.408219e+000
1.203924e+003, 4.658111e+000
1.204406e+003, 4.884732e+000
1.204888e+003, 4.867274e+000
1.205370e+003, 4.774471e+000
1.205853e+003, 4.663729e+000
1.206335e+003, 4.621570e+000
1.206817e+003, 4.841487e+000
1.207299e+003, 5.188859e+000
1.207781e+003, 5.269781e+000
1.208263e+003, 4.987074e+000
1.208745e+003, 4.803917e+000
1.209227e+003, 4.816028e+000
1.209709e+003, 4.960700e+000
1.210192e+003, 5.518781e+000
1.210674e+003, 5.857631e+000
1.211156e+003, 5.404101e+000
1.211638e+003, 4.803256e+000
1.212120e+003, 4.730363e+000
1.212602e+003, 5.042229e+000
1.213084e+003, 5.206670e+000
1.213566e+003, 5.221561e+000
1.214049e+003, 5.053034e+000
1.214531e+003, 4.582252e+000
1.215013e+003, 4.452406e+000
1.215495e+003, 4.870879e+000
1.215977e+003, 5.189316e+000
1.216459e+003, 5.031097e+000
1.216941e+003, 4.800372e+000
1.217423e+003, 5.028076e+000
1.217906e+003, 5.514669e+000
1.218388e+003, 5.623022e+000
1.218870e+003, 5.424603e+000
1.219352e+003, 5.272416e+000
1.219834e+003, 5.170189e+000
1.220316e+003, 4.972325e+000
1.220798e+003, 4.683083e+000
1.221280e+003, 4.589064e+000
1.221762e+003, 4.854583e+000
1.222245e+003, 5.100682e+000
1.222727e+003, 4.802365e+000
1.223209e+003, 4.428746e+000
1.223691e+003, 4.579974e+000
1.224173e+003, 4.934419e+000
1.224655e+003, 5.131974e+000
1.225137e+003, 5.164741e+000
1.225619e+003, 5.030375e+000
1.226101e+003, 4.787100e+000
1.226584e+003, 4.712664e+000
1.227066e+003, 4.973629e+000
1.227548e+003, 5.201112e+000
1.228030e+003, 5.276347e+000
1.228512e+003, 5.282900e+000
1.228994e+003, 5.208174e+000
1.229476e+003, 5.124751e+000
1.229958e+003, 5.103935e+000
1.230441e+003, 5.103338e+000
1.230923e+003, 5.019390e+000
1.231405e+003, 4.858316e+000
1.231887e+003, 4.858430e+000
1.232369e+003, 5.110588e+000
1.232851e+003, 5.240177e+000
1.233333e+003, 5.204230e+000
1.233815e+003, 5.138343e+000
1.234297e+003, 5.076480e+000
1.234780e+003, 5.028892e+000
1.235262e+003, 5.010254e+000
1.235744e+003, 4.977032e+000
1.236226e+003, 4.830438e+000
1.236708e+003, 4.617628e+000
1.237190e+003, 4.506532e+000
1.237672e+003, 4.507968e+000
1.238154e+003, 4.793716e+000
1.238636e+003, 5.261803e+000
1.239119e+003, 5.310872e+000
1.239601e+003, 4.836396e+000
1.240083e+003, 4.459983e+000
1.240565e+003, 4.593843e+000
1.241047e+003, 4.855743e+000
1.241529e+003, 4.884347e+000
1.242011e+003, 4.856613e+000
1.242493e+003, 4.973665e+000
1.242975e+003, 5.117404e+000
1.243458e+003, 5.170723e+000
1.243940e+003, 5.114656e+000
1.244422e+003, 4.881862e+000
1.244904e+003, 4.490586e+000
1.245386e+003, 4.285501e+000
1.245868e+003, 4.453735e+000
1.246350e+003, 4.633050e+000
1.246832e+003, 4.822411e+000
1.247315e+003, 4.930109e+000
1.247797e+003, 4.800118e+000
1.248279e+003, 4.737802e+000
1.248761e+003, 5.040504e+000
1.249243e+003, 5.466117e+000
1.249725e+003, 5.555165e+000
1.250207e+003, 5.332733e+000
1.250689e+003, 5.275141e+000
1.251172e+003, 5.414457e+000
1.251654e+003, 5.312803e+000
1.252136e+003, 4.922562e+000
1.252618e+003, 4.740979e+000
1.253100e+003, 4.915968e+000
1.253582e+003, 5.079721e+000
1.254064e+003, 4.969573e+000
1.254546e+003, 4.822888e+000
1.255028e+003, 5.073633e+000
1.255510e+003, 5.435396e+000
1.255993e+003, 5.253775e+000
1.256475e+003, 4.845970e+000
1.256957e+003, 4.882487e+000
1.257439e+003, 5.198970e+000
1.257921e+003, 5.199074e+000
1.258403e+003, 4.827657e+000
1.258885e+003, 4.606022e+000
1.259367e+003, 4.810724e+000
1.259850e+003, 4.974041e+000
1.260332e+003, 4.812372e+000
1.260814e+003, 4.645797e+000
1.261296e+003, 4.613510e+000
1.261778e+003, 4.646736e+000
1.262260e+003, 4.668673e+000
1.262742e+003, 4.733640e+000
1.263224e+003, 5.000922e+000
1.263707e+003, 5.419108e+000
1.264189e+003, 5.524582e+000
1.264671e+003, 5.184392e+000
1.265153e+003, 4.992530e+000
1.265635e+003, 4.989984e+000
1.266117e+003, 4.958357e+000
1.266599e+003, 4.838134e+000
1.267081e+003, 4.766685e+000
1.267563e+003, 4.824603e+000
1.268046e+003, 4.923652e+000
1.268528e+003, 4.941019e+000
1.269010e+003, 4.958872e+000
1.269492e+003, 5.264486e+000
1.269974e+003, 5.681629e+000
1.270456e+003, 5.733577e+000
1.270938e+003, 5.510379e+000
1.271420e+003, 5.250250e+000
1.271902e+003, 5.049624e+000
1.272385e+003, 5.079221e+000
1.272867e+003, 5.405405e+000
1.273349e+003, 5.627307e+000
1.273831e+003, 5.444996e+000
1.274313e+003, 5.184348e+000
1.274795e+003, 4.870627e+000
1.275277e+003, 4.688467e+000
1.275759e+003, 4.809710e+000
1.276242e+003, 5.088458e+000
1.276724e+003, 5.456627e+000
1.277206e+003, 5.822877e+000
1.277688e+003, 5.911143e+000
1.278170e+003, 5.685777e+000
1.278652e+003, 5.517425e+000
1.279134e+003, 5.441218e+000
1.279616e+003, 5.267749e+000
1.280099e+003, 4.932109e+000
1.280581e+003, 4.768942e+000
1.281063e+003, 4.918967e+000
1.281545e+003, 5.076749e+000
1.282027e+003, 4.986473e+000
1.282509e+003, 4.844552e+000
1.282991e+003, 5.046418e+000
1.283473e+003, 5.413763e+000
1.283955e+003, 5.565581e+000
##END=



