##NAMES=Mammothite
##RRUFFID=R130100
##IDEAL CHEMISTRY=Pb^2+^_6_Cu^2+^_4_AlSb^5+^O_2_(S^6+^O_4_)_2_Cl_4_(OH)_16_
##LOCALITY=Rowley mine, Maricopa County, Arizona, USA
##OWNER=RRUFF
##SOURCE=Joe Ruiz
##DESCRIPTION=Blue bladed crystals, associated with blue cubes of boleite R130099, irregular masses of blue diaboleite, colorless paralaurionite, colorless gypsum in massive cerussite
##STATUS=The identification of this mineral has been confirmed by single-crystal X-ray diffraction.
##URL=rruff.info/R130100
8.936163e+001, 0.000000e+000
8.984375e+001, 8.133332e+001
9.032587e+001, 8.186927e+001
9.080798e+001, 8.196098e+001
9.129010e+001, 8.139130e+001
9.177222e+001, 8.063081e+001
9.225433e+001, 8.041909e+001
9.273645e+001, 8.069125e+001
9.321857e+001, 8.074362e+001
9.370068e+001, 7.983609e+001
9.418280e+001, 7.819514e+001
9.466492e+001, 7.654763e+001
9.514703e+001, 7.503135e+001
9.562915e+001, 7.369344e+001
9.611127e+001, 7.264408e+001
9.659338e+001, 7.190725e+001
9.707550e+001, 7.137595e+001
9.755762e+001, 7.096953e+001
9.803973e+001, 7.068879e+001
9.852185e+001, 7.040748e+001
9.900397e+001, 7.010097e+001
9.948608e+001, 6.976933e+001
9.996820e+001, 6.930997e+001
1.004503e+002, 6.869869e+001
1.009324e+002, 6.798001e+001
1.014146e+002, 6.723441e+001
1.018967e+002, 6.644769e+001
1.023788e+002, 6.565611e+001
1.028609e+002, 6.482690e+001
1.033430e+002, 6.388194e+001
1.038251e+002, 6.321255e+001
1.043073e+002, 6.304628e+001
1.047894e+002, 6.321027e+001
1.052715e+002, 6.275481e+001
1.057536e+002, 6.126117e+001
1.062357e+002, 5.960528e+001
1.067178e+002, 5.837058e+001
1.072000e+002, 5.774646e+001
1.076821e+002, 5.729140e+001
1.081642e+002, 5.706837e+001
1.086463e+002, 5.711509e+001
1.091284e+002, 5.686883e+001
1.096105e+002, 5.615780e+001
1.100927e+002, 5.522599e+001
1.105748e+002, 5.430843e+001
1.110569e+002, 5.317427e+001
1.115390e+002, 5.227489e+001
1.120211e+002, 5.181599e+001
1.125032e+002, 5.197680e+001
1.129854e+002, 5.193102e+001
1.134675e+002, 5.130840e+001
1.139496e+002, 5.046318e+001
1.144317e+002, 4.990009e+001
1.149138e+002, 5.013927e+001
1.153959e+002, 5.039292e+001
1.158781e+002, 5.029118e+001
1.163602e+002, 4.965684e+001
1.168423e+002, 4.891591e+001
1.173244e+002, 4.810213e+001
1.178065e+002, 4.727578e+001
1.182886e+002, 4.659023e+001
1.187708e+002, 4.624826e+001
1.192529e+002, 4.600178e+001
1.197350e+002, 4.564675e+001
1.202171e+002, 4.497771e+001
1.206992e+002, 4.437013e+001
1.211813e+002, 4.412939e+001
1.216635e+002, 4.419891e+001
1.221456e+002, 4.427541e+001
1.226277e+002, 4.423198e+001
1.231098e+002, 4.406861e+001
1.235919e+002, 4.378351e+001
1.240740e+002, 4.330626e+001
1.245562e+002, 4.274704e+001
1.250383e+002, 4.219706e+001
1.255204e+002, 4.165393e+001
1.260025e+002, 4.117091e+001
1.264846e+002, 4.089336e+001
1.269667e+002, 4.072457e+001
1.274489e+002, 4.042279e+001
1.279310e+002, 3.975754e+001
1.284131e+002, 3.890906e+001
1.288952e+002, 3.822199e+001
1.293773e+002, 3.771061e+001
1.298594e+002, 3.732787e+001
1.303416e+002, 3.703733e+001
1.308237e+002, 3.683393e+001
1.313058e+002, 3.666150e+001
1.317879e+002, 3.653531e+001
1.322700e+002, 3.643066e+001
1.327521e+002, 3.620691e+001
1.332343e+002, 3.581742e+001
1.337164e+002, 3.536674e+001
1.341985e+002, 3.505132e+001
1.346806e+002, 3.488140e+001
1.351627e+002, 3.470998e+001
1.356448e+002, 3.442398e+001
1.361270e+002, 3.401988e+001
1.366091e+002, 3.366450e+001
1.370912e+002, 3.337783e+001
1.375733e+002, 3.315489e+001
1.380554e+002, 3.296121e+001
1.385375e+002, 3.279535e+001
1.390197e+002, 3.266197e+001
1.395018e+002, 3.260148e+001
1.399839e+002, 3.266432e+001
1.404660e+002, 3.257104e+001
1.409481e+002, 3.221406e+001
1.414302e+002, 3.162406e+001
1.419124e+002, 3.119631e+001
1.423945e+002, 3.098528e+001
1.428766e+002, 3.086232e+001
1.433587e+002, 3.072321e+001
1.438408e+002, 3.062342e+001
1.443229e+002, 3.038287e+001
1.448051e+002, 2.985206e+001
1.452872e+002, 2.892053e+001
1.457693e+002, 2.854527e+001
1.462514e+002, 2.915582e+001
1.467335e+002, 3.004828e+001
1.472156e+002, 3.030493e+001
1.476978e+002, 2.936975e+001
1.481799e+002, 2.848176e+001
1.486620e+002, 2.796833e+001
1.491441e+002, 2.800498e+001
1.496262e+002, 2.794914e+001
1.501083e+002, 2.768091e+001
1.505905e+002, 2.734021e+001
1.510726e+002, 2.717313e+001
1.515547e+002, 2.746553e+001
1.520368e+002, 2.768630e+001
1.525189e+002, 2.766972e+001
1.530010e+002, 2.729309e+001
1.534832e+002, 2.688359e+001
1.539653e+002, 2.634089e+001
1.544474e+002, 2.577192e+001
1.549295e+002, 2.543341e+001
1.554116e+002, 2.565513e+001
1.558937e+002, 2.589835e+001
1.563759e+002, 2.590731e+001
1.568580e+002, 2.539672e+001
1.573401e+002, 2.498772e+001
1.578222e+002, 2.483029e+001
1.583043e+002, 2.487676e+001
1.587864e+002, 2.495123e+001
1.592686e+002, 2.504559e+001
1.597507e+002, 2.513009e+001
1.602328e+002, 2.518789e+001
1.607149e+002, 2.539371e+001
1.611970e+002, 2.539233e+001
1.616791e+002, 2.485713e+001
1.621613e+002, 2.390170e+001
1.626434e+002, 2.322770e+001
1.631255e+002, 2.332481e+001
1.636076e+002, 2.374925e+001
1.640897e+002, 2.410570e+001
1.645718e+002, 2.436442e+001
1.650540e+002, 2.444514e+001
1.655361e+002, 2.420245e+001
1.660182e+002, 2.365127e+001
1.665003e+002, 2.317620e+001
1.669824e+002, 2.309034e+001
1.674645e+002, 2.316733e+001
1.679467e+002, 2.312891e+001
1.684288e+002, 2.256017e+001
1.689109e+002, 2.204880e+001
1.693930e+002, 2.213349e+001
1.698751e+002, 2.285771e+001
1.703572e+002, 2.354617e+001
1.708394e+002, 2.367935e+001
1.713215e+002, 2.347279e+001
1.718036e+002, 2.329016e+001
1.722857e+002, 2.318784e+001
1.727678e+002, 2.323735e+001
1.732499e+002, 2.356099e+001
1.737321e+002, 2.419750e+001
1.742142e+002, 2.489667e+001
1.746963e+002, 2.547177e+001
1.751784e+002, 2.595852e+001
1.756605e+002, 2.644368e+001
1.761426e+002, 2.701830e+001
1.766248e+002, 2.759725e+001
1.771069e+002, 2.804408e+001
1.775890e+002, 2.832948e+001
1.780711e+002, 2.856336e+001
1.785532e+002, 2.878353e+001
1.790353e+002, 2.902923e+001
1.795175e+002, 2.943151e+001
1.799996e+002, 3.005788e+001
1.804817e+002, 3.089236e+001
1.809638e+002, 3.197254e+001
1.814459e+002, 3.337715e+001
1.819280e+002, 3.483492e+001
1.824102e+002, 3.598159e+001
1.828923e+002, 3.683940e+001
1.833744e+002, 3.768702e+001
1.838565e+002, 3.873481e+001
1.843386e+002, 3.990825e+001
1.848207e+002, 4.095730e+001
1.853029e+002, 4.184917e+001
1.857850e+002, 4.262172e+001
1.862671e+002, 4.331047e+001
1.867492e+002, 4.391788e+001
1.872313e+002, 4.455684e+001
1.877134e+002, 4.530931e+001
1.881956e+002, 4.616636e+001
1.886777e+002, 4.703837e+001
1.891598e+002, 4.789784e+001
1.896419e+002, 4.879534e+001
1.901240e+002, 4.989637e+001
1.906061e+002, 5.122597e+001
1.910883e+002, 5.252821e+001
1.915704e+002, 5.357436e+001
1.920525e+002, 5.440302e+001
1.925346e+002, 5.528999e+001
1.930167e+002, 5.624793e+001
1.934988e+002, 5.728033e+001
1.939810e+002, 5.830507e+001
1.944631e+002, 5.926757e+001
1.949452e+002, 6.036712e+001
1.954273e+002, 6.162870e+001
1.959094e+002, 6.304550e+001
1.963915e+002, 6.422664e+001
1.968737e+002, 6.499829e+001
1.973558e+002, 6.552272e+001
1.978379e+002, 6.641238e+001
1.983200e+002, 6.770137e+001
1.988021e+002, 6.916177e+001
1.992842e+002, 7.060319e+001
1.997664e+002, 7.203379e+001
2.002485e+002, 7.345924e+001
2.007306e+002, 7.493260e+001
2.012127e+002, 7.641618e+001
2.016948e+002, 7.768642e+001
2.021769e+002, 7.869982e+001
2.026591e+002, 7.965897e+001
2.031412e+002, 8.073447e+001
2.036233e+002, 8.193855e+001
2.041054e+002, 8.322007e+001
2.045875e+002, 8.467454e+001
2.050696e+002, 8.624157e+001
2.055518e+002, 8.730294e+001
2.060339e+002, 8.777850e+001
2.065160e+002, 8.795087e+001
2.069981e+002, 8.814591e+001
2.074802e+002, 8.843466e+001
2.079623e+002, 8.840623e+001
2.084445e+002, 8.788287e+001
2.089266e+002, 8.688670e+001
2.094087e+002, 8.608252e+001
2.098908e+002, 8.560607e+001
2.103729e+002, 8.506639e+001
2.108550e+002, 8.390004e+001
2.113372e+002, 8.184219e+001
2.118193e+002, 8.014355e+001
2.123014e+002, 7.921348e+001
2.127835e+002, 7.905856e+001
2.132656e+002, 7.866380e+001
2.137477e+002, 7.800665e+001
2.142299e+002, 7.714307e+001
2.147120e+002, 7.609206e+001
2.151941e+002, 7.472043e+001
2.156762e+002, 7.350594e+001
2.161583e+002, 7.257372e+001
2.166404e+002, 7.194144e+001
2.171226e+002, 7.137370e+001
2.176047e+002, 7.090960e+001
2.180868e+002, 7.046207e+001
2.185689e+002, 6.990253e+001
2.190510e+002, 6.915902e+001
2.195331e+002, 6.846156e+001
2.200153e+002, 6.781856e+001
2.204974e+002, 6.720830e+001
2.209795e+002, 6.689545e+001
2.214616e+002, 6.699446e+001
2.219437e+002, 6.726656e+001
2.224258e+002, 6.745810e+001
2.229080e+002, 6.765968e+001
2.233901e+002, 6.757520e+001
2.238722e+002, 6.700938e+001
2.243543e+002, 6.585091e+001
2.248364e+002, 6.517782e+001
2.253185e+002, 6.527946e+001
2.258007e+002, 6.560027e+001
2.262828e+002, 6.539892e+001
2.267649e+002, 6.438518e+001
2.272470e+002, 6.342093e+001
2.277291e+002, 6.277489e+001
2.282112e+002, 6.248970e+001
2.286934e+002, 6.211253e+001
2.291755e+002, 6.163308e+001
2.296576e+002, 6.107092e+001
2.301397e+002, 6.043865e+001
2.306218e+002, 5.962907e+001
2.311039e+002, 5.893383e+001
2.315861e+002, 5.845219e+001
2.320682e+002, 5.820644e+001
2.325503e+002, 5.798530e+001
2.330324e+002, 5.784418e+001
2.335145e+002, 5.768578e+001
2.339966e+002, 5.736161e+001
2.344788e+002, 5.673922e+001
2.349609e+002, 5.619233e+001
2.354430e+002, 5.580997e+001
2.359251e+002, 5.559855e+001
2.364072e+002, 5.552171e+001
2.368893e+002, 5.568362e+001
2.373715e+002, 5.589343e+001
2.378536e+002, 5.591781e+001
2.383357e+002, 5.572328e+001
2.388178e+002, 5.539322e+001
2.392999e+002, 5.488090e+001
2.397820e+002, 5.413445e+001
2.402642e+002, 5.363818e+001
2.407463e+002, 5.349818e+001
2.412284e+002, 5.351627e+001
2.417105e+002, 5.346646e+001
2.421926e+002, 5.337093e+001
2.426747e+002, 5.316150e+001
2.431569e+002, 5.277212e+001
2.436390e+002, 5.215841e+001
2.441211e+002, 5.172614e+001
2.446032e+002, 5.154275e+001
2.450853e+002, 5.147571e+001
2.455674e+002, 5.139357e+001
2.460496e+002, 5.137159e+001
2.465317e+002, 5.118991e+001
2.470138e+002, 5.073523e+001
2.474959e+002, 4.996540e+001
2.479780e+002, 4.940154e+001
2.484601e+002, 4.909685e+001
2.489423e+002, 4.894010e+001
2.494244e+002, 4.882809e+001
2.499065e+002, 4.881842e+001
2.503886e+002, 4.874104e+001
2.508707e+002, 4.854028e+001
2.513528e+002, 4.821175e+001
2.518350e+002, 4.791404e+001
2.523171e+002, 4.766657e+001
2.527992e+002, 4.743224e+001
2.532813e+002, 4.716675e+001
2.537634e+002, 4.684047e+001
2.542455e+002, 4.655285e+001
2.547277e+002, 4.633796e+001
2.552098e+002, 4.619609e+001
2.556919e+002, 4.601323e+001
2.561740e+002, 4.578105e+001
2.566561e+002, 4.551699e+001
2.571382e+002, 4.526563e+001
2.576204e+002, 4.510523e+001
2.581025e+002, 4.475148e+001
2.585846e+002, 4.408230e+001
2.590667e+002, 4.311724e+001
2.595488e+002, 4.232413e+001
2.600309e+002, 4.171430e+001
2.605131e+002, 4.128150e+001
2.609952e+002, 4.110949e+001
2.614773e+002, 4.140022e+001
2.619594e+002, 4.136145e+001
2.624415e+002, 4.072898e+001
2.629236e+002, 3.958493e+001
2.634058e+002, 3.886507e+001
2.638879e+002, 3.872150e+001
2.643700e+002, 3.873183e+001
2.648521e+002, 3.855146e+001
2.653342e+002, 3.811761e+001
2.658163e+002, 3.770586e+001
2.662985e+002, 3.734162e+001
2.667806e+002, 3.703218e+001
2.672627e+002, 3.682060e+001
2.677448e+002, 3.672741e+001
2.682269e+002, 3.669147e+001
2.687090e+002, 3.667010e+001
2.691912e+002, 3.665960e+001
2.696733e+002, 3.668578e+001
2.701554e+002, 3.678135e+001
2.706375e+002, 3.690878e+001
2.711196e+002, 3.690130e+001
2.716017e+002, 3.672552e+001
2.720839e+002, 3.650698e+001
2.725660e+002, 3.627238e+001
2.730481e+002, 3.597524e+001
2.735302e+002, 3.598468e+001
2.740123e+002, 3.643748e+001
2.744944e+002, 3.715504e+001
2.749766e+002, 3.760454e+001
2.754587e+002, 3.773313e+001
2.759408e+002, 3.780006e+001
2.764229e+002, 3.797440e+001
2.769050e+002, 3.827233e+001
2.773871e+002, 3.846372e+001
2.778693e+002, 3.847844e+001
2.783514e+002, 3.844019e+001
2.788335e+002, 3.865759e+001
2.793156e+002, 3.917318e+001
2.797977e+002, 3.970498e+001
2.802798e+002, 4.007303e+001
2.807620e+002, 4.027282e+001
2.812441e+002, 4.057401e+001
2.817262e+002, 4.100835e+001
2.822083e+002, 4.151328e+001
2.826904e+002, 4.198213e+001
2.831725e+002, 4.241241e+001
2.836547e+002, 4.283773e+001
2.841368e+002, 4.322601e+001
2.846189e+002, 4.359001e+001
2.851010e+002, 4.419666e+001
2.855831e+002, 4.513186e+001
2.860652e+002, 4.608358e+001
2.865474e+002, 4.651546e+001
2.870295e+002, 4.643874e+001
2.875116e+002, 4.640015e+001
2.879937e+002, 4.677197e+001
2.884758e+002, 4.743742e+001
2.889579e+002, 4.763475e+001
2.894401e+002, 4.730696e+001
2.899222e+002, 4.682978e+001
2.904043e+002, 4.670277e+001
2.908864e+002, 4.687646e+001
2.913685e+002, 4.694657e+001
2.918506e+002, 4.667287e+001
2.923328e+002, 4.619149e+001
2.928149e+002, 4.596053e+001
2.932970e+002, 4.599968e+001
2.937791e+002, 4.603084e+001
2.942612e+002, 4.566847e+001
2.947433e+002, 4.502375e+001
2.952255e+002, 4.455210e+001
2.957076e+002, 4.449015e+001
2.961897e+002, 4.464861e+001
2.966718e+002, 4.459433e+001
2.971539e+002, 4.433576e+001
2.976360e+002, 4.420754e+001
2.981182e+002, 4.467443e+001
2.986003e+002, 4.549898e+001
2.990824e+002, 4.609272e+001
2.995645e+002, 4.624725e+001
3.000466e+002, 4.615030e+001
3.005287e+002, 4.591939e+001
3.010109e+002, 4.559922e+001
3.014930e+002, 4.550887e+001
3.019751e+002, 4.599255e+001
3.024572e+002, 4.684336e+001
3.029393e+002, 4.770947e+001
3.034214e+002, 4.853313e+001
3.039036e+002, 4.933740e+001
3.043857e+002, 5.017879e+001
3.048678e+002, 5.103160e+001
3.053499e+002, 5.181915e+001
3.058320e+002, 5.257160e+001
3.063141e+002, 5.319644e+001
3.067963e+002, 5.351789e+001
3.072784e+002, 5.342278e+001
3.077605e+002, 5.328532e+001
3.082426e+002, 5.351579e+001
3.087247e+002, 5.395329e+001
3.092068e+002, 5.421231e+001
3.096890e+002, 5.404376e+001
3.101711e+002, 5.363976e+001
3.106532e+002, 5.316533e+001
3.111353e+002, 5.264977e+001
3.116174e+002, 5.201332e+001
3.120995e+002, 5.117698e+001
3.125817e+002, 5.019651e+001
3.130638e+002, 4.915261e+001
3.135459e+002, 4.801445e+001
3.140280e+002, 4.686004e+001
3.145101e+002, 4.572985e+001
3.149922e+002, 4.463203e+001
3.154744e+002, 4.355224e+001
3.159565e+002, 4.232895e+001
3.164386e+002, 4.117896e+001
3.169207e+002, 4.036246e+001
3.174028e+002, 4.025124e+001
3.178849e+002, 4.021166e+001
3.183671e+002, 3.996840e+001
3.188492e+002, 3.952606e+001
3.193313e+002, 3.914494e+001
3.198134e+002, 3.885794e+001
3.202955e+002, 3.869384e+001
3.207776e+002, 3.867758e+001
3.212598e+002, 3.899141e+001
3.217419e+002, 3.926258e+001
3.222240e+002, 3.940637e+001
3.227061e+002, 3.943418e+001
3.231882e+002, 3.941052e+001
3.236703e+002, 3.928846e+001
3.241525e+002, 3.915788e+001
3.246346e+002, 3.907448e+001
3.251167e+002, 3.918270e+001
3.255988e+002, 3.914797e+001
3.260809e+002, 3.883876e+001
3.265630e+002, 3.835658e+001
3.270452e+002, 3.797786e+001
3.275273e+002, 3.791395e+001
3.280094e+002, 3.779213e+001
3.284915e+002, 3.747764e+001
3.289736e+002, 3.690831e+001
3.294557e+002, 3.629388e+001
3.299379e+002, 3.564582e+001
3.304200e+002, 3.494566e+001
3.309021e+002, 3.416210e+001
3.313842e+002, 3.313071e+001
3.318663e+002, 3.222673e+001
3.323484e+002, 3.158243e+001
3.328306e+002, 3.126078e+001
3.333127e+002, 3.085840e+001
3.337948e+002, 3.035589e+001
3.342769e+002, 2.978732e+001
3.347590e+002, 2.917444e+001
3.352411e+002, 2.843554e+001
3.357233e+002, 2.782956e+001
3.362054e+002, 2.744767e+001
3.366875e+002, 2.727163e+001
3.371696e+002, 2.704034e+001
3.376517e+002, 2.671437e+001
3.381339e+002, 2.641056e+001
3.386160e+002, 2.625146e+001
3.390981e+002, 2.627515e+001
3.395802e+002, 2.623823e+001
3.400623e+002, 2.607044e+001
3.405444e+002, 2.583451e+001
3.410266e+002, 2.580751e+001
3.415087e+002, 2.605171e+001
3.419908e+002, 2.620281e+001
3.424729e+002, 2.592734e+001
3.429550e+002, 2.523078e+001
3.434371e+002, 2.481229e+001
3.439193e+002, 2.479762e+001
3.444014e+002, 2.495612e+001
3.448835e+002, 2.486875e+001
3.453656e+002, 2.453725e+001
3.458477e+002, 2.417801e+001
3.463298e+002, 2.384464e+001
3.468120e+002, 2.355967e+001
3.472941e+002, 2.345452e+001
3.477762e+002, 2.354679e+001
3.482583e+002, 2.373568e+001
3.487404e+002, 2.394556e+001
3.492225e+002, 2.416276e+001
3.497047e+002, 2.432807e+001
3.501868e+002, 2.441513e+001
3.506689e+002, 2.443794e+001
3.511510e+002, 2.442330e+001
3.516331e+002, 2.437059e+001
3.521152e+002, 2.426558e+001
3.525974e+002, 2.402269e+001
3.530795e+002, 2.372764e+001
3.535616e+002, 2.354692e+001
3.540437e+002, 2.357321e+001
3.545258e+002, 2.367103e+001
3.550079e+002, 2.372046e+001
3.554901e+002, 2.372655e+001
3.559722e+002, 2.371350e+001
3.564543e+002, 2.366195e+001
3.569364e+002, 2.361523e+001
3.574185e+002, 2.360800e+001
3.579006e+002, 2.363187e+001
3.583828e+002, 2.373622e+001
3.588649e+002, 2.405501e+001
3.593470e+002, 2.447513e+001
3.598291e+002, 2.477051e+001
3.603112e+002, 2.474592e+001
3.607933e+002, 2.463916e+001
3.612755e+002, 2.458763e+001
3.617576e+002, 2.461112e+001
3.622397e+002, 2.463777e+001
3.627218e+002, 2.460430e+001
3.632039e+002, 2.457206e+001
3.636860e+002, 2.460962e+001
3.641682e+002, 2.495856e+001
3.646503e+002, 2.516220e+001
3.651324e+002, 2.494022e+001
3.656145e+002, 2.431601e+001
3.660966e+002, 2.394602e+001
3.665787e+002, 2.415794e+001
3.670609e+002, 2.452009e+001
3.675430e+002, 2.475588e+001
3.680251e+002, 2.475641e+001
3.685072e+002, 2.473151e+001
3.689893e+002, 2.472343e+001
3.694714e+002, 2.470507e+001
3.699536e+002, 2.457445e+001
3.704357e+002, 2.413869e+001
3.709178e+002, 2.379435e+001
3.713999e+002, 2.372444e+001
3.718820e+002, 2.407642e+001
3.723641e+002, 2.432369e+001
3.728463e+002, 2.445737e+001
3.733284e+002, 2.448983e+001
3.738105e+002, 2.440143e+001
3.742926e+002, 2.406456e+001
3.747747e+002, 2.389918e+001
3.752568e+002, 2.407178e+001
3.757390e+002, 2.458781e+001
3.762211e+002, 2.500564e+001
3.767032e+002, 2.530879e+001
3.771853e+002, 2.555625e+001
3.776674e+002, 2.580915e+001
3.781495e+002, 2.607021e+001
3.786317e+002, 2.630579e+001
3.791138e+002, 2.646851e+001
3.795959e+002, 2.662766e+001
3.800780e+002, 2.706827e+001
3.805601e+002, 2.781606e+001
3.810422e+002, 2.853992e+001
3.815244e+002, 2.899028e+001
3.820065e+002, 2.921234e+001
3.824886e+002, 2.938742e+001
3.829707e+002, 2.948998e+001
3.834528e+002, 2.968550e+001
3.839349e+002, 3.034682e+001
3.844171e+002, 3.138101e+001
3.848992e+002, 3.227278e+001
3.853813e+002, 3.264857e+001
3.858634e+002, 3.276908e+001
3.863455e+002, 3.311909e+001
3.868276e+002, 3.371986e+001
3.873098e+002, 3.432523e+001
3.877919e+002, 3.466188e+001
3.882740e+002, 3.486915e+001
3.887561e+002, 3.519707e+001
3.892382e+002, 3.582380e+001
3.897203e+002, 3.651268e+001
3.902025e+002, 3.703216e+001
3.906846e+002, 3.741886e+001
3.911667e+002, 3.786213e+001
3.916488e+002, 3.861549e+001
3.921309e+002, 3.938430e+001
3.926130e+002, 3.988857e+001
3.930952e+002, 3.992755e+001
3.935773e+002, 4.001096e+001
3.940594e+002, 4.044469e+001
3.945415e+002, 4.106059e+001
3.950236e+002, 4.154656e+001
3.955057e+002, 4.171156e+001
3.959879e+002, 4.181421e+001
3.964700e+002, 4.199842e+001
3.969521e+002, 4.231702e+001
3.974342e+002, 4.243689e+001
3.979163e+002, 4.206734e+001
3.983984e+002, 4.159158e+001
3.988806e+002, 4.135921e+001
3.993627e+002, 4.189799e+001
3.998448e+002, 4.210027e+001
4.003269e+002, 4.177253e+001
4.008090e+002, 4.096586e+001
4.012911e+002, 4.006660e+001
4.017733e+002, 3.886680e+001
4.022554e+002, 3.781038e+001
4.027375e+002, 3.717231e+001
4.032196e+002, 3.720170e+001
4.037017e+002, 3.702594e+001
4.041838e+002, 3.661504e+001
4.046660e+002, 3.601066e+001
4.051481e+002, 3.527817e+001
4.056302e+002, 3.438409e+001
4.061123e+002, 3.346992e+001
4.065944e+002, 3.256617e+001
4.070765e+002, 3.167233e+001
4.075587e+002, 3.087828e+001
4.080408e+002, 3.019903e+001
4.085229e+002, 2.954460e+001
4.090050e+002, 2.877645e+001
4.094871e+002, 2.791326e+001
4.099692e+002, 2.719970e+001
4.104514e+002, 2.674432e+001
4.109335e+002, 2.639863e+001
4.114156e+002, 2.578929e+001
4.118977e+002, 2.494972e+001
4.123798e+002, 2.420684e+001
4.128619e+002, 2.384742e+001
4.133441e+002, 2.373382e+001
4.138262e+002, 2.360533e+001
4.143083e+002, 2.343319e+001
4.147904e+002, 2.324511e+001
4.152725e+002, 2.305641e+001
4.157546e+002, 2.287133e+001
4.162368e+002, 2.269365e+001
4.167189e+002, 2.251101e+001
4.172010e+002, 2.234938e+001
4.176831e+002, 2.225980e+001
4.181652e+002, 2.223549e+001
4.186473e+002, 2.215377e+001
4.191295e+002, 2.177856e+001
4.196116e+002, 2.140145e+001
4.200937e+002, 2.130421e+001
4.205758e+002, 2.179077e+001
4.210579e+002, 2.221845e+001
4.215400e+002, 2.233543e+001
4.220222e+002, 2.224091e+001
4.225043e+002, 2.218329e+001
4.229864e+002, 2.210529e+001
4.234685e+002, 2.217307e+001
4.239506e+002, 2.245235e+001
4.244327e+002, 2.296425e+001
4.249149e+002, 2.363523e+001
4.253970e+002, 2.460766e+001
4.258791e+002, 2.565274e+001
4.263612e+002, 2.655617e+001
4.268433e+002, 2.725238e+001
4.273254e+002, 2.789426e+001
4.278076e+002, 2.845654e+001
4.282897e+002, 2.897029e+001
4.287718e+002, 2.967631e+001
4.292539e+002, 3.072915e+001
4.297360e+002, 3.164337e+001
4.302181e+002, 3.210910e+001
4.307003e+002, 3.208771e+001
4.311824e+002, 3.187438e+001
4.316645e+002, 3.149213e+001
4.321466e+002, 3.090656e+001
4.326287e+002, 2.994646e+001
4.331108e+002, 2.861022e+001
4.335930e+002, 2.741917e+001
4.340751e+002, 2.657127e+001
4.345572e+002, 2.602242e+001
4.350393e+002, 2.565667e+001
4.355214e+002, 2.547672e+001
4.360035e+002, 2.540820e+001
4.364857e+002, 2.543463e+001
4.369678e+002, 2.552361e+001
4.374499e+002, 2.557671e+001
4.379320e+002, 2.552045e+001
4.384141e+002, 2.552603e+001
4.388962e+002, 2.583867e+001
4.393784e+002, 2.637805e+001
4.398605e+002, 2.690884e+001
4.403426e+002, 2.730564e+001
4.408247e+002, 2.763790e+001
4.413068e+002, 2.792406e+001
4.417889e+002, 2.814976e+001
4.422711e+002, 2.850082e+001
4.427532e+002, 2.907530e+001
4.432353e+002, 2.982098e+001
4.437174e+002, 3.068362e+001
4.441995e+002, 3.172662e+001
4.446816e+002, 3.280205e+001
4.451638e+002, 3.390546e+001
4.456459e+002, 3.501655e+001
4.461280e+002, 3.609176e+001
4.466101e+002, 3.719989e+001
4.470922e+002, 3.820727e+001
4.475743e+002, 3.903198e+001
4.480565e+002, 3.954237e+001
4.485386e+002, 4.018988e+001
4.490207e+002, 4.105770e+001
4.495028e+002, 4.200687e+001
4.499849e+002, 4.287013e+001
4.504670e+002, 4.372732e+001
4.509492e+002, 4.433616e+001
4.514313e+002, 4.463379e+001
4.519134e+002, 4.463608e+001
4.523955e+002, 4.443242e+001
4.528776e+002, 4.403140e+001
4.533597e+002, 4.341628e+001
4.538419e+002, 4.258674e+001
4.543240e+002, 4.154903e+001
4.548061e+002, 4.016720e+001
4.552882e+002, 3.835555e+001
4.557703e+002, 3.642384e+001
4.562524e+002, 3.488595e+001
4.567346e+002, 3.368137e+001
4.572167e+002, 3.255316e+001
4.576988e+002, 3.128808e+001
4.581809e+002, 3.005243e+001
4.586630e+002, 2.918232e+001
4.591451e+002, 2.866343e+001
4.596273e+002, 2.814776e+001
4.601094e+002, 2.732004e+001
4.605915e+002, 2.636321e+001
4.610736e+002, 2.551394e+001
4.615557e+002, 2.482367e+001
4.620378e+002, 2.423052e+001
4.625200e+002, 2.374263e+001
4.630021e+002, 2.331646e+001
4.634842e+002, 2.287716e+001
4.639663e+002, 2.232351e+001
4.644484e+002, 2.181001e+001
4.649305e+002, 2.140431e+001
4.654127e+002, 2.110863e+001
4.658948e+002, 2.093358e+001
4.663769e+002, 2.103370e+001
4.668590e+002, 2.116665e+001
4.673411e+002, 2.115887e+001
4.678232e+002, 2.109430e+001
4.683054e+002, 2.074371e+001
4.687875e+002, 1.981329e+001
4.692696e+002, 1.864660e+001
4.697517e+002, 1.813333e+001
4.702338e+002, 1.858119e+001
4.707159e+002, 1.912718e+001
4.711981e+002, 1.951957e+001
4.716802e+002, 1.976068e+001
4.721623e+002, 1.974190e+001
4.726444e+002, 1.939703e+001
4.731265e+002, 1.897458e+001
4.736086e+002, 1.870867e+001
4.740908e+002, 1.859791e+001
4.745729e+002, 1.857067e+001
4.750550e+002, 1.863620e+001
4.755371e+002, 1.874397e+001
4.760192e+002, 1.880442e+001
4.765013e+002, 1.882080e+001
4.769835e+002, 1.881832e+001
4.774656e+002, 1.875120e+001
4.779477e+002, 1.869467e+001
4.784298e+002, 1.882652e+001
4.789119e+002, 1.916018e+001
4.793940e+002, 1.943838e+001
4.798762e+002, 1.933126e+001
4.803583e+002, 1.908707e+001
4.808404e+002, 1.904848e+001
4.813225e+002, 1.950421e+001
4.818046e+002, 1.992726e+001
4.822867e+002, 1.995043e+001
4.827689e+002, 1.972485e+001
4.832510e+002, 1.963907e+001
4.837331e+002, 2.001462e+001
4.842152e+002, 2.039208e+001
4.846973e+002, 2.055826e+001
4.851794e+002, 2.046163e+001
4.856616e+002, 2.035396e+001
4.861437e+002, 2.014701e+001
4.866258e+002, 2.000463e+001
4.871079e+002, 2.007641e+001
4.875900e+002, 2.062339e+001
4.880721e+002, 2.090274e+001
4.885543e+002, 2.069794e+001
4.890364e+002, 2.023081e+001
4.895185e+002, 2.018024e+001
4.900006e+002, 2.066632e+001
4.904827e+002, 2.118818e+001
4.909648e+002, 2.151620e+001
4.914470e+002, 2.166278e+001
4.919291e+002, 2.186750e+001
4.924112e+002, 2.214474e+001
4.928933e+002, 2.240515e+001
4.933754e+002, 2.261243e+001
4.938575e+002, 2.274137e+001
4.943397e+002, 2.261954e+001
4.948218e+002, 2.209067e+001
4.953039e+002, 2.152521e+001
4.957860e+002, 2.143324e+001
4.962681e+002, 2.174251e+001
4.967502e+002, 2.220424e+001
4.972324e+002, 2.289342e+001
4.977145e+002, 2.354717e+001
4.981966e+002, 2.387652e+001
4.986787e+002, 2.386872e+001
4.991608e+002, 2.382908e+001
4.996429e+002, 2.394689e+001
5.001251e+002, 2.409134e+001
5.006072e+002, 2.413993e+001
5.010893e+002, 2.388355e+001
5.015714e+002, 2.378014e+001
5.020535e+002, 2.409917e+001
5.025356e+002, 2.463351e+001
5.030178e+002, 2.491187e+001
5.034999e+002, 2.474354e+001
5.039820e+002, 2.448072e+001
5.044641e+002, 2.412494e+001
5.049462e+002, 2.365752e+001
5.054283e+002, 2.359043e+001
5.059105e+002, 2.416581e+001
5.063926e+002, 2.476821e+001
5.068747e+002, 2.488043e+001
5.073568e+002, 2.441344e+001
5.078389e+002, 2.406227e+001
5.083210e+002, 2.389075e+001
5.088032e+002, 2.386611e+001
5.092853e+002, 2.396208e+001
5.097674e+002, 2.417367e+001
5.102495e+002, 2.442166e+001
5.107316e+002, 2.470469e+001
5.112137e+002, 2.499067e+001
5.116959e+002, 2.517705e+001
5.121780e+002, 2.527301e+001
5.126601e+002, 2.542331e+001
5.131422e+002, 2.584523e+001
5.136243e+002, 2.633887e+001
5.141064e+002, 2.661890e+001
5.145886e+002, 2.657928e+001
5.150707e+002, 2.653254e+001
5.155528e+002, 2.657419e+001
5.160349e+002, 2.675580e+001
5.165170e+002, 2.715146e+001
5.169991e+002, 2.814917e+001
5.174813e+002, 2.899620e+001
5.179634e+002, 2.929597e+001
5.184455e+002, 2.913517e+001
5.189276e+002, 2.925134e+001
5.194097e+002, 2.992940e+001
5.198918e+002, 3.072857e+001
5.203740e+002, 3.146233e+001
5.208561e+002, 3.207837e+001
5.213382e+002, 3.282370e+001
5.218203e+002, 3.376458e+001
5.223024e+002, 3.475782e+001
5.227845e+002, 3.562885e+001
5.232667e+002, 3.634119e+001
5.237488e+002, 3.713815e+001
5.242309e+002, 3.807238e+001
5.247130e+002, 3.910353e+001
5.251951e+002, 4.012285e+001
5.256772e+002, 4.113749e+001
5.261594e+002, 4.225622e+001
5.266415e+002, 4.374802e+001
5.271236e+002, 4.536555e+001
5.276057e+002, 4.646267e+001
5.280878e+002, 4.701103e+001
5.285699e+002, 4.746976e+001
5.290521e+002, 4.808871e+001
5.295342e+002, 4.888170e+001
5.300163e+002, 4.992278e+001
5.304984e+002, 5.146251e+001
5.309805e+002, 5.280860e+001
5.314626e+002, 5.343858e+001
5.319448e+002, 5.360654e+001
5.324269e+002, 5.380376e+001
5.329090e+002, 5.449271e+001
5.333911e+002, 5.492436e+001
5.338732e+002, 5.476344e+001
5.343553e+002, 5.397854e+001
5.348375e+002, 5.323903e+001
5.353196e+002, 5.284864e+001
5.358017e+002, 5.222777e+001
5.362838e+002, 5.102603e+001
5.367659e+002, 4.901200e+001
5.372480e+002, 4.698919e+001
5.377302e+002, 4.488610e+001
5.382123e+002, 4.288501e+001
5.386944e+002, 4.137799e+001
5.391765e+002, 4.039243e+001
5.396586e+002, 3.932415e+001
5.401407e+002, 3.799586e+001
5.406229e+002, 3.650770e+001
5.411050e+002, 3.507591e+001
5.415871e+002, 3.371115e+001
5.420692e+002, 3.252105e+001
5.425513e+002, 3.163643e+001
5.430334e+002, 3.093120e+001
5.435156e+002, 3.021766e+001
5.439977e+002, 2.947998e+001
5.444798e+002, 2.878740e+001
5.449619e+002, 2.818848e+001
5.454440e+002, 2.766891e+001
5.459261e+002, 2.721568e+001
5.464083e+002, 2.685620e+001
5.468904e+002, 2.651739e+001
5.473725e+002, 2.614959e+001
5.478546e+002, 2.579001e+001
5.483367e+002, 2.551040e+001
5.488188e+002, 2.544522e+001
5.493010e+002, 2.532763e+001
5.497831e+002, 2.505507e+001
5.502652e+002, 2.463106e+001
5.507473e+002, 2.435275e+001
5.512294e+002, 2.433789e+001
5.517115e+002, 2.426886e+001
5.521937e+002, 2.389158e+001
5.526758e+002, 2.315623e+001
5.531579e+002, 2.261951e+001
5.536400e+002, 2.235200e+001
5.541221e+002, 2.215482e+001
5.546042e+002, 2.174800e+001
5.550864e+002, 2.116224e+001
5.555685e+002, 2.057396e+001
5.560506e+002, 1.999642e+001
5.565327e+002, 1.950240e+001
5.570148e+002, 1.926956e+001
5.574969e+002, 1.923398e+001
5.579791e+002, 1.915516e+001
5.584612e+002, 1.883941e+001
5.589433e+002, 1.846303e+001
5.594254e+002, 1.817813e+001
5.599075e+002, 1.799510e+001
5.603896e+002, 1.781003e+001
5.608718e+002, 1.757905e+001
5.613539e+002, 1.733293e+001
5.618360e+002, 1.709210e+001
5.623181e+002, 1.681140e+001
5.628002e+002, 1.661109e+001
5.632823e+002, 1.653033e+001
5.637645e+002, 1.651698e+001
5.642466e+002, 1.649084e+001
5.647287e+002, 1.643226e+001
5.652108e+002, 1.641029e+001
5.656929e+002, 1.646083e+001
5.661750e+002, 1.655767e+001
5.666572e+002, 1.655671e+001
5.671393e+002, 1.643772e+001
5.676214e+002, 1.636737e+001
5.681035e+002, 1.652773e+001
5.685856e+002, 1.682787e+001
5.690677e+002, 1.690136e+001
5.695499e+002, 1.672657e+001
5.700320e+002, 1.646375e+001
5.705141e+002, 1.618455e+001
5.709962e+002, 1.593781e+001
5.714783e+002, 1.581380e+001
5.719604e+002, 1.587409e+001
5.724426e+002, 1.597574e+001
5.729247e+002, 1.605121e+001
5.734068e+002, 1.610084e+001
5.738889e+002, 1.612688e+001
5.743710e+002, 1.609309e+001
5.748531e+002, 1.607271e+001
5.753353e+002, 1.613731e+001
5.758174e+002, 1.627143e+001
5.762995e+002, 1.625174e+001
5.767816e+002, 1.590679e+001
5.772637e+002, 1.560528e+001
5.777458e+002, 1.552035e+001
5.782280e+002, 1.569791e+001
5.787101e+002, 1.585588e+001
5.791922e+002, 1.599250e+001
5.796743e+002, 1.611341e+001
5.801564e+002, 1.627421e+001
5.806385e+002, 1.646302e+001
5.811207e+002, 1.640558e+001
5.816028e+002, 1.595731e+001
5.820849e+002, 1.546402e+001
5.825670e+002, 1.553853e+001
5.830491e+002, 1.602594e+001
5.835313e+002, 1.642936e+001
5.840134e+002, 1.637941e+001
5.844955e+002, 1.623313e+001
5.849776e+002, 1.635247e+001
5.854597e+002, 1.668943e+001
5.859418e+002, 1.696393e+001
5.864240e+002, 1.692787e+001
5.869061e+002, 1.687902e+001
5.873882e+002, 1.702110e+001
5.878703e+002, 1.744711e+001
5.883524e+002, 1.777979e+001
5.888345e+002, 1.791050e+001
5.893167e+002, 1.797230e+001
5.897988e+002, 1.804142e+001
5.902809e+002, 1.800907e+001
5.907630e+002, 1.826629e+001
5.912451e+002, 1.895994e+001
5.917272e+002, 1.983698e+001
5.922094e+002, 2.038116e+001
5.926915e+002, 2.056355e+001
5.931736e+002, 2.080838e+001
5.936557e+002, 2.129625e+001
5.941378e+002, 2.191450e+001
5.946199e+002, 2.241251e+001
5.951021e+002, 2.279176e+001
5.955842e+002, 2.309876e+001
5.960663e+002, 2.322620e+001
5.965484e+002, 2.336819e+001
5.970305e+002, 2.385880e+001
5.975126e+002, 2.474106e+001
5.979948e+002, 2.544021e+001
5.984769e+002, 2.551590e+001
5.989590e+002, 2.532674e+001
5.994411e+002, 2.518572e+001
5.999232e+002, 2.526831e+001
6.004053e+002, 2.520892e+001
6.008875e+002, 2.498742e+001
6.013696e+002, 2.458135e+001
6.018517e+002, 2.391359e+001
6.023338e+002, 2.274708e+001
6.028159e+002, 2.180441e+001
6.032980e+002, 2.125477e+001
6.037802e+002, 2.100820e+001
6.042623e+002, 2.072557e+001
6.047444e+002, 2.040145e+001
6.052265e+002, 2.010681e+001
6.057086e+002, 1.983440e+001
6.061907e+002, 1.962087e+001
6.066729e+002, 1.964542e+001
6.071550e+002, 1.990267e+001
6.076371e+002, 2.015302e+001
6.081192e+002, 2.016693e+001
6.086013e+002, 2.007277e+001
6.090834e+002, 2.002421e+001
6.095656e+002, 2.003962e+001
6.100477e+002, 2.013218e+001
6.105298e+002, 2.039144e+001
6.110119e+002, 2.069723e+001
6.114940e+002, 2.091763e+001
6.119761e+002, 2.095795e+001
6.124583e+002, 2.098517e+001
6.129404e+002, 2.099951e+001
6.134225e+002, 2.102105e+001
6.139046e+002, 2.111197e+001
6.143867e+002, 2.134750e+001
6.148688e+002, 2.148547e+001
6.153510e+002, 2.141335e+001
6.158331e+002, 2.117962e+001
6.163152e+002, 2.108905e+001
6.167973e+002, 2.114724e+001
6.172794e+002, 2.128716e+001
6.177615e+002, 2.148082e+001
6.182437e+002, 2.171887e+001
6.187258e+002, 2.202238e+001
6.192079e+002, 2.240067e+001
6.196900e+002, 2.268414e+001
6.201721e+002, 2.259337e+001
6.206542e+002, 2.237784e+001
6.211364e+002, 2.236510e+001
6.216185e+002, 2.270827e+001
6.221006e+002, 2.308527e+001
6.225827e+002, 2.339199e+001
6.230648e+002, 2.363861e+001
6.235469e+002, 2.383935e+001
6.240291e+002, 2.390700e+001
6.245112e+002, 2.403886e+001
6.249933e+002, 2.427808e+001
6.254754e+002, 2.460135e+001
6.259575e+002, 2.491723e+001
6.264396e+002, 2.520803e+001
6.269218e+002, 2.554860e+001
6.274039e+002, 2.596713e+001
6.278860e+002, 2.645987e+001
6.283681e+002, 2.701293e+001
6.288502e+002, 2.762745e+001
6.293323e+002, 2.827135e+001
6.298145e+002, 2.889191e+001
6.302966e+002, 2.953007e+001
6.307787e+002, 3.028420e+001
6.312608e+002, 3.116684e+001
6.317429e+002, 3.211436e+001
6.322250e+002, 3.316321e+001
6.327072e+002, 3.421104e+001
6.331893e+002, 3.515339e+001
6.336714e+002, 3.584916e+001
6.341535e+002, 3.661349e+001
6.346356e+002, 3.751320e+001
6.351177e+002, 3.853261e+001
6.355999e+002, 3.966972e+001
6.360820e+002, 4.104795e+001
6.365641e+002, 4.233637e+001
6.370462e+002, 4.347077e+001
6.375283e+002, 4.448259e+001
6.380104e+002, 4.546372e+001
6.384926e+002, 4.640749e+001
6.389747e+002, 4.741993e+001
6.394568e+002, 4.863145e+001
6.399389e+002, 4.994878e+001
6.404210e+002, 5.105389e+001
6.409031e+002, 5.195790e+001
6.413853e+002, 5.267893e+001
6.418674e+002, 5.322271e+001
6.423495e+002, 5.360106e+001
6.428316e+002, 5.383520e+001
6.433137e+002, 5.393725e+001
6.437958e+002, 5.381817e+001
6.442780e+002, 5.342596e+001
6.447601e+002, 5.279532e+001
6.452422e+002, 5.196108e+001
6.457243e+002, 5.096761e+001
6.462064e+002, 4.968714e+001
6.466885e+002, 4.791463e+001
6.471707e+002, 4.598269e+001
6.476528e+002, 4.439397e+001
6.481349e+002, 4.326759e+001
6.486170e+002, 4.205272e+001
6.490991e+002, 4.061138e+001
6.495812e+002, 3.904205e+001
6.500634e+002, 3.748970e+001
6.505455e+002, 3.594897e+001
6.510276e+002, 3.453407e+001
6.515097e+002, 3.328993e+001
6.519918e+002, 3.218949e+001
6.524739e+002, 3.124231e+001
6.529561e+002, 3.042695e+001
6.534382e+002, 2.955801e+001
6.539203e+002, 2.841663e+001
6.544024e+002, 2.728484e+001
6.548845e+002, 2.632169e+001
6.553666e+002, 2.554773e+001
6.558488e+002, 2.495688e+001
6.563309e+002, 2.475997e+001
6.568130e+002, 2.458471e+001
6.572951e+002, 2.419177e+001
6.577772e+002, 2.345232e+001
6.582593e+002, 2.284130e+001
6.587415e+002, 2.237444e+001
6.592236e+002, 2.201065e+001
6.597057e+002, 2.172726e+001
6.601878e+002, 2.152339e+001
6.606699e+002, 2.130778e+001
6.611520e+002, 2.107046e+001
6.616342e+002, 2.080934e+001
6.621163e+002, 2.054907e+001
6.625984e+002, 2.026497e+001
6.630805e+002, 1.988720e+001
6.635626e+002, 1.925687e+001
6.640447e+002, 1.865795e+001
6.645269e+002, 1.830841e+001
6.650090e+002, 1.815476e+001
6.654911e+002, 1.802975e+001
6.659732e+002, 1.783865e+001
6.664553e+002, 1.771073e+001
6.669374e+002, 1.777050e+001
6.674196e+002, 1.799363e+001
6.679017e+002, 1.797697e+001
6.683838e+002, 1.758990e+001
6.688659e+002, 1.720819e+001
6.693480e+002, 1.703079e+001
6.698301e+002, 1.705473e+001
6.703123e+002, 1.706739e+001
6.707944e+002, 1.707374e+001
6.712765e+002, 1.702947e+001
6.717586e+002, 1.683006e+001
6.722407e+002, 1.655959e+001
6.727228e+002, 1.643320e+001
6.732050e+002, 1.650063e+001
6.736871e+002, 1.656747e+001
6.741692e+002, 1.644065e+001
6.746513e+002, 1.625052e+001
6.751334e+002, 1.615387e+001
6.756155e+002, 1.626867e+001
6.760977e+002, 1.635891e+001
6.765798e+002, 1.631954e+001
6.770619e+002, 1.624192e+001
6.775440e+002, 1.627581e+001
6.780261e+002, 1.652807e+001
6.785082e+002, 1.666093e+001
6.789904e+002, 1.659355e+001
6.794725e+002, 1.638872e+001
6.799546e+002, 1.614967e+001
6.804367e+002, 1.587835e+001
6.809188e+002, 1.576977e+001
6.814009e+002, 1.599495e+001
6.818831e+002, 1.637889e+001
6.823652e+002, 1.665134e+001
6.828473e+002, 1.680706e+001
6.833294e+002, 1.680636e+001
6.838115e+002, 1.641268e+001
6.842936e+002, 1.601964e+001
6.847758e+002, 1.593791e+001
6.852579e+002, 1.618620e+001
6.857400e+002, 1.644701e+001
6.862221e+002, 1.671504e+001
6.867042e+002, 1.690530e+001
6.871863e+002, 1.695986e+001
6.876685e+002, 1.683142e+001
6.881506e+002, 1.677405e+001
6.886327e+002, 1.680646e+001
6.891148e+002, 1.686954e+001
6.895969e+002, 1.689931e+001
6.900790e+002, 1.690125e+001
6.905612e+002, 1.696128e+001
6.910433e+002, 1.709125e+001
6.915254e+002, 1.726062e+001
6.920075e+002, 1.749176e+001
6.924896e+002, 1.772311e+001
6.929717e+002, 1.781956e+001
6.934539e+002, 1.765468e+001
6.939360e+002, 1.752641e+001
6.944181e+002, 1.762152e+001
6.949002e+002, 1.786056e+001
6.953823e+002, 1.812121e+001
6.958644e+002, 1.848623e+001
6.963466e+002, 1.873079e+001
6.968287e+002, 1.880243e+001
6.973108e+002, 1.874271e+001
6.977929e+002, 1.863728e+001
6.982750e+002, 1.845925e+001
6.987571e+002, 1.834057e+001
6.992393e+002, 1.833755e+001
6.997214e+002, 1.841621e+001
7.002035e+002, 1.849187e+001
7.006856e+002, 1.856156e+001
7.011677e+002, 1.859447e+001
7.016498e+002, 1.852756e+001
7.021320e+002, 1.844171e+001
7.026141e+002, 1.846603e+001
7.030962e+002, 1.858267e+001
7.035783e+002, 1.861890e+001
7.040604e+002, 1.837898e+001
7.045425e+002, 1.812931e+001
7.050247e+002, 1.805624e+001
7.055068e+002, 1.822919e+001
7.059889e+002, 1.824371e+001
7.064710e+002, 1.801845e+001
7.069531e+002, 1.773664e+001
7.074352e+002, 1.753597e+001
7.079174e+002, 1.743543e+001
7.083995e+002, 1.714244e+001
7.088816e+002, 1.658906e+001
7.093637e+002, 1.614850e+001
7.098458e+002, 1.639129e+001
7.103279e+002, 1.703676e+001
7.108101e+002, 1.735416e+001
7.112922e+002, 1.715529e+001
7.117743e+002, 1.687823e+001
7.122564e+002, 1.687157e+001
7.127385e+002, 1.697091e+001
7.132206e+002, 1.697434e+001
7.137028e+002, 1.665431e+001
7.141849e+002, 1.647792e+001
7.146670e+002, 1.668611e+001
7.151491e+002, 1.702339e+001
7.156312e+002, 1.713737e+001
7.161133e+002, 1.694117e+001
7.165955e+002, 1.675606e+001
7.170776e+002, 1.662756e+001
7.175597e+002, 1.655054e+001
7.180418e+002, 1.648554e+001
7.185239e+002, 1.644433e+001
7.190060e+002, 1.656045e+001
7.194882e+002, 1.699029e+001
7.199703e+002, 1.748797e+001
7.204524e+002, 1.777851e+001
7.209345e+002, 1.788702e+001
7.214166e+002, 1.789751e+001
7.218987e+002, 1.772483e+001
7.223809e+002, 1.757870e+001
7.228630e+002, 1.760232e+001
7.233451e+002, 1.777021e+001
7.238272e+002, 1.783771e+001
7.243093e+002, 1.772448e+001
7.247914e+002, 1.761270e+001
7.252736e+002, 1.754528e+001
7.257557e+002, 1.752863e+001
7.262378e+002, 1.766425e+001
7.267199e+002, 1.796847e+001
7.272020e+002, 1.830456e+001
7.276841e+002, 1.868632e+001
7.281663e+002, 1.901451e+001
7.286484e+002, 1.897174e+001
7.291305e+002, 1.856514e+001
7.296126e+002, 1.820996e+001
7.300947e+002, 1.824637e+001
7.305768e+002, 1.841140e+001
7.310590e+002, 1.848711e+001
7.315411e+002, 1.842089e+001
7.320232e+002, 1.839912e+001
7.325053e+002, 1.856722e+001
7.329874e+002, 1.869714e+001
7.334695e+002, 1.862173e+001
7.339517e+002, 1.823571e+001
7.344338e+002, 1.803975e+001
7.349159e+002, 1.808526e+001
7.353980e+002, 1.817108e+001
7.358801e+002, 1.803895e+001
7.363622e+002, 1.775289e+001
7.368444e+002, 1.760526e+001
7.373265e+002, 1.766776e+001
7.378086e+002, 1.773670e+001
7.382907e+002, 1.756171e+001
7.387728e+002, 1.730037e+001
7.392549e+002, 1.716844e+001
7.397371e+002, 1.733014e+001
7.402192e+002, 1.744203e+001
7.407013e+002, 1.743759e+001
7.411834e+002, 1.731561e+001
7.416655e+002, 1.704977e+001
7.421476e+002, 1.647427e+001
7.426298e+002, 1.618417e+001
7.431119e+002, 1.634473e+001
7.435940e+002, 1.669526e+001
7.440761e+002, 1.673907e+001
7.445582e+002, 1.650655e+001
7.450403e+002, 1.632770e+001
7.455225e+002, 1.634781e+001
7.460046e+002, 1.638113e+001
7.464867e+002, 1.605749e+001
7.469688e+002, 1.557977e+001
7.474509e+002, 1.538924e+001
7.479330e+002, 1.598299e+001
7.484152e+002, 1.656666e+001
7.488973e+002, 1.688086e+001
7.493794e+002, 1.694399e+001
7.498615e+002, 1.682717e+001
7.503436e+002, 1.638933e+001
7.508257e+002, 1.604184e+001
7.513079e+002, 1.590061e+001
7.517900e+002, 1.591889e+001
7.522721e+002, 1.596379e+001
7.527542e+002, 1.603579e+001
7.532363e+002, 1.605344e+001
7.537184e+002, 1.592639e+001
7.542006e+002, 1.575423e+001
7.546827e+002, 1.565514e+001
7.551648e+002, 1.563936e+001
7.556469e+002, 1.575368e+001
7.561290e+002, 1.623675e+001
7.566111e+002, 1.666156e+001
7.570933e+002, 1.678213e+001
7.575754e+002, 1.659806e+001
7.580575e+002, 1.636808e+001
7.585396e+002, 1.601510e+001
7.590217e+002, 1.576025e+001
7.595038e+002, 1.570524e+001
7.599860e+002, 1.583397e+001
7.604681e+002, 1.599437e+001
7.609502e+002, 1.619581e+001
7.614323e+002, 1.630247e+001
7.619144e+002, 1.612119e+001
7.623965e+002, 1.582136e+001
7.628787e+002, 1.573176e+001
7.633608e+002, 1.584754e+001
7.638429e+002, 1.598628e+001
7.643250e+002, 1.605149e+001
7.648071e+002, 1.609210e+001
7.652892e+002, 1.615352e+001
7.657714e+002, 1.625166e+001
7.662535e+002, 1.626842e+001
7.667356e+002, 1.615797e+001
7.672177e+002, 1.601985e+001
7.676998e+002, 1.589439e+001
7.681819e+002, 1.577737e+001
7.686641e+002, 1.574557e+001
7.691462e+002, 1.580814e+001
7.696283e+002, 1.588829e+001
7.701104e+002, 1.586527e+001
7.705925e+002, 1.583005e+001
7.710746e+002, 1.605896e+001
7.715568e+002, 1.659375e+001
7.720389e+002, 1.690148e+001
7.725210e+002, 1.629807e+001
7.730031e+002, 1.557025e+001
7.734852e+002, 1.539425e+001
7.739673e+002, 1.613246e+001
7.744495e+002, 1.651507e+001
7.749316e+002, 1.625806e+001
7.754137e+002, 1.592767e+001
7.758958e+002, 1.598815e+001
7.763779e+002, 1.648232e+001
7.768600e+002, 1.681252e+001
7.773422e+002, 1.695227e+001
7.778243e+002, 1.697625e+001
7.783064e+002, 1.690725e+001
7.787885e+002, 1.678953e+001
7.792706e+002, 1.671029e+001
7.797527e+002, 1.668997e+001
7.802349e+002, 1.667125e+001
7.807170e+002, 1.659668e+001
7.811991e+002, 1.652296e+001
7.816812e+002, 1.650310e+001
7.821633e+002, 1.658414e+001
7.826454e+002, 1.664655e+001
7.831276e+002, 1.669676e+001
7.836097e+002, 1.672070e+001
7.840918e+002, 1.671462e+001
7.845739e+002, 1.667975e+001
7.850560e+002, 1.652162e+001
7.855381e+002, 1.619882e+001
7.860203e+002, 1.593280e+001
7.865024e+002, 1.604473e+001
7.869845e+002, 1.636423e+001
7.874666e+002, 1.661622e+001
7.879487e+002, 1.676135e+001
7.884308e+002, 1.676526e+001
7.889130e+002, 1.645531e+001
7.893951e+002, 1.607975e+001
7.898772e+002, 1.589901e+001
7.903593e+002, 1.608998e+001
7.908414e+002, 1.618329e+001
7.913235e+002, 1.613257e+001
7.918057e+002, 1.604196e+001
7.922878e+002, 1.606402e+001
7.927699e+002, 1.618629e+001
7.932520e+002, 1.619581e+001
7.937341e+002, 1.604784e+001
7.942162e+002, 1.584794e+001
7.946984e+002, 1.562481e+001
7.951805e+002, 1.545089e+001
7.956626e+002, 1.547533e+001
7.961447e+002, 1.588503e+001
7.966268e+002, 1.614124e+001
7.971089e+002, 1.591637e+001
7.975911e+002, 1.550912e+001
7.980732e+002, 1.525339e+001
7.985553e+002, 1.519263e+001
7.990374e+002, 1.519572e+001
7.995195e+002, 1.527773e+001
8.000016e+002, 1.538228e+001
8.004838e+002, 1.545647e+001
8.009659e+002, 1.549519e+001
8.014480e+002, 1.545275e+001
8.019301e+002, 1.529982e+001
8.024122e+002, 1.515567e+001
8.028943e+002, 1.514295e+001
8.033765e+002, 1.520800e+001
8.038586e+002, 1.528385e+001
8.043407e+002, 1.537545e+001
8.048228e+002, 1.543686e+001
8.053049e+002, 1.549852e+001
8.057870e+002, 1.550005e+001
8.062692e+002, 1.534831e+001
8.067513e+002, 1.496850e+001
8.072334e+002, 1.473058e+001
8.077155e+002, 1.467379e+001
8.081976e+002, 1.474892e+001
8.086797e+002, 1.493747e+001
8.091619e+002, 1.520738e+001
8.096440e+002, 1.549539e+001
8.101261e+002, 1.582667e+001
8.106082e+002, 1.602152e+001
8.110903e+002, 1.581698e+001
8.115724e+002, 1.546467e+001
8.120546e+002, 1.524486e+001
8.125367e+002, 1.536641e+001
8.130188e+002, 1.535731e+001
8.135009e+002, 1.507177e+001
8.139830e+002, 1.477392e+001
8.144651e+002, 1.481933e+001
8.149473e+002, 1.524247e+001
8.154294e+002, 1.539655e+001
8.159115e+002, 1.517669e+001
8.163936e+002, 1.487210e+001
8.168757e+002, 1.480183e+001
8.173578e+002, 1.488394e+001
8.178400e+002, 1.499107e+001
8.183221e+002, 1.512025e+001
8.188042e+002, 1.518642e+001
8.192863e+002, 1.508397e+001
8.197684e+002, 1.493617e+001
8.202505e+002, 1.486512e+001
8.207327e+002, 1.492658e+001
8.212148e+002, 1.495517e+001
8.216969e+002, 1.496070e+001
8.221790e+002, 1.491364e+001
8.226611e+002, 1.472309e+001
8.231432e+002, 1.442839e+001
8.236254e+002, 1.433492e+001
8.241075e+002, 1.449596e+001
8.245896e+002, 1.466378e+001
8.250717e+002, 1.457164e+001
8.255538e+002, 1.437973e+001
8.260359e+002, 1.427940e+001
8.265181e+002, 1.433974e+001
8.270002e+002, 1.436796e+001
8.274823e+002, 1.424405e+001
8.279644e+002, 1.413603e+001
8.284465e+002, 1.418106e+001
8.289286e+002, 1.444360e+001
8.294108e+002, 1.453428e+001
8.298929e+002, 1.443316e+001
8.303750e+002, 1.424296e+001
8.308571e+002, 1.397339e+001
8.313392e+002, 1.370557e+001
8.318214e+002, 1.365706e+001
8.323035e+002, 1.385800e+001
8.327856e+002, 1.403343e+001
8.332677e+002, 1.406572e+001
8.337498e+002, 1.396458e+001
8.342319e+002, 1.366906e+001
8.347141e+002, 1.305274e+001
8.351962e+002, 1.280441e+001
8.356783e+002, 1.309099e+001
8.361604e+002, 1.346300e+001
8.366425e+002, 1.363286e+001
8.371246e+002, 1.361231e+001
8.376068e+002, 1.355481e+001
8.380889e+002, 1.346065e+001
8.385710e+002, 1.341391e+001
8.390531e+002, 1.352335e+001
8.395352e+002, 1.368717e+001
8.400173e+002, 1.381081e+001
8.404995e+002, 1.388697e+001
8.409816e+002, 1.390331e+001
8.414637e+002, 1.375199e+001
8.419458e+002, 1.364314e+001
8.424279e+002, 1.368659e+001
8.429100e+002, 1.387865e+001
8.433922e+002, 1.401907e+001
8.438743e+002, 1.410745e+001
8.443564e+002, 1.414549e+001
8.448385e+002, 1.410654e+001
8.453206e+002, 1.402533e+001
8.458027e+002, 1.398744e+001
8.462849e+002, 1.398541e+001
8.467670e+002, 1.397880e+001
8.472491e+002, 1.391114e+001
8.477312e+002, 1.386362e+001
8.482133e+002, 1.394724e+001
8.486954e+002, 1.412831e+001
8.491776e+002, 1.408189e+001
8.496597e+002, 1.362808e+001
8.501418e+002, 1.330334e+001
8.506239e+002, 1.333373e+001
8.511060e+002, 1.359982e+001
8.515881e+002, 1.370301e+001
8.520703e+002, 1.365904e+001
8.525524e+002, 1.359854e+001
8.530345e+002, 1.356509e+001
8.535166e+002, 1.356406e+001
8.539987e+002, 1.363325e+001
8.544808e+002, 1.373850e+001
8.549630e+002, 1.379339e+001
8.554451e+002, 1.372345e+001
8.559272e+002, 1.365621e+001
8.564093e+002, 1.359738e+001
8.568914e+002, 1.356614e+001
8.573735e+002, 1.361587e+001
8.578557e+002, 1.375333e+001
8.583378e+002, 1.389912e+001
8.588199e+002, 1.404732e+001
8.593020e+002, 1.416562e+001
8.597841e+002, 1.419685e+001
8.602662e+002, 1.416240e+001
8.607484e+002, 1.410231e+001
8.612305e+002, 1.399434e+001
8.617126e+002, 1.391784e+001
8.621947e+002, 1.389670e+001
8.626768e+002, 1.392973e+001
8.631589e+002, 1.401516e+001
8.636411e+002, 1.418038e+001
8.641232e+002, 1.432281e+001
8.646053e+002, 1.443222e+001
8.650874e+002, 1.451891e+001
8.655695e+002, 1.457247e+001
8.660516e+002, 1.461455e+001
8.665338e+002, 1.474215e+001
8.670159e+002, 1.500514e+001
8.674980e+002, 1.519417e+001
8.679801e+002, 1.504823e+001
8.684622e+002, 1.482229e+001
8.689443e+002, 1.478014e+001
8.694265e+002, 1.509792e+001
8.699086e+002, 1.525951e+001
8.703907e+002, 1.520057e+001
8.708728e+002, 1.508347e+001
8.713549e+002, 1.501613e+001
8.718370e+002, 1.500145e+001
8.723192e+002, 1.511588e+001
8.728013e+002, 1.536740e+001
8.732834e+002, 1.555660e+001
8.737655e+002, 1.542565e+001
8.742476e+002, 1.521254e+001
8.747297e+002, 1.519514e+001
8.752119e+002, 1.540516e+001
8.756940e+002, 1.550142e+001
8.761761e+002, 1.529458e+001
8.766582e+002, 1.506227e+001
8.771403e+002, 1.487168e+001
8.776224e+002, 1.473382e+001
8.781046e+002, 1.488824e+001
8.785867e+002, 1.535408e+001
8.790688e+002, 1.568788e+001
8.795509e+002, 1.545708e+001
8.800330e+002, 1.502861e+001
8.805151e+002, 1.498043e+001
8.809973e+002, 1.521098e+001
8.814794e+002, 1.532327e+001
8.819615e+002, 1.507788e+001
8.824436e+002, 1.476250e+001
8.829257e+002, 1.439357e+001
8.834078e+002, 1.404621e+001
8.838900e+002, 1.397092e+001
8.843721e+002, 1.424063e+001
8.848542e+002, 1.437801e+001
8.853363e+002, 1.418297e+001
8.858184e+002, 1.388738e+001
8.863005e+002, 1.395617e+001
8.867827e+002, 1.425252e+001
8.872648e+002, 1.441862e+001
8.877469e+002, 1.420325e+001
8.882290e+002, 1.401489e+001
8.887111e+002, 1.414073e+001
8.891932e+002, 1.435615e+001
8.896754e+002, 1.432733e+001
8.901575e+002, 1.395310e+001
8.906396e+002, 1.356565e+001
8.911217e+002, 1.314506e+001
8.916038e+002, 1.283222e+001
8.920859e+002, 1.288223e+001
8.925681e+002, 1.318227e+001
8.930502e+002, 1.337997e+001
8.935323e+002, 1.340617e+001
8.940144e+002, 1.341235e+001
8.944965e+002, 1.351986e+001
8.949786e+002, 1.364088e+001
8.954608e+002, 1.370948e+001
8.959429e+002, 1.372500e+001
8.964250e+002, 1.362805e+001
8.969071e+002, 1.333719e+001
8.973892e+002, 1.309881e+001
8.978713e+002, 1.312090e+001
8.983535e+002, 1.335508e+001
8.988356e+002, 1.351845e+001
8.993177e+002, 1.361304e+001
8.997998e+002, 1.369845e+001
9.002819e+002, 1.387190e+001
9.007640e+002, 1.400580e+001
9.012462e+002, 1.399028e+001
9.017283e+002, 1.383289e+001
9.022104e+002, 1.364329e+001
9.026925e+002, 1.332706e+001
9.031746e+002, 1.317085e+001
9.036567e+002, 1.330333e+001
9.041389e+002, 1.362999e+001
9.046210e+002, 1.388015e+001
9.051031e+002, 1.405276e+001
9.055852e+002, 1.413929e+001
9.060673e+002, 1.404637e+001
9.065494e+002, 1.399094e+001
9.070316e+002, 1.426279e+001
9.075137e+002, 1.469021e+001
9.079958e+002, 1.497383e+001
9.084779e+002, 1.490389e+001
9.089600e+002, 1.485831e+001
9.094421e+002, 1.485597e+001
9.099243e+002, 1.490716e+001
9.104064e+002, 1.506036e+001
9.108885e+002, 1.530565e+001
9.113706e+002, 1.546665e+001
9.118527e+002, 1.550983e+001
9.123348e+002, 1.551560e+001
9.128170e+002, 1.546656e+001
9.132991e+002, 1.547397e+001
9.137812e+002, 1.569615e+001
9.142633e+002, 1.622485e+001
9.147454e+002, 1.668834e+001
9.152275e+002, 1.705800e+001
9.157097e+002, 1.731655e+001
9.161918e+002, 1.739091e+001
9.166739e+002, 1.728731e+001
9.171560e+002, 1.742544e+001
9.176381e+002, 1.780504e+001
9.181202e+002, 1.831564e+001
9.186024e+002, 1.898785e+001
9.190845e+002, 1.967550e+001
9.195666e+002, 2.017865e+001
9.200487e+002, 2.053033e+001
9.205308e+002, 2.096838e+001
9.210129e+002, 2.179205e+001
9.214951e+002, 2.241303e+001
9.219772e+002, 2.256726e+001
9.224593e+002, 2.247092e+001
9.229414e+002, 2.282794e+001
9.234235e+002, 2.362610e+001
9.239056e+002, 2.437532e+001
9.243878e+002, 2.488371e+001
9.248699e+002, 2.534153e+001
9.253520e+002, 2.591813e+001
9.258341e+002, 2.661242e+001
9.263162e+002, 2.743655e+001
9.267983e+002, 2.855531e+001
9.272805e+002, 2.955505e+001
9.277626e+002, 3.033171e+001
9.282447e+002, 3.105042e+001
9.287268e+002, 3.188070e+001
9.292089e+002, 3.282054e+001
9.296910e+002, 3.375111e+001
9.301732e+002, 3.466351e+001
9.306553e+002, 3.549127e+001
9.311374e+002, 3.608403e+001
9.316195e+002, 3.660770e+001
9.321016e+002, 3.731953e+001
9.325837e+002, 3.824928e+001
9.330659e+002, 3.898433e+001
9.335480e+002, 3.948627e+001
9.340301e+002, 3.969253e+001
9.345122e+002, 3.955586e+001
9.349943e+002, 3.909004e+001
9.354764e+002, 3.837018e+001
9.359586e+002, 3.738966e+001
9.364407e+002, 3.629978e+001
9.369228e+002, 3.506015e+001
9.374049e+002, 3.382845e+001
9.378870e+002, 3.280384e+001
9.383691e+002, 3.190451e+001
9.388513e+002, 3.096816e+001
9.393334e+002, 2.988746e+001
9.398155e+002, 2.882575e+001
9.402976e+002, 2.778435e+001
9.407797e+002, 2.680629e+001
9.412618e+002, 2.598838e+001
9.417440e+002, 2.532551e+001
9.422261e+002, 2.477581e+001
9.427082e+002, 2.435218e+001
9.431903e+002, 2.389686e+001
9.436724e+002, 2.309467e+001
9.441545e+002, 2.228213e+001
9.446367e+002, 2.184683e+001
9.451188e+002, 2.196857e+001
9.456009e+002, 2.200304e+001
9.460830e+002, 2.187412e+001
9.465651e+002, 2.168414e+001
9.470472e+002, 2.147389e+001
9.475294e+002, 2.124763e+001
9.480115e+002, 2.106678e+001
9.484936e+002, 2.092881e+001
9.489757e+002, 2.081631e+001
9.494578e+002, 2.069745e+001
9.499399e+002, 2.061841e+001
9.504221e+002, 2.069808e+001
9.509042e+002, 2.086269e+001
9.513863e+002, 2.080979e+001
9.518684e+002, 2.036249e+001
9.523505e+002, 1.999384e+001
9.528326e+002, 1.980869e+001
9.533148e+002, 1.971780e+001
9.537969e+002, 1.949684e+001
9.542790e+002, 1.920920e+001
9.547611e+002, 1.916035e+001
9.552432e+002, 1.948656e+001
9.557253e+002, 1.984208e+001
9.562075e+002, 1.997487e+001
9.566896e+002, 2.001569e+001
9.571717e+002, 2.009411e+001
9.576538e+002, 2.023044e+001
9.581359e+002, 2.038880e+001
9.586180e+002, 2.059721e+001
9.591002e+002, 2.075616e+001
9.595823e+002, 2.076090e+001
9.600644e+002, 2.066241e+001
9.605465e+002, 2.055247e+001
9.610286e+002, 2.045723e+001
9.615107e+002, 2.055107e+001
9.619929e+002, 2.128355e+001
9.624750e+002, 2.188421e+001
9.629571e+002, 2.177901e+001
9.634392e+002, 2.119250e+001
9.639213e+002, 2.097912e+001
9.644034e+002, 2.122182e+001
9.648856e+002, 2.152352e+001
9.653677e+002, 2.180851e+001
9.658498e+002, 2.206846e+001
9.663319e+002, 2.230607e+001
9.668140e+002, 2.250839e+001
9.672961e+002, 2.262037e+001
9.677783e+002, 2.255640e+001
9.682604e+002, 2.260006e+001
9.687425e+002, 2.297721e+001
9.692246e+002, 2.341698e+001
9.697067e+002, 2.372875e+001
9.701888e+002, 2.390898e+001
9.706710e+002, 2.389588e+001
9.711531e+002, 2.366166e+001
9.716352e+002, 2.349944e+001
9.721173e+002, 2.369816e+001
9.725994e+002, 2.406290e+001
9.730815e+002, 2.438672e+001
9.735637e+002, 2.465224e+001
9.740458e+002, 2.483041e+001
9.745279e+002, 2.483216e+001
9.750100e+002, 2.483371e+001
9.754921e+002, 2.484159e+001
9.759742e+002, 2.490037e+001
9.764564e+002, 2.515380e+001
9.769385e+002, 2.559291e+001
9.774206e+002, 2.603680e+001
9.779027e+002, 2.648608e+001
9.783848e+002, 2.676555e+001
9.788669e+002, 2.649795e+001
9.793491e+002, 2.606674e+001
9.798312e+002, 2.594194e+001
9.803133e+002, 2.633093e+001
9.807954e+002, 2.674479e+001
9.812775e+002, 2.722859e+001
9.817596e+002, 2.763069e+001
9.822418e+002, 2.778760e+001
9.827239e+002, 2.776235e+001
9.832060e+002, 2.789067e+001
9.836881e+002, 2.816471e+001
9.841702e+002, 2.849966e+001
9.846523e+002, 2.900010e+001
9.851345e+002, 2.939257e+001
9.856166e+002, 2.939441e+001
9.860987e+002, 2.914525e+001
9.865808e+002, 2.918738e+001
9.870629e+002, 2.964772e+001
9.875450e+002, 3.000289e+001
9.880272e+002, 3.015111e+001
9.885093e+002, 3.015608e+001
9.889914e+002, 3.001536e+001
9.894735e+002, 2.982545e+001
9.899556e+002, 2.982934e+001
9.904377e+002, 3.015555e+001
9.909199e+002, 3.034687e+001
9.914020e+002, 3.015137e+001
9.918841e+002, 2.980202e+001
9.923662e+002, 2.944734e+001
9.928483e+002, 2.909376e+001
9.933304e+002, 2.868527e+001
9.938126e+002, 2.821462e+001
9.942947e+002, 2.781316e+001
9.947768e+002, 2.764367e+001
9.952589e+002, 2.753030e+001
9.957410e+002, 2.719223e+001
9.962231e+002, 2.672972e+001
9.967053e+002, 2.642497e+001
9.971874e+002, 2.657737e+001
9.976695e+002, 2.660286e+001
9.981516e+002, 2.639969e+001
9.986337e+002, 2.606430e+001
9.991158e+002, 2.571937e+001
9.995980e+002, 2.536438e+001
1.000080e+003, 2.500027e+001
1.000562e+003, 2.461180e+001
1.001044e+003, 2.430967e+001
1.001526e+003, 2.415128e+001
1.002009e+003, 2.413057e+001
1.002491e+003, 2.429525e+001
1.002973e+003, 2.467520e+001
1.003455e+003, 2.490906e+001
1.003937e+003, 2.496645e+001
1.004419e+003, 2.496797e+001
1.004901e+003, 2.492615e+001
1.005383e+003, 2.490174e+001
1.005865e+003, 2.507071e+001
1.006348e+003, 2.537013e+001
1.006830e+003, 2.562494e+001
1.007312e+003, 2.558195e+001
1.007794e+003, 2.569895e+001
1.008276e+003, 2.621514e+001
1.008758e+003, 2.690475e+001
1.009240e+003, 2.756697e+001
1.009722e+003, 2.820227e+001
1.010205e+003, 2.873533e+001
1.010687e+003, 2.915205e+001
1.011169e+003, 2.961823e+001
1.011651e+003, 3.032930e+001
1.012133e+003, 3.114185e+001
1.012615e+003, 3.195920e+001
1.013097e+003, 3.276029e+001
1.013579e+003, 3.340790e+001
1.014061e+003, 3.374146e+001
1.014544e+003, 3.415037e+001
1.015026e+003, 3.472998e+001
1.015508e+003, 3.546549e+001
1.015990e+003, 3.638145e+001
1.016472e+003, 3.744227e+001
1.016954e+003, 3.851004e+001
1.017436e+003, 3.958353e+001
1.017918e+003, 4.057758e+001
1.018401e+003, 4.139078e+001
1.018883e+003, 4.212902e+001
1.019365e+003, 4.292205e+001
1.019847e+003, 4.380859e+001
1.020329e+003, 4.461917e+001
1.020811e+003, 4.538652e+001
1.021293e+003, 4.590107e+001
1.021775e+003, 4.591970e+001
1.022257e+003, 4.564180e+001
1.022740e+003, 4.540612e+001
1.023222e+003, 4.516144e+001
1.023704e+003, 4.469334e+001
1.024186e+003, 4.399854e+001
1.024668e+003, 4.294089e+001
1.025150e+003, 4.140852e+001
1.025632e+003, 3.961119e+001
1.026114e+003, 3.788644e+001
1.026596e+003, 3.624125e+001
1.027079e+003, 3.441648e+001
1.027561e+003, 3.233254e+001
1.028043e+003, 3.041035e+001
1.028525e+003, 2.910381e+001
1.029007e+003, 2.802259e+001
1.029489e+003, 2.685946e+001
1.029971e+003, 2.558532e+001
1.030453e+003, 2.428736e+001
1.030936e+003, 2.287847e+001
1.031418e+003, 2.174704e+001
1.031900e+003, 2.116078e+001
1.032382e+003, 2.081869e+001
1.032864e+003, 2.012827e+001
1.033346e+003, 1.920799e+001
1.033828e+003, 1.834970e+001
1.034310e+003, 1.761498e+001
1.034792e+003, 1.702568e+001
1.035275e+003, 1.665532e+001
1.035757e+003, 1.637254e+001
1.036239e+003, 1.608128e+001
1.036721e+003, 1.578396e+001
1.037203e+003, 1.539184e+001
1.037685e+003, 1.490941e+001
1.038167e+003, 1.447804e+001
1.038649e+003, 1.420851e+001
1.039132e+003, 1.403023e+001
1.039614e+003, 1.391399e+001
1.040096e+003, 1.384322e+001
1.040578e+003, 1.373928e+001
1.041060e+003, 1.356035e+001
1.041542e+003, 1.346342e+001
1.042024e+003, 1.352013e+001
1.042506e+003, 1.357068e+001
1.042989e+003, 1.328558e+001
1.043471e+003, 1.283270e+001
1.043953e+003, 1.255999e+001
1.044435e+003, 1.254159e+001
1.044917e+003, 1.264029e+001
1.045399e+003, 1.306816e+001
1.045881e+003, 1.331512e+001
1.046363e+003, 1.302472e+001
1.046845e+003, 1.230099e+001
1.047328e+003, 1.202909e+001
1.047810e+003, 1.218070e+001
1.048292e+003, 1.231270e+001
1.048774e+003, 1.214945e+001
1.049256e+003, 1.198498e+001
1.049738e+003, 1.212039e+001
1.050220e+003, 1.238876e+001
1.050702e+003, 1.251810e+001
1.051184e+003, 1.244668e+001
1.051667e+003, 1.230958e+001
1.052149e+003, 1.206372e+001
1.052631e+003, 1.190198e+001
1.053113e+003, 1.206246e+001
1.053595e+003, 1.239668e+001
1.054077e+003, 1.266879e+001
1.054559e+003, 1.285327e+001
1.055041e+003, 1.287873e+001
1.055523e+003, 1.250868e+001
1.056006e+003, 1.224340e+001
1.056488e+003, 1.232819e+001
1.056970e+003, 1.250668e+001
1.057452e+003, 1.211359e+001
1.057934e+003, 1.124462e+001
1.058416e+003, 1.085410e+001
1.058898e+003, 1.119221e+001
1.059380e+003, 1.158273e+001
1.059863e+003, 1.143760e+001
1.060345e+003, 1.113774e+001
1.060827e+003, 1.101732e+001
1.061309e+003, 1.110176e+001
1.061791e+003, 1.105841e+001
1.062273e+003, 1.085413e+001
1.062755e+003, 1.067896e+001
1.063237e+003, 1.062700e+001
1.063719e+003, 1.063722e+001
1.064202e+003, 1.062014e+001
1.064684e+003, 1.059290e+001
1.065166e+003, 1.059342e+001
1.065648e+003, 1.071889e+001
1.066130e+003, 1.070024e+001
1.066612e+003, 1.038683e+001
1.067094e+003, 1.011317e+001
1.067576e+003, 1.022323e+001
1.068059e+003, 1.062980e+001
1.068541e+003, 1.086154e+001
1.069023e+003, 1.091185e+001
1.069505e+003, 1.078527e+001
1.069987e+003, 1.026686e+001
1.070469e+003, 9.800879e+000
1.070951e+003, 9.643119e+000
1.071433e+003, 9.698278e+000
1.071916e+003, 9.825206e+000
1.072398e+003, 1.003884e+001
1.072880e+003, 1.018269e+001
1.073362e+003, 1.023343e+001
1.073844e+003, 1.022060e+001
1.074326e+003, 1.009653e+001
1.074808e+003, 9.975094e+000
1.075290e+003, 1.000879e+001
1.075772e+003, 1.021049e+001
1.076255e+003, 1.032091e+001
1.076737e+003, 1.026742e+001
1.077219e+003, 1.026116e+001
1.077701e+003, 1.040100e+001
1.078183e+003, 1.058053e+001
1.078665e+003, 1.055487e+001
1.079147e+003, 1.040864e+001
1.079629e+003, 1.035787e+001
1.080111e+003, 1.052577e+001
1.080594e+003, 1.059118e+001
1.081076e+003, 1.027227e+001
1.081558e+003, 9.983732e+000
1.082040e+003, 1.000710e+001
1.082522e+003, 1.029934e+001
1.083004e+003, 1.039038e+001
1.083486e+003, 1.030261e+001
1.083968e+003, 1.024330e+001
1.084450e+003, 1.035933e+001
1.084933e+003, 1.050327e+001
1.085415e+003, 1.060917e+001
1.085897e+003, 1.066986e+001
1.086379e+003, 1.067557e+001
1.086861e+003, 1.060830e+001
1.087343e+003, 1.055168e+001
1.087825e+003, 1.050400e+001
1.088307e+003, 1.050341e+001
1.088790e+003, 1.060637e+001
1.089272e+003, 1.075989e+001
1.089754e+003, 1.093336e+001
1.090236e+003, 1.110838e+001
1.090718e+003, 1.119830e+001
1.091200e+003, 1.113628e+001
1.091682e+003, 1.108456e+001
1.092164e+003, 1.107370e+001
1.092646e+003, 1.107811e+001
1.093129e+003, 1.103868e+001
1.093611e+003, 1.098701e+001
1.094093e+003, 1.101241e+001
1.094575e+003, 1.113343e+001
1.095057e+003, 1.124897e+001
1.095539e+003, 1.129788e+001
1.096021e+003, 1.135231e+001
1.096503e+003, 1.148736e+001
1.096986e+003, 1.163850e+001
1.097468e+003, 1.149156e+001
1.097950e+003, 1.109065e+001
1.098432e+003, 1.082118e+001
1.098914e+003, 1.082612e+001
1.099396e+003, 1.093332e+001
1.099878e+003, 1.107384e+001
1.100360e+003, 1.121955e+001
1.100843e+003, 1.134619e+001
1.101325e+003, 1.145601e+001
1.101807e+003, 1.152576e+001
1.102289e+003, 1.155172e+001
1.102771e+003, 1.157926e+001
1.103253e+003, 1.158349e+001
1.103735e+003, 1.165226e+001
1.104217e+003, 1.203304e+001
1.104699e+003, 1.252006e+001
1.105182e+003, 1.271288e+001
1.105664e+003, 1.223141e+001
1.106146e+003, 1.204744e+001
1.106628e+003, 1.228158e+001
1.107110e+003, 1.255271e+001
1.107592e+003, 1.244609e+001
1.108074e+003, 1.216085e+001
1.108556e+003, 1.210742e+001
1.109038e+003, 1.227194e+001
1.109521e+003, 1.248659e+001
1.110003e+003, 1.273519e+001
1.110485e+003, 1.297172e+001
1.110967e+003, 1.322191e+001
1.111449e+003, 1.341817e+001
1.111931e+003, 1.341717e+001
1.112413e+003, 1.326688e+001
1.112895e+003, 1.317327e+001
1.113377e+003, 1.315984e+001
1.113860e+003, 1.322044e+001
1.114342e+003, 1.337116e+001
1.114824e+003, 1.358006e+001
1.115306e+003, 1.388571e+001
1.115788e+003, 1.422053e+001
1.116270e+003, 1.428797e+001
1.116752e+003, 1.409684e+001
1.117234e+003, 1.413564e+001
1.117717e+003, 1.458728e+001
1.118199e+003, 1.505119e+001
1.118681e+003, 1.509838e+001
1.119163e+003, 1.503939e+001
1.119645e+003, 1.518483e+001
1.120127e+003, 1.555982e+001
1.120609e+003, 1.589987e+001
1.121091e+003, 1.621985e+001
1.121573e+003, 1.638550e+001
1.122056e+003, 1.621986e+001
1.122538e+003, 1.606598e+001
1.123020e+003, 1.645706e+001
1.123502e+003, 1.712799e+001
1.123984e+003, 1.766144e+001
1.124466e+003, 1.787012e+001
1.124948e+003, 1.817592e+001
1.125430e+003, 1.861829e+001
1.125913e+003, 1.906983e+001
1.126395e+003, 1.944246e+001
1.126877e+003, 1.976687e+001
1.127359e+003, 2.009181e+001
1.127841e+003, 2.043033e+001
1.128323e+003, 2.081543e+001
1.128805e+003, 2.138841e+001
1.129287e+003, 2.180652e+001
1.129770e+003, 2.193142e+001
1.130252e+003, 2.204140e+001
1.130734e+003, 2.252888e+001
1.131216e+003, 2.323712e+001
1.131698e+003, 2.342133e+001
1.132180e+003, 2.313965e+001
1.132662e+003, 2.303968e+001
1.133144e+003, 2.370454e+001
1.133626e+003, 2.433097e+001
1.134109e+003, 2.465000e+001
1.134591e+003, 2.475944e+001
1.135073e+003, 2.471153e+001
1.135555e+003, 2.453817e+001
1.136037e+003, 2.468268e+001
1.136519e+003, 2.520364e+001
1.137001e+003, 2.572508e+001
1.137483e+003, 2.615881e+001
1.137965e+003, 2.633378e+001
1.138448e+003, 2.586504e+001
1.138930e+003, 2.507063e+001
1.139412e+003, 2.504052e+001
1.139894e+003, 2.583086e+001
1.140376e+003, 2.620585e+001
1.140858e+003, 2.585129e+001
1.141340e+003, 2.533908e+001
1.141822e+003, 2.524701e+001
1.142304e+003, 2.521285e+001
1.142787e+003, 2.483084e+001
1.143269e+003, 2.408630e+001
1.143751e+003, 2.362282e+001
1.144233e+003, 2.351292e+001
1.144715e+003, 2.329309e+001
1.145197e+003, 2.278918e+001
1.145679e+003, 2.216113e+001
1.146161e+003, 2.158685e+001
1.146644e+003, 2.103926e+001
1.147126e+003, 2.047179e+001
1.147608e+003, 1.986744e+001
1.148090e+003, 1.931871e+001
1.148572e+003, 1.888284e+001
1.149054e+003, 1.831492e+001
1.149536e+003, 1.739224e+001
1.150018e+003, 1.638782e+001
1.150500e+003, 1.574943e+001
1.150983e+003, 1.539163e+001
1.151465e+003, 1.514592e+001
1.151947e+003, 1.503161e+001
1.152429e+003, 1.489523e+001
1.152911e+003, 1.472237e+001
1.153393e+003, 1.453600e+001
1.153875e+003, 1.440923e+001
1.154357e+003, 1.425966e+001
1.154840e+003, 1.377111e+001
1.155322e+003, 1.305279e+001
1.155804e+003, 1.247594e+001
1.156286e+003, 1.232295e+001
1.156768e+003, 1.211734e+001
1.157250e+003, 1.172645e+001
1.157732e+003, 1.135247e+001
1.158214e+003, 1.121530e+001
1.158697e+003, 1.125617e+001
1.159179e+003, 1.120536e+001
1.159661e+003, 1.108009e+001
1.160143e+003, 1.102524e+001
1.160625e+003, 1.121543e+001
1.161107e+003, 1.135734e+001
1.161589e+003, 1.136700e+001
1.162071e+003, 1.128462e+001
1.162553e+003, 1.111867e+001
1.163036e+003, 1.089159e+001
1.163518e+003, 1.076136e+001
1.164000e+003, 1.073617e+001
1.164482e+003, 1.076414e+001
1.164964e+003, 1.100394e+001
1.165446e+003, 1.107013e+001
1.165928e+003, 1.061157e+001
1.166410e+003, 9.958895e+000
1.166892e+003, 9.756280e+000
1.167375e+003, 9.970447e+000
1.167857e+003, 1.012596e+001
1.168339e+003, 1.015660e+001
1.168821e+003, 1.022745e+001
1.169303e+003, 1.062956e+001
1.169785e+003, 1.094636e+001
1.170267e+003, 1.083701e+001
1.170749e+003, 1.044007e+001
1.171231e+003, 1.010215e+001
1.171714e+003, 9.821704e+000
1.172196e+003, 9.608219e+000
1.172678e+003, 9.461094e+000
1.173160e+003, 9.410008e+000
1.173642e+003, 9.555307e+000
1.174124e+003, 9.747867e+000
1.174606e+003, 9.887446e+000
1.175088e+003, 9.968601e+000
1.175571e+003, 9.944555e+000
1.176053e+003, 9.809642e+000
1.176535e+003, 9.684577e+000
1.177017e+003, 9.612215e+000
1.177499e+003, 9.525392e+000
1.177981e+003, 9.290792e+000
1.178463e+003, 9.057935e+000
1.178945e+003, 8.979712e+000
1.179427e+003, 9.061569e+000
1.179910e+003, 9.225482e+000
1.180392e+003, 9.492813e+000
1.180874e+003, 9.629344e+000
1.181356e+003, 9.511653e+000
1.181838e+003, 9.313173e+000
1.182320e+003, 9.191957e+000
1.182802e+003, 9.110716e+000
1.183284e+003, 9.018064e+000
1.183767e+003, 8.900545e+000
1.184249e+003, 8.839374e+000
1.184731e+003, 8.829602e+000
1.185213e+003, 8.923997e+000
1.185695e+003, 9.251075e+000
1.186177e+003, 9.532439e+000
1.186659e+003, 9.335539e+000
1.187141e+003, 8.929799e+000
1.187624e+003, 8.714309e+000
1.188106e+003, 8.797079e+000
1.188588e+003, 8.845962e+000
1.189070e+003, 8.859175e+000
1.189552e+003, 8.845624e+000
1.190034e+003, 8.780139e+000
1.190516e+003, 8.723187e+000
1.190998e+003, 8.802732e+000
1.191480e+003, 8.927724e+000
1.191963e+003, 8.924722e+000
1.192445e+003, 8.637624e+000
1.192927e+003, 8.609799e+000
1.193409e+003, 8.915277e+000
1.193891e+003, 9.138813e+000
1.194373e+003, 8.860847e+000
1.194855e+003, 8.438581e+000
1.195337e+003, 8.315676e+000
1.195819e+003, 8.418866e+000
1.196302e+003, 8.603682e+000
1.196784e+003, 8.977794e+000
1.197266e+003, 9.086173e+000
1.197748e+003, 8.858384e+000
1.198230e+003, 8.629497e+000
1.198712e+003, 8.755929e+000
1.199194e+003, 8.978603e+000
1.199676e+003, 8.882109e+000
1.200158e+003, 8.594510e+000
1.200641e+003, 8.490729e+000
1.201123e+003, 8.754841e+000
1.201605e+003, 8.902640e+000
1.202087e+003, 8.897698e+000
1.202569e+003, 8.821467e+000
1.203051e+003, 8.688350e+000
1.203533e+003, 8.569226e+000
1.204015e+003, 8.584125e+000
1.204498e+003, 8.697558e+000
1.204980e+003, 8.777908e+000
1.205462e+003, 8.819141e+000
1.205944e+003, 8.781087e+000
1.206426e+003, 8.634069e+000
1.206908e+003, 8.509714e+000
1.207390e+003, 8.566915e+000
1.207872e+003, 8.703434e+000
1.208354e+003, 8.827564e+000
1.208837e+003, 8.917269e+000
1.209319e+003, 8.884589e+000
1.209801e+003, 8.635363e+000
1.210283e+003, 8.505336e+000
1.210765e+003, 8.548419e+000
1.211247e+003, 8.658681e+000
1.211729e+003, 8.794782e+000
1.212211e+003, 8.885966e+000
1.212694e+003, 8.783177e+000
1.213176e+003, 8.527773e+000
1.213658e+003, 8.405773e+000
1.214140e+003, 8.479664e+000
1.214622e+003, 8.571069e+000
1.215104e+003, 8.667491e+000
1.215586e+003, 8.720520e+000
1.216068e+003, 8.640522e+000
1.216551e+003, 8.512844e+000
1.217033e+003, 8.463821e+000
1.217515e+003, 8.478345e+000
1.217997e+003, 8.367824e+000
1.218479e+003, 8.020514e+000
1.218961e+003, 7.936181e+000
1.219443e+003, 8.253901e+000
1.219925e+003, 8.617891e+000
1.220407e+003, 8.597009e+000
1.220890e+003, 8.423507e+000
1.221372e+003, 8.348620e+000
1.221854e+003, 8.385001e+000
1.222336e+003, 8.419021e+000
1.222818e+003, 8.447228e+000
1.223300e+003, 8.469023e+000
1.223782e+003, 8.486894e+000
1.224264e+003, 8.486190e+000
1.224746e+003, 8.378923e+000
1.225229e+003, 8.296869e+000
1.225711e+003, 8.469831e+000
1.226193e+003, 8.856949e+000
1.226675e+003, 8.866887e+000
1.227157e+003, 8.386830e+000
1.227639e+003, 8.152942e+000
1.228121e+003, 8.362943e+000
1.228603e+003, 8.656894e+000
1.229085e+003, 8.724647e+000
1.229568e+003, 8.635654e+000
1.230050e+003, 8.346028e+000
1.230532e+003, 7.916380e+000
1.231014e+003, 7.858222e+000
1.231496e+003, 8.223676e+000
1.231978e+003, 8.486542e+000
1.232460e+003, 8.511891e+000
1.232942e+003, 8.483150e+000
1.233425e+003, 8.602732e+000
1.233907e+003, 8.728774e+000
1.234389e+003, 8.708364e+000
1.234871e+003, 8.568709e+000
1.235353e+003, 8.530145e+000
1.235835e+003, 8.602448e+000
1.236317e+003, 8.527670e+000
1.236799e+003, 8.209946e+000
1.237281e+003, 7.925608e+000
1.237764e+003, 7.955003e+000
1.238246e+003, 8.071695e+000
1.238728e+003, 8.069012e+000
1.239210e+003, 7.992446e+000
1.239692e+003, 8.111168e+000
1.240174e+003, 8.410490e+000
1.240656e+003, 8.531301e+000
1.241138e+003, 8.364934e+000
1.241621e+003, 8.143555e+000
1.242103e+003, 7.920354e+000
1.242585e+003, 7.825441e+000
1.243067e+003, 8.002564e+000
1.243549e+003, 8.356144e+000
1.244031e+003, 8.512870e+000
1.244513e+003, 8.508976e+000
1.244995e+003, 8.688386e+000
1.245478e+003, 9.198966e+000
1.245960e+003, 9.473764e+000
1.246442e+003, 8.825931e+000
1.246924e+003, 8.217588e+000
1.247406e+003, 8.228169e+000
1.247888e+003, 8.626992e+000
1.248370e+003, 8.737337e+000
1.248852e+003, 8.605417e+000
1.249334e+003, 8.396788e+000
1.249817e+003, 8.127963e+000
1.250299e+003, 7.936331e+000
1.250781e+003, 8.004711e+000
1.251263e+003, 8.018490e+000
1.251745e+003, 7.807533e+000
1.252227e+003, 7.504347e+000
1.252709e+003, 7.450249e+000
1.253191e+003, 7.574721e+000
1.253673e+003, 7.661720e+000
1.254156e+003, 7.654429e+000
1.254638e+003, 7.727506e+000
1.255120e+003, 8.136063e+000
1.255602e+003, 8.311549e+000
1.256084e+003, 7.978464e+000
1.256566e+003, 7.424923e+000
1.257048e+003, 7.160758e+000
1.257530e+003, 7.134784e+000
1.258012e+003, 7.301192e+000
1.258495e+003, 7.681851e+000
1.258977e+003, 7.905651e+000
1.259459e+003, 7.864598e+000
1.259941e+003, 7.811030e+000
1.260423e+003, 7.850683e+000
1.260905e+003, 7.860954e+000
1.261387e+003, 7.519912e+000
1.261869e+003, 7.085134e+000
1.262352e+003, 6.963511e+000
1.262834e+003, 7.235610e+000
1.263316e+003, 7.468149e+000
1.263798e+003, 7.631683e+000
1.264280e+003, 7.763970e+000
1.264762e+003, 7.860521e+000
1.265244e+003, 7.975166e+000
1.265726e+003, 8.292790e+000
1.266208e+003, 8.587028e+000
1.266691e+003, 8.533205e+000
1.267173e+003, 8.115413e+000
1.267655e+003, 7.944492e+000
1.268137e+003, 8.064904e+000
1.268619e+003, 8.025709e+000
1.269101e+003, 7.661648e+000
1.269583e+003, 7.319901e+000
1.270065e+003, 7.393279e+000
1.270548e+003, 7.582715e+000
1.271030e+003, 7.583810e+000
1.271512e+003, 7.457370e+000
1.271994e+003, 7.560742e+000
1.272476e+003, 7.885235e+000
1.272958e+003, 8.014081e+000
1.273440e+003, 7.826295e+000
1.273922e+003, 7.652049e+000
1.274405e+003, 7.795443e+000
1.274887e+003, 7.956191e+000
1.275369e+003, 7.934566e+000
1.275851e+003, 7.807513e+000
1.276333e+003, 7.819736e+000
1.276815e+003, 7.932570e+000
1.277297e+003, 7.934847e+000
1.277779e+003, 7.781394e+000
1.278261e+003, 7.616297e+000
1.278744e+003, 7.435592e+000
1.279226e+003, 7.366274e+000
1.279708e+003, 7.473699e+000
1.280190e+003, 7.683696e+000
1.280672e+003, 7.937589e+000
1.281154e+003, 8.164310e+000
1.281636e+003, 8.139104e+000
1.282118e+003, 7.831569e+000
1.282600e+003, 7.570640e+000
1.283083e+003, 7.411094e+000
1.283565e+003, 7.399051e+000
1.284047e+003, 7.592376e+000
1.284529e+003, 7.829015e+000
1.285011e+003, 7.853297e+000
1.285493e+003, 7.781146e+000
1.285975e+003, 7.779503e+000
1.286457e+003, 7.863624e+000
1.286939e+003, 7.999887e+000
1.287422e+003, 8.231117e+000
1.287904e+003, 8.337751e+000
1.288386e+003, 8.267928e+000
1.288868e+003, 8.109426e+000
1.289350e+003, 7.834493e+000
1.289832e+003, 7.615580e+000
1.290314e+003, 7.721812e+000
1.290796e+003, 8.060969e+000
1.291279e+003, 8.124463e+000
1.291761e+003, 7.879966e+000
1.292243e+003, 7.675917e+000
1.292725e+003, 7.556436e+000
1.293207e+003, 7.543081e+000
1.293689e+003, 7.772136e+000
1.294171e+003, 7.993564e+000
1.294653e+003, 7.975225e+000
1.295135e+003, 7.863853e+000
1.295618e+003, 7.948115e+000
1.296100e+003, 8.194648e+000
1.296582e+003, 8.266440e+000
1.297064e+003, 8.139054e+000
1.297546e+003, 7.960413e+000
1.298028e+003, 7.696479e+000
1.298510e+003, 7.565605e+000
1.298992e+003, 7.698775e+000
1.299475e+003, 7.886137e+000
1.299957e+003, 7.769975e+000
1.300439e+003, 7.503623e+000
1.300921e+003, 7.623478e+000
1.301403e+003, 8.071239e+000
1.301885e+003, 8.338742e+000
##END=



