##NAMES=Manganosite
##RRUFFID=R060695
##IDEAL CHEMISTRY=Mn^2+^O
##LOCALITY=Franklin, New Jersey, USA
##OWNER=RRUFF
##SOURCE=Bob Jenkins
##DESCRIPTION=Dark green coarse prismatic crystals associated with calcite and red zincite
##STATUS=The identification of this mineral is confirmed by single-crystal X-ray diffraction and chemical analysis.
##URL=rruff.info/R060695
##MEASURED CHEMISTRY=Mn^2+^_1.00_O ; trace amounts of Mg
171.1854, 3510.139
171.6676, 3497.450
172.1497, 3487.677
172.6318, 3482.361
173.1139, 3480.021
173.5960, 3478.826
174.0781, 3477.879
174.5603, 3482.334
175.0424, 3502.016
175.5245, 3518.303
176.0066, 3517.867
176.4887, 3502.719
176.9708, 3487.059
177.4530, 3487.032
177.9351, 3508.177
178.4172, 3523.821
178.8993, 3539.101
179.3814, 3546.027
179.8635, 3535.364
180.3457, 3509.771
180.8278, 3481.708
181.3099, 3463.969
181.7920, 3456.483
182.2741, 3460.947
182.7562, 3492.500
183.2384, 3520.971
183.7205, 3525.903
184.2026, 3509.078
184.6847, 3489.200
185.1668, 3488.023
185.6489, 3514.382
186.1311, 3522.597
186.6132, 3493.785
187.0953, 3466.376
187.5774, 3465.115
188.0595, 3488.380
188.5416, 3515.515
189.0238, 3525.383
189.5059, 3513.878
189.9880, 3502.654
190.4701, 3494.592
190.9522, 3484.468
191.4343, 3466.136
191.9165, 3441.579
192.3986, 3420.130
192.8807, 3411.757
193.3628, 3420.320
193.8449, 3421.542
194.3270, 3403.159
194.8092, 3389.549
195.2913, 3398.921
195.7734, 3427.573
196.2555, 3455.209
196.7376, 3462.605
197.2197, 3446.061
197.7019, 3434.110
198.1840, 3424.833
198.6661, 3420.608
199.1482, 3427.986
199.6303, 3443.152
200.1124, 3452.284
200.5946, 3441.160
201.0767, 3405.463
201.5588, 3393.386
202.0409, 3421.519
202.5230, 3452.092
203.0051, 3472.397
203.4873, 3480.956
203.9694, 3478.388
204.4515, 3463.810
204.9336, 3436.433
205.4157, 3414.498
205.8978, 3399.668
206.3800, 3387.385
206.8621, 3371.312
207.3442, 3355.632
207.8263, 3353.169
208.3084, 3375.725
208.7905, 3422.625
209.2727, 3446.083
209.7548, 3428.558
210.2369, 3409.497
210.7190, 3403.512
211.2011, 3406.161
211.6832, 3404.951
212.1654, 3390.584
212.6475, 3365.049
213.1296, 3352.695
213.6117, 3368.253
214.0938, 3379.675
214.5760, 3372.708
215.0581, 3356.377
215.5402, 3347.585
216.0223, 3356.648
216.5044, 3380.697
216.9865, 3403.606
217.4687, 3431.201
217.9508, 3451.110
218.4329, 3461.326
218.9150, 3462.357
219.3971, 3451.740
219.8792, 3427.082
220.3614, 3395.454
220.8435, 3383.362
221.3256, 3409.030
221.8077, 3434.494
222.2898, 3464.473
222.7719, 3490.048
223.2541, 3497.760
223.7362, 3481.642
224.2183, 3451.121
224.7004, 3431.128
225.1825, 3427.708
225.6646, 3428.430
226.1468, 3441.166
226.6289, 3453.975
227.1110, 3449.097
227.5931, 3421.392
228.0752, 3388.746
228.5573, 3388.375
229.0395, 3460.565
229.5216, 3504.298
230.0037, 3503.179
230.4858, 3484.841
230.9679, 3469.607
231.4500, 3463.483
231.9322, 3462.355
232.4143, 3459.809
232.8964, 3453.214
233.3785, 3450.986
233.8606, 3458.547
234.3427, 3465.885
234.8249, 3463.374
235.3070, 3451.281
235.7891, 3440.284
236.2712, 3445.368
236.7533, 3476.543
237.2354, 3490.343
237.7176, 3467.806
238.1997, 3446.482
238.6818, 3449.024
239.1639, 3473.180
239.6460, 3499.616
240.1281, 3510.133
240.6103, 3503.323
241.0924, 3490.872
241.5745, 3458.392
242.0566, 3433.779
242.5387, 3436.135
243.0208, 3456.153
243.5030, 3468.429
243.9851, 3449.740
244.4672, 3401.576
244.9493, 3375.016
245.4314, 3390.035
245.9135, 3407.542
246.3957, 3419.539
246.8778, 3426.720
247.3599, 3431.532
247.8420, 3435.510
248.3241, 3438.366
248.8062, 3438.994
249.2884, 3438.686
249.7705, 3433.610
250.2526, 3414.605
250.7347, 3393.251
251.2168, 3386.447
251.6989, 3404.190
252.1811, 3433.634
252.6632, 3442.153
253.1453, 3416.583
253.6274, 3397.746
254.1095, 3395.712
254.5916, 3403.625
255.0738, 3418.448
255.5559, 3439.809
256.0380, 3460.197
256.5201, 3465.884
257.0022, 3451.814
257.4843, 3443.362
257.9665, 3456.079
258.4486, 3470.148
258.9307, 3469.312
259.4128, 3451.063
259.8949, 3432.830
260.3770, 3437.712
260.8592, 3467.149
261.3413, 3481.354
261.8234, 3457.728
262.3055, 3432.161
262.7876, 3431.565
263.2697, 3454.689
263.7519, 3478.625
264.2340, 3487.406
264.7161, 3482.975
265.1982, 3474.575
265.6803, 3457.220
266.1624, 3445.223
266.6446, 3455.169
267.1267, 3480.029
267.6088, 3495.187
268.0909, 3481.126
268.5730, 3450.806
269.0551, 3432.892
269.5373, 3430.973
270.0194, 3432.931
270.5015, 3429.396
270.9836, 3423.610
271.4657, 3422.225
271.9478, 3428.331
272.4300, 3438.789
272.9121, 3453.574
273.3942, 3472.982
273.8763, 3484.137
274.3584, 3473.616
274.8405, 3451.292
275.3227, 3441.640
275.8048, 3452.947
276.2869, 3467.707
276.7690, 3474.972
277.2511, 3475.755
277.7332, 3473.874
278.2154, 3469.087
278.6975, 3464.571
279.1796, 3466.902
279.6617, 3476.446
280.1438, 3490.268
280.6259, 3512.500
281.1081, 3537.391
281.5902, 3555.239
282.0723, 3563.360
282.5544, 3563.129
283.0365, 3554.833
283.5186, 3535.777
284.0008, 3519.263
284.4829, 3503.564
284.9650, 3492.845
285.4471, 3496.719
285.9292, 3515.159
286.4113, 3529.637
286.8935, 3518.958
287.3756, 3476.355
287.8577, 3450.477
288.3398, 3447.055
288.8219, 3453.863
289.3040, 3473.439
289.7862, 3499.187
290.2683, 3512.092
290.7504, 3495.241
291.2325, 3451.124
291.7146, 3427.671
292.1967, 3437.512
292.6789, 3452.220
293.1610, 3471.323
293.6431, 3489.477
294.1252, 3498.614
294.6073, 3494.386
295.0894, 3480.688
295.5716, 3468.356
296.0537, 3445.052
296.5358, 3442.714
297.0179, 3485.125
297.5000, 3536.115
297.9821, 3560.335
298.4643, 3548.582
298.9464, 3522.285
299.4285, 3514.717
299.9106, 3535.125
300.3927, 3546.469
300.8748, 3540.046
301.3570, 3530.433
301.8391, 3522.263
302.3212, 3517.413
302.8033, 3518.607
303.2854, 3531.604
303.7675, 3556.199
304.2497, 3572.429
304.7318, 3574.984
305.2139, 3575.206
305.6960, 3579.697
306.1781, 3585.726
306.6602, 3587.152
307.1424, 3578.877
307.6245, 3565.049
308.1066, 3556.048
308.5887, 3553.776
309.0708, 3550.706
309.5529, 3538.155
310.0351, 3524.792
310.5172, 3522.092
310.9993, 3536.134
311.4814, 3553.537
311.9635, 3562.184
312.4456, 3562.228
312.9278, 3555.323
313.4099, 3538.285
313.8920, 3517.910
314.3741, 3504.083
314.8562, 3497.884
315.3383, 3491.337
315.8205, 3474.391
316.3026, 3455.308
316.7847, 3455.317
317.2668, 3482.615
317.7489, 3512.544
318.2310, 3515.502
318.7132, 3491.287
319.1953, 3473.096
319.6774, 3468.015
320.1595, 3468.701
320.6416, 3470.906
321.1237, 3473.671
321.6059, 3474.520
322.0880, 3472.063
322.5701, 3466.035
323.0522, 3454.440
323.5343, 3420.418
324.0164, 3399.854
324.4986, 3412.609
324.9807, 3446.312
325.4628, 3480.633
325.9449, 3506.744
326.4270, 3523.751
326.9091, 3529.048
327.3913, 3504.498
327.8734, 3492.649
328.3555, 3505.022
328.8376, 3523.093
329.3197, 3530.758
329.8018, 3525.304
330.2840, 3515.614
330.7661, 3513.268
331.2482, 3521.477
331.7303, 3522.408
332.2124, 3513.752
332.6945, 3500.046
333.1767, 3474.839
333.6588, 3445.452
334.1409, 3429.002
334.6230, 3441.702
335.1051, 3475.029
335.5872, 3488.626
336.0694, 3468.766
336.5515, 3453.620
337.0336, 3462.227
337.5157, 3479.372
337.9979, 3486.888
338.4800, 3477.168
338.9621, 3462.135
339.4442, 3458.974
339.9263, 3468.585
340.4084, 3471.168
340.8906, 3455.339
341.3727, 3435.902
341.8548, 3428.730
342.3369, 3434.578
342.8190, 3440.194
343.3011, 3434.285
343.7833, 3423.554
344.2654, 3425.860
344.7475, 3446.709
345.2296, 3466.627
345.7117, 3461.993
346.1938, 3437.529
346.6760, 3431.902
347.1581, 3467.901
347.6402, 3509.361
348.1223, 3532.706
348.6044, 3538.037
349.0865, 3529.305
349.5687, 3505.387
350.0508, 3472.019
350.5329, 3451.980
351.0150, 3450.567
351.4971, 3453.451
351.9792, 3464.088
352.4614, 3475.310
352.9435, 3473.841
353.4256, 3457.058
353.9077, 3441.815
354.3898, 3456.028
354.8719, 3522.003
355.3541, 3552.471
355.8362, 3528.340
356.3183, 3492.567
356.8004, 3458.060
357.2825, 3430.806
357.7646, 3420.735
358.2468, 3440.563
358.7289, 3482.998
359.2110, 3491.854
359.6931, 3434.243
360.1752, 3392.265
360.6573, 3397.926
361.1395, 3424.775
361.6216, 3442.113
362.1037, 3438.606
362.5858, 3427.248
363.0679, 3426.657
363.5500, 3438.046
364.0322, 3444.291
364.5143, 3436.670
364.9964, 3427.482
365.4785, 3427.712
365.9606, 3437.053
366.4427, 3446.706
366.9249, 3452.269
367.4070, 3454.942
367.8891, 3457.635
368.3712, 3460.987
368.8533, 3461.500
369.3354, 3454.905
369.8176, 3442.844
370.2997, 3434.008
370.7818, 3424.108
371.2639, 3421.965
371.7460, 3443.740
372.2281, 3477.831
372.7103, 3490.866
373.1924, 3465.394
373.6745, 3421.679
374.1566, 3403.059
374.6387, 3427.492
375.1208, 3446.408
375.6030, 3459.056
376.0851, 3464.773
376.5672, 3458.738
377.0493, 3443.023
377.5314, 3429.471
378.0135, 3431.012
378.4957, 3448.933
378.9778, 3456.150
379.4599, 3435.767
379.9420, 3422.042
380.4241, 3428.764
380.9063, 3446.037
381.3884, 3459.745
381.8705, 3463.824
382.3526, 3458.894
382.8347, 3442.741
383.3168, 3410.094
383.7990, 3386.704
384.2811, 3383.371
384.7632, 3387.877
385.2453, 3392.073
385.7274, 3395.530
386.2095, 3403.158
386.6917, 3425.240
387.1738, 3454.033
387.6559, 3465.950
388.1380, 3457.060
388.6201, 3439.469
389.1022, 3414.301
389.5844, 3386.973
390.0665, 3374.809
390.5486, 3396.113
391.0307, 3418.060
391.5128, 3411.232
391.9949, 3387.061
392.4771, 3382.600
392.9592, 3416.102
393.4413, 3465.333
393.9234, 3487.145
394.4055, 3462.595
394.8876, 3448.185
395.3698, 3451.361
395.8519, 3461.718
396.3340, 3474.284
396.8161, 3486.772
397.2982, 3495.572
397.7803, 3497.405
398.2625, 3492.430
398.7446, 3484.972
399.2267, 3462.488
399.7088, 3452.982
400.1909, 3478.331
400.6730, 3513.016
401.1552, 3523.306
401.6373, 3495.905
402.1194, 3455.208
402.6015, 3436.648
403.0836, 3442.398
403.5657, 3449.732
404.0479, 3456.364
404.5300, 3462.862
405.0121, 3472.968
405.4942, 3484.801
405.9763, 3488.254
406.4584, 3471.523
406.9406, 3446.451
407.4227, 3432.312
407.9048, 3429.906
408.3869, 3429.677
408.8690, 3424.382
409.3511, 3418.644
409.8333, 3426.522
410.3154, 3463.021
410.7975, 3488.125
411.2796, 3477.613
411.7617, 3450.866
412.2438, 3435.030
412.7260, 3436.935
413.2081, 3448.525
413.6902, 3461.010
414.1723, 3475.188
414.6544, 3485.876
415.1365, 3499.300
415.6187, 3503.559
416.1008, 3480.733
416.5829, 3446.802
417.0650, 3433.625
417.5471, 3460.150
418.0292, 3508.520
418.5114, 3534.648
418.9935, 3531.420
419.4756, 3525.520
419.9577, 3518.470
420.4398, 3512.560
420.9219, 3511.059
421.4041, 3513.457
421.8862, 3513.457
422.3683, 3500.379
422.8504, 3481.901
423.3325, 3482.969
423.8146, 3508.874
424.2968, 3534.897
424.7789, 3543.689
425.2610, 3541.383
425.7431, 3546.037
426.2252, 3569.264
426.7073, 3584.895
427.1895, 3571.459
427.6716, 3542.459
428.1537, 3524.933
428.6358, 3526.976
429.1179, 3537.250
429.6000, 3540.954
430.0822, 3535.704
430.5643, 3533.024
431.0464, 3531.434
431.5285, 3533.500
432.0106, 3542.500
432.4927, 3556.000
432.9749, 3569.799
433.4570, 3581.777
433.9391, 3590.834
434.4212, 3592.107
434.9033, 3579.050
435.3854, 3574.723
435.8676, 3593.125
436.3497, 3614.050
436.8318, 3621.082
437.3139, 3614.649
437.7960, 3612.332
438.2781, 3631.966
438.7603, 3664.501
439.2424, 3686.102
439.7245, 3695.892
440.2066, 3694.227
440.6887, 3672.125
441.1708, 3640.528
441.6530, 3628.694
442.1351, 3646.193
442.6172, 3669.354
443.0993, 3692.283
443.5814, 3712.771
444.0635, 3727.151
444.5457, 3734.498
445.0278, 3736.014
445.5099, 3731.608
445.9920, 3718.582
446.4741, 3716.511
446.9562, 3734.373
447.4384, 3751.879
447.9205, 3762.786
448.4026, 3768.089
448.8847, 3770.011
449.3668, 3769.567
449.8489, 3766.991
450.3311, 3762.326
450.8132, 3755.172
451.2953, 3747.686
451.7774, 3731.237
452.2595, 3723.506
452.7416, 3744.703
453.2238, 3787.416
453.7059, 3817.764
454.1880, 3810.645
454.6701, 3785.269
455.1522, 3767.013
455.6343, 3756.041
456.1165, 3752.110
456.5986, 3755.668
457.0807, 3765.709
457.5628, 3782.278
458.0449, 3812.796
458.5270, 3830.770
459.0092, 3817.954
459.4913, 3798.401
459.9734, 3798.338
460.4555, 3817.659
460.9376, 3835.342
461.4197, 3832.827
461.9019, 3812.722
462.3840, 3805.175
462.8661, 3825.750
463.3482, 3837.742
463.8303, 3820.096
464.3124, 3799.698
464.7946, 3807.683
465.2767, 3849.834
465.7588, 3896.640
466.2409, 3920.084
466.7230, 3922.364
467.2051, 3918.735
467.6873, 3907.266
468.1694, 3896.798
468.6515, 3893.858
469.1336, 3896.200
469.6157, 3899.189
470.0978, 3900.530
470.5800, 3904.580
471.0621, 3917.437
471.5442, 3934.317
472.0263, 3944.560
472.5084, 3945.016
472.9905, 3942.495
473.4727, 3946.170
473.9548, 3959.010
474.4369, 3961.941
474.9190, 3945.682
475.4011, 3931.070
475.8832, 3929.626
476.3654, 3934.448
476.8475, 3931.453
477.3296, 3914.083
477.8117, 3893.927
478.2938, 3892.644
478.7759, 3913.535
479.2581, 3930.584
479.7402, 3940.907
480.2223, 3946.073
480.7044, 3946.550
481.1865, 3943.084
481.6686, 3938.108
482.1508, 3927.742
482.6329, 3920.012
483.1150, 3928.672
483.5971, 3949.521
484.0792, 3959.525
484.5613, 3947.415
485.0435, 3926.686
485.5256, 3919.336
486.0077, 3929.469
486.4898, 3944.258
486.9719, 3971.161
487.4540, 3996.060
487.9362, 4009.213
488.4183, 4012.716
488.9004, 4014.712
489.3825, 4020.471
489.8646, 4025.428
490.3467, 4013.457
490.8289, 3971.795
491.3110, 3951.117
491.7931, 3986.397
492.2752, 4024.595
492.7573, 4030.694
493.2394, 4007.275
493.7216, 3982.573
494.2037, 3971.266
494.6858, 3967.024
495.1679, 3961.348
495.6500, 3954.249
496.1321, 3945.997
496.6143, 3934.712
497.0964, 3925.237
497.5785, 3929.090
498.0606, 3952.305
498.5427, 3972.441
499.0248, 3995.531
499.5070, 4008.471
499.9891, 3992.449
500.4712, 3955.662
500.9533, 3926.802
501.4355, 3925.944
501.9176, 3943.423
502.3997, 3945.716
502.8818, 3924.209
503.3639, 3909.161
503.8460, 3909.780
504.3282, 3916.095
504.8103, 3924.995
505.2924, 3934.945
505.7745, 3939.699
506.2566, 3933.300
506.7387, 3920.817
507.2209, 3905.372
507.7030, 3887.937
508.1851, 3885.926
508.6672, 3913.115
509.1493, 3953.195
509.6314, 3969.714
510.1136, 3951.383
510.5957, 3938.408
511.0778, 3936.757
511.5599, 3939.475
512.0420, 3942.878
512.5241, 3946.075
513.0062, 3948.415
513.4883, 3949.305
513.9705, 3949.533
514.4526, 3952.969
514.9347, 3963.876
515.4168, 3965.229
515.8989, 3940.167
516.3810, 3915.427
516.8632, 3911.257
517.3453, 3925.754
517.8274, 3939.906
518.3095, 3944.108
518.7916, 3943.373
519.2737, 3942.149
519.7559, 3940.997
520.2380, 3944.787
520.7201, 3957.638
521.2022, 3971.442
521.6843, 3970.526
522.1664, 3944.432
522.6486, 3928.101
523.1307, 3931.561
523.6128, 3935.434
524.0949, 3923.162
524.5770, 3902.362
525.0591, 3893.783
525.5413, 3909.834
526.0234, 3936.681
526.5055, 3944.639
526.9876, 3929.729
527.4697, 3922.345
527.9518, 3936.646
528.4340, 3948.668
528.9161, 3934.556
529.3982, 3901.478
529.8803, 3879.616
530.3624, 3888.286
530.8445, 3902.511
531.3267, 3903.085
531.8088, 3893.067
532.2909, 3878.558
532.7730, 3860.975
533.2551, 3848.739
533.7372, 3855.873
534.2194, 3890.782
534.7015, 3905.821
535.1836, 3877.837
535.6657, 3856.841
536.1478, 3867.362
536.6299, 3893.117
537.1121, 3908.844
537.5942, 3905.116
538.0763, 3894.003
538.5584, 3887.729
539.0405, 3886.270
539.5226, 3891.976
540.0048, 3909.735
540.4869, 3921.666
540.9690, 3908.816
541.4511, 3879.455
541.9332, 3864.554
542.4153, 3880.606
542.8975, 3891.175
543.3796, 3877.026
543.8617, 3852.296
544.3438, 3832.351
544.8259, 3821.110
545.3080, 3818.552
545.7902, 3826.758
546.2723, 3844.037
546.7544, 3848.648
547.2365, 3831.998
547.7186, 3817.094
548.2007, 3810.299
548.6829, 3806.727
549.1650, 3803.157
549.6471, 3798.942
550.1292, 3792.385
550.6113, 3774.470
551.0934, 3756.889
551.5756, 3766.841
552.0577, 3802.737
552.5398, 3824.570
553.0219, 3807.438
553.5040, 3770.811
553.9861, 3759.335
554.4683, 3793.291
554.9504, 3815.430
555.4325, 3814.973
555.9146, 3812.185
556.3967, 3826.041
556.8788, 3847.646
557.3610, 3852.004
557.8431, 3823.206
558.3252, 3780.549
558.8073, 3759.330
559.2894, 3760.650
559.7715, 3761.979
560.2537, 3754.726
560.7358, 3753.889
561.2179, 3785.180
561.7000, 3837.342
562.1821, 3863.783
562.6642, 3835.563
563.1464, 3802.943
563.6285, 3792.230
564.1106, 3794.883
564.5927, 3799.333
565.0748, 3801.732
565.5569, 3799.013
566.0391, 3787.562
566.5212, 3767.358
567.0033, 3742.138
567.4854, 3700.855
567.9675, 3672.195
568.4496, 3668.534
568.9318, 3677.269
569.4139, 3687.305
569.8960, 3696.773
570.3781, 3705.617
570.8602, 3717.872
571.3423, 3727.660
571.8245, 3719.264
572.3066, 3694.493
572.7887, 3682.693
573.2708, 3703.365
573.7529, 3738.136
574.2350, 3742.539
574.7172, 3687.154
575.1993, 3658.718
575.6814, 3679.656
576.1635, 3704.844
576.6456, 3706.351
577.1277, 3692.633
577.6099, 3687.141
578.0920, 3702.681
578.5741, 3724.341
579.0562, 3728.032
579.5383, 3715.743
580.0204, 3714.373
580.5026, 3733.870
580.9847, 3749.054
581.4668, 3735.640
581.9489, 3697.417
582.4310, 3669.504
582.9132, 3653.774
583.3953, 3645.857
583.8774, 3649.477
584.3596, 3657.298
584.8417, 3660.324
585.3238, 3657.963
585.8059, 3656.530
586.2880, 3660.980
586.7701, 3671.112
587.2523, 3688.859
587.7344, 3720.206
588.2165, 3738.557
588.6986, 3730.687
589.1807, 3710.734
589.6628, 3687.281
590.1450, 3661.151
590.6271, 3651.694
591.1092, 3682.993
591.5913, 3717.390
592.0734, 3721.447
592.5555, 3704.915
593.0377, 3694.175
593.5198, 3698.769
594.0019, 3707.794
594.4840, 3704.300
594.9661, 3685.135
595.4482, 3678.842
595.9304, 3695.519
596.4125, 3711.513
596.8946, 3720.122
597.3767, 3723.177
597.8588, 3720.399
598.3409, 3710.576
598.8231, 3707.048
599.3052, 3726.911
599.7873, 3754.094
600.2694, 3763.171
600.7515, 3753.887
601.2336, 3739.056
601.7158, 3724.186
602.1979, 3712.723
602.6800, 3714.336
603.1621, 3741.540
603.6442, 3755.815
604.1263, 3741.778
604.6085, 3731.209
605.0906, 3743.996
605.5727, 3770.575
606.0548, 3792.437
606.5369, 3803.425
607.0190, 3803.327
607.5012, 3782.899
607.9833, 3750.888
608.4654, 3737.309
608.9475, 3747.236
609.4296, 3764.480
609.9117, 3780.240
610.3939, 3792.311
610.8760, 3789.006
611.3581, 3747.099
611.8402, 3721.239
612.3223, 3727.012
612.8044, 3739.322
613.2866, 3737.711
613.7687, 3725.465
614.2508, 3720.297
614.7329, 3734.879
615.2150, 3756.950
615.6971, 3766.351
616.1793, 3764.511
616.6614, 3765.850
617.1435, 3774.746
617.6256, 3783.028
618.1077, 3782.597
618.5898, 3773.771
619.0720, 3766.601
619.5541, 3762.759
620.0362, 3758.268
620.5183, 3750.258
621.0004, 3742.415
621.4825, 3738.313
621.9647, 3738.291
622.4468, 3741.329
622.9289, 3750.116
623.4110, 3758.222
623.8931, 3746.407
624.3752, 3713.843
624.8574, 3687.294
625.3395, 3672.588
625.8216, 3669.987
626.3037, 3685.042
626.7858, 3719.220
627.2679, 3737.608
627.7501, 3730.355
628.2322, 3718.157
628.7143, 3705.031
629.1964, 3692.771
629.6785, 3683.974
630.1606, 3678.564
630.6428, 3672.085
631.1249, 3656.416
631.6070, 3637.893
632.0891, 3645.260
632.5712, 3683.154
633.0533, 3703.044
633.5355, 3678.051
634.0176, 3642.895
634.4997, 3648.154
634.9818, 3697.476
635.4639, 3729.800
635.9460, 3731.095
636.4282, 3725.142
636.9103, 3719.537
637.3924, 3714.444
637.8745, 3708.088
638.3566, 3700.582
638.8387, 3695.983
639.3209, 3700.422
639.8030, 3711.133
640.2851, 3714.888
640.7672, 3710.664
641.2493, 3706.740
641.7314, 3708.504
642.2136, 3709.189
642.6957, 3694.851
643.1778, 3662.159
643.6599, 3646.191
644.1420, 3664.034
644.6241, 3683.950
645.1063, 3689.011
645.5884, 3687.032
646.0705, 3693.463
646.5526, 3711.132
647.0347, 3724.149
647.5168, 3712.520
647.9990, 3682.295
648.4811, 3658.549
648.9632, 3640.734
649.4453, 3635.456
649.9274, 3652.010
650.4095, 3673.995
650.8917, 3673.332
651.3738, 3643.737
651.8559, 3632.148
652.3380, 3660.732
652.8201, 3686.400
653.3022, 3681.107
653.7844, 3664.320
654.2665, 3667.807
654.7486, 3697.996
655.2307, 3728.310
655.7128, 3729.971
656.1949, 3710.952
656.6771, 3699.445
657.1592, 3695.896
657.6413, 3692.353
658.1234, 3685.614
658.6055, 3677.790
659.0876, 3672.087
659.5698, 3669.290
660.0519, 3664.450
660.5340, 3654.616
661.0161, 3646.172
661.4982, 3645.227
661.9803, 3645.188
662.4625, 3636.498
662.9446, 3617.888
663.4267, 3598.664
663.9088, 3588.627
664.3909, 3583.005
664.8730, 3567.626
665.3552, 3543.232
665.8373, 3528.164
666.3194, 3531.347
666.8015, 3538.353
667.2836, 3528.359
667.7657, 3497.105
668.2479, 3482.244
668.7300, 3502.680
669.2121, 3514.997
669.6942, 3501.995
670.1763, 3479.725
670.6584, 3464.676
671.1406, 3459.019
671.6227, 3455.187
672.1048, 3444.209
672.5869, 3434.508
673.0690, 3444.468
673.5511, 3468.781
674.0333, 3480.938
674.5154, 3472.543
674.9975, 3455.019
675.4796, 3440.195
675.9617, 3428.077
676.4438, 3419.073
676.9260, 3417.092
677.4081, 3412.430
677.8902, 3397.583
678.3723, 3384.045
678.8544, 3380.721
679.3365, 3387.746
679.8187, 3400.946
680.3008, 3429.474
680.7829, 3452.374
681.2650, 3442.433
681.7471, 3413.959
682.2292, 3398.131
682.7114, 3401.725
683.1935, 3414.747
683.6756, 3430.764
684.1577, 3446.636
684.6398, 3441.617
685.1219, 3403.264
685.6041, 3376.964
686.0862, 3376.647
686.5683, 3384.781
687.0504, 3391.988
687.5325, 3397.274
688.0146, 3397.190
688.4968, 3386.233
688.9789, 3376.510
689.4610, 3374.484
689.9431, 3376.585
690.4252, 3378.711
690.9073, 3380.422
691.3895, 3383.639
691.8716, 3390.132
692.3537, 3396.978
692.8358, 3399.455
693.3179, 3397.991
693.8000, 3380.130
694.2822, 3332.630
694.7643, 3297.199
695.2464, 3313.003
695.7285, 3362.499
696.2106, 3382.270
696.6927, 3356.087
697.1749, 3332.017
697.6570, 3315.292
698.1391, 3304.992
698.6212, 3305.330
699.1033, 3310.760
699.5854, 3309.313
700.0676, 3295.528
700.5497, 3279.161
701.0318, 3265.484
701.5139, 3258.430
701.9960, 3280.176
702.4781, 3332.804
702.9603, 3369.056
703.4424, 3362.710
703.9245, 3330.594
704.4066, 3304.274
704.8887, 3284.729
705.3708, 3267.917
705.8530, 3253.912
706.3351, 3242.616
706.8172, 3232.373
707.2993, 3225.677
707.7814, 3227.381
708.2635, 3238.207
708.7457, 3248.170
709.2278, 3251.170
709.7099, 3250.779
710.1920, 3248.733
710.6741, 3246.775
711.1563, 3250.529
711.6384, 3261.538
712.1205, 3273.574
712.6026, 3279.061
713.0847, 3278.713
713.5668, 3283.993
714.0490, 3301.626
714.5311, 3304.328
715.0132, 3269.486
715.4953, 3232.096
715.9774, 3229.950
716.4595, 3258.253
716.9417, 3279.945
717.4238, 3289.088
717.9059, 3291.428
718.3880, 3287.569
718.8701, 3279.139
719.3522, 3265.969
719.8344, 3249.557
720.3165, 3233.807
720.7986, 3220.507
721.2807, 3211.010
721.7628, 3206.531
722.2449, 3207.488
722.7271, 3220.870
723.2092, 3250.123
723.6913, 3273.070
724.1734, 3273.138
724.6555, 3256.641
725.1376, 3243.969
725.6198, 3232.397
726.1019, 3230.078
726.5840, 3252.878
727.0661, 3267.546
727.5482, 3245.947
728.0303, 3210.135
728.5125, 3200.877
728.9946, 3231.336
729.4767, 3258.769
729.9588, 3249.288
730.4409, 3227.607
730.9230, 3224.656
731.4052, 3236.343
731.8873, 3243.298
732.3694, 3238.227
732.8515, 3230.559
733.3336, 3233.533
733.8157, 3246.172
734.2979, 3251.882
734.7800, 3250.225
735.2621, 3242.031
735.7442, 3221.277
736.2263, 3201.047
736.7084, 3200.480
737.1906, 3218.786
737.6727, 3225.162
738.1548, 3208.243
738.6369, 3191.323
739.1190, 3180.207
739.6011, 3173.247
740.0833, 3167.924
740.5654, 3164.887
741.0475, 3167.568
741.5296, 3178.440
742.0117, 3194.586
742.4938, 3218.554
742.9760, 3244.412
743.4581, 3253.539
743.9402, 3243.649
744.4223, 3223.935
744.9044, 3198.956
745.3865, 3171.329
745.8687, 3143.720
746.3508, 3103.643
746.8329, 3107.718
747.3150, 3196.824
747.7971, 3274.523
748.2792, 3293.363
748.7614, 3275.947
749.2435, 3244.960
749.7256, 3197.063
750.2077, 3168.803
750.6898, 3185.664
751.1719, 3210.483
751.6541, 3223.334
752.1362, 3225.928
752.6183, 3220.260
753.1004, 3208.469
753.5825, 3199.281
754.0646, 3201.320
754.5468, 3210.529
755.0289, 3221.928
755.5110, 3233.998
755.9931, 3229.468
756.4752, 3202.579
756.9573, 3169.027
757.4395, 3139.919
757.9216, 3117.228
758.4037, 3115.694
758.8858, 3153.965
759.3679, 3177.539
759.8500, 3163.551
760.3322, 3151.164
760.8143, 3169.389
761.2964, 3202.241
761.7785, 3212.139
762.2606, 3182.012
762.7427, 3159.381
763.2249, 3174.706
763.7070, 3198.015
764.1891, 3201.422
764.6712, 3190.446
765.1533, 3182.401
765.6354, 3183.599
766.1176, 3188.146
766.5997, 3193.881
767.0818, 3197.386
767.5639, 3177.552
768.0460, 3135.144
768.5281, 3120.107
769.0103, 3153.540
769.4924, 3198.502
769.9745, 3213.788
770.4566, 3200.640
770.9387, 3192.076
771.4208, 3192.294
771.9030, 3190.089
772.3851, 3175.970
772.8672, 3166.326
773.3493, 3179.349
773.8314, 3205.341
774.3135, 3214.530
774.7957, 3190.557
775.2778, 3170.199
775.7599, 3174.710
776.2420, 3186.796
776.7241, 3188.415
777.2062, 3183.128
777.6884, 3186.027
778.1705, 3203.221
778.6526, 3220.866
779.1347, 3218.152
779.6168, 3203.166
780.0989, 3207.241
780.5811, 3229.923
781.0632, 3242.496
781.5453, 3234.141
782.0274, 3215.684
782.5095, 3198.193
782.9916, 3181.900
783.4738, 3177.099
783.9559, 3192.283
784.4380, 3202.712
784.9201, 3201.533
785.4022, 3196.309
785.8843, 3191.173
786.3665, 3186.147
786.8486, 3180.264
787.3307, 3166.924
787.8128, 3164.746
788.2949, 3195.688
788.7770, 3226.993
789.2592, 3225.795
789.7413, 3203.245
790.2234, 3191.491
790.7055, 3202.435
791.1876, 3211.571
791.6697, 3186.105
792.1519, 3145.322
792.6340, 3131.645
793.1161, 3142.405
793.5982, 3157.720
794.0803, 3171.512
794.5624, 3176.983
795.0446, 3163.869
795.5267, 3136.330
796.0088, 3131.365
796.4909, 3161.516
796.9730, 3169.829
797.4551, 3129.815
797.9373, 3089.399
798.4194, 3092.472
798.9015, 3125.104
799.3836, 3131.906
799.8657, 3088.016
800.3478, 3065.219
800.8300, 3088.928
801.3121, 3119.718
801.7942, 3138.963
802.2763, 3147.816
802.7584, 3149.485
803.2405, 3144.934
803.7227, 3139.096
804.2048, 3131.293
804.6869, 3127.014
805.1690, 3138.411
805.6511, 3157.062
806.1332, 3158.673
806.6154, 3140.428
807.0975, 3130.747
807.5796, 3157.248
808.0617, 3201.586
808.5438, 3212.682
809.0259, 3190.874
809.5081, 3171.471
809.9902, 3158.464
810.4723, 3153.203
810.9544, 3157.942
811.4365, 3169.393
811.9186, 3181.159
812.4008, 3201.267
812.8829, 3197.054
813.3650, 3136.701
813.8471, 3092.250
814.3292, 3091.751
814.8113, 3114.297
815.2935, 3144.794
815.7756, 3180.579
816.2577, 3198.415
816.7398, 3179.437
817.2219, 3156.045
817.7040, 3136.253
818.1862, 3125.044
818.6683, 3134.415
819.1504, 3158.034
819.6325, 3171.973
820.1146, 3162.783
820.5967, 3146.468
821.0789, 3139.470
821.5610, 3138.682
822.0431, 3137.742
822.5252, 3136.358
823.0073, 3135.172
823.4894, 3134.326
823.9716, 3138.612
824.4537, 3159.094
824.9358, 3191.969
825.4179, 3193.270
825.9000, 3156.780
826.3821, 3122.620
826.8643, 3099.215
827.3464, 3084.767
827.8285, 3078.253
828.3106, 3079.334
828.7927, 3086.251
829.2748, 3108.736
829.7570, 3121.364
830.2391, 3112.550
830.7212, 3105.886
831.2033, 3116.382
831.6854, 3135.069
832.1675, 3147.945
832.6497, 3152.952
833.1318, 3151.983
833.6139, 3140.883
834.0960, 3129.118
834.5781, 3123.938
835.0602, 3121.360
835.5424, 3112.509
836.0245, 3098.735
836.5066, 3094.072
836.9887, 3110.355
837.4708, 3133.139
837.9529, 3144.908
838.4351, 3148.968
838.9172, 3154.366
839.3993, 3161.214
839.8814, 3160.793
840.3635, 3148.137
840.8456, 3134.201
841.3278, 3140.384
841.8099, 3164.914
842.2920, 3165.186
842.7741, 3135.677
843.2562, 3121.299
843.7383, 3141.670
844.2205, 3167.504
844.7026, 3167.917
845.1847, 3146.110
845.6668, 3131.967
846.1489, 3129.037
846.6310, 3127.537
847.1132, 3124.533
847.5953, 3125.126
848.0774, 3137.125
848.5595, 3152.589
849.0416, 3156.380
849.5237, 3144.521
850.0059, 3134.041
850.4880, 3124.958
850.9701, 3122.842
851.4522, 3136.347
851.9343, 3155.097
852.4164, 3170.009
852.8986, 3177.865
853.3807, 3172.362
853.8628, 3142.184
854.3449, 3112.392
854.8270, 3106.245
855.3091, 3115.065
855.7913, 3128.752
856.2734, 3144.505
856.7555, 3160.262
857.2376, 3175.147
857.7197, 3183.817
858.2018, 3176.302
858.6840, 3157.150
859.1661, 3140.808
859.6482, 3127.947
860.1303, 3130.230
860.6124, 3152.276
861.0945, 3172.231
861.5767, 3169.564
862.0588, 3150.181
862.5409, 3136.827
863.0230, 3129.765
863.5051, 3128.042
863.9872, 3133.643
864.4694, 3140.378
864.9515, 3148.021
865.4336, 3152.351
865.9157, 3143.198
866.3978, 3115.037
866.8799, 3103.158
867.3621, 3124.005
867.8442, 3138.664
868.3263, 3133.251
868.8084, 3123.438
869.2905, 3121.232
869.7726, 3125.803
870.2548, 3132.344
870.7369, 3145.669
871.2190, 3147.901
871.7011, 3117.486
872.1832, 3088.127
872.6653, 3087.164
873.1475, 3104.343
873.6296, 3121.261
874.1117, 3132.874
874.5938, 3140.292
875.0759, 3143.127
875.5580, 3143.226
876.0402, 3141.582
876.5223, 3138.973
877.0044, 3132.895
877.4865, 3126.196
877.9686, 3133.485
878.4507, 3164.204
878.9329, 3201.004
879.4150, 3222.295
879.8971, 3228.959
880.3792, 3219.717
880.8613, 3196.308
881.3434, 3174.447
881.8256, 3159.296
882.3077, 3153.199
882.7898, 3161.458
883.2719, 3178.270
883.7540, 3171.687
884.2361, 3135.934
884.7183, 3128.340
885.2004, 3165.349
885.6825, 3200.466
886.1646, 3206.510
886.6467, 3194.818
887.1288, 3186.280
887.6110, 3181.093
888.0931, 3178.252
888.5752, 3181.732
889.0573, 3180.843
889.5394, 3167.497
890.0215, 3153.615
890.5037, 3149.402
890.9858, 3153.158
891.4679, 3157.750
891.9500, 3166.042
892.4321, 3169.191
892.9142, 3157.625
893.3964, 3149.657
893.8785, 3156.716
894.3606, 3172.462
894.8427, 3192.146
895.3248, 3213.715
895.8069, 3221.145
896.2891, 3192.792
896.7712, 3166.768
897.2533, 3167.300
897.7354, 3178.733
898.2175, 3187.849
898.6996, 3191.681
899.1818, 3188.442
899.6639, 3177.076
900.1460, 3162.489
900.6281, 3141.692
901.1102, 3125.250
901.5923, 3131.738
902.0745, 3152.290
902.5566, 3164.718
903.0387, 3165.499
903.5208, 3169.229
904.0029, 3188.295
904.4850, 3210.209
904.9672, 3211.171
905.4493, 3197.902
905.9314, 3192.078
906.4135, 3195.069
906.8956, 3202.653
907.3777, 3213.210
907.8599, 3221.875
908.3420, 3222.338
908.8241, 3216.170
909.3062, 3210.082
909.7883, 3204.039
910.2704, 3199.194
910.7526, 3195.305
911.2347, 3196.557
911.7168, 3207.569
912.1990, 3220.932
912.6811, 3216.838
913.1632, 3189.173
913.6453, 3197.829
914.1274, 3265.825
914.6096, 3302.138
915.0917, 3265.491
915.5738, 3213.415
916.0559, 3201.076
916.5380, 3219.970
917.0201, 3220.063
917.5023, 3178.798
917.9844, 3162.131
918.4665, 3192.628
918.9486, 3220.782
919.4307, 3219.042
919.9128, 3208.512
920.3950, 3220.614
920.8771, 3256.265
921.3592, 3268.324
921.8413, 3230.495
922.3234, 3199.739
922.8055, 3187.345
923.2877, 3185.965
923.7698, 3196.420
924.2519, 3212.298
924.7340, 3220.688
925.2161, 3217.641
925.6982, 3221.133
926.1804, 3250.982
926.6625, 3272.671
927.1446, 3254.222
927.6267, 3227.921
928.1088, 3235.699
928.5909, 3269.639
929.0731, 3285.551
929.5552, 3261.137
930.0373, 3237.453
930.5194, 3245.233
931.0015, 3260.552
931.4836, 3261.868
931.9658, 3253.567
932.4479, 3241.755
932.9300, 3230.303
933.4121, 3229.396
933.8942, 3248.263
934.3763, 3274.151
934.8585, 3300.951
935.3406, 3322.276
935.8227, 3325.528
936.3048, 3314.060
936.7869, 3299.625
937.2690, 3286.688
937.7512, 3273.767
938.2333, 3254.991
938.7154, 3240.038
939.1975, 3254.164
939.6796, 3285.105
940.1617, 3296.877
940.6439, 3286.666
941.1260, 3271.221
941.6081, 3258.961
942.0902, 3249.749
942.5723, 3241.558
943.0544, 3236.465
943.5366, 3247.698
944.0187, 3271.855
944.5008, 3278.573
944.9829, 3261.843
945.4650, 3250.352
945.9471, 3266.150
946.4293, 3292.360
946.9114, 3294.737
947.3935, 3274.392
947.8756, 3244.819
948.3577, 3205.037
948.8398, 3188.703
949.3220, 3208.912
949.8041, 3236.330
950.2862, 3244.105
950.7683, 3237.665
951.2504, 3236.320
951.7325, 3240.798
952.2147, 3240.705
952.6968, 3230.824
953.1789, 3241.569
953.6610, 3294.510
954.1431, 3348.313
954.6252, 3348.920
955.1074, 3303.829
955.5895, 3286.636
956.0716, 3307.666
956.5537, 3319.517
957.0358, 3313.516
957.5179, 3307.639
958.0001, 3312.958
958.4822, 3320.937
958.9643, 3315.912
959.4464, 3296.544
959.9285, 3294.884
960.4106, 3323.540
960.8928, 3342.820
961.3749, 3345.891
961.8570, 3339.333
962.3391, 3322.339
962.8212, 3300.933
963.3033, 3286.632
963.7855, 3278.015
964.2676, 3283.371
964.7497, 3319.156
965.2318, 3343.682
965.7139, 3340.758
966.1960, 3331.494
966.6782, 3332.106
967.1603, 3338.219
967.6424, 3336.942
968.1245, 3324.607
968.6066, 3315.031
969.0887, 3303.019
969.5709, 3301.023
970.0530, 3326.660
970.5351, 3352.191
971.0172, 3344.957
971.4993, 3315.885
971.9814, 3311.872
972.4636, 3354.650
972.9457, 3382.958
973.4278, 3387.065
973.9099, 3378.310
974.3920, 3345.632
974.8741, 3313.463
975.3563, 3313.451
975.8384, 3340.111
976.3205, 3352.407
976.8026, 3333.885
977.2847, 3317.951
977.7668, 3311.563
978.2490, 3309.173
978.7311, 3304.971
979.2132, 3304.811
979.6953, 3322.456
980.1774, 3355.273
980.6595, 3371.639
981.1417, 3351.452
981.6238, 3333.006
982.1059, 3329.820
982.5880, 3328.795
983.0701, 3317.512
983.5522, 3305.026
984.0344, 3307.532
984.5165, 3325.989
984.9986, 3340.981
985.4807, 3353.755
985.9628, 3352.256
986.4449, 3308.340
986.9271, 3271.633
987.4092, 3294.825
987.8913, 3344.900
988.3734, 3358.021
988.8555, 3324.202
989.3376, 3301.380
989.8198, 3325.359
990.3019, 3345.958
990.7840, 3335.975
991.2661, 3318.602
991.7482, 3314.964
992.2303, 3318.706
992.7125, 3311.605
993.1946, 3289.825
993.6767, 3277.660
994.1588, 3294.649
994.6409, 3311.677
995.1230, 3308.978
995.6052, 3304.422
996.0873, 3319.117
996.5694, 3344.229
997.0515, 3358.695
997.5336, 3357.282
998.0157, 3348.626
998.4979, 3326.042
998.9800, 3309.800
999.4621, 3318.523
999.9442, 3332.522
1000.426, 3327.251
1000.908, 3312.075
1001.391, 3316.694
1001.873, 3350.697
1002.355, 3375.402
1002.837, 3364.760
1003.319, 3350.588
1003.801, 3347.707
1004.283, 3353.099
1004.765, 3368.431
1005.247, 3388.048
1005.730, 3400.056
1006.212, 3401.003
1006.694, 3397.001
1007.176, 3393.840
1007.658, 3382.894
1008.140, 3344.145
1008.622, 3307.078
1009.104, 3307.539
1009.587, 3334.937
1010.069, 3357.398
1010.551, 3367.334
1011.033, 3363.502
1011.515, 3327.088
1011.997, 3298.465
1012.479, 3307.728
1012.961, 3330.380
1013.443, 3343.327
1013.926, 3347.168
1014.408, 3351.437
1014.890, 3359.109
1015.372, 3363.164
1015.854, 3361.723
1016.336, 3354.786
1016.818, 3332.539
1017.300, 3312.717
1017.783, 3315.521
1018.265, 3335.087
1018.747, 3356.426
1019.229, 3380.144
1019.711, 3379.190
1020.193, 3310.771
1020.675, 3256.994
1021.157, 3272.640
1021.639, 3307.459
1022.122, 3319.677
1022.604, 3309.725
1023.086, 3286.465
1023.568, 3247.702
1024.050, 3221.014
1024.532, 3213.904
1025.014, 3221.392
1025.496, 3256.837
1025.979, 3292.525
1026.461, 3300.889
1026.943, 3291.272
1027.425, 3291.348
1027.907, 3308.716
1028.389, 3315.517
1028.871, 3285.309
1029.353, 3270.671
1029.835, 3308.516
1030.318, 3350.734
1030.800, 3355.224
1031.282, 3336.148
1031.764, 3329.747
1032.246, 3342.723
1032.728, 3350.235
1033.210, 3339.937
1033.692, 3336.288
1034.174, 3357.281
1034.657, 3375.340
1035.139, 3366.925
1035.621, 3343.316
1036.103, 3328.281
1036.585, 3324.656
1037.067, 3318.514
1037.549, 3297.614
1038.031, 3290.851
1038.514, 3321.448
1038.996, 3347.815
1039.478, 3339.031
1039.960, 3313.173
1040.442, 3301.484
1040.924, 3305.150
1041.406, 3311.988
1041.888, 3330.387
1042.370, 3336.470
1042.853, 3321.172
1043.335, 3301.317
1043.817, 3279.636
1044.299, 3264.707
1044.781, 3274.583
1045.263, 3310.091
1045.745, 3322.939
1046.227, 3304.659
1046.709, 3285.124
1047.192, 3266.995
1047.674, 3248.303
1048.156, 3223.362
1048.638, 3205.724
1049.120, 3217.659
1049.602, 3255.278
1050.084, 3273.271
1050.566, 3267.004
1051.049, 3260.185
1051.531, 3253.019
1052.013, 3254.059
1052.495, 3270.097
1052.977, 3286.007
1053.459, 3282.784
1053.941, 3265.907
1054.423, 3264.968
1054.906, 3282.180
1055.388, 3277.903
1055.870, 3246.881
1056.352, 3223.930
1056.834, 3222.516
1057.316, 3225.887
1057.798, 3216.935
1058.280, 3203.292
1058.762, 3210.615
1059.245, 3235.447
1059.727, 3241.312
1060.209, 3227.373
1060.691, 3205.313
1061.173, 3179.179
1061.655, 3173.814
1062.137, 3213.047
1062.619, 3263.924
1063.101, 3261.343
1063.584, 3221.312
1064.066, 3195.144
1064.548, 3182.365
1065.030, 3172.635
1065.512, 3163.472
1065.994, 3157.066
1066.476, 3155.137
1066.958, 3152.717
1067.441, 3138.768
1067.923, 3123.105
1068.405, 3127.184
1068.887, 3142.595
1069.369, 3148.250
1069.851, 3143.318
1070.333, 3140.320
1070.815, 3144.895
1071.297, 3152.328
1071.780, 3161.160
1072.262, 3168.115
1072.744, 3172.042
1073.226, 3170.380
1073.708, 3150.305
1074.190, 3122.911
1074.672, 3121.545
1075.154, 3155.525
1075.636, 3185.998
1076.119, 3188.593
1076.601, 3182.822
1077.083, 3177.392
1077.565, 3172.382
1078.047, 3167.657
1078.529, 3163.380
1079.011, 3160.773
1079.494, 3159.666
1079.976, 3155.695
1080.458, 3146.163
1080.940, 3135.451
1081.422, 3117.041
1081.904, 3106.565
1082.386, 3123.887
1082.868, 3147.521
1083.350, 3144.387
1083.833, 3118.470
1084.315, 3114.597
1084.797, 3163.077
1085.279, 3184.683
1085.761, 3153.653
1086.243, 3122.928
1086.725, 3104.794
1087.207, 3097.328
1087.689, 3100.594
1088.172, 3112.953
1088.654, 3132.172
1089.136, 3168.089
1089.618, 3164.772
1090.100, 3100.260
1090.582, 3058.046
1091.064, 3065.386
1091.546, 3074.692
1092.029, 3051.434
1092.511, 3016.298
1092.993, 3009.696
1093.475, 3029.974
1093.957, 3037.160
1094.439, 3030.688
1094.921, 3018.057
1095.403, 2999.365
1095.885, 2995.396
1096.368, 3017.563
1096.850, 3042.761
1097.332, 3042.312
1097.814, 3025.716
1098.296, 3024.371
1098.778, 3031.603
1099.260, 3010.370
1099.742, 2964.938
1100.224, 2936.684
1100.707, 2938.191
1101.189, 2954.132
1101.671, 2978.022
1102.153, 2993.300
1102.635, 2965.307
1103.117, 2922.470
1103.599, 2915.398
1104.081, 2929.344
1104.564, 2924.528
1105.046, 2899.526
1105.528, 2886.071
1106.010, 2901.162
1106.492, 2913.466
1106.974, 2895.171
1107.456, 2871.453
1107.938, 2858.538
1108.421, 2853.857
1108.903, 2858.434
1109.385, 2866.855
1109.867, 2867.410
1110.349, 2857.226
1110.831, 2844.543
1111.313, 2823.555
1111.795, 2811.935
1112.277, 2815.067
1112.760, 2829.274
1113.242, 2870.308
1113.724, 2910.761
1114.206, 2901.859
1114.688, 2845.399
1115.170, 2815.500
1115.652, 2830.121
1116.134, 2834.599
1116.616, 2818.160
1117.099, 2811.354
1117.581, 2831.734
1118.063, 2851.638
1118.545, 2846.440
1119.027, 2822.315
1119.509, 2794.571
1119.991, 2761.959
1120.473, 2744.187
1120.956, 2741.819
1121.438, 2750.053
1121.920, 2768.980
1122.402, 2778.449
1122.884, 2765.833
1123.366, 2747.083
1123.848, 2745.573
1124.330, 2754.918
1124.813, 2757.182
1125.295, 2753.477
1125.777, 2728.790
1126.259, 2754.665
1126.741, 2766.321
1127.223, 2764.517
1127.705, 2708.949
1128.187, 2722.807
1128.669, 2708.843
1129.151, 2693.736
1129.634, 2717.352
1130.116, 2669.605
1130.598, 2692.620
1131.080, 2687.389
1131.562, 2695.084
1132.044, 2674.787
1132.526, 2663.134
1133.008, 2679.486
1133.491, 2680.320
1133.973, 2656.798
1134.455, 2665.317
1134.937, 2616.591
1135.419, 2618.098
1135.901, 2640.541
1136.383, 2647.396
1136.865, 2629.350
1137.348, 2615.679
1137.830, 2602.645
1138.312, 2603.476
1138.794, 2632.785
1139.276, 2649.535
1139.758, 2628.175
1140.240, 2602.801
1140.722, 2611.564
1141.204, 2642.842
1141.687, 2653.604
1142.169, 2642.398
1142.651, 2630.474
1143.133, 2618.013
1143.615, 2612.607
1144.097, 2616.057
1144.579, 2620.275
1145.061, 2620.417
1145.543, 2617.711
1146.026, 2612.467
1146.508, 2606.575
1146.990, 2601.737
1147.472, 2600.838
1147.954, 2618.210
1148.436, 2646.058
1148.918, 2655.199
1149.400, 2638.218
1149.883, 2612.933
1150.365, 2581.644
1150.847, 2566.373
1151.329, 2600.277
1151.811, 2640.820
1152.293, 2656.973
1152.775, 2653.415
1153.257, 2627.681
1153.740, 2591.067
1154.222, 2579.156
1154.704, 2606.066
1155.186, 2625.163
1155.668, 2622.384
1156.150, 2619.714
1156.632, 2623.444
1157.114, 2627.238
1157.596, 2627.569
1158.078, 2626.011
1158.561, 2623.702
1159.043, 2621.355
1159.525, 2628.164
1160.007, 2648.104
1160.489, 2650.906
1160.971, 2633.533
1161.453, 2608.231
1161.935, 2577.713
1162.418, 2556.074
1162.900, 2554.889
1163.382, 2562.756
1163.864, 2556.366
1164.346, 2545.200
1164.828, 2566.767
1165.310, 2604.045
1165.792, 2601.549
1166.275, 2564.748
1166.757, 2541.103
1167.239, 2546.695
1167.721, 2560.128
1168.203, 2568.583
1168.685, 2576.928
1169.167, 2595.851
1169.649, 2609.121
1170.131, 2595.637
1170.614, 2572.257
1171.096, 2561.788
1171.578, 2563.681
1172.060, 2565.885
1172.542, 2568.496
1173.024, 2563.799
1173.506, 2540.894
1173.988, 2525.556
1174.470, 2519.683
1174.953, 2527.572
1175.435, 2560.923
1175.917, 2595.378
1176.399, 2596.140
1176.881, 2569.393
1177.363, 2551.724
1177.845, 2543.465
1178.327, 2531.180
1178.810, 2514.345
1179.292, 2511.732
1179.774, 2527.741
1180.256, 2548.164
1180.738, 2564.518
1181.220, 2572.278
1181.702, 2558.705
1182.184, 2537.845
1182.667, 2534.097
1183.149, 2538.897
1183.631, 2533.998
1184.113, 2525.217
1184.595, 2534.711
1185.077, 2564.886
1185.559, 2587.717
1186.041, 2591.017
1186.523, 2584.615
1187.005, 2560.807
1187.488, 2542.553
1187.970, 2545.619
1188.452, 2556.215
1188.934, 2563.192
1189.416, 2566.506
1189.898, 2567.486
1190.380, 2566.448
1190.862, 2557.325
1191.345, 2534.778
1191.827, 2525.583
1192.309, 2534.570
1192.791, 2548.004
1193.273, 2561.199
1193.755, 2573.029
1194.237, 2584.227
1194.719, 2587.251
1195.202, 2549.611
1195.684, 2497.757
1196.166, 2526.136
1196.648, 2601.941
1197.130, 2627.410
1197.612, 2600.368
1198.094, 2578.831
1198.576, 2583.347
1199.058, 2581.804
1199.541, 2539.746
1200.023, 2506.487
1200.505, 2521.681
1200.987, 2544.613
1201.469, 2546.531
1201.951, 2538.196
1202.433, 2533.752
1202.915, 2532.802
1203.397, 2528.210
1203.880, 2517.429
1204.362, 2514.847
1204.844, 2525.407
1205.326, 2508.056
1205.808, 2540.761
1206.290, 2559.243
1206.772, 2564.268
1207.254, 2515.527
1207.737, 2536.214
1208.219, 2529.077
1208.701, 2520.799
1209.183, 2551.257
1209.665, 2510.336
1210.147, 2540.179
1210.629, 2541.775
1211.111, 2556.299
1211.594, 2542.828
1212.076, 2529.163
1212.558, 2525.523
1213.040, 2534.489
1213.522, 2547.024
1214.004, 2565.813
1214.486, 2577.285
1214.968, 2563.017
1215.450, 2541.013
1215.932, 2534.537
1216.415, 2541.929
1216.897, 2550.360
1217.379, 2562.727
1217.861, 2558.729
1218.343, 2527.294
1218.825, 2516.779
1219.307, 2539.212
1219.789, 2560.475
1220.272, 2564.273
1220.754, 2568.089
1221.236, 2593.609
1221.718, 2620.892
1222.200, 2596.228
1222.682, 2544.871
1223.164, 2534.807
1223.646, 2554.707
1224.129, 2579.137
1224.611, 2597.145
1225.093, 2584.757
1225.575, 2535.346
1226.057, 2505.884
1226.539, 2546.076
1227.021, 2585.594
1227.503, 2598.215
1227.985, 2597.317
1228.468, 2600.313
1228.950, 2584.678
1229.432, 2473.931
1229.914, 2534.645
1230.396, 2581.142
1230.878, 2614.181
1231.360, 2593.446
1231.842, 2599.086
1232.324, 2583.364
1232.807, 2567.871
1233.289, 2540.594
1233.771, 2497.637
1234.253, 2474.708
1234.735, 2504.808
1235.217, 2545.696
1235.699, 2536.609
1236.181, 2505.065
1236.664, 2479.070
1237.146, 2466.120
1237.628, 2489.183
1238.110, 2528.914
1238.592, 2533.069
1239.074, 2495.719
1239.556, 2484.165
1240.038, 2547.677
1240.521, 2579.158
1241.003, 2531.378
1241.485, 2497.154
1241.967, 2506.009
1242.449, 2523.212
1242.931, 2529.339
1243.413, 2523.611
1243.895, 2499.423
1244.377, 2466.854
1244.859, 2483.485
1245.342, 2535.781
1245.824, 2536.778
1246.306, 2495.845
1246.788, 2483.760
1247.270, 2510.382
1247.752, 2534.073
1248.234, 2534.742
1248.716, 2532.348
1249.199, 2536.776
1249.681, 2548.519
1250.163, 2580.985
1250.645, 2606.774
1251.127, 2600.234
1251.609, 2578.011
1252.091, 2562.130
1252.573, 2550.335
1253.056, 2528.537
1253.538, 2491.803
1254.020, 2485.068
1254.502, 2515.460
1254.984, 2527.238
1255.466, 2511.640
1255.948, 2508.817
1256.430, 2534.193
1256.912, 2564.249
1257.395, 2581.077
1257.877, 2585.294
1258.359, 2568.563
1258.841, 2547.847
1259.323, 2544.773
1259.805, 2553.480
1260.287, 2574.012
1260.769, 2595.066
1261.251, 2590.537
1261.734, 2559.423
1262.216, 2544.738
1262.698, 2565.629
1263.180, 2581.394
##END=



