##NAMES=Mangani-obertiite
##RRUFFID=R141096
##IDEAL CHEMISTRY=NaNa_2_(Mg_3_Mn^3+^Ti^4+^)Si_8_O_22_O_2_
##LOCALITY=Caspar quarry, Bellerberg volcano, Mayen, Eifel, Germany
##OWNER=RRUFF
##SOURCE=Ch. and H. Sch√§fer
##DESCRIPTION=Acicular salmon-colored crystals, orthoclase, quartz, and allanite
##STATUS=The identification of this mineral has been confirmed only by single crystal X-ray diffraction.
##URL=rruff.info/R141096
8.813672e+001, 1.191557e+003
8.861884e+001, 1.205744e+003
8.910095e+001, 1.220391e+003
8.958307e+001, 1.240916e+003
9.006519e+001, 1.265461e+003
9.054730e+001, 1.288224e+003
9.102942e+001, 1.310197e+003
9.151154e+001, 1.330054e+003
9.199365e+001, 1.345987e+003
9.247577e+001, 1.358820e+003
9.295789e+001, 1.370746e+003
9.344000e+001, 1.383342e+003
9.392212e+001, 1.395091e+003
9.440424e+001, 1.405276e+003
9.488635e+001, 1.415557e+003
9.536847e+001, 1.426320e+003
9.585059e+001, 1.437317e+003
9.633270e+001, 1.448417e+003
9.681482e+001, 1.460106e+003
9.729694e+001, 1.472447e+003
9.777905e+001, 1.485462e+003
9.826117e+001, 1.499942e+003
9.874329e+001, 1.516473e+003
9.922540e+001, 1.534563e+003
9.970752e+001, 1.551341e+003
1.001896e+002, 1.566161e+003
1.006718e+002, 1.580352e+003
1.011539e+002, 1.595506e+003
1.016360e+002, 1.611942e+003
1.021181e+002, 1.628575e+003
1.026002e+002, 1.644763e+003
1.030823e+002, 1.660234e+003
1.035645e+002, 1.677101e+003
1.040466e+002, 1.696166e+003
1.045287e+002, 1.716303e+003
1.050108e+002, 1.735888e+003
1.054929e+002, 1.754650e+003
1.059750e+002, 1.773366e+003
1.064572e+002, 1.792466e+003
1.069393e+002, 1.813695e+003
1.074214e+002, 1.832521e+003
1.079035e+002, 1.848293e+003
1.083856e+002, 1.861883e+003
1.088677e+002, 1.875467e+003
1.093499e+002, 1.888709e+003
1.098320e+002, 1.902534e+003
1.103141e+002, 1.917326e+003
1.107962e+002, 1.934781e+003
1.112783e+002, 1.951674e+003
1.117604e+002, 1.967716e+003
1.122426e+002, 1.983159e+003
1.127247e+002, 1.998484e+003
1.132068e+002, 2.013187e+003
1.136889e+002, 2.028161e+003
1.141710e+002, 2.043866e+003
1.146531e+002, 2.062026e+003
1.151353e+002, 2.079293e+003
1.156174e+002, 2.094519e+003
1.160995e+002, 2.107599e+003
1.165816e+002, 2.120830e+003
1.170637e+002, 2.135345e+003
1.175458e+002, 2.150223e+003
1.180280e+002, 2.164659e+003
1.185101e+002, 2.177022e+003
1.189922e+002, 2.189594e+003
1.194743e+002, 2.203657e+003
1.199564e+002, 2.219426e+003
1.204385e+002, 2.235701e+003
1.209207e+002, 2.251550e+003
1.214028e+002, 2.267356e+003
1.218849e+002, 2.283757e+003
1.223670e+002, 2.302740e+003
1.228491e+002, 2.321918e+003
1.233312e+002, 2.338286e+003
1.238134e+002, 2.351067e+003
1.242955e+002, 2.363037e+003
1.247776e+002, 2.376629e+003
1.252597e+002, 2.391553e+003
1.257418e+002, 2.406825e+003
1.262239e+002, 2.421556e+003
1.267061e+002, 2.436402e+003
1.271882e+002, 2.452196e+003
1.276703e+002, 2.469475e+003
1.281524e+002, 2.487418e+003
1.286345e+002, 2.504739e+003
1.291166e+002, 2.521510e+003
1.295988e+002, 2.538604e+003
1.300809e+002, 2.557136e+003
1.305630e+002, 2.576650e+003
1.310451e+002, 2.595280e+003
1.315272e+002, 2.612156e+003
1.320093e+002, 2.627962e+003
1.324915e+002, 2.644523e+003
1.329736e+002, 2.661824e+003
1.334557e+002, 2.679482e+003
1.339378e+002, 2.697028e+003
1.344199e+002, 2.714457e+003
1.349020e+002, 2.731528e+003
1.353842e+002, 2.748339e+003
1.358663e+002, 2.764442e+003
1.363484e+002, 2.779145e+003
1.368305e+002, 2.791901e+003
1.373126e+002, 2.804459e+003
1.377947e+002, 2.819083e+003
1.382769e+002, 2.836501e+003
1.387590e+002, 2.852344e+003
1.392411e+002, 2.865375e+003
1.397232e+002, 2.875706e+003
1.402053e+002, 2.883506e+003
1.406874e+002, 2.888226e+003
1.411696e+002, 2.891435e+003
1.416517e+002, 2.895236e+003
1.421338e+002, 2.900257e+003
1.426159e+002, 2.904867e+003
1.430980e+002, 2.908715e+003
1.435801e+002, 2.911796e+003
1.440623e+002, 2.914625e+003
1.445444e+002, 2.917123e+003
1.450265e+002, 2.919643e+003
1.455086e+002, 2.922713e+003
1.459907e+002, 2.926983e+003
1.464728e+002, 2.931192e+003
1.469550e+002, 2.935083e+003
1.474371e+002, 2.938867e+003
1.479192e+002, 2.941864e+003
1.484013e+002, 2.943281e+003
1.488834e+002, 2.943988e+003
1.493655e+002, 2.945909e+003
1.498477e+002, 2.948724e+003
1.503298e+002, 2.952994e+003
1.508119e+002, 2.959146e+003
1.512940e+002, 2.971064e+003
1.517761e+002, 2.979111e+003
1.522583e+002, 2.980188e+003
1.527404e+002, 2.976732e+003
1.532225e+002, 2.975656e+003
1.537046e+002, 2.978930e+003
1.541867e+002, 2.983676e+003
1.546688e+002, 2.988630e+003
1.551510e+002, 2.995179e+003
1.556331e+002, 3.000159e+003
1.561152e+002, 3.002207e+003
1.565973e+002, 3.002038e+003
1.570794e+002, 3.002387e+003
1.575615e+002, 3.003993e+003
1.580437e+002, 3.006242e+003
1.585258e+002, 3.008763e+003
1.590079e+002, 3.011762e+003
1.594900e+002, 3.014743e+003
1.599721e+002, 3.018041e+003
1.604542e+002, 3.021442e+003
1.609364e+002, 3.023665e+003
1.614185e+002, 3.023506e+003
1.619006e+002, 3.022339e+003
1.623827e+002, 3.021266e+003
1.628648e+002, 3.020206e+003
1.633469e+002, 3.019646e+003
1.638291e+002, 3.019900e+003
1.643112e+002, 3.020921e+003
1.647933e+002, 3.022238e+003
1.652754e+002, 3.023772e+003
1.657575e+002, 3.025426e+003
1.662396e+002, 3.027094e+003
1.667218e+002, 3.028741e+003
1.672039e+002, 3.030386e+003
1.676860e+002, 3.031959e+003
1.681681e+002, 3.033462e+003
1.686502e+002, 3.035227e+003
1.691323e+002, 3.037147e+003
1.696145e+002, 3.039515e+003
1.700966e+002, 3.042718e+003
1.705787e+002, 3.048210e+003
1.710608e+002, 3.053839e+003
1.715429e+002, 3.057554e+003
1.720250e+002, 3.059288e+003
1.725072e+002, 3.060496e+003
1.729893e+002, 3.061740e+003
1.734714e+002, 3.063323e+003
1.739535e+002, 3.065792e+003
1.744356e+002, 3.070585e+003
1.749177e+002, 3.075860e+003
1.753999e+002, 3.079256e+003
1.758820e+002, 3.080566e+003
1.763641e+002, 3.081366e+003
1.768462e+002, 3.083217e+003
1.773283e+002, 3.085714e+003
1.778104e+002, 3.087862e+003
1.782926e+002, 3.088472e+003
1.787747e+002, 3.088538e+003
1.792568e+002, 3.089994e+003
1.797389e+002, 3.093078e+003
1.802210e+002, 3.096249e+003
1.807031e+002, 3.097587e+003
1.811853e+002, 3.097437e+003
1.816674e+002, 3.097028e+003
1.821495e+002, 3.096670e+003
1.826316e+002, 3.096532e+003
1.831137e+002, 3.097338e+003
1.835958e+002, 3.099421e+003
1.840780e+002, 3.101450e+003
1.845601e+002, 3.101250e+003
1.850422e+002, 3.099212e+003
1.855243e+002, 3.097646e+003
1.860064e+002, 3.098207e+003
1.864885e+002, 3.100378e+003
1.869707e+002, 3.102188e+003
1.874528e+002, 3.103529e+003
1.879349e+002, 3.104638e+003
1.884170e+002, 3.105506e+003
1.888991e+002, 3.106192e+003
1.893812e+002, 3.107703e+003
1.898634e+002, 3.111314e+003
1.903455e+002, 3.116522e+003
1.908276e+002, 3.120133e+003
1.913097e+002, 3.121591e+003
1.917918e+002, 3.122105e+003
1.922739e+002, 3.123765e+003
1.927561e+002, 3.126593e+003
1.932382e+002, 3.129678e+003
1.937203e+002, 3.132609e+003
1.942024e+002, 3.135356e+003
1.946845e+002, 3.137875e+003
1.951666e+002, 3.140011e+003
1.956488e+002, 3.142107e+003
1.961309e+002, 3.144942e+003
1.966130e+002, 3.148651e+003
1.970951e+002, 3.152404e+003
1.975772e+002, 3.155962e+003
1.980593e+002, 3.159344e+003
1.985415e+002, 3.161867e+003
1.990236e+002, 3.163147e+003
1.995057e+002, 3.163984e+003
1.999878e+002, 3.166367e+003
2.004699e+002, 3.170601e+003
2.009520e+002, 3.174889e+003
2.014342e+002, 3.177969e+003
2.019163e+002, 3.179710e+003
2.023984e+002, 3.182030e+003
2.028805e+002, 3.185145e+003
2.033626e+002, 3.188813e+003
2.038447e+002, 3.192696e+003
2.043269e+002, 3.197043e+003
2.048090e+002, 3.200665e+003
2.052911e+002, 3.202302e+003
2.057732e+002, 3.201423e+003
2.062553e+002, 3.202415e+003
2.067374e+002, 3.206284e+003
2.072196e+002, 3.211711e+003
2.077017e+002, 3.214712e+003
2.081838e+002, 3.214346e+003
2.086659e+002, 3.214181e+003
2.091480e+002, 3.216304e+003
2.096301e+002, 3.221171e+003
2.101123e+002, 3.226530e+003
2.105944e+002, 3.232711e+003
2.110765e+002, 3.239131e+003
2.115586e+002, 3.243848e+003
2.120407e+002, 3.246140e+003
2.125228e+002, 3.248390e+003
2.130050e+002, 3.252028e+003
2.134871e+002, 3.257499e+003
2.139692e+002, 3.262628e+003
2.144513e+002, 3.267362e+003
2.149334e+002, 3.271608e+003
2.154155e+002, 3.275116e+003
2.158977e+002, 3.277433e+003
2.163798e+002, 3.279811e+003
2.168619e+002, 3.282960e+003
2.173440e+002, 3.287157e+003
2.178261e+002, 3.290999e+003
2.183082e+002, 3.293980e+003
2.187904e+002, 3.296618e+003
2.192725e+002, 3.300714e+003
2.197546e+002, 3.307060e+003
2.202367e+002, 3.313367e+003
2.207188e+002, 3.318327e+003
2.212009e+002, 3.321455e+003
2.216831e+002, 3.324816e+003
2.221652e+002, 3.328795e+003
2.226473e+002, 3.333045e+003
2.231294e+002, 3.336207e+003
2.236115e+002, 3.337594e+003
2.240936e+002, 3.339236e+003
2.245758e+002, 3.342429e+003
2.250579e+002, 3.348501e+003
2.255400e+002, 3.352886e+003
2.260221e+002, 3.355048e+003
2.265042e+002, 3.355659e+003
2.269863e+002, 3.356336e+003
2.274685e+002, 3.356781e+003
2.279506e+002, 3.357778e+003
2.284327e+002, 3.359906e+003
2.289148e+002, 3.364356e+003
2.293969e+002, 3.366982e+003
2.298790e+002, 3.366612e+003
2.303612e+002, 3.364678e+003
2.308433e+002, 3.365016e+003
2.313254e+002, 3.368979e+003
2.318075e+002, 3.373065e+003
2.322896e+002, 3.375633e+003
2.327717e+002, 3.375683e+003
2.332539e+002, 3.376602e+003
2.337360e+002, 3.378915e+003
2.342181e+002, 3.381833e+003
2.347002e+002, 3.383647e+003
2.351823e+002, 3.384288e+003
2.356644e+002, 3.383785e+003
2.361466e+002, 3.381666e+003
2.366287e+002, 3.376301e+003
2.371108e+002, 3.373900e+003
2.375929e+002, 3.376213e+003
2.380750e+002, 3.380784e+003
2.385571e+002, 3.382289e+003
2.390393e+002, 3.378469e+003
2.395214e+002, 3.375211e+003
2.400035e+002, 3.374977e+003
2.404856e+002, 3.379294e+003
2.409677e+002, 3.382098e+003
2.414498e+002, 3.382766e+003
2.419320e+002, 3.382351e+003
2.424141e+002, 3.382704e+003
2.428962e+002, 3.384174e+003
2.433783e+002, 3.385999e+003
2.438604e+002, 3.387986e+003
2.443425e+002, 3.390191e+003
2.448247e+002, 3.392806e+003
2.453068e+002, 3.397382e+003
2.457889e+002, 3.401442e+003
2.462710e+002, 3.400534e+003
2.467531e+002, 3.391071e+003
2.472352e+002, 3.382731e+003
2.477174e+002, 3.378456e+003
2.481995e+002, 3.378824e+003
2.486816e+002, 3.380448e+003
2.491637e+002, 3.384036e+003
2.496458e+002, 3.388279e+003
2.501279e+002, 3.391227e+003
2.506101e+002, 3.392191e+003
2.510922e+002, 3.393088e+003
2.515743e+002, 3.394207e+003
2.520564e+002, 3.395413e+003
2.525385e+002, 3.398060e+003
2.530206e+002, 3.403546e+003
2.535028e+002, 3.409208e+003
2.539849e+002, 3.411319e+003
2.544670e+002, 3.407785e+003
2.549491e+002, 3.405313e+003
2.554312e+002, 3.405924e+003
2.559133e+002, 3.409859e+003
2.563955e+002, 3.412427e+003
2.568776e+002, 3.412793e+003
2.573597e+002, 3.412728e+003
2.578418e+002, 3.414344e+003
2.583239e+002, 3.418815e+003
2.588061e+002, 3.422095e+003
2.592882e+002, 3.423006e+003
2.597703e+002, 3.421587e+003
2.602524e+002, 3.421019e+003
2.607345e+002, 3.421417e+003
2.612166e+002, 3.422497e+003
2.616988e+002, 3.424077e+003
2.621809e+002, 3.426226e+003
2.626630e+002, 3.428680e+003
2.631451e+002, 3.431606e+003
2.636272e+002, 3.434913e+003
2.641093e+002, 3.437153e+003
2.645915e+002, 3.437591e+003
2.650736e+002, 3.438360e+003
2.655557e+002, 3.442014e+003
2.660378e+002, 3.450309e+003
2.665199e+002, 3.454838e+003
2.670020e+002, 3.453010e+003
2.674842e+002, 3.446496e+003
2.679663e+002, 3.444092e+003
2.684484e+002, 3.446948e+003
2.689305e+002, 3.451211e+003
2.694126e+002, 3.454152e+003
2.698947e+002, 3.455345e+003
2.703769e+002, 3.457121e+003
2.708590e+002, 3.459687e+003
2.713411e+002, 3.462977e+003
2.718232e+002, 3.466996e+003
2.723053e+002, 3.472134e+003
2.727874e+002, 3.476747e+003
2.732696e+002, 3.479638e+003
2.737517e+002, 3.480462e+003
2.742338e+002, 3.481771e+003
2.747159e+002, 3.483909e+003
2.751980e+002, 3.486458e+003
2.756801e+002, 3.488146e+003
2.761623e+002, 3.488673e+003
2.766444e+002, 3.489793e+003
2.771265e+002, 3.492700e+003
2.776086e+002, 3.497626e+003
2.780907e+002, 3.502184e+003
2.785728e+002, 3.506521e+003
2.790550e+002, 3.510233e+003
2.795371e+002, 3.512386e+003
2.800192e+002, 3.512835e+003
2.805013e+002, 3.512904e+003
2.809834e+002, 3.512553e+003
2.814655e+002, 3.511828e+003
2.819477e+002, 3.513571e+003
2.824298e+002, 3.518226e+003
2.829119e+002, 3.524008e+003
2.833940e+002, 3.528578e+003
2.838761e+002, 3.531876e+003
2.843582e+002, 3.534543e+003
2.848404e+002, 3.536375e+003
2.853225e+002, 3.537596e+003
2.858046e+002, 3.539954e+003
2.862867e+002, 3.543582e+003
2.867688e+002, 3.547495e+003
2.872509e+002, 3.551248e+003
2.877331e+002, 3.554722e+003
2.882152e+002, 3.556021e+003
2.886973e+002, 3.553594e+003
2.891794e+002, 3.548862e+003
2.896615e+002, 3.546461e+003
2.901436e+002, 3.546520e+003
2.906258e+002, 3.547708e+003
2.911079e+002, 3.549802e+003
2.915900e+002, 3.552407e+003
2.920721e+002, 3.552852e+003
2.925542e+002, 3.549339e+003
2.930363e+002, 3.544404e+003
2.935185e+002, 3.543378e+003
2.940006e+002, 3.546255e+003
2.944827e+002, 3.550635e+003
2.949648e+002, 3.555802e+003
2.954469e+002, 3.561177e+003
2.959290e+002, 3.564618e+003
2.964112e+002, 3.565128e+003
2.968933e+002, 3.564561e+003
2.973754e+002, 3.565473e+003
2.978575e+002, 3.567745e+003
2.983396e+002, 3.570892e+003
2.988217e+002, 3.575234e+003
2.993039e+002, 3.580091e+003
2.997860e+002, 3.584024e+003
3.002681e+002, 3.586786e+003
3.007502e+002, 3.588793e+003
3.012323e+002, 3.589897e+003
3.017144e+002, 3.590465e+003
3.021966e+002, 3.591726e+003
3.026787e+002, 3.595071e+003
3.031608e+002, 3.599222e+003
3.036429e+002, 3.602647e+003
3.041250e+002, 3.605222e+003
3.046071e+002, 3.606892e+003
3.050893e+002, 3.606754e+003
3.055714e+002, 3.605649e+003
3.060535e+002, 3.605337e+003
3.065356e+002, 3.607942e+003
3.070177e+002, 3.610915e+003
3.074998e+002, 3.611387e+003
3.079820e+002, 3.609290e+003
3.084641e+002, 3.607147e+003
3.089462e+002, 3.606564e+003
3.094283e+002, 3.607119e+003
3.099104e+002, 3.608257e+003
3.103925e+002, 3.610824e+003
3.108747e+002, 3.613133e+003
3.113568e+002, 3.613550e+003
3.118389e+002, 3.612378e+003
3.123210e+002, 3.611712e+003
3.128031e+002, 3.612574e+003
3.132852e+002, 3.614566e+003
3.137674e+002, 3.617414e+003
3.142495e+002, 3.621950e+003
3.147316e+002, 3.626093e+003
3.152137e+002, 3.628543e+003
3.156958e+002, 3.629649e+003
3.161779e+002, 3.630616e+003
3.166601e+002, 3.631538e+003
3.171422e+002, 3.632687e+003
3.176243e+002, 3.634135e+003
3.181064e+002, 3.635548e+003
3.185885e+002, 3.637850e+003
3.190706e+002, 3.642260e+003
3.195528e+002, 3.647678e+003
3.200349e+002, 3.652004e+003
3.205170e+002, 3.653792e+003
3.209991e+002, 3.655029e+003
3.214812e+002, 3.656454e+003
3.219633e+002, 3.658095e+003
3.224455e+002, 3.660108e+003
3.229276e+002, 3.663047e+003
3.234097e+002, 3.666232e+003
3.238918e+002, 3.668836e+003
3.243739e+002, 3.670136e+003
3.248560e+002, 3.671485e+003
3.253382e+002, 3.673177e+003
3.258203e+002, 3.675252e+003
3.263024e+002, 3.677778e+003
3.267845e+002, 3.682303e+003
3.272666e+002, 3.686520e+003
3.277487e+002, 3.688578e+003
3.282309e+002, 3.685889e+003
3.287130e+002, 3.684081e+003
3.291951e+002, 3.683864e+003
3.296772e+002, 3.685112e+003
3.301593e+002, 3.686527e+003
3.306414e+002, 3.687701e+003
3.311236e+002, 3.689366e+003
3.316057e+002, 3.691974e+003
3.320878e+002, 3.696189e+003
3.325699e+002, 3.700075e+003
3.330520e+002, 3.703603e+003
3.335341e+002, 3.706668e+003
3.340163e+002, 3.708879e+003
3.344984e+002, 3.709625e+003
3.349805e+002, 3.710456e+003
3.354626e+002, 3.712196e+003
3.359447e+002, 3.715358e+003
3.364268e+002, 3.717440e+003
3.369090e+002, 3.718162e+003
3.373911e+002, 3.718171e+003
3.378732e+002, 3.718393e+003
3.383553e+002, 3.718827e+003
3.388374e+002, 3.719633e+003
3.393195e+002, 3.720954e+003
3.398017e+002, 3.722793e+003
3.402838e+002, 3.724942e+003
3.407659e+002, 3.727717e+003
3.412480e+002, 3.730120e+003
3.417301e+002, 3.730742e+003
3.422122e+002, 3.729417e+003
3.426944e+002, 3.728718e+003
3.431765e+002, 3.729098e+003
3.436586e+002, 3.730534e+003
3.441407e+002, 3.733478e+003
3.446228e+002, 3.738058e+003
3.451049e+002, 3.742305e+003
3.455871e+002, 3.744093e+003
3.460692e+002, 3.743880e+003
3.465513e+002, 3.744805e+003
3.470334e+002, 3.747483e+003
3.475155e+002, 3.751017e+003
3.479977e+002, 3.754025e+003
3.484798e+002, 3.756552e+003
3.489619e+002, 3.758801e+003
3.494440e+002, 3.760588e+003
3.499261e+002, 3.762219e+003
3.504082e+002, 3.764559e+003
3.508904e+002, 3.767776e+003
3.513725e+002, 3.770994e+003
3.518546e+002, 3.772945e+003
3.523367e+002, 3.774155e+003
3.528188e+002, 3.776020e+003
3.533009e+002, 3.780113e+003
3.537831e+002, 3.784664e+003
3.542652e+002, 3.787075e+003
3.547473e+002, 3.787458e+003
3.552294e+002, 3.788332e+003
3.557115e+002, 3.792264e+003
3.561936e+002, 3.797567e+003
3.566758e+002, 3.801981e+003
3.571579e+002, 3.804369e+003
3.576400e+002, 3.806377e+003
3.581221e+002, 3.809446e+003
3.586042e+002, 3.813208e+003
3.590863e+002, 3.816404e+003
3.595685e+002, 3.817706e+003
3.600506e+002, 3.818662e+003
3.605327e+002, 3.820456e+003
3.610148e+002, 3.823515e+003
3.614969e+002, 3.826873e+003
3.619790e+002, 3.830572e+003
3.624612e+002, 3.834242e+003
3.629433e+002, 3.837311e+003
3.634254e+002, 3.838423e+003
3.639075e+002, 3.839894e+003
3.643896e+002, 3.842681e+003
3.648717e+002, 3.846931e+003
3.653539e+002, 3.851639e+003
3.658360e+002, 3.858188e+003
3.663181e+002, 3.864275e+003
3.668002e+002, 3.867948e+003
3.672823e+002, 3.866466e+003
3.677644e+002, 3.865269e+003
3.682466e+002, 3.865027e+003
3.687287e+002, 3.865717e+003
3.692108e+002, 3.867020e+003
3.696929e+002, 3.871034e+003
3.701750e+002, 3.873853e+003
3.706571e+002, 3.873289e+003
3.711393e+002, 3.866165e+003
3.716214e+002, 3.861336e+003
3.721035e+002, 3.859911e+003
3.725856e+002, 3.860488e+003
3.730677e+002, 3.859771e+003
3.735498e+002, 3.856916e+003
3.740320e+002, 3.854422e+003
3.745141e+002, 3.853198e+003
3.749962e+002, 3.853328e+003
3.754783e+002, 3.854344e+003
3.759604e+002, 3.856925e+003
3.764425e+002, 3.859277e+003
3.769247e+002, 3.858679e+003
3.774068e+002, 3.854494e+003
3.778889e+002, 3.851415e+003
3.783710e+002, 3.851129e+003
3.788531e+002, 3.852742e+003
3.793352e+002, 3.852126e+003
3.798174e+002, 3.848960e+003
3.802995e+002, 3.845754e+003
3.807816e+002, 3.844698e+003
3.812637e+002, 3.845542e+003
3.817458e+002, 3.846261e+003
3.822279e+002, 3.846527e+003
3.827101e+002, 3.846699e+003
3.831922e+002, 3.847434e+003
3.836743e+002, 3.848673e+003
3.841564e+002, 3.849914e+003
3.846385e+002, 3.850949e+003
3.851206e+002, 3.851806e+003
3.856028e+002, 3.852156e+003
3.860849e+002, 3.851872e+003
3.865670e+002, 3.852471e+003
3.870491e+002, 3.856386e+003
3.875312e+002, 3.862147e+003
3.880133e+002, 3.866849e+003
3.884955e+002, 3.868777e+003
3.889776e+002, 3.869716e+003
3.894597e+002, 3.871283e+003
3.899418e+002, 3.873328e+003
3.904239e+002, 3.875015e+003
3.909060e+002, 3.875393e+003
3.913882e+002, 3.875417e+003
3.918703e+002, 3.876080e+003
3.923524e+002, 3.878089e+003
3.928345e+002, 3.879694e+003
3.933166e+002, 3.878998e+003
3.937987e+002, 3.877349e+003
3.942809e+002, 3.877448e+003
3.947630e+002, 3.881688e+003
3.952451e+002, 3.886529e+003
3.957272e+002, 3.890361e+003
3.962093e+002, 3.892790e+003
3.966914e+002, 3.895691e+003
3.971736e+002, 3.900971e+003
3.976557e+002, 3.906116e+003
3.981378e+002, 3.908817e+003
3.986199e+002, 3.905665e+003
3.991020e+002, 3.903541e+003
3.995841e+002, 3.903786e+003
4.000663e+002, 3.905976e+003
4.005484e+002, 3.907305e+003
4.010305e+002, 3.906787e+003
4.015126e+002, 3.906490e+003
4.019947e+002, 3.907719e+003
4.024768e+002, 3.912159e+003
4.029590e+002, 3.914097e+003
4.034411e+002, 3.912623e+003
4.039232e+002, 3.909436e+003
4.044053e+002, 3.907547e+003
4.048874e+002, 3.907416e+003
4.053695e+002, 3.907375e+003
4.058517e+002, 3.906651e+003
4.063338e+002, 3.905414e+003
4.068159e+002, 3.905978e+003
4.072980e+002, 3.908739e+003
4.077801e+002, 3.912024e+003
4.082622e+002, 3.913648e+003
4.087444e+002, 3.913747e+003
4.092265e+002, 3.915763e+003
4.097086e+002, 3.920713e+003
4.101907e+002, 3.927363e+003
4.106728e+002, 3.934473e+003
4.111549e+002, 3.941770e+003
4.116371e+002, 3.946199e+003
4.121192e+002, 3.942958e+003
4.126013e+002, 3.935827e+003
4.130834e+002, 3.933486e+003
4.135655e+002, 3.936946e+003
4.140476e+002, 3.942297e+003
4.145298e+002, 3.947107e+003
4.150119e+002, 3.950951e+003
4.154940e+002, 3.953086e+003
4.159761e+002, 3.952429e+003
4.164582e+002, 3.950511e+003
4.169403e+002, 3.947813e+003
4.174225e+002, 3.944648e+003
4.179046e+002, 3.942941e+003
4.183867e+002, 3.945065e+003
4.188688e+002, 3.948505e+003
4.193509e+002, 3.951300e+003
4.198330e+002, 3.953356e+003
4.203152e+002, 3.954258e+003
4.207973e+002, 3.952925e+003
4.212794e+002, 3.950499e+003
4.217615e+002, 3.949031e+003
4.222436e+002, 3.950402e+003
4.227257e+002, 3.951616e+003
4.232079e+002, 3.951333e+003
4.236900e+002, 3.949198e+003
4.241721e+002, 3.948184e+003
4.246542e+002, 3.948495e+003
4.251363e+002, 3.950019e+003
4.256184e+002, 3.952755e+003
4.261006e+002, 3.957564e+003
4.265827e+002, 3.962122e+003
4.270648e+002, 3.966463e+003
4.275469e+002, 3.970353e+003
4.280290e+002, 3.972887e+003
4.285111e+002, 3.973695e+003
4.289933e+002, 3.973667e+003
4.294754e+002, 3.972669e+003
4.299575e+002, 3.970242e+003
4.304396e+002, 3.970041e+003
4.309217e+002, 3.972495e+003
4.314038e+002, 3.976109e+003
4.318860e+002, 3.979584e+003
4.323681e+002, 3.982992e+003
4.328502e+002, 3.984346e+003
4.333323e+002, 3.982508e+003
4.338144e+002, 3.978780e+003
4.342965e+002, 3.976684e+003
4.347787e+002, 3.976256e+003
4.352608e+002, 3.976135e+003
4.357429e+002, 3.975045e+003
4.362250e+002, 3.973628e+003
4.367071e+002, 3.973695e+003
4.371892e+002, 3.975796e+003
4.376714e+002, 3.978152e+003
4.381535e+002, 3.978044e+003
4.386356e+002, 3.976729e+003
4.391177e+002, 3.976957e+003
4.395998e+002, 3.982250e+003
4.400819e+002, 3.987935e+003
4.405641e+002, 3.989417e+003
4.410462e+002, 3.987004e+003
4.415283e+002, 3.984792e+003
4.420104e+002, 3.984304e+003
4.424925e+002, 3.985294e+003
4.429746e+002, 3.987611e+003
4.434568e+002, 3.991458e+003
4.439389e+002, 3.996067e+003
4.444210e+002, 4.002789e+003
4.449031e+002, 4.009933e+003
4.453852e+002, 4.014307e+003
4.458673e+002, 4.013333e+003
4.463495e+002, 4.011345e+003
4.468316e+002, 4.009393e+003
4.473137e+002, 4.007484e+003
4.477958e+002, 4.006149e+003
4.482779e+002, 4.005792e+003
4.487600e+002, 4.005793e+003
4.492422e+002, 4.005582e+003
4.497243e+002, 4.004377e+003
4.502064e+002, 4.004832e+003
4.506885e+002, 4.007768e+003
4.511706e+002, 4.012229e+003
4.516527e+002, 4.015537e+003
4.521349e+002, 4.017520e+003
4.526170e+002, 4.018934e+003
4.530991e+002, 4.019631e+003
4.535812e+002, 4.019675e+003
4.540633e+002, 4.021374e+003
4.545454e+002, 4.024897e+003
4.550276e+002, 4.029097e+003
4.555097e+002, 4.033195e+003
4.559918e+002, 4.037045e+003
4.564739e+002, 4.039551e+003
4.569560e+002, 4.040132e+003
4.574381e+002, 4.039757e+003
4.579203e+002, 4.039347e+003
4.584024e+002, 4.039128e+003
4.588845e+002, 4.040164e+003
4.593666e+002, 4.044400e+003
4.598488e+002, 4.049672e+003
4.603309e+002, 4.053347e+003
4.608130e+002, 4.055168e+003
4.612951e+002, 4.055997e+003
4.617772e+002, 4.055582e+003
4.622593e+002, 4.054798e+003
4.627415e+002, 4.054684e+003
4.632236e+002, 4.056172e+003
4.637057e+002, 4.057822e+003
4.641878e+002, 4.059542e+003
4.646699e+002, 4.061090e+003
4.651520e+002, 4.061597e+003
4.656342e+002, 4.059209e+003
4.661163e+002, 4.057117e+003
4.665984e+002, 4.056879e+003
4.670805e+002, 4.059451e+003
4.675626e+002, 4.061520e+003
4.680447e+002, 4.062857e+003
4.685269e+002, 4.063772e+003
4.690090e+002, 4.064482e+003
4.694911e+002, 4.064412e+003
4.699732e+002, 4.065244e+003
4.704553e+002, 4.067421e+003
4.709374e+002, 4.070629e+003
4.714196e+002, 4.073677e+003
4.719017e+002, 4.076488e+003
4.723838e+002, 4.079153e+003
4.728659e+002, 4.081932e+003
4.733480e+002, 4.084796e+003
4.738301e+002, 4.085930e+003
4.743123e+002, 4.084785e+003
4.747944e+002, 4.083799e+003
4.752765e+002, 4.087261e+003
4.757586e+002, 4.094026e+003
4.762407e+002, 4.097982e+003
4.767228e+002, 4.096162e+003
4.772050e+002, 4.091875e+003
4.776871e+002, 4.090327e+003
4.781692e+002, 4.091028e+003
4.786513e+002, 4.091553e+003
4.791334e+002, 4.089547e+003
4.796155e+002, 4.087094e+003
4.800977e+002, 4.086737e+003
4.805798e+002, 4.089067e+003
4.810619e+002, 4.091512e+003
4.815440e+002, 4.092982e+003
4.820261e+002, 4.093582e+003
4.825082e+002, 4.093429e+003
4.829904e+002, 4.090376e+003
4.834725e+002, 4.088877e+003
4.839546e+002, 4.091137e+003
4.844367e+002, 4.096341e+003
4.849188e+002, 4.100851e+003
4.854009e+002, 4.102947e+003
4.858831e+002, 4.105236e+003
4.863652e+002, 4.108860e+003
4.868473e+002, 4.114245e+003
4.873294e+002, 4.118997e+003
4.878115e+002, 4.122925e+003
4.882936e+002, 4.126250e+003
4.887758e+002, 4.129314e+003
4.892579e+002, 4.132272e+003
4.897400e+002, 4.134205e+003
4.902221e+002, 4.134643e+003
4.907042e+002, 4.134112e+003
4.911863e+002, 4.134151e+003
4.916685e+002, 4.134794e+003
4.921506e+002, 4.135808e+003
4.926327e+002, 4.137726e+003
4.931148e+002, 4.140131e+003
4.935969e+002, 4.140131e+003
4.940790e+002, 4.137464e+003
4.945612e+002, 4.135483e+003
4.950433e+002, 4.138673e+003
4.955254e+002, 4.145002e+003
4.960075e+002, 4.149999e+003
4.964896e+002, 4.151967e+003
4.969717e+002, 4.152923e+003
4.974539e+002, 4.154298e+003
4.979360e+002, 4.156104e+003
4.984181e+002, 4.158303e+003
4.989002e+002, 4.160341e+003
4.993823e+002, 4.163146e+003
4.998644e+002, 4.167634e+003
5.003466e+002, 4.173987e+003
5.008287e+002, 4.179806e+003
5.013108e+002, 4.184233e+003
5.017929e+002, 4.187784e+003
5.022750e+002, 4.190826e+003
5.027571e+002, 4.192352e+003
5.032393e+002, 4.194602e+003
5.037214e+002, 4.197920e+003
5.042035e+002, 4.201869e+003
5.046856e+002, 4.205766e+003
5.051677e+002, 4.210218e+003
5.056498e+002, 4.213384e+003
5.061320e+002, 4.214210e+003
5.066141e+002, 4.212886e+003
5.070962e+002, 4.213672e+003
5.075783e+002, 4.217129e+003
5.080604e+002, 4.221083e+003
5.085425e+002, 4.224036e+003
5.090247e+002, 4.226048e+003
5.095068e+002, 4.227155e+003
5.099889e+002, 4.227291e+003
5.104710e+002, 4.226925e+003
5.109531e+002, 4.226263e+003
5.114352e+002, 4.225558e+003
5.119174e+002, 4.225700e+003
5.123995e+002, 4.227738e+003
5.128816e+002, 4.230351e+003
5.133637e+002, 4.232244e+003
5.138458e+002, 4.233386e+003
5.143279e+002, 4.233761e+003
5.148101e+002, 4.232269e+003
5.152922e+002, 4.230568e+003
5.157743e+002, 4.230171e+003
5.162564e+002, 4.231729e+003
5.167385e+002, 4.232847e+003
5.172206e+002, 4.232080e+003
5.177028e+002, 4.230614e+003
5.181849e+002, 4.229819e+003
5.186670e+002, 4.230756e+003
5.191491e+002, 4.231425e+003
5.196312e+002, 4.232000e+003
5.201133e+002, 4.232248e+003
5.205955e+002, 4.230837e+003
5.210776e+002, 4.226726e+003
5.215597e+002, 4.222947e+003
5.220418e+002, 4.220689e+003
5.225239e+002, 4.220042e+003
5.230060e+002, 4.221108e+003
5.234882e+002, 4.224392e+003
5.239703e+002, 4.228232e+003
5.244524e+002, 4.230917e+003
5.249345e+002, 4.232507e+003
5.254166e+002, 4.233897e+003
5.258987e+002, 4.235214e+003
5.263809e+002, 4.236428e+003
5.268630e+002, 4.237237e+003
5.273451e+002, 4.237785e+003
5.278272e+002, 4.238767e+003
5.283093e+002, 4.240546e+003
5.287914e+002, 4.242812e+003
5.292736e+002, 4.245135e+003
5.297557e+002, 4.247498e+003
5.302378e+002, 4.250259e+003
5.307199e+002, 4.254114e+003
5.312020e+002, 4.258135e+003
5.316841e+002, 4.261548e+003
5.321663e+002, 4.264257e+003
5.326484e+002, 4.266307e+003
5.331305e+002, 4.267222e+003
5.336126e+002, 4.267701e+003
5.340947e+002, 4.268784e+003
5.345768e+002, 4.271956e+003
5.350590e+002, 4.274105e+003
5.355411e+002, 4.274416e+003
5.360232e+002, 4.273291e+003
5.365053e+002, 4.273019e+003
5.369874e+002, 4.274255e+003
5.374695e+002, 4.275114e+003
5.379517e+002, 4.274190e+003
5.384338e+002, 4.271330e+003
5.389159e+002, 4.270517e+003
5.393980e+002, 4.272027e+003
5.398801e+002, 4.274453e+003
5.403622e+002, 4.276464e+003
5.408444e+002, 4.278042e+003
5.413265e+002, 4.279100e+003
5.418086e+002, 4.279284e+003
5.422907e+002, 4.279529e+003
5.427728e+002, 4.281388e+003
5.432549e+002, 4.284329e+003
5.437371e+002, 4.286849e+003
5.442192e+002, 4.287837e+003
5.447013e+002, 4.288339e+003
5.451834e+002, 4.289170e+003
5.456655e+002, 4.290338e+003
5.461476e+002, 4.291388e+003
5.466298e+002, 4.291635e+003
5.471119e+002, 4.292109e+003
5.475940e+002, 4.293724e+003
5.480761e+002, 4.298078e+003
5.485582e+002, 4.300635e+003
5.490403e+002, 4.299938e+003
5.495225e+002, 4.297899e+003
5.500046e+002, 4.296564e+003
5.504867e+002, 4.295167e+003
5.509688e+002, 4.296254e+003
5.514509e+002, 4.301463e+003
5.519330e+002, 4.309107e+003
5.524152e+002, 4.312502e+003
5.528973e+002, 4.310953e+003
5.533794e+002, 4.309159e+003
5.538615e+002, 4.309260e+003
5.543436e+002, 4.311060e+003
5.548257e+002, 4.314178e+003
5.553079e+002, 4.318660e+003
5.557900e+002, 4.322757e+003
5.562721e+002, 4.324683e+003
5.567542e+002, 4.325122e+003
5.572363e+002, 4.325205e+003
5.577184e+002, 4.325049e+003
5.582006e+002, 4.325021e+003
5.586827e+002, 4.325500e+003
5.591648e+002, 4.326334e+003
5.596469e+002, 4.327258e+003
5.601290e+002, 4.328584e+003
5.606111e+002, 4.329634e+003
5.610933e+002, 4.329986e+003
5.615754e+002, 4.329769e+003
5.620575e+002, 4.329720e+003
5.625396e+002, 4.330361e+003
5.630217e+002, 4.330799e+003
5.635038e+002, 4.330609e+003
5.639860e+002, 4.329577e+003
5.644681e+002, 4.328763e+003
5.649502e+002, 4.327964e+003
5.654323e+002, 4.327661e+003
5.659144e+002, 4.328567e+003
5.663965e+002, 4.330824e+003
5.668787e+002, 4.332685e+003
5.673608e+002, 4.333881e+003
5.678429e+002, 4.334658e+003
5.683250e+002, 4.335404e+003
5.688071e+002, 4.336102e+003
5.692892e+002, 4.336533e+003
5.697714e+002, 4.336502e+003
5.702535e+002, 4.336226e+003
5.707356e+002, 4.335579e+003
5.712177e+002, 4.334743e+003
5.716998e+002, 4.334851e+003
5.721819e+002, 4.336701e+003
5.726641e+002, 4.339612e+003
5.731462e+002, 4.343466e+003
5.736283e+002, 4.348632e+003
5.741104e+002, 4.352495e+003
5.745925e+002, 4.353888e+003
5.750746e+002, 4.353785e+003
5.755568e+002, 4.353053e+003
5.760389e+002, 4.350524e+003
5.765210e+002, 4.349105e+003
5.770031e+002, 4.349185e+003
5.774852e+002, 4.350336e+003
5.779673e+002, 4.351893e+003
5.784495e+002, 4.354290e+003
5.789316e+002, 4.355869e+003
5.794137e+002, 4.355889e+003
5.798958e+002, 4.354809e+003
5.803779e+002, 4.354657e+003
5.808600e+002, 4.355515e+003
5.813422e+002, 4.356139e+003
5.818243e+002, 4.354763e+003
5.823064e+002, 4.352684e+003
5.827885e+002, 4.353067e+003
5.832706e+002, 4.356229e+003
5.837527e+002, 4.360411e+003
5.842349e+002, 4.366216e+003
5.847170e+002, 4.371402e+003
5.851991e+002, 4.372834e+003
5.856812e+002, 4.367289e+003
5.861633e+002, 4.361938e+003
5.866454e+002, 4.359679e+003
5.871276e+002, 4.359615e+003
5.876097e+002, 4.360181e+003
5.880918e+002, 4.362181e+003
5.885739e+002, 4.363494e+003
5.890560e+002, 4.363643e+003
5.895381e+002, 4.362718e+003
5.900203e+002, 4.361289e+003
5.905024e+002, 4.359207e+003
5.909845e+002, 4.357002e+003
5.914666e+002, 4.354814e+003
5.919487e+002, 4.352668e+003
5.924308e+002, 4.351809e+003
5.929130e+002, 4.352573e+003
5.933951e+002, 4.353229e+003
5.938772e+002, 4.351923e+003
5.943593e+002, 4.349134e+003
5.948414e+002, 4.345926e+003
5.953235e+002, 4.342020e+003
5.958057e+002, 4.339521e+003
5.962878e+002, 4.342026e+003
5.967699e+002, 4.347307e+003
5.972520e+002, 4.351154e+003
5.977341e+002, 4.350372e+003
5.982162e+002, 4.349186e+003
5.986984e+002, 4.349534e+003
5.991805e+002, 4.351111e+003
5.996626e+002, 4.352828e+003
6.001447e+002, 4.354653e+003
6.006268e+002, 4.356275e+003
6.011089e+002, 4.357514e+003
6.015911e+002, 4.358334e+003
6.020732e+002, 4.359163e+003
6.025553e+002, 4.360244e+003
6.030374e+002, 4.360952e+003
6.035195e+002, 4.360542e+003
6.040016e+002, 4.358865e+003
6.044838e+002, 4.358525e+003
6.049659e+002, 4.360050e+003
6.054480e+002, 4.361750e+003
6.059301e+002, 4.360397e+003
6.064122e+002, 4.357096e+003
6.068943e+002, 4.356482e+003
6.073765e+002, 4.360757e+003
6.078586e+002, 4.366597e+003
6.083407e+002, 4.371495e+003
6.088228e+002, 4.375087e+003
6.093049e+002, 4.376352e+003
6.097870e+002, 4.372986e+003
6.102692e+002, 4.368792e+003
6.107513e+002, 4.365335e+003
6.112334e+002, 4.362724e+003
6.117155e+002, 4.361319e+003
6.121976e+002, 4.361732e+003
6.126797e+002, 4.362936e+003
6.131619e+002, 4.364721e+003
6.136440e+002, 4.367533e+003
6.141261e+002, 4.368884e+003
6.146082e+002, 4.368086e+003
6.150903e+002, 4.366986e+003
6.155724e+002, 4.367516e+003
6.160546e+002, 4.369767e+003
6.165367e+002, 4.371153e+003
6.170188e+002, 4.371144e+003
6.175009e+002, 4.370766e+003
6.179830e+002, 4.371817e+003
6.184651e+002, 4.373813e+003
6.189473e+002, 4.375026e+003
6.194294e+002, 4.374102e+003
6.199115e+002, 4.372936e+003
6.203936e+002, 4.373397e+003
6.208757e+002, 4.375119e+003
6.213578e+002, 4.377034e+003
6.218400e+002, 4.379288e+003
6.223221e+002, 4.381075e+003
6.228042e+002, 4.381761e+003
6.232863e+002, 4.381326e+003
6.237684e+002, 4.381165e+003
6.242505e+002, 4.380947e+003
6.247327e+002, 4.381537e+003
6.252148e+002, 4.383729e+003
6.256969e+002, 4.388424e+003
6.261790e+002, 4.390998e+003
6.266611e+002, 4.390914e+003
6.271432e+002, 4.389842e+003
6.276254e+002, 4.389180e+003
6.281075e+002, 4.388958e+003
6.285896e+002, 4.389741e+003
6.290717e+002, 4.391703e+003
6.295538e+002, 4.394368e+003
6.300359e+002, 4.398060e+003
6.305181e+002, 4.401933e+003
6.310002e+002, 4.403940e+003
6.314823e+002, 4.401231e+003
6.319644e+002, 4.398312e+003
6.324465e+002, 4.398596e+003
6.329286e+002, 4.401302e+003
6.334108e+002, 4.403999e+003
6.338929e+002, 4.406966e+003
6.343750e+002, 4.408733e+003
6.348571e+002, 4.407904e+003
6.353392e+002, 4.404288e+003
6.358214e+002, 4.403117e+003
6.363035e+002, 4.406212e+003
6.367856e+002, 4.409254e+003
6.372677e+002, 4.409374e+003
6.377498e+002, 4.405956e+003
6.382319e+002, 4.405031e+003
6.387141e+002, 4.407092e+003
6.391962e+002, 4.409924e+003
6.396783e+002, 4.411327e+003
6.401604e+002, 4.411592e+003
6.406425e+002, 4.411632e+003
6.411246e+002, 4.411476e+003
6.416068e+002, 4.411655e+003
6.420889e+002, 4.412750e+003
6.425710e+002, 4.414544e+003
6.430531e+002, 4.416639e+003
6.435352e+002, 4.419677e+003
6.440173e+002, 4.422123e+003
6.444995e+002, 4.422371e+003
6.449816e+002, 4.421420e+003
6.454637e+002, 4.422225e+003
6.459458e+002, 4.427603e+003
6.464279e+002, 4.432018e+003
6.469100e+002, 4.433344e+003
6.473922e+002, 4.431992e+003
6.478743e+002, 4.433709e+003
6.483564e+002, 4.439435e+003
6.488385e+002, 4.445416e+003
6.493206e+002, 4.449577e+003
6.498027e+002, 4.452075e+003
6.502849e+002, 4.453707e+003
6.507670e+002, 4.454427e+003
6.512491e+002, 4.455214e+003
6.517312e+002, 4.457112e+003
6.522133e+002, 4.459596e+003
6.526954e+002, 4.462002e+003
6.531776e+002, 4.464358e+003
6.536597e+002, 4.465984e+003
6.541418e+002, 4.466202e+003
6.546239e+002, 4.465609e+003
6.551060e+002, 4.464908e+003
6.555881e+002, 4.463715e+003
6.560703e+002, 4.463110e+003
6.565524e+002, 4.463236e+003
6.570345e+002, 4.464068e+003
6.575166e+002, 4.465824e+003
6.579987e+002, 4.469329e+003
6.584808e+002, 4.471567e+003
6.589630e+002, 4.471300e+003
6.594451e+002, 4.469529e+003
6.599272e+002, 4.469791e+003
6.604093e+002, 4.472095e+003
6.608914e+002, 4.474923e+003
6.613735e+002, 4.478266e+003
6.618557e+002, 4.481322e+003
6.623378e+002, 4.481877e+003
6.628199e+002, 4.480310e+003
6.633020e+002, 4.479767e+003
6.637841e+002, 4.483776e+003
6.642662e+002, 4.488659e+003
6.647484e+002, 4.490640e+003
6.652305e+002, 4.488410e+003
6.657126e+002, 4.489344e+003
6.661947e+002, 4.497621e+003
6.666768e+002, 4.508113e+003
6.671589e+002, 4.517290e+003
6.676411e+002, 4.525570e+003
6.681232e+002, 4.531242e+003
6.686053e+002, 4.533298e+003
6.690874e+002, 4.534001e+003
6.695695e+002, 4.535647e+003
6.700516e+002, 4.538208e+003
6.705338e+002, 4.543367e+003
6.710159e+002, 4.552115e+003
6.714980e+002, 4.562015e+003
6.719801e+002, 4.568919e+003
6.724622e+002, 4.573938e+003
6.729443e+002, 4.579934e+003
6.734265e+002, 4.589021e+003
6.739086e+002, 4.598748e+003
6.743907e+002, 4.607475e+003
6.748728e+002, 4.615631e+003
6.753549e+002, 4.624280e+003
6.758370e+002, 4.633560e+003
6.763192e+002, 4.643821e+003
6.768013e+002, 4.654984e+003
6.772834e+002, 4.667136e+003
6.777655e+002, 4.680859e+003
6.782476e+002, 4.697204e+003
6.787297e+002, 4.712752e+003
6.792119e+002, 4.725391e+003
6.796940e+002, 4.735296e+003
6.801761e+002, 4.744888e+003
6.806582e+002, 4.754065e+003
6.811403e+002, 4.763294e+003
6.816224e+002, 4.773618e+003
6.821046e+002, 4.784096e+003
6.825867e+002, 4.792861e+003
6.830688e+002, 4.799758e+003
6.835509e+002, 4.804759e+003
6.840330e+002, 4.808431e+003
6.845151e+002, 4.809950e+003
6.849973e+002, 4.808528e+003
6.854794e+002, 4.803408e+003
6.859615e+002, 4.796325e+003
6.864436e+002, 4.787265e+003
6.869257e+002, 4.776438e+003
6.874078e+002, 4.763791e+003
6.878900e+002, 4.748372e+003
6.883721e+002, 4.733473e+003
6.888542e+002, 4.719960e+003
6.893363e+002, 4.707011e+003
6.898184e+002, 4.693023e+003
6.903005e+002, 4.678206e+003
6.907827e+002, 4.664177e+003
6.912648e+002, 4.651706e+003
6.917469e+002, 4.640328e+003
6.922290e+002, 4.628945e+003
6.927111e+002, 4.617993e+003
6.931932e+002, 4.609462e+003
6.936754e+002, 4.605550e+003
6.941575e+002, 4.603189e+003
6.946396e+002, 4.601239e+003
6.951217e+002, 4.599506e+003
6.956038e+002, 4.596814e+003
6.960859e+002, 4.592061e+003
6.965681e+002, 4.587264e+003
6.970502e+002, 4.583069e+003
6.975323e+002, 4.579477e+003
6.980144e+002, 4.576587e+003
6.984965e+002, 4.574538e+003
6.989786e+002, 4.572818e+003
6.994608e+002, 4.571036e+003
6.999429e+002, 4.569292e+003
7.004250e+002, 4.568005e+003
7.009071e+002, 4.567229e+003
7.013892e+002, 4.566759e+003
7.018713e+002, 4.566794e+003
7.023535e+002, 4.566889e+003
7.028356e+002, 4.566353e+003
7.033177e+002, 4.564745e+003
7.037998e+002, 4.563507e+003
7.042819e+002, 4.563329e+003
7.047640e+002, 4.563705e+003
7.052462e+002, 4.564111e+003
7.057283e+002, 4.564525e+003
7.062104e+002, 4.564772e+003
7.066925e+002, 4.564409e+003
7.071746e+002, 4.564239e+003
7.076567e+002, 4.566095e+003
7.081389e+002, 4.570173e+003
7.086210e+002, 4.572626e+003
7.091031e+002, 4.572211e+003
7.095852e+002, 4.570438e+003
7.100673e+002, 4.569039e+003
7.105494e+002, 4.568299e+003
7.110316e+002, 4.569034e+003
7.115137e+002, 4.574393e+003
7.119958e+002, 4.578852e+003
7.124779e+002, 4.577138e+003
7.129600e+002, 4.571385e+003
7.134421e+002, 4.568134e+003
7.139243e+002, 4.571333e+003
7.144064e+002, 4.574936e+003
7.148885e+002, 4.577091e+003
7.153706e+002, 4.578018e+003
7.158527e+002, 4.579540e+003
7.163348e+002, 4.582099e+003
7.168170e+002, 4.583836e+003
7.172991e+002, 4.583291e+003
7.177812e+002, 4.581080e+003
7.182633e+002, 4.580540e+003
7.187454e+002, 4.581624e+003
7.192275e+002, 4.583152e+003
7.197097e+002, 4.584952e+003
7.201918e+002, 4.586383e+003
7.206739e+002, 4.586076e+003
7.211560e+002, 4.583934e+003
7.216381e+002, 4.583126e+003
7.221202e+002, 4.586356e+003
7.226024e+002, 4.590617e+003
7.230845e+002, 4.594003e+003
7.235666e+002, 4.596327e+003
7.240487e+002, 4.597907e+003
7.245308e+002, 4.598778e+003
7.250129e+002, 4.598930e+003
7.254951e+002, 4.597889e+003
7.259772e+002, 4.595500e+003
7.264593e+002, 4.594860e+003
7.269414e+002, 4.596373e+003
7.274235e+002, 4.598708e+003
7.279056e+002, 4.600608e+003
7.283878e+002, 4.602111e+003
7.288699e+002, 4.603158e+003
7.293520e+002, 4.603392e+003
7.298341e+002, 4.604127e+003
7.303162e+002, 4.606860e+003
7.307983e+002, 4.610380e+003
7.312805e+002, 4.613208e+003
7.317626e+002, 4.614294e+003
7.322447e+002, 4.615631e+003
7.327268e+002, 4.617756e+003
7.332089e+002, 4.620081e+003
7.336910e+002, 4.621415e+003
7.341732e+002, 4.621375e+003
7.346553e+002, 4.622244e+003
7.351374e+002, 4.624492e+003
7.356195e+002, 4.627930e+003
7.361016e+002, 4.632953e+003
7.365837e+002, 4.639045e+003
7.370659e+002, 4.643958e+003
7.375480e+002, 4.646227e+003
7.380301e+002, 4.647416e+003
7.385122e+002, 4.648013e+003
7.389943e+002, 4.648553e+003
7.394764e+002, 4.650470e+003
7.399586e+002, 4.656731e+003
7.404407e+002, 4.661786e+003
7.409228e+002, 4.663313e+003
7.414049e+002, 4.661994e+003
7.418870e+002, 4.660423e+003
7.423691e+002, 4.658241e+003
7.428513e+002, 4.656892e+003
7.433334e+002, 4.657063e+003
7.438155e+002, 4.658528e+003
7.442976e+002, 4.660569e+003
7.447797e+002, 4.663178e+003
7.452618e+002, 4.665436e+003
7.457440e+002, 4.666380e+003
7.462261e+002, 4.666957e+003
7.467082e+002, 4.668159e+003
7.471903e+002, 4.670007e+003
7.476724e+002, 4.672403e+003
7.481545e+002, 4.675927e+003
7.486367e+002, 4.679425e+003
7.491188e+002, 4.682565e+003
7.496009e+002, 4.685417e+003
7.500830e+002, 4.686423e+003
7.505651e+002, 4.684551e+003
7.510472e+002, 4.682645e+003
7.515294e+002, 4.682168e+003
7.520115e+002, 4.683094e+003
7.524936e+002, 4.685617e+003
7.529757e+002, 4.689825e+003
7.534578e+002, 4.694233e+003
7.539399e+002, 4.698124e+003
7.544221e+002, 4.701154e+003
7.549042e+002, 4.702171e+003
7.553863e+002, 4.700917e+003
7.558684e+002, 4.700428e+003
7.563505e+002, 4.703548e+003
7.568326e+002, 4.707272e+003
7.573148e+002, 4.709062e+003
7.577969e+002, 4.707376e+003
7.582790e+002, 4.707375e+003
7.587611e+002, 4.709799e+003
7.592432e+002, 4.712935e+003
7.597253e+002, 4.715086e+003
7.602075e+002, 4.716204e+003
7.606896e+002, 4.718510e+003
7.611717e+002, 4.722354e+003
7.616538e+002, 4.726310e+003
7.621359e+002, 4.728732e+003
7.626180e+002, 4.730222e+003
7.631002e+002, 4.731791e+003
7.635823e+002, 4.733607e+003
7.640644e+002, 4.735667e+003
7.645465e+002, 4.738294e+003
7.650286e+002, 4.741096e+003
7.655107e+002, 4.743650e+003
7.659929e+002, 4.746875e+003
7.664750e+002, 4.748378e+003
7.669571e+002, 4.747219e+003
7.674392e+002, 4.745409e+003
7.679213e+002, 4.745233e+003
7.684034e+002, 4.746702e+003
7.688856e+002, 4.750250e+003
7.693677e+002, 4.756397e+003
7.698498e+002, 4.763002e+003
7.703319e+002, 4.767539e+003
7.708140e+002, 4.770405e+003
7.712961e+002, 4.772484e+003
7.717783e+002, 4.773829e+003
7.722604e+002, 4.774696e+003
7.727425e+002, 4.774956e+003
7.732246e+002, 4.774859e+003
7.737067e+002, 4.774782e+003
7.741888e+002, 4.773667e+003
7.746710e+002, 4.774462e+003
7.751531e+002, 4.778490e+003
7.756352e+002, 4.783706e+003
7.761173e+002, 4.786343e+003
7.765994e+002, 4.786357e+003
7.770815e+002, 4.785726e+003
7.775637e+002, 4.784741e+003
7.780458e+002, 4.783752e+003
7.785279e+002, 4.783306e+003
7.790100e+002, 4.783223e+003
7.794921e+002, 4.783116e+003
7.799742e+002, 4.783144e+003
7.804564e+002, 4.782696e+003
7.809385e+002, 4.781057e+003
7.814206e+002, 4.778756e+003
7.819027e+002, 4.776939e+003
7.823848e+002, 4.775445e+003
7.828669e+002, 4.775063e+003
7.833491e+002, 4.777208e+003
7.838312e+002, 4.779642e+003
7.843133e+002, 4.775742e+003
7.847954e+002, 4.765737e+003
7.852775e+002, 4.757162e+003
7.857596e+002, 4.752623e+003
7.862418e+002, 4.750924e+003
7.867239e+002, 4.752034e+003
7.872060e+002, 4.754714e+003
7.876881e+002, 4.755937e+003
7.881702e+002, 4.753147e+003
7.886523e+002, 4.749930e+003
7.891345e+002, 4.747180e+003
7.896166e+002, 4.745092e+003
7.900987e+002, 4.744099e+003
7.905808e+002, 4.744900e+003
7.910629e+002, 4.745356e+003
7.915450e+002, 4.745095e+003
7.920272e+002, 4.744023e+003
7.925093e+002, 4.741206e+003
7.929914e+002, 4.736852e+003
7.934735e+002, 4.734100e+003
7.939556e+002, 4.735327e+003
7.944377e+002, 4.737604e+003
7.949199e+002, 4.737709e+003
7.954020e+002, 4.736041e+003
7.958841e+002, 4.733656e+003
7.963662e+002, 4.729359e+003
7.968483e+002, 4.726140e+003
7.973304e+002, 4.725578e+003
7.978126e+002, 4.726948e+003
7.982947e+002, 4.728118e+003
7.987768e+002, 4.729104e+003
7.992589e+002, 4.729992e+003
7.997410e+002, 4.731109e+003
8.002231e+002, 4.731921e+003
8.007053e+002, 4.730454e+003
8.011874e+002, 4.727159e+003
8.016695e+002, 4.724452e+003
8.021516e+002, 4.723333e+003
8.026337e+002, 4.723524e+003
8.031158e+002, 4.725922e+003
8.035980e+002, 4.729476e+003
8.040801e+002, 4.731385e+003
8.045622e+002, 4.729063e+003
8.050443e+002, 4.726858e+003
8.055264e+002, 4.725530e+003
8.060085e+002, 4.725140e+003
8.064907e+002, 4.726199e+003
8.069728e+002, 4.729011e+003
8.074549e+002, 4.731592e+003
8.079370e+002, 4.733454e+003
8.084191e+002, 4.734494e+003
8.089012e+002, 4.733936e+003
8.093834e+002, 4.732266e+003
8.098655e+002, 4.731231e+003
8.103476e+002, 4.732426e+003
8.108297e+002, 4.733860e+003
8.113118e+002, 4.734513e+003
8.117939e+002, 4.734476e+003
8.122761e+002, 4.733934e+003
8.127582e+002, 4.731034e+003
8.132403e+002, 4.730474e+003
8.137224e+002, 4.734034e+003
8.142045e+002, 4.740183e+003
8.146866e+002, 4.744576e+003
8.151688e+002, 4.747137e+003
8.156509e+002, 4.748849e+003
8.161330e+002, 4.750077e+003
8.166151e+002, 4.750580e+003
8.170972e+002, 4.748636e+003
8.175793e+002, 4.745620e+003
8.180615e+002, 4.745065e+003
8.185436e+002, 4.752502e+003
8.190257e+002, 4.758359e+003
8.195078e+002, 4.757284e+003
8.199899e+002, 4.751800e+003
8.204720e+002, 4.749252e+003
8.209542e+002, 4.751135e+003
8.214363e+002, 4.752316e+003
8.219184e+002, 4.751575e+003
8.224005e+002, 4.749623e+003
8.228826e+002, 4.747428e+003
8.233647e+002, 4.745264e+003
8.238469e+002, 4.744867e+003
8.243290e+002, 4.747915e+003
8.248111e+002, 4.751547e+003
8.252932e+002, 4.753265e+003
8.257753e+002, 4.753714e+003
8.262574e+002, 4.754104e+003
8.267396e+002, 4.754382e+003
8.272217e+002, 4.755266e+003
8.277038e+002, 4.757386e+003
8.281859e+002, 4.759929e+003
8.286681e+002, 4.761251e+003
8.291502e+002, 4.761139e+003
8.296323e+002, 4.761352e+003
8.301144e+002, 4.762536e+003
8.305966e+002, 4.763608e+003
8.310787e+002, 4.761827e+003
8.315608e+002, 4.758673e+003
8.320429e+002, 4.757854e+003
8.325250e+002, 4.762313e+003
8.330071e+002, 4.766678e+003
8.334893e+002, 4.767938e+003
8.339714e+002, 4.767498e+003
8.344535e+002, 4.767604e+003
8.349356e+002, 4.768715e+003
8.354177e+002, 4.769686e+003
8.358998e+002, 4.770190e+003
8.363820e+002, 4.770812e+003
8.368641e+002, 4.772900e+003
8.373462e+002, 4.776167e+003
8.378283e+002, 4.778072e+003
8.383104e+002, 4.777802e+003
8.387925e+002, 4.777000e+003
8.392747e+002, 4.777046e+003
8.397568e+002, 4.777638e+003
8.402389e+002, 4.778401e+003
8.407210e+002, 4.779526e+003
8.412031e+002, 4.780268e+003
8.416852e+002, 4.780234e+003
8.421674e+002, 4.779971e+003
8.426495e+002, 4.780148e+003
8.431316e+002, 4.781058e+003
8.436137e+002, 4.780860e+003
8.440958e+002, 4.779186e+003
8.445779e+002, 4.777557e+003
8.450601e+002, 4.778181e+003
8.455422e+002, 4.780078e+003
8.460243e+002, 4.780928e+003
8.465064e+002, 4.780047e+003
8.469885e+002, 4.779762e+003
8.474706e+002, 4.781521e+003
8.479528e+002, 4.784282e+003
8.484349e+002, 4.787114e+003
8.489170e+002, 4.789632e+003
8.493991e+002, 4.793091e+003
8.498812e+002, 4.798150e+003
8.503633e+002, 4.802666e+003
8.508455e+002, 4.804684e+003
8.513276e+002, 4.804450e+003
8.518097e+002, 4.803708e+003
8.522918e+002, 4.802553e+003
8.527739e+002, 4.801058e+003
8.532560e+002, 4.799060e+003
8.537382e+002, 4.796986e+003
8.542203e+002, 4.794743e+003
8.547024e+002, 4.792190e+003
8.551845e+002, 4.792085e+003
8.556666e+002, 4.797977e+003
8.561487e+002, 4.803358e+003
8.566309e+002, 4.804986e+003
8.571130e+002, 4.802914e+003
8.575951e+002, 4.801130e+003
8.580772e+002, 4.799546e+003
8.585593e+002, 4.799198e+003
8.590414e+002, 4.800744e+003
8.595236e+002, 4.803930e+003
8.600057e+002, 4.809634e+003
8.604878e+002, 4.817177e+003
8.609699e+002, 4.822279e+003
8.614520e+002, 4.820599e+003
8.619341e+002, 4.818338e+003
8.624163e+002, 4.818013e+003
8.628984e+002, 4.819562e+003
8.633805e+002, 4.823169e+003
8.638626e+002, 4.830010e+003
8.643447e+002, 4.834953e+003
8.648268e+002, 4.834999e+003
8.653090e+002, 4.832614e+003
8.657911e+002, 4.833976e+003
8.662732e+002, 4.838409e+003
8.667553e+002, 4.843136e+003
8.672374e+002, 4.847541e+003
8.677195e+002, 4.850990e+003
8.682017e+002, 4.852833e+003
8.686838e+002, 4.853343e+003
8.691659e+002, 4.853211e+003
8.696480e+002, 4.852043e+003
8.701301e+002, 4.851102e+003
8.706122e+002, 4.850774e+003
8.710944e+002, 4.850658e+003
8.715765e+002, 4.849628e+003
8.720586e+002, 4.847919e+003
8.725407e+002, 4.847224e+003
8.730228e+002, 4.848837e+003
8.735049e+002, 4.850175e+003
8.739871e+002, 4.847629e+003
8.744692e+002, 4.843657e+003
8.749513e+002, 4.841929e+003
8.754334e+002, 4.847291e+003
8.759155e+002, 4.849688e+003
8.763976e+002, 4.846626e+003
8.768798e+002, 4.842014e+003
8.773619e+002, 4.840003e+003
8.778440e+002, 4.840610e+003
8.783261e+002, 4.844081e+003
8.788082e+002, 4.851016e+003
8.792903e+002, 4.857518e+003
8.797725e+002, 4.858786e+003
8.802546e+002, 4.857143e+003
8.807367e+002, 4.855692e+003
8.812188e+002, 4.854763e+003
8.817009e+002, 4.854784e+003
8.821830e+002, 4.857208e+003
8.826652e+002, 4.859481e+003
8.831473e+002, 4.859498e+003
8.836294e+002, 4.856554e+003
8.841115e+002, 4.856440e+003
8.845936e+002, 4.859811e+003
8.850757e+002, 4.863033e+003
8.855579e+002, 4.862024e+003
8.860400e+002, 4.859389e+003
8.865221e+002, 4.861607e+003
8.870042e+002, 4.868447e+003
8.874863e+002, 4.873162e+003
8.879684e+002, 4.870599e+003
8.884506e+002, 4.866362e+003
8.889327e+002, 4.862886e+003
8.894148e+002, 4.860374e+003
8.898969e+002, 4.859999e+003
8.903790e+002, 4.862279e+003
8.908611e+002, 4.865060e+003
8.913433e+002, 4.867286e+003
8.918254e+002, 4.869414e+003
8.923075e+002, 4.873535e+003
8.927896e+002, 4.878943e+003
8.932717e+002, 4.882692e+003
8.937538e+002, 4.881698e+003
8.942360e+002, 4.880104e+003
8.947181e+002, 4.879628e+003
8.952002e+002, 4.880376e+003
8.956823e+002, 4.882946e+003
8.961644e+002, 4.889174e+003
8.966465e+002, 4.893003e+003
8.971287e+002, 4.892607e+003
8.976108e+002, 4.890570e+003
8.980929e+002, 4.892658e+003
8.985750e+002, 4.897638e+003
8.990571e+002, 4.899122e+003
8.995392e+002, 4.894369e+003
9.000214e+002, 4.889175e+003
9.005035e+002, 4.888432e+003
9.009856e+002, 4.889775e+003
9.014677e+002, 4.890396e+003
9.019498e+002, 4.888789e+003
9.024319e+002, 4.888394e+003
9.029141e+002, 4.890032e+003
9.033962e+002, 4.891724e+003
9.038783e+002, 4.891548e+003
9.043604e+002, 4.889656e+003
9.048425e+002, 4.887158e+003
9.053246e+002, 4.884000e+003
9.058068e+002, 4.882268e+003
9.062889e+002, 4.884677e+003
9.067710e+002, 4.888547e+003
9.072531e+002, 4.892000e+003
9.077352e+002, 4.894888e+003
9.082173e+002, 4.895395e+003
9.086995e+002, 4.891943e+003
9.091816e+002, 4.887955e+003
9.096637e+002, 4.884458e+003
9.101458e+002, 4.881656e+003
9.106279e+002, 4.881651e+003
9.111100e+002, 4.884317e+003
9.115922e+002, 4.886779e+003
9.120743e+002, 4.887169e+003
9.125564e+002, 4.886829e+003
9.130385e+002, 4.886655e+003
9.135206e+002, 4.886883e+003
9.140027e+002, 4.888138e+003
9.144849e+002, 4.892115e+003
9.149670e+002, 4.895308e+003
9.154491e+002, 4.897465e+003
9.159312e+002, 4.898233e+003
9.164133e+002, 4.895669e+003
9.168954e+002, 4.889877e+003
9.173776e+002, 4.887377e+003
9.178597e+002, 4.890286e+003
9.183418e+002, 4.895136e+003
9.188239e+002, 4.899044e+003
9.193060e+002, 4.902084e+003
9.197881e+002, 4.904347e+003
9.202703e+002, 4.905706e+003
9.207524e+002, 4.906451e+003
9.212345e+002, 4.905681e+003
9.217166e+002, 4.905280e+003
9.221987e+002, 4.907279e+003
9.226808e+002, 4.911818e+003
9.231630e+002, 4.914384e+003
9.236451e+002, 4.914692e+003
9.241272e+002, 4.914695e+003
9.246093e+002, 4.916042e+003
9.250914e+002, 4.918012e+003
9.255735e+002, 4.919745e+003
9.260557e+002, 4.921159e+003
9.265378e+002, 4.922929e+003
9.270199e+002, 4.926750e+003
9.275020e+002, 4.929171e+003
9.279841e+002, 4.928368e+003
9.284662e+002, 4.925094e+003
9.289484e+002, 4.924125e+003
9.294305e+002, 4.925438e+003
9.299126e+002, 4.926685e+003
9.303947e+002, 4.926694e+003
9.308768e+002, 4.926200e+003
9.313589e+002, 4.926326e+003
9.318411e+002, 4.926617e+003
9.323232e+002, 4.926042e+003
9.328053e+002, 4.922024e+003
9.332874e+002, 4.920360e+003
9.337695e+002, 4.922938e+003
9.342516e+002, 4.927380e+003
9.347338e+002, 4.930278e+003
9.352159e+002, 4.931667e+003
9.356980e+002, 4.931868e+003
9.361801e+002, 4.930683e+003
9.366622e+002, 4.929608e+003
9.371443e+002, 4.929908e+003
9.376265e+002, 4.931281e+003
9.381086e+002, 4.933468e+003
9.385907e+002, 4.936571e+003
9.390728e+002, 4.939751e+003
9.395549e+002, 4.943325e+003
9.400370e+002, 4.946205e+003
9.405192e+002, 4.947501e+003
9.410013e+002, 4.947275e+003
9.414834e+002, 4.947224e+003
9.419655e+002, 4.947331e+003
9.424476e+002, 4.947610e+003
9.429297e+002, 4.948556e+003
9.434119e+002, 4.949312e+003
9.438940e+002, 4.949000e+003
9.443761e+002, 4.947750e+003
9.448582e+002, 4.946208e+003
9.453403e+002, 4.943904e+003
9.458224e+002, 4.942235e+003
9.463046e+002, 4.941617e+003
9.467867e+002, 4.941775e+003
9.472688e+002, 4.942522e+003
9.477509e+002, 4.943694e+003
9.482330e+002, 4.943411e+003
9.487151e+002, 4.940507e+003
9.491973e+002, 4.937876e+003
9.496794e+002, 4.938200e+003
9.501615e+002, 4.940364e+003
9.506436e+002, 4.943157e+003
9.511257e+002, 4.947561e+003
9.516078e+002, 4.949986e+003
9.520900e+002, 4.949356e+003
9.525721e+002, 4.948556e+003
9.530542e+002, 4.950435e+003
9.535363e+002, 4.954434e+003
9.540184e+002, 4.956750e+003
9.545005e+002, 4.957281e+003
9.549827e+002, 4.958356e+003
9.554648e+002, 4.963106e+003
9.559469e+002, 4.967668e+003
9.564290e+002, 4.967975e+003
9.569111e+002, 4.964372e+003
9.573932e+002, 4.964696e+003
9.578754e+002, 4.971018e+003
9.583575e+002, 4.976819e+003
9.588396e+002, 4.979979e+003
9.593217e+002, 4.981288e+003
9.598038e+002, 4.982030e+003
9.602859e+002, 4.982455e+003
9.607681e+002, 4.983625e+003
9.612502e+002, 4.986875e+003
9.617323e+002, 4.989397e+003
9.622144e+002, 4.988937e+003
9.626965e+002, 4.987192e+003
9.631786e+002, 4.986510e+003
9.636608e+002, 4.988003e+003
9.641429e+002, 4.987478e+003
9.646250e+002, 4.984084e+003
9.651071e+002, 4.981362e+003
9.655892e+002, 4.984814e+003
9.660714e+002, 4.991132e+003
9.665535e+002, 4.992471e+003
9.670356e+002, 4.988364e+003
9.675177e+002, 4.984646e+003
9.679998e+002, 4.985212e+003
9.684819e+002, 4.986125e+003
9.689641e+002, 4.984494e+003
9.694462e+002, 4.980995e+003
9.699283e+002, 4.981196e+003
9.704104e+002, 4.985544e+003
9.708925e+002, 4.989927e+003
9.713746e+002, 4.992907e+003
9.718568e+002, 4.994731e+003
9.723389e+002, 4.995102e+003
9.728210e+002, 4.994686e+003
9.733031e+002, 4.994979e+003
9.737852e+002, 4.997317e+003
9.742673e+002, 4.999167e+003
9.747495e+002, 4.999455e+003
9.752316e+002, 4.999519e+003
9.757137e+002, 5.000646e+003
9.761958e+002, 5.002866e+003
9.766779e+002, 5.006989e+003
9.771600e+002, 5.013456e+003
9.776422e+002, 5.018185e+003
9.781243e+002, 5.015930e+003
9.786064e+002, 5.011317e+003
9.790885e+002, 5.009688e+003
9.795706e+002, 5.011594e+003
9.800527e+002, 5.011725e+003
9.805349e+002, 5.007589e+003
9.810170e+002, 5.004088e+003
9.814991e+002, 5.002971e+003
9.819812e+002, 5.003672e+003
9.824633e+002, 5.004466e+003
9.829454e+002, 5.005327e+003
9.834276e+002, 5.006250e+003
9.839097e+002, 5.007405e+003
9.843918e+002, 5.008313e+003
9.848739e+002, 5.008620e+003
9.853560e+002, 5.008458e+003
9.858381e+002, 5.007918e+003
9.863203e+002, 5.006073e+003
9.868024e+002, 5.006411e+003
9.872845e+002, 5.009953e+003
9.877666e+002, 5.013593e+003
9.882487e+002, 5.013793e+003
9.887308e+002, 5.011664e+003
9.892130e+002, 5.009447e+003
9.896951e+002, 5.007424e+003
9.901772e+002, 5.007064e+003
9.906593e+002, 5.010497e+003
9.911414e+002, 5.014514e+003
9.916235e+002, 5.017665e+003
9.921057e+002, 5.019856e+003
9.925878e+002, 5.020597e+003
9.930699e+002, 5.019569e+003
9.935520e+002, 5.019079e+003
9.940341e+002, 5.020401e+003
9.945162e+002, 5.021795e+003
9.949984e+002, 5.020673e+003
9.954805e+002, 5.017803e+003
9.959626e+002, 5.014580e+003
9.964447e+002, 5.009977e+003
9.969268e+002, 5.007671e+003
9.974089e+002, 5.009163e+003
9.978911e+002, 5.012214e+003
9.983732e+002, 5.015469e+003
9.988553e+002, 5.018904e+003
9.993374e+002, 5.020161e+003
9.998195e+002, 5.019158e+003
1.000302e+003, 5.017862e+003
1.000784e+003, 5.017487e+003
1.001266e+003, 5.017644e+003
1.001748e+003, 5.017937e+003
1.002230e+003, 5.018350e+003
1.002712e+003, 5.019109e+003
1.003194e+003, 5.019320e+003
1.003676e+003, 5.021723e+003
1.004159e+003, 5.027920e+003
1.004641e+003, 5.035332e+003
1.005123e+003, 5.039010e+003
1.005605e+003, 5.039585e+003
1.006087e+003, 5.038885e+003
1.006569e+003, 5.036786e+003
1.007051e+003, 5.035334e+003
1.007533e+003, 5.035837e+003
1.008016e+003, 5.037388e+003
1.008498e+003, 5.039283e+003
1.008980e+003, 5.041760e+003
1.009462e+003, 5.043646e+003
1.009944e+003, 5.045012e+003
1.010426e+003, 5.045709e+003
1.010908e+003, 5.044393e+003
1.011390e+003, 5.043093e+003
1.011872e+003, 5.045123e+003
1.012355e+003, 5.049756e+003
1.012837e+003, 5.053660e+003
1.013319e+003, 5.055361e+003
1.013801e+003, 5.056485e+003
1.014283e+003, 5.056982e+003
1.014765e+003, 5.057314e+003
1.015247e+003, 5.058574e+003
1.015729e+003, 5.060597e+003
1.016211e+003, 5.062370e+003
1.016694e+003, 5.063852e+003
1.017176e+003, 5.064291e+003
1.017658e+003, 5.061957e+003
1.018140e+003, 5.059169e+003
1.018622e+003, 5.058406e+003
1.019104e+003, 5.060470e+003
1.019586e+003, 5.060944e+003
1.020068e+003, 5.059791e+003
1.020551e+003, 5.057344e+003
1.021033e+003, 5.052396e+003
1.021515e+003, 5.047199e+003
1.021997e+003, 5.046966e+003
1.022479e+003, 5.050753e+003
1.022961e+003, 5.055821e+003
1.023443e+003, 5.063474e+003
1.023925e+003, 5.069099e+003
1.024407e+003, 5.070016e+003
1.024890e+003, 5.069111e+003
1.025372e+003, 5.070163e+003
1.025854e+003, 5.073232e+003
1.026336e+003, 5.074110e+003
1.026818e+003, 5.072163e+003
1.027300e+003, 5.070317e+003
1.027782e+003, 5.070999e+003
1.028264e+003, 5.073130e+003
1.028746e+003, 5.076645e+003
1.029229e+003, 5.081403e+003
1.029711e+003, 5.082606e+003
1.030193e+003, 5.077453e+003
1.030675e+003, 5.074560e+003
1.031157e+003, 5.077575e+003
1.031639e+003, 5.083710e+003
1.032121e+003, 5.087187e+003
1.032603e+003, 5.088490e+003
1.033086e+003, 5.089062e+003
1.033568e+003, 5.089713e+003
1.034050e+003, 5.089163e+003
1.034532e+003, 5.085038e+003
1.035014e+003, 5.080880e+003
1.035496e+003, 5.080005e+003
1.035978e+003, 5.083018e+003
1.036460e+003, 5.085583e+003
1.036943e+003, 5.087705e+003
1.037425e+003, 5.089044e+003
1.037907e+003, 5.087612e+003
1.038389e+003, 5.086519e+003
1.038871e+003, 5.090243e+003
1.039353e+003, 5.097498e+003
1.039835e+003, 5.102748e+003
1.040317e+003, 5.103672e+003
1.040799e+003, 5.104378e+003
1.041281e+003, 5.105202e+003
1.041764e+003, 5.106362e+003
1.042246e+003, 5.108344e+003
1.042728e+003, 5.110960e+003
1.043210e+003, 5.113970e+003
1.043692e+003, 5.117578e+003
1.044174e+003, 5.119718e+003
1.044656e+003, 5.116618e+003
1.045138e+003, 5.114109e+003
1.045621e+003, 5.116944e+003
1.046103e+003, 5.124513e+003
1.046585e+003, 5.127846e+003
1.047067e+003, 5.126680e+003
1.047549e+003, 5.124570e+003
1.048031e+003, 5.122258e+003
1.048513e+003, 5.120998e+003
1.048995e+003, 5.123442e+003
1.049478e+003, 5.127717e+003
1.049960e+003, 5.130625e+003
1.050442e+003, 5.129563e+003
1.050924e+003, 5.130069e+003
1.051406e+003, 5.133173e+003
1.051888e+003, 5.136169e+003
1.052370e+003, 5.136424e+003
1.052852e+003, 5.134596e+003
1.053334e+003, 5.132088e+003
1.053817e+003, 5.129253e+003
1.054299e+003, 5.128349e+003
1.054781e+003, 5.132729e+003
1.055263e+003, 5.137119e+003
1.055745e+003, 5.138921e+003
1.056227e+003, 5.139039e+003
1.056709e+003, 5.139658e+003
1.057191e+003, 5.140835e+003
1.057673e+003, 5.140474e+003
1.058156e+003, 5.137470e+003
1.058638e+003, 5.135570e+003
1.059120e+003, 5.140543e+003
1.059602e+003, 5.147524e+003
1.060084e+003, 5.150702e+003
1.060566e+003, 5.148257e+003
1.061048e+003, 5.148421e+003
1.061530e+003, 5.152507e+003
1.062013e+003, 5.156810e+003
1.062495e+003, 5.159976e+003
1.062977e+003, 5.161868e+003
1.063459e+003, 5.161970e+003
1.063941e+003, 5.160556e+003
1.064423e+003, 5.158340e+003
1.064905e+003, 5.153860e+003
1.065387e+003, 5.151116e+003
1.065870e+003, 5.152290e+003
1.066352e+003, 5.155084e+003
1.066834e+003, 5.157974e+003
1.067316e+003, 5.160955e+003
1.067798e+003, 5.162475e+003
1.068280e+003, 5.162485e+003
1.068762e+003, 5.162033e+003
1.069244e+003, 5.161415e+003
1.069726e+003, 5.161068e+003
1.070208e+003, 5.161622e+003
1.070691e+003, 5.162811e+003
1.071173e+003, 5.163441e+003
1.071655e+003, 5.163441e+003
1.072137e+003, 5.162739e+003
1.072619e+003, 5.160838e+003
1.073101e+003, 5.159557e+003
1.073583e+003, 5.162523e+003
1.074065e+003, 5.167258e+003
1.074548e+003, 5.169458e+003
1.075030e+003, 5.168026e+003
1.075512e+003, 5.167352e+003
1.075994e+003, 5.170103e+003
1.076476e+003, 5.171753e+003
1.076958e+003, 5.169943e+003
1.077440e+003, 5.165875e+003
1.077922e+003, 5.164058e+003
1.078405e+003, 5.164126e+003
1.078887e+003, 5.164238e+003
1.079369e+003, 5.163619e+003
1.079851e+003, 5.163044e+003
1.080333e+003, 5.162735e+003
1.080815e+003, 5.162910e+003
1.081297e+003, 5.163785e+003
1.081779e+003, 5.165487e+003
1.082261e+003, 5.167267e+003
1.082744e+003, 5.169141e+003
1.083226e+003, 5.170975e+003
1.083708e+003, 5.172854e+003
1.084190e+003, 5.174463e+003
1.084672e+003, 5.175234e+003
1.085154e+003, 5.175421e+003
1.085636e+003, 5.175953e+003
1.086118e+003, 5.177201e+003
1.086601e+003, 5.178325e+003
1.087083e+003, 5.179333e+003
1.087565e+003, 5.179933e+003
1.088047e+003, 5.178547e+003
1.088529e+003, 5.176831e+003
1.089011e+003, 5.179457e+003
1.089493e+003, 5.186868e+003
1.089975e+003, 5.191690e+003
1.090458e+003, 5.188226e+003
1.090940e+003, 5.184437e+003
1.091422e+003, 5.183006e+003
1.091904e+003, 5.183467e+003
1.092386e+003, 5.185435e+003
1.092868e+003, 5.188380e+003
1.093350e+003, 5.188506e+003
1.093832e+003, 5.183598e+003
1.094314e+003, 5.179278e+003
1.094797e+003, 5.180011e+003
1.095279e+003, 5.182803e+003
1.095761e+003, 5.185217e+003
1.096243e+003, 5.187231e+003
1.096725e+003, 5.187923e+003
1.097207e+003, 5.187203e+003
1.097689e+003, 5.186790e+003
1.098171e+003, 5.188389e+003
1.098653e+003, 5.190075e+003
1.099136e+003, 5.189577e+003
1.099618e+003, 5.187532e+003
1.100100e+003, 5.185075e+003
1.100582e+003, 5.180822e+003
1.101064e+003, 5.179334e+003
1.101546e+003, 5.181381e+003
1.102028e+003, 5.184353e+003
1.102510e+003, 5.185744e+003
1.102993e+003, 5.186292e+003
1.103475e+003, 5.188224e+003
1.103957e+003, 5.191166e+003
1.104439e+003, 5.192373e+003
1.104921e+003, 5.188050e+003
1.105403e+003, 5.185423e+003
1.105885e+003, 5.187103e+003
1.106367e+003, 5.190584e+003
1.106849e+003, 5.191387e+003
1.107332e+003, 5.190017e+003
1.107814e+003, 5.188312e+003
1.108296e+003, 5.186369e+003
1.108778e+003, 5.187005e+003
1.109260e+003, 5.196145e+003
1.109742e+003, 5.204609e+003
1.110224e+003, 5.205614e+003
1.110706e+003, 5.200714e+003
1.111188e+003, 5.197925e+003
1.111671e+003, 5.197198e+003
1.112153e+003, 5.197550e+003
1.112635e+003, 5.198686e+003
1.113117e+003, 5.200555e+003
1.113599e+003, 5.203788e+003
1.114081e+003, 5.207323e+003
1.114563e+003, 5.209736e+003
1.115045e+003, 5.210604e+003
1.115528e+003, 5.212227e+003
1.116010e+003, 5.215244e+003
1.116492e+003, 5.216299e+003
1.116974e+003, 5.211905e+003
1.117456e+003, 5.205906e+003
1.117938e+003, 5.204987e+003
1.118420e+003, 5.207251e+003
1.118902e+003, 5.208584e+003
1.119385e+003, 5.206390e+003
1.119867e+003, 5.205579e+003
1.120349e+003, 5.206984e+003
1.120831e+003, 5.208717e+003
1.121313e+003, 5.209155e+003
1.121795e+003, 5.208522e+003
1.122277e+003, 5.207017e+003
1.122759e+003, 5.204872e+003
1.123241e+003, 5.203386e+003
1.123724e+003, 5.202622e+003
1.124206e+003, 5.203325e+003
1.124688e+003, 5.206155e+003
1.125170e+003, 5.209861e+003
1.125652e+003, 5.212500e+003
1.126134e+003, 5.214189e+003
1.126616e+003, 5.215920e+003
1.127098e+003, 5.217806e+003
1.127580e+003, 5.219520e+003
1.128063e+003, 5.222028e+003
1.128545e+003, 5.223183e+003
1.129027e+003, 5.220214e+003
1.129509e+003, 5.214968e+003
1.129991e+003, 5.214502e+003
1.130473e+003, 5.219015e+003
1.130955e+003, 5.220931e+003
1.131437e+003, 5.217567e+003
1.131920e+003, 5.214310e+003
1.132402e+003, 5.216302e+003
1.132884e+003, 5.220882e+003
1.133366e+003, 5.226205e+003
1.133848e+003, 5.232194e+003
1.134330e+003, 5.235134e+003
1.134812e+003, 5.234568e+003
1.135294e+003, 5.233117e+003
1.135776e+003, 5.231178e+003
1.136259e+003, 5.229958e+003
1.136741e+003, 5.231721e+003
1.137223e+003, 5.235002e+003
1.137705e+003, 5.237461e+003
1.138187e+003, 5.237393e+003
1.138669e+003, 5.239358e+003
1.139151e+003, 5.244232e+003
1.139633e+003, 5.248834e+003
1.140115e+003, 5.250633e+003
1.140598e+003, 5.250876e+003
1.141080e+003, 5.252666e+003
1.141562e+003, 5.255164e+003
1.142044e+003, 5.256064e+003
1.142526e+003, 5.251834e+003
1.143008e+003, 5.250185e+003
1.143490e+003, 5.253210e+003
1.143972e+003, 5.257073e+003
1.144455e+003, 5.257544e+003
1.144937e+003, 5.255787e+003
1.145419e+003, 5.255823e+003
1.145901e+003, 5.257560e+003
1.146383e+003, 5.258862e+003
1.146865e+003, 5.257782e+003
1.147347e+003, 5.257300e+003
1.147829e+003, 5.259018e+003
1.148312e+003, 5.261137e+003
1.148794e+003, 5.260192e+003
1.149276e+003, 5.256820e+003
1.149758e+003, 5.255289e+003
1.150240e+003, 5.256089e+003
1.150722e+003, 5.258348e+003
1.151204e+003, 5.262702e+003
1.151686e+003, 5.267104e+003
1.152168e+003, 5.270647e+003
1.152651e+003, 5.273280e+003
1.153133e+003, 5.274774e+003
1.153615e+003, 5.275132e+003
1.154097e+003, 5.274329e+003
1.154579e+003, 5.271871e+003
1.155061e+003, 5.270816e+003
1.155543e+003, 5.275938e+003
1.156025e+003, 5.281714e+003
1.156507e+003, 5.282350e+003
1.156990e+003, 5.278587e+003
1.157472e+003, 5.279014e+003
1.157954e+003, 5.283980e+003
1.158436e+003, 5.288033e+003
1.158918e+003, 5.288984e+003
1.159400e+003, 5.289226e+003
1.159882e+003, 5.291310e+003
1.160364e+003, 5.293985e+003
1.160847e+003, 5.295725e+003
1.161329e+003, 5.296259e+003
1.161811e+003, 5.296751e+003
1.162293e+003, 5.297083e+003
1.162775e+003, 5.298020e+003
1.163257e+003, 5.300272e+003
1.163739e+003, 5.302889e+003
1.164221e+003, 5.304985e+003
1.164703e+003, 5.306487e+003
1.165186e+003, 5.307221e+003
1.165668e+003, 5.306575e+003
1.166150e+003, 5.306326e+003
1.166632e+003, 5.306463e+003
1.167114e+003, 5.306930e+003
1.167596e+003, 5.308005e+003
1.168078e+003, 5.309211e+003
1.168560e+003, 5.309051e+003
1.169042e+003, 5.308432e+003
1.169525e+003, 5.309779e+003
1.170007e+003, 5.317498e+003
1.170489e+003, 5.320593e+003
1.170971e+003, 5.317158e+003
1.171453e+003, 5.312692e+003
1.171935e+003, 5.312684e+003
1.172417e+003, 5.315322e+003
1.172899e+003, 5.317127e+003
1.173382e+003, 5.318221e+003
1.173864e+003, 5.319812e+003
1.174346e+003, 5.323567e+003
1.174828e+003, 5.325926e+003
1.175310e+003, 5.325962e+003
1.175792e+003, 5.325267e+003
1.176274e+003, 5.325920e+003
1.176756e+003, 5.327398e+003
1.177239e+003, 5.328607e+003
1.177721e+003, 5.329405e+003
1.178203e+003, 5.329812e+003
1.178685e+003, 5.328382e+003
1.179167e+003, 5.328582e+003
1.179649e+003, 5.331962e+003
1.180131e+003, 5.336351e+003
1.180613e+003, 5.337429e+003
1.181095e+003, 5.336347e+003
1.181578e+003, 5.336564e+003
1.182060e+003, 5.338653e+003
1.182542e+003, 5.340943e+003
1.183024e+003, 5.343248e+003
1.183506e+003, 5.344984e+003
1.183988e+003, 5.345689e+003
1.184470e+003, 5.346019e+003
1.184952e+003, 5.347877e+003
1.185434e+003, 5.350810e+003
1.185917e+003, 5.353286e+003
1.186399e+003, 5.355025e+003
1.186881e+003, 5.355889e+003
1.187363e+003, 5.353903e+003
1.187845e+003, 5.353202e+003
1.188327e+003, 5.356530e+003
1.188809e+003, 5.362275e+003
1.189291e+003, 5.363761e+003
1.189774e+003, 5.361971e+003
1.190256e+003, 5.361728e+003
1.190738e+003, 5.364862e+003
1.191220e+003, 5.368741e+003
1.191702e+003, 5.373316e+003
1.192184e+003, 5.376920e+003
1.192666e+003, 5.378260e+003
1.193148e+003, 5.377709e+003
1.193630e+003, 5.377743e+003
1.194113e+003, 5.378244e+003
1.194595e+003, 5.378327e+003
1.195077e+003, 5.376336e+003
1.195559e+003, 5.376344e+003
1.196041e+003, 5.383296e+003
1.196523e+003, 5.390651e+003
1.197005e+003, 5.393084e+003
1.197487e+003, 5.390922e+003
1.197969e+003, 5.389327e+003
1.198452e+003, 5.388222e+003
1.198934e+003, 5.386778e+003
1.199416e+003, 5.383413e+003
1.199898e+003, 5.381134e+003
1.200380e+003, 5.382248e+003
1.200862e+003, 5.384583e+003
1.201344e+003, 5.385780e+003
1.201826e+003, 5.385856e+003
1.202309e+003, 5.387966e+003
1.202791e+003, 5.391990e+003
1.203273e+003, 5.396165e+003
1.203755e+003, 5.400200e+003
1.204237e+003, 5.403318e+003
1.204719e+003, 5.405583e+003
1.205201e+003, 5.406259e+003
1.205683e+003, 5.403329e+003
1.206166e+003, 5.396931e+003
1.206648e+003, 5.394904e+003
1.207130e+003, 5.397322e+003
1.207612e+003, 5.400170e+003
1.208094e+003, 5.400284e+003
1.208576e+003, 5.400729e+003
1.209058e+003, 5.403742e+003
1.209540e+003, 5.407781e+003
1.210022e+003, 5.410906e+003
1.210505e+003, 5.413153e+003
1.210987e+003, 5.414345e+003
1.211469e+003, 5.414522e+003
1.211951e+003, 5.414521e+003
1.212433e+003, 5.415780e+003
1.212915e+003, 5.416150e+003
1.213397e+003, 5.413493e+003
1.213879e+003, 5.409734e+003
1.214361e+003, 5.408171e+003
1.214844e+003, 5.408687e+003
1.215326e+003, 5.408797e+003
1.215808e+003, 5.408216e+003
1.216290e+003, 5.408681e+003
1.216772e+003, 5.412940e+003
1.217254e+003, 5.416834e+003
1.217736e+003, 5.416997e+003
1.218218e+003, 5.415748e+003
1.218701e+003, 5.419038e+003
1.219183e+003, 5.426172e+003
1.219665e+003, 5.428921e+003
1.220147e+003, 5.425788e+003
1.220629e+003, 5.422638e+003
1.221111e+003, 5.422620e+003
1.221593e+003, 5.424378e+003
1.222075e+003, 5.427991e+003
1.222557e+003, 5.432284e+003
1.223040e+003, 5.434485e+003
1.223522e+003, 5.434706e+003
1.224004e+003, 5.433266e+003
1.224486e+003, 5.430039e+003
1.224968e+003, 5.427629e+003
1.225450e+003, 5.428831e+003
1.225932e+003, 5.430103e+003
1.226414e+003, 5.429707e+003
1.226896e+003, 5.428071e+003
1.227379e+003, 5.425439e+003
1.227861e+003, 5.422462e+003
1.228343e+003, 5.423205e+003
1.228825e+003, 5.429327e+003
1.229307e+003, 5.434013e+003
1.229789e+003, 5.431706e+003
1.230271e+003, 5.428757e+003
1.230753e+003, 5.428272e+003
1.231236e+003, 5.429565e+003
1.231718e+003, 5.430219e+003
1.232200e+003, 5.430625e+003
1.232682e+003, 5.432972e+003
1.233164e+003, 5.438485e+003
1.233646e+003, 5.442552e+003
1.234128e+003, 5.441640e+003
1.234610e+003, 5.440142e+003
1.235093e+003, 5.440234e+003
1.235575e+003, 5.441232e+003
1.236057e+003, 5.440576e+003
1.236539e+003, 5.438914e+003
1.237021e+003, 5.438200e+003
1.237503e+003, 5.438882e+003
1.237985e+003, 5.441084e+003
1.238467e+003, 5.446993e+003
1.238949e+003, 5.451771e+003
1.239432e+003, 5.453021e+003
1.239914e+003, 5.451749e+003
1.240396e+003, 5.450410e+003
1.240878e+003, 5.449148e+003
1.241360e+003, 5.448478e+003
1.241842e+003, 5.448567e+003
1.242324e+003, 5.449060e+003
1.242806e+003, 5.449777e+003
1.243288e+003, 5.451038e+003
1.243771e+003, 5.453487e+003
1.244253e+003, 5.456222e+003
1.244735e+003, 5.456143e+003
1.245217e+003, 5.454668e+003
1.245699e+003, 5.455413e+003
1.246181e+003, 5.460819e+003
1.246663e+003, 5.464240e+003
1.247145e+003, 5.464093e+003
1.247628e+003, 5.463967e+003
1.248110e+003, 5.465965e+003
1.248592e+003, 5.469064e+003
1.249074e+003, 5.471719e+003
1.249556e+003, 5.473623e+003
1.250038e+003, 5.474134e+003
1.250520e+003, 5.472255e+003
1.251002e+003, 5.470740e+003
1.251484e+003, 5.469126e+003
1.251967e+003, 5.469726e+003
1.252449e+003, 5.475603e+003
1.252931e+003, 5.482568e+003
1.253413e+003, 5.483375e+003
1.253895e+003, 5.480615e+003
1.254377e+003, 5.478655e+003
1.254859e+003, 5.477899e+003
1.255341e+003, 5.479778e+003
1.255823e+003, 5.484921e+003
1.256306e+003, 5.489597e+003
1.256788e+003, 5.491733e+003
1.257270e+003, 5.492060e+003
1.257752e+003, 5.489931e+003
1.258234e+003, 5.487230e+003
1.258716e+003, 5.487377e+003
1.259198e+003, 5.491737e+003
1.259680e+003, 5.494564e+003
1.260163e+003, 5.495954e+003
1.260645e+003, 5.495608e+003
1.261127e+003, 5.492371e+003
1.261609e+003, 5.488690e+003
1.262091e+003, 5.486531e+003
1.262573e+003, 5.485472e+003
1.263055e+003, 5.484577e+003
1.263537e+003, 5.483384e+003
1.264020e+003, 5.486292e+003
1.264502e+003, 5.493196e+003
1.264984e+003, 5.498413e+003
1.265466e+003, 5.496453e+003
1.265948e+003, 5.494290e+003
1.266430e+003, 5.497622e+003
1.266912e+003, 5.502296e+003
1.267394e+003, 5.503534e+003
1.267876e+003, 5.501240e+003
1.268359e+003, 5.498585e+003
1.268841e+003, 5.495814e+003
1.269323e+003, 5.495184e+003
1.269805e+003, 5.499908e+003
1.270287e+003, 5.504435e+003
1.270769e+003, 5.506732e+003
1.271251e+003, 5.507415e+003
1.271733e+003, 5.506081e+003
1.272215e+003, 5.503309e+003
1.272698e+003, 5.504909e+003
1.273180e+003, 5.509710e+003
1.273662e+003, 5.512057e+003
1.274144e+003, 5.506390e+003
1.274626e+003, 5.502379e+003
1.275108e+003, 5.502477e+003
1.275590e+003, 5.504022e+003
1.276072e+003, 5.505624e+003
1.276555e+003, 5.506869e+003
1.277037e+003, 5.504940e+003
1.277519e+003, 5.501377e+003
1.278001e+003, 5.500765e+003
1.278483e+003, 5.508545e+003
1.278965e+003, 5.513072e+003
1.279447e+003, 5.512281e+003
1.279929e+003, 5.511372e+003
1.280411e+003, 5.515368e+003
1.280894e+003, 5.521236e+003
1.281376e+003, 5.523384e+003
1.281858e+003, 5.522962e+003
1.282340e+003, 5.522668e+003
1.282822e+003, 5.523349e+003
1.283304e+003, 5.523563e+003
1.283786e+003, 5.523134e+003
1.284268e+003, 5.523305e+003
1.284750e+003, 5.525178e+003
1.285233e+003, 5.527942e+003
1.285715e+003, 5.531130e+003
1.286197e+003, 5.534331e+003
1.286679e+003, 5.536722e+003
1.287161e+003, 5.537893e+003
1.287643e+003, 5.539779e+003
1.288125e+003, 5.542349e+003
1.288607e+003, 5.545224e+003
1.289090e+003, 5.548691e+003
1.289572e+003, 5.551579e+003
1.290054e+003, 5.552553e+003
1.290536e+003, 5.552666e+003
1.291018e+003, 5.553420e+003
1.291500e+003, 5.554848e+003
1.291982e+003, 5.555412e+003
1.292464e+003, 5.555125e+003
1.292947e+003, 5.554112e+003
1.293429e+003, 5.551827e+003
1.293911e+003, 5.549799e+003
1.294393e+003, 5.549640e+003
1.294875e+003, 5.549443e+003
1.295357e+003, 5.547400e+003
1.295839e+003, 5.543935e+003
1.296321e+003, 5.542170e+003
1.296803e+003, 5.541911e+003
1.297286e+003, 5.541954e+003
1.297768e+003, 5.540874e+003
1.298250e+003, 5.542010e+003
1.298732e+003, 5.546603e+003
1.299214e+003, 5.551999e+003
1.299696e+003, 5.556270e+003
1.300178e+003, 5.559505e+003
1.300660e+003, 5.564083e+003
##END=



