##NAMES=Manganoneptunite
##RRUFFID=R130094
##IDEAL CHEMISTRY=KNa_2_LiMn^2+^_2_Ti^4+^_2_Si_8_O_24_
##LOCALITY=Mount Kurnasurt, Lovozero Massif, Kola Peninsula, USSR
##OWNER=RRUFF
##SOURCE=Michael Scott
##DESCRIPTION=Deep red massive, good cleavage, associated with raite R060854, and orthoclase
##STATUS=The identification of this mineral has been confirmed only by single crystal X-ray diffraction.
##URL=rruff.info/R130094
8.975323e+001, 0.000000e+000
9.023535e+001, 3.754649e+002
9.071747e+001, 3.855371e+002
9.119958e+001, 3.876988e+002
9.168170e+001, 3.824050e+002
9.216382e+001, 3.720331e+002
9.264594e+001, 3.590755e+002
9.312805e+001, 3.460336e+002
9.361017e+001, 3.344446e+002
9.409229e+001, 3.246587e+002
9.457440e+001, 3.170117e+002
9.505651e+001, 3.104784e+002
9.553863e+001, 3.050275e+002
9.602074e+001, 3.006653e+002
9.650286e+001, 2.975367e+002
9.698498e+001, 2.954991e+002
9.746709e+001, 2.937215e+002
9.794921e+001, 2.921203e+002
9.843133e+001, 2.911974e+002
9.891344e+001, 2.899482e+002
9.939556e+001, 2.875739e+002
9.987768e+001, 2.844903e+002
1.003598e+002, 2.819120e+002
1.008419e+002, 2.803905e+002
1.013240e+002, 2.800867e+002
1.018061e+002, 2.807421e+002
1.022883e+002, 2.829487e+002
1.027704e+002, 2.856709e+002
1.032525e+002, 2.881385e+002
1.037346e+002, 2.904278e+002
1.042167e+002, 2.920904e+002
1.046988e+002, 2.930768e+002
1.051810e+002, 2.931994e+002
1.056631e+002, 2.918512e+002
1.061452e+002, 2.880094e+002
1.066273e+002, 2.823524e+002
1.071094e+002, 2.776341e+002
1.075915e+002, 2.739189e+002
1.080737e+002, 2.712189e+002
1.085558e+002, 2.694916e+002
1.090379e+002, 2.686571e+002
1.095200e+002, 2.685788e+002
1.100021e+002, 2.692044e+002
1.104842e+002, 2.706118e+002
1.109664e+002, 2.723306e+002
1.114485e+002, 2.745558e+002
1.119306e+002, 2.769066e+002
1.124127e+002, 2.794920e+002
1.128948e+002, 2.821740e+002
1.133769e+002, 2.845005e+002
1.138591e+002, 2.857873e+002
1.143412e+002, 2.855114e+002
1.148233e+002, 2.849485e+002
1.153054e+002, 2.836132e+002
1.157875e+002, 2.822119e+002
1.162696e+002, 2.813759e+002
1.167517e+002, 2.813201e+002
1.172339e+002, 2.819568e+002
1.177160e+002, 2.831540e+002
1.181981e+002, 2.846720e+002
1.186802e+002, 2.869651e+002
1.191623e+002, 2.905103e+002
1.196444e+002, 2.949822e+002
1.201266e+002, 2.995491e+002
1.206087e+002, 3.038789e+002
1.210908e+002, 3.080216e+002
1.215729e+002, 3.123505e+002
1.220550e+002, 3.174829e+002
1.225371e+002, 3.217530e+002
1.230193e+002, 3.237157e+002
1.235014e+002, 3.232993e+002
1.239835e+002, 3.212568e+002
1.244656e+002, 3.169384e+002
1.249477e+002, 3.114883e+002
1.254298e+002, 3.056710e+002
1.259120e+002, 2.996606e+002
1.263941e+002, 2.936057e+002
1.268762e+002, 2.878471e+002
1.273583e+002, 2.821314e+002
1.278404e+002, 2.772257e+002
1.283225e+002, 2.732972e+002
1.288047e+002, 2.701439e+002
1.292868e+002, 2.677091e+002
1.297689e+002, 2.661922e+002
1.302510e+002, 2.654204e+002
1.307331e+002, 2.628083e+002
1.312152e+002, 2.568806e+002
1.316974e+002, 2.503784e+002
1.321795e+002, 2.432388e+002
1.326616e+002, 2.359613e+002
1.331437e+002, 2.294408e+002
1.336258e+002, 2.244399e+002
1.341079e+002, 2.211103e+002
1.345901e+002, 2.185605e+002
1.350722e+002, 2.169822e+002
1.355543e+002, 2.158464e+002
1.360364e+002, 2.149257e+002
1.365185e+002, 2.141710e+002
1.370006e+002, 2.135892e+002
1.374828e+002, 2.132331e+002
1.379649e+002, 2.131615e+002
1.384470e+002, 2.130309e+002
1.389291e+002, 2.126118e+002
1.394112e+002, 2.122063e+002
1.398933e+002, 2.122071e+002
1.403755e+002, 2.127409e+002
1.408576e+002, 2.135261e+002
1.413397e+002, 2.141528e+002
1.418218e+002, 2.146243e+002
1.423039e+002, 2.153360e+002
1.427860e+002, 2.164787e+002
1.432681e+002, 2.179981e+002
1.437503e+002, 2.197293e+002
1.442324e+002, 2.217532e+002
1.447145e+002, 2.238566e+002
1.451966e+002, 2.258067e+002
1.456787e+002, 2.275993e+002
1.461608e+002, 2.294603e+002
1.466430e+002, 2.317165e+002
1.471251e+002, 2.344489e+002
1.476072e+002, 2.368088e+002
1.480893e+002, 2.389686e+002
1.485714e+002, 2.404724e+002
1.490535e+002, 2.410556e+002
1.495357e+002, 2.406494e+002
1.500178e+002, 2.392746e+002
1.504999e+002, 2.368530e+002
1.509820e+002, 2.328920e+002
1.514641e+002, 2.288341e+002
1.519462e+002, 2.243754e+002
1.524284e+002, 2.201245e+002
1.529105e+002, 2.165404e+002
1.533926e+002, 2.138127e+002
1.538747e+002, 2.117620e+002
1.543568e+002, 2.099564e+002
1.548389e+002, 2.083080e+002
1.553211e+002, 2.070934e+002
1.558032e+002, 2.063498e+002
1.562853e+002, 2.060260e+002
1.567674e+002, 2.060348e+002
1.572495e+002, 2.063215e+002
1.577316e+002, 2.069544e+002
1.582138e+002, 2.082964e+002
1.586959e+002, 2.110334e+002
1.591780e+002, 2.136008e+002
1.596601e+002, 2.158384e+002
1.601422e+002, 2.176413e+002
1.606243e+002, 2.187552e+002
1.611065e+002, 2.189605e+002
1.615886e+002, 2.183537e+002
1.620707e+002, 2.175876e+002
1.625528e+002, 2.165052e+002
1.630349e+002, 2.154302e+002
1.635170e+002, 2.144737e+002
1.639991e+002, 2.136459e+002
1.644813e+002, 2.130711e+002
1.649634e+002, 2.128361e+002
1.654455e+002, 2.129440e+002
1.659276e+002, 2.133503e+002
1.664097e+002, 2.142653e+002
1.668918e+002, 2.153113e+002
1.673740e+002, 2.160820e+002
1.678561e+002, 2.165577e+002
1.683382e+002, 2.168446e+002
1.688203e+002, 2.170738e+002
1.693024e+002, 2.171388e+002
1.697845e+002, 2.168073e+002
1.702667e+002, 2.157522e+002
1.707488e+002, 2.143886e+002
1.712309e+002, 2.136774e+002
1.717130e+002, 2.137887e+002
1.721951e+002, 2.143126e+002
1.726772e+002, 2.151339e+002
1.731594e+002, 2.161731e+002
1.736415e+002, 2.173027e+002
1.741236e+002, 2.183890e+002
1.746057e+002, 2.195078e+002
1.750878e+002, 2.211313e+002
1.755699e+002, 2.237593e+002
1.760521e+002, 2.263793e+002
1.765342e+002, 2.289605e+002
1.770163e+002, 2.313303e+002
1.774984e+002, 2.332321e+002
1.779805e+002, 2.345008e+002
1.784626e+002, 2.351369e+002
1.789448e+002, 2.351548e+002
1.794269e+002, 2.341897e+002
1.799090e+002, 2.329749e+002
1.803911e+002, 2.314771e+002
1.808732e+002, 2.298686e+002
1.813553e+002, 2.284782e+002
1.818375e+002, 2.275848e+002
1.823196e+002, 2.272215e+002
1.828017e+002, 2.271071e+002
1.832838e+002, 2.272143e+002
1.837659e+002, 2.275216e+002
1.842480e+002, 2.279904e+002
1.847301e+002, 2.286350e+002
1.852123e+002, 2.295293e+002
1.856944e+002, 2.307455e+002
1.861765e+002, 2.323318e+002
1.866586e+002, 2.340849e+002
1.871407e+002, 2.363417e+002
1.876228e+002, 2.385106e+002
1.881050e+002, 2.400740e+002
1.885871e+002, 2.409870e+002
1.890692e+002, 2.417106e+002
1.895513e+002, 2.426302e+002
1.900334e+002, 2.437498e+002
1.905155e+002, 2.450160e+002
1.909977e+002, 2.461810e+002
1.914798e+002, 2.475973e+002
1.919619e+002, 2.497571e+002
1.924440e+002, 2.527960e+002
1.929261e+002, 2.561865e+002
1.934082e+002, 2.594689e+002
1.938904e+002, 2.627008e+002
1.943725e+002, 2.660934e+002
1.948546e+002, 2.697613e+002
1.953367e+002, 2.736368e+002
1.958188e+002, 2.775130e+002
1.963009e+002, 2.811841e+002
1.967831e+002, 2.853100e+002
1.972652e+002, 2.905734e+002
1.977473e+002, 2.966744e+002
1.982294e+002, 3.027932e+002
1.987115e+002, 3.089108e+002
1.991936e+002, 3.148340e+002
1.996758e+002, 3.197117e+002
2.001579e+002, 3.236373e+002
2.006400e+002, 3.261715e+002
2.011221e+002, 3.274106e+002
2.016042e+002, 3.273270e+002
2.020863e+002, 3.258182e+002
2.025685e+002, 3.225193e+002
2.030506e+002, 3.175154e+002
2.035327e+002, 3.123293e+002
2.040148e+002, 3.069911e+002
2.044969e+002, 3.014237e+002
2.049790e+002, 2.956659e+002
2.054612e+002, 2.897017e+002
2.059433e+002, 2.834141e+002
2.064254e+002, 2.765794e+002
2.069075e+002, 2.691312e+002
2.073896e+002, 2.624384e+002
2.078717e+002, 2.568595e+002
2.083539e+002, 2.517598e+002
2.088360e+002, 2.469362e+002
2.093181e+002, 2.424489e+002
2.098002e+002, 2.385022e+002
2.102823e+002, 2.352907e+002
2.107644e+002, 2.328727e+002
2.112466e+002, 2.308725e+002
2.117287e+002, 2.293956e+002
2.122108e+002, 2.281920e+002
2.126929e+002, 2.271636e+002
2.131750e+002, 2.263202e+002
2.136571e+002, 2.257515e+002
2.141393e+002, 2.255992e+002
2.146214e+002, 2.259880e+002
2.151035e+002, 2.258771e+002
2.155856e+002, 2.249421e+002
2.160677e+002, 2.239176e+002
2.165498e+002, 2.231612e+002
2.170320e+002, 2.226695e+002
2.175141e+002, 2.222268e+002
2.179962e+002, 2.216396e+002
2.184783e+002, 2.208852e+002
2.189604e+002, 2.201758e+002
2.194425e+002, 2.191533e+002
2.199247e+002, 2.184453e+002
2.204068e+002, 2.187161e+002
2.208889e+002, 2.198546e+002
2.213710e+002, 2.209082e+002
2.218531e+002, 2.210232e+002
2.223352e+002, 2.201102e+002
2.228174e+002, 2.193729e+002
2.232995e+002, 2.188873e+002
2.237816e+002, 2.185158e+002
2.242637e+002, 2.181445e+002
2.247458e+002, 2.177700e+002
2.252279e+002, 2.174918e+002
2.257100e+002, 2.174134e+002
2.261922e+002, 2.175243e+002
2.266743e+002, 2.176519e+002
2.271564e+002, 2.177128e+002
2.276385e+002, 2.178324e+002
2.281206e+002, 2.180474e+002
2.286027e+002, 2.183513e+002
2.290849e+002, 2.189848e+002
2.295670e+002, 2.203643e+002
2.300491e+002, 2.222173e+002
2.305312e+002, 2.237866e+002
2.310133e+002, 2.248607e+002
2.314954e+002, 2.256414e+002
2.319776e+002, 2.262687e+002
2.324597e+002, 2.267076e+002
2.329418e+002, 2.272414e+002
2.334239e+002, 2.282725e+002
2.339060e+002, 2.294787e+002
2.343881e+002, 2.303441e+002
2.348703e+002, 2.306159e+002
2.353524e+002, 2.305947e+002
2.358345e+002, 2.306055e+002
2.363166e+002, 2.305955e+002
2.367987e+002, 2.308441e+002
2.372808e+002, 2.318431e+002
2.377630e+002, 2.330763e+002
2.382451e+002, 2.339249e+002
2.387272e+002, 2.340367e+002
2.392093e+002, 2.339191e+002
2.396914e+002, 2.343950e+002
2.401735e+002, 2.355984e+002
2.406557e+002, 2.369867e+002
2.411378e+002, 2.385820e+002
2.416199e+002, 2.401560e+002
2.421020e+002, 2.414790e+002
2.425841e+002, 2.424607e+002
2.430662e+002, 2.431871e+002
2.435484e+002, 2.438329e+002
2.440305e+002, 2.444849e+002
2.445126e+002, 2.447979e+002
2.449947e+002, 2.450372e+002
2.454768e+002, 2.447620e+002
2.459589e+002, 2.434160e+002
2.464410e+002, 2.407723e+002
2.469232e+002, 2.374350e+002
2.474053e+002, 2.345195e+002
2.478874e+002, 2.325807e+002
2.483695e+002, 2.296839e+002
2.488516e+002, 2.249682e+002
2.493337e+002, 2.196196e+002
2.498159e+002, 2.143703e+002
2.502980e+002, 2.094598e+002
2.507801e+002, 2.049801e+002
2.512622e+002, 2.010515e+002
2.517443e+002, 1.977710e+002
2.522264e+002, 1.949258e+002
2.527086e+002, 1.924966e+002
2.531907e+002, 1.904046e+002
2.536728e+002, 1.885885e+002
2.541549e+002, 1.870374e+002
2.546370e+002, 1.857652e+002
2.551191e+002, 1.848062e+002
2.556013e+002, 1.842684e+002
2.560834e+002, 1.838482e+002
2.565655e+002, 1.834835e+002
2.570476e+002, 1.832446e+002
2.575297e+002, 1.831419e+002
2.580118e+002, 1.831953e+002
2.584940e+002, 1.834647e+002
2.589761e+002, 1.840638e+002
2.594582e+002, 1.851740e+002
2.599403e+002, 1.861659e+002
2.604224e+002, 1.867413e+002
2.609045e+002, 1.874558e+002
2.613867e+002, 1.887886e+002
2.618688e+002, 1.907101e+002
2.623509e+002, 1.926960e+002
2.628330e+002, 1.940975e+002
2.633151e+002, 1.945841e+002
2.637972e+002, 1.957265e+002
2.642794e+002, 1.978647e+002
2.647615e+002, 2.002284e+002
2.652436e+002, 2.025629e+002
2.657257e+002, 2.047518e+002
2.662078e+002, 2.066195e+002
2.666899e+002, 2.079109e+002
2.671721e+002, 2.084337e+002
2.676542e+002, 2.096500e+002
2.681363e+002, 2.118435e+002
2.686184e+002, 2.143114e+002
2.691005e+002, 2.168589e+002
2.695826e+002, 2.193973e+002
2.700648e+002, 2.217568e+002
2.705469e+002, 2.237349e+002
2.710290e+002, 2.252862e+002
2.715111e+002, 2.275029e+002
2.719932e+002, 2.308384e+002
2.724753e+002, 2.342330e+002
2.729575e+002, 2.375104e+002
2.734396e+002, 2.405069e+002
2.739217e+002, 2.429074e+002
2.744038e+002, 2.444996e+002
2.748859e+002, 2.453026e+002
2.753680e+002, 2.454369e+002
2.758501e+002, 2.447275e+002
2.763322e+002, 2.437268e+002
2.768144e+002, 2.425758e+002
2.772965e+002, 2.412692e+002
2.777786e+002, 2.396935e+002
2.782607e+002, 2.377054e+002
2.787428e+002, 2.355172e+002
2.792249e+002, 2.340841e+002
2.797071e+002, 2.340438e+002
2.801892e+002, 2.338406e+002
2.806713e+002, 2.330034e+002
2.811534e+002, 2.317536e+002
2.816355e+002, 2.304644e+002
2.821176e+002, 2.292908e+002
2.825998e+002, 2.281892e+002
2.830819e+002, 2.270957e+002
2.835640e+002, 2.261455e+002
2.840461e+002, 2.249580e+002
2.845282e+002, 2.233183e+002
2.850103e+002, 2.214309e+002
2.854925e+002, 2.195543e+002
2.859746e+002, 2.177563e+002
2.864567e+002, 2.160788e+002
2.869388e+002, 2.145777e+002
2.874209e+002, 2.132331e+002
2.879030e+002, 2.121182e+002
2.883852e+002, 2.111522e+002
2.888673e+002, 2.104692e+002
2.893494e+002, 2.102853e+002
2.898315e+002, 2.106563e+002
2.903136e+002, 2.113667e+002
2.907957e+002, 2.122305e+002
2.912779e+002, 2.132711e+002
2.917600e+002, 2.142505e+002
2.922421e+002, 2.152778e+002
2.927242e+002, 2.161578e+002
2.932063e+002, 2.165490e+002
2.936884e+002, 2.164240e+002
2.941706e+002, 2.163636e+002
2.946527e+002, 2.169725e+002
2.951348e+002, 2.182662e+002
2.956169e+002, 2.193128e+002
2.960990e+002, 2.198119e+002
2.965811e+002, 2.202482e+002
2.970633e+002, 2.211658e+002
2.975454e+002, 2.225136e+002
2.980275e+002, 2.235599e+002
2.985096e+002, 2.236680e+002
2.989917e+002, 2.229958e+002
2.994738e+002, 2.227482e+002
2.999560e+002, 2.229531e+002
3.004381e+002, 2.235423e+002
3.009202e+002, 2.245401e+002
3.014023e+002, 2.259134e+002
3.018844e+002, 2.275236e+002
3.023665e+002, 2.293077e+002
3.028487e+002, 2.313001e+002
3.033308e+002, 2.335670e+002
3.038129e+002, 2.361759e+002
3.042950e+002, 2.389220e+002
3.047771e+002, 2.417991e+002
3.052592e+002, 2.447511e+002
3.057414e+002, 2.476289e+002
3.062235e+002, 2.503631e+002
3.067056e+002, 2.530155e+002
3.071877e+002, 2.557290e+002
3.076698e+002, 2.586000e+002
3.081519e+002, 2.612094e+002
3.086341e+002, 2.635183e+002
3.091162e+002, 2.654567e+002
3.095983e+002, 2.669307e+002
3.100804e+002, 2.679488e+002
3.105625e+002, 2.683370e+002
3.110446e+002, 2.676423e+002
3.115268e+002, 2.658693e+002
3.120089e+002, 2.639587e+002
3.124910e+002, 2.619139e+002
3.129731e+002, 2.599086e+002
3.134552e+002, 2.580177e+002
3.139373e+002, 2.562426e+002
3.144195e+002, 2.549310e+002
3.149016e+002, 2.545705e+002
3.153837e+002, 2.551098e+002
3.158658e+002, 2.554964e+002
3.163479e+002, 2.552840e+002
3.168300e+002, 2.551455e+002
3.173121e+002, 2.556139e+002
3.177943e+002, 2.566999e+002
3.182764e+002, 2.582091e+002
3.187585e+002, 2.601588e+002
3.192406e+002, 2.624282e+002
3.197227e+002, 2.644383e+002
3.202048e+002, 2.660659e+002
3.206870e+002, 2.675796e+002
3.211691e+002, 2.692901e+002
3.216512e+002, 2.710502e+002
3.221333e+002, 2.723328e+002
3.226154e+002, 2.728214e+002
3.230975e+002, 2.727465e+002
3.235797e+002, 2.726741e+002
3.240618e+002, 2.725857e+002
3.245439e+002, 2.725368e+002
3.250260e+002, 2.726071e+002
3.255081e+002, 2.727225e+002
3.259902e+002, 2.727461e+002
3.264724e+002, 2.726342e+002
3.269545e+002, 2.724157e+002
3.274366e+002, 2.720275e+002
3.279187e+002, 2.713531e+002
3.284008e+002, 2.711357e+002
3.288829e+002, 2.721377e+002
3.293651e+002, 2.733795e+002
3.298472e+002, 2.736239e+002
3.303293e+002, 2.726563e+002
3.308114e+002, 2.712973e+002
3.312935e+002, 2.704008e+002
3.317756e+002, 2.700097e+002
3.322578e+002, 2.690717e+002
3.327399e+002, 2.670559e+002
3.332220e+002, 2.648670e+002
3.337041e+002, 2.630393e+002
3.341862e+002, 2.616295e+002
3.346683e+002, 2.606124e+002
3.351505e+002, 2.600360e+002
3.356326e+002, 2.598586e+002
3.361147e+002, 2.596916e+002
3.365968e+002, 2.593624e+002
3.370789e+002, 2.592178e+002
3.375610e+002, 2.597393e+002
3.380432e+002, 2.605707e+002
3.385253e+002, 2.608145e+002
3.390074e+002, 2.600029e+002
3.394895e+002, 2.584869e+002
3.399716e+002, 2.572112e+002
3.404537e+002, 2.565145e+002
3.409359e+002, 2.554278e+002
3.414180e+002, 2.535578e+002
3.419001e+002, 2.512711e+002
3.423822e+002, 2.490369e+002
3.428643e+002, 2.469974e+002
3.433464e+002, 2.450110e+002
3.438286e+002, 2.429040e+002
3.443107e+002, 2.406784e+002
3.447928e+002, 2.382584e+002
3.452749e+002, 2.354547e+002
3.457570e+002, 2.326053e+002
3.462391e+002, 2.297794e+002
3.467213e+002, 2.270912e+002
3.472034e+002, 2.249254e+002
3.476855e+002, 2.237584e+002
3.481676e+002, 2.236574e+002
3.486497e+002, 2.230571e+002
3.491318e+002, 2.217894e+002
3.496140e+002, 2.202907e+002
3.500961e+002, 2.184935e+002
3.505782e+002, 2.166152e+002
3.510603e+002, 2.150603e+002
3.515424e+002, 2.140634e+002
3.520245e+002, 2.135928e+002
3.525067e+002, 2.135346e+002
3.529888e+002, 2.142494e+002
3.534709e+002, 2.149270e+002
3.539530e+002, 2.156076e+002
3.544351e+002, 2.161460e+002
3.549172e+002, 2.163879e+002
3.553994e+002, 2.162763e+002
3.558815e+002, 2.158437e+002
3.563636e+002, 2.151237e+002
3.568457e+002, 2.139250e+002
3.573278e+002, 2.128075e+002
3.578099e+002, 2.117776e+002
3.582920e+002, 2.108119e+002
3.587741e+002, 2.099744e+002
3.592563e+002, 2.092193e+002
3.597384e+002, 2.083545e+002
3.602205e+002, 2.071320e+002
3.607026e+002, 2.054648e+002
3.611847e+002, 2.042992e+002
3.616668e+002, 2.044840e+002
3.621490e+002, 2.042637e+002
3.626311e+002, 2.027423e+002
3.631132e+002, 2.003999e+002
3.635953e+002, 1.982462e+002
3.640774e+002, 1.969140e+002
3.645595e+002, 1.961642e+002
3.650417e+002, 1.949641e+002
3.655238e+002, 1.928303e+002
3.660059e+002, 1.908960e+002
3.664880e+002, 1.893459e+002
3.669701e+002, 1.880249e+002
3.674522e+002, 1.868195e+002
3.679344e+002, 1.856865e+002
3.684165e+002, 1.845656e+002
3.688986e+002, 1.833435e+002
3.693807e+002, 1.819562e+002
3.698628e+002, 1.806506e+002
3.703449e+002, 1.794314e+002
3.708271e+002, 1.782902e+002
3.713092e+002, 1.771304e+002
3.717913e+002, 1.760151e+002
3.722734e+002, 1.751431e+002
3.727555e+002, 1.747568e+002
3.732376e+002, 1.748398e+002
3.737198e+002, 1.748080e+002
3.742019e+002, 1.745418e+002
3.746840e+002, 1.743063e+002
3.751661e+002, 1.741704e+002
3.756482e+002, 1.741239e+002
3.761303e+002, 1.741539e+002
3.766125e+002, 1.742614e+002
3.770946e+002, 1.744238e+002
3.775767e+002, 1.745859e+002
3.780588e+002, 1.747291e+002
3.785409e+002, 1.749243e+002
3.790230e+002, 1.751255e+002
3.795052e+002, 1.754231e+002
3.799873e+002, 1.759525e+002
3.804694e+002, 1.767357e+002
3.809515e+002, 1.775374e+002
3.814336e+002, 1.780677e+002
3.819157e+002, 1.783346e+002
3.823979e+002, 1.787449e+002
3.828800e+002, 1.794553e+002
3.833621e+002, 1.801975e+002
3.838442e+002, 1.809175e+002
3.843263e+002, 1.815466e+002
3.848084e+002, 1.818666e+002
3.852906e+002, 1.814813e+002
3.857727e+002, 1.807486e+002
3.862548e+002, 1.805902e+002
3.867369e+002, 1.812036e+002
3.872190e+002, 1.816801e+002
3.877011e+002, 1.814236e+002
3.881833e+002, 1.807187e+002
3.886654e+002, 1.798727e+002
3.891475e+002, 1.787666e+002
3.896296e+002, 1.778544e+002
3.901117e+002, 1.776841e+002
3.905938e+002, 1.781589e+002
3.910760e+002, 1.785230e+002
3.915581e+002, 1.785217e+002
3.920402e+002, 1.783126e+002
3.925223e+002, 1.780509e+002
3.930044e+002, 1.777114e+002
3.934865e+002, 1.775784e+002
3.939687e+002, 1.778614e+002
3.944508e+002, 1.783894e+002
3.949329e+002, 1.789284e+002
3.954150e+002, 1.794582e+002
3.958971e+002, 1.799080e+002
3.963792e+002, 1.802018e+002
3.968614e+002, 1.803432e+002
3.973435e+002, 1.804657e+002
3.978256e+002, 1.805449e+002
3.983077e+002, 1.806326e+002
3.987898e+002, 1.807619e+002
3.992719e+002, 1.809278e+002
3.997540e+002, 1.811062e+002
4.002361e+002, 1.812796e+002
4.007183e+002, 1.814640e+002
4.012004e+002, 1.816875e+002
4.016825e+002, 1.817409e+002
4.021646e+002, 1.821776e+002
4.026467e+002, 1.834396e+002
4.031288e+002, 1.849784e+002
4.036110e+002, 1.862375e+002
4.040931e+002, 1.870679e+002
4.045752e+002, 1.874850e+002
4.050573e+002, 1.874299e+002
4.055394e+002, 1.867309e+002
4.060215e+002, 1.864482e+002
4.065037e+002, 1.869900e+002
4.069858e+002, 1.875065e+002
4.074679e+002, 1.875228e+002
4.079500e+002, 1.871632e+002
4.084321e+002, 1.868014e+002
4.089142e+002, 1.866621e+002
4.093964e+002, 1.867177e+002
4.098785e+002, 1.868417e+002
4.103606e+002, 1.872017e+002
4.108427e+002, 1.874043e+002
4.113248e+002, 1.873577e+002
4.118069e+002, 1.871749e+002
4.122891e+002, 1.869083e+002
4.127712e+002, 1.865943e+002
4.132533e+002, 1.863383e+002
4.137354e+002, 1.863408e+002
4.142175e+002, 1.867428e+002
4.146996e+002, 1.868320e+002
4.151818e+002, 1.863435e+002
4.156639e+002, 1.857792e+002
4.161460e+002, 1.853479e+002
4.166281e+002, 1.849964e+002
4.171102e+002, 1.845628e+002
4.175923e+002, 1.839225e+002
4.180745e+002, 1.831410e+002
4.185566e+002, 1.824387e+002
4.190387e+002, 1.818703e+002
4.195208e+002, 1.812684e+002
4.200029e+002, 1.805346e+002
4.204850e+002, 1.797754e+002
4.209672e+002, 1.790780e+002
4.214493e+002, 1.784628e+002
4.219314e+002, 1.779385e+002
4.224135e+002, 1.775787e+002
4.228956e+002, 1.773704e+002
4.233777e+002, 1.770117e+002
4.238599e+002, 1.763416e+002
4.243420e+002, 1.756751e+002
4.248241e+002, 1.754111e+002
4.253062e+002, 1.753924e+002
4.257883e+002, 1.750279e+002
4.262704e+002, 1.738984e+002
4.267526e+002, 1.723582e+002
4.272347e+002, 1.708707e+002
4.277168e+002, 1.694246e+002
4.281989e+002, 1.681284e+002
4.286810e+002, 1.670639e+002
4.291631e+002, 1.661946e+002
4.296453e+002, 1.654339e+002
4.301274e+002, 1.648963e+002
4.306095e+002, 1.642039e+002
4.310916e+002, 1.630313e+002
4.315737e+002, 1.615960e+002
4.320558e+002, 1.604138e+002
4.325380e+002, 1.596638e+002
4.330201e+002, 1.588326e+002
4.335022e+002, 1.571864e+002
4.339843e+002, 1.545595e+002
4.344664e+002, 1.525618e+002
4.349485e+002, 1.514990e+002
4.354307e+002, 1.508633e+002
4.359128e+002, 1.506003e+002
4.363949e+002, 1.505255e+002
4.368770e+002, 1.500808e+002
4.373591e+002, 1.488699e+002
4.378412e+002, 1.471920e+002
4.383234e+002, 1.462150e+002
4.388055e+002, 1.468180e+002
4.392876e+002, 1.470021e+002
4.397697e+002, 1.462271e+002
4.402518e+002, 1.452095e+002
4.407339e+002, 1.446720e+002
4.412160e+002, 1.447341e+002
4.416982e+002, 1.449682e+002
4.421803e+002, 1.448839e+002
4.426624e+002, 1.444286e+002
4.431445e+002, 1.440418e+002
4.436266e+002, 1.437461e+002
4.441087e+002, 1.434989e+002
4.445909e+002, 1.434193e+002
4.450730e+002, 1.433564e+002
4.455551e+002, 1.430322e+002
4.460372e+002, 1.422812e+002
4.465193e+002, 1.413230e+002
4.470014e+002, 1.406298e+002
4.474836e+002, 1.402325e+002
4.479657e+002, 1.400133e+002
4.484478e+002, 1.401177e+002
4.489299e+002, 1.402718e+002
4.494120e+002, 1.403621e+002
4.498941e+002, 1.403559e+002
4.503763e+002, 1.401860e+002
4.508584e+002, 1.396977e+002
4.513405e+002, 1.389821e+002
4.518226e+002, 1.384331e+002
4.523047e+002, 1.380648e+002
4.527868e+002, 1.378499e+002
4.532690e+002, 1.378797e+002
4.537511e+002, 1.380275e+002
4.542332e+002, 1.381258e+002
4.547153e+002, 1.381481e+002
4.551974e+002, 1.380954e+002
4.556795e+002, 1.379127e+002
4.561617e+002, 1.376396e+002
4.566438e+002, 1.374234e+002
4.571259e+002, 1.372686e+002
4.576080e+002, 1.372666e+002
4.580901e+002, 1.376764e+002
4.585722e+002, 1.385034e+002
4.590544e+002, 1.390397e+002
4.595365e+002, 1.390201e+002
4.600186e+002, 1.387584e+002
4.605007e+002, 1.383716e+002
4.609828e+002, 1.379443e+002
4.614649e+002, 1.378288e+002
4.619471e+002, 1.383224e+002
4.624292e+002, 1.392119e+002
4.629113e+002, 1.396103e+002
4.633934e+002, 1.390989e+002
4.638755e+002, 1.386815e+002
4.643576e+002, 1.385195e+002
4.648398e+002, 1.384744e+002
4.653219e+002, 1.383878e+002
4.658040e+002, 1.382370e+002
4.662861e+002, 1.381226e+002
4.667682e+002, 1.381338e+002
4.672503e+002, 1.382552e+002
4.677325e+002, 1.386555e+002
4.682146e+002, 1.400171e+002
4.686967e+002, 1.409209e+002
4.691788e+002, 1.405263e+002
4.696609e+002, 1.395511e+002
4.701430e+002, 1.390954e+002
4.706252e+002, 1.396542e+002
4.711073e+002, 1.407338e+002
4.715894e+002, 1.414952e+002
4.720715e+002, 1.418880e+002
4.725536e+002, 1.421812e+002
4.730357e+002, 1.423142e+002
4.735179e+002, 1.424362e+002
4.740000e+002, 1.426160e+002
4.744821e+002, 1.428574e+002
4.749642e+002, 1.431518e+002
4.754463e+002, 1.434567e+002
4.759284e+002, 1.438238e+002
4.764106e+002, 1.443697e+002
4.768927e+002, 1.450974e+002
4.773748e+002, 1.459886e+002
4.778569e+002, 1.472316e+002
4.783390e+002, 1.485233e+002
4.788211e+002, 1.493661e+002
4.793033e+002, 1.496382e+002
4.797854e+002, 1.498321e+002
4.802675e+002, 1.500830e+002
4.807496e+002, 1.504487e+002
4.812317e+002, 1.511412e+002
4.817138e+002, 1.522159e+002
4.821959e+002, 1.532017e+002
4.826780e+002, 1.536414e+002
4.831602e+002, 1.535352e+002
4.836423e+002, 1.535767e+002
4.841244e+002, 1.540499e+002
4.846065e+002, 1.543548e+002
4.850886e+002, 1.540413e+002
4.855707e+002, 1.534375e+002
4.860529e+002, 1.532086e+002
4.865350e+002, 1.535971e+002
4.870171e+002, 1.541297e+002
4.874992e+002, 1.539765e+002
4.879813e+002, 1.526912e+002
4.884634e+002, 1.519477e+002
4.889456e+002, 1.522547e+002
4.894277e+002, 1.525256e+002
4.899098e+002, 1.522706e+002
4.903919e+002, 1.515506e+002
4.908740e+002, 1.505408e+002
4.913561e+002, 1.492805e+002
4.918383e+002, 1.479989e+002
4.923204e+002, 1.473853e+002
4.928025e+002, 1.476783e+002
4.932846e+002, 1.479840e+002
4.937667e+002, 1.482455e+002
4.942488e+002, 1.483631e+002
4.947310e+002, 1.482209e+002
4.952131e+002, 1.478337e+002
4.956952e+002, 1.473695e+002
4.961773e+002, 1.469118e+002
4.966594e+002, 1.464698e+002
4.971415e+002, 1.461073e+002
4.976237e+002, 1.458614e+002
4.981058e+002, 1.455144e+002
4.985879e+002, 1.448677e+002
4.990700e+002, 1.440639e+002
4.995521e+002, 1.433571e+002
5.000342e+002, 1.427065e+002
5.005164e+002, 1.422787e+002
5.009985e+002, 1.422264e+002
5.014806e+002, 1.424307e+002
5.019627e+002, 1.426884e+002
5.024448e+002, 1.429580e+002
5.029269e+002, 1.432788e+002
5.034091e+002, 1.436772e+002
5.038912e+002, 1.441597e+002
5.043733e+002, 1.447741e+002
5.048554e+002, 1.458041e+002
5.053375e+002, 1.466362e+002
5.058196e+002, 1.469451e+002
5.063018e+002, 1.469493e+002
5.067839e+002, 1.469499e+002
5.072660e+002, 1.470618e+002
5.077481e+002, 1.472677e+002
5.082302e+002, 1.475542e+002
5.087123e+002, 1.479590e+002
5.091945e+002, 1.483079e+002
5.096766e+002, 1.487523e+002
5.101587e+002, 1.489863e+002
5.106408e+002, 1.487162e+002
5.111229e+002, 1.481723e+002
5.116050e+002, 1.478167e+002
5.120872e+002, 1.479194e+002
5.125693e+002, 1.481856e+002
5.130514e+002, 1.480622e+002
5.135335e+002, 1.475002e+002
5.140156e+002, 1.469205e+002
5.144977e+002, 1.464030e+002
5.149799e+002, 1.459018e+002
5.154620e+002, 1.452822e+002
5.159441e+002, 1.445969e+002
5.164262e+002, 1.441894e+002
5.169083e+002, 1.442906e+002
5.173904e+002, 1.446958e+002
5.178726e+002, 1.452144e+002
5.183547e+002, 1.458293e+002
5.188368e+002, 1.463969e+002
5.193189e+002, 1.468467e+002
5.198010e+002, 1.472121e+002
5.202831e+002, 1.475471e+002
5.207653e+002, 1.478325e+002
5.212474e+002, 1.481518e+002
5.217295e+002, 1.483806e+002
5.222116e+002, 1.487429e+002
5.226937e+002, 1.496241e+002
5.231758e+002, 1.509005e+002
5.236580e+002, 1.519773e+002
5.241401e+002, 1.524218e+002
5.246222e+002, 1.523095e+002
5.251043e+002, 1.520070e+002
5.255864e+002, 1.511969e+002
5.260685e+002, 1.506629e+002
5.265507e+002, 1.506730e+002
5.270328e+002, 1.508291e+002
5.275149e+002, 1.508270e+002
5.279970e+002, 1.506246e+002
5.284791e+002, 1.503461e+002
5.289612e+002, 1.501074e+002
5.294434e+002, 1.498895e+002
5.299255e+002, 1.495476e+002
5.304076e+002, 1.490099e+002
5.308897e+002, 1.485189e+002
5.313718e+002, 1.481911e+002
5.318539e+002, 1.479596e+002
5.323361e+002, 1.477984e+002
5.328182e+002, 1.477282e+002
5.333003e+002, 1.475588e+002
5.337824e+002, 1.470602e+002
5.342645e+002, 1.463939e+002
5.347466e+002, 1.458789e+002
5.352288e+002, 1.455537e+002
5.357109e+002, 1.454220e+002
5.361930e+002, 1.455677e+002
5.366751e+002, 1.459185e+002
5.371572e+002, 1.460241e+002
5.376393e+002, 1.458735e+002
5.381215e+002, 1.455180e+002
5.386036e+002, 1.447464e+002
5.390857e+002, 1.438792e+002
5.395678e+002, 1.432925e+002
5.400499e+002, 1.430713e+002
5.405320e+002, 1.431098e+002
5.410142e+002, 1.433188e+002
5.414963e+002, 1.437022e+002
5.419784e+002, 1.441141e+002
5.424604e+002, 1.447085e+002
5.429426e+002, 1.451357e+002
5.434247e+002, 1.451020e+002
5.439068e+002, 1.449715e+002
5.443889e+002, 1.451379e+002
5.448710e+002, 1.457066e+002
5.453531e+002, 1.465359e+002
5.458353e+002, 1.476267e+002
5.463174e+002, 1.489308e+002
5.467995e+002, 1.497850e+002
5.472816e+002, 1.499981e+002
5.477637e+002, 1.500907e+002
5.482458e+002, 1.505423e+002
5.487280e+002, 1.510520e+002
5.492101e+002, 1.510459e+002
5.496922e+002, 1.501684e+002
5.501743e+002, 1.493259e+002
5.506564e+002, 1.492996e+002
5.511385e+002, 1.496791e+002
5.516207e+002, 1.496030e+002
5.521028e+002, 1.488893e+002
5.525849e+002, 1.478412e+002
5.530670e+002, 1.466953e+002
5.535491e+002, 1.454476e+002
5.540313e+002, 1.442790e+002
5.545134e+002, 1.432069e+002
5.549955e+002, 1.421812e+002
5.554776e+002, 1.411598e+002
5.559597e+002, 1.401832e+002
5.564418e+002, 1.392965e+002
5.569240e+002, 1.385137e+002
5.574061e+002, 1.378708e+002
5.578882e+002, 1.374628e+002
5.583703e+002, 1.373093e+002
5.588524e+002, 1.368716e+002
5.593345e+002, 1.358951e+002
5.598167e+002, 1.349994e+002
5.602988e+002, 1.343822e+002
5.607809e+002, 1.339531e+002
5.612630e+002, 1.336209e+002
5.617451e+002, 1.333712e+002
5.622272e+002, 1.331375e+002
5.627094e+002, 1.329841e+002
5.631915e+002, 1.328077e+002
5.636736e+002, 1.321469e+002
5.641557e+002, 1.308340e+002
5.646378e+002, 1.296229e+002
5.651199e+002, 1.291599e+002
5.656021e+002, 1.292488e+002
5.660842e+002, 1.289515e+002
5.665663e+002, 1.278429e+002
5.670484e+002, 1.269580e+002
5.675305e+002, 1.268027e+002
5.680126e+002, 1.269941e+002
5.684948e+002, 1.270664e+002
5.689769e+002, 1.269350e+002
5.694590e+002, 1.267721e+002
5.699411e+002, 1.267561e+002
5.704232e+002, 1.268699e+002
5.709053e+002, 1.267714e+002
5.713875e+002, 1.260797e+002
5.718696e+002, 1.256959e+002
5.723517e+002, 1.260097e+002
5.728338e+002, 1.265197e+002
5.733159e+002, 1.267391e+002
5.737980e+002, 1.266072e+002
5.742802e+002, 1.264325e+002
5.747623e+002, 1.264698e+002
5.752444e+002, 1.266857e+002
5.757265e+002, 1.269927e+002
5.762086e+002, 1.274512e+002
5.766907e+002, 1.277365e+002
5.771729e+002, 1.275589e+002
5.776550e+002, 1.271898e+002
5.781371e+002, 1.270773e+002
5.786192e+002, 1.272770e+002
5.791013e+002, 1.275146e+002
5.795834e+002, 1.277781e+002
5.800656e+002, 1.279717e+002
5.805477e+002, 1.278966e+002
5.810298e+002, 1.275980e+002
5.815119e+002, 1.274081e+002
5.819940e+002, 1.275446e+002
5.824761e+002, 1.279297e+002
5.829583e+002, 1.283092e+002
5.834404e+002, 1.289301e+002
5.839225e+002, 1.291452e+002
5.844046e+002, 1.287077e+002
5.848867e+002, 1.280846e+002
5.853688e+002, 1.275301e+002
5.858510e+002, 1.270671e+002
5.863331e+002, 1.266504e+002
5.868152e+002, 1.262783e+002
5.872973e+002, 1.258844e+002
5.877794e+002, 1.253160e+002
5.882615e+002, 1.245582e+002
5.887437e+002, 1.237099e+002
5.892258e+002, 1.227333e+002
5.897079e+002, 1.217348e+002
5.901900e+002, 1.207840e+002
5.906721e+002, 1.198894e+002
5.911542e+002, 1.191245e+002
5.916364e+002, 1.187496e+002
5.921185e+002, 1.183167e+002
5.926006e+002, 1.173756e+002
5.930827e+002, 1.160637e+002
5.935648e+002, 1.147546e+002
5.940469e+002, 1.135785e+002
5.945291e+002, 1.125453e+002
5.950112e+002, 1.116585e+002
5.954933e+002, 1.109030e+002
5.959754e+002, 1.103785e+002
5.964575e+002, 1.103207e+002
5.969396e+002, 1.101983e+002
5.974218e+002, 1.097195e+002
5.979039e+002, 1.090967e+002
5.983860e+002, 1.086329e+002
5.988681e+002, 1.084311e+002
5.993502e+002, 1.083890e+002
5.998323e+002, 1.084272e+002
6.003145e+002, 1.085398e+002
6.007966e+002, 1.085708e+002
6.012787e+002, 1.085000e+002
6.017608e+002, 1.083734e+002
6.022429e+002, 1.081014e+002
6.027250e+002, 1.078247e+002
6.032072e+002, 1.078145e+002
6.036893e+002, 1.082210e+002
6.041714e+002, 1.085380e+002
6.046535e+002, 1.084564e+002
6.051356e+002, 1.081521e+002
6.056177e+002, 1.078468e+002
6.060999e+002, 1.075786e+002
6.065820e+002, 1.073450e+002
6.070641e+002, 1.071310e+002
6.075462e+002, 1.069670e+002
6.080283e+002, 1.069998e+002
6.085104e+002, 1.076102e+002
6.089926e+002, 1.078643e+002
6.094747e+002, 1.074467e+002
6.099568e+002, 1.069038e+002
6.104389e+002, 1.065282e+002
6.109210e+002, 1.063774e+002
6.114031e+002, 1.064853e+002
6.118853e+002, 1.069655e+002
6.123674e+002, 1.075651e+002
6.128495e+002, 1.076911e+002
6.133316e+002, 1.072957e+002
6.138137e+002, 1.069883e+002
6.142958e+002, 1.068752e+002
6.147780e+002, 1.069541e+002
6.152601e+002, 1.073245e+002
6.157422e+002, 1.079272e+002
6.162243e+002, 1.083896e+002
6.167064e+002, 1.086536e+002
6.171885e+002, 1.087383e+002
6.176707e+002, 1.084800e+002
6.181528e+002, 1.080819e+002
6.186349e+002, 1.080065e+002
6.191170e+002, 1.083801e+002
6.195991e+002, 1.088368e+002
6.200812e+002, 1.089090e+002
6.205634e+002, 1.085495e+002
6.210455e+002, 1.085289e+002
6.215276e+002, 1.091330e+002
6.220097e+002, 1.097405e+002
6.224918e+002, 1.102752e+002
6.229739e+002, 1.107208e+002
6.234561e+002, 1.110434e+002
6.239382e+002, 1.112429e+002
6.244203e+002, 1.113947e+002
6.249023e+002, 1.113992e+002
6.253845e+002, 1.114232e+002
6.258666e+002, 1.120577e+002
6.263487e+002, 1.133800e+002
6.268308e+002, 1.145145e+002
6.273129e+002, 1.150055e+002
6.277950e+002, 1.151384e+002
6.282772e+002, 1.153944e+002
6.287593e+002, 1.157151e+002
6.292414e+002, 1.163492e+002
6.297235e+002, 1.176630e+002
6.302056e+002, 1.190092e+002
6.306877e+002, 1.198330e+002
6.311699e+002, 1.203335e+002
6.316520e+002, 1.210609e+002
6.321341e+002, 1.222645e+002
6.326162e+002, 1.237143e+002
6.330983e+002, 1.250139e+002
6.335804e+002, 1.261244e+002
6.340626e+002, 1.273207e+002
6.345447e+002, 1.286903e+002
6.350268e+002, 1.300289e+002
6.355089e+002, 1.311319e+002
6.359910e+002, 1.321862e+002
6.364731e+002, 1.335059e+002
6.369553e+002, 1.352020e+002
6.374374e+002, 1.369727e+002
6.379195e+002, 1.386780e+002
6.384016e+002, 1.402739e+002
6.388837e+002, 1.416506e+002
6.393658e+002, 1.427978e+002
6.398480e+002, 1.439451e+002
6.403301e+002, 1.452671e+002
6.408122e+002, 1.466668e+002
6.412943e+002, 1.478291e+002
6.417764e+002, 1.484425e+002
6.422585e+002, 1.492680e+002
6.427407e+002, 1.503430e+002
6.432228e+002, 1.515910e+002
6.437049e+002, 1.531144e+002
6.441870e+002, 1.547668e+002
6.446691e+002, 1.562043e+002
6.451512e+002, 1.572060e+002
6.456334e+002, 1.580730e+002
6.461155e+002, 1.592675e+002
6.465976e+002, 1.607886e+002
6.470797e+002, 1.625291e+002
6.475618e+002, 1.646049e+002
6.480439e+002, 1.666064e+002
6.485261e+002, 1.681116e+002
6.490082e+002, 1.692887e+002
6.494903e+002, 1.706459e+002
6.499724e+002, 1.726290e+002
6.504545e+002, 1.741648e+002
6.509366e+002, 1.744985e+002
6.514188e+002, 1.743347e+002
6.519009e+002, 1.746693e+002
6.523830e+002, 1.754877e+002
6.528651e+002, 1.759388e+002
6.533472e+002, 1.753991e+002
6.538293e+002, 1.739901e+002
6.543115e+002, 1.720910e+002
6.547936e+002, 1.695119e+002
6.552757e+002, 1.669130e+002
6.557578e+002, 1.642461e+002
6.562399e+002, 1.616985e+002
6.567220e+002, 1.594894e+002
6.572042e+002, 1.574933e+002
6.576863e+002, 1.553336e+002
6.581684e+002, 1.527388e+002
6.586505e+002, 1.501212e+002
6.591326e+002, 1.477222e+002
6.596147e+002, 1.456196e+002
6.600969e+002, 1.440395e+002
6.605790e+002, 1.430414e+002
6.610611e+002, 1.424261e+002
6.615432e+002, 1.421021e+002
6.620253e+002, 1.420157e+002
6.625074e+002, 1.415929e+002
6.629896e+002, 1.405029e+002
6.634717e+002, 1.395114e+002
6.639538e+002, 1.386369e+002
6.644359e+002, 1.379167e+002
6.649180e+002, 1.372885e+002
6.654001e+002, 1.368240e+002
6.658823e+002, 1.367795e+002
6.663644e+002, 1.374288e+002
6.668465e+002, 1.383933e+002
6.673286e+002, 1.388941e+002
6.678107e+002, 1.389539e+002
6.682928e+002, 1.393801e+002
6.687750e+002, 1.403964e+002
6.692571e+002, 1.417077e+002
6.697392e+002, 1.430884e+002
6.702213e+002, 1.445369e+002
6.707034e+002, 1.459652e+002
6.711855e+002, 1.474576e+002
6.716677e+002, 1.488214e+002
6.721498e+002, 1.499876e+002
6.726319e+002, 1.509838e+002
6.731140e+002, 1.517045e+002
6.735961e+002, 1.522397e+002
6.740782e+002, 1.529837e+002
6.745604e+002, 1.542632e+002
6.750425e+002, 1.559407e+002
6.755246e+002, 1.575639e+002
6.760067e+002, 1.590849e+002
6.764888e+002, 1.607653e+002
6.769709e+002, 1.627186e+002
6.774531e+002, 1.647965e+002
6.779352e+002, 1.668553e+002
6.784173e+002, 1.689273e+002
6.788994e+002, 1.711193e+002
6.793815e+002, 1.734241e+002
6.798636e+002, 1.758966e+002
6.803458e+002, 1.786064e+002
6.808279e+002, 1.814886e+002
6.813100e+002, 1.844686e+002
6.817921e+002, 1.875208e+002
6.822742e+002, 1.907073e+002
6.827563e+002, 1.941177e+002
6.832385e+002, 1.976549e+002
6.837206e+002, 2.008358e+002
6.842027e+002, 2.034010e+002
6.846848e+002, 2.061600e+002
6.851669e+002, 2.095301e+002
6.856490e+002, 2.128253e+002
6.861312e+002, 2.155144e+002
6.866133e+002, 2.177836e+002
6.870954e+002, 2.202643e+002
6.875775e+002, 2.232743e+002
6.880596e+002, 2.264089e+002
6.885417e+002, 2.292133e+002
6.890239e+002, 2.318726e+002
6.895060e+002, 2.349614e+002
6.899881e+002, 2.385800e+002
6.904702e+002, 2.419087e+002
6.909523e+002, 2.443057e+002
6.914344e+002, 2.459108e+002
6.919166e+002, 2.474944e+002
6.923987e+002, 2.496331e+002
6.928808e+002, 2.507855e+002
6.933629e+002, 2.510591e+002
6.938450e+002, 2.502404e+002
6.943271e+002, 2.482584e+002
6.948093e+002, 2.450687e+002
6.952914e+002, 2.405324e+002
6.957735e+002, 2.344395e+002
6.962556e+002, 2.274545e+002
6.967377e+002, 2.201296e+002
6.972198e+002, 2.125102e+002
6.977020e+002, 2.044258e+002
6.981841e+002, 1.958416e+002
6.986662e+002, 1.876701e+002
6.991483e+002, 1.805600e+002
6.996304e+002, 1.743595e+002
7.001125e+002, 1.685954e+002
7.005947e+002, 1.631397e+002
7.010768e+002, 1.583940e+002
7.015589e+002, 1.546279e+002
7.020410e+002, 1.513298e+002
7.025231e+002, 1.481717e+002
7.030052e+002, 1.452432e+002
7.034874e+002, 1.428008e+002
7.039695e+002, 1.409938e+002
7.044516e+002, 1.394987e+002
7.049337e+002, 1.379006e+002
7.054158e+002, 1.362819e+002
7.058979e+002, 1.350266e+002
7.063801e+002, 1.341782e+002
7.068622e+002, 1.336820e+002
7.073442e+002, 1.335852e+002
7.078264e+002, 1.337587e+002
7.083085e+002, 1.338839e+002
7.087906e+002, 1.339490e+002
7.092727e+002, 1.339959e+002
7.097548e+002, 1.339825e+002
7.102369e+002, 1.339936e+002
7.107191e+002, 1.339465e+002
7.112012e+002, 1.339951e+002
7.116833e+002, 1.344824e+002
7.121654e+002, 1.355231e+002
7.126475e+002, 1.366405e+002
7.131296e+002, 1.372910e+002
7.136118e+002, 1.375364e+002
7.140939e+002, 1.378631e+002
7.145760e+002, 1.384043e+002
7.150581e+002, 1.382386e+002
7.155402e+002, 1.367854e+002
7.160223e+002, 1.345637e+002
7.165045e+002, 1.323367e+002
7.169866e+002, 1.300782e+002
7.174687e+002, 1.279983e+002
7.179508e+002, 1.263638e+002
7.184329e+002, 1.246541e+002
7.189150e+002, 1.225257e+002
7.193972e+002, 1.201969e+002
7.198793e+002, 1.178769e+002
7.203614e+002, 1.156758e+002
7.208435e+002, 1.138130e+002
7.213256e+002, 1.126597e+002
7.218077e+002, 1.119820e+002
7.222899e+002, 1.108009e+002
7.227720e+002, 1.090302e+002
7.232541e+002, 1.073946e+002
7.237362e+002, 1.060873e+002
7.242183e+002, 1.050682e+002
7.247004e+002, 1.044017e+002
7.251826e+002, 1.040734e+002
7.256647e+002, 1.035987e+002
7.261468e+002, 1.026349e+002
7.266289e+002, 1.018989e+002
7.271110e+002, 1.017729e+002
7.275931e+002, 1.019368e+002
7.280753e+002, 1.021392e+002
7.285574e+002, 1.022729e+002
7.290395e+002, 1.021727e+002
7.295216e+002, 1.016517e+002
7.300037e+002, 1.009395e+002
7.304858e+002, 1.005429e+002
7.309680e+002, 1.004676e+002
7.314501e+002, 1.006292e+002
7.319322e+002, 1.011329e+002
7.324143e+002, 1.015896e+002
7.328964e+002, 1.016693e+002
7.333785e+002, 1.014209e+002
7.338607e+002, 1.011510e+002
7.343428e+002, 1.006956e+002
7.348249e+002, 1.004720e+002
7.353070e+002, 1.006839e+002
7.357891e+002, 1.010630e+002
7.362712e+002, 1.014934e+002
7.367534e+002, 1.018899e+002
7.372355e+002, 1.020979e+002
7.377176e+002, 1.020313e+002
7.381997e+002, 1.018534e+002
7.386818e+002, 1.017490e+002
7.391639e+002, 1.017299e+002
7.396461e+002, 1.019340e+002
7.401282e+002, 1.023969e+002
7.406103e+002, 1.029846e+002
7.410924e+002, 1.037170e+002
7.415745e+002, 1.044583e+002
7.420566e+002, 1.048600e+002
7.425388e+002, 1.047857e+002
7.430209e+002, 1.048765e+002
7.435030e+002, 1.052826e+002
7.439851e+002, 1.057630e+002
7.444672e+002, 1.062050e+002
7.449493e+002, 1.066322e+002
7.454315e+002, 1.071058e+002
7.459136e+002, 1.076367e+002
7.463957e+002, 1.081681e+002
7.468778e+002, 1.086862e+002
7.473599e+002, 1.091524e+002
7.478420e+002, 1.094907e+002
7.483242e+002, 1.097051e+002
7.488063e+002, 1.095395e+002
7.492884e+002, 1.087924e+002
7.497705e+002, 1.079216e+002
7.502526e+002, 1.074979e+002
7.507347e+002, 1.075608e+002
7.512169e+002, 1.073435e+002
7.516990e+002, 1.066617e+002
7.521811e+002, 1.059652e+002
7.526632e+002, 1.052490e+002
7.531453e+002, 1.046320e+002
7.536274e+002, 1.042891e+002
7.541096e+002, 1.041612e+002
7.545917e+002, 1.039731e+002
7.550738e+002, 1.035423e+002
7.555559e+002, 1.030342e+002
7.560380e+002, 1.026632e+002
7.565201e+002, 1.024143e+002
7.570023e+002, 1.022544e+002
7.574844e+002, 1.021845e+002
7.579665e+002, 1.020857e+002
7.584486e+002, 1.018505e+002
7.589307e+002, 1.015453e+002
7.594128e+002, 1.013824e+002
7.598950e+002, 1.012415e+002
7.603771e+002, 1.014779e+002
7.608592e+002, 1.025862e+002
7.613413e+002, 1.035231e+002
7.618234e+002, 1.036139e+002
7.623055e+002, 1.032711e+002
7.627877e+002, 1.032063e+002
7.632698e+002, 1.036248e+002
7.637519e+002, 1.040563e+002
7.642340e+002, 1.041195e+002
7.647161e+002, 1.039932e+002
7.651982e+002, 1.039892e+002
7.656804e+002, 1.040780e+002
7.661625e+002, 1.040108e+002
7.666446e+002, 1.036852e+002
7.671267e+002, 1.032563e+002
7.676088e+002, 1.029214e+002
7.680909e+002, 1.026796e+002
7.685731e+002, 1.025015e+002
7.690552e+002, 1.025041e+002
7.695373e+002, 1.023752e+002
7.700194e+002, 1.018595e+002
7.705015e+002, 1.013395e+002
7.709836e+002, 1.011638e+002
7.714658e+002, 1.012806e+002
7.719479e+002, 1.013447e+002
7.724300e+002, 1.012224e+002
7.729121e+002, 1.010313e+002
7.733942e+002, 1.009011e+002
7.738763e+002, 1.007348e+002
7.743585e+002, 1.003150e+002
7.748406e+002, 9.966467e+001
7.753227e+002, 9.905434e+001
7.758048e+002, 9.865309e+001
7.762869e+002, 9.843777e+001
7.767690e+002, 9.843834e+001
7.772512e+002, 9.874535e+001
7.777333e+002, 9.862080e+001
7.782154e+002, 9.775231e+001
7.786975e+002, 9.694009e+001
7.791796e+002, 9.667707e+001
7.796617e+002, 9.671938e+001
7.801439e+002, 9.663548e+001
7.806260e+002, 9.634846e+001
7.811081e+002, 9.625311e+001
7.815902e+002, 9.666452e+001
7.820723e+002, 9.707527e+001
7.825544e+002, 9.716505e+001
7.830366e+002, 9.702563e+001
7.835187e+002, 9.676420e+001
7.840008e+002, 9.644730e+001
7.844829e+002, 9.625659e+001
7.849650e+002, 9.638505e+001
7.854471e+002, 9.675121e+001
7.859293e+002, 9.713331e+001
7.864114e+002, 9.753038e+001
7.868935e+002, 9.789961e+001
7.873756e+002, 9.821188e+001
7.878577e+002, 9.855107e+001
7.883398e+002, 9.900483e+001
7.888220e+002, 9.955769e+001
7.893040e+002, 1.000606e+002
7.897861e+002, 1.005739e+002
7.902682e+002, 1.009573e+002
7.907504e+002, 1.009785e+002
7.912325e+002, 1.010726e+002
7.917146e+002, 1.015437e+002
7.921967e+002, 1.023051e+002
7.926788e+002, 1.031719e+002
7.931609e+002, 1.040951e+002
7.936431e+002, 1.049442e+002
7.941252e+002, 1.055099e+002
7.946073e+002, 1.059628e+002
7.950894e+002, 1.066447e+002
7.955715e+002, 1.075436e+002
7.960536e+002, 1.083932e+002
7.965358e+002, 1.090770e+002
7.970179e+002, 1.097567e+002
7.975000e+002, 1.106275e+002
7.979821e+002, 1.116898e+002
7.984642e+002, 1.130922e+002
7.989464e+002, 1.150279e+002
7.994285e+002, 1.169616e+002
7.999106e+002, 1.185620e+002
8.003927e+002, 1.202713e+002
8.008748e+002, 1.224970e+002
8.013569e+002, 1.251488e+002
8.018391e+002, 1.276835e+002
8.023212e+002, 1.295014e+002
8.028033e+002, 1.318404e+002
8.032854e+002, 1.353946e+002
8.037675e+002, 1.397663e+002
8.042496e+002, 1.445701e+002
8.047318e+002, 1.497153e+002
8.052139e+002, 1.552783e+002
8.056960e+002, 1.612719e+002
8.061781e+002, 1.675624e+002
8.066602e+002, 1.736972e+002
8.071423e+002, 1.797686e+002
8.076245e+002, 1.870251e+002
8.081066e+002, 1.956947e+002
8.085887e+002, 2.047884e+002
8.090708e+002, 2.137719e+002
8.095529e+002, 2.230285e+002
8.100350e+002, 2.331501e+002
8.105172e+002, 2.442538e+002
8.109993e+002, 2.555522e+002
8.114814e+002, 2.667237e+002
8.119635e+002, 2.784332e+002
8.124456e+002, 2.905150e+002
8.129277e+002, 3.034295e+002
8.134099e+002, 3.173794e+002
8.138920e+002, 3.324442e+002
8.143741e+002, 3.487453e+002
8.148562e+002, 3.663909e+002
8.153383e+002, 3.851219e+002
8.158204e+002, 4.043767e+002
8.163026e+002, 4.243838e+002
8.167847e+002, 4.458590e+002
8.172668e+002, 4.687685e+002
8.177489e+002, 4.922558e+002
8.182310e+002, 5.159031e+002
8.187131e+002, 5.394360e+002
8.191953e+002, 5.625226e+002
8.196774e+002, 5.854430e+002
8.201595e+002, 6.064742e+002
8.206416e+002, 6.267505e+002
8.211237e+002, 6.433060e+002
8.216058e+002, 6.551543e+002
8.220880e+002, 6.624533e+002
8.225701e+002, 6.650546e+002
8.230522e+002, 6.630436e+002
8.235343e+002, 6.581887e+002
8.240164e+002, 6.509367e+002
8.244985e+002, 6.408051e+002
8.249807e+002, 6.266190e+002
8.254628e+002, 6.100189e+002
8.259449e+002, 5.925759e+002
8.264270e+002, 5.745732e+002
8.269091e+002, 5.556077e+002
8.273912e+002, 5.351089e+002
8.278734e+002, 5.147551e+002
8.283555e+002, 4.965391e+002
8.288376e+002, 4.804434e+002
8.293197e+002, 4.663419e+002
8.298018e+002, 4.542923e+002
8.302839e+002, 4.444879e+002
8.307661e+002, 4.372083e+002
8.312482e+002, 4.318839e+002
8.317303e+002, 4.275929e+002
8.322124e+002, 4.243959e+002
8.326945e+002, 4.219350e+002
8.331766e+002, 4.205127e+002
8.336588e+002, 4.194346e+002
8.341409e+002, 4.193079e+002
8.346230e+002, 4.188490e+002
8.351051e+002, 4.177028e+002
8.355872e+002, 4.154135e+002
8.360693e+002, 4.102453e+002
8.365515e+002, 4.007970e+002
8.370336e+002, 3.897921e+002
8.375157e+002, 3.787151e+002
8.379978e+002, 3.668266e+002
8.384799e+002, 3.528039e+002
8.389620e+002, 3.371078e+002
8.394442e+002, 3.213248e+002
8.399263e+002, 3.062263e+002
8.404084e+002, 2.915739e+002
8.408905e+002, 2.772302e+002
8.413726e+002, 2.631922e+002
8.418547e+002, 2.494363e+002
8.423369e+002, 2.359910e+002
8.428190e+002, 2.234546e+002
8.433011e+002, 2.120715e+002
8.437832e+002, 2.019137e+002
8.442653e+002, 1.931929e+002
8.447474e+002, 1.858789e+002
8.452296e+002, 1.794577e+002
8.457117e+002, 1.741440e+002
8.461938e+002, 1.694844e+002
8.466759e+002, 1.656360e+002
8.471580e+002, 1.622059e+002
8.476401e+002, 1.588583e+002
8.481223e+002, 1.557378e+002
8.486044e+002, 1.531584e+002
8.490865e+002, 1.511860e+002
8.495686e+002, 1.498237e+002
8.500507e+002, 1.492830e+002
8.505328e+002, 1.491793e+002
8.510150e+002, 1.492206e+002
8.514971e+002, 1.493491e+002
8.519792e+002, 1.494677e+002
8.524613e+002, 1.495650e+002
8.529434e+002, 1.498330e+002
8.534255e+002, 1.505411e+002
8.539077e+002, 1.514904e+002
8.543898e+002, 1.519958e+002
8.548719e+002, 1.520586e+002
8.553540e+002, 1.521879e+002
8.558361e+002, 1.524770e+002
8.563182e+002, 1.529182e+002
8.568004e+002, 1.536690e+002
8.572825e+002, 1.544451e+002
8.577646e+002, 1.542902e+002
8.582467e+002, 1.526266e+002
8.587288e+002, 1.512802e+002
8.592109e+002, 1.505449e+002
8.596931e+002, 1.497742e+002
8.601752e+002, 1.486146e+002
8.606573e+002, 1.473642e+002
8.611394e+002, 1.464674e+002
8.616215e+002, 1.459431e+002
8.621036e+002, 1.452303e+002
8.625858e+002, 1.439529e+002
8.630679e+002, 1.425662e+002
8.635500e+002, 1.412095e+002
8.640321e+002, 1.400317e+002
8.645142e+002, 1.394077e+002
8.649963e+002, 1.392203e+002
8.654785e+002, 1.388793e+002
8.659606e+002, 1.380397e+002
8.664427e+002, 1.369014e+002
8.669248e+002, 1.356722e+002
8.674069e+002, 1.344023e+002
8.678890e+002, 1.334139e+002
8.683712e+002, 1.327382e+002
8.688533e+002, 1.319258e+002
8.693354e+002, 1.307406e+002
8.698175e+002, 1.295056e+002
8.702996e+002, 1.286957e+002
8.707817e+002, 1.283145e+002
8.712639e+002, 1.276843e+002
8.717459e+002, 1.265616e+002
8.722280e+002, 1.256187e+002
8.727101e+002, 1.252780e+002
8.731923e+002, 1.248627e+002
8.736744e+002, 1.239185e+002
8.741565e+002, 1.225956e+002
8.746386e+002, 1.212475e+002
8.751207e+002, 1.199188e+002
8.756028e+002, 1.186284e+002
8.760850e+002, 1.173658e+002
8.765671e+002, 1.161693e+002
8.770492e+002, 1.150623e+002
8.775313e+002, 1.140444e+002
8.780134e+002, 1.130913e+002
8.784955e+002, 1.122082e+002
8.789777e+002, 1.114532e+002
8.794598e+002, 1.108596e+002
8.799419e+002, 1.104362e+002
8.804240e+002, 1.102675e+002
8.809061e+002, 1.102832e+002
8.813882e+002, 1.102119e+002
8.818704e+002, 1.100160e+002
8.823525e+002, 1.098538e+002
8.828346e+002, 1.098331e+002
8.833167e+002, 1.098755e+002
8.837988e+002, 1.097683e+002
8.842809e+002, 1.094421e+002
8.847631e+002, 1.095219e+002
8.852452e+002, 1.101871e+002
8.857273e+002, 1.108303e+002
8.862094e+002, 1.113609e+002
8.866915e+002, 1.116554e+002
8.871736e+002, 1.114360e+002
8.876558e+002, 1.107514e+002
8.881379e+002, 1.103672e+002
8.886200e+002, 1.106492e+002
8.891021e+002, 1.107457e+002
8.895842e+002, 1.105301e+002
8.900663e+002, 1.100652e+002
8.905485e+002, 1.091939e+002
8.910306e+002, 1.081638e+002
8.915127e+002, 1.075098e+002
8.919948e+002, 1.073952e+002
8.924769e+002, 1.071380e+002
8.929590e+002, 1.060926e+002
8.934412e+002, 1.048630e+002
8.939233e+002, 1.040063e+002
8.944054e+002, 1.034946e+002
8.948875e+002, 1.033097e+002
8.953696e+002, 1.033993e+002
8.958517e+002, 1.035371e+002
8.963339e+002, 1.035583e+002
8.968160e+002, 1.035129e+002
8.972981e+002, 1.033752e+002
8.977802e+002, 1.032008e+002
8.982623e+002, 1.037939e+002
8.987444e+002, 1.053383e+002
8.992266e+002, 1.061507e+002
8.997087e+002, 1.052780e+002
9.001908e+002, 1.037197e+002
9.006729e+002, 1.029538e+002
9.011550e+002, 1.030192e+002
9.016371e+002, 1.030070e+002
9.021193e+002, 1.029890e+002
9.026014e+002, 1.027546e+002
9.030835e+002, 1.020490e+002
9.035656e+002, 1.013246e+002
9.040477e+002, 1.009420e+002
9.045298e+002, 1.007717e+002
9.050120e+002, 1.004929e+002
9.054941e+002, 1.000810e+002
9.059762e+002, 9.954007e+001
9.064583e+002, 9.872433e+001
9.069404e+002, 9.793874e+001
9.074225e+002, 9.751597e+001
9.079047e+002, 9.716669e+001
9.083868e+002, 9.648172e+001
9.088689e+002, 9.541276e+001
9.093510e+002, 9.414879e+001
9.098331e+002, 9.253394e+001
9.103152e+002, 9.120756e+001
9.107974e+002, 9.121214e+001
9.112795e+002, 9.180374e+001
9.117616e+002, 9.153095e+001
9.122437e+002, 9.040307e+001
9.127258e+002, 8.924333e+001
9.132079e+002, 8.844092e+001
9.136901e+002, 8.795968e+001
9.141722e+002, 8.783947e+001
9.146543e+002, 8.800260e+001
9.151364e+002, 8.797808e+001
9.156185e+002, 8.775798e+001
9.161006e+002, 8.756684e+001
9.165828e+002, 8.746377e+001
9.170649e+002, 8.738219e+001
9.175470e+002, 8.726832e+001
9.180291e+002, 8.713020e+001
9.185112e+002, 8.698003e+001
9.189933e+002, 8.672066e+001
9.194755e+002, 8.670479e+001
9.199576e+002, 8.708647e+001
9.204397e+002, 8.749255e+001
9.209218e+002, 8.773731e+001
9.214039e+002, 8.796082e+001
9.218860e+002, 8.837211e+001
9.223682e+002, 8.895720e+001
9.228503e+002, 8.934539e+001
9.233324e+002, 8.916603e+001
9.238145e+002, 8.921681e+001
9.242966e+002, 8.989795e+001
9.247787e+002, 9.073389e+001
9.252609e+002, 9.137143e+001
9.257430e+002, 9.185798e+001
9.262251e+002, 9.236889e+001
9.267072e+002, 9.295681e+001
9.271893e+002, 9.351028e+001
9.276714e+002, 9.397057e+001
9.281536e+002, 9.434312e+001
9.286357e+002, 9.457021e+001
9.291178e+002, 9.473940e+001
9.295999e+002, 9.497082e+001
9.300820e+002, 9.531499e+001
9.305641e+002, 9.588640e+001
9.310463e+002, 9.678977e+001
9.315284e+002, 9.776872e+001
9.320105e+002, 9.838355e+001
9.324926e+002, 9.871870e+001
9.329747e+002, 9.909689e+001
9.334568e+002, 9.953817e+001
9.339390e+002, 1.001120e+002
9.344211e+002, 1.008627e+002
9.349032e+002, 1.015249e+002
9.353853e+002, 1.017999e+002
9.358674e+002, 1.017374e+002
9.363495e+002, 1.015801e+002
9.368317e+002, 1.012513e+002
9.373138e+002, 1.012245e+002
9.377959e+002, 1.018047e+002
9.382780e+002, 1.021220e+002
9.387601e+002, 1.015945e+002
9.392422e+002, 1.005924e+002
9.397244e+002, 9.974706e+001
9.402065e+002, 9.907271e+001
9.406886e+002, 9.847446e+001
9.411707e+002, 9.791391e+001
9.416528e+002, 9.747427e+001
9.421349e+002, 9.730596e+001
9.426171e+002, 9.714143e+001
9.430992e+002, 9.680582e+001
9.435813e+002, 9.631309e+001
9.440634e+002, 9.568360e+001
9.445455e+002, 9.482371e+001
9.450276e+002, 9.420338e+001
9.455098e+002, 9.415769e+001
9.459919e+002, 9.422356e+001
9.464740e+002, 9.406041e+001
9.469561e+002, 9.384155e+001
9.474382e+002, 9.390800e+001
9.479203e+002, 9.421977e+001
9.484025e+002, 9.430618e+001
9.488846e+002, 9.377654e+001
9.493667e+002, 9.329971e+001
9.498488e+002, 9.380009e+001
9.503309e+002, 9.460043e+001
9.508130e+002, 9.443269e+001
9.512952e+002, 9.358102e+001
9.517773e+002, 9.331153e+001
9.522594e+002, 9.401460e+001
9.527415e+002, 9.487789e+001
9.532236e+002, 9.511503e+001
9.537057e+002, 9.497261e+001
9.541878e+002, 9.508796e+001
9.546699e+002, 9.539829e+001
9.551520e+002, 9.545594e+001
9.556342e+002, 9.519889e+001
9.561163e+002, 9.492268e+001
9.565984e+002, 9.479301e+001
9.570805e+002, 9.468651e+001
9.575626e+002, 9.439787e+001
9.580447e+002, 9.392925e+001
9.585269e+002, 9.351693e+001
9.590090e+002, 9.320346e+001
9.594911e+002, 9.272701e+001
9.599732e+002, 9.192334e+001
9.604553e+002, 9.119508e+001
9.609374e+002, 9.086163e+001
9.614196e+002, 9.082220e+001
9.619017e+002, 9.079517e+001
9.623838e+002, 9.075420e+001
9.628659e+002, 9.080644e+001
9.633480e+002, 9.108748e+001
9.638301e+002, 9.127474e+001
9.643123e+002, 9.114876e+001
9.647944e+002, 9.100370e+001
9.652765e+002, 9.110428e+001
9.657586e+002, 9.141264e+001
9.662407e+002, 9.172116e+001
9.667228e+002, 9.195134e+001
9.672050e+002, 9.228926e+001
9.676871e+002, 9.299780e+001
9.681692e+002, 9.358415e+001
9.686513e+002, 9.374537e+001
9.691334e+002, 9.362487e+001
9.696155e+002, 9.328316e+001
9.700977e+002, 9.281841e+001
9.705798e+002, 9.268836e+001
9.710619e+002, 9.324339e+001
9.715440e+002, 9.394341e+001
9.720261e+002, 9.472390e+001
9.725082e+002, 9.526319e+001
9.729904e+002, 9.495158e+001
9.734725e+002, 9.416563e+001
9.739546e+002, 9.382600e+001
9.744367e+002, 9.417558e+001
9.749188e+002, 9.459544e+001
9.754009e+002, 9.458504e+001
9.758831e+002, 9.438857e+001
9.763652e+002, 9.438534e+001
9.768473e+002, 9.442773e+001
9.773294e+002, 9.416198e+001
9.778115e+002, 9.359334e+001
9.782936e+002, 9.290980e+001
9.787758e+002, 9.219954e+001
9.792579e+002, 9.176054e+001
9.797400e+002, 9.212749e+001
9.802221e+002, 9.300423e+001
9.807042e+002, 9.333046e+001
9.811863e+002, 9.318332e+001
9.816685e+002, 9.320235e+001
9.821506e+002, 9.351362e+001
9.826327e+002, 9.385126e+001
9.831148e+002, 9.402868e+001
9.835969e+002, 9.419470e+001
9.840790e+002, 9.466942e+001
9.845612e+002, 9.545528e+001
9.850433e+002, 9.608672e+001
9.855254e+002, 9.653642e+001
9.860075e+002, 9.697385e+001
9.864896e+002, 9.741438e+001
9.869717e+002, 9.795644e+001
9.874539e+002, 9.871367e+001
9.879360e+002, 9.960232e+001
9.884181e+002, 1.003696e+002
9.889002e+002, 1.010195e+002
9.893823e+002, 1.014851e+002
9.898644e+002, 1.014891e+002
9.903466e+002, 1.018725e+002
9.908287e+002, 1.032782e+002
9.913108e+002, 1.047548e+002
9.917929e+002, 1.054332e+002
9.922750e+002, 1.053875e+002
9.927571e+002, 1.050256e+002
9.932393e+002, 1.040152e+002
9.937214e+002, 1.032927e+002
9.942035e+002, 1.032070e+002
9.946856e+002, 1.030055e+002
9.951677e+002, 1.022898e+002
9.956498e+002, 1.013928e+002
9.961320e+002, 1.006205e+002
9.966141e+002, 9.999670e+001
9.970962e+002, 9.954332e+001
9.975783e+002, 9.933557e+001
9.980604e+002, 9.918192e+001
9.985425e+002, 9.896328e+001
9.990247e+002, 9.885896e+001
9.995068e+002, 9.907397e+001
9.999889e+002, 9.942686e+001
1.000471e+003, 9.966795e+001
1.000953e+003, 9.976406e+001
1.001435e+003, 9.981709e+001
1.001917e+003, 9.993076e+001
1.002399e+003, 9.991474e+001
1.002882e+003, 9.941946e+001
1.003364e+003, 9.896117e+001
1.003846e+003, 9.913484e+001
1.004328e+003, 9.968716e+001
1.004810e+003, 1.000371e+002
1.005292e+003, 1.000614e+002
1.005774e+003, 1.001217e+002
1.006256e+003, 1.004308e+002
1.006739e+003, 1.008948e+002
1.007221e+003, 1.015473e+002
1.007703e+003, 1.022225e+002
1.008185e+003, 1.026885e+002
1.008667e+003, 1.029560e+002
1.009149e+003, 1.031099e+002
1.009631e+003, 1.031882e+002
1.010113e+003, 1.032520e+002
1.010595e+003, 1.033138e+002
1.011078e+003, 1.034353e+002
1.011560e+003, 1.037502e+002
1.012042e+003, 1.041859e+002
1.012524e+003, 1.046200e+002
1.013006e+003, 1.050091e+002
1.013488e+003, 1.052373e+002
1.013970e+003, 1.052588e+002
1.014452e+003, 1.052550e+002
1.014935e+003, 1.055070e+002
1.015417e+003, 1.058236e+002
1.015899e+003, 1.056590e+002
1.016381e+003, 1.051121e+002
1.016863e+003, 1.047263e+002
1.017345e+003, 1.045435e+002
1.017827e+003, 1.040018e+002
1.018309e+003, 1.027962e+002
1.018791e+003, 1.013951e+002
1.019274e+003, 1.004400e+002
1.019756e+003, 9.985004e+001
1.020238e+003, 9.926948e+001
1.020720e+003, 9.869344e+001
1.021202e+003, 9.785963e+001
1.021684e+003, 9.670382e+001
1.022166e+003, 9.562712e+001
1.022648e+003, 9.485874e+001
1.023130e+003, 9.429717e+001
1.023613e+003, 9.376335e+001
1.024095e+003, 9.326896e+001
1.024577e+003, 9.308664e+001
1.025059e+003, 9.327431e+001
1.025541e+003, 9.324185e+001
1.026023e+003, 9.281053e+001
1.026505e+003, 9.246763e+001
1.026987e+003, 9.253897e+001
1.027469e+003, 9.283088e+001
1.027952e+003, 9.296606e+001
1.028434e+003, 9.292951e+001
1.028916e+003, 9.320196e+001
1.029398e+003, 9.400437e+001
1.029880e+003, 9.428101e+001
1.030362e+003, 9.359360e+001
1.030844e+003, 9.291584e+001
1.031326e+003, 9.288454e+001
1.031809e+003, 9.327525e+001
1.032291e+003, 9.362971e+001
1.032773e+003, 9.392019e+001
1.033255e+003, 9.443237e+001
1.033737e+003, 9.536142e+001
1.034219e+003, 9.610224e+001
1.034701e+003, 9.663523e+001
1.035183e+003, 9.680203e+001
1.035666e+003, 9.630429e+001
1.036148e+003, 9.547964e+001
1.036630e+003, 9.502676e+001
1.037112e+003, 9.498357e+001
1.037594e+003, 9.510294e+001
1.038076e+003, 9.556502e+001
1.038558e+003, 9.589314e+001
1.039040e+003, 9.582744e+001
1.039522e+003, 9.579549e+001
1.040005e+003, 9.609453e+001
1.040487e+003, 9.661246e+001
1.040969e+003, 9.706490e+001
1.041451e+003, 9.736715e+001
1.041933e+003, 9.805628e+001
1.042415e+003, 9.949503e+001
1.042897e+003, 1.008300e+002
1.043379e+003, 1.020285e+002
1.043861e+003, 1.029556e+002
1.044344e+003, 1.033289e+002
1.044826e+003, 1.034323e+002
1.045308e+003, 1.038027e+002
1.045790e+003, 1.044989e+002
1.046272e+003, 1.052798e+002
1.046754e+003, 1.064481e+002
1.047236e+003, 1.072467e+002
1.047718e+003, 1.071773e+002
1.048201e+003, 1.069825e+002
1.048683e+003, 1.071089e+002
1.049165e+003, 1.075002e+002
1.049647e+003, 1.081095e+002
1.050129e+003, 1.089780e+002
1.050611e+003, 1.094438e+002
1.051093e+003, 1.090160e+002
1.051575e+003, 1.086591e+002
1.052057e+003, 1.086728e+002
1.052540e+003, 1.088402e+002
1.053022e+003, 1.089423e+002
1.053504e+003, 1.091022e+002
1.053986e+003, 1.095816e+002
1.054468e+003, 1.104238e+002
1.054950e+003, 1.113459e+002
1.055432e+003, 1.124662e+002
1.055914e+003, 1.133939e+002
1.056396e+003, 1.136490e+002
1.056879e+003, 1.139996e+002
1.057361e+003, 1.153400e+002
1.057843e+003, 1.170474e+002
1.058325e+003, 1.179048e+002
1.058807e+003, 1.177470e+002
1.059289e+003, 1.177893e+002
1.059771e+003, 1.190971e+002
1.060253e+003, 1.197679e+002
1.060736e+003, 1.188208e+002
1.061218e+003, 1.172255e+002
1.061700e+003, 1.154888e+002
1.062182e+003, 1.137270e+002
1.062664e+003, 1.120004e+002
1.063146e+003, 1.103257e+002
1.063628e+003, 1.087651e+002
1.064110e+003, 1.075188e+002
1.064593e+003, 1.061261e+002
1.065075e+003, 1.040715e+002
1.065557e+003, 1.021200e+002
1.066039e+003, 1.009643e+002
1.066521e+003, 1.002525e+002
1.067003e+003, 9.936973e+001
1.067485e+003, 9.826264e+001
1.067967e+003, 9.736949e+001
1.068449e+003, 9.690907e+001
1.068932e+003, 9.659462e+001
1.069414e+003, 9.640047e+001
1.069896e+003, 9.620024e+001
1.070378e+003, 9.600827e+001
1.070860e+003, 9.568641e+001
1.071342e+003, 9.488587e+001
1.071824e+003, 9.370259e+001
1.072306e+003, 9.288219e+001
1.072788e+003, 9.282784e+001
1.073271e+003, 9.287344e+001
1.073753e+003, 9.278185e+001
1.074235e+003, 9.260239e+001
1.074717e+003, 9.234232e+001
1.075199e+003, 9.203463e+001
1.075681e+003, 9.163879e+001
1.076163e+003, 9.122030e+001
1.076645e+003, 9.105582e+001
1.077127e+003, 9.133453e+001
1.077610e+003, 9.156529e+001
1.078092e+003, 9.150610e+001
1.078574e+003, 9.133752e+001
1.079056e+003, 9.109328e+001
1.079538e+003, 9.087202e+001
1.080020e+003, 9.089294e+001
1.080502e+003, 9.103773e+001
1.080984e+003, 9.082971e+001
1.081467e+003, 9.002383e+001
1.081949e+003, 8.936633e+001
1.082431e+003, 8.932503e+001
1.082913e+003, 8.937593e+001
1.083395e+003, 8.925758e+001
1.083877e+003, 8.902039e+001
1.084359e+003, 8.868568e+001
1.084841e+003, 8.830088e+001
1.085323e+003, 8.792446e+001
1.085806e+003, 8.755470e+001
1.086288e+003, 8.737862e+001
1.086770e+003, 8.768908e+001
1.087252e+003, 8.794700e+001
1.087734e+003, 8.776186e+001
1.088216e+003, 8.749150e+001
1.088698e+003, 8.754166e+001
1.089180e+003, 8.775777e+001
1.089662e+003, 8.773009e+001
1.090145e+003, 8.737304e+001
1.090627e+003, 8.707458e+001
1.091109e+003, 8.705236e+001
1.091591e+003, 8.702052e+001
1.092073e+003, 8.679374e+001
1.092555e+003, 8.657112e+001
1.093037e+003, 8.648137e+001
1.093519e+003, 8.652312e+001
1.094002e+003, 8.683587e+001
1.094484e+003, 8.737125e+001
1.094966e+003, 8.736050e+001
1.095448e+003, 8.602877e+001
1.095930e+003, 8.490440e+001
1.096412e+003, 8.460072e+001
1.096894e+003, 8.453707e+001
1.097376e+003, 8.447615e+001
1.097859e+003, 8.434348e+001
1.098341e+003, 8.394019e+001
1.098823e+003, 8.335310e+001
1.099305e+003, 8.319550e+001
1.099787e+003, 8.392414e+001
1.100269e+003, 8.442530e+001
1.100751e+003, 8.421268e+001
1.101233e+003, 8.394474e+001
1.101715e+003, 8.398413e+001
1.102198e+003, 8.410146e+001
1.102680e+003, 8.410034e+001
1.103162e+003, 8.394925e+001
1.103644e+003, 8.354586e+001
1.104126e+003, 8.263953e+001
1.104608e+003, 8.223849e+001
1.105090e+003, 8.283171e+001
1.105572e+003, 8.355451e+001
1.106054e+003, 8.422338e+001
1.106537e+003, 8.479929e+001
1.107019e+003, 8.520825e+001
1.107501e+003, 8.552017e+001
1.107983e+003, 8.595363e+001
1.108465e+003, 8.660770e+001
1.108947e+003, 8.690359e+001
1.109429e+003, 8.633562e+001
1.109911e+003, 8.605350e+001
1.110394e+003, 8.651443e+001
1.110876e+003, 8.708275e+001
1.111358e+003, 8.745739e+001
1.111840e+003, 8.765623e+001
1.112322e+003, 8.763599e+001
1.112804e+003, 8.737366e+001
1.113286e+003, 8.739011e+001
1.113768e+003, 8.791386e+001
1.114250e+003, 8.833607e+001
1.114733e+003, 8.855587e+001
1.115215e+003, 8.875229e+001
1.115697e+003, 8.903544e+001
1.116179e+003, 8.929873e+001
1.116661e+003, 8.936579e+001
1.117143e+003, 8.928635e+001
1.117625e+003, 8.945475e+001
1.118107e+003, 9.017055e+001
1.118589e+003, 9.039278e+001
1.119072e+003, 8.981794e+001
1.119554e+003, 8.932871e+001
1.120036e+003, 8.912495e+001
1.120518e+003, 8.924139e+001
1.121000e+003, 8.984732e+001
1.121482e+003, 9.069685e+001
1.121964e+003, 9.101820e+001
1.122446e+003, 9.067461e+001
1.122929e+003, 9.064739e+001
1.123411e+003, 9.102837e+001
1.123893e+003, 9.139902e+001
1.124375e+003, 9.163130e+001
1.124857e+003, 9.197356e+001
1.125339e+003, 9.262863e+001
1.125821e+003, 9.339104e+001
1.126303e+003, 9.391457e+001
1.126786e+003, 9.420398e+001
1.127268e+003, 9.433745e+001
1.127750e+003, 9.430217e+001
1.128232e+003, 9.418230e+001
1.128714e+003, 9.395814e+001
1.129196e+003, 9.390540e+001
1.129678e+003, 9.416961e+001
1.130160e+003, 9.454276e+001
1.130642e+003, 9.480267e+001
1.131125e+003, 9.495798e+001
1.131607e+003, 9.497126e+001
1.132089e+003, 9.486423e+001
1.132571e+003, 9.512322e+001
1.133053e+003, 9.575871e+001
1.133535e+003, 9.597617e+001
1.134017e+003, 9.553470e+001
1.134499e+003, 9.520621e+001
1.134981e+003, 9.561723e+001
1.135464e+003, 9.635079e+001
1.135946e+003, 9.667644e+001
1.136428e+003, 9.667387e+001
1.136910e+003, 9.644460e+001
1.137392e+003, 9.614891e+001
1.137874e+003, 9.670943e+001
1.138356e+003, 9.815305e+001
1.138838e+003, 9.944614e+001
1.139321e+003, 1.000648e+002
1.139803e+003, 1.001264e+002
1.140285e+003, 9.943143e+001
1.140767e+003, 9.858606e+001
1.141249e+003, 9.889260e+001
1.141731e+003, 9.983504e+001
1.142213e+003, 1.002686e+002
1.142695e+003, 1.002243e+002
1.143177e+003, 1.002676e+002
1.143660e+003, 1.005783e+002
1.144142e+003, 1.009825e+002
1.144624e+003, 1.013694e+002
1.145106e+003, 1.017757e+002
1.145588e+003, 1.023381e+002
1.146070e+003, 1.028646e+002
1.146552e+003, 1.029948e+002
1.147034e+003, 1.029572e+002
1.147516e+003, 1.031733e+002
1.147999e+003, 1.036891e+002
1.148481e+003, 1.043802e+002
1.148963e+003, 1.052704e+002
1.149445e+003, 1.058598e+002
1.149927e+003, 1.055322e+002
1.150409e+003, 1.051310e+002
1.150891e+003, 1.053396e+002
1.151373e+003, 1.057366e+002
1.151856e+003, 1.057289e+002
1.152338e+003, 1.055446e+002
1.152820e+003, 1.058909e+002
1.153302e+003, 1.069115e+002
1.153784e+003, 1.077121e+002
1.154266e+003, 1.077165e+002
1.154748e+003, 1.078513e+002
1.155230e+003, 1.084495e+002
1.155713e+003, 1.092395e+002
1.156195e+003, 1.102853e+002
1.156677e+003, 1.112746e+002
1.157159e+003, 1.116755e+002
1.157641e+003, 1.115982e+002
1.158123e+003, 1.119474e+002
1.158605e+003, 1.129794e+002
1.159087e+003, 1.140786e+002
1.159569e+003, 1.154004e+002
1.160052e+003, 1.165280e+002
1.160534e+003, 1.174171e+002
1.161016e+003, 1.180023e+002
1.161498e+003, 1.180246e+002
1.161980e+003, 1.178231e+002
1.162462e+003, 1.181580e+002
1.162944e+003, 1.190821e+002
1.163426e+003, 1.199888e+002
1.163908e+003, 1.209082e+002
1.164391e+003, 1.216800e+002
1.164873e+003, 1.221609e+002
1.165355e+003, 1.228924e+002
1.165837e+003, 1.242794e+002
1.166319e+003, 1.256149e+002
1.166801e+003, 1.259505e+002
1.167283e+003, 1.256553e+002
1.167765e+003, 1.263670e+002
1.168247e+003, 1.281297e+002
1.168730e+003, 1.294835e+002
1.169212e+003, 1.303481e+002
1.169694e+003, 1.313850e+002
1.170176e+003, 1.327728e+002
1.170658e+003, 1.341993e+002
1.171140e+003, 1.354521e+002
1.171622e+003, 1.366105e+002
1.172104e+003, 1.377667e+002
1.172587e+003, 1.389476e+002
1.173069e+003, 1.403902e+002
1.173551e+003, 1.419411e+002
1.174033e+003, 1.428653e+002
1.174515e+003, 1.432448e+002
1.174997e+003, 1.439615e+002
1.175479e+003, 1.453422e+002
1.175961e+003, 1.469588e+002
1.176443e+003, 1.484789e+002
1.176926e+003, 1.500296e+002
1.177408e+003, 1.517963e+002
1.177890e+003, 1.536739e+002
1.178372e+003, 1.555388e+002
1.178854e+003, 1.573820e+002
1.179336e+003, 1.592031e+002
1.179818e+003, 1.610214e+002
1.180300e+003, 1.628517e+002
1.180782e+003, 1.647026e+002
1.181265e+003, 1.665489e+002
1.181747e+003, 1.682905e+002
1.182229e+003, 1.701134e+002
1.182711e+003, 1.721599e+002
1.183193e+003, 1.743174e+002
1.183675e+003, 1.763526e+002
1.184157e+003, 1.784648e+002
1.184639e+003, 1.812294e+002
1.185122e+003, 1.846588e+002
1.185604e+003, 1.875448e+002
1.186086e+003, 1.892585e+002
1.186568e+003, 1.910052e+002
1.187050e+003, 1.926637e+002
1.187532e+003, 1.947962e+002
1.188014e+003, 1.979536e+002
1.188496e+003, 2.014138e+002
1.188979e+003, 2.045282e+002
1.189461e+003, 2.074009e+002
1.189943e+003, 2.102256e+002
1.190425e+003, 2.129446e+002
1.190907e+003, 2.159470e+002
1.191389e+003, 2.193418e+002
1.191871e+003, 2.227258e+002
1.192353e+003, 2.261503e+002
1.192835e+003, 2.291056e+002
1.193318e+003, 2.311333e+002
1.193800e+003, 2.331699e+002
1.194282e+003, 2.364043e+002
1.194764e+003, 2.405240e+002
1.195246e+003, 2.442510e+002
1.195728e+003, 2.476061e+002
1.196210e+003, 2.512150e+002
1.196692e+003, 2.550671e+002
1.197174e+003, 2.587157e+002
1.197657e+003, 2.620449e+002
1.198139e+003, 2.653837e+002
1.198621e+003, 2.689375e+002
1.199103e+003, 2.725190e+002
1.199585e+003, 2.757886e+002
1.200067e+003, 2.789476e+002
1.200549e+003, 2.823752e+002
1.201031e+003, 2.860682e+002
1.201514e+003, 2.900797e+002
1.201996e+003, 2.943673e+002
1.202478e+003, 2.989882e+002
1.202960e+003, 3.038461e+002
1.203442e+003, 3.081622e+002
1.203924e+003, 3.114094e+002
1.204406e+003, 3.142367e+002
1.204888e+003, 3.168730e+002
1.205370e+003, 3.195544e+002
1.205853e+003, 3.225337e+002
1.206335e+003, 3.256107e+002
1.206817e+003, 3.283820e+002
1.207299e+003, 3.310862e+002
1.207781e+003, 3.345126e+002
1.208263e+003, 3.388632e+002
1.208745e+003, 3.428593e+002
1.209227e+003, 3.461247e+002
1.209709e+003, 3.490802e+002
1.210192e+003, 3.513040e+002
1.210674e+003, 3.538783e+002
1.211156e+003, 3.577944e+002
1.211638e+003, 3.619203e+002
1.212120e+003, 3.649720e+002
1.212602e+003, 3.673203e+002
1.213084e+003, 3.704115e+002
1.213566e+003, 3.745304e+002
1.214049e+003, 3.779277e+002
1.214531e+003, 3.804864e+002
1.215013e+003, 3.827388e+002
1.215495e+003, 3.847256e+002
1.215977e+003, 3.867117e+002
1.216459e+003, 3.888432e+002
1.216941e+003, 3.909648e+002
1.217423e+003, 3.928717e+002
1.217906e+003, 3.946371e+002
1.218388e+003, 3.965035e+002
1.218870e+003, 3.984195e+002
1.219352e+003, 4.000871e+002
1.219834e+003, 4.015505e+002
1.220316e+003, 4.031217e+002
1.220798e+003, 4.048469e+002
1.221280e+003, 4.064986e+002
1.221762e+003, 4.079580e+002
1.222245e+003, 4.093626e+002
1.222727e+003, 4.107718e+002
1.223209e+003, 4.122796e+002
1.223691e+003, 4.143246e+002
1.224173e+003, 4.162809e+002
1.224655e+003, 4.170477e+002
1.225137e+003, 4.171660e+002
1.225619e+003, 4.181342e+002
1.226101e+003, 4.198693e+002
1.226584e+003, 4.202835e+002
1.227066e+003, 4.182009e+002
1.227548e+003, 4.161024e+002
1.228030e+003, 4.144878e+002
1.228512e+003, 4.134985e+002
1.228994e+003, 4.138713e+002
1.229476e+003, 4.142339e+002
1.229958e+003, 4.131327e+002
1.230441e+003, 4.114927e+002
1.230923e+003, 4.111674e+002
1.231405e+003, 4.120931e+002
1.231887e+003, 4.120575e+002
1.232369e+003, 4.106201e+002
1.232851e+003, 4.096130e+002
1.233333e+003, 4.093153e+002
1.233815e+003, 4.086325e+002
1.234297e+003, 4.071148e+002
1.234780e+003, 4.057282e+002
1.235262e+003, 4.052623e+002
1.235744e+003, 4.049265e+002
1.236226e+003, 4.032051e+002
1.236708e+003, 4.005340e+002
1.237190e+003, 3.989320e+002
1.237672e+003, 3.980470e+002
1.238154e+003, 3.960343e+002
1.238636e+003, 3.930309e+002
1.239119e+003, 3.906944e+002
1.239601e+003, 3.894078e+002
1.240083e+003, 3.879951e+002
1.240565e+003, 3.856607e+002
1.241047e+003, 3.832336e+002
1.241529e+003, 3.815443e+002
1.242011e+003, 3.801147e+002
1.242493e+003, 3.785548e+002
1.242975e+003, 3.768915e+002
1.243458e+003, 3.752669e+002
1.243940e+003, 3.735469e+002
1.244422e+003, 3.714392e+002
1.244904e+003, 3.689048e+002
1.245386e+003, 3.662285e+002
1.245868e+003, 3.631616e+002
1.246350e+003, 3.605742e+002
1.246832e+003, 3.587033e+002
1.247315e+003, 3.572108e+002
1.247797e+003, 3.563898e+002
1.248279e+003, 3.553935e+002
1.248761e+003, 3.534939e+002
1.249243e+003, 3.511571e+002
1.249725e+003, 3.492003e+002
1.250207e+003, 3.476058e+002
1.250689e+003, 3.460932e+002
1.251172e+003, 3.446747e+002
1.251654e+003, 3.431743e+002
1.252136e+003, 3.415729e+002
1.252618e+003, 3.396834e+002
1.253100e+003, 3.374528e+002
1.253582e+003, 3.357543e+002
1.254064e+003, 3.352435e+002
1.254546e+003, 3.350721e+002
1.255028e+003, 3.340178e+002
1.255510e+003, 3.325476e+002
1.255993e+003, 3.315058e+002
1.256475e+003, 3.307295e+002
1.256957e+003, 3.300590e+002
1.257439e+003, 3.293618e+002
1.257921e+003, 3.282997e+002
1.258403e+003, 3.269109e+002
1.258885e+003, 3.257414e+002
1.259367e+003, 3.250058e+002
1.259850e+003, 3.246009e+002
1.260332e+003, 3.246733e+002
1.260814e+003, 3.248102e+002
1.261296e+003, 3.245746e+002
1.261778e+003, 3.245743e+002
1.262260e+003, 3.256740e+002
1.262742e+003, 3.270848e+002
1.263224e+003, 3.273456e+002
1.263707e+003, 3.266579e+002
1.264189e+003, 3.268293e+002
1.264671e+003, 3.283966e+002
1.265153e+003, 3.288813e+002
1.265635e+003, 3.279427e+002
1.266117e+003, 3.274129e+002
1.266599e+003, 3.277417e+002
1.267081e+003, 3.281804e+002
1.267563e+003, 3.282862e+002
1.268046e+003, 3.285717e+002
1.268528e+003, 3.298124e+002
1.269010e+003, 3.313730e+002
1.269492e+003, 3.314433e+002
1.269974e+003, 3.308096e+002
1.270456e+003, 3.314979e+002
1.270938e+003, 3.332456e+002
1.271420e+003, 3.351483e+002
1.271902e+003, 3.369860e+002
1.272385e+003, 3.388413e+002
1.272867e+003, 3.407441e+002
1.273349e+003, 3.422827e+002
1.273831e+003, 3.430850e+002
1.274313e+003, 3.436501e+002
1.274795e+003, 3.438238e+002
1.275277e+003, 3.443160e+002
1.275759e+003, 3.456823e+002
1.276242e+003, 3.475641e+002
1.276724e+003, 3.497868e+002
1.277206e+003, 3.521341e+002
1.277688e+003, 3.539351e+002
1.278170e+003, 3.551326e+002
1.278652e+003, 3.562824e+002
1.279134e+003, 3.573109e+002
1.279616e+003, 3.585239e+002
1.280099e+003, 3.599045e+002
1.280581e+003, 3.618328e+002
1.281063e+003, 3.645348e+002
1.281545e+003, 3.669662e+002
1.282027e+003, 3.682756e+002
1.282509e+003, 3.690856e+002
1.282991e+003, 3.704009e+002
1.283473e+003, 3.720313e+002
1.283955e+003, 3.736458e+002
##END=



